SpectraSuite Data File
++++++++++++++++++++++++++++++++++++
Date: Tue Jan 29 16:38:30 EST 2013
User: group
Dark Spectrum Present: No
Reference Spectrum Present: No
Number of Sampled Component Spectra: 1
Spectrometers: USB2E7196
Integration Time (usec): 65000 (USB2E7196)
Spectra Averaged: 100 (USB2E7196)
Boxcar Smoothing: 10 (USB2E7196)
Correct for Electrical Dark: No (USB2E7196)
Strobe/Lamp Enabled: No (USB2E7196)
Correct for Detector Non-linearity: No (USB2E7196)
Correct for Stray Light: No (USB2E7196)
Number of Pixels in Processed Spectrum: 2048
>>>>>Begin Processed Spectral Data<<<<<
339.09	0.00
339.48	201.61
339.86	203.09
340.24	204.83
340.63	206.34
341.01	210.26
341.39	208.86
341.78	210.48
342.16	211.50
342.54	211.57
342.93	201.08
343.31	211.23
343.69	211.80
344.07	212.25
344.46	212.70
344.84	213.08
345.22	213.28
345.60	213.57
345.99	213.79
346.37	213.95
346.75	214.08
347.13	214.18
347.52	214.24
347.90	214.38
348.28	214.44
348.66	214.50
349.05	214.48
349.43	214.54
349.81	214.59
350.19	214.62
350.57	214.70
350.96	214.81
351.34	214.92
351.72	214.99
352.10	215.14
352.48	215.22
352.87	215.28
353.25	215.36
353.63	215.41
354.01	215.44
354.39	215.51
354.77	215.55
355.15	215.68
355.54	215.72
355.92	215.74
356.30	215.82
356.68	215.99
357.06	216.07
357.44	216.10
357.82	216.17
358.20	216.23
358.58	216.30
358.97	216.37
359.35	216.48
359.73	216.58
360.11	216.61
360.49	216.69
360.87	216.74
361.25	216.78
361.63	216.88
362.01	216.94
362.39	216.96
362.77	217.05
363.15	217.03
363.53	217.09
363.91	217.11
364.29	217.11
364.67	216.94
365.05	216.95
365.43	217.02
365.81	217.03
366.19	217.14
366.57	217.21
366.95	217.20
367.33	217.11
367.71	217.12
368.09	217.15
368.47	217.14
368.85	217.11
369.23	217.12
369.61	217.00
369.99	217.02
370.37	217.05
370.75	217.13
371.13	217.08
371.51	217.01
371.89	216.98
372.27	216.96
372.65	216.96
373.03	216.93
373.41	216.87
373.78	216.83
374.16	216.70
374.54	216.62
374.92	216.56
375.30	216.55
375.68	216.45
376.06	216.44
376.44	216.37
376.82	216.36
377.19	216.33
377.57	216.28
377.95	216.20
378.33	216.12
378.71	215.92
379.09	215.94
379.47	215.92
379.84	215.90
380.22	215.82
380.60	215.75
380.98	215.73
381.36	215.65
381.73	215.60
382.11	215.59
382.49	215.54
382.87	215.49
383.25	215.45
383.62	215.65
384.00	215.53
384.38	215.51
384.76	215.49
385.13	215.52
385.51	215.53
385.89	215.50
386.27	215.46
386.64	215.48
387.02	215.41
387.40	215.34
387.78	215.31
388.15	215.29
388.53	215.25
388.91	215.19
389.29	215.19
389.66	215.18
390.04	215.15
390.42	215.15
390.79	215.16
391.17	215.15
391.55	214.90
391.92	214.90
392.30	214.94
392.68	214.90
393.05	214.88
393.43	214.88
393.81	214.88
394.18	214.85
394.56	214.86
394.94	214.93
395.31	214.94
395.69	215.02
396.06	215.08
396.44	215.14
396.82	215.18
397.19	215.32
397.57	215.32
397.95	215.36
398.32	215.36
398.70	215.40
399.07	215.48
399.45	215.56
399.82	215.63
400.20	215.66
400.58	215.73
400.95	215.71
401.33	215.83
401.70	216.04
402.08	216.15
402.45	216.23
402.83	216.37
403.20	216.52
403.58	216.59
403.95	216.73
404.33	216.89
404.71	217.04
405.08	217.29
405.46	217.51
405.83	217.72
406.21	217.91
406.58	218.15
406.96	218.38
407.33	218.60
407.70	218.89
408.08	219.35
408.45	219.74
408.83	220.15
409.20	220.50
409.58	220.77
409.95	221.21
410.33	221.71
410.70	222.15
411.08	222.68
411.45	223.24
411.82	223.82
412.20	224.50
412.57	225.36
412.95	225.91
413.32	226.72
413.69	227.58
414.07	228.48
414.44	229.45
414.82	230.49
415.19	231.69
415.56	232.87
415.94	234.02
416.31	235.40
416.68	236.82
417.06	238.43
417.43	239.98
417.81	241.75
418.18	243.55
418.55	245.50
418.93	247.55
419.30	249.68
419.67	251.93
420.04	254.23
420.42	256.65
420.79	259.51
421.16	262.30
421.54	265.21
421.91	268.24
422.28	271.36
422.66	274.66
423.03	277.91
423.40	281.30
423.77	284.92
424.15	288.57
424.52	292.41
424.89	296.56
425.26	300.66
425.64	304.54
426.01	308.83
426.38	313.31
426.75	317.87
427.13	322.61
427.50	327.60
427.87	332.77
428.24	337.93
428.61	342.94
428.99	348.50
429.36	354.52
429.73	360.44
430.10	366.31
430.47	372.38
430.85	378.74
431.22	385.45
431.59	392.58
431.96	399.46
432.33	406.97
432.70	414.29
433.08	422.83
433.45	430.85
433.82	438.85
434.19	447.78
434.56	456.46
434.93	464.84
435.30	473.14
435.68	482.29
436.05	491.30
436.42	500.21
436.79	508.35
437.16	517.14
437.53	526.44
437.90	535.65
438.27	544.61
438.64	553.90
439.01	562.48
439.38	570.04
439.75	577.40
440.13	585.84
440.50	593.79
440.87	600.25
441.24	606.94
441.61	614.27
441.98	619.59
442.35	625.99
442.72	632.33
443.09	638.40
443.46	642.17
443.83	644.68
444.20	646.85
444.57	650.07
444.94	651.50
445.31	652.93
445.68	654.29
446.05	654.96
446.42	654.09
446.79	653.13
447.16	652.04
447.53	651.30
447.90	648.01
448.27	644.75
448.64	640.08
449.01	636.77
449.37	630.93
449.74	625.32
450.11	618.39
450.48	611.03
450.85	603.57
451.22	597.08
451.59	590.97
451.96	585.15
452.33	577.29
452.70	570.20
453.07	561.65
453.43	553.04
453.80	544.67
454.17	536.69
454.54	529.12
454.91	520.94
455.28	512.90
455.65	505.41
456.02	497.87
456.38	491.56
456.75	483.68
457.12	477.06
457.49	470.51
457.86	464.30
458.23	458.86
458.59	452.87
458.96	446.88
459.33	441.53
459.70	436.14
460.07	431.80
460.43	426.86
460.80	422.32
461.17	418.30
461.54	414.12
461.91	410.09
462.27	405.96
462.64	402.55
463.01	398.79
463.38	395.15
463.74	391.45
464.11	388.15
464.48	385.31
464.85	382.23
465.21	379.78
465.58	377.13
465.95	373.97
466.32	371.39
466.68	368.75
467.05	366.18
467.42	363.62
467.78	360.93
468.15	358.40
468.52	356.43
468.88	353.91
469.25	351.73
469.62	349.91
469.98	347.96
470.35	346.10
470.72	344.38
471.08	342.52
471.45	340.97
471.82	339.44
472.18	337.72
472.55	336.51
472.92	335.11
473.28	333.89
473.65	332.73
474.02	331.60
474.38	330.70
474.75	329.93
475.11	329.06
475.48	328.47
475.85	328.00
476.21	327.53
476.58	327.22
476.94	326.96
477.31	326.65
477.67	326.37
478.04	326.21
478.41	326.16
478.77	326.30
479.14	326.24
479.50	326.37
479.87	326.69
480.23	327.01
480.60	327.26
480.96	327.54
481.33	328.10
481.69	328.63
482.06	329.14
482.42	329.63
482.79	330.27
483.15	331.07
483.52	332.00
483.88	332.86
484.25	333.76
484.61	334.77
484.98	335.75
485.34	337.10
485.71	338.50
486.07	339.95
486.44	341.32
486.80	342.95
487.17	344.70
487.53	346.52
487.90	348.39
488.26	350.40
488.62	352.59
488.99	354.64
489.35	356.79
489.72	359.18
490.08	361.67
490.44	364.25
490.81	366.90
491.17	369.63
491.54	372.63
491.90	375.68
492.26	378.92
492.63	382.39
492.99	385.90
493.36	389.58
493.72	393.40
494.08	397.36
494.45	401.59
494.81	405.88
495.17	410.37
495.54	415.07
495.90	419.90
496.26	424.84
496.63	430.08
496.99	435.50
497.35	441.06
497.72	446.91
498.08	452.82
498.44	459.01
498.80	465.48
499.17	471.97
499.53	478.68
499.89	485.60
500.26	492.59
500.62	499.66
500.98	507.09
501.34	514.59
501.71	522.37
502.07	530.20
502.43	538.22
502.79	546.34
503.16	554.70
503.52	563.26
503.88	572.00
504.24	580.94
504.60	590.01
504.97	599.29
505.33	608.55
505.69	618.48
506.05	628.30
506.41	638.14
506.78	648.24
507.14	658.50
507.50	669.00
507.86	679.74
508.22	690.49
508.59	701.09
508.95	712.21
509.31	723.56
509.67	735.07
510.03	746.52
510.39	758.35
510.75	770.29
511.12	782.33
511.48	794.47
511.84	806.73
512.20	819.09
512.56	831.76
512.92	844.59
513.28	857.28
513.64	870.16
514.00	883.13
514.37	896.20
514.73	909.36
515.09	922.39
515.45	935.32
515.81	948.61
516.17	962.13
516.53	975.41
516.89	988.60
517.25	1001.81
517.61	1015.42
517.97	1028.83
518.33	1042.01
518.69	1055.61
519.05	1069.36
519.41	1083.19
519.77	1097.23
520.13	1110.64
520.49	1124.06
520.85	1137.42
521.21	1150.81
521.57	1164.49
521.93	1177.68
522.29	1191.70
522.65	1205.41
523.01	1219.12
523.37	1232.26
523.73	1245.68
524.09	1259.00
524.45	1272.50
524.81	1286.03
525.17	1299.48
525.53	1312.76
525.89	1326.25
526.25	1339.43
526.61	1352.36
526.97	1365.52
527.33	1378.56
527.68	1392.17
528.04	1405.70
528.40	1419.00
528.76	1432.40
529.12	1445.38
529.48	1458.81
529.84	1471.02
530.20	1483.83
530.56	1496.55
530.91	1510.01
531.27	1522.99
531.63	1535.76
531.99	1548.59
532.35	1561.00
532.71	1573.60
533.07	1586.56
533.42	1598.84
533.78	1611.05
534.14	1623.32
534.50	1634.76
534.86	1646.29
535.21	1657.28
535.57	1668.92
535.93	1680.37
536.29	1691.66
536.65	1703.20
537.00	1714.20
537.36	1725.66
537.72	1736.77
538.08	1748.32
538.44	1759.28
538.79	1770.55
539.15	1781.59
539.51	1792.55
539.87	1803.88
540.22	1814.83
540.58	1825.85
540.94	1836.83
541.29	1847.31
541.65	1857.16
542.01	1867.64
542.37	1877.96
542.72	1888.22
543.08	1897.99
543.44	1908.51
543.79	1917.90
544.15	1927.55
544.51	1937.72
544.87	1947.71
545.22	1957.09
545.58	1965.97
545.94	1974.98
546.29	1983.49
546.65	1991.89
547.01	2000.11
547.36	2007.99
547.72	2015.86
548.07	2023.67
548.43	2031.55
548.79	2039.36
549.14	2047.65
549.50	2056.19
549.86	2064.15
550.21	2071.65
550.57	2079.43
550.92	2086.22
551.28	2093.80
551.64	2100.95
551.99	2108.40
552.35	2115.67
552.70	2122.55
553.06	2129.30
553.41	2135.70
553.77	2142.23
554.13	2148.79
554.48	2155.98
554.84	2163.25
555.19	2169.74
555.55	2176.07
555.90	2182.43
556.26	2189.27
556.61	2195.35
556.97	2200.19
557.32	2205.91
557.68	2212.37
558.03	2218.17
558.39	2223.67
558.74	2229.62
559.10	2235.31
559.45	2240.98
559.81	2246.60
560.16	2252.18
560.52	2257.97
560.87	2264.21
561.23	2270.19
561.58	2276.76
561.94	2281.80
562.29	2286.30
562.64	2292.24
563.00	2298.04
563.35	2303.49
563.71	2309.28
564.06	2314.84
564.42	2320.87
564.77	2326.06
565.12	2331.26
565.48	2336.38
565.83	2341.88
566.19	2347.24
566.54	2352.59
566.89	2357.18
567.25	2361.63
567.60	2367.32
567.96	2372.47
568.31	2377.07
568.66	2381.35
569.02	2385.19
569.37	2388.97
569.72	2393.39
570.08	2396.88
570.43	2399.94
570.78	2403.15
571.14	2405.71
571.49	2408.95
571.84	2412.30
572.20	2415.12
572.55	2418.02
572.90	2420.26
573.26	2423.02
573.61	2425.51
573.96	2427.59
574.31	2429.54
574.67	2431.34
575.02	2432.14
575.37	2433.52
575.72	2434.18
576.08	2435.60
576.43	2435.78
576.78	2436.17
577.13	2437.74
577.49	2438.84
577.84	2439.80
578.19	2440.93
578.54	2441.49
578.90	2441.97
579.25	2441.82
579.60	2441.68
579.95	2440.78
580.30	2440.85
580.66	2439.97
581.01	2438.21
581.36	2435.73
581.71	2434.22
582.06	2432.99
582.42	2431.99
582.77	2429.66
583.12	2427.91
583.47	2426.33
583.82	2425.48
584.17	2424.12
584.53	2421.78
584.88	2419.66
585.23	2417.59
585.58	2415.13
585.93	2412.98
586.28	2410.71
586.63	2408.12
586.98	2405.69
587.34	2403.73
587.69	2401.16
588.04	2399.07
588.39	2397.49
588.74	2395.05
589.09	2392.22
589.44	2388.99
589.79	2386.27
590.14	2384.29
590.49	2381.29
590.84	2377.36
591.19	2374.21
591.54	2370.94
591.89	2366.89
592.25	2363.42
592.60	2359.09
592.95	2354.90
593.30	2350.49
593.65	2346.00
594.00	2341.43
594.35	2338.37
594.70	2333.44
595.05	2328.70
595.40	2323.06
595.75	2317.15
596.10	2313.32
596.45	2308.33
596.80	2303.67
597.15	2298.43
597.50	2292.27
597.85	2287.19
598.19	2281.87
598.54	2276.10
598.89	2270.94
599.24	2266.24
599.59	2259.97
599.94	2254.12
600.29	2248.00
600.64	2242.07
600.99	2235.23
601.34	2229.78
601.69	2222.65
602.04	2216.26
602.39	2209.62
602.74	2203.42
603.08	2197.89
603.43	2191.16
603.78	2184.31
604.13	2177.17
604.48	2169.82
604.83	2163.69
605.18	2157.52
605.53	2150.59
605.87	2143.35
606.22	2136.39
606.57	2128.44
606.92	2120.53
607.27	2113.54
607.62	2106.94
607.96	2099.82
608.31	2093.31
608.66	2085.63
609.01	2078.11
609.36	2071.08
609.70	2063.32
610.05	2055.54
610.40	2047.25
610.75	2039.06
611.10	2031.36
611.44	2022.42
611.79	2013.74
612.14	2003.86
612.49	1993.09
612.83	1983.71
613.18	1974.42
613.53	1965.01
613.88	1955.40
614.22	1946.70
614.57	1936.77
614.92	1926.21
615.27	1916.14
615.61	1906.01
615.96	1896.26
616.31	1886.60
616.65	1877.08
617.00	1867.25
617.35	1857.69
617.70	1848.01
618.04	1837.90
618.39	1827.54
618.74	1817.88
619.08	1808.18
619.43	1799.39
619.78	1791.30
620.12	1782.70
620.47	1773.16
620.82	1762.83
621.16	1752.96
621.51	1743.14
621.85	1733.31
622.20	1722.96
622.55	1712.33
622.89	1702.40
623.24	1692.62
623.59	1682.88
623.93	1672.91
624.28	1663.18
624.62	1652.92
624.97	1642.63
625.32	1632.87
625.66	1624.11
626.01	1615.43
626.35	1606.18
626.70	1596.31
627.04	1586.12
627.39	1575.96
627.73	1566.65
628.08	1557.74
628.43	1548.41
628.77	1539.25
629.12	1530.45
629.46	1522.64
629.81	1514.32
630.15	1504.85
630.50	1495.02
630.84	1484.56
631.19	1474.53
631.53	1465.28
631.88	1455.19
632.22	1445.11
632.57	1435.83
632.91	1425.66
633.26	1415.70
633.60	1405.99
633.95	1396.58
634.29	1387.18
634.64	1377.86
634.98	1367.90
635.32	1358.54
635.67	1349.98
636.01	1340.80
636.36	1331.03
636.70	1321.46
637.05	1312.09
637.39	1303.28
637.73	1294.73
638.08	1287.16
638.42	1279.03
638.77	1270.24
639.11	1262.01
639.45	1254.29
639.80	1245.67
640.14	1237.03
640.49	1228.23
640.83	1219.39
641.17	1211.27
641.52	1203.14
641.86	1194.59
642.20	1186.92
642.55	1178.40
642.89	1169.43
643.23	1160.73
643.58	1152.66
643.92	1143.68
644.26	1134.99
644.61	1126.49
644.95	1117.71
645.29	1108.45
645.64	1099.31
645.98	1090.90
646.32	1083.00
646.66	1074.46
647.01	1066.18
647.35	1058.10
647.69	1049.88
648.04	1041.67
648.38	1032.72
648.72	1023.89
649.06	1015.49
649.41	1007.16
649.75	999.18
650.09	991.41
650.43	983.26
650.78	974.90
651.12	967.14
651.46	959.71
651.80	952.39
652.14	945.06
652.49	937.52
652.83	930.08
653.17	922.31
653.51	914.63
653.85	907.28
654.20	900.02
654.54	892.48
654.88	885.09
655.22	877.85
655.56	870.85
655.90	864.11
656.25	857.37
656.59	850.38
656.93	843.35
657.27	836.10
657.61	829.17
657.95	823.03
658.29	817.13
658.64	811.01
658.98	804.55
659.32	798.00
659.66	791.76
660.00	785.49
660.34	779.35
660.68	773.24
661.02	767.01
661.36	761.00
661.70	755.14
662.05	749.54
662.39	744.00
662.73	738.56
663.07	733.11
663.41	727.46
663.75	721.73
664.09	715.99
664.43	710.58
664.77	705.20
665.11	699.33
665.45	693.38
665.79	687.53
666.13	681.77
666.47	676.23
666.81	670.72
667.15	665.23
667.49	660.01
667.83	654.69
668.17	649.32
668.51	644.16
668.85	639.14
669.19	634.16
669.53	629.13
669.87	623.99
670.21	619.18
670.55	614.45
670.89	610.03
671.23	605.71
671.57	601.28
671.91	596.89
672.25	592.72
672.58	588.54
672.92	584.48
673.26	580.56
673.60	576.64
673.94	572.81
674.28	569.17
674.62	565.40
674.96	561.64
675.30	558.20
675.64	554.51
675.97	550.95
676.31	547.34
676.65	543.72
676.99	540.30
677.33	536.41
677.67	532.76
678.01	528.89
678.34	525.26
678.68	521.77
679.02	518.17
679.36	514.44
679.70	510.78
680.04	507.16
680.37	503.64
680.71	500.30
681.05	497.09
681.39	493.80
681.73	490.63
682.06	487.50
682.40	484.32
682.74	481.08
683.08	477.82
683.42	474.65
683.75	471.60
684.09	468.56
684.43	465.77
684.77	462.77
685.10	459.90
685.44	456.89
685.78	453.91
686.12	451.07
686.45	448.36
686.79	445.60
687.13	443.07
687.46	440.40
687.80	437.68
688.14	434.78
688.48	432.12
688.81	429.39
689.15	426.83
689.49	424.19
689.82	421.69
690.16	419.07
690.50	416.53
690.83	414.02
691.17	411.41
691.51	408.90
691.84	406.63
692.18	404.34
692.52	402.09
692.85	399.89
693.19	397.73
693.52	395.49
693.86	393.28
694.20	391.04
694.53	388.88
694.87	386.66
695.21	384.54
695.54	382.36
695.88	380.18
696.21	377.92
696.55	375.77
696.88	373.65
697.22	371.65
697.56	369.72
697.89	367.76
698.23	365.97
698.56	364.10
698.90	362.30
699.23	360.37
699.57	358.49
699.90	356.59
700.24	354.73
700.58	352.95
700.91	351.27
701.25	349.68
701.58	348.00
701.92	346.40
702.25	344.71
702.59	343.06
702.92	341.50
703.26	339.99
703.59	338.44
703.93	337.12
704.26	335.71
704.60	334.15
704.93	332.68
705.26	331.18
705.60	329.72
705.93	328.18
706.27	326.86
706.60	325.58
706.94	324.31
707.27	322.92
707.61	321.56
707.94	320.19
708.27	318.66
708.61	317.26
708.94	315.85
709.28	314.55
709.61	313.28
709.94	312.04
710.28	310.77
710.61	309.62
710.95	308.21
711.28	307.11
711.61	305.93
711.95	304.74
712.28	303.49
712.61	302.29
712.95	301.23
713.28	300.16
713.61	298.98
713.95	297.82
714.28	296.77
714.61	295.67
714.95	294.65
715.28	293.58
715.61	292.56
715.95	291.54
716.28	290.56
716.61	289.61
716.95	288.60
717.28	287.68
717.61	286.67
717.94	285.74
718.28	284.67
718.61	283.75
718.94	282.85
719.27	282.02
719.61	281.22
719.94	280.32
720.27	279.35
720.60	278.47
720.94	277.70
721.27	276.92
721.60	276.24
721.93	275.48
722.27	274.83
722.60	274.13
722.93	273.44
723.26	272.77
723.59	272.04
723.93	271.38
724.26	270.68
724.59	270.03
724.92	269.42
725.25	268.89
725.59	268.31
725.92	267.76
726.25	267.17
726.58	266.56
726.91	265.91
727.24	265.33
727.57	264.76
727.91	264.10
728.24	263.51
728.57	262.91
728.90	262.37
729.23	261.74
729.56	261.31
729.89	260.73
730.22	260.13
730.55	259.59
730.89	259.04
731.22	258.52
731.55	257.97
731.88	257.41
732.21	256.83
732.54	256.29
732.87	255.78
733.20	255.27
733.53	254.72
733.86	254.28
734.19	253.75
734.52	253.34
734.85	253.04
735.18	252.59
735.51	252.22
735.84	251.77
736.17	251.36
736.50	250.80
736.83	250.63
737.16	250.21
737.49	249.81
737.82	249.40
738.15	249.01
738.48	248.61
738.81	248.24
739.14	247.78
739.47	247.37
739.80	246.96
740.13	246.61
740.46	246.23
740.79	245.86
741.12	245.52
741.45	245.14
741.78	244.74
742.11	244.47
742.44	244.08
742.77	243.79
743.10	243.42
743.43	243.09
743.75	242.50
744.08	242.45
744.41	242.10
744.74	241.76
745.07	241.37
745.40	241.07
745.73	240.82
746.06	240.47
746.39	240.18
746.71	239.85
747.04	239.48
747.37	239.15
747.70	238.86
748.03	238.54
748.36	238.28
748.68	237.93
749.01	237.53
749.34	237.19
749.67	236.89
750.00	236.63
750.33	236.45
750.65	236.21
750.98	235.68
751.31	235.42
751.64	235.19
751.97	235.09
752.29	234.84
752.62	234.46
752.95	234.21
753.28	233.90
753.60	233.68
753.93	233.53
754.26	233.32
754.59	233.04
754.91	232.78
755.24	232.51
755.57	232.29
755.90	232.07
756.22	231.86
756.55	231.62
756.88	231.38
757.20	231.05
757.53	230.81
757.86	230.60
758.19	230.39
758.51	230.20
758.84	229.87
759.17	229.67
759.49	229.50
759.82	229.44
760.15	229.30
760.47	229.11
760.80	228.86
761.13	228.70
761.45	228.50
761.78	228.33
762.11	228.15
762.43	227.96
762.76	227.81
763.08	227.67
763.41	227.48
763.74	227.34
764.06	227.21
764.39	227.04
764.71	226.90
765.04	226.75
765.37	226.55
765.69	226.41
766.02	226.26
766.34	226.12
766.67	225.87
767.00	225.76
767.32	225.70
767.65	225.67
767.97	225.52
768.30	225.43
768.62	225.32
768.95	225.14
769.27	224.96
769.60	224.83
769.92	224.65
770.25	224.50
770.57	224.33
770.90	224.18
771.22	224.04
771.55	223.92
771.87	223.79
772.20	223.67
772.52	223.72
772.85	223.85
773.17	223.74
773.50	223.66
773.82	223.55
774.15	223.36
774.47	223.16
774.80	223.07
775.12	222.94
775.45	222.82
775.77	222.77
776.09	222.74
776.42	222.67
776.74	222.68
777.07	222.58
777.39	222.49
777.72	222.38
778.04	222.30
778.36	222.20
778.69	222.14
779.01	222.07
779.33	221.83
779.66	221.51
779.98	221.40
780.31	221.33
780.63	221.34
780.95	221.30
781.28	221.19
781.60	221.10
781.92	221.05
782.25	221.00
782.57	220.94
782.89	220.85
783.22	220.76
783.54	220.62
783.86	220.57
784.19	220.51
784.51	220.54
784.83	220.44
785.16	220.38
785.48	220.32
785.80	220.25
786.12	220.19
