SpectraSuite Data File
++++++++++++++++++++++++++++++++++++
Date: Tue Jan 29 16:53:27 EST 2013
User: group
Dark Spectrum Present: No
Reference Spectrum Present: No
Number of Sampled Component Spectra: 1
Spectrometers: USB2E7196
Integration Time (usec): 65000 (USB2E7196)
Spectra Averaged: 100 (USB2E7196)
Boxcar Smoothing: 10 (USB2E7196)
Correct for Electrical Dark: No (USB2E7196)
Strobe/Lamp Enabled: No (USB2E7196)
Correct for Detector Non-linearity: No (USB2E7196)
Correct for Stray Light: No (USB2E7196)
Number of Pixels in Processed Spectrum: 2048
>>>>>Begin Processed Spectral Data<<<<<
339.09	0.00
339.48	200.96
339.86	202.88
340.24	204.28
340.63	205.48
341.01	209.88
341.39	208.55
341.78	209.90
342.16	211.18
342.54	211.41
342.93	200.57
343.31	210.70
343.69	211.24
344.07	211.69
344.46	212.13
344.84	212.51
345.22	212.67
345.60	212.91
345.99	213.09
346.37	213.22
346.75	213.33
347.13	213.41
347.52	213.48
347.90	213.56
348.28	213.58
348.66	213.69
349.05	213.64
349.43	213.69
349.81	213.74
350.19	213.82
350.57	213.88
350.96	213.94
351.34	214.09
351.72	214.21
352.10	214.34
352.48	214.40
352.87	214.42
353.25	214.51
353.63	214.60
354.01	214.68
354.39	214.76
354.77	214.82
355.15	214.97
355.54	215.06
355.92	215.09
356.30	215.19
356.68	215.37
357.06	215.49
357.44	215.55
357.82	215.60
358.20	215.68
358.58	215.74
358.97	215.82
359.35	215.87
359.73	215.98
360.11	216.01
360.49	216.12
360.87	216.23
361.25	216.31
361.63	216.38
362.01	216.43
362.39	216.46
362.77	216.52
363.15	216.54
363.53	216.57
363.91	216.64
364.29	216.68
364.67	216.52
365.05	216.52
365.43	216.55
365.81	216.67
366.19	216.74
366.57	216.85
366.95	216.86
367.33	216.84
367.71	216.84
368.09	216.90
368.47	216.87
368.85	216.86
369.23	216.92
369.61	216.84
369.99	216.90
370.37	216.94
370.75	217.04
371.13	216.97
371.51	216.92
371.89	216.90
372.27	216.87
372.65	216.86
373.03	216.87
373.41	216.81
373.78	216.74
374.16	216.62
374.54	216.47
374.92	216.42
375.30	216.35
375.68	216.27
376.06	216.24
376.44	216.19
376.82	216.15
377.19	216.08
377.57	216.02
377.95	215.92
378.33	215.86
378.71	215.72
379.09	215.70
379.47	215.69
379.84	215.62
380.22	215.56
380.60	215.50
380.98	215.42
381.36	215.39
381.73	215.32
382.11	215.33
382.49	215.34
382.87	215.28
383.25	215.26
383.62	215.46
384.00	215.38
384.38	215.35
384.76	215.39
385.13	215.39
385.51	215.42
385.89	215.35
386.27	215.31
386.64	215.29
387.02	215.23
387.40	215.20
387.78	215.19
388.15	215.20
388.53	215.19
388.91	215.17
389.29	215.11
389.66	215.11
390.04	215.05
390.42	215.06
390.79	215.03
391.17	215.05
391.55	214.76
391.92	214.78
392.30	214.80
392.68	214.76
393.05	214.72
393.43	214.71
393.81	214.75
394.18	214.73
394.56	214.74
394.94	214.80
395.31	214.79
395.69	214.87
396.06	214.90
396.44	214.90
396.82	214.93
397.19	215.06
397.57	215.06
397.95	215.15
398.32	215.10
398.70	215.16
399.07	215.23
399.45	215.33
399.82	215.36
400.20	215.39
400.58	215.45
400.95	215.46
401.33	215.59
401.70	215.79
402.08	215.90
402.45	216.01
402.83	216.17
403.20	216.27
403.58	216.33
403.95	216.50
404.33	216.68
404.71	216.81
405.08	217.04
405.46	217.25
405.83	217.44
406.21	217.65
406.58	217.88
406.96	218.09
407.33	218.35
407.70	218.63
408.08	219.08
408.45	219.42
408.83	219.80
409.20	220.12
409.58	220.39
409.95	220.86
410.33	221.33
410.70	221.72
411.08	222.31
411.45	222.89
411.82	223.43
412.20	224.09
412.57	224.93
412.95	225.54
413.32	226.36
413.69	227.22
414.07	228.15
414.44	229.16
414.82	230.17
415.19	231.35
415.56	232.56
415.94	233.73
416.31	235.16
416.68	236.57
417.06	238.22
417.43	239.78
417.81	241.50
418.18	243.29
418.55	245.27
418.93	247.30
419.30	249.42
419.67	251.63
420.04	253.95
420.42	256.32
420.79	259.15
421.16	261.95
421.54	264.83
421.91	267.80
422.28	270.94
422.66	274.25
423.03	277.51
423.40	280.90
423.77	284.54
424.15	288.19
424.52	292.06
424.89	296.24
425.26	300.33
425.64	304.25
426.01	308.54
426.38	313.03
426.75	317.59
427.13	322.38
427.50	327.41
427.87	332.64
428.24	337.85
428.61	342.86
428.99	348.45
429.36	354.51
429.73	360.47
430.10	366.33
430.47	372.46
430.85	378.80
431.22	385.51
431.59	392.69
431.96	399.57
432.33	407.16
432.70	414.42
433.08	422.93
433.45	431.05
433.82	439.14
434.19	448.11
434.56	456.82
434.93	465.19
435.30	473.51
435.68	482.59
436.05	491.67
436.42	500.65
436.79	508.79
437.16	517.61
437.53	526.84
437.90	536.06
438.27	545.05
438.64	554.27
439.01	562.92
439.38	570.46
439.75	577.80
440.13	586.22
440.50	594.24
440.87	600.78
441.24	607.43
441.61	614.78
441.98	620.19
442.35	626.65
442.72	633.03
443.09	639.16
443.46	643.00
443.83	645.55
444.20	647.78
444.57	651.00
444.94	652.46
445.31	653.99
445.68	655.42
446.05	656.07
446.42	655.36
446.79	654.38
447.16	653.37
447.53	652.63
447.90	649.32
448.27	646.01
448.64	641.42
449.01	638.15
449.37	632.30
449.74	626.63
450.11	619.67
450.48	612.26
450.85	604.65
451.22	598.24
451.59	592.10
451.96	586.21
452.33	578.31
452.70	571.17
453.07	562.68
453.43	553.99
453.80	545.65
454.17	537.61
454.54	530.00
454.91	521.77
455.28	513.71
455.65	506.18
456.02	498.67
456.38	492.20
456.75	484.22
457.12	477.52
457.49	470.92
457.86	464.67
458.23	459.21
458.59	453.35
458.96	447.26
459.33	441.84
459.70	436.40
460.07	432.07
460.43	427.15
460.80	422.52
461.17	418.46
461.54	414.19
461.91	410.14
462.27	406.01
462.64	402.56
463.01	398.78
463.38	395.10
463.74	391.35
464.11	388.11
464.48	385.23
464.85	382.12
465.21	379.69
465.58	377.02
465.95	373.84
466.32	371.14
466.68	368.49
467.05	365.89
467.42	363.33
467.78	360.62
468.15	358.04
468.52	356.08
468.88	353.63
469.25	351.43
469.62	349.57
469.98	347.59
470.35	345.70
470.72	344.00
471.08	342.22
471.45	340.70
471.82	339.18
472.18	337.52
472.55	336.31
472.92	334.83
473.28	333.59
473.65	332.48
474.02	331.35
474.38	330.42
474.75	329.66
475.11	328.83
475.48	328.30
475.85	327.83
476.21	327.32
476.58	326.94
476.94	326.67
477.31	326.37
477.67	326.10
478.04	325.97
478.41	325.90
478.77	326.03
479.14	325.99
479.50	326.09
479.87	326.36
480.23	326.64
480.60	326.91
480.96	327.19
481.33	327.75
481.69	328.32
482.06	328.85
482.42	329.31
482.79	329.88
483.15	330.57
483.52	331.52
483.88	332.42
484.25	333.38
484.61	334.36
484.98	335.43
485.34	336.74
485.71	338.12
486.07	339.58
486.44	340.89
486.80	342.49
487.17	344.18
487.53	346.02
487.90	347.93
488.26	349.99
488.62	352.17
488.99	354.21
489.35	356.40
489.72	358.80
490.08	361.29
490.44	363.88
490.81	366.58
491.17	369.25
491.54	372.20
491.90	375.24
492.26	378.49
492.63	381.87
492.99	385.37
493.36	389.05
493.72	392.91
494.08	396.88
494.45	401.04
494.81	405.33
495.17	409.76
495.54	414.48
495.90	419.22
496.26	424.14
496.63	429.31
496.99	434.69
497.35	440.22
497.72	446.07
498.08	452.01
498.44	458.16
498.80	464.57
499.17	471.06
499.53	477.69
499.89	484.60
500.26	491.52
500.62	498.56
500.98	505.91
501.34	513.38
501.71	521.17
502.07	529.02
502.43	537.07
502.79	545.17
503.16	553.49
503.52	562.11
503.88	570.71
504.24	579.71
504.60	588.74
504.97	597.98
505.33	607.22
505.69	617.08
506.05	626.94
506.41	636.79
506.78	646.83
507.14	657.13
507.50	667.52
507.86	678.20
508.22	688.93
508.59	699.57
508.95	710.58
509.31	721.76
509.67	733.16
510.03	744.44
510.39	756.14
510.75	767.93
511.12	779.66
511.48	791.78
511.84	803.96
512.20	816.27
512.56	828.87
512.92	841.63
513.28	854.08
513.64	866.71
514.00	879.56
514.37	892.54
514.73	905.56
515.09	918.56
515.45	931.48
515.81	944.52
516.17	957.84
516.53	970.99
516.89	984.08
517.25	997.32
517.61	1010.92
517.97	1024.35
518.33	1037.53
518.69	1051.21
519.05	1064.95
519.41	1078.63
519.77	1092.47
520.13	1105.80
520.49	1118.93
520.85	1132.47
521.21	1145.80
521.57	1159.37
521.93	1172.32
522.29	1186.04
522.65	1199.66
523.01	1213.25
523.37	1226.49
523.73	1239.86
524.09	1253.00
524.45	1266.59
524.81	1280.01
525.17	1293.36
525.53	1306.46
525.89	1319.72
526.25	1332.81
526.61	1345.69
526.97	1358.87
527.33	1371.86
527.68	1385.31
528.04	1398.96
528.40	1411.96
528.76	1425.43
529.12	1438.49
529.48	1452.00
529.84	1464.38
530.20	1477.21
530.56	1489.87
530.91	1503.11
531.27	1516.00
531.63	1528.87
531.99	1541.51
532.35	1553.76
532.71	1566.22
533.07	1579.26
533.42	1591.68
533.78	1603.86
534.14	1616.03
534.50	1627.31
534.86	1638.90
535.21	1649.89
535.57	1661.37
535.93	1672.70
536.29	1683.85
536.65	1695.42
537.00	1706.38
537.36	1717.82
537.72	1728.86
538.08	1740.28
538.44	1751.43
538.79	1762.63
539.15	1773.65
539.51	1784.51
539.87	1796.06
540.22	1806.97
540.58	1817.93
540.94	1828.96
541.29	1839.35
541.65	1849.07
542.01	1859.54
542.37	1869.64
542.72	1879.72
543.08	1889.59
543.44	1900.24
543.79	1909.52
544.15	1919.01
544.51	1929.05
544.87	1938.95
545.22	1948.24
545.58	1957.12
545.94	1966.04
546.29	1974.64
546.65	1983.09
547.01	1991.53
547.36	1999.15
547.72	2007.01
548.07	2014.74
548.43	2022.52
548.79	2030.47
549.14	2038.64
549.50	2047.24
549.86	2055.36
550.21	2062.94
550.57	2070.75
550.92	2077.56
551.28	2085.08
551.64	2092.28
551.99	2099.81
552.35	2107.02
552.70	2113.83
553.06	2120.62
553.41	2126.87
553.77	2133.19
554.13	2139.50
554.48	2146.32
554.84	2153.46
555.19	2159.96
555.55	2166.36
555.90	2172.58
556.26	2179.36
556.61	2185.63
556.97	2190.37
557.32	2196.05
557.68	2202.43
558.03	2208.06
558.39	2213.36
558.74	2219.40
559.10	2224.90
559.45	2230.43
559.81	2236.07
560.16	2241.53
560.52	2247.35
560.87	2253.77
561.23	2259.71
561.58	2266.43
561.94	2271.64
562.29	2276.20
562.64	2282.15
563.00	2287.68
563.35	2293.09
563.71	2298.80
564.06	2304.40
564.42	2310.35
564.77	2315.36
565.12	2320.52
565.48	2325.56
565.83	2331.09
566.19	2336.25
566.54	2341.33
566.89	2345.76
567.25	2350.09
567.60	2355.85
567.96	2360.81
568.31	2365.22
568.66	2369.50
569.02	2373.20
569.37	2376.89
569.72	2381.17
570.08	2384.47
570.43	2387.59
570.78	2390.60
571.14	2392.81
571.49	2395.83
571.84	2399.17
572.20	2401.97
572.55	2404.83
572.90	2407.02
573.26	2409.61
573.61	2412.12
573.96	2414.31
574.31	2416.28
574.67	2418.15
575.02	2418.65
575.37	2420.11
575.72	2420.52
576.08	2421.77
576.43	2421.81
576.78	2422.04
577.13	2423.50
577.49	2424.59
577.84	2425.33
578.19	2426.48
578.54	2427.00
578.90	2427.35
579.25	2426.99
579.60	2426.74
579.95	2425.73
580.30	2425.48
580.66	2424.56
581.01	2422.78
581.36	2420.20
581.71	2418.61
582.06	2417.34
582.42	2416.31
582.77	2413.78
583.12	2411.97
583.47	2410.36
583.82	2409.51
584.17	2407.95
584.53	2405.53
584.88	2403.13
585.23	2401.12
585.58	2398.70
585.93	2396.47
586.28	2393.97
586.63	2391.32
586.98	2388.96
587.34	2386.73
587.69	2384.14
588.04	2381.88
588.39	2380.17
588.74	2377.49
589.09	2374.48
589.44	2370.80
589.79	2368.17
590.14	2365.94
590.49	2362.95
590.84	2358.94
591.19	2355.56
591.54	2352.32
591.89	2348.22
592.25	2344.88
592.60	2340.57
592.95	2336.13
593.30	2331.89
593.65	2327.59
594.00	2323.09
594.35	2319.92
594.70	2315.22
595.05	2310.69
595.40	2305.14
595.75	2299.17
596.10	2295.46
596.45	2290.66
596.80	2286.18
597.15	2280.95
597.50	2275.05
597.85	2270.15
598.19	2264.95
598.54	2259.21
598.89	2253.88
599.24	2249.36
599.59	2243.27
599.94	2237.23
600.29	2231.28
600.64	2225.24
600.99	2218.23
601.34	2212.77
601.69	2205.74
602.04	2199.46
602.39	2192.76
602.74	2186.62
603.08	2181.22
603.43	2174.75
603.78	2167.75
604.13	2160.68
604.48	2153.21
604.83	2147.03
605.18	2140.78
605.53	2133.87
605.87	2126.79
606.22	2119.89
606.57	2111.84
606.92	2103.73
607.27	2096.90
607.62	2090.39
607.96	2083.43
608.31	2077.17
608.66	2069.27
609.01	2061.77
609.36	2054.66
609.70	2046.98
610.05	2039.24
610.40	2030.87
610.75	2022.52
611.10	2014.80
611.44	2005.96
611.79	1997.46
612.14	1987.64
612.49	1976.99
612.83	1967.63
613.18	1958.36
613.53	1949.14
613.88	1939.48
614.22	1930.95
614.57	1921.07
614.92	1910.32
615.27	1900.09
615.61	1890.00
615.96	1880.49
616.31	1870.76
616.65	1861.28
617.00	1851.72
617.35	1842.15
617.70	1832.50
618.04	1822.64
618.39	1812.67
618.74	1802.99
619.08	1793.29
619.43	1784.54
619.78	1776.27
620.12	1767.81
620.47	1758.44
620.82	1748.23
621.16	1738.80
621.51	1728.97
621.85	1719.28
622.20	1709.28
622.55	1698.92
622.89	1689.08
623.24	1679.44
623.59	1669.71
623.93	1659.73
624.28	1649.91
624.62	1639.98
624.97	1629.87
625.32	1620.12
625.66	1611.16
626.01	1602.44
626.35	1593.25
626.70	1583.50
627.04	1573.65
627.39	1563.60
627.73	1554.28
628.08	1545.55
628.43	1536.04
628.77	1526.94
629.12	1518.12
629.46	1510.28
629.81	1502.00
630.15	1492.67
630.50	1483.06
630.84	1472.68
631.19	1462.90
631.53	1453.72
631.88	1443.56
632.22	1433.69
632.57	1424.44
632.91	1414.64
633.26	1404.98
633.60	1395.61
633.95	1386.34
634.29	1377.00
634.64	1367.77
634.98	1357.98
635.32	1348.70
635.67	1340.45
636.01	1331.26
636.36	1321.73
636.70	1312.37
637.05	1303.17
637.39	1294.32
637.73	1285.74
638.08	1278.41
638.42	1270.40
638.77	1261.73
639.11	1253.70
639.45	1246.01
639.80	1237.67
640.14	1229.04
640.49	1220.38
640.83	1211.59
641.17	1203.55
641.52	1195.50
641.86	1186.98
642.20	1179.28
642.55	1170.77
642.89	1161.88
643.23	1153.34
643.58	1145.30
643.92	1136.36
644.26	1127.75
644.61	1119.45
644.95	1110.82
645.29	1101.67
645.64	1092.52
645.98	1083.99
646.32	1076.16
646.66	1067.64
647.01	1059.36
647.35	1051.28
647.69	1043.03
648.04	1034.87
648.38	1026.11
648.72	1017.37
649.06	1009.03
649.41	1000.93
649.75	993.06
650.09	985.28
650.43	977.47
650.78	969.21
651.12	961.54
651.46	954.13
651.80	946.90
652.14	939.64
652.49	932.17
652.83	924.96
653.17	917.48
653.51	909.93
653.85	902.76
654.20	895.60
654.54	888.21
654.88	880.99
655.22	873.83
655.56	866.81
655.90	860.11
656.25	853.49
656.59	846.68
656.93	839.71
657.27	832.67
657.61	825.64
657.95	819.57
658.29	813.61
658.64	807.57
658.98	801.13
659.32	794.58
659.66	788.44
660.00	782.10
660.34	776.03
660.68	770.01
661.02	763.71
661.36	757.67
661.70	751.91
662.05	746.27
662.39	740.82
662.73	735.46
663.07	730.10
663.41	724.51
663.75	718.78
664.09	713.15
664.43	707.65
664.77	702.31
665.11	696.56
665.45	690.72
665.79	684.93
666.13	679.23
666.47	673.76
666.81	668.27
667.15	662.92
667.49	657.68
667.83	652.34
668.17	647.07
668.51	642.00
668.85	637.01
669.19	632.19
669.53	627.17
669.87	622.02
670.21	617.21
670.55	612.51
670.89	608.09
671.23	603.73
671.57	599.33
671.91	595.14
672.25	590.92
672.58	586.80
672.92	582.72
673.26	578.85
673.60	574.96
673.94	571.18
674.28	567.58
674.62	563.90
674.96	560.14
675.30	556.65
675.64	553.00
675.97	549.43
676.31	545.72
676.65	542.12
676.99	538.76
677.33	534.96
677.67	531.33
678.01	527.43
678.34	523.83
678.68	520.35
679.02	516.67
679.36	513.02
679.70	509.34
680.04	505.76
680.37	502.30
680.71	498.97
681.05	495.79
681.39	492.50
681.73	489.25
682.06	486.23
682.40	483.17
682.74	479.96
683.08	476.74
683.42	473.57
683.75	470.50
684.09	467.39
684.43	464.58
684.77	461.63
685.10	458.82
685.44	455.84
685.78	452.92
686.12	450.14
686.45	447.39
686.79	444.73
687.13	442.18
687.46	439.50
687.80	436.82
688.14	433.87
688.48	431.18
688.81	428.50
689.15	425.89
689.49	423.22
689.82	420.69
690.16	418.06
690.50	415.59
690.83	413.09
691.17	410.58
691.51	407.99
691.84	405.73
692.18	403.45
692.52	401.23
692.85	399.02
693.19	396.84
693.52	394.65
693.86	392.40
694.20	390.15
694.53	387.95
694.87	385.74
695.21	383.66
695.54	381.48
695.88	379.30
696.21	377.09
696.55	374.97
696.88	372.87
697.22	370.90
697.56	368.96
697.89	367.04
698.23	365.24
698.56	363.47
698.90	361.66
699.23	359.73
699.57	357.88
699.90	355.99
700.24	354.15
700.58	352.35
700.91	350.66
701.25	349.08
701.58	347.47
701.92	345.84
702.25	344.24
702.59	342.60
702.92	341.04
703.26	339.49
703.59	337.99
703.93	336.71
704.26	335.26
704.60	333.74
704.93	332.22
705.26	330.70
705.60	329.20
705.93	327.62
706.27	326.27
706.60	324.98
706.94	323.75
707.27	322.36
707.61	320.97
707.94	319.62
708.27	318.13
708.61	316.61
708.94	315.23
709.28	313.87
709.61	312.59
709.94	311.40
710.28	310.11
710.61	308.88
710.95	307.48
711.28	306.41
711.61	305.18
711.95	304.05
712.28	302.86
712.61	301.64
712.95	300.58
713.28	299.54
713.61	298.36
713.95	297.20
714.28	296.15
714.61	295.11
714.95	294.09
715.28	293.01
715.61	292.04
715.95	291.05
716.28	290.06
716.61	289.10
716.95	288.06
717.28	287.12
717.61	286.13
717.94	285.22
718.28	284.12
718.61	283.23
718.94	282.32
719.27	281.45
719.61	280.65
719.94	279.78
720.27	278.79
720.60	277.90
720.94	277.06
721.27	276.32
721.60	275.57
721.93	274.83
722.27	274.20
722.60	273.53
722.93	272.80
723.26	272.16
723.59	271.44
723.93	270.79
724.26	270.16
724.59	269.52
724.92	268.88
725.25	268.34
725.59	267.79
725.92	267.23
726.25	266.64
726.58	266.05
726.91	265.46
727.24	264.92
727.57	264.36
727.91	263.74
728.24	263.18
728.57	262.61
728.90	262.04
729.23	261.42
729.56	260.95
729.89	260.42
730.22	259.79
730.55	259.21
730.89	258.66
731.22	258.13
731.55	257.61
731.88	257.07
732.21	256.50
732.54	255.93
732.87	255.41
733.20	254.86
733.53	254.35
733.86	253.90
734.19	253.40
734.52	252.99
734.85	252.70
735.18	252.21
735.51	251.86
735.84	251.44
736.17	251.05
736.50	250.51
736.83	250.36
737.16	250.03
737.49	249.66
737.82	249.23
738.15	248.87
738.48	248.46
738.81	248.04
739.14	247.65
739.47	247.22
739.80	246.86
740.13	246.55
740.46	246.14
740.79	245.74
741.12	245.35
741.45	244.95
741.78	244.50
742.11	244.25
742.44	243.81
742.77	243.50
743.10	243.15
743.43	242.80
743.75	242.18
744.08	242.08
744.41	241.75
744.74	241.41
745.07	241.01
745.40	240.68
745.73	240.46
746.06	240.12
746.39	239.83
746.71	239.46
747.04	239.09
747.37	238.79
747.70	238.50
748.03	238.20
748.36	237.94
748.68	237.61
749.01	237.22
749.34	236.93
749.67	236.64
750.00	236.34
750.33	236.22
750.65	235.98
750.98	235.44
751.31	235.16
751.64	234.94
751.97	234.80
752.29	234.56
752.62	234.22
752.95	233.96
753.28	233.70
753.60	233.51
753.93	233.36
754.26	233.17
754.59	232.88
754.91	232.65
755.24	232.38
755.57	232.16
755.90	231.92
756.22	231.68
756.55	231.43
756.88	231.15
757.20	230.82
757.53	230.56
757.86	230.35
758.19	230.18
758.51	229.96
758.84	229.68
759.17	229.46
759.49	229.26
759.82	229.21
760.15	229.04
760.47	228.81
760.80	228.56
761.13	228.39
761.45	228.20
761.78	228.02
762.11	227.84
762.43	227.65
762.76	227.50
763.08	227.36
763.41	227.16
763.74	227.05
764.06	226.87
764.39	226.73
764.71	226.58
765.04	226.41
765.37	226.25
765.69	226.08
766.02	225.96
766.34	225.84
766.67	225.60
767.00	225.53
767.32	225.51
767.65	225.48
767.97	225.32
768.30	225.20
768.62	225.04
768.95	224.90
769.27	224.77
769.60	224.66
769.92	224.49
770.25	224.36
770.57	224.19
770.90	224.05
771.22	223.88
771.55	223.75
771.87	223.63
772.20	223.51
772.52	223.56
772.85	223.67
773.17	223.53
773.50	223.41
773.82	223.27
774.15	223.07
774.47	222.83
774.80	222.70
775.12	222.60
775.45	222.53
775.77	222.42
776.09	222.36
776.42	222.25
776.74	222.21
777.07	222.11
777.39	222.04
777.72	221.99
778.04	221.99
778.36	221.90
778.69	221.81
779.01	221.73
779.33	221.42
779.66	221.11
779.98	221.02
780.31	220.95
780.63	220.92
780.95	220.88
781.28	220.78
781.60	220.71
781.92	220.64
782.25	220.56
782.57	220.52
782.89	220.43
783.22	220.35
783.54	220.24
783.86	220.20
784.19	220.12
784.51	220.10
784.83	219.99
785.16	219.97
785.48	219.91
785.80	219.84
786.12	219.84
