SpectraSuite Data File
++++++++++++++++++++++++++++++++++++
Date: Tue Jan 29 16:37:16 EST 2013
User: group
Dark Spectrum Present: No
Reference Spectrum Present: No
Number of Sampled Component Spectra: 1
Spectrometers: USB2E7196
Integration Time (usec): 65000 (USB2E7196)
Spectra Averaged: 100 (USB2E7196)
Boxcar Smoothing: 10 (USB2E7196)
Correct for Electrical Dark: No (USB2E7196)
Strobe/Lamp Enabled: No (USB2E7196)
Correct for Detector Non-linearity: No (USB2E7196)
Correct for Stray Light: No (USB2E7196)
Number of Pixels in Processed Spectrum: 2048
>>>>>Begin Processed Spectral Data<<<<<
339.09	0.00
339.48	202.30
339.86	203.28
340.24	204.19
340.63	205.74
341.01	210.38
341.39	208.42
341.78	210.69
342.16	211.32
342.54	212.18
342.93	201.16
343.31	211.31
343.69	211.86
344.07	212.31
344.46	212.78
344.84	213.21
345.22	213.40
345.60	213.71
345.99	213.89
346.37	214.05
346.75	214.14
347.13	214.18
347.52	214.25
347.90	214.36
348.28	214.39
348.66	214.45
349.05	214.44
349.43	214.52
349.81	214.59
350.19	214.66
350.57	214.74
350.96	214.83
351.34	214.95
351.72	215.02
352.10	215.13
352.48	215.20
352.87	215.26
353.25	215.32
353.63	215.33
354.01	215.39
354.39	215.48
354.77	215.59
355.15	215.74
355.54	215.77
355.92	215.79
356.30	215.87
356.68	216.06
357.06	216.14
357.44	216.14
357.82	216.18
358.20	216.26
358.58	216.31
358.97	216.34
359.35	216.44
359.73	216.52
360.11	216.61
360.49	216.66
360.87	216.72
361.25	216.81
361.63	216.96
362.01	217.01
362.39	217.05
362.77	217.10
363.15	217.08
363.53	217.12
363.91	217.14
364.29	217.16
364.67	216.99
365.05	217.02
365.43	217.08
365.81	217.11
366.19	217.23
366.57	217.33
366.95	217.37
367.33	217.31
367.71	217.30
368.09	217.35
368.47	217.34
368.85	217.32
369.23	217.33
369.61	217.21
369.99	217.28
370.37	217.29
370.75	217.36
371.13	217.34
371.51	217.30
371.89	217.33
372.27	217.30
372.65	217.29
373.03	217.26
373.41	217.21
373.78	217.15
374.16	217.01
374.54	216.90
374.92	216.84
375.30	216.81
375.68	216.76
376.06	216.68
376.44	216.63
376.82	216.60
377.19	216.52
377.57	216.49
377.95	216.35
378.33	216.29
378.71	216.13
379.09	216.09
379.47	216.08
379.84	216.00
380.22	215.96
380.60	215.89
380.98	215.82
381.36	215.77
381.73	215.71
382.11	215.69
382.49	215.65
382.87	215.59
383.25	215.51
383.62	215.72
384.00	215.66
384.38	215.64
384.76	215.65
385.13	215.72
385.51	215.70
385.89	215.65
386.27	215.58
386.64	215.57
387.02	215.50
387.40	215.43
387.78	215.42
388.15	215.41
388.53	215.38
388.91	215.34
389.29	215.28
389.66	215.32
390.04	215.29
390.42	215.29
390.79	215.26
391.17	215.25
391.55	215.00
391.92	215.00
392.30	214.99
392.68	214.92
393.05	214.90
393.43	214.90
393.81	214.91
394.18	214.88
394.56	214.87
394.94	214.91
395.31	214.95
395.69	215.01
396.06	215.06
396.44	215.09
396.82	215.10
397.19	215.28
397.57	215.26
397.95	215.35
398.32	215.31
398.70	215.41
399.07	215.53
399.45	215.57
399.82	215.61
400.20	215.65
400.58	215.71
400.95	215.67
401.33	215.79
401.70	216.00
402.08	216.12
402.45	216.23
402.83	216.42
403.20	216.53
403.58	216.59
403.95	216.73
404.33	216.90
404.71	217.04
405.08	217.26
405.46	217.43
405.83	217.60
406.21	217.80
406.58	218.01
406.96	218.22
407.33	218.47
407.70	218.77
408.08	219.25
408.45	219.61
408.83	220.00
409.20	220.37
409.58	220.69
409.95	221.15
410.33	221.63
410.70	222.03
411.08	222.58
411.45	223.22
411.82	223.78
412.20	224.46
412.57	225.31
412.95	225.88
413.32	226.73
413.69	227.58
414.07	228.48
414.44	229.49
414.82	230.51
415.19	231.68
415.56	232.87
415.94	234.03
416.31	235.45
416.68	236.89
417.06	238.49
417.43	240.02
417.81	241.76
418.18	243.52
418.55	245.46
418.93	247.50
419.30	249.57
419.67	251.82
420.04	254.14
420.42	256.53
420.79	259.37
421.16	262.12
421.54	265.02
421.91	268.03
422.28	271.09
422.66	274.40
423.03	277.67
423.40	281.07
423.77	284.69
424.15	288.40
424.52	292.22
424.89	296.37
425.26	300.44
425.64	304.33
426.01	308.66
426.38	313.14
426.75	317.67
427.13	322.41
427.50	327.41
427.87	332.59
428.24	337.76
428.61	342.78
428.99	348.33
429.36	354.33
429.73	360.25
430.10	366.15
430.47	372.21
430.85	378.53
431.22	385.18
431.59	392.31
431.96	399.05
432.33	406.58
432.70	413.90
433.08	422.44
433.45	430.56
433.82	438.56
434.19	447.41
434.56	456.13
434.93	464.47
435.30	472.74
435.68	481.92
436.05	490.95
436.42	499.86
436.79	508.04
437.16	516.79
437.53	526.14
437.90	535.29
438.27	544.23
438.64	553.45
439.01	562.02
439.38	569.60
439.75	577.04
440.13	585.43
440.50	593.38
440.87	599.81
441.24	606.42
441.61	613.87
441.98	619.29
442.35	625.63
442.72	631.99
443.09	638.03
443.46	641.76
443.83	644.28
444.20	646.48
444.57	649.68
444.94	651.18
445.31	652.59
445.68	654.00
446.05	654.65
446.42	653.88
446.79	652.99
447.16	651.93
447.53	651.12
447.90	647.85
448.27	644.54
448.64	639.90
449.01	636.62
449.37	630.66
449.74	625.02
450.11	618.14
450.48	610.76
450.85	603.31
451.22	596.81
451.59	590.73
451.96	584.89
452.33	576.96
452.70	569.87
453.07	561.37
453.43	552.79
453.80	544.51
454.17	536.50
454.54	528.91
454.91	520.76
455.28	512.81
455.65	505.38
456.02	497.87
456.38	491.58
456.75	483.68
457.12	477.06
457.49	470.52
457.86	464.29
458.23	458.88
458.59	452.92
458.96	446.93
459.33	441.57
459.70	436.17
460.07	431.95
460.43	427.02
460.80	422.43
461.17	418.38
461.54	414.22
461.91	410.21
462.27	406.09
462.64	402.63
463.01	398.78
463.38	395.04
463.74	391.29
464.11	387.97
464.48	385.13
464.85	382.02
465.21	379.57
465.58	376.95
465.95	373.78
466.32	371.18
466.68	368.59
467.05	365.94
467.42	363.34
467.78	360.64
468.15	358.08
468.52	356.13
468.88	353.61
469.25	351.33
469.62	349.51
469.98	347.51
470.35	345.59
470.72	343.90
471.08	342.08
471.45	340.60
471.82	339.09
472.18	337.40
472.55	336.19
472.92	334.84
473.28	333.63
473.65	332.50
474.02	331.32
474.38	330.42
474.75	329.68
475.11	328.89
475.48	328.27
475.85	327.82
476.21	327.33
476.58	326.97
476.94	326.71
477.31	326.38
477.67	326.14
478.04	326.05
478.41	325.98
478.77	326.15
479.14	326.05
479.50	326.16
479.87	326.47
480.23	326.79
480.60	327.01
480.96	327.25
481.33	327.85
481.69	328.44
482.06	328.95
482.42	329.44
482.79	330.02
483.15	330.80
483.52	331.73
483.88	332.65
484.25	333.63
484.61	334.70
484.98	335.75
485.34	337.07
485.71	338.45
486.07	339.93
486.44	341.26
486.80	342.94
487.17	344.58
487.53	346.42
487.90	348.26
488.26	350.28
488.62	352.44
488.99	354.48
489.35	356.63
489.72	359.05
490.08	361.57
490.44	364.15
490.81	366.87
491.17	369.62
491.54	372.63
491.90	375.65
492.26	378.82
492.63	382.26
492.99	385.72
493.36	389.37
493.72	393.22
494.08	397.24
494.45	401.45
494.81	405.87
495.17	410.35
495.54	414.99
495.90	419.83
496.26	424.78
496.63	429.93
496.99	435.33
497.35	440.92
497.72	446.69
498.08	452.68
498.44	458.80
498.80	465.23
499.17	471.68
499.53	478.42
499.89	485.41
500.26	492.42
500.62	499.57
500.98	507.04
501.34	514.55
501.71	522.35
502.07	530.15
502.43	538.09
502.79	546.19
503.16	554.69
503.52	563.29
503.88	572.06
504.24	581.00
504.60	590.05
504.97	599.36
505.33	608.68
505.69	618.52
506.05	628.38
506.41	638.27
506.78	648.31
507.14	658.55
507.50	669.02
507.86	679.70
508.22	690.44
508.59	701.16
508.95	712.24
509.31	723.54
509.67	735.02
510.03	746.53
510.39	758.36
510.75	770.26
511.12	782.26
511.48	794.35
511.84	806.71
512.20	819.16
512.56	831.83
512.92	844.66
513.28	857.39
513.64	870.28
514.00	883.22
514.37	896.32
514.73	909.52
515.09	922.58
515.45	935.51
515.81	948.63
516.17	962.08
516.53	975.36
516.89	988.58
517.25	1001.89
517.61	1015.59
517.97	1029.05
518.33	1042.31
518.69	1055.87
519.05	1069.64
519.41	1083.48
519.77	1097.45
520.13	1110.73
520.49	1124.07
520.85	1137.68
521.21	1151.04
521.57	1164.77
521.93	1177.96
522.29	1191.83
522.65	1205.53
523.01	1219.37
523.37	1232.72
523.73	1246.06
524.09	1259.40
524.45	1272.87
524.81	1286.48
525.17	1299.81
525.53	1313.17
525.89	1326.61
526.25	1339.84
526.61	1352.89
526.97	1366.07
527.33	1379.04
527.68	1392.66
528.04	1406.28
528.40	1419.41
528.76	1432.88
529.12	1445.80
529.48	1459.27
529.84	1471.61
530.20	1484.53
530.56	1497.20
530.91	1510.54
531.27	1523.52
531.63	1536.33
531.99	1549.27
532.35	1561.49
532.71	1573.95
533.07	1586.82
533.42	1599.02
533.78	1611.26
534.14	1623.35
534.50	1634.63
534.86	1646.32
535.21	1657.38
535.57	1669.01
535.93	1680.38
536.29	1691.57
536.65	1703.23
537.00	1714.15
537.36	1725.64
537.72	1736.65
538.08	1748.20
538.44	1759.32
538.79	1770.55
539.15	1781.58
539.51	1792.36
539.87	1803.98
540.22	1815.01
540.58	1826.07
540.94	1837.15
541.29	1847.56
541.65	1857.48
542.01	1868.19
542.37	1878.54
542.72	1888.71
543.08	1898.51
543.44	1909.10
543.79	1918.52
544.15	1927.96
544.51	1938.18
544.87	1948.17
545.22	1957.60
545.58	1966.38
545.94	1975.42
546.29	1984.04
546.65	1992.51
547.01	2000.93
547.36	2008.65
547.72	2016.47
548.07	2024.20
548.43	2031.94
548.79	2039.87
549.14	2048.11
549.50	2056.53
549.86	2064.45
550.21	2072.01
550.57	2079.80
550.92	2086.62
551.28	2094.30
551.64	2101.69
551.99	2109.14
552.35	2116.43
552.70	2123.32
553.06	2130.13
553.41	2136.41
553.77	2143.02
554.13	2149.38
554.48	2156.43
554.84	2163.56
555.19	2170.18
555.55	2176.58
555.90	2183.00
556.26	2189.83
556.61	2196.03
556.97	2200.97
557.32	2206.63
557.68	2212.99
558.03	2218.75
558.39	2224.17
558.74	2230.00
559.10	2235.64
559.45	2241.31
559.81	2246.84
560.16	2252.53
560.52	2258.43
560.87	2264.84
561.23	2270.72
561.58	2277.40
561.94	2282.54
562.29	2287.22
562.64	2293.26
563.00	2299.00
563.35	2304.46
563.71	2310.18
564.06	2315.73
564.42	2321.71
564.77	2326.87
565.12	2332.25
565.48	2337.39
565.83	2342.85
566.19	2348.37
566.54	2353.54
566.89	2358.04
567.25	2362.64
567.60	2368.17
567.96	2373.31
568.31	2377.80
568.66	2381.93
569.02	2385.80
569.37	2389.51
569.72	2393.88
570.08	2397.30
570.43	2400.35
570.78	2403.63
571.14	2406.10
571.49	2409.31
571.84	2412.72
572.20	2415.62
572.55	2418.43
572.90	2420.56
573.26	2423.25
573.61	2425.66
573.96	2427.81
574.31	2429.84
574.67	2431.49
575.02	2432.21
575.37	2433.65
575.72	2434.23
576.08	2435.74
576.43	2435.94
576.78	2436.31
577.13	2437.92
577.49	2439.14
577.84	2439.96
578.19	2441.16
578.54	2441.68
578.90	2442.17
579.25	2442.01
579.60	2441.77
579.95	2440.85
580.30	2440.79
580.66	2440.00
581.01	2438.20
581.36	2435.86
581.71	2434.25
582.06	2433.05
582.42	2432.15
582.77	2429.70
583.12	2428.13
583.47	2426.56
583.82	2425.74
584.17	2424.43
584.53	2422.06
584.88	2419.69
585.23	2417.76
585.58	2415.21
585.93	2413.10
586.28	2410.88
586.63	2408.11
586.98	2405.96
587.34	2404.08
587.69	2401.76
588.04	2399.55
588.39	2398.08
588.74	2395.44
589.09	2392.65
589.44	2389.44
589.79	2386.78
590.14	2384.83
590.49	2381.85
590.84	2377.96
591.19	2374.76
591.54	2371.46
591.89	2367.29
592.25	2363.99
592.60	2359.70
592.95	2355.52
593.30	2351.27
593.65	2346.85
594.00	2342.50
594.35	2339.25
594.70	2334.39
595.05	2329.72
595.40	2324.32
595.75	2318.43
596.10	2314.80
596.45	2309.89
596.80	2305.22
597.15	2299.94
597.50	2293.85
597.85	2288.79
598.19	2283.40
598.54	2277.56
598.89	2272.16
599.24	2267.73
599.59	2261.42
599.94	2255.54
600.29	2249.57
600.64	2243.55
600.99	2236.65
601.34	2231.13
601.69	2224.18
602.04	2217.89
602.39	2211.21
602.74	2205.11
603.08	2199.56
603.43	2192.92
603.78	2186.10
604.13	2179.04
604.48	2171.64
604.83	2165.48
605.18	2159.29
605.53	2152.44
605.87	2145.35
606.22	2138.57
606.57	2130.43
606.92	2122.56
607.27	2115.62
607.62	2108.94
607.96	2101.95
608.31	2095.50
608.66	2087.68
609.01	2079.91
609.36	2072.62
609.70	2064.85
610.05	2056.94
610.40	2048.62
610.75	2040.29
611.10	2032.54
611.44	2023.64
611.79	2014.96
612.14	2004.95
612.49	1994.11
612.83	1984.75
613.18	1975.48
613.53	1966.23
613.88	1956.57
614.22	1947.96
614.57	1938.15
614.92	1927.59
615.27	1917.31
615.61	1907.06
615.96	1897.36
616.31	1887.78
616.65	1878.41
617.00	1868.55
617.35	1858.94
617.70	1849.14
618.04	1839.06
618.39	1828.91
618.74	1819.25
619.08	1809.70
619.43	1801.00
619.78	1792.89
620.12	1784.28
620.47	1774.72
620.82	1764.22
621.16	1754.60
621.51	1744.56
621.85	1734.59
622.20	1724.10
622.55	1713.67
622.89	1703.81
623.24	1694.10
623.59	1684.28
623.93	1674.15
624.28	1664.34
624.62	1654.15
624.97	1643.91
625.32	1634.20
625.66	1625.18
626.01	1616.35
626.35	1607.01
626.70	1596.92
627.04	1586.72
627.39	1576.64
627.73	1567.30
628.08	1558.42
628.43	1548.76
628.77	1539.67
629.12	1530.87
629.46	1523.14
629.81	1514.74
630.15	1505.29
630.50	1495.51
630.84	1485.09
631.19	1475.15
631.53	1465.85
631.88	1455.79
632.22	1445.80
632.57	1436.40
632.91	1426.35
633.26	1416.56
633.60	1406.97
633.95	1397.69
634.29	1388.33
634.64	1378.92
634.98	1369.05
635.32	1359.79
635.67	1351.37
636.01	1342.11
636.36	1332.34
636.70	1322.84
637.05	1313.39
637.39	1304.43
637.73	1295.75
638.08	1288.28
638.42	1280.10
638.77	1271.43
639.11	1263.09
639.45	1255.28
639.80	1246.64
640.14	1237.92
640.49	1229.07
640.83	1220.17
641.17	1212.02
641.52	1203.79
641.86	1195.30
642.20	1187.39
642.55	1178.77
642.89	1169.89
643.23	1161.19
643.58	1153.14
643.92	1144.04
644.26	1135.30
644.61	1126.81
644.95	1118.04
645.29	1108.72
645.64	1099.49
645.98	1090.96
646.32	1083.04
646.66	1074.46
647.01	1066.26
647.35	1058.07
647.69	1049.68
648.04	1041.39
648.38	1032.56
648.72	1023.75
649.06	1015.23
649.41	1006.97
649.75	999.03
650.09	991.07
650.43	983.11
650.78	974.70
651.12	966.98
651.46	959.58
651.80	952.31
652.14	945.02
652.49	937.51
652.83	930.26
653.17	922.62
653.51	914.99
653.85	907.70
654.20	900.39
654.54	892.99
654.88	885.72
655.22	878.53
655.56	871.51
655.90	864.79
656.25	858.05
656.59	851.16
656.93	844.06
657.27	836.96
657.61	829.89
657.95	823.80
658.29	817.79
658.64	811.63
658.98	805.08
659.32	798.44
659.66	792.13
660.00	785.77
660.34	779.56
660.68	773.41
661.02	767.04
661.36	761.03
661.70	755.14
662.05	749.42
662.39	743.88
662.73	738.38
663.07	732.90
663.41	727.31
663.75	721.55
664.09	715.88
664.43	710.38
664.77	705.02
665.11	699.15
665.45	693.26
665.79	687.41
666.13	681.70
666.47	676.25
666.81	670.71
667.15	665.26
667.49	660.09
667.83	654.78
668.17	649.57
668.51	644.39
668.85	639.48
669.19	634.58
669.53	629.51
669.87	624.44
670.21	619.66
670.55	614.88
670.89	610.41
671.23	606.07
671.57	601.66
671.91	597.30
672.25	593.12
672.58	589.02
672.92	584.95
673.26	581.04
673.60	577.15
673.94	573.33
674.28	569.70
674.62	565.88
674.96	562.11
675.30	558.58
675.64	554.90
675.97	551.24
676.31	547.58
676.65	543.91
676.99	540.45
677.33	536.51
677.67	532.85
678.01	528.92
678.34	525.18
678.68	521.66
679.02	518.00
679.36	514.24
679.70	510.54
680.04	506.95
680.37	503.46
680.71	500.06
681.05	496.89
681.39	493.58
681.73	490.39
682.06	487.32
682.40	484.14
682.74	480.89
683.08	477.62
683.42	474.40
683.75	471.39
684.09	468.37
684.43	465.59
684.77	462.57
685.10	459.70
685.44	456.78
685.78	453.80
686.12	451.02
686.45	448.26
686.79	445.55
687.13	442.99
687.46	440.31
687.80	437.62
688.14	434.70
688.48	432.01
688.81	429.30
689.15	426.70
689.49	424.06
689.82	421.53
690.16	418.92
690.50	416.46
690.83	413.89
691.17	411.26
691.51	408.72
691.84	406.43
692.18	404.20
692.52	401.99
692.85	399.78
693.19	397.60
693.52	395.46
693.86	393.19
694.20	390.96
694.53	388.74
694.87	386.48
695.21	384.26
695.54	382.08
695.88	379.85
696.21	377.58
696.55	375.40
696.88	373.29
697.22	371.28
697.56	369.31
697.89	367.43
698.23	365.67
698.56	363.85
698.90	362.05
699.23	360.13
699.57	358.22
699.90	356.34
700.24	354.51
700.58	352.71
700.91	351.07
701.25	349.46
701.58	347.89
701.92	346.28
702.25	344.71
702.59	343.08
702.92	341.55
703.26	339.94
703.59	338.50
703.93	337.22
704.26	335.74
704.60	334.21
704.93	332.65
705.26	331.09
705.60	329.61
705.93	328.11
706.27	326.78
706.60	325.46
706.94	324.25
707.27	322.90
707.61	321.49
707.94	320.07
708.27	318.58
708.61	317.10
708.94	315.70
709.28	314.38
709.61	313.11
709.94	311.87
710.28	310.73
710.61	309.47
710.95	308.03
711.28	306.92
711.61	305.70
711.95	304.60
712.28	303.39
712.61	302.19
712.95	301.09
713.28	299.99
713.61	298.85
713.95	297.65
714.28	296.57
714.61	295.54
714.95	294.54
715.28	293.49
715.61	292.45
715.95	291.46
716.28	290.48
716.61	289.53
716.95	288.52
717.28	287.53
717.61	286.55
717.94	285.64
718.28	284.62
718.61	283.75
718.94	282.78
719.27	281.92
719.61	281.07
719.94	280.17
720.27	279.20
720.60	278.31
720.94	277.48
721.27	276.69
721.60	275.98
721.93	275.23
722.27	274.59
722.60	273.88
722.93	273.20
723.26	272.53
723.59	271.80
723.93	271.17
724.26	270.53
724.59	269.86
724.92	269.24
725.25	268.71
725.59	268.15
725.92	267.66
726.25	267.10
726.58	266.52
726.91	265.96
727.24	265.41
727.57	264.85
727.91	264.27
728.24	263.67
728.57	263.06
728.90	262.50
729.23	261.84
729.56	261.44
729.89	260.86
730.22	260.27
730.55	259.70
730.89	259.16
731.22	258.57
731.55	258.08
731.88	257.57
732.21	256.99
732.54	256.42
732.87	255.86
733.20	255.37
733.53	254.87
733.86	254.36
734.19	253.85
734.52	253.40
734.85	253.08
735.18	252.65
735.51	252.27
735.84	251.81
736.17	251.44
736.50	250.87
736.83	250.73
737.16	250.34
737.49	249.99
737.82	249.56
738.15	249.22
738.48	248.81
738.81	248.42
739.14	248.00
739.47	247.61
739.80	247.22
740.13	246.86
740.46	246.50
740.79	246.11
741.12	245.76
741.45	245.42
741.78	244.98
742.11	244.66
742.44	244.27
742.77	243.99
743.10	243.63
743.43	243.28
743.75	242.69
744.08	242.63
744.41	242.27
744.74	241.88
745.07	241.49
745.40	241.20
745.73	240.94
746.06	240.61
746.39	240.32
746.71	239.95
747.04	239.54
747.37	239.23
747.70	238.97
748.03	238.66
748.36	238.39
748.68	238.04
749.01	237.67
749.34	237.35
749.67	237.04
750.00	236.78
750.33	236.62
750.65	236.38
750.98	235.80
751.31	235.55
751.64	235.33
751.97	235.22
752.29	234.95
752.62	234.61
752.95	234.36
753.28	234.08
753.60	233.87
753.93	233.71
754.26	233.49
754.59	233.18
754.91	232.95
755.24	232.68
755.57	232.46
755.90	232.28
756.22	232.06
756.55	231.80
756.88	231.52
757.20	231.19
757.53	230.94
757.86	230.76
758.19	230.59
758.51	230.39
758.84	230.05
759.17	229.84
759.49	229.68
759.82	229.58
760.15	229.43
760.47	229.23
760.80	229.02
761.13	228.85
761.45	228.66
761.78	228.48
762.11	228.33
762.43	228.16
762.76	227.96
763.08	227.82
763.41	227.69
763.74	227.57
764.06	227.44
764.39	227.25
764.71	227.09
765.04	226.90
765.37	226.69
765.69	226.54
766.02	226.40
766.34	226.25
766.67	226.01
767.00	225.92
767.32	225.88
767.65	225.83
767.97	225.66
768.30	225.55
768.62	225.43
768.95	225.24
769.27	225.11
769.60	225.02
769.92	224.80
770.25	224.63
770.57	224.46
770.90	224.29
771.22	224.17
771.55	224.05
771.87	223.93
772.20	223.87
772.52	223.92
772.85	224.03
773.17	223.88
773.50	223.76
773.82	223.60
774.15	223.42
774.47	223.19
774.80	223.09
775.12	222.97
775.45	222.87
775.77	222.79
776.09	222.70
776.42	222.60
776.74	222.64
777.07	222.53
777.39	222.44
777.72	222.36
778.04	222.32
778.36	222.23
778.69	222.17
779.01	222.06
779.33	221.80
779.66	221.50
779.98	221.44
780.31	221.37
780.63	221.37
780.95	221.32
781.28	221.24
781.60	221.13
781.92	221.06
782.25	220.96
782.57	220.91
782.89	220.84
783.22	220.78
783.54	220.62
783.86	220.59
784.19	220.53
784.51	220.49
784.83	220.37
785.16	220.27
785.48	220.21
785.80	220.15
786.12	220.13
