SpectraSuite Data File
++++++++++++++++++++++++++++++++++++
Date: Tue Jan 29 16:13:24 EST 2013
User: group
Dark Spectrum Present: No
Reference Spectrum Present: No
Number of Sampled Component Spectra: 1
Spectrometers: USB2E7196
Integration Time (usec): 65000 (USB2E7196)
Spectra Averaged: 100 (USB2E7196)
Boxcar Smoothing: 10 (USB2E7196)
Correct for Electrical Dark: No (USB2E7196)
Strobe/Lamp Enabled: No (USB2E7196)
Correct for Detector Non-linearity: No (USB2E7196)
Correct for Stray Light: No (USB2E7196)
Number of Pixels in Processed Spectrum: 2048
>>>>>Begin Processed Spectral Data<<<<<
339.09	0.00
339.48	202.78
339.86	204.11
340.24	204.93
340.63	206.36
341.01	211.23
341.39	209.09
341.78	210.68
342.16	211.91
342.54	212.28
342.93	201.46
343.31	211.61
343.69	212.14
344.07	212.57
344.46	213.06
344.84	213.46
345.22	213.61
345.60	213.90
345.99	214.08
346.37	214.21
346.75	214.33
347.13	214.38
347.52	214.45
347.90	214.58
348.28	214.65
348.66	214.72
349.05	214.69
349.43	214.76
349.81	214.83
350.19	214.91
350.57	214.96
350.96	215.08
351.34	215.21
351.72	215.30
352.10	215.45
352.48	215.50
352.87	215.56
353.25	215.66
353.63	215.73
354.01	215.82
354.39	215.92
354.77	216.00
355.15	216.18
355.54	216.22
355.92	216.21
356.30	216.28
356.68	216.50
357.06	216.57
357.44	216.62
357.82	216.68
358.20	216.76
358.58	216.83
358.97	216.87
359.35	216.97
359.73	217.05
360.11	217.09
360.49	217.13
360.87	217.16
361.25	217.22
361.63	217.34
362.01	217.40
362.39	217.42
362.77	217.48
363.15	217.48
363.53	217.54
363.91	217.59
364.29	217.66
364.67	217.52
365.05	217.58
365.43	217.63
365.81	217.71
366.19	217.82
366.57	217.93
366.95	217.98
367.33	217.95
367.71	217.97
368.09	218.00
368.47	218.02
368.85	218.04
369.23	218.10
369.61	218.01
369.99	218.06
370.37	218.09
370.75	218.17
371.13	218.10
371.51	218.07
371.89	218.08
372.27	218.04
372.65	217.99
373.03	217.95
373.41	217.93
373.78	217.86
374.16	217.73
374.54	217.61
374.92	217.54
375.30	217.54
375.68	217.43
376.06	217.40
376.44	217.35
376.82	217.32
377.19	217.23
377.57	217.16
377.95	217.03
378.33	216.95
378.71	216.80
379.09	216.75
379.47	216.68
379.84	216.59
380.22	216.50
380.60	216.41
380.98	216.35
381.36	216.27
381.73	216.20
382.11	216.19
382.49	216.17
382.87	216.11
383.25	216.04
383.62	216.26
384.00	216.19
384.38	216.16
384.76	216.16
385.13	216.21
385.51	216.17
385.89	216.14
386.27	216.15
386.64	216.16
387.02	216.15
387.40	216.14
387.78	216.14
388.15	216.12
388.53	216.11
388.91	216.08
389.29	216.05
389.66	216.05
390.04	216.00
390.42	216.00
390.79	215.99
391.17	215.99
391.55	215.76
391.92	215.77
392.30	215.74
392.68	215.71
393.05	215.66
393.43	215.67
393.81	215.70
394.18	215.64
394.56	215.63
394.94	215.66
395.31	215.63
395.69	215.69
396.06	215.77
396.44	215.80
396.82	215.82
397.19	215.93
397.57	215.96
397.95	216.04
398.32	216.01
398.70	216.04
399.07	216.11
399.45	216.10
399.82	216.11
400.20	216.15
400.58	216.22
400.95	216.23
401.33	216.30
401.70	216.49
402.08	216.60
402.45	216.66
402.83	216.80
403.20	216.90
403.58	216.99
403.95	217.11
404.33	217.28
404.71	217.41
405.08	217.65
405.46	217.80
405.83	217.96
406.21	218.14
406.58	218.37
406.96	218.58
407.33	218.88
407.70	219.19
408.08	219.61
408.45	219.93
408.83	220.31
409.20	220.68
409.58	220.94
409.95	221.38
410.33	221.82
410.70	222.20
411.08	222.76
411.45	223.29
411.82	223.83
412.20	224.49
412.57	225.28
412.95	225.82
413.32	226.65
413.69	227.47
414.07	228.38
414.44	229.32
414.82	230.30
415.19	231.45
415.56	232.58
415.94	233.75
416.31	235.11
416.68	236.46
417.06	238.00
417.43	239.49
417.81	241.15
418.18	242.88
418.55	244.75
418.93	246.73
419.30	248.78
419.67	250.91
420.04	253.11
420.42	255.41
420.79	258.16
421.16	260.82
421.54	263.61
421.91	266.46
422.28	269.47
422.66	272.66
423.03	275.81
423.40	279.07
423.77	282.55
424.15	286.09
424.52	289.78
424.89	293.79
425.26	297.74
425.64	301.50
426.01	305.67
426.38	310.00
426.75	314.36
427.13	318.92
427.50	323.74
427.87	328.71
428.24	333.71
428.61	338.50
428.99	343.89
429.36	349.73
429.73	355.41
430.10	361.08
430.47	366.92
430.85	373.01
431.22	379.51
431.59	386.39
431.96	392.95
432.33	400.21
432.70	407.21
433.08	415.44
433.45	423.22
433.82	431.01
434.19	439.57
434.56	448.03
434.93	456.05
435.30	464.06
435.68	472.94
436.05	481.62
436.42	490.26
436.79	498.08
437.16	506.53
437.53	515.47
437.90	524.27
438.27	532.95
438.64	541.79
439.01	550.01
439.38	557.30
439.75	564.39
440.13	572.54
440.50	580.22
440.87	586.44
441.24	592.86
441.61	599.88
441.98	605.11
442.35	611.15
442.72	617.31
443.09	623.12
443.46	626.69
443.83	629.14
444.20	631.20
444.57	634.17
444.94	635.56
445.31	636.92
445.68	638.26
446.05	638.79
446.42	638.03
446.79	637.08
447.16	636.02
447.53	635.27
447.90	631.97
448.27	628.84
448.64	624.29
449.01	621.04
449.37	615.34
449.74	609.86
450.11	603.20
450.48	596.07
450.85	588.85
451.22	582.59
451.59	576.64
451.96	571.04
452.33	563.45
452.70	556.51
453.07	548.43
453.43	540.13
453.80	532.14
454.17	524.47
454.54	517.21
454.91	509.35
455.28	501.66
455.65	494.59
456.02	487.34
456.38	481.23
456.75	473.67
457.12	467.33
457.49	461.06
457.86	455.09
458.23	449.89
458.59	444.23
458.96	438.47
459.33	433.40
459.70	428.18
460.07	424.14
460.43	419.55
460.80	415.11
461.17	411.24
461.54	407.21
461.91	403.34
462.27	399.35
462.64	396.00
463.01	392.33
463.38	388.74
463.74	385.15
464.11	382.05
464.48	379.35
464.85	376.41
465.21	374.05
465.58	371.54
465.95	368.48
466.32	365.91
466.68	363.44
467.05	360.94
467.42	358.54
467.78	355.97
468.15	353.46
468.52	351.65
468.88	349.28
469.25	347.19
469.62	345.48
469.98	343.64
470.35	341.93
470.72	340.31
471.08	338.61
471.45	337.21
471.82	335.76
472.18	334.16
472.55	333.02
472.92	331.72
473.28	330.57
473.65	329.51
474.02	328.50
474.38	327.64
474.75	326.93
475.11	326.15
475.48	325.60
475.85	325.18
476.21	324.72
476.58	324.42
476.94	324.20
477.31	323.87
477.67	323.63
478.04	323.54
478.41	323.57
478.77	323.74
479.14	323.68
479.50	323.86
479.87	324.21
480.23	324.51
480.60	324.74
480.96	325.05
481.33	325.71
481.69	326.31
482.06	326.85
482.42	327.35
482.79	327.98
483.15	328.81
483.52	329.78
483.88	330.65
484.25	331.61
484.61	332.64
484.98	333.74
485.34	335.08
485.71	336.46
486.07	337.91
486.44	339.21
486.80	340.84
487.17	342.48
487.53	344.28
487.90	346.13
488.26	348.19
488.62	350.33
488.99	352.31
489.35	354.48
489.72	356.84
490.08	359.35
490.44	361.92
490.81	364.55
491.17	367.21
491.54	370.22
491.90	373.21
492.26	376.50
492.63	379.84
492.99	383.25
493.36	386.87
493.72	390.69
494.08	394.69
494.45	398.92
494.81	403.28
495.17	407.71
495.54	412.43
495.90	417.19
496.26	422.06
496.63	427.31
496.99	432.57
497.35	438.14
497.72	443.92
498.08	449.81
498.44	455.87
498.80	462.31
499.17	468.75
499.53	475.43
499.89	482.27
500.26	489.23
500.62	496.28
500.98	503.72
501.34	511.13
501.71	518.83
502.07	526.58
502.43	534.49
502.79	542.55
503.16	550.82
503.52	559.33
503.88	568.07
504.24	576.89
504.60	586.00
504.97	595.14
505.33	604.36
505.69	614.13
506.05	624.07
506.41	633.79
506.78	643.78
507.14	653.95
507.50	664.29
507.86	674.97
508.22	685.65
508.59	696.20
508.95	707.28
509.31	718.42
509.67	729.74
510.03	741.13
510.39	752.86
510.75	764.63
511.12	776.50
511.48	788.38
511.84	800.55
512.20	812.77
512.56	825.22
512.92	837.87
513.28	850.39
513.64	862.90
514.00	875.59
514.37	888.40
514.73	901.32
515.09	914.10
515.45	926.81
515.81	939.70
516.17	952.88
516.53	965.87
516.89	978.83
517.25	991.77
517.61	1005.07
517.97	1018.25
518.33	1031.23
518.69	1044.57
519.05	1058.13
519.41	1071.53
519.77	1085.20
520.13	1098.39
520.49	1111.32
520.85	1124.42
521.21	1137.58
521.57	1151.09
521.93	1164.03
522.29	1177.62
522.65	1191.07
523.01	1204.40
523.37	1217.39
523.73	1230.47
524.09	1243.55
524.45	1256.82
524.81	1270.26
525.17	1283.39
525.53	1296.29
525.89	1309.29
526.25	1322.10
526.61	1334.69
526.97	1347.55
527.33	1360.13
527.68	1373.20
528.04	1386.38
528.40	1399.25
528.76	1412.26
529.12	1424.84
529.48	1437.83
529.84	1449.78
530.20	1462.15
530.56	1474.44
530.91	1487.38
531.27	1499.83
531.63	1512.13
531.99	1524.48
532.35	1536.27
532.71	1548.27
533.07	1560.68
533.42	1572.57
533.78	1584.38
534.14	1596.16
534.50	1607.02
534.86	1618.39
535.21	1628.98
535.57	1640.25
535.93	1651.23
536.29	1662.07
536.65	1673.06
537.00	1683.65
537.36	1694.78
537.72	1705.51
538.08	1716.58
538.44	1727.31
538.79	1738.08
539.15	1748.60
539.51	1758.98
539.87	1769.89
540.22	1780.42
540.58	1790.98
540.94	1801.60
541.29	1811.55
541.65	1821.02
542.01	1831.26
542.37	1840.98
542.72	1850.87
543.08	1860.32
543.44	1870.51
543.79	1879.56
544.15	1888.83
544.51	1898.47
544.87	1907.99
545.22	1916.88
545.58	1925.47
545.94	1933.87
546.29	1942.18
546.65	1950.39
547.01	1958.44
547.36	1966.00
547.72	1973.49
548.07	1980.92
548.43	1988.48
548.79	1996.17
549.14	2004.01
549.50	2012.18
549.86	2019.70
550.21	2026.80
550.57	2034.24
550.92	2040.84
551.28	2048.08
551.64	2055.04
551.99	2062.42
552.35	2069.32
552.70	2075.93
553.06	2082.45
553.41	2088.67
553.77	2094.87
554.13	2100.96
554.48	2107.77
554.84	2114.55
555.19	2120.87
555.55	2127.30
555.90	2133.39
556.26	2139.99
556.61	2145.80
556.97	2150.53
557.32	2156.36
557.68	2162.73
558.03	2168.26
558.39	2173.41
558.74	2179.24
559.10	2184.78
559.45	2190.23
559.81	2195.69
560.16	2201.35
560.52	2207.09
560.87	2213.39
561.23	2219.42
561.58	2226.14
561.94	2231.43
562.29	2236.22
562.64	2242.34
563.00	2247.81
563.35	2253.28
563.71	2259.10
564.06	2264.71
564.42	2270.70
564.77	2275.83
565.12	2281.01
565.48	2286.31
565.83	2291.80
566.19	2297.23
566.54	2302.62
566.89	2307.22
567.25	2311.84
567.60	2317.48
567.96	2322.73
568.31	2327.26
568.66	2331.52
569.02	2335.27
569.37	2338.88
569.72	2343.38
570.08	2346.97
570.43	2350.04
570.78	2353.29
571.14	2355.94
571.49	2359.18
571.84	2362.81
572.20	2365.72
572.55	2368.86
572.90	2371.10
573.26	2373.94
573.61	2376.55
573.96	2378.80
574.31	2380.93
574.67	2383.07
575.02	2384.04
575.37	2385.57
575.72	2386.55
576.08	2388.16
576.43	2388.63
576.78	2389.53
577.13	2391.22
577.49	2392.53
577.84	2393.97
578.19	2395.53
578.54	2396.26
578.90	2397.39
579.25	2397.38
579.60	2397.45
579.95	2396.81
580.30	2397.21
580.66	2396.81
581.01	2395.28
581.36	2393.26
581.71	2392.01
582.06	2391.02
582.42	2390.21
582.77	2388.29
583.12	2386.89
583.47	2385.81
583.82	2385.38
584.17	2384.17
584.53	2382.26
584.88	2380.40
585.23	2378.77
585.58	2376.67
585.93	2374.70
586.28	2372.61
586.63	2370.43
586.98	2368.52
587.34	2366.95
587.69	2364.74
588.04	2362.93
588.39	2361.70
588.74	2359.33
589.09	2356.96
589.44	2353.99
589.79	2351.93
590.14	2350.06
590.49	2347.30
590.84	2343.59
591.19	2340.62
591.54	2337.43
591.89	2333.43
592.25	2330.24
592.60	2326.14
592.95	2322.07
593.30	2318.03
593.65	2313.76
594.00	2309.46
594.35	2306.47
594.70	2301.75
595.05	2297.33
595.40	2291.95
595.75	2286.41
596.10	2282.89
596.45	2278.05
596.80	2273.59
597.15	2268.36
597.50	2262.61
597.85	2257.89
598.19	2252.86
598.54	2247.14
598.89	2242.21
599.24	2238.00
599.59	2231.89
599.94	2226.26
600.29	2220.48
600.64	2214.68
600.99	2208.08
601.34	2202.82
601.69	2195.87
602.04	2189.61
602.39	2183.18
602.74	2177.20
603.08	2171.74
603.43	2165.28
603.78	2158.58
604.13	2151.59
604.48	2144.47
604.83	2138.47
605.18	2132.10
605.53	2125.14
605.87	2118.14
606.22	2111.49
606.57	2103.52
606.92	2095.80
607.27	2088.80
607.62	2082.30
607.96	2075.40
608.31	2068.89
608.66	2061.14
609.01	2053.72
609.36	2046.56
609.70	2038.83
610.05	2031.17
610.40	2022.88
610.75	2014.76
611.10	2007.23
611.44	1998.59
611.79	1989.92
612.14	1980.12
612.49	1969.80
612.83	1960.67
613.18	1951.83
613.53	1942.48
613.88	1932.96
614.22	1924.54
614.57	1914.75
614.92	1904.36
615.27	1894.29
615.61	1884.55
615.96	1874.92
616.31	1865.35
616.65	1856.24
617.00	1846.50
617.35	1836.87
617.70	1827.18
618.04	1817.18
618.39	1806.82
618.74	1797.09
619.08	1787.45
619.43	1778.71
619.78	1770.53
620.12	1761.81
620.47	1751.99
620.82	1741.71
621.16	1732.08
621.51	1722.16
621.85	1712.24
622.20	1701.67
622.55	1691.10
622.89	1681.19
623.24	1671.56
623.59	1661.78
623.93	1651.64
624.28	1641.99
624.62	1631.93
624.97	1621.70
625.32	1612.04
625.66	1603.39
626.01	1594.60
626.35	1585.25
626.70	1575.15
627.04	1564.94
627.39	1554.88
627.73	1545.50
628.08	1536.46
628.43	1526.74
628.77	1517.39
629.12	1508.69
629.46	1500.86
629.81	1492.50
630.15	1482.89
630.50	1473.04
630.84	1462.64
631.19	1452.78
631.53	1443.27
631.88	1433.14
632.22	1423.13
632.57	1413.75
632.91	1403.53
633.26	1393.64
633.60	1384.17
633.95	1374.88
634.29	1365.53
634.64	1356.26
634.98	1346.54
635.32	1337.36
635.67	1329.01
636.01	1319.80
636.36	1309.97
636.70	1300.49
637.05	1291.21
637.39	1282.22
637.73	1273.58
638.08	1266.08
638.42	1257.84
638.77	1249.26
639.11	1241.11
639.45	1233.29
639.80	1224.67
640.14	1216.06
640.49	1207.30
640.83	1198.52
641.17	1190.45
641.52	1182.32
641.86	1173.74
642.20	1165.83
642.55	1157.24
642.89	1148.35
643.23	1139.66
643.58	1131.64
643.92	1122.58
644.26	1113.91
644.61	1105.53
644.95	1096.83
645.29	1087.49
645.64	1078.37
645.98	1069.89
646.32	1061.92
646.66	1053.52
647.01	1045.31
647.35	1037.26
647.69	1028.93
648.04	1020.61
648.38	1011.73
648.72	1002.98
649.06	994.57
649.41	986.37
649.75	978.45
650.09	970.62
650.43	962.68
650.78	954.49
651.12	946.95
651.46	939.59
651.80	932.34
652.14	925.07
652.49	917.74
652.83	910.51
653.17	902.81
653.51	895.23
653.85	888.08
654.20	880.83
654.54	873.27
654.88	866.12
655.22	859.01
655.56	852.06
655.90	845.30
656.25	838.72
656.59	831.86
656.93	824.95
657.27	817.90
657.61	811.11
657.95	805.09
658.29	799.23
658.64	793.14
658.98	786.79
659.32	780.35
659.66	774.19
660.00	767.90
660.34	762.02
660.68	756.03
661.02	749.80
661.36	743.93
661.70	738.25
662.05	732.66
662.39	727.26
662.73	721.99
663.07	716.68
663.41	711.19
663.75	705.68
664.09	700.04
664.43	694.68
664.77	689.39
665.11	683.58
665.45	677.74
665.79	672.03
666.13	666.45
666.47	661.01
666.81	655.64
667.15	650.39
667.49	645.21
667.83	639.99
668.17	634.88
668.51	629.81
668.85	624.96
669.19	620.09
669.53	615.17
669.87	610.12
670.21	605.39
670.55	600.77
670.89	596.38
671.23	592.22
671.57	587.93
671.91	583.71
672.25	579.68
672.58	575.63
672.92	571.65
673.26	567.85
673.60	564.06
673.94	560.29
674.28	556.75
674.62	553.06
674.96	549.40
675.30	545.92
675.64	542.34
675.97	538.79
676.31	535.27
676.65	531.75
676.99	528.35
677.33	524.65
677.67	521.04
678.01	517.23
678.34	513.59
678.68	510.13
679.02	506.55
679.36	502.93
679.70	499.33
680.04	495.91
680.37	492.48
680.71	489.24
681.05	486.10
681.39	482.87
681.73	479.76
682.06	476.80
682.40	473.69
682.74	470.56
683.08	467.42
683.42	464.34
683.75	461.37
684.09	458.38
684.43	455.61
684.77	452.71
685.10	449.90
685.44	447.02
685.78	444.16
686.12	441.47
686.45	438.75
686.79	436.18
687.13	433.68
687.46	431.07
687.80	428.42
688.14	425.64
688.48	423.08
688.81	420.46
689.15	417.92
689.49	415.37
689.82	412.84
690.16	410.31
690.50	407.87
690.83	405.46
691.17	403.05
691.51	400.60
691.84	398.41
692.18	396.27
692.52	394.14
692.85	392.07
693.19	389.98
693.52	387.88
693.86	385.69
694.20	383.47
694.53	381.35
694.87	379.21
695.21	377.12
695.54	374.97
695.88	372.89
696.21	370.77
696.55	368.64
696.88	366.68
697.22	364.77
697.56	362.94
697.89	361.03
698.23	359.27
698.56	357.60
698.90	355.89
699.23	353.99
699.57	352.13
699.90	350.28
700.24	348.51
700.58	346.80
700.91	345.19
701.25	343.70
701.58	342.17
701.92	340.62
702.25	339.06
702.59	337.50
702.92	336.01
703.26	334.49
703.59	333.16
703.93	331.89
704.26	330.49
704.60	329.03
704.93	327.62
705.26	326.14
705.60	324.68
705.93	323.18
706.27	321.91
706.60	320.75
706.94	319.53
707.27	318.09
707.61	316.79
707.94	315.44
708.27	313.96
708.61	312.55
708.94	311.20
709.28	309.98
709.61	308.79
709.94	307.60
710.28	306.38
710.61	305.17
710.95	303.79
711.28	302.73
711.61	301.57
711.95	300.47
712.28	299.35
712.61	298.23
712.95	297.23
713.28	296.22
713.61	295.07
713.95	293.96
714.28	293.05
714.61	292.03
714.95	291.07
715.28	290.05
715.61	289.05
715.95	288.13
716.28	287.16
716.61	286.21
716.95	285.23
717.28	284.32
717.61	283.40
717.94	282.54
718.28	281.55
718.61	280.69
718.94	279.78
719.27	278.90
719.61	278.09
719.94	277.22
720.27	276.28
720.60	275.46
720.94	274.71
721.27	273.97
721.60	273.33
721.93	272.61
722.27	272.04
722.60	271.40
722.93	270.72
723.26	270.10
723.59	269.43
723.93	268.85
724.26	268.25
724.59	267.64
724.92	267.10
725.25	266.60
725.59	266.05
725.92	265.55
726.25	265.03
726.58	264.45
726.91	263.89
727.24	263.40
727.57	262.85
727.91	262.24
728.24	261.72
728.57	261.13
728.90	260.60
729.23	260.00
729.56	259.56
729.89	259.01
730.22	258.48
730.55	257.97
730.89	257.44
731.22	256.88
731.55	256.41
731.88	255.84
732.21	255.29
732.54	254.77
732.87	254.27
733.20	253.80
733.53	253.33
733.86	252.90
734.19	252.40
734.52	252.02
734.85	251.75
735.18	251.27
735.51	250.90
735.84	250.52
736.17	250.16
736.50	249.66
736.83	249.54
737.16	249.15
737.49	248.81
737.82	248.44
738.15	248.11
738.48	247.70
738.81	247.31
739.14	246.90
739.47	246.54
739.80	246.18
740.13	245.87
740.46	245.49
740.79	245.10
741.12	244.74
741.45	244.33
741.78	243.89
742.11	243.62
742.44	243.26
742.77	242.99
743.10	242.65
743.43	242.30
743.75	241.74
744.08	241.68
744.41	241.26
744.74	240.90
745.07	240.54
745.40	240.28
745.73	240.06
746.06	239.75
746.39	239.45
746.71	239.10
747.04	238.71
747.37	238.42
747.70	238.14
748.03	237.86
748.36	237.61
748.68	237.33
749.01	237.01
749.34	236.72
749.67	236.39
750.00	236.12
750.33	236.00
750.65	235.73
750.98	235.23
751.31	235.01
751.64	234.80
751.97	234.66
752.29	234.38
752.62	234.06
752.95	233.81
753.28	233.58
753.60	233.34
753.93	233.21
754.26	233.00
754.59	232.76
754.91	232.55
755.24	232.34
755.57	232.07
755.90	231.86
756.22	231.63
756.55	231.41
756.88	231.16
757.20	230.82
757.53	230.57
757.86	230.37
758.19	230.19
758.51	229.98
758.84	229.68
759.17	229.50
759.49	229.32
759.82	229.28
760.15	229.08
760.47	228.91
760.80	228.65
761.13	228.52
761.45	228.30
761.78	228.07
762.11	227.88
762.43	227.71
762.76	227.50
763.08	227.35
763.41	227.20
763.74	227.04
764.06	226.89
764.39	226.75
764.71	226.59
765.04	226.42
765.37	226.26
765.69	226.12
766.02	225.97
766.34	225.86
766.67	225.59
767.00	225.48
767.32	225.51
767.65	225.47
767.97	225.32
768.30	225.24
768.62	225.14
768.95	225.02
769.27	224.92
769.60	224.85
769.92	224.71
770.25	224.58
770.57	224.42
770.90	224.30
771.22	224.19
771.55	224.09
771.87	224.01
772.20	223.90
772.52	223.98
772.85	224.10
773.17	223.98
773.50	223.89
773.82	223.80
774.15	223.59
774.47	223.37
774.80	223.23
775.12	223.13
775.45	223.06
775.77	222.96
776.09	222.87
776.42	222.79
776.74	222.73
777.07	222.59
777.39	222.53
777.72	222.46
778.04	222.39
778.36	222.28
778.69	222.22
779.01	222.13
779.33	221.86
779.66	221.55
779.98	221.43
780.31	221.39
780.63	221.38
780.95	221.32
781.28	221.28
781.60	221.19
781.92	221.11
782.25	221.05
782.57	220.99
782.89	220.92
783.22	220.85
783.54	220.75
783.86	220.74
784.19	220.67
784.51	220.67
784.83	220.59
785.16	220.53
785.48	220.45
785.80	220.43
786.12	220.40
