SpectraSuite Data File
++++++++++++++++++++++++++++++++++++
Date: Tue Jan 29 15:54:50 EST 2013
User: group
Dark Spectrum Present: No
Reference Spectrum Present: No
Number of Sampled Component Spectra: 1
Spectrometers: USB2E7196
Integration Time (usec): 65000 (USB2E7196)
Spectra Averaged: 100 (USB2E7196)
Boxcar Smoothing: 10 (USB2E7196)
Correct for Electrical Dark: No (USB2E7196)
Strobe/Lamp Enabled: No (USB2E7196)
Correct for Detector Non-linearity: No (USB2E7196)
Correct for Stray Light: No (USB2E7196)
Number of Pixels in Processed Spectrum: 2048
>>>>>Begin Processed Spectral Data<<<<<
339.09	0.00
339.48	202.65
339.86	204.41
340.24	205.46
340.63	207.07
341.01	211.50
341.39	209.61
341.78	211.55
342.16	212.79
342.54	212.89
342.93	202.00
343.31	212.21
343.69	212.77
344.07	213.24
344.46	213.71
344.84	214.13
345.22	214.31
345.60	214.59
345.99	214.79
346.37	214.91
346.75	215.01
347.13	215.11
347.52	215.18
347.90	215.31
348.28	215.34
348.66	215.43
349.05	215.38
349.43	215.46
349.81	215.52
350.19	215.58
350.57	215.65
350.96	215.73
351.34	215.86
351.72	215.95
352.10	216.06
352.48	216.11
352.87	216.17
353.25	216.22
353.63	216.28
354.01	216.34
354.39	216.45
354.77	216.53
355.15	216.66
355.54	216.73
355.92	216.71
356.30	216.81
356.68	217.02
357.06	217.13
357.44	217.15
357.82	217.20
358.20	217.30
358.58	217.35
358.97	217.41
359.35	217.46
359.73	217.57
360.11	217.65
360.49	217.70
360.87	217.72
361.25	217.81
361.63	217.93
362.01	217.99
362.39	218.00
362.77	218.08
363.15	218.09
363.53	218.10
363.91	218.18
364.29	218.21
364.67	218.00
365.05	218.00
365.43	218.03
365.81	218.08
366.19	218.19
366.57	218.30
366.95	218.33
367.33	218.32
367.71	218.28
368.09	218.28
368.47	218.29
368.85	218.29
369.23	218.31
369.61	218.23
369.99	218.27
370.37	218.29
370.75	218.37
371.13	218.31
371.51	218.26
371.89	218.23
372.27	218.21
372.65	218.22
373.03	218.20
373.41	218.15
373.78	218.08
374.16	217.96
374.54	217.85
374.92	217.79
375.30	217.76
375.68	217.70
376.06	217.67
376.44	217.64
376.82	217.61
377.19	217.57
377.57	217.51
377.95	217.40
378.33	217.33
378.71	217.15
379.09	217.15
379.47	217.12
379.84	217.04
380.22	216.99
380.60	216.90
380.98	216.83
381.36	216.78
381.73	216.74
382.11	216.73
382.49	216.69
382.87	216.62
383.25	216.55
383.62	216.77
384.00	216.69
384.38	216.65
384.76	216.66
385.13	216.71
385.51	216.67
385.89	216.60
386.27	216.58
386.64	216.56
387.02	216.52
387.40	216.49
387.78	216.47
388.15	216.43
388.53	216.40
388.91	216.41
389.29	216.40
389.66	216.38
390.04	216.33
390.42	216.37
390.79	216.38
391.17	216.38
391.55	216.12
391.92	216.10
392.30	216.10
392.68	216.02
393.05	215.98
393.43	216.03
393.81	216.03
394.18	216.02
394.56	216.04
394.94	216.07
395.31	216.07
395.69	216.16
396.06	216.20
396.44	216.26
396.82	216.25
397.19	216.39
397.57	216.39
397.95	216.42
398.32	216.39
398.70	216.42
399.07	216.52
399.45	216.58
399.82	216.62
400.20	216.66
400.58	216.74
400.95	216.71
401.33	216.81
401.70	217.02
402.08	217.09
402.45	217.19
402.83	217.34
403.20	217.44
403.58	217.50
403.95	217.67
404.33	217.81
404.71	217.93
405.08	218.16
405.46	218.35
405.83	218.55
406.21	218.76
406.58	219.01
406.96	219.19
407.33	219.42
407.70	219.74
408.08	220.19
408.45	220.54
408.83	220.94
409.20	221.24
409.58	221.54
409.95	221.98
410.33	222.41
410.70	222.80
411.08	223.31
411.45	223.86
411.82	224.37
412.20	225.03
412.57	225.81
412.95	226.35
413.32	227.16
413.69	227.94
414.07	228.79
414.44	229.74
414.82	230.72
415.19	231.87
415.56	233.01
415.94	234.11
416.31	235.44
416.68	236.75
417.06	238.27
417.43	239.74
417.81	241.41
418.18	243.15
418.55	244.98
418.93	246.93
419.30	248.96
419.67	251.11
420.04	253.27
420.42	255.58
420.79	258.31
421.16	260.96
421.54	263.74
421.91	266.59
422.28	269.50
422.66	272.66
423.03	275.78
423.40	278.98
423.77	282.42
424.15	285.97
424.52	289.61
424.89	293.59
425.26	297.49
425.64	301.21
426.01	305.26
426.38	309.58
426.75	313.92
427.13	318.48
427.50	323.23
427.87	328.25
428.24	333.19
428.61	337.93
428.99	343.19
429.36	348.94
429.73	354.59
430.10	360.24
430.47	366.04
430.85	372.05
431.22	378.49
431.59	385.31
431.96	391.80
432.33	399.00
432.70	405.99
433.08	414.18
433.45	421.94
433.82	429.61
434.19	438.14
434.56	446.52
434.93	454.47
435.30	462.31
435.68	471.01
436.05	479.64
436.42	488.21
436.79	495.96
437.16	504.34
437.53	513.28
437.90	522.05
438.27	530.65
438.64	539.53
439.01	547.69
439.38	554.96
439.75	562.02
440.13	570.07
440.50	577.63
440.87	583.76
441.24	590.08
441.61	597.13
441.98	602.27
442.35	608.32
442.72	614.32
443.09	620.10
443.46	623.67
443.83	626.02
444.20	628.11
444.57	631.14
444.94	632.55
445.31	633.90
445.68	635.18
446.05	635.69
446.42	634.86
446.79	633.85
447.16	632.70
447.53	631.95
447.90	628.77
448.27	625.54
448.64	621.07
449.01	617.84
449.37	612.21
449.74	606.69
450.11	599.99
450.48	592.93
450.85	585.90
451.22	579.65
451.59	573.82
451.96	568.18
452.33	560.68
452.70	553.88
453.07	545.72
453.43	537.49
453.80	529.61
454.17	522.08
454.54	514.92
454.91	507.16
455.28	499.55
455.65	492.50
456.02	485.49
456.38	479.48
456.75	472.04
457.12	465.76
457.49	459.60
457.86	453.79
458.23	448.71
458.59	443.09
458.96	437.45
459.33	432.40
459.70	427.29
460.07	423.27
460.43	418.60
460.80	414.27
461.17	410.49
461.54	406.44
461.91	402.54
462.27	398.65
462.64	395.39
463.01	391.71
463.38	388.17
463.74	384.58
464.11	381.47
464.48	378.71
464.85	375.74
465.21	373.42
465.58	370.90
465.95	367.87
466.32	365.31
466.68	362.85
467.05	360.42
467.42	358.00
467.78	355.47
468.15	353.07
468.52	351.28
468.88	348.94
469.25	346.86
469.62	345.18
469.98	343.37
470.35	341.67
470.72	340.10
471.08	338.40
471.45	337.02
471.82	335.61
472.18	334.05
472.55	332.96
472.92	331.68
473.28	330.52
473.65	329.51
474.02	328.47
474.38	327.61
474.75	326.92
475.11	326.13
475.48	325.57
475.85	325.13
476.21	324.69
476.58	324.32
476.94	324.14
477.31	323.86
477.67	323.61
478.04	323.50
478.41	323.46
478.77	323.70
479.14	323.68
479.50	323.81
479.87	324.14
480.23	324.46
480.60	324.74
480.96	325.08
481.33	325.69
481.69	326.30
482.06	326.83
482.42	327.32
482.79	327.98
483.15	328.81
483.52	329.81
483.88	330.68
484.25	331.66
484.61	332.72
484.98	333.78
485.34	335.10
485.71	336.50
486.07	337.96
486.44	339.26
486.80	340.89
487.17	342.54
487.53	344.36
487.90	346.22
488.26	348.20
488.62	350.38
488.99	352.38
489.35	354.54
489.72	356.94
490.08	359.46
490.44	362.03
490.81	364.71
491.17	367.38
491.54	370.34
491.90	373.39
492.26	376.61
492.63	380.01
492.99	383.50
493.36	387.12
493.72	391.03
494.08	395.03
494.45	399.21
494.81	403.61
495.17	408.05
495.54	412.76
495.90	417.63
496.26	422.44
496.63	427.66
496.99	433.06
497.35	438.61
497.72	444.41
498.08	450.30
498.44	456.38
498.80	462.75
499.17	469.24
499.53	475.89
499.89	482.78
500.26	489.75
500.62	496.83
500.98	504.25
501.34	511.63
501.71	519.35
502.07	527.08
502.43	534.97
502.79	543.05
503.16	551.37
503.52	559.87
503.88	568.57
504.24	577.44
504.60	586.43
504.97	595.60
505.33	604.83
505.69	614.67
506.05	624.49
506.41	634.25
506.78	644.26
507.14	654.44
507.50	664.78
507.86	675.42
508.22	686.13
508.59	696.66
508.95	707.68
509.31	718.87
509.67	730.31
510.03	741.71
510.39	753.44
510.75	765.25
511.12	777.07
511.48	789.12
511.84	801.30
512.20	813.57
512.56	826.06
512.92	838.67
513.28	851.14
513.64	863.80
514.00	876.54
514.37	889.41
514.73	902.31
515.09	915.14
515.45	927.83
515.81	940.61
516.17	953.88
516.53	966.87
516.89	979.72
517.25	992.66
517.61	1005.93
517.97	1019.01
518.33	1031.85
518.69	1045.16
519.05	1058.57
519.41	1072.04
519.77	1085.59
520.13	1098.65
520.49	1111.61
520.85	1124.83
521.21	1137.84
521.57	1151.25
521.93	1164.12
522.29	1177.72
522.65	1191.17
523.01	1204.59
523.37	1217.55
523.73	1230.53
524.09	1243.47
524.45	1256.53
524.81	1269.64
525.17	1282.73
525.53	1295.50
525.89	1308.42
526.25	1321.18
526.61	1333.70
526.97	1346.39
527.33	1359.00
527.68	1372.15
528.04	1385.28
528.40	1397.97
528.76	1410.94
529.12	1423.53
529.48	1436.31
529.84	1448.13
530.20	1460.42
530.56	1472.58
530.91	1485.47
531.27	1497.89
531.63	1510.31
531.99	1522.80
532.35	1534.84
532.71	1546.80
533.07	1559.48
533.42	1571.41
533.78	1583.15
534.14	1594.98
534.50	1605.82
534.86	1617.00
535.21	1627.40
535.57	1638.47
535.93	1649.37
536.29	1660.07
536.65	1671.01
537.00	1681.62
537.36	1692.51
537.72	1702.99
538.08	1713.93
538.44	1724.32
538.79	1734.98
539.15	1745.33
539.51	1755.70
539.87	1766.46
540.22	1776.84
540.58	1787.25
540.94	1797.64
541.29	1807.50
541.65	1816.63
542.01	1826.89
542.37	1836.52
542.72	1846.42
543.08	1855.85
543.44	1865.83
543.79	1874.78
544.15	1883.71
544.51	1893.24
544.87	1902.77
545.22	1911.63
545.58	1920.15
545.94	1928.69
546.29	1936.74
546.65	1944.78
547.01	1952.46
547.36	1959.59
547.72	1967.00
548.07	1974.21
548.43	1981.67
548.79	1989.28
549.14	1997.13
549.50	2004.98
549.86	2012.61
550.21	2019.71
550.57	2027.02
550.92	2033.46
551.28	2040.46
551.64	2047.58
551.99	2054.85
552.35	2061.74
552.70	2068.28
553.06	2074.62
553.41	2080.78
553.77	2087.13
554.13	2093.35
554.48	2100.28
554.84	2107.31
555.19	2113.66
555.55	2119.89
555.90	2126.02
556.26	2132.57
556.61	2138.56
556.97	2143.37
557.32	2148.93
557.68	2155.10
558.03	2160.68
558.39	2165.82
558.74	2171.81
559.10	2177.27
559.45	2182.71
559.81	2188.30
560.16	2193.88
560.52	2199.67
560.87	2206.02
561.23	2211.80
561.58	2218.39
561.94	2223.63
562.29	2228.38
562.64	2234.52
563.00	2240.34
563.35	2246.06
563.71	2251.69
564.06	2257.23
564.42	2263.17
564.77	2268.24
565.12	2273.50
565.48	2278.68
565.83	2284.35
566.19	2289.83
566.54	2295.24
566.89	2299.86
567.25	2304.41
567.60	2310.12
567.96	2315.47
568.31	2319.91
568.66	2324.38
569.02	2328.35
569.37	2332.18
569.72	2336.69
570.08	2340.21
570.43	2343.26
570.78	2346.20
571.14	2348.88
571.49	2352.16
571.84	2355.78
572.20	2358.84
572.55	2361.86
572.90	2364.37
573.26	2367.45
573.61	2370.22
573.96	2372.50
574.31	2374.68
574.67	2376.80
575.02	2377.77
575.37	2379.24
575.72	2380.29
576.08	2381.89
576.43	2382.23
576.78	2382.95
577.13	2384.69
577.49	2386.01
577.84	2387.33
578.19	2389.12
578.54	2390.16
578.90	2391.22
579.25	2391.41
579.60	2391.64
579.95	2391.42
580.30	2391.84
580.66	2391.38
581.01	2389.95
581.36	2388.08
581.71	2387.00
582.06	2386.21
582.42	2385.80
582.77	2384.15
583.12	2382.94
583.47	2382.07
583.82	2381.87
584.17	2380.79
584.53	2379.09
584.88	2377.35
585.23	2375.89
585.58	2373.85
585.93	2371.84
586.28	2370.02
586.63	2368.04
586.98	2366.12
587.34	2364.41
587.69	2362.25
588.04	2360.43
588.39	2359.29
588.74	2357.00
589.09	2354.76
589.44	2351.83
589.79	2349.53
590.14	2347.82
590.49	2345.25
590.84	2341.56
591.19	2338.75
591.54	2335.95
591.89	2332.04
592.25	2329.21
592.60	2325.23
592.95	2321.49
593.30	2317.84
593.65	2313.58
594.00	2309.39
594.35	2306.64
594.70	2302.18
595.05	2297.86
595.40	2292.74
595.75	2287.18
596.10	2283.76
596.45	2279.12
596.80	2274.77
597.15	2269.63
597.50	2263.87
597.85	2258.98
598.19	2254.02
598.54	2248.32
598.89	2243.17
599.24	2238.85
599.59	2232.81
599.94	2227.15
600.29	2221.24
600.64	2215.42
600.99	2208.74
601.34	2203.25
601.69	2196.43
602.04	2190.25
602.39	2183.61
602.74	2177.55
603.08	2172.11
603.43	2165.75
603.78	2158.94
604.13	2151.91
604.48	2144.78
604.83	2138.84
605.18	2132.88
605.53	2126.09
605.87	2119.21
606.22	2112.61
606.57	2104.82
606.92	2096.90
607.27	2090.04
607.62	2083.49
607.96	2076.65
608.31	2070.46
608.66	2062.79
609.01	2055.23
609.36	2048.14
609.70	2040.68
610.05	2033.07
610.40	2024.99
610.75	2016.69
611.10	2009.04
611.44	2000.33
611.79	1991.79
612.14	1981.77
612.49	1971.15
612.83	1961.87
613.18	1952.57
613.53	1943.34
613.88	1933.88
614.22	1925.41
614.57	1915.65
614.92	1905.19
615.27	1894.97
615.61	1884.80
615.96	1875.30
616.31	1865.82
616.65	1856.45
617.00	1846.75
617.35	1837.10
617.70	1827.34
618.04	1817.42
618.39	1807.42
618.74	1797.73
619.08	1788.19
619.43	1779.47
619.78	1771.11
620.12	1762.46
620.47	1752.93
620.82	1742.60
621.16	1732.82
621.51	1722.80
621.85	1712.90
622.20	1702.36
622.55	1691.81
622.89	1682.02
623.24	1672.30
623.59	1662.50
623.93	1652.52
624.28	1642.70
624.62	1632.48
624.97	1622.15
625.32	1612.29
625.66	1603.31
626.01	1594.47
626.35	1585.05
626.70	1575.14
627.04	1565.15
627.39	1555.00
627.73	1545.70
628.08	1536.65
628.43	1527.08
628.77	1517.91
629.12	1509.10
629.46	1501.44
629.81	1492.97
630.15	1483.51
630.50	1473.64
630.84	1463.10
631.19	1453.02
631.53	1443.72
631.88	1433.66
632.22	1423.72
632.57	1414.42
632.91	1404.18
633.26	1394.34
633.60	1384.74
633.95	1375.34
634.29	1365.88
634.64	1356.56
634.98	1346.60
635.32	1337.39
635.67	1328.82
636.01	1319.60
636.36	1309.76
636.70	1300.09
637.05	1290.73
637.39	1281.65
637.73	1273.02
638.08	1265.44
638.42	1257.29
638.77	1248.46
639.11	1240.23
639.45	1232.38
639.80	1223.76
640.14	1215.10
640.49	1206.33
640.83	1197.55
641.17	1189.30
641.52	1181.08
641.86	1172.46
642.20	1164.62
642.55	1155.92
642.89	1146.96
643.23	1138.25
643.58	1130.13
643.92	1121.15
644.26	1112.46
644.61	1104.07
644.95	1095.30
645.29	1086.10
645.64	1076.93
645.98	1068.40
646.32	1060.48
646.66	1051.95
647.01	1043.53
647.35	1035.35
647.69	1026.95
648.04	1018.68
648.38	1009.88
648.72	1001.07
649.06	992.62
649.41	984.39
649.75	976.54
650.09	968.81
650.43	960.81
650.78	952.53
651.12	944.93
651.46	937.60
651.80	930.31
652.14	923.04
652.49	915.59
652.83	908.27
653.17	900.58
653.51	893.03
653.85	885.85
654.20	878.75
654.54	871.25
654.88	864.09
655.22	856.93
655.56	849.97
655.90	843.32
656.25	836.83
656.59	830.02
656.93	823.05
657.27	815.99
657.61	809.14
657.95	803.11
658.29	797.21
658.64	791.09
658.98	784.72
659.32	778.19
659.66	771.99
660.00	765.66
660.34	759.78
660.68	753.72
661.02	747.43
661.36	741.57
661.70	735.99
662.05	730.42
662.39	724.98
662.73	719.73
663.07	714.40
663.41	708.81
663.75	703.21
664.09	697.62
664.43	692.26
664.77	686.95
665.11	681.21
665.45	675.42
665.79	669.77
666.13	664.17
666.47	658.83
666.81	653.53
667.15	648.25
667.49	643.11
667.83	637.91
668.17	632.82
668.51	627.71
668.85	622.82
669.19	617.96
669.53	613.03
669.87	607.97
670.21	603.26
670.55	598.60
670.89	594.21
671.23	589.88
671.57	585.56
671.91	581.35
672.25	577.25
672.58	573.10
672.92	569.05
673.26	565.19
673.60	561.33
673.94	557.50
674.28	553.99
674.62	550.28
674.96	546.62
675.30	543.14
675.64	539.56
675.97	536.07
676.31	532.56
676.65	529.04
676.99	525.70
677.33	521.97
677.67	518.36
678.01	514.62
678.34	511.14
678.68	507.73
679.02	504.19
679.36	500.62
679.70	497.13
680.04	493.62
680.37	490.28
680.71	487.03
681.05	483.94
681.39	480.76
681.73	477.66
682.06	474.71
682.40	471.68
682.74	468.55
683.08	465.41
683.42	462.29
683.75	459.36
684.09	456.37
684.43	453.59
684.77	450.80
685.10	447.99
685.44	445.09
685.78	442.17
686.12	439.50
686.45	436.82
686.79	434.19
687.13	431.79
687.46	429.23
687.80	426.65
688.14	423.92
688.48	421.40
688.81	418.78
689.15	416.25
689.49	413.70
689.82	411.29
690.16	408.78
690.50	406.40
690.83	403.98
691.17	401.51
691.51	399.16
691.84	396.98
692.18	394.83
692.52	392.70
692.85	390.63
693.19	388.56
693.52	386.47
693.86	384.33
694.20	382.14
694.53	380.07
694.87	377.95
695.21	375.84
695.54	373.74
695.88	371.65
696.21	369.53
696.55	367.50
696.88	365.51
697.22	363.64
697.56	361.79
697.89	359.98
698.23	358.30
698.56	356.60
698.90	354.88
699.23	353.04
699.57	351.22
699.90	349.46
700.24	347.73
700.58	346.05
700.91	344.44
701.25	343.02
701.58	341.44
701.92	339.88
702.25	338.38
702.59	336.83
702.92	335.34
703.26	333.85
703.59	332.42
703.93	331.17
704.26	329.77
704.60	328.32
704.93	326.88
705.26	325.41
705.60	324.00
705.93	322.52
706.27	321.25
706.60	320.06
706.94	318.83
707.27	317.48
707.61	316.20
707.94	314.91
708.27	313.42
708.61	312.06
708.94	310.77
709.28	309.55
709.61	308.34
709.94	307.16
710.28	306.02
710.61	304.86
710.95	303.48
711.28	302.44
711.61	301.31
711.95	300.22
712.28	299.06
712.61	297.91
712.95	296.92
713.28	295.90
713.61	294.79
713.95	293.72
714.28	292.72
714.61	291.69
714.95	290.70
715.28	289.71
715.61	288.70
715.95	287.75
716.28	286.80
716.61	285.90
716.95	284.98
717.28	284.09
717.61	283.17
717.94	282.31
718.28	281.31
718.61	280.48
718.94	279.61
719.27	278.80
719.61	278.03
719.94	277.18
720.27	276.30
720.60	275.48
720.94	274.72
721.27	273.96
721.60	273.31
721.93	272.62
722.27	271.99
722.60	271.34
722.93	270.66
723.26	270.05
723.59	269.37
723.93	268.78
724.26	268.13
724.59	267.49
724.92	266.93
725.25	266.41
725.59	265.86
725.92	265.35
726.25	264.83
726.58	264.25
726.91	263.66
727.24	263.10
727.57	262.56
727.91	261.96
728.24	261.47
728.57	260.88
728.90	260.33
729.23	259.73
729.56	259.36
729.89	258.82
730.22	258.26
730.55	257.70
730.89	257.18
731.22	256.69
731.55	256.18
731.88	255.70
732.21	255.18
732.54	254.63
732.87	254.16
733.20	253.66
733.53	253.21
733.86	252.80
734.19	252.34
734.52	251.96
734.85	251.70
735.18	251.25
735.51	250.91
735.84	250.54
736.17	250.18
736.50	249.64
736.83	249.56
737.16	249.21
737.49	248.87
737.82	248.50
738.15	248.14
738.48	247.80
738.81	247.41
739.14	247.03
739.47	246.68
739.80	246.30
740.13	245.98
740.46	245.59
740.79	245.19
741.12	244.86
741.45	244.51
741.78	244.09
742.11	243.80
742.44	243.41
742.77	243.12
743.10	242.80
743.43	242.50
743.75	241.92
744.08	241.85
744.41	241.53
744.74	241.19
745.07	240.85
745.40	240.57
745.73	240.33
746.06	239.99
746.39	239.72
746.71	239.39
747.04	239.06
747.37	238.79
747.70	238.53
748.03	238.26
748.36	237.97
748.68	237.66
749.01	237.33
749.34	237.08
749.67	236.77
750.00	236.54
750.33	236.42
750.65	236.15
750.98	235.64
751.31	235.39
751.64	235.17
751.97	235.02
752.29	234.76
752.62	234.39
752.95	234.17
753.28	233.90
753.60	233.68
753.93	233.54
754.26	233.33
754.59	233.09
754.91	232.85
755.24	232.61
755.57	232.39
755.90	232.18
756.22	231.93
756.55	231.72
756.88	231.45
757.20	231.11
757.53	230.90
757.86	230.72
758.19	230.55
758.51	230.30
758.84	230.01
759.17	229.84
759.49	229.71
759.82	229.63
760.15	229.51
760.47	229.31
760.80	229.03
761.13	228.86
761.45	228.68
761.78	228.51
762.11	228.38
762.43	228.22
762.76	228.03
763.08	227.93
763.41	227.78
763.74	227.67
764.06	227.51
764.39	227.36
764.71	227.19
765.04	227.02
765.37	226.91
765.69	226.81
766.02	226.65
766.34	226.50
766.67	226.30
767.00	226.18
767.32	226.19
767.65	226.23
767.97	226.11
768.30	226.02
768.62	225.90
768.95	225.72
769.27	225.59
769.60	225.53
769.92	225.34
770.25	225.20
770.57	225.05
770.90	224.93
771.22	224.83
771.55	224.72
771.87	224.62
772.20	224.51
772.52	224.56
772.85	224.72
773.17	224.64
773.50	224.52
773.82	224.41
774.15	224.21
774.47	223.96
774.80	223.86
775.12	223.72
775.45	223.63
775.77	223.62
776.09	223.51
776.42	223.43
776.74	223.44
777.07	223.34
777.39	223.26
777.72	223.22
778.04	223.14
778.36	223.06
778.69	223.01
779.01	222.93
779.33	222.66
779.66	222.32
779.98	222.23
780.31	222.17
780.63	222.17
780.95	222.14
781.28	222.09
781.60	221.98
781.92	221.92
782.25	221.85
782.57	221.75
782.89	221.70
783.22	221.60
783.54	221.45
783.86	221.44
784.19	221.34
784.51	221.27
784.83	221.19
785.16	221.11
785.48	221.05
785.80	221.02
786.12	221.01
