SpectraSuite Data File
++++++++++++++++++++++++++++++++++++
Date: Tue Jan 29 16:05:08 EST 2013
User: group
Dark Spectrum Present: No
Reference Spectrum Present: No
Number of Sampled Component Spectra: 1
Spectrometers: USB2E7196
Integration Time (usec): 65000 (USB2E7196)
Spectra Averaged: 100 (USB2E7196)
Boxcar Smoothing: 10 (USB2E7196)
Correct for Electrical Dark: No (USB2E7196)
Strobe/Lamp Enabled: No (USB2E7196)
Correct for Detector Non-linearity: No (USB2E7196)
Correct for Stray Light: No (USB2E7196)
Number of Pixels in Processed Spectrum: 2048
>>>>>Begin Processed Spectral Data<<<<<
339.09	0.00
339.48	202.62
339.86	204.46
340.24	205.70
340.63	206.70
341.01	211.66
341.39	210.11
341.78	211.71
342.16	212.58
342.54	212.69
342.93	202.05
343.31	212.24
343.69	212.81
344.07	213.27
344.46	213.72
344.84	214.11
345.22	214.30
345.60	214.55
345.99	214.75
346.37	214.91
346.75	215.04
347.13	215.11
347.52	215.19
347.90	215.27
348.28	215.30
348.66	215.40
349.05	215.38
349.43	215.46
349.81	215.53
350.19	215.54
350.57	215.59
350.96	215.70
351.34	215.77
351.72	215.87
352.10	215.94
352.48	216.01
352.87	216.08
353.25	216.13
353.63	216.19
354.01	216.22
354.39	216.29
354.77	216.35
355.15	216.52
355.54	216.57
355.92	216.58
356.30	216.63
356.68	216.80
357.06	216.89
357.44	216.93
357.82	216.97
358.20	217.07
358.58	217.14
358.97	217.17
359.35	217.27
359.73	217.37
360.11	217.44
360.49	217.48
360.87	217.54
361.25	217.62
361.63	217.74
362.01	217.81
362.39	217.82
362.77	217.91
363.15	217.90
363.53	217.91
363.91	217.94
364.29	217.99
364.67	217.80
365.05	217.81
365.43	217.85
365.81	217.90
366.19	218.01
366.57	218.11
366.95	218.13
367.33	218.09
367.71	218.07
368.09	218.10
368.47	218.10
368.85	218.09
369.23	218.09
369.61	218.01
369.99	218.03
370.37	218.07
370.75	218.08
371.13	218.06
371.51	217.99
371.89	218.01
372.27	217.99
372.65	217.99
373.03	217.96
373.41	217.89
373.78	217.86
374.16	217.70
374.54	217.54
374.92	217.48
375.30	217.48
375.68	217.40
376.06	217.40
376.44	217.39
376.82	217.33
377.19	217.29
377.57	217.21
377.95	217.11
378.33	217.05
378.71	216.88
379.09	216.83
379.47	216.84
379.84	216.75
380.22	216.69
380.60	216.63
380.98	216.59
381.36	216.55
381.73	216.46
382.11	216.49
382.49	216.47
382.87	216.40
383.25	216.39
383.62	216.62
384.00	216.52
384.38	216.47
384.76	216.48
385.13	216.54
385.51	216.51
385.89	216.46
386.27	216.41
386.64	216.45
387.02	216.41
387.40	216.37
387.78	216.37
388.15	216.38
388.53	216.36
388.91	216.30
389.29	216.30
389.66	216.34
390.04	216.30
390.42	216.33
390.79	216.36
391.17	216.31
391.55	216.05
391.92	216.04
392.30	216.01
392.68	215.97
393.05	215.95
393.43	215.95
393.81	215.98
394.18	215.96
394.56	215.96
394.94	216.01
395.31	216.01
395.69	216.07
396.06	216.04
396.44	216.08
396.82	216.08
397.19	216.18
397.57	216.17
397.95	216.19
398.32	216.16
398.70	216.20
399.07	216.29
399.45	216.29
399.82	216.34
400.20	216.38
400.58	216.46
400.95	216.43
401.33	216.56
401.70	216.76
402.08	216.82
402.45	216.92
402.83	217.06
403.20	217.15
403.58	217.22
403.95	217.41
404.33	217.54
404.71	217.72
405.08	217.94
405.46	218.08
405.83	218.30
406.21	218.48
406.58	218.69
406.96	218.87
407.33	219.14
407.70	219.42
408.08	219.86
408.45	220.17
408.83	220.55
409.20	220.84
409.58	221.09
409.95	221.56
410.33	222.01
410.70	222.39
411.08	222.95
411.45	223.50
411.82	224.04
412.20	224.72
412.57	225.52
412.95	226.08
413.32	226.91
413.69	227.69
414.07	228.57
414.44	229.53
414.82	230.56
415.19	231.72
415.56	232.85
415.94	233.99
416.31	235.36
416.68	236.70
417.06	238.29
417.43	239.78
417.81	241.45
418.18	243.21
418.55	245.10
418.93	247.03
419.30	249.09
419.67	251.23
420.04	253.42
420.42	255.71
420.79	258.45
421.16	261.13
421.54	263.94
421.91	266.85
422.28	269.80
422.66	272.96
423.03	276.12
423.40	279.36
423.77	282.87
424.15	286.46
424.52	290.14
424.89	294.20
425.26	298.15
425.64	301.92
426.01	306.01
426.38	310.34
426.75	314.73
427.13	319.27
427.50	324.10
427.87	329.13
428.24	334.14
428.61	338.96
428.99	344.29
429.36	350.07
429.73	355.75
430.10	361.46
430.47	367.27
430.85	373.31
431.22	379.82
431.59	386.64
431.96	393.18
432.33	400.43
432.70	407.35
433.08	415.58
433.45	423.36
433.82	431.14
434.19	439.71
434.56	448.15
434.93	456.19
435.30	464.17
435.68	472.97
436.05	481.62
436.42	490.24
436.79	498.09
437.16	506.53
437.53	515.44
437.90	524.27
438.27	532.93
438.64	541.83
439.01	550.06
439.38	557.46
439.75	564.51
440.13	572.62
440.50	580.31
440.87	586.49
441.24	592.90
441.61	599.97
441.98	605.15
442.35	611.20
442.72	617.28
443.09	623.05
443.46	626.61
443.83	629.03
444.20	631.08
444.57	634.03
444.94	635.51
445.31	636.87
445.68	638.14
446.05	638.71
446.42	637.90
446.79	636.94
447.16	635.80
447.53	635.05
447.90	631.86
448.27	628.67
448.64	624.16
449.01	620.85
449.37	615.16
449.74	609.63
450.11	602.97
450.48	595.83
450.85	588.65
451.22	582.38
451.59	576.46
451.96	570.77
452.33	563.25
452.70	556.34
453.07	548.21
453.43	539.94
453.80	531.98
454.17	524.30
454.54	517.04
454.91	509.23
455.28	501.57
455.65	494.41
456.02	487.23
456.38	481.19
456.75	473.71
457.12	467.39
457.49	461.19
457.86	455.26
458.23	450.12
458.59	444.48
458.96	438.70
459.33	433.66
459.70	428.58
460.07	424.50
460.43	419.82
460.80	415.43
461.17	411.58
461.54	407.57
461.91	403.76
462.27	399.82
462.64	396.44
463.01	392.78
463.38	389.21
463.74	385.63
464.11	382.45
464.48	379.67
464.85	376.64
465.21	374.29
465.58	371.74
465.95	368.73
466.32	366.20
466.68	363.76
467.05	361.20
467.42	358.75
467.78	356.15
468.15	353.69
468.52	351.87
468.88	349.53
469.25	347.37
469.62	345.67
469.98	343.80
470.35	342.10
470.72	340.48
471.08	338.78
471.45	337.40
471.82	335.98
472.18	334.42
472.55	333.32
472.92	332.02
473.28	330.89
473.65	329.79
474.02	328.74
474.38	327.91
474.75	327.23
475.11	326.45
475.48	325.94
475.85	325.53
476.21	325.05
476.58	324.70
476.94	324.51
477.31	324.24
477.67	324.02
478.04	323.90
478.41	323.85
478.77	324.05
479.14	324.00
479.50	324.18
479.87	324.54
480.23	324.85
480.60	325.15
480.96	325.48
481.33	326.11
481.69	326.72
482.06	327.19
482.42	327.70
482.79	328.34
483.15	329.12
483.52	330.08
483.88	330.98
484.25	331.99
484.61	333.00
484.98	334.01
485.34	335.34
485.71	336.72
486.07	338.20
486.44	339.53
486.80	341.13
487.17	342.80
487.53	344.61
487.90	346.48
488.26	348.44
488.62	350.59
488.99	352.60
489.35	354.77
489.72	357.20
490.08	359.74
490.44	362.30
490.81	365.05
491.17	367.76
491.54	370.78
491.90	373.81
492.26	377.09
492.63	380.54
492.99	384.05
493.36	387.67
493.72	391.52
494.08	395.49
494.45	399.73
494.81	404.05
495.17	408.51
495.54	413.16
495.90	418.01
496.26	422.87
496.63	428.05
496.99	433.38
497.35	438.91
497.72	444.72
498.08	450.61
498.44	456.59
498.80	462.95
499.17	469.40
499.53	476.05
499.89	482.90
500.26	489.78
500.62	496.75
500.98	504.16
501.34	511.66
501.71	519.43
502.07	527.20
502.43	535.23
502.79	543.27
503.16	551.66
503.52	560.19
503.88	568.95
504.24	577.91
504.60	586.94
504.97	596.17
505.33	605.37
505.69	615.22
506.05	625.12
506.41	634.99
506.78	645.00
507.14	655.32
507.50	665.70
507.86	676.40
508.22	687.10
508.59	697.70
508.95	708.70
509.31	719.92
509.67	731.36
510.03	742.72
510.39	754.56
510.75	766.34
511.12	778.13
511.48	790.07
511.84	802.24
512.20	814.54
512.56	827.11
512.92	839.82
513.28	852.35
513.64	864.97
514.00	877.68
514.37	890.56
514.73	903.45
515.09	916.29
515.45	929.06
515.81	942.04
516.17	955.31
516.53	968.39
516.89	981.34
517.25	994.27
517.61	1007.54
517.97	1020.62
518.33	1033.58
518.69	1047.07
519.05	1060.64
519.41	1074.16
519.77	1087.85
520.13	1100.96
520.49	1113.91
520.85	1127.11
521.21	1140.25
521.57	1153.68
521.93	1166.62
522.29	1180.16
522.65	1193.75
523.01	1207.06
523.37	1219.98
523.73	1233.00
524.09	1245.89
524.45	1259.15
524.81	1272.47
525.17	1285.64
525.53	1298.56
525.89	1311.59
526.25	1324.36
526.61	1336.86
526.97	1349.70
527.33	1362.33
527.68	1375.50
528.04	1388.74
528.40	1401.56
528.76	1414.70
529.12	1427.35
529.48	1440.26
529.84	1452.26
530.20	1464.59
530.56	1477.04
530.91	1490.06
531.27	1502.69
531.63	1515.18
531.99	1527.49
532.35	1539.43
532.71	1551.52
533.07	1564.10
533.42	1576.09
533.78	1587.86
534.14	1599.76
534.50	1610.65
534.86	1621.95
535.21	1632.57
535.57	1643.78
535.93	1654.92
536.29	1665.73
536.65	1676.84
537.00	1687.57
537.36	1698.57
537.72	1709.26
538.08	1720.28
538.44	1730.87
538.79	1741.60
539.15	1752.21
539.51	1762.71
539.87	1773.76
540.22	1784.28
540.58	1794.88
540.94	1805.47
541.29	1815.51
541.65	1825.06
542.01	1835.32
542.37	1845.09
542.72	1854.97
543.08	1864.39
543.44	1874.40
543.79	1883.42
544.15	1892.64
544.51	1902.33
544.87	1911.97
545.22	1920.91
545.58	1929.41
545.94	1938.10
546.29	1946.42
546.65	1954.62
547.01	1962.59
547.36	1969.98
547.72	1977.46
548.07	1984.87
548.43	1992.35
548.79	2000.00
549.14	2007.80
549.50	2015.91
549.86	2023.45
550.21	2030.62
550.57	2038.04
550.92	2044.56
551.28	2051.83
551.64	2058.88
551.99	2066.29
552.35	2073.17
552.70	2079.76
553.06	2086.56
553.41	2092.52
553.77	2098.87
554.13	2104.97
554.48	2111.90
554.84	2118.70
555.19	2125.17
555.55	2131.55
555.90	2137.75
556.26	2144.55
556.61	2150.33
556.97	2155.11
557.32	2161.00
557.68	2167.41
558.03	2173.11
558.39	2178.36
558.74	2184.22
559.10	2189.69
559.45	2195.15
559.81	2200.81
560.16	2206.47
560.52	2212.19
560.87	2218.71
561.23	2224.64
561.58	2231.43
561.94	2236.61
562.29	2241.65
562.64	2247.73
563.00	2253.23
563.35	2258.81
563.71	2264.43
564.06	2270.13
564.42	2276.10
564.77	2281.09
565.12	2286.25
565.48	2291.58
565.83	2297.13
566.19	2302.71
566.54	2308.21
566.89	2312.74
567.25	2317.30
567.60	2322.97
567.96	2328.16
568.31	2332.74
568.66	2336.99
569.02	2340.70
569.37	2344.45
569.72	2348.67
570.08	2352.25
570.43	2355.36
570.78	2358.43
571.14	2361.10
571.49	2364.40
571.84	2367.88
572.20	2370.85
572.55	2373.91
572.90	2376.20
573.26	2379.35
573.61	2381.72
573.96	2383.91
574.31	2386.02
574.67	2388.02
575.02	2389.11
575.37	2390.63
575.72	2391.61
576.08	2393.21
576.43	2393.80
576.78	2394.64
577.13	2396.64
577.49	2397.87
577.84	2399.52
578.19	2401.19
578.54	2402.08
578.90	2403.24
579.25	2403.50
579.60	2403.85
579.95	2403.47
580.30	2403.93
580.66	2403.39
581.01	2402.03
581.36	2400.09
581.71	2398.97
582.06	2398.14
582.42	2397.44
582.77	2395.53
583.12	2394.24
583.47	2393.26
583.82	2392.78
584.17	2391.74
584.53	2389.69
584.88	2387.94
585.23	2385.99
585.58	2383.87
585.93	2381.86
586.28	2379.86
586.63	2377.58
586.98	2375.46
587.34	2373.77
587.69	2371.57
588.04	2369.77
588.39	2368.50
588.74	2366.17
589.09	2363.83
589.44	2360.83
589.79	2358.51
590.14	2356.79
590.49	2353.95
590.84	2350.26
591.19	2347.45
591.54	2344.32
591.89	2340.48
592.25	2337.19
592.60	2333.16
592.95	2329.23
593.30	2325.26
593.65	2320.91
594.00	2316.73
594.35	2313.78
594.70	2309.17
595.05	2304.61
595.40	2299.46
595.75	2294.06
596.10	2290.53
596.45	2285.67
596.80	2281.51
597.15	2276.44
597.50	2270.56
597.85	2265.81
598.19	2260.69
598.54	2254.80
598.89	2249.90
599.24	2245.46
599.59	2239.62
599.94	2234.09
600.29	2228.34
600.64	2222.52
600.99	2216.02
601.34	2210.74
601.69	2203.86
602.04	2197.50
602.39	2191.05
602.74	2184.80
603.08	2179.31
603.43	2172.85
603.78	2166.10
604.13	2158.89
604.48	2151.60
604.83	2145.60
605.18	2139.34
605.53	2132.43
605.87	2125.49
606.22	2118.56
606.57	2110.79
606.92	2102.99
607.27	2096.06
607.62	2089.48
607.96	2082.54
608.31	2075.93
608.66	2068.33
609.01	2060.81
609.36	2053.87
609.70	2046.25
610.05	2038.56
610.40	2030.40
610.75	2022.16
611.10	2014.70
611.44	2005.98
611.79	1997.37
612.14	1987.44
612.49	1977.04
612.83	1967.90
613.18	1958.87
613.53	1949.66
613.88	1940.09
614.22	1931.46
614.57	1921.67
614.92	1911.11
615.27	1901.09
615.61	1891.15
615.96	1881.35
616.31	1871.90
616.65	1862.50
617.00	1852.59
617.35	1843.03
617.70	1833.21
618.04	1823.23
618.39	1812.74
618.74	1803.00
619.08	1793.56
619.43	1784.88
619.78	1776.60
620.12	1767.88
620.47	1758.14
620.82	1747.79
621.16	1737.96
621.51	1728.04
621.85	1718.07
622.20	1707.65
622.55	1696.97
622.89	1687.07
623.24	1677.40
623.59	1667.58
623.93	1657.39
624.28	1647.83
624.62	1637.62
624.97	1627.32
625.32	1617.62
625.66	1609.04
626.01	1600.16
626.35	1590.56
626.70	1580.45
627.04	1570.20
627.39	1560.12
627.73	1550.72
628.08	1541.69
628.43	1532.18
628.77	1522.92
629.12	1514.09
629.46	1506.21
629.81	1497.83
630.15	1488.16
630.50	1478.20
630.84	1467.74
631.19	1457.81
631.53	1448.26
631.88	1438.19
632.22	1428.11
632.57	1418.70
632.91	1408.40
633.26	1398.64
633.60	1389.11
633.95	1379.80
634.29	1370.51
634.64	1361.03
634.98	1351.22
635.32	1341.88
635.67	1333.29
636.01	1324.07
636.36	1314.21
636.70	1304.64
637.05	1295.34
637.39	1286.44
637.73	1277.81
638.08	1270.18
638.42	1261.87
638.77	1253.09
639.11	1244.77
639.45	1236.98
639.80	1228.31
640.14	1219.66
640.49	1210.74
640.83	1201.87
641.17	1193.84
641.52	1185.47
641.86	1177.06
642.20	1169.15
642.55	1160.51
642.89	1151.55
643.23	1142.75
643.58	1134.73
643.92	1125.77
644.26	1117.09
644.61	1108.62
644.95	1099.99
645.29	1090.73
645.64	1081.65
645.98	1073.30
646.32	1065.31
646.66	1056.84
647.01	1048.47
647.35	1040.30
647.69	1031.90
648.04	1023.63
648.38	1014.59
648.72	1005.91
649.06	997.34
649.41	989.16
649.75	981.26
650.09	973.44
650.43	965.44
650.78	957.20
651.12	949.52
651.46	942.08
651.80	934.85
652.14	927.42
652.49	919.84
652.83	912.53
653.17	904.77
653.51	897.18
653.85	889.97
654.20	882.66
654.54	875.14
654.88	868.09
655.22	861.03
655.56	854.04
655.90	847.31
656.25	840.64
656.59	833.70
656.93	826.74
657.27	819.72
657.61	812.95
657.95	806.86
658.29	800.94
658.64	794.82
658.98	788.44
659.32	781.96
659.66	775.85
660.00	769.56
660.34	763.63
660.68	757.61
661.02	751.33
661.36	745.56
661.70	739.86
662.05	734.15
662.39	728.62
662.73	723.31
663.07	717.97
663.41	712.54
663.75	706.92
664.09	701.30
664.43	695.90
664.77	690.58
665.11	684.72
665.45	678.86
665.79	673.13
666.13	667.51
666.47	662.03
666.81	656.69
667.15	651.43
667.49	646.28
667.83	641.05
668.17	635.86
668.51	630.71
668.85	625.82
669.19	620.97
669.53	616.03
669.87	610.98
670.21	606.21
670.55	601.47
670.89	597.15
671.23	592.96
671.57	588.64
671.91	584.29
672.25	580.30
672.58	576.21
672.92	572.18
673.26	568.31
673.60	564.51
673.94	560.71
674.28	557.07
674.62	553.31
674.96	549.68
675.30	546.22
675.64	542.62
675.97	539.13
676.31	535.61
676.65	532.06
676.99	528.70
677.33	524.93
677.67	521.32
678.01	517.51
678.34	513.86
678.68	510.40
679.02	506.88
679.36	503.15
679.70	499.61
680.04	496.15
680.37	492.74
680.71	489.54
681.05	486.44
681.39	483.27
681.73	480.13
682.06	477.13
682.40	474.09
682.74	470.96
683.08	467.76
683.42	464.58
683.75	461.63
684.09	458.65
684.43	455.89
684.77	453.04
685.10	450.21
685.44	447.36
685.78	444.47
686.12	441.75
686.45	439.16
686.79	436.49
687.13	433.97
687.46	431.33
687.80	428.65
688.14	425.83
688.48	423.29
688.81	420.69
689.15	418.15
689.49	415.53
689.82	413.08
690.16	410.61
690.50	408.24
690.83	405.79
691.17	403.36
691.51	400.95
691.84	398.78
692.18	396.63
692.52	394.42
692.85	392.32
693.19	390.21
693.52	388.03
693.86	385.88
694.20	383.72
694.53	381.69
694.87	379.58
695.21	377.53
695.54	375.39
695.88	373.28
696.21	371.10
696.55	369.02
696.88	366.96
697.22	365.03
697.56	363.17
697.89	361.32
698.23	359.57
698.56	357.85
698.90	356.08
699.23	354.18
699.57	352.40
699.90	350.58
700.24	348.82
700.58	347.13
700.91	345.54
701.25	344.02
701.58	342.48
701.92	340.88
702.25	339.29
702.59	337.72
702.92	336.25
703.26	334.77
703.59	333.35
703.93	332.14
704.26	330.68
704.60	329.20
704.93	327.77
705.26	326.30
705.60	324.85
705.93	323.38
706.27	322.15
706.60	320.90
706.94	319.71
707.27	318.33
707.61	317.03
707.94	315.71
708.27	314.25
708.61	312.83
708.94	311.52
709.28	310.27
709.61	309.08
709.94	307.85
710.28	306.65
710.61	305.48
710.95	304.09
711.28	303.07
711.61	301.93
711.95	300.83
712.28	299.69
712.61	298.53
712.95	297.52
713.28	296.51
713.61	295.38
713.95	294.21
714.28	293.22
714.61	292.19
714.95	291.19
715.28	290.20
715.61	289.22
715.95	288.29
716.28	287.36
716.61	286.45
716.95	285.53
717.28	284.62
717.61	283.68
717.94	282.83
718.28	281.79
718.61	280.98
718.94	280.09
719.27	279.26
719.61	278.50
719.94	277.62
720.27	276.71
720.60	275.92
720.94	275.21
721.27	274.50
721.60	273.86
721.93	273.18
722.27	272.53
722.60	271.89
722.93	271.20
723.26	270.60
723.59	269.83
723.93	269.21
724.26	268.62
724.59	268.00
724.92	267.43
725.25	267.02
725.59	266.41
725.92	265.92
726.25	265.37
726.58	264.79
726.91	264.24
727.24	263.70
727.57	263.16
727.91	262.55
728.24	262.00
728.57	261.40
728.90	260.85
729.23	260.29
729.56	259.86
729.89	259.34
730.22	258.75
730.55	258.28
730.89	257.77
731.22	257.25
731.55	256.75
731.88	256.24
732.21	255.63
732.54	255.14
732.87	254.63
733.20	254.16
733.53	253.70
733.86	253.25
734.19	252.78
734.52	252.39
734.85	252.12
735.18	251.67
735.51	251.29
735.84	250.84
736.17	250.46
736.50	249.91
736.83	249.76
737.16	249.43
737.49	249.05
737.82	248.64
738.15	248.29
738.48	247.91
738.81	247.50
739.14	247.12
739.47	246.75
739.80	246.37
740.13	246.02
740.46	245.63
740.79	245.26
741.12	244.90
741.45	244.52
741.78	244.06
742.11	243.78
742.44	243.42
742.77	243.18
743.10	242.86
743.43	242.56
743.75	242.01
744.08	241.92
744.41	241.60
744.74	241.27
745.07	240.91
745.40	240.62
745.73	240.45
746.06	240.14
746.39	239.85
746.71	239.55
747.04	239.21
747.37	238.91
747.70	238.63
748.03	238.35
748.36	238.09
748.68	237.82
749.01	237.51
749.34	237.24
749.67	236.93
750.00	236.69
750.33	236.56
750.65	236.27
750.98	235.74
751.31	235.50
751.64	235.29
751.97	235.20
752.29	234.94
752.62	234.57
752.95	234.33
753.28	234.07
753.60	233.81
753.93	233.64
754.26	233.39
754.59	233.13
754.91	232.88
755.24	232.62
755.57	232.38
755.90	232.14
756.22	231.91
756.55	231.70
756.88	231.44
757.20	231.12
757.53	230.91
757.86	230.69
758.19	230.50
758.51	230.25
758.84	229.91
759.17	229.74
759.49	229.56
759.82	229.46
760.15	229.32
760.47	229.17
760.80	228.91
761.13	228.81
761.45	228.60
761.78	228.43
762.11	228.25
762.43	228.07
762.76	227.90
763.08	227.76
763.41	227.59
763.74	227.42
764.06	227.26
764.39	227.09
764.71	226.94
765.04	226.82
765.37	226.67
765.69	226.53
766.02	226.40
766.34	226.26
766.67	226.05
767.00	225.95
767.32	225.90
767.65	225.90
767.97	225.74
768.30	225.65
768.62	225.52
768.95	225.40
769.27	225.30
769.60	225.21
769.92	225.05
770.25	224.87
770.57	224.73
770.90	224.55
771.22	224.44
771.55	224.32
771.87	224.20
772.20	224.12
772.52	224.19
772.85	224.30
773.17	224.20
773.50	224.05
773.82	223.90
774.15	223.71
774.47	223.51
774.80	223.40
775.12	223.29
775.45	223.20
775.77	223.12
776.09	223.05
776.42	222.99
776.74	222.95
777.07	222.86
777.39	222.81
777.72	222.78
778.04	222.71
778.36	222.66
778.69	222.57
779.01	222.51
779.33	222.24
779.66	221.92
779.98	221.84
780.31	221.79
780.63	221.80
780.95	221.75
781.28	221.67
781.60	221.60
781.92	221.54
782.25	221.48
782.57	221.42
782.89	221.35
783.22	221.26
783.54	221.16
783.86	221.15
784.19	221.07
784.51	221.04
784.83	220.97
785.16	220.87
785.48	220.82
785.80	220.76
786.12	220.72
