SpectraSuite Data File
++++++++++++++++++++++++++++++++++++
Date: Tue Jan 29 16:35:56 EST 2013
User: group
Dark Spectrum Present: No
Reference Spectrum Present: No
Number of Sampled Component Spectra: 1
Spectrometers: USB2E7196
Integration Time (usec): 65000 (USB2E7196)
Spectra Averaged: 100 (USB2E7196)
Boxcar Smoothing: 10 (USB2E7196)
Correct for Electrical Dark: No (USB2E7196)
Strobe/Lamp Enabled: No (USB2E7196)
Correct for Detector Non-linearity: No (USB2E7196)
Correct for Stray Light: No (USB2E7196)
Number of Pixels in Processed Spectrum: 2048
>>>>>Begin Processed Spectral Data<<<<<
339.09	0.00
339.48	201.40
339.86	203.42
340.24	204.95
340.63	206.41
341.01	211.12
341.39	209.37
341.78	210.78
342.16	211.74
342.54	211.29
342.93	201.20
343.31	211.39
343.69	211.96
344.07	212.44
344.46	212.88
344.84	213.27
345.22	213.44
345.60	213.68
345.99	213.89
346.37	214.00
346.75	214.14
347.13	214.22
347.52	214.30
347.90	214.42
348.28	214.46
348.66	214.58
349.05	214.55
349.43	214.62
349.81	214.66
350.19	214.72
350.57	214.81
350.96	214.88
351.34	214.94
351.72	215.04
352.10	215.16
352.48	215.23
352.87	215.30
353.25	215.35
353.63	215.40
354.01	215.43
354.39	215.55
354.77	215.62
355.15	215.74
355.54	215.76
355.92	215.73
356.30	215.83
356.68	216.03
357.06	216.12
357.44	216.14
357.82	216.18
358.20	216.23
358.58	216.28
358.97	216.35
359.35	216.45
359.73	216.55
360.11	216.57
360.49	216.62
360.87	216.64
361.25	216.72
361.63	216.82
362.01	216.93
362.39	216.94
362.77	216.99
363.15	216.99
363.53	217.02
363.91	217.08
364.29	217.08
364.67	216.86
365.05	216.85
365.43	216.85
365.81	216.88
366.19	216.96
366.57	217.04
366.95	217.03
367.33	216.97
367.71	216.95
368.09	216.99
368.47	216.98
368.85	216.98
369.23	216.97
369.61	216.92
369.99	216.93
370.37	216.93
370.75	217.02
371.13	216.99
371.51	216.95
371.89	216.95
372.27	216.94
372.65	216.94
373.03	216.94
373.41	216.92
373.78	216.90
374.16	216.77
374.54	216.69
374.92	216.63
375.30	216.61
375.68	216.50
376.06	216.46
376.44	216.38
376.82	216.33
377.19	216.29
377.57	216.24
377.95	216.10
378.33	216.03
378.71	215.88
379.09	215.83
379.47	215.81
379.84	215.76
380.22	215.70
380.60	215.61
380.98	215.53
381.36	215.49
381.73	215.41
382.11	215.44
382.49	215.37
382.87	215.33
383.25	215.32
383.62	215.57
384.00	215.48
384.38	215.48
384.76	215.48
385.13	215.53
385.51	215.49
385.89	215.43
386.27	215.41
386.64	215.36
387.02	215.33
387.40	215.29
387.78	215.27
388.15	215.27
388.53	215.22
388.91	215.23
389.29	215.19
389.66	215.20
390.04	215.14
390.42	215.15
390.79	215.15
391.17	215.12
391.55	214.87
391.92	214.88
392.30	214.91
392.68	214.88
393.05	214.82
393.43	214.84
393.81	214.87
394.18	214.86
394.56	214.91
394.94	214.97
395.31	214.97
395.69	215.04
396.06	215.06
396.44	215.11
396.82	215.10
397.19	215.23
397.57	215.24
397.95	215.30
398.32	215.30
398.70	215.37
399.07	215.46
399.45	215.51
399.82	215.58
400.20	215.59
400.58	215.65
400.95	215.66
401.33	215.75
401.70	215.98
402.08	216.08
402.45	216.13
402.83	216.26
403.20	216.39
403.58	216.44
403.95	216.62
404.33	216.77
404.71	216.91
405.08	217.16
405.46	217.34
405.83	217.52
406.21	217.72
406.58	217.93
406.96	218.11
407.33	218.36
407.70	218.64
408.08	219.10
408.45	219.45
408.83	219.85
409.20	220.21
409.58	220.46
409.95	220.92
410.33	221.39
410.70	221.83
411.08	222.35
411.45	222.94
411.82	223.50
412.20	224.18
412.57	225.02
412.95	225.64
413.32	226.44
413.69	227.31
414.07	228.23
414.44	229.22
414.82	230.27
415.19	231.47
415.56	232.66
415.94	233.86
416.31	235.26
416.68	236.66
417.06	238.28
417.43	239.82
417.81	241.54
418.18	243.38
418.55	245.32
418.93	247.39
419.30	249.53
419.67	251.79
420.04	254.11
420.42	256.49
420.79	259.29
421.16	262.12
421.54	264.98
421.91	267.99
422.28	271.11
422.66	274.36
423.03	277.61
423.40	281.01
423.77	284.60
424.15	288.27
424.52	292.12
424.89	296.31
425.26	300.43
425.64	304.34
426.01	308.63
426.38	313.10
426.75	317.66
427.13	322.37
427.50	327.34
427.87	332.59
428.24	337.79
428.61	342.82
428.99	348.35
429.36	354.43
429.73	360.35
430.10	366.24
430.47	372.33
430.85	378.68
431.22	385.39
431.59	392.52
431.96	399.37
432.33	406.90
432.70	414.13
433.08	422.64
433.45	430.78
433.82	438.82
434.19	447.72
434.56	456.43
434.93	464.77
435.30	473.05
435.68	482.15
436.05	491.13
436.42	500.02
436.79	508.14
437.16	516.89
437.53	526.23
437.90	535.40
438.27	544.39
438.64	553.62
439.01	562.17
439.38	569.76
439.75	577.12
440.13	585.55
440.50	593.52
440.87	599.97
441.24	606.62
441.61	613.98
441.98	619.40
442.35	625.79
442.72	632.16
443.09	638.26
443.46	642.03
443.83	644.57
444.20	646.80
444.57	650.03
444.94	651.50
445.31	652.88
445.68	654.31
446.05	654.96
446.42	654.13
446.79	653.15
447.16	652.10
447.53	651.32
447.90	647.98
448.27	644.68
448.64	640.03
449.01	636.69
449.37	630.79
449.74	625.09
450.11	618.11
450.48	610.70
450.85	603.17
451.22	596.65
451.59	590.50
451.96	584.64
452.33	576.72
452.70	569.60
453.07	561.07
453.43	552.40
453.80	544.10
454.17	536.10
454.54	528.49
454.91	520.23
455.28	512.22
455.65	504.78
456.02	497.27
456.38	490.91
456.75	482.98
457.12	476.37
457.49	469.82
457.86	463.61
458.23	458.20
458.59	452.27
458.96	446.26
459.33	440.92
459.70	435.53
460.07	431.29
460.43	426.35
460.80	421.82
461.17	417.81
461.54	413.56
461.91	409.58
462.27	405.51
462.64	402.09
463.01	398.28
463.38	394.57
463.74	390.93
464.11	387.70
464.48	384.86
464.85	381.74
465.21	379.35
465.58	376.73
465.95	373.60
466.32	371.01
466.68	368.43
467.05	365.85
467.42	363.27
467.78	360.56
468.15	358.08
468.52	356.14
468.88	353.63
469.25	351.43
469.62	349.60
469.98	347.67
470.35	345.86
470.72	344.19
471.08	342.42
471.45	340.89
471.82	339.29
472.18	337.61
472.55	336.37
472.92	334.95
473.28	333.72
473.65	332.57
474.02	331.42
474.38	330.47
474.75	329.74
475.11	328.94
475.48	328.39
475.85	327.87
476.21	327.37
476.58	327.01
476.94	326.75
477.31	326.47
477.67	326.17
478.04	326.00
478.41	325.95
478.77	326.15
479.14	326.07
479.50	326.26
479.87	326.58
480.23	326.91
480.60	327.12
480.96	327.40
481.33	328.00
481.69	328.62
482.06	329.15
482.42	329.64
482.79	330.27
483.15	331.06
483.52	331.97
483.88	332.84
484.25	333.83
484.61	334.89
484.98	335.93
485.34	337.26
485.71	338.64
486.07	340.12
486.44	341.38
486.80	342.99
487.17	344.65
487.53	346.50
487.90	348.37
488.26	350.43
488.62	352.59
488.99	354.62
489.35	356.79
489.72	359.21
490.08	361.72
490.44	364.24
490.81	366.95
491.17	369.68
491.54	372.72
491.90	375.73
492.26	378.93
492.63	382.35
492.99	385.85
493.36	389.48
493.72	393.32
494.08	397.36
494.45	401.63
494.81	405.98
495.17	410.40
495.54	415.12
495.90	419.90
496.26	424.90
496.63	430.12
496.99	435.52
497.35	441.07
497.72	446.86
498.08	452.80
498.44	458.92
498.80	465.31
499.17	471.78
499.53	478.52
499.89	485.49
500.26	492.45
500.62	499.55
500.98	507.02
501.34	514.50
501.71	522.25
502.07	529.99
502.43	538.07
502.79	546.26
503.16	554.63
503.52	563.32
503.88	572.03
504.24	581.06
504.60	590.13
504.97	599.43
505.33	608.79
505.69	618.67
506.05	628.59
506.41	638.51
506.78	648.60
507.14	658.89
507.50	669.34
507.86	680.06
508.22	690.81
508.59	701.53
508.95	712.72
509.31	724.02
509.67	735.65
510.03	747.10
510.39	758.78
510.75	770.67
511.12	782.57
511.48	794.64
511.84	806.91
512.20	819.30
512.56	832.03
512.92	844.88
513.28	857.61
513.64	870.31
514.00	883.18
514.37	896.20
514.73	909.35
515.09	922.36
515.45	935.33
515.81	948.58
516.17	962.02
516.53	975.33
516.89	988.48
517.25	1001.67
517.61	1015.19
517.97	1028.73
518.33	1042.05
518.69	1055.74
519.05	1069.58
519.41	1083.36
519.77	1097.24
520.13	1110.62
520.49	1123.93
520.85	1137.41
521.21	1150.96
521.57	1164.76
521.93	1177.96
522.29	1191.91
522.65	1205.64
523.01	1219.37
523.37	1232.67
523.73	1246.02
524.09	1259.28
524.45	1272.89
524.81	1286.49
525.17	1300.04
525.53	1313.38
525.89	1326.80
526.25	1339.95
526.61	1352.99
526.97	1366.22
527.33	1379.38
527.68	1392.97
528.04	1406.61
528.40	1419.80
528.76	1433.33
529.12	1446.46
529.48	1459.80
529.84	1472.10
530.20	1485.01
530.56	1497.75
530.91	1510.94
531.27	1524.00
531.63	1536.87
531.99	1549.77
532.35	1562.14
532.71	1574.59
533.07	1587.60
533.42	1599.91
533.78	1612.27
534.14	1624.40
534.50	1635.67
534.86	1647.52
535.21	1658.40
535.57	1669.88
535.93	1681.31
536.29	1692.47
536.65	1703.92
537.00	1715.04
537.36	1726.62
537.72	1737.74
538.08	1749.19
538.44	1760.32
538.79	1771.50
539.15	1782.43
539.51	1793.14
539.87	1804.52
540.22	1815.59
540.58	1826.61
540.94	1837.63
541.29	1847.94
541.65	1857.89
542.01	1868.50
542.37	1878.33
542.72	1888.62
543.08	1898.55
543.44	1909.17
543.79	1918.50
544.15	1928.01
544.51	1938.13
544.87	1947.93
545.22	1957.27
545.58	1966.22
545.94	1975.29
546.29	1983.92
546.65	1992.44
547.01	2000.90
547.36	2008.68
547.72	2016.52
548.07	2024.15
548.43	2032.04
548.79	2039.98
549.14	2048.12
549.50	2056.75
549.86	2064.79
550.21	2072.26
550.57	2079.93
550.92	2086.88
551.28	2094.50
551.64	2101.85
551.99	2109.45
552.35	2116.86
552.70	2123.77
553.06	2130.56
553.41	2136.94
553.77	2143.46
554.13	2149.76
554.48	2156.81
554.84	2164.01
555.19	2170.48
555.55	2177.05
555.90	2183.32
556.26	2190.15
556.61	2196.44
556.97	2201.20
557.32	2207.10
557.68	2213.68
558.03	2219.54
558.39	2224.75
558.74	2230.75
559.10	2236.38
559.45	2241.83
559.81	2247.28
560.16	2252.73
560.52	2258.56
560.87	2264.96
561.23	2271.06
561.58	2277.86
561.94	2283.07
562.29	2287.67
562.64	2293.80
563.00	2299.34
563.35	2304.99
563.71	2310.75
564.06	2316.24
564.42	2322.17
564.77	2327.18
565.12	2332.41
565.48	2337.59
565.83	2343.30
566.19	2348.67
566.54	2353.93
566.89	2358.53
567.25	2363.08
567.60	2369.00
567.96	2374.18
568.31	2378.70
568.66	2382.79
569.02	2386.68
569.37	2390.43
569.72	2394.84
570.08	2398.38
570.43	2401.54
570.78	2404.60
571.14	2407.12
571.49	2410.19
571.84	2413.80
572.20	2416.76
572.55	2419.75
572.90	2421.98
573.26	2424.38
573.61	2426.83
573.96	2429.10
574.31	2431.12
574.67	2433.03
575.02	2433.69
575.37	2435.09
575.72	2435.66
576.08	2437.04
576.43	2437.06
576.78	2437.50
577.13	2438.95
577.49	2439.94
577.84	2440.94
578.19	2442.05
578.54	2442.61
578.90	2443.25
579.25	2443.04
579.60	2442.90
579.95	2441.95
580.30	2441.98
580.66	2441.44
581.01	2439.65
581.36	2437.11
581.71	2435.63
582.06	2434.36
582.42	2433.46
582.77	2431.20
583.12	2429.48
583.47	2428.03
583.82	2427.32
584.17	2425.91
584.53	2423.69
584.88	2421.48
585.23	2419.42
585.58	2417.03
585.93	2414.98
586.28	2412.82
586.63	2410.11
586.98	2407.80
587.34	2405.71
587.69	2403.12
588.04	2400.90
588.39	2399.37
588.74	2396.72
589.09	2393.99
589.44	2390.74
589.79	2388.01
590.14	2385.88
590.49	2383.03
590.84	2379.15
591.19	2376.19
591.54	2372.97
591.89	2368.90
592.25	2365.65
592.60	2361.33
592.95	2357.17
593.30	2352.74
593.65	2348.13
594.00	2343.82
594.35	2340.69
594.70	2336.02
595.05	2331.45
595.40	2326.05
595.75	2320.21
596.10	2316.62
596.45	2311.68
596.80	2306.94
597.15	2301.65
597.50	2295.66
597.85	2290.60
598.19	2285.21
598.54	2279.11
598.89	2273.83
599.24	2269.17
599.59	2262.87
599.94	2257.08
600.29	2251.06
600.64	2245.06
600.99	2238.19
601.34	2232.48
601.69	2225.45
602.04	2218.93
602.39	2212.17
602.74	2205.93
603.08	2200.40
603.43	2193.91
603.78	2186.98
604.13	2180.03
604.48	2172.74
604.83	2166.53
605.18	2160.27
605.53	2153.31
605.87	2146.30
606.22	2139.41
606.57	2131.52
606.92	2123.64
607.27	2116.62
607.62	2109.89
607.96	2102.97
608.31	2096.57
608.66	2088.88
609.01	2081.16
609.36	2074.19
609.70	2066.52
610.05	2058.65
610.40	2050.35
610.75	2041.88
611.10	2034.11
611.44	2025.18
611.79	2016.45
612.14	2006.56
612.49	1995.89
612.83	1986.68
613.18	1977.36
613.53	1967.94
613.88	1958.30
614.22	1949.61
614.57	1939.71
614.92	1929.16
615.27	1918.82
615.61	1908.66
615.96	1898.86
616.31	1889.39
616.65	1879.77
617.00	1870.04
617.35	1860.36
617.70	1850.45
618.04	1840.39
618.39	1830.19
618.74	1820.45
619.08	1810.80
619.43	1802.04
619.78	1793.83
620.12	1785.07
620.47	1775.53
620.82	1765.25
621.16	1755.50
621.51	1745.52
621.85	1735.69
622.20	1725.27
622.55	1714.84
622.89	1704.92
623.24	1695.22
623.59	1685.37
623.93	1675.30
624.28	1665.46
624.62	1655.50
624.97	1645.29
625.32	1635.41
625.66	1626.54
626.01	1617.74
626.35	1608.42
626.70	1598.26
627.04	1588.13
627.39	1578.00
627.73	1568.69
628.08	1559.65
628.43	1550.01
628.77	1540.78
629.12	1531.94
629.46	1524.12
629.81	1515.76
630.15	1506.30
630.50	1496.46
630.84	1485.98
631.19	1476.13
631.53	1466.84
631.88	1456.54
632.22	1446.63
632.57	1437.47
632.91	1427.40
633.26	1417.56
633.60	1407.92
633.95	1398.72
634.29	1389.17
634.64	1379.83
634.98	1369.82
635.32	1360.55
635.67	1352.06
636.01	1342.78
636.36	1332.97
636.70	1323.44
637.05	1313.94
637.39	1304.97
637.73	1296.47
638.08	1288.87
638.42	1280.55
638.77	1271.65
639.11	1263.40
639.45	1255.54
639.80	1246.89
640.14	1238.13
640.49	1229.20
640.83	1220.35
641.17	1212.24
641.52	1204.16
641.86	1195.59
642.20	1187.74
642.55	1179.15
642.89	1170.26
643.23	1161.62
643.58	1153.52
643.92	1144.48
644.26	1135.78
644.61	1127.29
644.95	1118.33
645.29	1109.09
645.64	1099.94
645.98	1091.51
646.32	1083.56
646.66	1075.03
647.01	1066.71
647.35	1058.62
647.69	1050.28
648.04	1042.00
648.38	1033.03
648.72	1024.14
649.06	1015.64
649.41	1007.37
649.75	999.41
650.09	991.55
650.43	983.48
650.78	975.08
651.12	967.32
651.46	959.99
651.80	952.77
652.14	945.49
652.49	937.95
652.83	930.61
653.17	922.83
653.51	915.18
653.85	907.95
654.20	900.62
654.54	893.12
654.88	885.86
655.22	878.58
655.56	871.59
655.90	864.83
656.25	858.11
656.59	851.18
656.93	844.14
657.27	836.92
657.61	829.88
657.95	823.81
658.29	817.88
658.64	811.66
658.98	805.12
659.32	798.57
659.66	792.30
660.00	785.94
660.34	779.85
660.68	773.75
661.02	767.29
661.36	761.27
661.70	755.32
662.05	749.76
662.39	744.28
662.73	738.78
663.07	733.30
663.41	727.73
663.75	722.03
664.09	716.32
664.43	710.83
664.77	705.39
665.11	699.52
665.45	693.55
665.79	687.66
666.13	681.90
666.47	676.32
666.81	670.78
667.15	665.33
667.49	660.09
667.83	654.77
668.17	649.48
668.51	644.38
668.85	639.46
669.19	634.34
669.53	629.28
669.87	624.19
670.21	619.43
670.55	614.64
670.89	610.16
671.23	605.77
671.57	601.43
671.91	597.20
672.25	593.05
672.58	588.93
672.92	584.88
673.26	580.96
673.60	577.05
673.94	573.26
674.28	569.65
674.62	565.90
674.96	562.11
675.30	558.56
675.64	554.87
675.97	551.27
676.31	547.72
676.65	544.03
676.99	540.57
677.33	536.63
677.67	532.94
678.01	529.03
678.34	525.36
678.68	521.82
679.02	518.22
679.36	514.45
679.70	510.70
680.04	507.12
680.37	503.65
680.71	500.32
681.05	497.07
681.39	493.69
681.73	490.43
682.06	487.42
682.40	484.28
682.74	481.07
683.08	477.82
683.42	474.53
683.75	471.49
684.09	468.38
684.43	465.57
684.77	462.61
685.10	459.74
685.44	456.80
685.78	453.84
686.12	450.87
686.45	448.11
686.79	445.41
687.13	442.82
687.46	440.10
687.80	437.40
688.14	434.58
688.48	431.98
688.81	429.24
689.15	426.52
689.49	423.90
689.82	421.28
690.16	418.60
690.50	416.11
690.83	413.58
691.17	410.99
691.51	408.49
691.84	406.21
692.18	403.95
692.52	401.71
692.85	399.50
693.19	397.40
693.52	395.22
693.86	392.96
694.20	390.73
694.53	388.60
694.87	386.35
695.21	384.13
695.54	381.90
695.88	379.73
696.21	377.51
696.55	375.36
696.88	373.26
697.22	371.28
697.56	369.38
697.89	367.45
698.23	365.64
698.56	363.81
698.90	362.01
699.23	360.04
699.57	358.11
699.90	356.21
700.24	354.37
700.58	352.57
700.91	350.93
701.25	349.31
701.58	347.64
701.92	346.01
702.25	344.40
702.59	342.76
702.92	341.17
703.26	339.59
703.59	338.08
703.93	336.81
704.26	335.37
704.60	333.85
704.93	332.33
705.26	330.84
705.60	329.38
705.93	327.82
706.27	326.54
706.60	325.27
706.94	324.06
707.27	322.65
707.61	321.29
707.94	319.89
708.27	318.38
708.61	316.91
708.94	315.51
709.28	314.18
709.61	312.92
709.94	311.73
710.28	310.51
710.61	309.29
710.95	307.84
711.28	306.77
711.61	305.55
711.95	304.45
712.28	303.24
712.61	302.01
712.95	300.93
713.28	299.81
713.61	298.67
713.95	297.47
714.28	296.43
714.61	295.35
714.95	294.32
715.28	293.28
715.61	292.26
715.95	291.29
716.28	290.36
716.61	289.41
716.95	288.42
717.28	287.50
717.61	286.54
717.94	285.59
718.28	284.51
718.61	283.62
718.94	282.66
719.27	281.82
719.61	281.03
719.94	280.13
720.27	279.17
720.60	278.25
720.94	277.47
721.27	276.68
721.60	276.00
721.93	275.29
722.27	274.66
722.60	273.95
722.93	273.22
723.26	272.51
723.59	271.76
723.93	271.09
724.26	270.42
724.59	269.74
724.92	269.12
725.25	268.57
725.59	267.98
725.92	267.44
726.25	266.81
726.58	266.17
726.91	265.59
727.24	265.02
727.57	264.48
727.91	263.81
728.24	263.28
728.57	262.62
728.90	262.04
729.23	261.39
729.56	260.97
729.89	260.41
730.22	259.85
730.55	259.29
730.89	258.74
731.22	258.21
731.55	257.69
731.88	257.18
732.21	256.61
732.54	256.07
732.87	255.56
733.20	255.08
733.53	254.63
733.86	254.16
734.19	253.68
734.52	253.26
734.85	253.00
735.18	252.51
735.51	252.13
735.84	251.73
736.17	251.34
736.50	250.77
736.83	250.62
737.16	250.25
737.49	249.87
737.82	249.46
738.15	249.05
738.48	248.66
738.81	248.28
739.14	247.88
739.47	247.48
739.80	247.05
740.13	246.72
740.46	246.29
740.79	245.90
741.12	245.53
741.45	245.13
741.78	244.67
742.11	244.40
742.44	244.00
742.77	243.67
743.10	243.32
743.43	242.98
743.75	242.42
744.08	242.30
744.41	241.92
744.74	241.59
745.07	241.24
745.40	240.94
745.73	240.67
746.06	240.33
746.39	240.05
746.71	239.71
747.04	239.35
747.37	239.03
747.70	238.75
748.03	238.40
748.36	238.13
748.68	237.80
749.01	237.43
749.34	237.18
749.67	236.88
750.00	236.58
750.33	236.46
750.65	236.18
750.98	235.65
751.31	235.43
751.64	235.18
751.97	235.07
752.29	234.78
752.62	234.42
752.95	234.12
753.28	233.84
753.60	233.62
753.93	233.45
754.26	233.26
754.59	232.99
754.91	232.80
755.24	232.54
755.57	232.29
755.90	232.04
756.22	231.77
756.55	231.54
756.88	231.31
757.20	230.93
757.53	230.65
757.86	230.47
758.19	230.25
758.51	230.02
758.84	229.68
759.17	229.47
759.49	229.32
759.82	229.30
760.15	229.15
760.47	228.94
760.80	228.69
761.13	228.50
761.45	228.31
761.78	228.11
762.11	227.96
762.43	227.80
762.76	227.59
763.08	227.46
763.41	227.30
763.74	227.14
764.06	226.99
764.39	226.87
764.71	226.70
765.04	226.52
765.37	226.37
765.69	226.25
766.02	226.12
766.34	225.95
766.67	225.67
767.00	225.58
767.32	225.58
767.65	225.54
767.97	225.39
768.30	225.28
768.62	225.16
768.95	225.02
769.27	224.91
769.60	224.85
769.92	224.69
770.25	224.54
770.57	224.39
770.90	224.25
771.22	224.15
771.55	224.06
771.87	223.98
772.20	223.87
772.52	223.92
772.85	224.02
773.17	223.92
773.50	223.83
773.82	223.66
774.15	223.47
774.47	223.27
774.80	223.18
775.12	223.07
775.45	222.95
775.77	222.85
776.09	222.74
776.42	222.64
776.74	222.62
777.07	222.54
777.39	222.45
777.72	222.38
778.04	222.28
778.36	222.17
778.69	222.10
779.01	222.03
779.33	221.79
779.66	221.50
779.98	221.42
780.31	221.38
780.63	221.42
780.95	221.40
781.28	221.29
781.60	221.18
781.92	221.12
782.25	221.04
782.57	220.97
782.89	220.86
783.22	220.78
783.54	220.67
783.86	220.60
784.19	220.51
784.51	220.50
784.83	220.44
785.16	220.36
785.48	220.28
785.80	220.23
786.12	220.17
