SpectraSuite Data File
++++++++++++++++++++++++++++++++++++
Date: Tue Jan 29 16:34:02 EST 2013
User: group
Dark Spectrum Present: No
Reference Spectrum Present: No
Number of Sampled Component Spectra: 1
Spectrometers: USB2E7196
Integration Time (usec): 65000 (USB2E7196)
Spectra Averaged: 100 (USB2E7196)
Boxcar Smoothing: 10 (USB2E7196)
Correct for Electrical Dark: No (USB2E7196)
Strobe/Lamp Enabled: No (USB2E7196)
Correct for Detector Non-linearity: No (USB2E7196)
Correct for Stray Light: No (USB2E7196)
Number of Pixels in Processed Spectrum: 2048
>>>>>Begin Processed Spectral Data<<<<<
339.09	0.00
339.48	201.77
339.86	203.43
340.24	204.77
340.63	205.89
341.01	210.16
341.39	208.77
341.78	210.25
342.16	211.72
342.54	212.27
342.93	201.06
343.31	211.19
343.69	211.75
344.07	212.20
344.46	212.62
344.84	213.04
345.22	213.23
345.60	213.51
345.99	213.72
346.37	213.85
346.75	213.93
347.13	214.00
347.52	214.06
347.90	214.16
348.28	214.21
348.66	214.31
349.05	214.27
349.43	214.32
349.81	214.38
350.19	214.42
350.57	214.47
350.96	214.58
351.34	214.70
351.72	214.78
352.10	214.90
352.48	214.97
352.87	215.00
353.25	215.02
353.63	215.03
354.01	215.07
354.39	215.14
354.77	215.22
355.15	215.38
355.54	215.44
355.92	215.47
356.30	215.53
356.68	215.71
357.06	215.82
357.44	215.86
357.82	215.92
358.20	215.98
358.58	216.04
358.97	216.09
359.35	216.21
359.73	216.33
360.11	216.36
360.49	216.45
360.87	216.52
361.25	216.64
361.63	216.77
362.01	216.84
362.39	216.88
362.77	216.95
363.15	216.93
363.53	216.97
363.91	216.99
364.29	217.01
364.67	216.84
365.05	216.81
365.43	216.88
365.81	216.89
366.19	217.03
366.57	217.13
366.95	217.13
367.33	217.07
367.71	217.07
368.09	217.11
368.47	217.11
368.85	217.07
369.23	217.12
369.61	217.07
369.99	217.16
370.37	217.15
370.75	217.28
371.13	217.24
371.51	217.15
371.89	217.17
372.27	217.15
372.65	217.16
373.03	217.14
373.41	217.11
373.78	217.06
374.16	216.90
374.54	216.79
374.92	216.75
375.30	216.71
375.68	216.60
376.06	216.60
376.44	216.52
376.82	216.50
377.19	216.40
377.57	216.35
377.95	216.19
378.33	216.14
378.71	215.94
379.09	215.94
379.47	215.95
379.84	215.85
380.22	215.79
380.60	215.71
380.98	215.68
381.36	215.62
381.73	215.59
382.11	215.60
382.49	215.55
382.87	215.46
383.25	215.42
383.62	215.63
384.00	215.52
384.38	215.50
384.76	215.53
385.13	215.59
385.51	215.52
385.89	215.47
386.27	215.45
386.64	215.47
387.02	215.42
387.40	215.38
387.78	215.42
388.15	215.42
388.53	215.36
388.91	215.35
389.29	215.32
389.66	215.30
390.04	215.24
390.42	215.27
390.79	215.28
391.17	215.28
391.55	215.03
391.92	215.04
392.30	215.07
392.68	214.98
393.05	214.95
393.43	214.97
393.81	214.99
394.18	214.95
394.56	214.93
394.94	214.98
395.31	214.99
395.69	215.02
396.06	215.05
396.44	215.08
396.82	215.07
397.19	215.20
397.57	215.19
397.95	215.26
398.32	215.20
398.70	215.28
399.07	215.37
399.45	215.42
399.82	215.46
400.20	215.48
400.58	215.57
400.95	215.55
401.33	215.67
401.70	215.89
402.08	215.99
402.45	216.09
402.83	216.22
403.20	216.33
403.58	216.41
403.95	216.54
404.33	216.72
404.71	216.86
405.08	217.10
405.46	217.32
405.83	217.51
406.21	217.75
406.58	217.97
406.96	218.18
407.33	218.47
407.70	218.76
408.08	219.24
408.45	219.60
408.83	220.00
409.20	220.33
409.58	220.62
409.95	221.07
410.33	221.55
410.70	221.98
411.08	222.53
411.45	223.14
411.82	223.71
412.20	224.43
412.57	225.26
412.95	225.80
413.32	226.62
413.69	227.48
414.07	228.39
414.44	229.39
414.82	230.42
415.19	231.59
415.56	232.79
415.94	233.97
416.31	235.37
416.68	236.77
417.06	238.36
417.43	239.91
417.81	241.70
418.18	243.49
418.55	245.38
418.93	247.44
419.30	249.52
419.67	251.78
420.04	254.04
420.42	256.43
420.79	259.29
421.16	262.06
421.54	264.95
421.91	267.93
422.28	271.02
422.66	274.34
423.03	277.59
423.40	280.94
423.77	284.58
424.15	288.22
424.52	292.07
424.89	296.30
425.26	300.34
425.64	304.22
426.01	308.53
426.38	313.07
426.75	317.63
427.13	322.36
427.50	327.29
427.87	332.48
428.24	337.70
428.61	342.69
428.99	348.23
429.36	354.24
429.73	360.15
430.10	366.06
430.47	372.10
430.85	378.46
431.22	385.22
431.59	392.29
431.96	399.14
432.33	406.64
432.70	413.85
433.08	422.43
433.45	430.52
433.82	438.52
434.19	447.36
434.56	456.03
434.93	464.41
435.30	472.72
435.68	481.90
436.05	490.94
436.42	499.92
436.79	508.10
437.16	516.95
437.53	526.18
437.90	535.32
438.27	544.27
438.64	553.50
439.01	562.03
439.38	569.63
439.75	576.96
440.13	585.39
440.50	593.38
440.87	599.81
441.24	606.36
441.61	613.74
441.98	619.17
442.35	625.53
442.72	631.84
443.09	637.89
443.46	641.61
443.83	644.13
444.20	646.25
444.57	649.38
444.94	650.83
445.31	652.28
445.68	653.68
446.05	654.35
446.42	653.52
446.79	652.62
447.16	651.61
447.53	650.89
447.90	647.56
448.27	644.29
448.64	639.63
449.01	636.35
449.37	630.44
449.74	624.75
450.11	617.85
450.48	610.45
450.85	602.98
451.22	596.49
451.59	590.30
451.96	584.52
452.33	576.62
452.70	569.44
453.07	560.94
453.43	552.30
453.80	543.98
454.17	535.97
454.54	528.33
454.91	520.04
455.28	511.97
455.65	504.53
456.02	497.00
456.38	490.63
456.75	482.72
457.12	476.12
457.49	469.58
457.86	463.37
458.23	457.96
458.59	452.01
458.96	446.05
459.33	440.76
459.70	435.34
460.07	431.13
460.43	426.24
460.80	421.68
461.17	417.68
461.54	413.47
461.91	409.47
462.27	405.39
462.64	401.96
463.01	398.22
463.38	394.55
463.74	390.83
464.11	387.62
464.48	384.84
464.85	381.70
465.21	379.31
465.58	376.66
465.95	373.52
466.32	370.91
466.68	368.26
467.05	365.62
467.42	363.05
467.78	360.29
468.15	357.77
468.52	355.87
468.88	353.37
469.25	351.14
469.62	349.32
469.98	347.34
470.35	345.53
470.72	343.86
471.08	342.04
471.45	340.53
471.82	338.97
472.18	337.32
472.55	336.14
472.92	334.74
473.28	333.53
473.65	332.38
474.02	331.30
474.38	330.42
474.75	329.69
475.11	328.86
475.48	328.31
475.85	327.79
476.21	327.27
476.58	326.90
476.94	326.67
477.31	326.37
477.67	326.10
478.04	325.94
478.41	325.86
478.77	326.02
479.14	325.97
479.50	326.07
479.87	326.34
480.23	326.65
480.60	326.89
480.96	327.12
481.33	327.74
481.69	328.27
482.06	328.78
482.42	329.20
482.79	329.83
483.15	330.62
483.52	331.59
483.88	332.50
484.25	333.48
484.61	334.48
484.98	335.47
485.34	336.80
485.71	338.19
486.07	339.63
486.44	340.91
486.80	342.55
487.17	344.26
487.53	346.08
487.90	347.96
488.26	350.01
488.62	352.20
488.99	354.26
489.35	356.45
489.72	358.88
490.08	361.48
490.44	364.03
490.81	366.80
491.17	369.50
491.54	372.48
491.90	375.48
492.26	378.74
492.63	382.22
492.99	385.71
493.36	389.39
493.72	393.27
494.08	397.32
494.45	401.52
494.81	405.90
495.17	410.36
495.54	415.06
495.90	419.86
496.26	424.78
496.63	429.98
496.99	435.39
497.35	440.95
497.72	446.75
498.08	452.69
498.44	458.77
498.80	465.24
499.17	471.78
499.53	478.54
499.89	485.50
500.26	492.43
500.62	499.56
500.98	506.97
501.34	514.54
501.71	522.26
502.07	530.07
502.43	538.14
502.79	546.31
503.16	554.75
503.52	563.42
503.88	572.21
504.24	581.24
504.60	590.37
504.97	599.63
505.33	608.98
505.69	618.94
506.05	628.88
506.41	638.84
506.78	648.85
507.14	659.15
507.50	669.58
507.86	680.43
508.22	691.22
508.59	702.00
508.95	713.05
509.31	724.40
509.67	736.01
510.03	747.52
510.39	759.31
510.75	771.15
511.12	783.13
511.48	795.23
511.84	807.50
512.20	819.84
512.56	832.62
512.92	845.51
513.28	858.27
513.64	871.06
514.00	883.92
514.37	897.08
514.73	910.23
515.09	923.35
515.45	936.28
515.81	949.43
516.17	962.83
516.53	976.13
516.89	989.30
517.25	1002.52
517.61	1016.10
517.97	1029.62
518.33	1042.93
518.69	1056.56
519.05	1070.42
519.41	1084.21
519.77	1098.21
520.13	1111.56
520.49	1124.76
520.85	1138.14
521.21	1151.60
521.57	1165.46
521.93	1178.66
522.29	1192.59
522.65	1206.43
523.01	1220.14
523.37	1233.49
523.73	1246.92
524.09	1260.31
524.45	1274.10
524.81	1287.77
525.17	1301.30
525.53	1314.65
525.89	1328.08
526.25	1341.30
526.61	1354.37
526.97	1367.53
527.33	1380.64
527.68	1394.26
528.04	1407.89
528.40	1421.12
528.76	1434.69
529.12	1447.62
529.48	1460.98
529.84	1473.34
530.20	1486.04
530.56	1498.85
530.91	1512.19
531.27	1525.19
531.63	1538.02
531.99	1550.70
532.35	1563.00
532.71	1575.52
533.07	1588.46
533.42	1600.90
533.78	1613.17
534.14	1625.25
534.50	1636.60
534.86	1648.28
535.21	1659.27
535.57	1670.91
535.93	1682.35
536.29	1693.52
536.65	1705.13
537.00	1716.22
537.36	1727.63
537.72	1738.78
538.08	1750.25
538.44	1761.28
538.79	1772.56
539.15	1783.56
539.51	1794.49
539.87	1805.92
540.22	1816.83
540.58	1827.97
540.94	1839.00
541.29	1849.42
541.65	1859.36
542.01	1870.05
542.37	1880.33
542.72	1890.55
543.08	1900.43
543.44	1911.07
543.79	1920.47
544.15	1929.92
544.51	1940.01
544.87	1949.99
545.22	1959.37
545.58	1968.38
545.94	1977.51
546.29	1985.99
546.65	1994.49
547.01	2002.78
547.36	2010.68
547.72	2018.53
548.07	2025.98
548.43	2033.67
548.79	2041.63
549.14	2049.86
549.50	2058.45
549.86	2066.32
550.21	2073.93
550.57	2081.81
550.92	2088.67
551.28	2096.21
551.64	2103.50
551.99	2110.95
552.35	2118.24
552.70	2125.25
553.06	2132.00
553.41	2138.28
553.77	2144.83
554.13	2151.28
554.48	2158.47
554.84	2165.51
555.19	2172.09
555.55	2178.73
555.90	2185.09
556.26	2192.05
556.61	2198.08
556.97	2202.92
557.32	2208.75
557.68	2215.17
558.03	2220.87
558.39	2226.29
558.74	2232.37
559.10	2238.05
559.45	2243.81
559.81	2249.55
560.16	2255.07
560.52	2261.03
560.87	2267.38
561.23	2273.27
561.58	2279.85
561.94	2284.95
562.29	2289.59
562.64	2295.63
563.00	2301.30
563.35	2306.89
563.71	2312.47
564.06	2318.25
564.42	2324.07
564.77	2329.19
565.12	2334.43
565.48	2339.49
565.83	2345.01
566.19	2350.26
566.54	2355.61
566.89	2360.15
567.25	2364.66
567.60	2370.44
567.96	2375.44
568.31	2380.00
568.66	2384.44
569.02	2388.34
569.37	2392.12
569.72	2396.61
570.08	2400.09
570.43	2403.30
570.78	2406.49
571.14	2408.84
571.49	2411.93
571.84	2415.59
572.20	2418.45
572.55	2421.47
572.90	2423.85
573.26	2426.46
573.61	2429.12
573.96	2431.37
574.31	2433.34
574.67	2435.18
575.02	2435.82
575.37	2437.26
575.72	2437.97
576.08	2439.34
576.43	2439.52
576.78	2439.89
577.13	2441.32
577.49	2442.46
577.84	2443.17
578.19	2444.26
578.54	2444.87
578.90	2445.44
579.25	2445.26
579.60	2445.13
579.95	2444.18
580.30	2444.07
580.66	2443.46
581.01	2441.57
581.36	2439.06
581.71	2437.68
582.06	2436.36
582.42	2435.25
582.77	2432.93
583.12	2431.19
583.47	2429.61
583.82	2428.94
584.17	2427.58
584.53	2425.44
584.88	2423.21
585.23	2421.36
585.58	2419.12
585.93	2417.17
586.28	2415.07
586.63	2412.62
586.98	2410.39
587.34	2408.56
587.69	2405.95
588.04	2403.71
588.39	2402.29
588.74	2399.69
589.09	2396.95
589.44	2393.77
589.79	2391.33
590.14	2389.21
590.49	2386.35
590.84	2382.51
591.19	2379.31
591.54	2376.10
591.89	2372.06
592.25	2368.81
592.60	2364.71
592.95	2360.55
593.30	2356.38
593.65	2351.98
594.00	2347.33
594.35	2344.22
594.70	2339.42
595.05	2335.02
595.40	2329.67
595.75	2323.88
596.10	2320.09
596.45	2315.03
596.80	2310.22
597.15	2304.91
597.50	2298.97
597.85	2294.08
598.19	2288.67
598.54	2282.71
598.89	2277.25
599.24	2272.66
599.59	2266.46
599.94	2260.47
600.29	2254.36
600.64	2248.31
600.99	2241.16
601.34	2235.49
601.69	2228.46
602.04	2222.06
602.39	2215.28
602.74	2209.01
603.08	2203.39
603.43	2197.02
603.78	2190.19
604.13	2183.27
604.48	2176.05
604.83	2169.95
605.18	2163.60
605.53	2156.93
605.87	2149.93
606.22	2143.20
606.57	2135.10
606.92	2127.11
607.27	2120.04
607.62	2113.38
607.96	2106.43
608.31	2100.15
608.66	2092.43
609.01	2084.74
609.36	2077.56
609.70	2069.86
610.05	2062.06
610.40	2053.66
610.75	2045.12
611.10	2037.25
611.44	2028.19
611.79	2019.48
612.14	2009.38
612.49	1998.62
612.83	1989.07
613.18	1979.80
613.53	1970.44
613.88	1960.75
614.22	1952.11
614.57	1942.33
614.92	1931.61
615.27	1921.05
615.61	1910.78
615.96	1901.15
616.31	1891.51
616.65	1881.90
617.00	1872.05
617.35	1862.23
617.70	1852.32
618.04	1842.35
618.39	1832.24
618.74	1822.65
619.08	1812.81
619.43	1804.05
619.78	1795.83
620.12	1787.14
620.47	1777.54
620.82	1767.18
621.16	1757.51
621.51	1747.45
621.85	1737.50
622.20	1727.27
622.55	1716.88
622.89	1706.95
623.24	1697.21
623.59	1687.37
623.93	1677.28
624.28	1667.46
624.62	1657.35
624.97	1647.16
625.32	1637.40
625.66	1628.44
626.01	1619.67
626.35	1610.32
626.70	1600.23
627.04	1590.06
627.39	1579.96
627.73	1570.62
628.08	1561.72
628.43	1551.97
628.77	1542.81
629.12	1533.98
629.46	1526.01
629.81	1517.63
630.15	1508.24
630.50	1498.50
630.84	1487.98
631.19	1478.08
631.53	1468.89
631.88	1458.75
632.22	1448.73
632.57	1439.27
632.91	1429.17
633.26	1419.25
633.60	1409.71
633.95	1400.48
634.29	1390.97
634.64	1381.63
634.98	1371.62
635.32	1362.33
635.67	1354.06
636.01	1344.68
636.36	1334.89
636.70	1325.42
637.05	1315.97
637.39	1306.98
637.73	1298.30
638.08	1290.71
638.42	1282.54
638.77	1273.68
639.11	1265.54
639.45	1257.76
639.80	1249.32
640.14	1240.52
640.49	1231.60
640.83	1222.64
641.17	1214.47
641.52	1206.29
641.86	1197.72
642.20	1189.90
642.55	1181.10
642.89	1172.11
643.23	1163.46
643.58	1155.30
643.92	1146.16
644.26	1137.44
644.61	1128.90
644.95	1119.95
645.29	1110.77
645.64	1101.50
645.98	1092.89
646.32	1084.75
646.66	1076.17
647.01	1067.67
647.35	1059.53
647.69	1051.20
648.04	1043.00
648.38	1034.00
648.72	1025.22
649.06	1016.74
649.41	1008.35
649.75	1000.48
650.09	992.62
650.43	984.58
650.78	976.11
651.12	968.39
651.46	960.98
651.80	953.70
652.14	946.30
652.49	938.71
652.83	931.39
653.17	923.68
653.51	916.12
653.85	908.74
654.20	901.43
654.54	893.98
654.88	886.71
655.22	879.41
655.56	872.40
655.90	865.60
656.25	858.86
656.59	852.09
656.93	845.00
657.27	837.82
657.61	830.77
657.95	824.62
658.29	818.62
658.64	812.43
658.98	805.87
659.32	799.38
659.66	793.06
660.00	786.62
660.34	780.53
660.68	774.39
661.02	768.08
661.36	762.11
661.70	756.22
662.05	750.52
662.39	744.93
662.73	739.47
663.07	734.01
663.41	728.34
663.75	722.47
664.09	716.70
664.43	711.13
664.77	705.78
665.11	699.93
665.45	693.99
665.79	688.06
666.13	682.36
666.47	676.76
666.81	671.25
667.15	665.80
667.49	660.56
667.83	655.19
668.17	649.90
668.51	644.73
668.85	639.80
669.19	634.87
669.53	629.83
669.87	624.68
670.21	619.81
670.55	615.06
670.89	610.54
671.23	606.18
671.57	601.73
671.91	597.34
672.25	593.15
672.58	588.94
672.92	584.88
673.26	580.91
673.60	576.97
673.94	573.14
674.28	569.49
674.62	565.72
674.96	561.88
675.30	558.35
675.64	554.66
675.97	551.00
676.31	547.31
676.65	543.68
676.99	540.23
677.33	536.36
677.67	532.67
678.01	528.79
678.34	525.08
678.68	521.59
679.02	517.96
679.36	514.27
679.70	510.55
680.04	506.92
680.37	503.46
680.71	500.10
681.05	496.86
681.39	493.56
681.73	490.29
682.06	487.27
682.40	484.14
682.74	480.88
683.08	477.60
683.42	474.34
683.75	471.26
684.09	468.13
684.43	465.31
684.77	462.33
685.10	459.50
685.44	456.55
685.78	453.60
686.12	450.76
686.45	447.96
686.79	445.34
687.13	442.73
687.46	440.05
687.80	437.36
688.14	434.50
688.48	431.81
688.81	429.13
689.15	426.49
689.49	423.83
689.82	421.28
690.16	418.65
690.50	416.23
690.83	413.77
691.17	411.24
691.51	408.70
691.84	406.37
692.18	404.08
692.52	401.83
692.85	399.61
693.19	397.43
693.52	395.28
693.86	392.98
694.20	390.83
694.53	388.66
694.87	386.43
695.21	384.23
695.54	381.99
695.88	379.75
696.21	377.55
696.55	375.37
696.88	373.30
697.22	371.28
697.56	369.30
697.89	367.33
698.23	365.53
698.56	363.70
698.90	361.94
699.23	360.00
699.57	358.12
699.90	356.25
700.24	354.42
700.58	352.56
700.91	350.86
701.25	349.24
701.58	347.60
701.92	345.96
702.25	344.40
702.59	342.80
702.92	341.28
703.26	339.64
703.59	338.17
703.93	336.85
704.26	335.40
704.60	333.90
704.93	332.44
705.26	330.92
705.60	329.48
705.93	327.94
706.27	326.61
706.60	325.34
706.94	324.11
707.27	322.73
707.61	321.42
707.94	320.08
708.27	318.53
708.61	317.04
708.94	315.65
709.28	314.30
709.61	313.00
709.94	311.76
710.28	310.55
710.61	309.33
710.95	307.87
711.28	306.80
711.61	305.62
711.95	304.42
712.28	303.21
712.61	301.99
712.95	300.90
713.28	299.83
713.61	298.65
713.95	297.43
714.28	296.37
714.61	295.34
714.95	294.29
715.28	293.30
715.61	292.26
715.95	291.27
716.28	290.29
716.61	289.38
716.95	288.36
717.28	287.42
717.61	286.45
717.94	285.51
718.28	284.45
718.61	283.49
718.94	282.61
719.27	281.75
719.61	280.91
719.94	280.04
720.27	279.05
720.60	278.16
720.94	277.35
721.27	276.58
721.60	275.82
721.93	275.09
722.27	274.41
722.60	273.79
722.93	273.06
723.26	272.39
723.59	271.69
723.93	271.07
724.26	270.42
724.59	269.71
724.92	269.14
725.25	268.60
725.59	268.06
725.92	267.49
726.25	266.89
726.58	266.29
726.91	265.66
727.24	265.13
727.57	264.58
727.91	263.99
728.24	263.44
728.57	262.83
728.90	262.28
729.23	261.68
729.56	261.20
729.89	260.64
730.22	260.07
730.55	259.48
730.89	258.93
731.22	258.36
731.55	257.88
731.88	257.32
732.21	256.75
732.54	256.17
732.87	255.66
733.20	255.18
733.53	254.69
733.86	254.25
734.19	253.73
734.52	253.31
734.85	252.99
735.18	252.47
735.51	252.12
735.84	251.68
736.17	251.28
736.50	250.76
736.83	250.59
737.16	250.18
737.49	249.81
737.82	249.38
738.15	249.03
738.48	248.64
738.81	248.27
739.14	247.83
739.47	247.43
739.80	247.04
740.13	246.68
740.46	246.31
740.79	245.93
741.12	245.56
741.45	245.17
741.78	244.75
742.11	244.46
742.44	244.05
742.77	243.72
743.10	243.36
743.43	242.99
743.75	242.44
744.08	242.39
744.41	242.03
744.74	241.70
745.07	241.31
745.40	241.02
745.73	240.75
746.06	240.41
746.39	240.15
746.71	239.81
747.04	239.44
747.37	239.07
747.70	238.78
748.03	238.51
748.36	238.25
748.68	237.94
749.01	237.59
749.34	237.33
749.67	237.05
750.00	236.81
750.33	236.70
750.65	236.43
750.98	235.88
751.31	235.63
751.64	235.39
751.97	235.26
752.29	234.99
752.62	234.66
752.95	234.42
753.28	234.10
753.60	233.85
753.93	233.68
754.26	233.51
754.59	233.25
754.91	233.00
755.24	232.74
755.57	232.52
755.90	232.32
756.22	232.01
756.55	231.80
756.88	231.53
757.20	231.18
757.53	230.93
757.86	230.70
758.19	230.49
758.51	230.29
758.84	230.00
759.17	229.77
759.49	229.61
759.82	229.55
760.15	229.41
760.47	229.26
760.80	229.00
761.13	228.82
761.45	228.60
761.78	228.38
762.11	228.18
762.43	227.95
762.76	227.73
763.08	227.61
763.41	227.44
763.74	227.27
764.06	227.09
764.39	226.93
764.71	226.78
765.04	226.63
765.37	226.47
765.69	226.33
766.02	226.19
766.34	226.02
766.67	225.77
767.00	225.64
767.32	225.57
767.65	225.61
767.97	225.46
768.30	225.35
768.62	225.23
768.95	225.07
769.27	224.96
769.60	224.90
769.92	224.73
770.25	224.51
770.57	224.35
770.90	224.27
771.22	224.12
771.55	224.00
771.87	223.88
772.20	223.74
772.52	223.75
772.85	223.88
773.17	223.79
773.50	223.71
773.82	223.61
774.15	223.43
774.47	223.18
774.80	223.04
775.12	222.93
775.45	222.82
775.77	222.78
776.09	222.71
776.42	222.58
776.74	222.60
777.07	222.49
777.39	222.44
777.72	222.30
778.04	222.29
778.36	222.19
778.69	222.11
779.01	222.04
779.33	221.76
779.66	221.45
779.98	221.33
780.31	221.24
780.63	221.26
780.95	221.22
781.28	221.14
781.60	221.08
781.92	221.01
782.25	220.96
782.57	220.88
782.89	220.81
783.22	220.73
783.54	220.60
783.86	220.57
784.19	220.48
784.51	220.45
784.83	220.34
785.16	220.28
785.48	220.23
785.80	220.20
786.12	220.16
