SpectraSuite Data File
++++++++++++++++++++++++++++++++++++
Date: Tue Jan 29 16:54:27 EST 2013
User: group
Dark Spectrum Present: No
Reference Spectrum Present: No
Number of Sampled Component Spectra: 1
Spectrometers: USB2E7196
Integration Time (usec): 65000 (USB2E7196)
Spectra Averaged: 100 (USB2E7196)
Boxcar Smoothing: 10 (USB2E7196)
Correct for Electrical Dark: No (USB2E7196)
Strobe/Lamp Enabled: No (USB2E7196)
Correct for Detector Non-linearity: No (USB2E7196)
Correct for Stray Light: No (USB2E7196)
Number of Pixels in Processed Spectrum: 2048
>>>>>Begin Processed Spectral Data<<<<<
339.09	0.00
339.48	201.36
339.86	202.86
340.24	204.16
340.63	205.87
341.01	210.34
341.39	208.54
341.78	210.26
342.16	211.29
342.54	211.81
342.93	200.79
343.31	210.93
343.69	211.48
344.07	211.94
344.46	212.39
344.84	212.77
345.22	212.93
345.60	213.20
345.99	213.38
346.37	213.50
346.75	213.58
347.13	213.66
347.52	213.74
347.90	213.84
348.28	213.88
348.66	213.94
349.05	213.91
349.43	213.97
349.81	214.04
350.19	214.08
350.57	214.17
350.96	214.28
351.34	214.41
351.72	214.52
352.10	214.67
352.48	214.71
352.87	214.78
353.25	214.83
353.63	214.89
354.01	214.91
354.39	215.02
354.77	215.10
355.15	215.20
355.54	215.21
355.92	215.24
356.30	215.32
356.68	215.53
357.06	215.64
357.44	215.70
357.82	215.76
358.20	215.84
358.58	215.89
358.97	215.95
359.35	216.01
359.73	216.09
360.11	216.12
360.49	216.24
360.87	216.31
361.25	216.40
361.63	216.51
362.01	216.64
362.39	216.65
362.77	216.71
363.15	216.76
363.53	216.81
363.91	216.87
364.29	216.88
364.67	216.74
365.05	216.76
365.43	216.82
365.81	216.87
366.19	216.99
366.57	217.07
366.95	217.09
367.33	217.03
367.71	217.01
368.09	217.06
368.47	217.04
368.85	217.01
369.23	217.07
369.61	217.01
369.99	217.03
370.37	217.06
370.75	217.17
371.13	217.09
371.51	217.05
371.89	217.02
372.27	217.00
372.65	216.95
373.03	216.89
373.41	216.82
373.78	216.76
374.16	216.62
374.54	216.54
374.92	216.47
375.30	216.48
375.68	216.44
376.06	216.39
376.44	216.30
376.82	216.30
377.19	216.22
377.57	216.18
377.95	216.08
378.33	216.00
378.71	215.82
379.09	215.80
379.47	215.75
379.84	215.68
380.22	215.64
380.60	215.54
380.98	215.51
381.36	215.45
381.73	215.40
382.11	215.42
382.49	215.38
382.87	215.30
383.25	215.25
383.62	215.42
384.00	215.35
384.38	215.35
384.76	215.33
385.13	215.36
385.51	215.31
385.89	215.24
386.27	215.22
386.64	215.22
387.02	215.16
387.40	215.13
387.78	215.12
388.15	215.11
388.53	215.11
388.91	215.10
389.29	215.09
389.66	215.08
390.04	215.02
390.42	215.03
390.79	215.06
391.17	215.07
391.55	214.84
391.92	214.87
392.30	214.87
392.68	214.79
393.05	214.78
393.43	214.77
393.81	214.80
394.18	214.76
394.56	214.75
394.94	214.81
395.31	214.79
395.69	214.84
396.06	214.85
396.44	214.84
396.82	214.83
397.19	214.92
397.57	214.92
397.95	214.99
398.32	214.96
398.70	215.03
399.07	215.08
399.45	215.09
399.82	215.11
400.20	215.15
400.58	215.25
400.95	215.21
401.33	215.36
401.70	215.57
402.08	215.67
402.45	215.76
402.83	215.90
403.20	216.04
403.58	216.13
403.95	216.28
404.33	216.46
404.71	216.63
405.08	216.93
405.46	217.10
405.83	217.30
406.21	217.51
406.58	217.70
406.96	217.92
407.33	218.21
407.70	218.53
408.08	219.01
408.45	219.33
408.83	219.73
409.20	220.04
409.58	220.34
409.95	220.85
410.33	221.33
410.70	221.75
411.08	222.31
411.45	222.90
411.82	223.48
412.20	224.22
412.57	225.06
412.95	225.62
413.32	226.46
413.69	227.31
414.07	228.22
414.44	229.23
414.82	230.26
415.19	231.44
415.56	232.63
415.94	233.79
416.31	235.20
416.68	236.61
417.06	238.22
417.43	239.75
417.81	241.48
418.18	243.29
418.55	245.24
418.93	247.32
419.30	249.42
419.67	251.64
420.04	253.94
420.42	256.29
420.79	259.12
421.16	261.93
421.54	264.85
421.91	267.87
422.28	271.00
422.66	274.30
423.03	277.57
423.40	280.94
423.77	284.59
424.15	288.29
424.52	292.19
424.89	296.38
425.26	300.48
425.64	304.38
426.01	308.69
426.38	313.21
426.75	317.69
427.13	322.46
427.50	327.44
427.87	332.61
428.24	337.84
428.61	342.85
428.99	348.37
429.36	354.42
429.73	360.27
430.10	366.14
430.47	372.28
430.85	378.58
431.22	385.31
431.59	392.46
431.96	399.34
432.33	406.83
432.70	414.09
433.08	422.67
433.45	430.79
433.82	438.84
434.19	447.73
434.56	456.55
434.93	464.93
435.30	473.28
435.68	482.43
436.05	491.55
436.42	500.54
436.79	508.75
437.16	517.57
437.53	526.95
437.90	536.15
438.27	545.14
438.64	554.49
439.01	563.08
439.38	570.72
439.75	578.06
440.13	586.62
440.50	594.67
440.87	601.09
441.24	607.73
441.61	615.12
441.98	620.53
442.35	626.88
442.72	633.26
443.09	639.40
443.46	643.23
443.83	645.72
444.20	647.93
444.57	651.09
444.94	652.52
445.31	654.03
445.68	655.49
446.05	656.15
446.42	655.36
446.79	654.42
447.16	653.32
447.53	652.60
447.90	649.20
448.27	645.88
448.64	641.27
449.01	638.00
449.37	632.10
449.74	626.48
450.11	619.55
450.48	612.15
450.85	604.61
451.22	598.11
451.59	591.94
451.96	586.04
452.33	578.22
452.70	571.10
453.07	562.54
453.43	553.92
453.80	545.51
454.17	537.43
454.54	529.82
454.91	521.61
455.28	513.51
455.65	506.10
456.02	498.56
456.38	492.16
456.75	484.21
457.12	477.54
457.49	470.93
457.86	464.68
458.23	459.22
458.59	453.29
458.96	447.20
459.33	441.88
459.70	436.45
460.07	432.10
460.43	427.15
460.80	422.55
461.17	418.46
461.54	414.25
461.91	410.25
462.27	406.09
462.64	402.64
463.01	398.87
463.38	395.07
463.74	391.34
464.11	388.06
464.48	385.23
464.85	382.15
465.21	379.72
465.58	377.07
465.95	373.92
466.32	371.25
466.68	368.68
467.05	366.05
467.42	363.48
467.78	360.82
468.15	358.32
468.52	356.35
468.88	353.85
469.25	351.63
469.62	349.77
469.98	347.79
470.35	345.89
470.72	344.20
471.08	342.38
471.45	340.89
471.82	339.33
472.18	337.61
472.55	336.37
472.92	334.96
473.28	333.71
473.65	332.53
474.02	331.39
474.38	330.40
474.75	329.65
475.11	328.83
475.48	328.17
475.85	327.66
476.21	327.15
476.58	326.76
476.94	326.53
477.31	326.21
477.67	325.94
478.04	325.81
478.41	325.74
478.77	325.95
479.14	325.86
479.50	326.01
479.87	326.29
480.23	326.62
480.60	326.86
480.96	327.17
481.33	327.74
481.69	328.35
482.06	328.93
482.42	329.41
482.79	329.99
483.15	330.77
483.52	331.67
483.88	332.58
484.25	333.53
484.61	334.50
484.98	335.51
485.34	336.85
485.71	338.25
486.07	339.72
486.44	340.99
486.80	342.62
487.17	344.31
487.53	346.12
487.90	347.94
488.26	350.00
488.62	352.13
488.99	354.13
489.35	356.26
489.72	358.64
490.08	361.14
490.44	363.70
490.81	366.43
491.17	369.16
491.54	372.08
491.90	375.13
492.26	378.41
492.63	381.88
492.99	385.39
493.36	389.03
493.72	392.86
494.08	396.88
494.45	401.05
494.81	405.40
495.17	409.83
495.54	414.59
495.90	419.37
496.26	424.30
496.63	429.57
496.99	434.95
497.35	440.51
497.72	446.29
498.08	452.23
498.44	458.31
498.80	464.73
499.17	471.25
499.53	477.85
499.89	484.72
500.26	491.68
500.62	498.69
500.98	506.08
501.34	513.53
501.71	521.23
502.07	529.05
502.43	537.02
502.79	545.13
503.16	553.42
503.52	561.99
503.88	570.67
504.24	579.59
504.60	588.65
504.97	597.78
505.33	607.09
505.69	616.93
506.05	626.86
506.41	636.75
506.78	646.79
507.14	656.99
507.50	667.35
507.86	677.98
508.22	688.69
508.59	699.29
508.95	710.31
509.31	721.47
509.67	732.92
510.03	744.28
510.39	755.99
510.75	767.80
511.12	779.65
511.48	791.79
511.84	803.90
512.20	816.13
512.56	828.77
512.92	841.40
513.28	854.10
513.64	866.70
514.00	879.47
514.37	892.39
514.73	905.52
515.09	918.49
515.45	931.43
515.81	944.51
516.17	957.90
516.53	971.19
516.89	984.34
517.25	997.47
517.61	1010.98
517.97	1024.35
518.33	1037.48
518.69	1051.03
519.05	1064.73
519.41	1078.49
519.77	1092.32
520.13	1105.66
520.49	1118.88
520.85	1132.12
521.21	1145.47
521.57	1159.06
521.93	1172.12
522.29	1185.85
522.65	1199.44
523.01	1213.01
523.37	1226.26
523.73	1239.63
524.09	1252.75
524.45	1266.20
524.81	1279.67
525.17	1293.04
525.53	1306.25
525.89	1319.67
526.25	1332.82
526.61	1345.71
526.97	1358.85
527.33	1371.98
527.68	1385.52
528.04	1399.17
528.40	1412.39
528.76	1425.66
529.12	1438.68
529.48	1452.01
529.84	1464.31
530.20	1477.08
530.56	1489.80
530.91	1503.08
531.27	1516.04
531.63	1528.81
531.99	1541.62
532.35	1554.00
532.71	1566.44
533.07	1579.43
533.42	1591.59
533.78	1603.70
534.14	1615.69
534.50	1626.91
534.86	1638.53
535.21	1649.36
535.57	1661.00
535.93	1672.27
536.29	1683.54
536.65	1695.09
537.00	1706.13
537.36	1717.67
537.72	1728.82
538.08	1740.17
538.44	1751.22
538.79	1762.28
539.15	1773.30
539.51	1784.31
539.87	1795.63
540.22	1806.59
540.58	1817.52
540.94	1828.51
541.29	1838.86
541.65	1848.73
542.01	1859.30
542.37	1869.43
542.72	1879.77
543.08	1889.45
543.44	1900.03
543.79	1909.36
544.15	1918.83
544.51	1928.92
544.87	1938.96
545.22	1948.32
545.58	1957.38
545.94	1966.21
546.29	1974.84
546.65	1983.29
547.01	1991.41
547.36	1999.19
547.72	2006.96
548.07	2014.73
548.43	2022.50
548.79	2030.53
549.14	2038.72
549.50	2047.35
549.86	2055.17
550.21	2062.55
550.57	2070.23
550.92	2076.99
551.28	2084.66
551.64	2091.95
551.99	2099.38
552.35	2106.46
552.70	2113.37
553.06	2119.96
553.41	2126.31
553.77	2132.77
554.13	2139.18
554.48	2146.25
554.84	2153.45
555.19	2159.99
555.55	2166.43
555.90	2172.71
556.26	2179.43
556.61	2185.54
556.97	2190.26
557.32	2196.13
557.68	2202.57
558.03	2208.40
558.39	2213.70
558.74	2219.45
559.10	2224.92
559.45	2230.55
559.81	2235.98
560.16	2241.37
560.52	2247.24
560.87	2253.56
561.23	2259.31
561.58	2265.92
561.94	2270.99
562.29	2275.42
562.64	2281.36
563.00	2286.75
563.35	2292.13
563.71	2297.68
564.06	2303.31
564.42	2309.28
564.77	2314.24
565.12	2319.34
565.48	2324.20
565.83	2329.68
566.19	2334.98
566.54	2340.19
566.89	2344.64
567.25	2349.33
567.60	2354.93
567.96	2359.83
568.31	2364.25
568.66	2368.47
569.02	2372.23
569.37	2375.92
569.72	2380.16
570.08	2383.58
570.43	2386.71
570.78	2389.94
571.14	2392.34
571.49	2395.26
571.84	2398.44
572.20	2401.43
572.55	2404.29
572.90	2406.56
573.26	2409.34
573.61	2411.75
573.96	2413.93
574.31	2415.79
574.67	2417.33
575.02	2418.03
575.37	2419.38
575.72	2419.96
576.08	2421.32
576.43	2421.23
576.78	2421.46
577.13	2422.91
577.49	2423.88
577.84	2424.61
578.19	2425.63
578.54	2426.05
578.90	2426.55
579.25	2426.36
579.60	2425.87
579.95	2424.82
580.30	2424.56
580.66	2423.70
581.01	2421.84
581.36	2419.13
581.71	2417.54
582.06	2416.31
582.42	2415.15
582.77	2412.71
583.12	2410.78
583.47	2409.06
583.82	2408.22
584.17	2406.65
584.53	2404.37
584.88	2402.06
585.23	2400.19
585.58	2397.76
585.93	2395.68
586.28	2393.21
586.63	2390.51
586.98	2388.08
587.34	2385.94
587.69	2383.31
588.04	2380.92
588.39	2379.37
588.74	2376.80
589.09	2373.86
589.44	2370.46
589.79	2367.73
590.14	2365.59
590.49	2362.66
590.84	2358.65
591.19	2355.36
591.54	2352.15
591.89	2348.02
592.25	2344.67
592.60	2340.27
592.95	2335.97
593.30	2331.64
593.65	2327.31
594.00	2322.82
594.35	2319.75
594.70	2315.06
595.05	2310.55
595.40	2305.07
595.75	2299.08
596.10	2295.31
596.45	2290.52
596.80	2285.80
597.15	2280.56
597.50	2274.61
597.85	2269.67
598.19	2264.57
598.54	2258.86
598.89	2253.46
599.24	2248.82
599.59	2242.46
599.94	2236.55
600.29	2230.60
600.64	2224.60
600.99	2217.79
601.34	2212.24
601.69	2205.12
602.04	2198.83
602.39	2192.15
602.74	2185.87
603.08	2180.51
603.43	2173.90
603.78	2166.93
604.13	2159.85
604.48	2152.59
604.83	2146.49
605.18	2140.35
605.53	2133.42
605.87	2126.41
606.22	2119.72
606.57	2111.93
606.92	2104.07
607.27	2097.11
607.62	2090.45
607.96	2083.56
608.31	2077.03
608.66	2069.32
609.01	2061.81
609.36	2054.63
609.70	2047.01
610.05	2039.30
610.40	2030.85
610.75	2022.45
611.10	2014.79
611.44	2005.85
611.79	1997.28
612.14	1987.39
612.49	1976.55
612.83	1967.09
613.18	1957.76
613.53	1948.48
613.88	1938.83
614.22	1930.23
614.57	1920.33
614.92	1909.78
615.27	1899.45
615.61	1889.42
615.96	1879.86
616.31	1870.28
616.65	1860.91
617.00	1851.21
617.35	1841.63
617.70	1832.00
618.04	1822.27
618.39	1812.18
618.74	1802.68
619.08	1792.95
619.43	1784.34
619.78	1776.32
620.12	1767.84
620.47	1758.43
620.82	1748.09
621.16	1738.26
621.51	1728.50
621.85	1718.92
622.20	1708.84
622.55	1698.51
622.89	1688.58
623.24	1678.92
623.59	1669.32
623.93	1659.24
624.28	1649.50
624.62	1639.57
624.97	1629.42
625.32	1619.62
625.66	1610.88
626.01	1602.32
626.35	1593.10
626.70	1583.09
627.04	1573.13
627.39	1563.01
627.73	1553.90
628.08	1545.22
628.43	1535.95
628.77	1526.75
629.12	1517.94
629.46	1510.14
629.81	1502.00
630.15	1492.68
630.50	1483.09
630.84	1472.65
631.19	1462.90
631.53	1453.75
631.88	1443.78
632.22	1433.85
632.57	1424.61
632.91	1414.49
633.26	1404.64
633.60	1395.19
633.95	1386.17
634.29	1376.74
634.64	1367.70
634.98	1357.68
635.32	1348.46
635.67	1340.02
636.01	1330.95
636.36	1321.29
636.70	1311.87
637.05	1302.45
637.39	1293.64
637.73	1285.03
638.08	1277.57
638.42	1269.48
638.77	1260.83
639.11	1252.67
639.45	1245.03
639.80	1236.72
640.14	1228.20
640.49	1219.50
640.83	1210.81
641.17	1202.69
641.52	1194.67
641.86	1186.20
642.20	1178.46
642.55	1169.97
642.89	1161.22
643.23	1152.71
643.58	1144.71
643.92	1135.85
644.26	1127.33
644.61	1118.98
644.95	1110.25
645.29	1101.23
645.64	1092.23
645.98	1083.81
646.32	1075.92
646.66	1067.50
647.01	1059.27
647.35	1051.27
647.69	1043.04
648.04	1034.80
648.38	1025.98
648.72	1017.28
649.06	1008.97
649.41	1000.92
649.75	993.07
650.09	985.36
650.43	977.42
650.78	969.22
651.12	961.43
651.46	954.07
651.80	946.94
652.14	939.77
652.49	932.28
652.83	924.98
653.17	917.32
653.51	909.72
653.85	902.59
654.20	895.38
654.54	888.02
654.88	880.93
655.22	873.86
655.56	866.85
655.90	860.15
656.25	853.47
656.59	846.63
656.93	839.67
657.27	832.61
657.61	825.63
657.95	819.48
658.29	813.57
658.64	807.51
658.98	801.04
659.32	794.53
659.66	788.34
660.00	782.10
660.34	776.13
660.68	770.15
661.02	763.86
661.36	757.90
661.70	752.01
662.05	746.37
662.39	740.90
662.73	735.58
663.07	730.18
663.41	724.58
663.75	718.87
664.09	713.13
664.43	707.62
664.77	702.29
665.11	696.55
665.45	690.75
665.79	684.88
666.13	679.31
666.47	673.88
666.81	668.40
667.15	663.03
667.49	657.77
667.83	652.47
668.17	647.22
668.51	642.13
668.85	637.26
669.19	632.35
669.53	627.25
669.87	622.08
670.21	617.36
670.55	612.68
670.89	608.28
671.23	604.03
671.57	599.66
671.91	595.38
672.25	591.18
672.58	587.09
672.92	583.10
673.26	579.10
673.60	575.19
673.94	571.42
674.28	567.83
674.62	564.20
674.96	560.44
675.30	556.94
675.64	553.29
675.97	549.71
676.31	546.09
676.65	542.57
676.99	539.20
677.33	535.32
677.67	531.66
678.01	527.80
678.34	524.10
678.68	520.60
679.02	516.99
679.36	513.40
679.70	509.76
680.04	506.17
680.37	502.69
680.71	499.32
681.05	496.05
681.39	492.67
681.73	489.42
682.06	486.46
682.40	483.31
682.74	480.08
683.08	476.80
683.42	473.56
683.75	470.49
684.09	467.40
684.43	464.61
684.77	461.69
685.10	458.78
685.44	455.85
685.78	452.85
686.12	450.08
686.45	447.27
686.79	444.57
687.13	442.00
687.46	439.38
687.80	436.75
688.14	433.91
688.48	431.32
688.81	428.57
689.15	425.88
689.49	423.26
689.82	420.69
690.16	418.15
690.50	415.70
690.83	413.21
691.17	410.67
691.51	408.07
691.84	405.75
692.18	403.53
692.52	401.30
692.85	399.14
693.19	397.00
693.52	394.77
693.86	392.49
694.20	390.28
694.53	388.11
694.87	385.88
695.21	383.70
695.54	381.49
695.88	379.34
696.21	377.14
696.55	374.99
696.88	372.91
697.22	370.85
697.56	368.90
697.89	367.00
698.23	365.22
698.56	363.45
698.90	361.69
699.23	359.77
699.57	357.91
699.90	356.07
700.24	354.15
700.58	352.38
700.91	350.68
701.25	349.10
701.58	347.45
701.92	345.83
702.25	344.22
702.59	342.57
702.92	341.04
703.26	339.48
703.59	337.95
703.93	336.69
704.26	335.25
704.60	333.70
704.93	332.16
705.26	330.62
705.60	329.18
705.93	327.58
706.27	326.23
706.60	324.95
706.94	323.73
707.27	322.38
707.61	321.05
707.94	319.72
708.27	318.19
708.61	316.70
708.94	315.37
709.28	314.06
709.61	312.82
709.94	311.57
710.28	310.33
710.61	309.15
710.95	307.68
711.28	306.58
711.61	305.41
711.95	304.26
712.28	303.08
712.61	301.84
712.95	300.78
713.28	299.71
713.61	298.52
713.95	297.29
714.28	296.25
714.61	295.15
714.95	294.11
715.28	293.06
715.61	292.02
715.95	290.99
716.28	290.02
716.61	289.02
716.95	287.99
717.28	287.04
717.61	286.08
717.94	285.17
718.28	284.16
718.61	283.24
718.94	282.32
719.27	281.44
719.61	280.62
719.94	279.73
720.27	278.72
720.60	277.87
720.94	277.08
721.27	276.28
721.60	275.58
721.93	274.85
722.27	274.21
722.60	273.59
722.93	272.87
723.26	272.17
723.59	271.48
723.93	270.87
724.26	270.23
724.59	269.57
724.92	268.94
725.25	268.36
725.59	267.78
725.92	267.24
726.25	266.69
726.58	266.13
726.91	265.53
727.24	265.04
727.57	264.45
727.91	263.81
728.24	263.27
728.57	262.68
728.90	262.13
729.23	261.49
729.56	261.00
729.89	260.45
730.22	259.86
730.55	259.32
730.89	258.77
731.22	258.20
731.55	257.64
731.88	257.14
732.21	256.60
732.54	256.06
732.87	255.53
733.20	255.00
733.53	254.49
733.86	254.04
734.19	253.47
734.52	253.06
734.85	252.75
735.18	252.23
735.51	251.82
735.84	251.34
736.17	250.96
736.50	250.43
736.83	250.27
737.16	249.89
737.49	249.51
737.82	249.08
738.15	248.67
738.48	248.32
738.81	247.92
739.14	247.49
739.47	247.12
739.80	246.74
740.13	246.38
740.46	245.93
740.79	245.49
741.12	245.16
741.45	244.77
741.78	244.34
742.11	244.09
742.44	243.72
742.77	243.46
743.10	243.10
743.43	242.76
743.75	242.17
744.08	242.10
744.41	241.73
744.74	241.40
745.07	241.01
745.40	240.69
745.73	240.44
746.06	240.11
746.39	239.76
746.71	239.42
747.04	239.05
747.37	238.79
747.70	238.54
748.03	238.24
748.36	237.98
748.68	237.64
749.01	237.28
749.34	237.01
749.67	236.65
750.00	236.39
750.33	236.25
750.65	235.99
750.98	235.44
751.31	235.23
751.64	234.97
751.97	234.89
752.29	234.62
752.62	234.24
752.95	233.98
753.28	233.74
753.60	233.48
753.93	233.33
754.26	233.09
754.59	232.81
754.91	232.58
755.24	232.30
755.57	232.06
755.90	231.82
756.22	231.54
756.55	231.37
756.88	231.09
757.20	230.70
757.53	230.42
757.86	230.24
758.19	229.98
758.51	229.78
758.84	229.45
759.17	229.25
759.49	229.12
759.82	229.06
760.15	228.88
760.47	228.70
760.80	228.44
761.13	228.27
761.45	228.10
761.78	227.88
762.11	227.69
762.43	227.50
762.76	227.31
763.08	227.18
763.41	226.99
763.74	226.87
764.06	226.75
764.39	226.60
764.71	226.43
765.04	226.27
765.37	226.11
765.69	225.96
766.02	225.80
766.34	225.62
766.67	225.36
767.00	225.26
767.32	225.26
767.65	225.28
767.97	225.14
768.30	225.02
768.62	224.91
768.95	224.77
769.27	224.66
769.60	224.57
769.92	224.42
770.25	224.24
770.57	224.08
770.90	223.95
771.22	223.82
771.55	223.70
771.87	223.62
772.20	223.48
772.52	223.52
772.85	223.68
773.17	223.56
773.50	223.43
773.82	223.30
774.15	223.07
774.47	222.81
774.80	222.68
775.12	222.57
775.45	222.49
775.77	222.43
776.09	222.36
776.42	222.26
776.74	222.21
777.07	222.11
777.39	222.02
777.72	221.88
778.04	221.84
778.36	221.74
778.69	221.64
779.01	221.55
779.33	221.31
779.66	220.97
779.98	220.89
780.31	220.86
780.63	220.88
780.95	220.86
781.28	220.79
781.60	220.73
781.92	220.64
782.25	220.57
782.57	220.48
782.89	220.41
783.22	220.36
783.54	220.26
783.86	220.25
784.19	220.19
784.51	220.22
784.83	220.12
785.16	220.05
785.48	220.02
785.80	219.97
786.12	219.91
