SpectraSuite Data File
++++++++++++++++++++++++++++++++++++
Date: Tue Jan 29 16:09:29 EST 2013
User: group
Dark Spectrum Present: No
Reference Spectrum Present: No
Number of Sampled Component Spectra: 1
Spectrometers: USB2E7196
Integration Time (usec): 65000 (USB2E7196)
Spectra Averaged: 100 (USB2E7196)
Boxcar Smoothing: 10 (USB2E7196)
Correct for Electrical Dark: No (USB2E7196)
Strobe/Lamp Enabled: No (USB2E7196)
Correct for Detector Non-linearity: No (USB2E7196)
Correct for Stray Light: No (USB2E7196)
Number of Pixels in Processed Spectrum: 2048
>>>>>Begin Processed Spectral Data<<<<<
339.09	0.00
339.48	202.48
339.86	204.44
340.24	205.97
340.63	207.28
341.01	211.73
341.39	209.79
341.78	211.14
342.16	212.66
342.54	212.63
342.93	201.97
343.31	212.16
343.69	212.70
344.07	213.16
344.46	213.59
344.84	213.99
345.22	214.15
345.60	214.40
345.99	214.60
346.37	214.75
346.75	214.87
347.13	214.91
347.52	214.99
347.90	215.10
348.28	215.12
348.66	215.21
349.05	215.16
349.43	215.20
349.81	215.21
350.19	215.28
350.57	215.33
350.96	215.44
351.34	215.54
351.72	215.63
352.10	215.73
352.48	215.80
352.87	215.80
353.25	215.82
353.63	215.89
354.01	215.93
354.39	215.96
354.77	216.02
355.15	216.18
355.54	216.20
355.92	216.20
356.30	216.26
356.68	216.45
357.06	216.50
357.44	216.57
357.82	216.68
358.20	216.77
358.58	216.81
358.97	216.88
359.35	216.98
359.73	217.08
360.11	217.11
360.49	217.16
360.87	217.24
361.25	217.34
361.63	217.46
362.01	217.51
362.39	217.55
362.77	217.60
363.15	217.59
363.53	217.62
363.91	217.64
364.29	217.68
364.67	217.48
365.05	217.53
365.43	217.56
365.81	217.57
366.19	217.66
366.57	217.78
366.95	217.75
367.33	217.71
367.71	217.72
368.09	217.75
368.47	217.76
368.85	217.72
369.23	217.74
369.61	217.64
369.99	217.71
370.37	217.71
370.75	217.80
371.13	217.73
371.51	217.71
371.89	217.73
372.27	217.73
372.65	217.71
373.03	217.67
373.41	217.63
373.78	217.58
374.16	217.45
374.54	217.36
374.92	217.28
375.30	217.25
375.68	217.15
376.06	217.14
376.44	217.07
376.82	217.05
377.19	217.01
377.57	216.97
377.95	216.84
378.33	216.78
378.71	216.62
379.09	216.65
379.47	216.63
379.84	216.54
380.22	216.46
380.60	216.41
380.98	216.39
381.36	216.34
381.73	216.28
382.11	216.26
382.49	216.22
382.87	216.22
383.25	216.17
383.62	216.38
384.00	216.27
384.38	216.25
384.76	216.29
385.13	216.34
385.51	216.29
385.89	216.24
386.27	216.25
386.64	216.28
387.02	216.23
387.40	216.19
387.78	216.22
388.15	216.22
388.53	216.20
388.91	216.16
389.29	216.12
389.66	216.16
390.04	216.15
390.42	216.14
390.79	216.10
391.17	216.09
391.55	215.87
391.92	215.86
392.30	215.88
392.68	215.81
393.05	215.81
393.43	215.83
393.81	215.86
394.18	215.83
394.56	215.81
394.94	215.86
395.31	215.84
395.69	215.89
396.06	215.91
396.44	215.93
396.82	215.93
397.19	216.07
397.57	216.09
397.95	216.15
398.32	216.12
398.70	216.18
399.07	216.27
399.45	216.30
399.82	216.39
400.20	216.41
400.58	216.49
400.95	216.43
401.33	216.52
401.70	216.73
402.08	216.83
402.45	216.94
402.83	217.08
403.20	217.23
403.58	217.29
403.95	217.45
404.33	217.64
404.71	217.79
405.08	218.04
405.46	218.18
405.83	218.36
406.21	218.55
406.58	218.79
406.96	219.00
407.33	219.26
407.70	219.52
408.08	219.96
408.45	220.29
408.83	220.68
409.20	221.02
409.58	221.29
409.95	221.70
410.33	222.14
410.70	222.53
411.08	223.03
411.45	223.58
411.82	224.14
412.20	224.78
412.57	225.57
412.95	226.09
413.32	226.90
413.69	227.72
414.07	228.61
414.44	229.56
414.82	230.56
415.19	231.66
415.56	232.80
415.94	233.94
416.31	235.33
416.68	236.70
417.06	238.22
417.43	239.74
417.81	241.41
418.18	243.15
418.55	245.01
418.93	247.01
419.30	249.06
419.67	251.19
420.04	253.39
420.42	255.69
420.79	258.45
421.16	261.11
421.54	263.88
421.91	266.75
422.28	269.75
422.66	272.91
423.03	276.08
423.40	279.30
423.77	282.79
424.15	286.30
424.52	289.98
424.89	294.08
425.26	297.98
425.64	301.76
426.01	305.89
426.38	310.24
426.75	314.60
427.13	319.15
427.50	323.96
427.87	329.00
428.24	334.05
428.61	338.87
428.99	344.24
429.36	350.03
429.73	355.75
430.10	361.47
430.47	367.38
430.85	373.50
431.22	380.01
431.59	386.88
431.96	393.46
432.33	400.73
432.70	407.65
433.08	415.88
433.45	423.67
433.82	431.39
434.19	439.93
434.56	448.37
434.93	456.48
435.30	464.57
435.68	473.40
436.05	482.06
436.42	490.62
436.79	498.45
437.16	506.93
437.53	515.90
437.90	524.61
438.27	533.22
438.64	542.12
439.01	550.32
439.38	557.63
439.75	564.72
440.13	572.84
440.50	580.52
440.87	586.73
441.24	593.14
441.61	600.23
441.98	605.46
442.35	611.54
442.72	617.55
443.09	623.27
443.46	626.83
443.83	629.18
444.20	631.28
444.57	634.35
444.94	635.73
445.31	637.13
445.68	638.49
446.05	639.08
446.42	638.26
446.79	637.38
447.16	636.30
447.53	635.48
447.90	632.25
448.27	629.06
448.64	624.58
449.01	621.31
449.37	615.62
449.74	610.09
450.11	603.42
450.48	596.28
450.85	589.11
451.22	582.94
451.59	577.03
451.96	571.36
452.33	563.75
452.70	556.86
453.07	548.61
453.43	540.29
453.80	532.31
454.17	524.65
454.54	517.41
454.91	509.59
455.28	501.94
455.65	494.82
456.02	487.64
456.38	481.53
456.75	473.99
457.12	467.66
457.49	461.45
457.86	455.49
458.23	450.34
458.59	444.68
458.96	438.86
459.33	433.79
459.70	428.67
460.07	424.59
460.43	419.92
460.80	415.58
461.17	411.81
461.54	407.73
461.91	403.87
462.27	399.84
462.64	396.50
463.01	392.88
463.38	389.26
463.74	385.69
464.11	382.56
464.48	379.81
464.85	376.84
465.21	374.50
465.58	371.95
465.95	368.96
466.32	366.39
466.68	363.85
467.05	361.37
467.42	358.95
467.78	356.41
468.15	353.97
468.52	352.14
468.88	349.69
469.25	347.56
469.62	345.81
469.98	343.96
470.35	342.23
470.72	340.66
471.08	338.96
471.45	337.55
471.82	336.09
472.18	334.53
472.55	333.37
472.92	332.01
473.28	330.85
473.65	329.77
474.02	328.76
474.38	327.94
474.75	327.20
475.11	326.41
475.48	325.81
475.85	325.36
476.21	324.87
476.58	324.59
476.94	324.41
477.31	324.13
477.67	323.89
478.04	323.73
478.41	323.69
478.77	323.92
479.14	323.86
479.50	324.05
479.87	324.34
480.23	324.68
480.60	324.96
480.96	325.31
481.33	325.91
481.69	326.47
482.06	327.02
482.42	327.56
482.79	328.17
483.15	329.02
483.52	330.01
483.88	330.94
484.25	331.89
484.61	332.89
484.98	333.98
485.34	335.31
485.71	336.70
486.07	338.13
486.44	339.46
486.80	341.06
487.17	342.69
487.53	344.55
487.90	346.41
488.26	348.44
488.62	350.54
488.99	352.56
489.35	354.73
489.72	357.10
490.08	359.55
490.44	362.09
490.81	364.75
491.17	367.45
491.54	370.42
491.90	373.43
492.26	376.70
492.63	380.13
492.99	383.62
493.36	387.27
493.72	391.09
494.08	395.06
494.45	399.30
494.81	403.66
495.17	408.07
495.54	412.77
495.90	417.59
496.26	422.53
496.63	427.72
496.99	433.08
497.35	438.62
497.72	444.43
498.08	450.37
498.44	456.46
498.80	462.84
499.17	469.27
499.53	475.99
499.89	482.84
500.26	489.68
500.62	496.75
500.98	504.10
501.34	511.56
501.71	519.19
502.07	526.93
502.43	534.87
502.79	542.98
503.16	551.28
503.52	559.85
503.88	568.54
504.24	577.39
504.60	586.44
504.97	595.59
505.33	604.80
505.69	614.57
506.05	624.38
506.41	634.17
506.78	644.17
507.14	654.35
507.50	664.74
507.86	675.44
508.22	686.18
508.59	696.77
508.95	707.75
509.31	719.01
509.67	730.46
510.03	741.83
510.39	753.50
510.75	765.23
511.12	777.03
511.48	789.08
511.84	801.32
512.20	813.57
512.56	826.14
512.92	838.88
513.28	851.39
513.64	863.96
514.00	876.61
514.37	889.53
514.73	902.48
515.09	915.33
515.45	928.00
515.81	940.82
516.17	954.09
516.53	967.30
516.89	980.33
517.25	993.36
517.61	1006.75
517.97	1019.96
518.33	1033.09
518.69	1046.47
519.05	1059.97
519.41	1073.40
519.77	1086.99
520.13	1100.06
520.49	1113.00
520.85	1126.15
521.21	1139.29
521.57	1152.80
521.93	1165.65
522.29	1179.27
522.65	1192.63
523.01	1206.12
523.37	1219.12
523.73	1232.22
524.09	1245.01
524.45	1258.17
524.81	1271.37
525.17	1284.40
525.53	1297.28
525.89	1310.24
526.25	1323.12
526.61	1335.74
526.97	1348.38
527.33	1360.97
527.68	1374.14
528.04	1387.38
528.40	1400.30
528.76	1413.35
529.12	1425.90
529.48	1439.05
529.84	1450.95
530.20	1463.44
530.56	1475.71
530.91	1488.64
531.27	1501.17
531.63	1513.67
531.99	1526.03
532.35	1537.95
532.71	1550.05
533.07	1562.61
533.42	1574.45
533.78	1586.26
534.14	1598.03
534.50	1609.17
534.86	1620.55
535.21	1631.17
535.57	1642.32
535.93	1653.29
536.29	1664.28
536.65	1675.40
537.00	1685.94
537.36	1697.01
537.72	1707.82
538.08	1718.79
538.44	1729.46
538.79	1740.19
539.15	1750.79
539.51	1761.29
539.87	1772.30
540.22	1782.89
540.58	1793.49
540.94	1804.00
541.29	1813.97
541.65	1823.35
542.01	1833.56
542.37	1843.38
542.72	1853.26
543.08	1862.75
543.44	1872.93
543.79	1881.84
544.15	1891.07
544.51	1900.64
544.87	1910.13
545.22	1918.89
545.58	1927.57
545.94	1936.12
546.29	1944.35
546.65	1952.42
547.01	1960.32
547.36	1967.85
547.72	1975.30
548.07	1982.64
548.43	1990.18
548.79	1997.80
549.14	2005.69
549.50	2013.91
549.86	2021.50
550.21	2028.63
550.57	2036.04
550.92	2042.56
551.28	2049.83
551.64	2056.95
551.99	2064.33
552.35	2071.34
552.70	2077.98
553.06	2084.40
553.41	2090.56
553.77	2096.91
554.13	2103.12
554.48	2110.03
554.84	2116.78
555.19	2123.13
555.55	2129.55
555.90	2135.92
556.26	2142.45
556.61	2148.32
556.97	2153.14
557.32	2158.96
557.68	2165.31
558.03	2170.99
558.39	2176.21
558.74	2181.97
559.10	2187.42
559.45	2193.00
559.81	2198.47
560.16	2204.14
560.52	2210.05
560.87	2216.42
561.23	2222.36
561.58	2228.93
561.94	2234.05
562.29	2238.89
562.64	2244.99
563.00	2250.52
563.35	2256.02
563.71	2261.88
564.06	2267.59
564.42	2273.34
564.77	2278.37
565.12	2283.52
565.48	2288.71
565.83	2294.23
566.19	2299.85
566.54	2305.41
566.89	2309.96
567.25	2314.62
567.60	2320.28
567.96	2325.56
568.31	2330.12
568.66	2334.42
569.02	2338.41
569.37	2342.12
569.72	2346.53
570.08	2350.06
570.43	2353.13
570.78	2356.22
571.14	2358.98
571.49	2362.16
571.84	2365.75
572.20	2368.66
572.55	2372.00
572.90	2374.31
573.26	2377.37
573.61	2379.96
573.96	2382.15
574.31	2384.21
574.67	2386.24
575.02	2387.15
575.37	2388.58
575.72	2389.45
576.08	2391.15
576.43	2391.49
576.78	2392.27
577.13	2394.10
577.49	2395.44
577.84	2396.96
578.19	2398.57
578.54	2399.36
578.90	2400.47
579.25	2400.64
579.60	2400.83
579.95	2400.14
580.30	2400.63
580.66	2399.93
581.01	2398.46
581.36	2396.38
581.71	2395.19
582.06	2394.42
582.42	2393.90
582.77	2391.91
583.12	2390.59
583.47	2389.39
583.82	2388.91
584.17	2387.91
584.53	2385.94
584.88	2384.04
585.23	2382.26
585.58	2380.05
585.93	2377.95
586.28	2375.89
586.63	2373.69
586.98	2371.70
587.34	2370.03
587.69	2367.85
588.04	2366.17
588.39	2364.82
588.74	2362.47
589.09	2360.14
589.44	2357.13
589.79	2354.88
590.14	2353.21
590.49	2350.53
590.84	2346.83
591.19	2344.12
591.54	2341.07
591.89	2337.16
592.25	2334.06
592.60	2330.08
592.95	2326.13
593.30	2322.17
593.65	2317.76
594.00	2313.51
594.35	2310.49
594.70	2305.85
595.05	2301.30
595.40	2296.01
595.75	2290.60
596.10	2287.18
596.45	2282.29
596.80	2277.85
597.15	2272.61
597.50	2266.83
597.85	2261.94
598.19	2256.91
598.54	2251.25
598.89	2246.17
599.24	2241.69
599.59	2235.74
599.94	2230.01
600.29	2224.39
600.64	2218.62
600.99	2212.25
601.34	2207.02
601.69	2200.03
602.04	2193.88
602.39	2187.38
602.74	2181.44
603.08	2175.96
603.43	2169.31
603.78	2162.60
604.13	2155.48
604.48	2148.41
604.83	2142.41
605.18	2136.13
605.53	2129.16
605.87	2121.98
606.22	2115.32
606.57	2107.61
606.92	2099.76
607.27	2092.86
607.62	2086.12
607.96	2079.16
608.31	2072.67
608.66	2064.81
609.01	2057.45
609.36	2050.25
609.70	2042.51
610.05	2034.80
610.40	2026.38
610.75	2018.25
611.10	2010.79
611.44	2002.19
611.79	1993.51
612.14	1983.49
612.49	1973.17
612.83	1964.05
613.18	1955.07
613.53	1945.76
613.88	1936.25
614.22	1927.71
614.57	1917.84
614.92	1907.44
615.27	1897.28
615.61	1887.39
615.96	1877.71
616.31	1868.16
616.65	1859.01
617.00	1849.24
617.35	1839.54
617.70	1829.96
618.04	1819.96
618.39	1809.53
618.74	1799.83
619.08	1790.22
619.43	1781.51
619.78	1773.23
620.12	1764.49
620.47	1754.68
620.82	1744.30
621.16	1734.37
621.51	1724.32
621.85	1714.58
622.20	1704.07
622.55	1693.52
622.89	1683.63
623.24	1674.07
623.59	1664.38
623.93	1654.13
624.28	1644.59
624.62	1634.58
624.97	1624.30
625.32	1614.65
625.66	1605.99
626.01	1597.08
626.35	1587.61
626.70	1577.50
627.04	1567.45
627.39	1557.40
627.73	1548.25
628.08	1539.30
628.43	1529.81
628.77	1520.67
629.12	1511.75
629.46	1503.88
629.81	1495.50
630.15	1485.82
630.50	1475.84
630.84	1465.41
631.19	1455.59
631.53	1446.03
631.88	1435.76
632.22	1425.77
632.57	1416.42
632.91	1406.23
633.26	1396.34
633.60	1386.83
633.95	1377.55
634.29	1368.07
634.64	1358.82
634.98	1348.89
635.32	1339.62
635.67	1331.17
636.01	1322.00
636.36	1312.16
636.70	1302.60
637.05	1293.22
637.39	1284.29
637.73	1275.82
638.08	1268.19
638.42	1259.86
638.77	1251.25
639.11	1243.02
639.45	1235.15
639.80	1226.47
640.14	1217.80
640.49	1209.03
640.83	1200.27
641.17	1192.26
641.52	1184.03
641.86	1175.38
642.20	1167.47
642.55	1158.83
642.89	1149.99
643.23	1141.29
643.58	1133.29
643.92	1124.43
644.26	1115.94
644.61	1107.50
644.95	1098.68
645.29	1089.42
645.64	1080.32
645.98	1071.96
646.32	1064.05
646.66	1055.57
647.01	1047.27
647.35	1039.10
647.69	1030.76
648.04	1022.40
648.38	1013.39
648.72	1004.62
649.06	996.21
649.41	988.07
649.75	980.13
650.09	972.22
650.43	964.13
650.78	955.93
651.12	948.28
651.46	940.94
651.80	933.66
652.14	926.38
652.49	918.96
652.83	911.68
653.17	903.88
653.51	896.29
653.85	889.13
654.20	881.89
654.54	874.35
654.88	867.30
655.22	860.20
655.56	853.45
655.90	846.74
656.25	840.11
656.59	833.26
656.93	826.31
657.27	819.21
657.61	812.41
657.95	806.36
658.29	800.51
658.64	794.31
658.98	787.98
659.32	781.47
659.66	775.24
660.00	768.94
660.34	763.05
660.68	757.01
661.02	750.75
661.36	744.91
661.70	739.29
662.05	733.63
662.39	728.22
662.73	722.80
663.07	717.48
663.41	711.93
663.75	706.33
664.09	700.71
664.43	695.40
664.77	689.99
665.11	684.18
665.45	678.26
665.79	672.56
666.13	666.83
666.47	661.43
666.81	656.02
667.15	650.77
667.49	645.61
667.83	640.40
668.17	635.23
668.51	630.13
668.85	625.24
669.19	620.41
669.53	615.47
669.87	610.42
670.21	605.81
670.55	601.15
670.89	596.78
671.23	592.63
671.57	588.34
671.91	584.21
672.25	580.18
672.58	576.12
672.92	572.08
673.26	568.28
673.60	564.47
673.94	560.75
674.28	557.14
674.62	553.48
674.96	549.85
675.30	546.40
675.64	542.85
675.97	539.32
676.31	535.76
676.65	532.15
676.99	528.81
677.33	524.94
677.67	521.38
678.01	517.55
678.34	513.94
678.68	510.44
679.02	506.87
679.36	503.12
679.70	499.60
680.04	496.10
680.37	492.70
680.71	489.48
681.05	486.33
681.39	483.16
681.73	479.98
682.06	476.98
682.40	473.92
682.74	470.72
683.08	467.57
683.42	464.43
683.75	461.55
684.09	458.52
684.43	455.76
684.77	452.89
685.10	450.12
685.44	447.25
685.78	444.41
686.12	441.66
686.45	439.03
686.79	436.43
687.13	434.00
687.46	431.42
687.80	428.77
688.14	425.99
688.48	423.39
688.81	420.70
689.15	418.12
689.49	415.54
689.82	413.09
690.16	410.56
690.50	408.14
690.83	405.68
691.17	403.25
691.51	400.84
691.84	398.67
692.18	396.54
692.52	394.39
692.85	392.31
693.19	390.25
693.52	388.14
693.86	385.94
694.20	383.76
694.53	381.68
694.87	379.55
695.21	377.45
695.54	375.35
695.88	373.33
696.21	371.24
696.55	369.16
696.88	367.11
697.22	365.17
697.56	363.33
697.89	361.47
698.23	359.74
698.56	358.00
698.90	356.22
699.23	354.29
699.57	352.43
699.90	350.60
700.24	348.83
700.58	347.11
700.91	345.47
701.25	343.91
701.58	342.32
701.92	340.75
702.25	339.22
702.59	337.66
702.92	336.15
703.26	334.65
703.59	333.28
703.93	332.08
704.26	330.73
704.60	329.29
704.93	327.86
705.26	326.40
705.60	324.98
705.93	323.54
706.27	322.28
706.60	321.08
706.94	319.85
707.27	318.48
707.61	317.17
707.94	315.88
708.27	314.43
708.61	313.00
708.94	311.69
709.28	310.42
709.61	309.18
709.94	308.02
710.28	306.79
710.61	305.58
710.95	304.19
711.28	303.12
711.61	301.94
711.95	300.85
712.28	299.71
712.61	298.52
712.95	297.44
713.28	296.45
713.61	295.33
713.95	294.25
714.28	293.28
714.61	292.28
714.95	291.29
715.28	290.28
715.61	289.30
715.95	288.35
716.28	287.43
716.61	286.52
716.95	285.53
717.28	284.65
717.61	283.72
717.94	282.84
718.28	281.79
718.61	280.94
718.94	280.07
719.27	279.25
719.61	278.48
719.94	277.63
720.27	276.66
720.60	275.84
720.94	275.07
721.27	274.34
721.60	273.67
721.93	273.01
722.27	272.42
722.60	271.81
722.93	271.11
723.26	270.44
723.59	269.78
723.93	269.19
724.26	268.57
724.59	267.95
724.92	267.40
725.25	266.88
725.59	266.32
725.92	265.79
726.25	265.22
726.58	264.67
726.91	264.12
727.24	263.67
727.57	263.08
727.91	262.46
728.24	261.91
728.57	261.30
728.90	260.75
729.23	260.17
729.56	259.72
729.89	259.23
730.22	258.69
730.55	258.15
730.89	257.62
731.22	257.08
731.55	256.53
731.88	256.01
732.21	255.50
732.54	254.95
732.87	254.45
733.20	253.94
733.53	253.47
733.86	253.00
734.19	252.49
734.52	252.09
734.85	251.85
735.18	251.38
735.51	251.01
735.84	250.53
736.17	250.12
736.50	249.59
736.83	249.46
737.16	249.06
737.49	248.71
737.82	248.28
738.15	247.96
738.48	247.64
738.81	247.23
739.14	246.86
739.47	246.51
739.80	246.17
740.13	245.89
740.46	245.51
740.79	245.17
741.12	244.82
741.45	244.48
741.78	244.05
742.11	243.79
742.44	243.41
742.77	243.15
743.10	242.81
743.43	242.49
743.75	241.93
744.08	241.89
744.41	241.52
744.74	241.20
745.07	240.82
745.40	240.55
745.73	240.32
746.06	239.98
746.39	239.73
746.71	239.33
747.04	238.98
747.37	238.66
747.70	238.41
748.03	238.12
748.36	237.83
748.68	237.51
749.01	237.15
749.34	236.88
749.67	236.61
750.00	236.39
750.33	236.26
750.65	235.98
750.98	235.48
751.31	235.23
751.64	235.03
751.97	234.91
752.29	234.63
752.62	234.28
752.95	234.08
753.28	233.79
753.60	233.60
753.93	233.43
754.26	233.23
754.59	232.95
754.91	232.72
755.24	232.53
755.57	232.30
755.90	232.11
756.22	231.90
756.55	231.65
756.88	231.40
757.20	231.09
757.53	230.86
757.86	230.65
758.19	230.50
758.51	230.28
758.84	230.01
759.17	229.81
759.49	229.65
759.82	229.55
760.15	229.37
760.47	229.22
760.80	228.97
761.13	228.83
761.45	228.63
761.78	228.43
762.11	228.26
762.43	228.10
762.76	227.95
763.08	227.77
763.41	227.63
763.74	227.50
764.06	227.32
764.39	227.19
764.71	227.05
765.04	226.89
765.37	226.74
765.69	226.60
766.02	226.45
766.34	226.33
766.67	226.13
767.00	226.07
767.32	226.03
767.65	226.02
767.97	225.86
768.30	225.76
768.62	225.67
768.95	225.49
769.27	225.36
769.60	225.21
769.92	225.10
770.25	224.94
770.57	224.78
770.90	224.70
771.22	224.54
771.55	224.42
771.87	224.32
772.20	224.21
772.52	224.25
772.85	224.42
773.17	224.30
773.50	224.14
773.82	224.01
774.15	223.80
774.47	223.60
774.80	223.47
775.12	223.38
775.45	223.28
775.77	223.19
776.09	223.10
776.42	223.05
776.74	223.00
777.07	222.92
777.39	222.82
777.72	222.70
778.04	222.67
778.36	222.59
778.69	222.51
779.01	222.43
779.33	222.20
779.66	221.86
779.98	221.78
780.31	221.73
780.63	221.72
780.95	221.70
781.28	221.62
781.60	221.55
781.92	221.49
782.25	221.41
782.57	221.35
782.89	221.29
783.22	221.20
783.54	221.09
783.86	221.06
784.19	221.00
784.51	221.01
784.83	220.89
785.16	220.80
785.48	220.75
785.80	220.71
786.12	220.66
