SpectraSuite Data File
++++++++++++++++++++++++++++++++++++
Date: Tue Jan 29 16:52:54 EST 2013
User: group
Dark Spectrum Present: No
Reference Spectrum Present: No
Number of Sampled Component Spectra: 1
Spectrometers: USB2E7196
Integration Time (usec): 65000 (USB2E7196)
Spectra Averaged: 100 (USB2E7196)
Boxcar Smoothing: 10 (USB2E7196)
Correct for Electrical Dark: No (USB2E7196)
Strobe/Lamp Enabled: No (USB2E7196)
Correct for Detector Non-linearity: No (USB2E7196)
Correct for Stray Light: No (USB2E7196)
Number of Pixels in Processed Spectrum: 2048
>>>>>Begin Processed Spectral Data<<<<<
339.09	0.00
339.48	201.20
339.86	202.85
340.24	204.74
340.63	205.72
341.01	209.88
341.39	208.06
341.78	210.25
342.16	211.23
342.54	211.60
342.93	200.67
343.31	210.81
343.69	211.36
344.07	211.82
344.46	212.24
344.84	212.63
345.22	212.81
345.60	213.08
345.99	213.27
346.37	213.39
346.75	213.47
347.13	213.53
347.52	213.59
347.90	213.71
348.28	213.70
348.66	213.80
349.05	213.80
349.43	213.85
349.81	213.91
350.19	213.95
350.57	214.06
350.96	214.12
351.34	214.22
351.72	214.34
352.10	214.45
352.48	214.51
352.87	214.56
353.25	214.64
353.63	214.71
354.01	214.75
354.39	214.83
354.77	214.93
355.15	215.07
355.54	215.15
355.92	215.13
356.30	215.21
356.68	215.39
357.06	215.46
357.44	215.51
357.82	215.58
358.20	215.69
358.58	215.72
358.97	215.83
359.35	215.95
359.73	216.04
360.11	216.10
360.49	216.19
360.87	216.25
361.25	216.30
361.63	216.43
362.01	216.50
362.39	216.53
362.77	216.60
363.15	216.62
363.53	216.65
363.91	216.70
364.29	216.76
364.67	216.59
365.05	216.61
365.43	216.66
365.81	216.69
366.19	216.79
366.57	216.89
366.95	216.90
367.33	216.83
367.71	216.82
368.09	216.90
368.47	216.91
368.85	216.90
369.23	216.92
369.61	216.83
369.99	216.87
370.37	216.91
370.75	217.00
371.13	216.94
371.51	216.91
371.89	216.92
372.27	216.91
372.65	216.91
373.03	216.92
373.41	216.87
373.78	216.82
374.16	216.68
374.54	216.58
374.92	216.50
375.30	216.49
375.68	216.40
376.06	216.33
376.44	216.26
376.82	216.24
377.19	216.23
377.57	216.18
377.95	216.10
378.33	216.03
378.71	215.86
379.09	215.85
379.47	215.87
379.84	215.81
380.22	215.76
380.60	215.68
380.98	215.61
381.36	215.55
381.73	215.49
382.11	215.48
382.49	215.44
382.87	215.38
383.25	215.35
383.62	215.58
384.00	215.50
384.38	215.45
384.76	215.45
385.13	215.45
385.51	215.44
385.89	215.38
386.27	215.36
386.64	215.37
387.02	215.31
387.40	215.23
387.78	215.19
388.15	215.15
388.53	215.13
388.91	215.09
389.29	215.06
389.66	215.09
390.04	215.04
390.42	215.06
390.79	215.05
391.17	215.01
391.55	214.74
391.92	214.75
392.30	214.77
392.68	214.73
393.05	214.71
393.43	214.71
393.81	214.72
394.18	214.67
394.56	214.66
394.94	214.72
395.31	214.71
395.69	214.78
396.06	214.80
396.44	214.84
396.82	214.85
397.19	214.98
397.57	214.97
397.95	215.03
398.32	214.98
398.70	215.01
399.07	215.09
399.45	215.12
399.82	215.14
400.20	215.19
400.58	215.22
400.95	215.22
401.33	215.33
401.70	215.54
402.08	215.64
402.45	215.74
402.83	215.86
403.20	215.98
403.58	216.06
403.95	216.23
404.33	216.38
404.71	216.54
405.08	216.80
405.46	216.99
405.83	217.15
406.21	217.33
406.58	217.61
406.96	217.83
407.33	218.11
407.70	218.42
408.08	218.88
408.45	219.25
408.83	219.64
409.20	219.97
409.58	220.27
409.95	220.74
410.33	221.24
410.70	221.69
411.08	222.24
411.45	222.84
411.82	223.45
412.20	224.14
412.57	225.01
412.95	225.55
413.32	226.38
413.69	227.25
414.07	228.20
414.44	229.16
414.82	230.22
415.19	231.42
415.56	232.62
415.94	233.83
416.31	235.25
416.68	236.66
417.06	238.29
417.43	239.83
417.81	241.58
418.18	243.36
418.55	245.31
418.93	247.36
419.30	249.45
419.67	251.69
420.04	253.99
420.42	256.38
420.79	259.24
421.16	262.05
421.54	265.00
421.91	268.01
422.28	271.15
422.66	274.46
423.03	277.69
423.40	281.08
423.77	284.66
424.15	288.32
424.52	292.22
424.89	296.43
425.26	300.54
425.64	304.42
426.01	308.74
426.38	313.21
426.75	317.83
427.13	322.59
427.50	327.53
427.87	332.75
428.24	337.93
428.61	342.96
428.99	348.51
429.36	354.50
429.73	360.41
430.10	366.32
430.47	372.39
430.85	378.75
431.22	385.49
431.59	392.66
431.96	399.56
432.33	407.05
432.70	414.34
433.08	422.86
433.45	430.95
433.82	439.01
434.19	447.93
434.56	456.59
434.93	464.97
435.30	473.31
435.68	482.53
436.05	491.68
436.42	500.60
436.79	508.84
437.16	517.68
437.53	527.05
437.90	536.20
438.27	545.26
438.64	554.49
439.01	563.00
439.38	570.63
439.75	577.92
440.13	586.42
440.50	594.37
440.87	600.86
441.24	607.60
441.61	614.98
441.98	620.38
442.35	626.84
442.72	633.26
443.09	639.39
443.46	643.11
443.83	645.57
444.20	647.84
444.57	650.99
444.94	652.45
445.31	653.91
445.68	655.37
446.05	656.01
446.42	655.28
446.79	654.41
447.16	653.32
447.53	652.64
447.90	649.30
448.27	646.07
448.64	641.40
449.01	638.16
449.37	632.27
449.74	626.60
450.11	619.66
450.48	612.20
450.85	604.68
451.22	598.21
451.59	592.05
451.96	586.19
452.33	578.29
452.70	571.16
453.07	562.60
453.43	553.91
453.80	545.59
454.17	537.57
454.54	529.97
454.91	521.74
455.28	513.65
455.65	506.18
456.02	498.62
456.38	492.26
456.75	484.28
457.12	477.60
457.49	471.06
457.86	464.79
458.23	459.38
458.59	453.43
458.96	447.33
459.33	441.98
459.70	436.54
460.07	432.22
460.43	427.34
460.80	422.71
461.17	418.70
461.54	414.41
461.91	410.38
462.27	406.24
462.64	402.82
463.01	399.03
463.38	395.32
463.74	391.59
464.11	388.35
464.48	385.49
464.85	382.40
465.21	379.93
465.58	377.29
465.95	374.13
466.32	371.47
466.68	368.90
467.05	366.29
467.42	363.73
467.78	361.00
468.15	358.41
468.52	356.48
468.88	353.96
469.25	351.77
469.62	349.92
469.98	347.97
470.35	346.16
470.72	344.46
471.08	342.60
471.45	341.05
471.82	339.47
472.18	337.77
472.55	336.55
472.92	335.13
473.28	333.90
473.65	332.75
474.02	331.68
474.38	330.75
474.75	329.97
475.11	329.12
475.48	328.54
475.85	328.04
476.21	327.57
476.58	327.20
476.94	326.93
477.31	326.57
477.67	326.28
478.04	326.04
478.41	325.99
478.77	326.16
479.14	326.07
479.50	326.17
479.87	326.46
480.23	326.75
480.60	327.06
480.96	327.32
481.33	327.87
481.69	328.38
482.06	328.91
482.42	329.37
482.79	329.95
483.15	330.74
483.52	331.70
483.88	332.58
484.25	333.51
484.61	334.50
484.98	335.56
485.34	336.88
485.71	338.22
486.07	339.68
486.44	340.99
486.80	342.64
487.17	344.34
487.53	346.17
487.90	348.01
488.26	350.01
488.62	352.16
488.99	354.22
489.35	356.39
489.72	358.75
490.08	361.28
490.44	363.86
490.81	366.54
491.17	369.17
491.54	372.16
491.90	375.17
492.26	378.47
492.63	381.87
492.99	385.31
493.36	389.04
493.72	392.92
494.08	396.91
494.45	401.17
494.81	405.44
495.17	409.82
495.54	414.56
495.90	419.33
496.26	424.23
496.63	429.39
496.99	434.78
497.35	440.33
497.72	446.12
498.08	452.02
498.44	458.14
498.80	464.62
499.17	471.09
499.53	477.82
499.89	484.66
500.26	491.60
500.62	498.69
500.98	506.06
501.34	513.40
501.71	521.14
502.07	528.87
502.43	536.94
502.79	545.18
503.16	553.55
503.52	562.11
503.88	570.82
504.24	579.74
504.60	588.73
504.97	597.94
505.33	607.20
505.69	617.06
506.05	626.87
506.41	636.70
506.78	646.73
507.14	656.89
507.50	667.24
507.86	677.94
508.22	688.75
508.59	699.39
508.95	710.50
509.31	721.72
509.67	733.15
510.03	744.45
510.39	756.06
510.75	767.84
511.12	779.69
511.48	791.72
511.84	803.92
512.20	816.26
512.56	828.84
512.92	841.60
513.28	854.19
513.64	866.92
514.00	879.69
514.37	892.66
514.73	905.69
515.09	918.75
515.45	931.69
515.81	944.72
516.17	958.09
516.53	971.41
516.89	984.42
517.25	997.66
517.61	1011.13
517.97	1024.50
518.33	1037.68
518.69	1051.25
519.05	1065.00
519.41	1078.81
519.77	1092.68
520.13	1105.95
520.49	1119.10
520.85	1132.43
521.21	1145.77
521.57	1159.36
521.93	1172.34
522.29	1186.23
522.65	1199.78
523.01	1213.35
523.37	1226.56
523.73	1239.90
524.09	1252.94
524.45	1266.46
524.81	1279.90
525.17	1293.43
525.53	1306.56
525.89	1319.82
526.25	1333.08
526.61	1345.97
526.97	1359.01
527.33	1371.89
527.68	1385.44
528.04	1399.09
528.40	1412.34
528.76	1425.77
529.12	1438.78
529.48	1452.20
529.84	1464.51
530.20	1477.28
530.56	1489.91
530.91	1503.12
531.27	1515.93
531.63	1528.60
531.99	1541.45
532.35	1553.66
532.71	1566.01
533.07	1579.05
533.42	1591.46
533.78	1603.59
534.14	1615.62
534.50	1626.90
534.86	1638.62
535.21	1649.57
535.57	1661.07
535.93	1672.37
536.29	1683.52
536.65	1695.11
537.00	1706.12
537.36	1717.59
537.72	1728.79
538.08	1740.19
538.44	1751.26
538.79	1762.51
539.15	1773.65
539.51	1784.57
539.87	1796.04
540.22	1806.95
540.58	1817.92
540.94	1828.97
541.29	1839.26
541.65	1849.12
542.01	1859.59
542.37	1869.63
542.72	1879.73
543.08	1889.33
543.44	1899.83
543.79	1909.23
544.15	1918.76
544.51	1928.80
544.87	1938.71
545.22	1947.93
545.58	1957.00
545.94	1965.95
546.29	1974.45
546.65	1982.90
547.01	1991.13
547.36	1998.67
547.72	2006.60
548.07	2014.17
548.43	2021.90
548.79	2029.83
549.14	2038.14
549.50	2046.75
549.86	2054.87
550.21	2062.52
550.57	2070.53
550.92	2077.51
551.28	2084.97
551.64	2092.18
551.99	2099.75
552.35	2106.79
552.70	2113.72
553.06	2120.37
553.41	2126.69
553.77	2133.30
554.13	2139.61
554.48	2146.56
554.84	2153.92
555.19	2160.30
555.55	2166.78
555.90	2172.98
556.26	2179.91
556.61	2186.05
556.97	2190.88
557.32	2196.53
557.68	2202.99
558.03	2208.77
558.39	2214.01
558.74	2219.99
559.10	2225.66
559.45	2231.18
559.81	2236.79
560.16	2242.20
560.52	2247.89
560.87	2254.20
561.23	2259.88
561.58	2266.60
561.94	2271.83
562.29	2276.32
562.64	2282.28
563.00	2287.95
563.35	2293.50
563.71	2298.92
564.06	2304.47
564.42	2310.35
564.77	2315.32
565.12	2320.36
565.48	2325.31
565.83	2330.73
566.19	2335.97
566.54	2341.06
566.89	2345.51
567.25	2349.91
567.60	2355.63
567.96	2360.65
568.31	2365.02
568.66	2369.30
569.02	2372.93
569.37	2376.55
569.72	2380.87
570.08	2384.26
570.43	2387.30
570.78	2390.21
571.14	2392.64
571.49	2395.73
571.84	2399.12
572.20	2401.90
572.55	2404.75
572.90	2406.96
573.26	2409.56
573.61	2411.91
573.96	2414.01
574.31	2415.86
574.67	2417.80
575.02	2418.36
575.37	2419.72
575.72	2420.29
576.08	2421.56
576.43	2421.66
576.78	2421.93
577.13	2423.36
577.49	2424.50
577.84	2425.26
578.19	2426.39
578.54	2426.85
578.90	2427.14
579.25	2426.70
579.60	2426.37
579.95	2425.41
580.30	2425.19
580.66	2424.46
581.01	2422.70
581.36	2420.08
581.71	2418.56
582.06	2417.09
582.42	2416.05
582.77	2413.60
583.12	2411.75
583.47	2410.22
583.82	2409.50
584.17	2408.06
584.53	2405.73
584.88	2403.34
585.23	2401.23
585.58	2398.72
585.93	2396.71
586.28	2394.40
586.63	2391.95
586.98	2389.75
587.34	2387.63
587.69	2384.92
588.04	2382.52
588.39	2380.79
588.74	2378.18
589.09	2375.27
589.44	2371.85
589.79	2369.17
590.14	2367.06
590.49	2364.25
590.84	2360.23
591.19	2356.92
591.54	2353.52
591.89	2349.35
592.25	2346.01
592.60	2341.66
592.95	2337.57
593.30	2333.24
593.65	2328.70
594.00	2324.03
594.35	2320.80
594.70	2316.03
595.05	2311.50
595.40	2306.04
595.75	2300.25
596.10	2296.48
596.45	2291.51
596.80	2286.90
597.15	2281.63
597.50	2275.68
597.85	2270.67
598.19	2265.40
598.54	2259.55
598.89	2254.27
599.24	2249.60
599.59	2243.33
599.94	2237.44
600.29	2231.28
600.64	2225.27
600.99	2218.38
601.34	2212.92
601.69	2205.98
602.04	2199.61
602.39	2192.83
602.74	2186.62
603.08	2181.06
603.43	2174.53
603.78	2167.72
604.13	2160.69
604.48	2153.35
604.83	2147.13
605.18	2140.89
605.53	2134.10
605.87	2127.03
606.22	2120.33
606.57	2112.45
606.92	2104.59
607.27	2097.69
607.62	2091.08
607.96	2084.07
608.31	2077.79
608.66	2069.97
609.01	2062.25
609.36	2055.11
609.70	2047.48
610.05	2039.72
610.40	2031.41
610.75	2023.08
611.10	2015.30
611.44	2006.35
611.79	1997.75
612.14	1987.91
612.49	1977.20
612.83	1967.71
613.18	1958.50
613.53	1949.19
613.88	1939.63
614.22	1931.04
614.57	1921.17
614.92	1910.67
615.27	1900.44
615.61	1890.17
615.96	1880.69
616.31	1871.35
616.65	1861.94
617.00	1852.34
617.35	1842.79
617.70	1833.10
618.04	1823.28
618.39	1813.31
618.74	1803.89
619.08	1794.20
619.43	1785.52
619.78	1777.28
620.12	1768.84
620.47	1759.36
620.82	1749.02
621.16	1739.49
621.51	1729.74
621.85	1720.15
622.20	1709.96
622.55	1699.61
622.89	1689.83
623.24	1680.00
623.59	1670.13
623.93	1660.13
624.28	1650.44
624.62	1640.59
624.97	1630.38
625.32	1620.51
625.66	1611.65
626.01	1603.02
626.35	1593.82
626.70	1583.99
627.04	1574.12
627.39	1564.02
627.73	1554.82
628.08	1546.09
628.43	1536.52
628.77	1527.33
629.12	1518.49
629.46	1510.86
629.81	1502.47
630.15	1493.21
630.50	1483.60
630.84	1473.26
631.19	1463.52
631.53	1454.37
631.88	1444.25
632.22	1434.43
632.57	1425.23
632.91	1415.25
633.26	1405.42
633.60	1396.04
633.95	1386.93
634.29	1377.51
634.64	1368.38
634.98	1358.48
635.32	1349.18
635.67	1340.87
636.01	1331.72
636.36	1322.20
636.70	1312.74
637.05	1303.54
637.39	1294.76
637.73	1286.34
638.08	1278.87
638.42	1270.94
638.77	1262.17
639.11	1254.08
639.45	1246.41
639.80	1238.07
640.14	1229.45
640.49	1220.63
640.83	1211.77
641.17	1203.49
641.52	1195.51
641.86	1186.96
642.20	1179.25
642.55	1170.80
642.89	1161.99
643.23	1153.47
643.58	1145.46
643.92	1136.50
644.26	1127.90
644.61	1119.47
644.95	1110.75
645.29	1101.72
645.64	1092.61
645.98	1084.17
646.32	1076.30
646.66	1067.89
647.01	1059.70
647.35	1051.66
647.69	1043.50
648.04	1035.51
648.38	1026.80
648.72	1018.12
649.06	1009.83
649.41	1001.73
649.75	993.83
650.09	986.10
650.43	978.19
650.78	969.72
651.12	961.96
651.46	954.57
651.80	947.42
652.14	940.20
652.49	932.71
652.83	925.44
653.17	917.88
653.51	910.29
653.85	903.11
654.20	895.92
654.54	888.54
654.88	881.24
655.22	873.96
655.56	866.96
655.90	860.23
656.25	853.64
656.59	846.81
656.93	839.81
657.27	832.74
657.61	825.71
657.95	819.73
658.29	813.85
658.64	807.87
658.98	801.40
659.32	794.89
659.66	788.75
660.00	782.40
660.34	776.39
660.68	770.32
661.02	764.01
661.36	757.96
661.70	752.07
662.05	746.57
662.39	741.23
662.73	735.87
663.07	730.51
663.41	724.83
663.75	719.07
664.09	713.48
664.43	707.94
664.77	702.62
665.11	696.85
665.45	691.02
665.79	685.10
666.13	679.45
666.47	673.99
666.81	668.42
667.15	663.04
667.49	657.78
667.83	652.53
668.17	647.28
668.51	642.21
668.85	637.36
669.19	632.47
669.53	627.44
669.87	622.43
670.21	617.61
670.55	612.95
670.89	608.50
671.23	604.14
671.57	599.83
671.91	595.58
672.25	591.35
672.58	587.21
672.92	583.18
673.26	579.26
673.60	575.37
673.94	571.60
674.28	567.97
674.62	564.21
674.96	560.46
675.30	556.90
675.64	553.23
675.97	549.71
676.31	546.06
676.65	542.42
676.99	538.94
677.33	535.13
677.67	531.46
678.01	527.58
678.34	523.92
678.68	520.36
679.02	516.73
679.36	513.05
679.70	509.39
680.04	505.84
680.37	502.36
680.71	499.02
681.05	495.79
681.39	492.51
681.73	489.43
682.06	486.36
682.40	483.25
682.74	480.04
683.08	476.76
683.42	473.56
683.75	470.53
684.09	467.42
684.43	464.58
684.77	461.66
685.10	458.82
685.44	455.88
685.78	452.95
686.12	450.14
686.45	447.43
686.79	444.77
687.13	442.21
687.46	439.56
687.80	436.82
688.14	433.98
688.48	431.31
688.81	428.52
689.15	425.93
689.49	423.35
689.82	420.83
690.16	418.20
690.50	415.73
690.83	413.23
691.17	410.67
691.51	408.21
691.84	405.87
692.18	403.61
692.52	401.40
692.85	399.23
693.19	397.05
693.52	394.86
693.86	392.59
694.20	390.39
694.53	388.25
694.87	386.01
695.21	383.90
695.54	381.69
695.88	379.54
696.21	377.31
696.55	375.18
696.88	373.11
697.22	371.15
697.56	369.19
697.89	367.25
698.23	365.47
698.56	363.61
698.90	361.86
699.23	359.98
699.57	358.09
699.90	356.20
700.24	354.39
700.58	352.58
700.91	350.89
701.25	349.30
701.58	347.65
701.92	346.11
702.25	344.47
702.59	342.81
702.92	341.24
703.26	339.67
703.59	338.11
703.93	336.78
704.26	335.29
704.60	333.81
704.93	332.33
705.26	330.86
705.60	329.41
705.93	327.83
706.27	326.47
706.60	325.20
706.94	323.97
707.27	322.55
707.61	321.22
707.94	319.86
708.27	318.30
708.61	316.85
708.94	315.42
709.28	314.12
709.61	312.92
709.94	311.70
710.28	310.50
710.61	309.32
710.95	307.88
711.28	306.81
711.61	305.57
711.95	304.40
712.28	303.17
712.61	301.96
712.95	300.89
713.28	299.85
713.61	298.66
713.95	297.51
714.28	296.50
714.61	295.40
714.95	294.38
715.28	293.36
715.61	292.32
715.95	291.32
716.28	290.33
716.61	289.34
716.95	288.33
717.28	287.36
717.61	286.39
717.94	285.47
718.28	284.41
718.61	283.50
718.94	282.59
719.27	281.74
719.61	280.91
719.94	280.04
720.27	279.03
720.60	278.18
720.94	277.34
721.27	276.55
721.60	275.86
721.93	275.11
722.27	274.46
722.60	273.79
722.93	273.11
723.26	272.43
723.59	271.69
723.93	271.02
724.26	270.37
724.59	269.68
724.92	269.10
725.25	268.55
725.59	268.03
725.92	267.49
726.25	266.91
726.58	266.27
726.91	265.66
727.24	265.14
727.57	264.58
727.91	263.96
728.24	263.43
728.57	262.81
728.90	262.28
729.23	261.66
729.56	261.21
729.89	260.67
730.22	260.10
730.55	259.56
730.89	259.02
731.22	258.47
731.55	257.95
731.88	257.39
732.21	256.81
732.54	256.24
732.87	255.69
733.20	255.18
733.53	254.74
733.86	254.29
734.19	253.75
734.52	253.31
734.85	253.02
735.18	252.54
735.51	252.16
735.84	251.72
736.17	251.32
736.50	250.78
736.83	250.62
737.16	250.23
737.49	249.87
737.82	249.43
738.15	249.06
738.48	248.68
738.81	248.29
739.14	247.85
739.47	247.46
739.80	247.10
740.13	246.73
740.46	246.32
740.79	245.90
741.12	245.55
741.45	245.15
741.78	244.70
742.11	244.39
742.44	244.00
742.77	243.69
743.10	243.29
743.43	242.96
743.75	242.40
744.08	242.30
744.41	241.89
744.74	241.55
745.07	241.17
745.40	240.89
745.73	240.60
746.06	240.29
746.39	239.95
746.71	239.56
747.04	239.20
747.37	238.85
747.70	238.60
748.03	238.28
748.36	238.04
748.68	237.68
749.01	237.30
749.34	237.02
749.67	236.70
750.00	236.45
750.33	236.31
750.65	236.01
750.98	235.46
751.31	235.26
751.64	235.03
751.97	234.90
752.29	234.62
752.62	234.31
752.95	234.05
753.28	233.77
753.60	233.55
753.93	233.40
754.26	233.19
754.59	232.86
754.91	232.64
755.24	232.37
755.57	232.15
755.90	231.94
756.22	231.71
756.55	231.43
756.88	231.17
757.20	230.81
757.53	230.56
757.86	230.34
758.19	230.11
758.51	229.89
758.84	229.58
759.17	229.38
759.49	229.22
759.82	229.12
760.15	228.97
760.47	228.81
760.80	228.54
761.13	228.39
761.45	228.18
761.78	227.97
762.11	227.79
762.43	227.60
762.76	227.48
763.08	227.28
763.41	227.13
763.74	226.97
764.06	226.81
764.39	226.65
764.71	226.50
765.04	226.34
765.37	226.18
765.69	226.02
766.02	225.87
766.34	225.67
766.67	225.44
767.00	225.35
767.32	225.28
767.65	225.26
767.97	225.11
768.30	225.04
768.62	224.92
768.95	224.79
769.27	224.67
769.60	224.54
769.92	224.39
770.25	224.23
770.57	224.07
770.90	223.94
771.22	223.82
771.55	223.69
771.87	223.55
772.20	223.42
772.52	223.47
772.85	223.60
773.17	223.51
773.50	223.40
773.82	223.24
774.15	223.06
774.47	222.84
774.80	222.73
775.12	222.59
775.45	222.49
775.77	222.38
776.09	222.29
776.42	222.19
776.74	222.20
777.07	222.14
777.39	222.08
777.72	221.99
778.04	221.91
778.36	221.82
778.69	221.76
779.01	221.68
779.33	221.41
779.66	221.09
779.98	220.99
780.31	220.91
780.63	220.94
780.95	220.92
781.28	220.87
781.60	220.78
781.92	220.76
782.25	220.71
782.57	220.62
782.89	220.56
783.22	220.49
783.54	220.36
783.86	220.28
784.19	220.21
784.51	220.19
784.83	220.13
785.16	220.09
785.48	220.03
785.80	219.99
786.12	219.95
