SpectraSuite Data File
++++++++++++++++++++++++++++++++++++
Date: Tue Jan 29 16:26:13 EST 2013
User: group
Dark Spectrum Present: No
Reference Spectrum Present: No
Number of Sampled Component Spectra: 1
Spectrometers: USB2E7196
Integration Time (usec): 65000 (USB2E7196)
Spectra Averaged: 100 (USB2E7196)
Boxcar Smoothing: 10 (USB2E7196)
Correct for Electrical Dark: No (USB2E7196)
Strobe/Lamp Enabled: No (USB2E7196)
Correct for Detector Non-linearity: No (USB2E7196)
Correct for Stray Light: No (USB2E7196)
Number of Pixels in Processed Spectrum: 2048
>>>>>Begin Processed Spectral Data<<<<<
339.09	0.00
339.48	202.07
339.86	203.63
340.24	205.14
340.63	206.49
341.01	210.79
341.39	209.11
341.78	210.87
342.16	212.26
342.54	211.51
342.93	201.31
343.31	211.46
343.69	212.01
344.07	212.43
344.46	212.88
344.84	213.28
345.22	213.45
345.60	213.71
345.99	213.89
346.37	214.01
346.75	214.20
347.13	214.27
347.52	214.31
347.90	214.46
348.28	214.52
348.66	214.57
349.05	214.58
349.43	214.64
349.81	214.70
350.19	214.76
350.57	214.89
350.96	215.01
351.34	215.14
351.72	215.22
352.10	215.33
352.48	215.40
352.87	215.47
353.25	215.53
353.63	215.58
354.01	215.66
354.39	215.76
354.77	215.78
355.15	215.91
355.54	215.99
355.92	215.99
356.30	216.08
356.68	216.29
357.06	216.38
357.44	216.41
357.82	216.44
358.20	216.55
358.58	216.58
358.97	216.64
359.35	216.76
359.73	216.89
360.11	216.99
360.49	217.05
360.87	217.09
361.25	217.19
361.63	217.33
362.01	217.37
362.39	217.38
362.77	217.46
363.15	217.47
363.53	217.52
363.91	217.53
364.29	217.54
364.67	217.40
365.05	217.42
365.43	217.49
365.81	217.57
366.19	217.68
366.57	217.75
366.95	217.73
367.33	217.65
367.71	217.61
368.09	217.65
368.47	217.67
368.85	217.64
369.23	217.66
369.61	217.54
369.99	217.63
370.37	217.65
370.75	217.74
371.13	217.65
371.51	217.61
371.89	217.60
372.27	217.59
372.65	217.59
373.03	217.53
373.41	217.46
373.78	217.40
374.16	217.27
374.54	217.17
374.92	217.15
375.30	217.14
375.68	217.09
376.06	217.04
376.44	216.94
376.82	216.93
377.19	216.87
377.57	216.88
377.95	216.75
378.33	216.69
378.71	216.51
379.09	216.55
379.47	216.52
379.84	216.46
380.22	216.38
380.60	216.28
380.98	216.28
381.36	216.25
381.73	216.17
382.11	216.13
382.49	216.10
382.87	216.00
383.25	215.93
383.62	216.12
384.00	216.06
384.38	216.06
384.76	216.05
385.13	216.09
385.51	216.02
385.89	215.96
386.27	215.92
386.64	215.90
387.02	215.84
387.40	215.78
387.78	215.74
388.15	215.71
388.53	215.69
388.91	215.65
389.29	215.57
389.66	215.61
390.04	215.55
390.42	215.55
390.79	215.57
391.17	215.56
391.55	215.33
391.92	215.31
392.30	215.31
392.68	215.25
393.05	215.19
393.43	215.24
393.81	215.27
394.18	215.25
394.56	215.24
394.94	215.30
395.31	215.29
395.69	215.35
396.06	215.39
396.44	215.42
396.82	215.41
397.19	215.57
397.57	215.55
397.95	215.61
398.32	215.56
398.70	215.59
399.07	215.66
399.45	215.68
399.82	215.73
400.20	215.76
400.58	215.83
400.95	215.84
401.33	215.91
401.70	216.09
402.08	216.17
402.45	216.28
402.83	216.37
403.20	216.50
403.58	216.61
403.95	216.79
404.33	216.91
404.71	217.06
405.08	217.30
405.46	217.44
405.83	217.62
406.21	217.83
406.58	218.11
406.96	218.32
407.33	218.60
407.70	218.93
408.08	219.39
408.45	219.74
408.83	220.16
409.20	220.47
409.58	220.72
409.95	221.20
410.33	221.67
410.70	222.09
411.08	222.62
411.45	223.19
411.82	223.73
412.20	224.45
412.57	225.30
412.95	225.89
413.32	226.76
413.69	227.62
414.07	228.55
414.44	229.53
414.82	230.54
415.19	231.73
415.56	232.88
415.94	234.02
416.31	235.41
416.68	236.76
417.06	238.40
417.43	239.97
417.81	241.66
418.18	243.47
418.55	245.43
418.93	247.46
419.30	249.56
419.67	251.78
420.04	254.03
420.42	256.39
420.79	259.21
421.16	261.98
421.54	264.87
421.91	267.83
422.28	270.91
422.66	274.21
423.03	277.45
423.40	280.80
423.77	284.38
424.15	288.04
424.52	291.89
424.89	296.02
425.26	300.08
425.64	303.98
426.01	308.22
426.38	312.63
426.75	317.10
427.13	321.83
427.50	326.81
427.87	332.02
428.24	337.17
428.61	342.10
428.99	347.58
429.36	353.55
429.73	359.49
430.10	365.33
430.47	371.38
430.85	377.64
431.22	384.31
431.59	391.39
431.96	398.19
432.33	405.58
432.70	412.79
433.08	421.28
433.45	429.29
433.82	437.33
434.19	446.25
434.56	454.98
434.93	463.25
435.30	471.47
435.68	480.53
436.05	489.50
436.42	498.36
436.79	506.50
437.16	515.20
437.53	524.41
437.90	533.45
438.27	542.32
438.64	551.51
439.01	560.03
439.38	567.64
439.75	574.95
440.13	583.42
440.50	591.45
440.87	597.86
441.24	604.49
441.61	611.76
441.98	617.12
442.35	623.45
442.72	629.82
443.09	635.88
443.46	639.61
443.83	642.12
444.20	644.37
444.57	647.48
444.94	649.00
445.31	650.49
445.68	651.96
446.05	652.53
446.42	651.74
446.79	650.77
447.16	649.64
447.53	648.88
447.90	645.50
448.27	642.18
448.64	637.57
449.01	634.27
449.37	628.34
449.74	622.66
450.11	615.72
450.48	608.26
450.85	600.80
451.22	594.38
451.59	588.28
451.96	582.39
452.33	574.55
452.70	567.45
453.07	558.87
453.43	550.30
453.80	542.10
454.17	534.21
454.54	526.71
454.91	518.56
455.28	510.63
455.65	503.23
456.02	495.70
456.38	489.35
456.75	481.52
457.12	475.00
457.49	468.52
457.86	462.34
458.23	457.00
458.59	451.12
458.96	445.14
459.33	439.88
459.70	434.58
460.07	430.43
460.43	425.54
460.80	421.05
461.17	417.02
461.54	412.86
461.91	408.78
462.27	404.64
462.64	401.20
463.01	397.41
463.38	393.75
463.74	390.11
464.11	386.87
464.48	384.02
464.85	380.96
465.21	378.52
465.58	375.93
465.95	372.82
466.32	370.18
466.68	367.57
467.05	364.96
467.42	362.39
467.78	359.64
468.15	357.10
468.52	355.20
468.88	352.73
469.25	350.50
469.62	348.77
469.98	346.82
470.35	345.08
470.72	343.37
471.08	341.61
471.45	340.07
471.82	338.54
472.18	336.93
472.55	335.72
472.92	334.35
473.28	333.17
473.65	332.06
474.02	330.97
474.38	330.06
474.75	329.29
475.11	328.46
475.48	327.92
475.85	327.44
476.21	326.94
476.58	326.62
476.94	326.44
477.31	326.09
477.67	325.86
478.04	325.71
478.41	325.65
478.77	325.83
479.14	325.81
479.50	325.95
479.87	326.18
480.23	326.51
480.60	326.77
480.96	327.01
481.33	327.58
481.69	328.13
482.06	328.69
482.42	329.19
482.79	329.78
483.15	330.53
483.52	331.46
483.88	332.33
484.25	333.23
484.61	334.20
484.98	335.28
485.34	336.61
485.71	337.93
486.07	339.42
486.44	340.71
486.80	342.30
487.17	344.02
487.53	345.88
487.90	347.75
488.26	349.76
488.62	351.99
488.99	354.07
489.35	356.24
489.72	358.59
490.08	361.14
490.44	363.78
490.81	366.55
491.17	369.29
491.54	372.30
491.90	375.33
492.26	378.59
492.63	381.98
492.99	385.52
493.36	389.25
493.72	393.10
494.08	397.17
494.45	401.45
494.81	405.79
495.17	410.26
495.54	414.98
495.90	419.87
496.26	424.75
496.63	429.99
496.99	435.37
497.35	441.00
497.72	446.89
498.08	452.88
498.44	459.01
498.80	465.46
499.17	472.07
499.53	478.86
499.89	485.85
500.26	492.91
500.62	499.99
500.98	507.47
501.34	515.02
501.71	522.83
502.07	530.66
502.43	538.68
502.79	546.91
503.16	555.38
503.52	564.01
503.88	572.77
504.24	581.78
504.60	590.93
504.97	600.24
505.33	609.56
505.69	619.42
506.05	629.34
506.41	639.30
506.78	649.35
507.14	659.71
507.50	670.21
507.86	680.94
508.22	691.76
508.59	702.48
508.95	713.64
509.31	725.00
509.67	736.52
510.03	748.05
510.39	759.82
510.75	771.71
511.12	783.64
511.48	795.91
511.84	808.27
512.20	820.76
512.56	833.48
512.92	846.33
513.28	859.13
513.64	872.08
514.00	884.98
514.37	898.14
514.73	911.32
515.09	924.39
515.45	937.48
515.81	950.65
516.17	964.15
516.53	977.51
516.89	990.63
517.25	1003.92
517.61	1017.65
517.97	1031.20
518.33	1044.38
518.69	1058.09
519.05	1071.93
519.41	1085.63
519.77	1099.56
520.13	1113.04
520.49	1126.33
520.85	1139.79
521.21	1153.21
521.57	1167.07
521.93	1180.23
522.29	1194.07
522.65	1207.89
523.01	1221.65
523.37	1235.01
523.73	1248.52
524.09	1261.86
524.45	1275.55
524.81	1289.27
525.17	1302.68
525.53	1316.01
525.89	1329.55
526.25	1342.80
526.61	1355.73
526.97	1369.01
527.33	1382.14
527.68	1395.69
528.04	1409.38
528.40	1422.69
528.76	1436.20
529.12	1449.16
529.48	1462.58
529.84	1474.92
530.20	1487.70
530.56	1500.30
530.91	1513.68
531.27	1526.67
531.63	1539.43
531.99	1552.28
532.35	1564.60
532.71	1577.13
533.07	1590.07
533.42	1602.33
533.78	1614.59
534.14	1626.76
534.50	1638.17
534.86	1649.83
535.21	1660.77
535.57	1672.39
535.93	1683.77
536.29	1694.90
536.65	1706.48
537.00	1717.63
537.36	1729.20
537.72	1740.50
538.08	1752.12
538.44	1763.14
538.79	1774.37
539.15	1785.44
539.51	1796.34
539.87	1807.74
540.22	1818.53
540.58	1829.65
540.94	1840.73
541.29	1851.07
541.65	1861.02
542.01	1871.54
542.37	1881.68
542.72	1891.89
543.08	1901.73
543.44	1912.28
543.79	1921.70
544.15	1931.25
544.51	1941.24
544.87	1951.18
545.22	1960.27
545.58	1969.14
545.94	1978.08
546.29	1986.56
546.65	1994.87
547.01	2003.15
547.36	2010.94
547.72	2018.88
548.07	2026.43
548.43	2034.21
548.79	2042.07
549.14	2050.37
549.50	2058.89
549.86	2066.95
550.21	2074.43
550.57	2082.17
550.92	2088.92
551.28	2096.35
551.64	2103.69
551.99	2111.20
552.35	2118.45
552.70	2125.39
553.06	2132.18
553.41	2138.55
553.77	2145.09
554.13	2151.63
554.48	2158.72
554.84	2165.87
555.19	2172.45
555.55	2178.92
555.90	2185.36
556.26	2192.34
556.61	2198.36
556.97	2203.32
557.32	2209.15
557.68	2215.72
558.03	2221.48
558.39	2227.01
558.74	2233.01
559.10	2238.51
559.45	2244.11
559.81	2249.61
560.16	2255.22
560.52	2261.14
560.87	2267.64
561.23	2273.66
561.58	2280.45
561.94	2285.66
562.29	2290.37
562.64	2296.49
563.00	2302.16
563.35	2307.85
563.71	2313.66
564.06	2319.25
564.42	2325.15
564.77	2330.19
565.12	2335.52
565.48	2340.72
565.83	2346.22
566.19	2351.74
566.54	2357.26
566.89	2361.98
567.25	2366.71
567.60	2372.47
567.96	2377.70
568.31	2382.18
568.66	2386.52
569.02	2390.42
569.37	2394.21
569.72	2398.62
570.08	2402.15
570.43	2405.52
570.78	2408.65
571.14	2411.20
571.49	2414.46
571.84	2418.10
572.20	2421.05
572.55	2423.98
572.90	2426.40
573.26	2429.32
573.61	2431.95
573.96	2434.10
574.31	2436.14
574.67	2437.97
575.02	2438.86
575.37	2440.32
575.72	2441.16
576.08	2442.54
576.43	2442.68
576.78	2443.19
577.13	2444.93
577.49	2446.12
577.84	2447.08
578.19	2448.23
578.54	2448.90
578.90	2449.75
579.25	2449.66
579.60	2449.69
579.95	2449.11
580.30	2449.07
580.66	2448.32
581.01	2446.76
581.36	2444.47
581.71	2443.18
582.06	2442.08
582.42	2441.12
582.77	2438.83
583.12	2437.27
583.47	2435.94
583.82	2435.38
584.17	2434.16
584.53	2432.05
584.88	2429.99
585.23	2428.08
585.58	2425.92
585.93	2423.94
586.28	2421.75
586.63	2419.27
586.98	2417.04
587.34	2415.13
587.69	2412.71
588.04	2410.75
588.39	2409.23
588.74	2406.71
589.09	2403.97
589.44	2400.82
589.79	2398.48
590.14	2396.53
590.49	2393.71
590.84	2389.88
591.19	2386.73
591.54	2383.39
591.89	2379.26
592.25	2376.03
592.60	2371.87
592.95	2367.64
593.30	2363.40
593.65	2358.88
594.00	2354.54
594.35	2351.47
594.70	2346.62
595.05	2342.02
595.40	2336.48
595.75	2330.73
596.10	2327.20
596.45	2322.31
596.80	2317.70
597.15	2312.42
597.50	2306.49
597.85	2301.51
598.19	2296.31
598.54	2290.46
598.89	2285.35
599.24	2280.78
599.59	2274.60
599.94	2268.75
600.29	2262.79
600.64	2256.74
600.99	2249.80
601.34	2244.20
601.69	2237.26
602.04	2230.95
602.39	2224.24
602.74	2218.06
603.08	2212.42
603.43	2205.81
603.78	2198.78
604.13	2191.77
604.48	2184.33
604.83	2178.08
605.18	2171.83
605.53	2164.79
605.87	2157.63
606.22	2150.76
606.57	2142.74
606.92	2134.69
607.27	2127.71
607.62	2120.95
607.96	2113.85
608.31	2107.40
608.66	2099.64
609.01	2091.88
609.36	2084.70
609.70	2077.02
610.05	2069.17
610.40	2060.75
610.75	2052.33
611.10	2044.72
611.44	2035.68
611.79	2026.96
612.14	2017.07
612.49	2006.23
612.83	1996.92
613.18	1987.61
613.53	1978.13
613.88	1968.59
614.22	1959.96
614.57	1949.96
614.92	1939.34
615.27	1929.15
615.61	1919.01
615.96	1909.25
616.31	1899.51
616.65	1889.86
617.00	1880.11
617.35	1870.46
617.70	1860.69
618.04	1850.59
618.39	1840.29
618.74	1830.59
619.08	1820.89
619.43	1811.98
619.78	1803.78
620.12	1794.98
620.47	1785.40
620.82	1774.96
621.16	1765.10
621.51	1755.09
621.85	1745.21
622.20	1734.87
622.55	1724.29
622.89	1714.17
623.24	1704.42
623.59	1694.67
623.93	1684.47
624.28	1674.47
624.62	1664.24
624.97	1653.85
625.32	1643.96
625.66	1635.03
626.01	1626.24
626.35	1616.81
626.70	1606.68
627.04	1596.35
627.39	1586.17
627.73	1576.77
628.08	1567.85
628.43	1558.19
628.77	1548.80
629.12	1539.82
629.46	1531.80
629.81	1523.31
630.15	1513.83
630.50	1503.82
630.84	1493.09
631.19	1483.10
631.53	1473.79
631.88	1463.50
632.22	1453.38
632.57	1443.85
632.91	1433.57
633.26	1423.44
633.60	1413.81
633.95	1404.41
634.29	1394.80
634.64	1385.43
634.98	1375.38
635.32	1366.03
635.67	1357.43
636.01	1348.18
636.36	1338.41
636.70	1328.85
637.05	1319.34
637.39	1310.35
637.73	1301.66
638.08	1294.14
638.42	1285.93
638.77	1277.07
639.11	1268.87
639.45	1261.03
639.80	1252.41
640.14	1243.65
640.49	1234.81
640.83	1225.86
641.17	1217.55
641.52	1209.49
641.86	1200.71
642.20	1192.72
642.55	1183.88
642.89	1174.86
643.23	1166.05
643.58	1157.76
643.92	1148.61
644.26	1139.92
644.61	1131.33
644.95	1122.51
645.29	1113.12
645.64	1103.81
645.98	1095.16
646.32	1087.03
646.66	1078.34
647.01	1069.94
647.35	1061.66
647.69	1053.21
648.04	1044.88
648.38	1035.97
648.72	1027.01
649.06	1018.56
649.41	1010.28
649.75	1002.26
650.09	994.29
650.43	986.19
650.78	977.75
651.12	970.00
651.46	962.42
651.80	955.09
652.14	947.65
652.49	940.04
652.83	932.63
653.17	924.89
653.51	917.17
653.85	909.90
654.20	902.55
654.54	894.99
654.88	887.56
655.22	880.17
655.56	873.09
655.90	866.20
656.25	859.37
656.59	852.41
656.93	845.36
657.27	838.13
657.61	831.00
657.95	824.90
658.29	818.89
658.64	812.70
658.98	806.14
659.32	799.54
659.66	793.23
660.00	786.79
660.34	780.64
660.68	774.55
661.02	768.03
661.36	762.02
661.70	756.21
662.05	750.61
662.39	745.07
662.73	739.66
663.07	734.18
663.41	728.58
663.75	722.77
664.09	717.02
664.43	711.52
664.77	706.14
665.11	700.23
665.45	694.21
665.79	688.36
666.13	682.60
666.47	677.03
666.81	671.53
667.15	666.10
667.49	660.79
667.83	655.38
668.17	650.13
668.51	644.91
668.85	639.86
669.19	634.82
669.53	629.77
669.87	624.53
670.21	619.76
670.55	614.91
670.89	610.44
671.23	606.03
671.57	601.59
671.91	597.25
672.25	593.01
672.58	588.81
672.92	584.71
673.26	580.75
673.60	576.82
673.94	572.92
674.28	569.23
674.62	565.47
674.96	561.69
675.30	558.20
675.64	554.52
675.97	550.85
676.31	547.26
676.65	543.60
676.99	540.14
677.33	536.24
677.67	532.60
678.01	528.73
678.34	525.01
678.68	521.43
679.02	517.76
679.36	514.04
679.70	510.34
680.04	506.70
680.37	503.17
680.71	499.76
681.05	496.57
681.39	493.34
681.73	490.14
682.06	487.04
682.40	483.85
682.74	480.64
683.08	477.37
683.42	474.10
683.75	471.04
684.09	467.98
684.43	465.15
684.77	462.15
685.10	459.25
685.44	456.32
685.78	453.39
686.12	450.59
686.45	447.84
686.79	445.17
687.13	442.60
687.46	439.92
687.80	437.20
688.14	434.33
688.48	431.66
688.81	428.90
689.15	426.31
689.49	423.76
689.82	421.18
690.16	418.61
690.50	416.11
690.83	413.58
691.17	411.01
691.51	408.53
691.84	406.18
692.18	403.92
692.52	401.65
692.85	399.49
693.19	397.34
693.52	395.11
693.86	392.81
694.20	390.60
694.53	388.44
694.87	386.22
695.21	384.09
695.54	381.89
695.88	379.68
696.21	377.41
696.55	375.16
696.88	373.07
697.22	371.07
697.56	369.17
697.89	367.22
698.23	365.42
698.56	363.54
698.90	361.75
699.23	359.85
699.57	357.96
699.90	356.05
700.24	354.23
700.58	352.45
700.91	350.80
701.25	349.21
701.58	347.61
701.92	346.01
702.25	344.33
702.59	342.66
702.92	341.13
703.26	339.55
703.59	338.08
703.93	336.78
704.26	335.30
704.60	333.80
704.93	332.30
705.26	330.75
705.60	329.27
705.93	327.74
706.27	326.40
706.60	325.11
706.94	323.84
707.27	322.40
707.61	321.01
707.94	319.65
708.27	318.10
708.61	316.62
708.94	315.22
709.28	313.90
709.61	312.63
709.94	311.39
710.28	310.19
710.61	308.99
710.95	307.57
711.28	306.46
711.61	305.24
711.95	304.08
712.28	302.94
712.61	301.74
712.95	300.68
713.28	299.59
713.61	298.42
713.95	297.27
714.28	296.26
714.61	295.23
714.95	294.18
715.28	293.13
715.61	292.10
715.95	291.13
716.28	290.18
716.61	289.22
716.95	288.18
717.28	287.21
717.61	286.24
717.94	285.32
718.28	284.28
718.61	283.38
718.94	282.46
719.27	281.59
719.61	280.79
719.94	279.93
720.27	278.95
720.60	278.08
720.94	277.30
721.27	276.51
721.60	275.80
721.93	275.09
722.27	274.45
722.60	273.79
722.93	273.05
723.26	272.36
723.59	271.66
723.93	271.06
724.26	270.39
724.59	269.76
724.92	269.12
725.25	268.58
725.59	268.02
725.92	267.49
726.25	266.86
726.58	266.26
726.91	265.65
727.24	265.12
727.57	264.58
727.91	263.98
728.24	263.40
728.57	262.79
728.90	262.22
729.23	261.60
729.56	261.18
729.89	260.63
730.22	260.03
730.55	259.48
730.89	258.93
731.22	258.45
731.55	257.92
731.88	257.40
732.21	256.85
732.54	256.28
732.87	255.77
733.20	255.31
733.53	254.82
733.86	254.35
734.19	253.85
734.52	253.41
734.85	253.04
735.18	252.59
735.51	252.21
735.84	251.76
736.17	251.40
736.50	250.82
736.83	250.66
737.16	250.29
737.49	249.92
737.82	249.52
738.15	249.10
738.48	248.73
738.81	248.34
739.14	247.95
739.47	247.59
739.80	247.18
740.13	246.85
740.46	246.45
740.79	246.07
741.12	245.70
741.45	245.32
741.78	244.89
742.11	244.60
742.44	244.21
742.77	243.92
743.10	243.54
743.43	243.23
743.75	242.63
744.08	242.52
744.41	242.16
744.74	241.79
745.07	241.42
745.40	241.12
745.73	240.87
746.06	240.52
746.39	240.21
746.71	239.88
747.04	239.48
747.37	239.18
747.70	238.92
748.03	238.65
748.36	238.36
748.68	238.07
749.01	237.69
749.34	237.40
749.67	237.11
750.00	236.85
750.33	236.72
750.65	236.49
750.98	235.99
751.31	235.74
751.64	235.51
751.97	235.37
752.29	235.07
752.62	234.72
752.95	234.46
753.28	234.20
753.60	233.93
753.93	233.82
754.26	233.61
754.59	233.31
754.91	233.05
755.24	232.81
755.57	232.58
755.90	232.38
756.22	232.16
756.55	231.90
756.88	231.65
757.20	231.29
757.53	231.05
757.86	230.86
758.19	230.66
758.51	230.46
758.84	230.19
759.17	230.04
759.49	229.87
759.82	229.79
760.15	229.62
760.47	229.45
760.80	229.15
761.13	228.96
761.45	228.76
761.78	228.56
762.11	228.42
762.43	228.24
762.76	228.05
763.08	227.90
763.41	227.75
763.74	227.63
764.06	227.46
764.39	227.28
764.71	227.10
765.04	226.94
765.37	226.78
765.69	226.61
766.02	226.45
766.34	226.32
766.67	226.08
767.00	225.97
767.32	225.98
767.65	225.97
767.97	225.82
768.30	225.67
768.62	225.55
768.95	225.37
769.27	225.25
769.60	225.15
769.92	225.00
770.25	224.83
770.57	224.67
770.90	224.53
771.22	224.42
771.55	224.32
771.87	224.22
772.20	224.10
772.52	224.16
772.85	224.28
773.17	224.15
773.50	224.04
773.82	223.91
774.15	223.66
774.47	223.43
774.80	223.31
775.12	223.27
775.45	223.20
775.77	223.11
776.09	223.00
776.42	222.90
776.74	222.84
777.07	222.75
777.39	222.67
777.72	222.61
778.04	222.53
778.36	222.43
778.69	222.32
779.01	222.25
779.33	221.96
779.66	221.64
779.98	221.57
780.31	221.51
780.63	221.52
780.95	221.49
781.28	221.43
781.60	221.34
781.92	221.27
782.25	221.22
782.57	221.16
782.89	221.08
783.22	221.01
783.54	220.90
783.86	220.85
784.19	220.77
784.51	220.77
784.83	220.69
785.16	220.61
785.48	220.55
785.80	220.50
786.12	220.48
