SpectraSuite Data File
++++++++++++++++++++++++++++++++++++
Date: Tue Jan 29 16:40:30 EST 2013
User: group
Dark Spectrum Present: No
Reference Spectrum Present: No
Number of Sampled Component Spectra: 1
Spectrometers: USB2E7196
Integration Time (usec): 65000 (USB2E7196)
Spectra Averaged: 100 (USB2E7196)
Boxcar Smoothing: 10 (USB2E7196)
Correct for Electrical Dark: No (USB2E7196)
Strobe/Lamp Enabled: No (USB2E7196)
Correct for Detector Non-linearity: No (USB2E7196)
Correct for Stray Light: No (USB2E7196)
Number of Pixels in Processed Spectrum: 2048
>>>>>Begin Processed Spectral Data<<<<<
339.09	0.00
339.48	201.22
339.86	203.47
340.24	204.59
340.63	206.41
341.01	210.48
341.39	208.47
341.78	210.14
342.16	211.76
342.54	211.31
342.93	200.90
343.31	211.03
343.69	211.60
344.07	212.04
344.46	212.51
344.84	212.88
345.22	213.08
345.60	213.38
345.99	213.61
346.37	213.72
346.75	213.87
347.13	213.98
347.52	214.10
347.90	214.26
348.28	214.33
348.66	214.41
349.05	214.40
349.43	214.48
349.81	214.55
350.19	214.65
350.57	214.73
350.96	214.79
351.34	214.94
351.72	215.04
352.10	215.18
352.48	215.23
352.87	215.32
353.25	215.36
353.63	215.43
354.01	215.47
354.39	215.58
354.77	215.68
355.15	215.80
355.54	215.85
355.92	215.82
356.30	215.92
356.68	216.14
357.06	216.25
357.44	216.27
357.82	216.35
358.20	216.42
358.58	216.50
358.97	216.59
359.35	216.68
359.73	216.78
360.11	216.85
360.49	216.93
360.87	216.98
361.25	217.09
361.63	217.18
362.01	217.26
362.39	217.29
362.77	217.32
363.15	217.35
363.53	217.37
363.91	217.43
364.29	217.44
364.67	217.24
365.05	217.27
365.43	217.35
365.81	217.40
366.19	217.49
366.57	217.62
366.95	217.62
367.33	217.57
367.71	217.57
368.09	217.55
368.47	217.54
368.85	217.52
369.23	217.54
369.61	217.45
369.99	217.46
370.37	217.46
370.75	217.56
371.13	217.52
371.51	217.50
371.89	217.48
372.27	217.45
372.65	217.44
373.03	217.39
373.41	217.29
373.78	217.21
374.16	217.07
374.54	216.94
374.92	216.89
375.30	216.87
375.68	216.81
376.06	216.81
376.44	216.77
376.82	216.75
377.19	216.69
377.57	216.66
377.95	216.58
378.33	216.54
378.71	216.36
379.09	216.33
379.47	216.28
379.84	216.25
380.22	216.21
380.60	216.15
380.98	216.08
381.36	216.06
381.73	216.02
382.11	216.01
382.49	215.95
382.87	215.88
383.25	215.82
383.62	216.01
384.00	215.90
384.38	215.86
384.76	215.88
385.13	215.90
385.51	215.85
385.89	215.78
386.27	215.75
386.64	215.73
387.02	215.65
387.40	215.61
387.78	215.59
388.15	215.57
388.53	215.57
388.91	215.56
389.29	215.54
389.66	215.55
390.04	215.49
390.42	215.49
390.79	215.50
391.17	215.49
391.55	215.22
391.92	215.27
392.30	215.25
392.68	215.17
393.05	215.17
393.43	215.15
393.81	215.17
394.18	215.12
394.56	215.15
394.94	215.18
395.31	215.19
395.69	215.22
396.06	215.28
396.44	215.28
396.82	215.29
397.19	215.41
397.57	215.40
397.95	215.47
398.32	215.42
398.70	215.47
399.07	215.55
399.45	215.60
399.82	215.64
400.20	215.68
400.58	215.73
400.95	215.70
401.33	215.81
401.70	216.04
402.08	216.16
402.45	216.24
402.83	216.41
403.20	216.49
403.58	216.60
403.95	216.72
404.33	216.86
404.71	216.99
405.08	217.26
405.46	217.45
405.83	217.66
406.21	217.90
406.58	218.13
406.96	218.38
407.33	218.68
407.70	218.98
408.08	219.44
408.45	219.81
408.83	220.22
409.20	220.56
409.58	220.82
409.95	221.28
410.33	221.76
410.70	222.16
411.08	222.74
411.45	223.29
411.82	223.89
412.20	224.60
412.57	225.45
412.95	225.95
413.32	226.81
413.69	227.62
414.07	228.57
414.44	229.53
414.82	230.52
415.19	231.69
415.56	232.88
415.94	234.09
416.31	235.46
416.68	236.86
417.06	238.47
417.43	240.01
417.81	241.72
418.18	243.50
418.55	245.45
418.93	247.49
419.30	249.57
419.67	251.79
420.04	254.05
420.42	256.44
420.79	259.31
421.16	262.09
421.54	265.00
421.91	267.97
422.28	271.09
422.66	274.38
423.03	277.61
423.40	280.98
423.77	284.57
424.15	288.27
424.52	292.10
424.89	296.30
425.26	300.39
425.64	304.33
426.01	308.69
426.38	313.17
426.75	317.76
427.13	322.54
427.50	327.54
427.87	332.83
428.24	338.03
428.61	343.02
428.99	348.58
429.36	354.61
429.73	360.51
430.10	366.40
430.47	372.47
430.85	378.79
431.22	385.51
431.59	392.63
431.96	399.47
432.33	406.97
432.70	414.22
433.08	422.79
433.45	430.89
433.82	438.94
434.19	447.82
434.56	456.53
434.93	464.85
435.30	473.16
435.68	482.26
436.05	491.31
436.42	500.26
436.79	508.40
437.16	517.20
437.53	526.53
437.90	535.74
438.27	544.75
438.64	554.00
439.01	562.54
439.38	570.17
439.75	577.51
440.13	585.97
440.50	594.06
440.87	600.53
441.24	607.17
441.61	614.49
441.98	620.00
442.35	626.30
442.72	632.67
443.09	638.71
443.46	642.42
443.83	644.90
444.20	647.17
444.57	650.34
444.94	651.76
445.31	653.19
445.68	654.51
446.05	655.17
446.42	654.39
446.79	653.50
447.16	652.42
447.53	651.70
447.90	648.34
448.27	644.97
448.64	640.29
449.01	636.95
449.37	631.05
449.74	625.33
450.11	618.44
450.48	611.01
450.85	603.56
451.22	597.14
451.59	591.04
451.96	585.10
452.33	577.18
452.70	570.10
453.07	561.57
453.43	552.97
453.80	544.58
454.17	536.58
454.54	528.96
454.91	520.72
455.28	512.66
455.65	505.26
456.02	497.71
456.38	491.39
456.75	483.48
457.12	476.84
457.49	470.29
457.86	464.10
458.23	458.69
458.59	452.73
458.96	446.65
459.33	441.30
459.70	435.94
460.07	431.70
460.43	426.76
460.80	422.13
461.17	418.11
461.54	413.95
461.91	409.93
462.27	405.78
462.64	402.35
463.01	398.55
463.38	394.83
463.74	391.12
464.11	387.88
464.48	385.00
464.85	381.92
465.21	379.45
465.58	376.77
465.95	373.65
466.32	371.01
466.68	368.44
467.05	365.80
467.42	363.24
467.78	360.52
468.15	357.97
468.52	356.11
468.88	353.63
469.25	351.39
469.62	349.56
469.98	347.64
470.35	345.85
470.72	344.14
471.08	342.35
471.45	340.86
471.82	339.25
472.18	337.60
472.55	336.39
472.92	334.97
473.28	333.75
473.65	332.59
474.02	331.50
474.38	330.57
474.75	329.82
475.11	328.96
475.48	328.38
475.85	327.86
476.21	327.36
476.58	326.97
476.94	326.71
477.31	326.44
477.67	326.13
478.04	325.94
478.41	325.92
478.77	326.10
479.14	325.99
479.50	326.16
479.87	326.48
480.23	326.78
480.60	327.07
480.96	327.34
481.33	327.94
481.69	328.54
482.06	329.02
482.42	329.51
482.79	330.12
483.15	330.95
483.52	331.96
483.88	332.84
484.25	333.79
484.61	334.80
484.98	335.80
485.34	337.11
485.71	338.51
486.07	339.93
486.44	341.26
486.80	342.88
487.17	344.53
487.53	346.31
487.90	348.18
488.26	350.21
488.62	352.42
488.99	354.43
489.35	356.53
489.72	358.98
490.08	361.48
490.44	364.05
490.81	366.71
491.17	369.39
491.54	372.42
491.90	375.46
492.26	378.72
492.63	382.15
492.99	385.63
493.36	389.29
493.72	393.17
494.08	397.16
494.45	401.40
494.81	405.74
495.17	410.20
495.54	414.93
495.90	419.74
496.26	424.63
496.63	429.90
496.99	435.36
497.35	440.95
497.72	446.80
498.08	452.76
498.44	458.92
498.80	465.34
499.17	471.83
499.53	478.55
499.89	485.43
500.26	492.44
500.62	499.55
500.98	506.96
501.34	514.42
501.71	522.23
502.07	530.08
502.43	538.12
502.79	546.32
503.16	554.69
503.52	563.24
503.88	571.96
504.24	580.94
504.60	590.00
504.97	599.28
505.33	608.53
505.69	618.40
506.05	628.21
506.41	638.11
506.78	648.18
507.14	658.51
507.50	669.06
507.86	679.75
508.22	690.54
508.59	701.26
508.95	712.36
509.31	723.56
509.67	735.03
510.03	746.53
510.39	758.28
510.75	770.20
511.12	782.23
511.48	794.42
511.84	806.68
512.20	818.96
512.56	831.60
512.92	844.53
513.28	857.13
513.64	869.98
514.00	882.87
514.37	895.82
514.73	908.89
515.09	921.79
515.45	934.80
515.81	948.00
516.17	961.47
516.53	974.78
516.89	987.99
517.25	1001.31
517.61	1014.82
517.97	1028.28
518.33	1041.44
518.69	1055.05
519.05	1068.79
519.41	1082.59
519.77	1096.56
520.13	1109.82
520.49	1123.05
520.85	1136.61
521.21	1149.96
521.57	1163.72
521.93	1176.86
522.29	1190.70
522.65	1204.50
523.01	1218.19
523.37	1231.45
523.73	1244.79
524.09	1258.10
524.45	1271.58
524.81	1285.07
525.17	1298.54
525.53	1311.85
525.89	1325.33
526.25	1338.63
526.61	1351.58
526.97	1364.66
527.33	1377.81
527.68	1391.54
528.04	1405.06
528.40	1418.25
528.76	1431.79
529.12	1444.81
529.48	1458.30
529.84	1470.64
530.20	1483.52
530.56	1496.22
530.91	1509.50
531.27	1522.42
531.63	1535.22
531.99	1548.10
532.35	1560.36
532.71	1572.99
533.07	1585.94
533.42	1598.22
533.78	1610.28
534.14	1622.39
534.50	1633.84
534.86	1645.39
535.21	1656.30
535.57	1667.91
535.93	1679.33
536.29	1690.53
536.65	1702.01
537.00	1713.09
537.36	1724.60
537.72	1735.63
538.08	1747.22
538.44	1758.28
538.79	1769.45
539.15	1780.43
539.51	1791.34
539.87	1802.92
540.22	1813.76
540.58	1824.84
540.94	1835.91
541.29	1846.37
541.65	1856.34
542.01	1866.95
542.37	1877.17
542.72	1887.45
543.08	1897.36
543.44	1907.88
543.79	1917.20
544.15	1926.74
544.51	1936.70
544.87	1946.75
545.22	1956.00
545.58	1964.94
545.94	1973.89
546.29	1982.55
546.65	1991.01
547.01	1999.33
547.36	2007.04
547.72	2014.81
548.07	2022.34
548.43	2030.12
548.79	2038.16
549.14	2046.39
549.50	2054.99
549.86	2062.93
550.21	2070.37
550.57	2078.20
550.92	2084.97
551.28	2092.59
551.64	2100.02
551.99	2107.69
552.35	2114.91
552.70	2121.93
553.06	2128.53
553.41	2134.97
553.77	2141.51
554.13	2148.05
554.48	2155.11
554.84	2162.20
555.19	2168.76
555.55	2175.12
555.90	2181.55
556.26	2188.32
556.61	2194.48
556.97	2199.19
557.32	2204.97
557.68	2211.41
558.03	2217.15
558.39	2222.78
558.74	2228.71
559.10	2234.22
559.45	2239.81
559.81	2245.41
560.16	2250.91
560.52	2256.98
560.87	2263.31
561.23	2269.19
561.58	2275.87
561.94	2281.14
562.29	2285.89
562.64	2291.87
563.00	2297.61
563.35	2303.07
563.71	2308.68
564.06	2314.27
564.42	2320.28
564.77	2325.44
565.12	2330.76
565.48	2335.86
565.83	2341.28
566.19	2346.61
566.54	2351.96
566.89	2356.52
567.25	2361.02
567.60	2366.79
567.96	2371.59
568.31	2376.22
568.66	2380.56
569.02	2384.23
569.37	2387.86
569.72	2392.20
570.08	2395.74
570.43	2398.89
570.78	2401.93
571.14	2404.30
571.49	2407.32
571.84	2410.66
572.20	2413.45
572.55	2416.27
572.90	2418.37
573.26	2421.08
573.61	2423.72
573.96	2425.71
574.31	2427.59
574.67	2429.44
575.02	2429.99
575.37	2431.55
575.72	2432.00
576.08	2433.43
576.43	2433.67
576.78	2434.03
577.13	2435.46
577.49	2436.54
577.84	2437.42
578.19	2438.58
578.54	2439.22
578.90	2439.72
579.25	2439.47
579.60	2439.27
579.95	2438.33
580.30	2438.26
580.66	2437.33
581.01	2435.34
581.36	2432.84
581.71	2431.26
582.06	2429.90
582.42	2429.01
582.77	2426.60
583.12	2424.85
583.47	2423.20
583.82	2422.44
584.17	2421.11
584.53	2418.87
584.88	2416.68
585.23	2414.70
585.58	2412.36
585.93	2410.24
586.28	2408.00
586.63	2405.51
586.98	2403.14
587.34	2401.20
587.69	2398.59
588.04	2396.39
588.39	2394.83
588.74	2392.25
589.09	2389.39
589.44	2386.16
589.79	2383.47
590.14	2381.29
590.49	2378.43
590.84	2374.47
591.19	2371.08
591.54	2367.58
591.89	2363.46
592.25	2360.00
592.60	2355.73
592.95	2351.44
593.30	2347.03
593.65	2342.63
594.00	2338.03
594.35	2335.07
594.70	2330.31
595.05	2325.80
595.40	2320.17
595.75	2314.36
596.10	2310.73
596.45	2305.89
596.80	2301.14
597.15	2295.88
597.50	2289.96
597.85	2285.02
598.19	2279.69
598.54	2273.93
598.89	2268.72
599.24	2264.10
599.59	2257.98
599.94	2251.93
600.29	2245.97
600.64	2239.99
600.99	2232.97
601.34	2227.54
601.69	2220.38
602.04	2213.85
602.39	2207.21
602.74	2201.15
603.08	2195.68
603.43	2189.01
603.78	2182.11
604.13	2175.06
604.48	2167.70
604.83	2161.46
605.18	2155.11
605.53	2148.21
605.87	2141.05
606.22	2134.17
606.57	2126.15
606.92	2118.12
607.27	2111.30
607.62	2104.53
607.96	2097.55
608.31	2091.25
608.66	2083.39
609.01	2075.70
609.36	2068.66
609.70	2060.84
610.05	2053.11
610.40	2044.63
610.75	2036.32
611.10	2028.59
611.44	2019.64
611.79	2010.95
612.14	2001.01
612.49	1990.34
612.83	1980.98
613.18	1971.81
613.53	1962.45
613.88	1952.94
614.22	1944.32
614.57	1934.40
614.92	1923.81
615.27	1913.50
615.61	1903.34
615.96	1893.64
616.31	1884.10
616.65	1874.67
617.00	1864.92
617.35	1855.24
617.70	1845.63
618.04	1835.76
618.39	1825.57
618.74	1815.91
619.08	1806.28
619.43	1797.63
619.78	1789.35
620.12	1780.74
620.47	1771.16
620.82	1760.98
621.16	1751.12
621.51	1741.28
621.85	1731.43
622.20	1721.21
622.55	1710.78
622.89	1700.91
623.24	1691.24
623.59	1681.40
623.93	1671.24
624.28	1661.50
624.62	1651.53
624.97	1641.31
625.32	1631.41
625.66	1622.53
626.01	1613.80
626.35	1604.58
626.70	1594.52
627.04	1584.49
627.39	1574.38
627.73	1565.07
628.08	1556.22
628.43	1546.68
628.77	1537.45
629.12	1528.70
629.46	1520.83
629.81	1512.54
630.15	1503.15
630.50	1493.34
630.84	1482.99
631.19	1473.19
631.53	1463.99
631.88	1453.73
632.22	1443.68
632.57	1434.39
632.91	1424.33
633.26	1414.58
633.60	1404.88
633.95	1395.63
634.29	1386.17
634.64	1376.95
634.98	1367.07
635.32	1357.77
635.67	1349.36
636.01	1340.05
636.36	1330.37
636.70	1320.87
637.05	1311.48
637.39	1302.45
637.73	1293.91
638.08	1286.38
638.42	1278.23
638.77	1269.50
639.11	1261.23
639.45	1253.44
639.80	1244.89
640.14	1236.10
640.49	1227.16
640.83	1218.38
641.17	1210.23
641.52	1202.09
641.86	1193.43
642.20	1185.61
642.55	1176.92
642.89	1168.05
643.23	1159.40
643.58	1151.27
643.92	1142.23
644.26	1133.61
644.61	1125.16
644.95	1116.38
645.29	1107.15
645.64	1097.95
645.98	1089.44
646.32	1081.62
646.66	1073.15
647.01	1064.86
647.35	1056.78
647.69	1048.51
648.04	1040.30
648.38	1031.41
648.72	1022.61
649.06	1014.20
649.41	1005.96
649.75	998.02
650.09	990.18
650.43	982.22
650.78	973.85
651.12	966.19
651.46	958.74
651.80	951.49
652.14	944.18
652.49	936.64
652.83	929.35
653.17	921.64
653.51	913.99
653.85	906.71
654.20	899.44
654.54	891.98
654.88	884.73
655.22	877.49
655.56	870.47
655.90	863.73
656.25	857.07
656.59	850.15
656.93	843.13
657.27	835.98
657.61	829.02
657.95	822.84
658.29	816.85
658.64	810.74
658.98	804.28
659.32	797.76
659.66	791.48
660.00	785.11
660.34	779.01
660.68	772.87
661.02	766.53
661.36	760.57
661.70	754.80
662.05	749.08
662.39	743.55
662.73	738.16
663.07	732.77
663.41	727.06
663.75	721.32
664.09	715.58
664.43	710.12
664.77	704.73
665.11	698.94
665.45	693.04
665.79	687.19
666.13	681.47
666.47	675.94
666.81	670.43
667.15	664.98
667.49	659.78
667.83	654.51
668.17	649.19
668.51	644.02
668.85	639.05
669.19	634.19
669.53	629.16
669.87	624.03
670.21	619.21
670.55	614.48
670.89	610.00
671.23	605.72
671.57	601.28
671.91	596.96
672.25	592.76
672.58	588.68
672.92	584.53
673.26	580.59
673.60	576.69
673.94	572.90
674.28	569.27
674.62	565.46
674.96	561.64
675.30	558.17
675.64	554.51
675.97	550.89
676.31	547.23
676.65	543.60
676.99	540.19
677.33	536.34
677.67	532.68
678.01	528.85
678.34	525.13
678.68	521.63
679.02	517.95
679.36	514.26
679.70	510.53
680.04	506.94
680.37	503.43
680.71	500.04
681.05	496.83
681.39	493.57
681.73	490.38
682.06	487.35
682.40	484.24
682.74	481.01
683.08	477.73
683.42	474.48
683.75	471.43
684.09	468.31
684.43	465.47
684.77	462.54
685.10	459.64
685.44	456.73
685.78	453.75
686.12	450.99
686.45	448.21
686.79	445.54
687.13	443.01
687.46	440.36
687.80	437.67
688.14	434.72
688.48	432.00
688.81	429.28
689.15	426.67
689.49	423.99
689.82	421.42
690.16	418.83
690.50	416.42
690.83	413.88
691.17	411.27
691.51	408.75
691.84	406.43
692.18	404.18
692.52	401.96
692.85	399.80
693.19	397.64
693.52	395.48
693.86	393.20
694.20	390.93
694.53	388.72
694.87	386.45
695.21	384.33
695.54	382.15
695.88	379.96
696.21	377.65
696.55	375.51
696.88	373.40
697.22	371.38
697.56	369.41
697.89	367.50
698.23	365.75
698.56	363.90
698.90	362.10
699.23	360.18
699.57	358.32
699.90	356.42
700.24	354.58
700.58	352.80
700.91	351.12
701.25	349.56
701.58	347.97
701.92	346.34
702.25	344.72
702.59	343.12
702.92	341.56
703.26	340.07
703.59	338.56
703.93	337.29
704.26	335.84
704.60	334.28
704.93	332.81
705.26	331.29
705.60	329.83
705.93	328.28
706.27	326.92
706.60	325.61
706.94	324.35
707.27	322.89
707.61	321.54
707.94	320.17
708.27	318.62
708.61	317.15
708.94	315.77
709.28	314.46
709.61	313.17
709.94	311.92
710.28	310.66
710.61	309.47
710.95	308.00
711.28	306.92
711.61	305.74
711.95	304.54
712.28	303.33
712.61	302.12
712.95	301.05
713.28	299.98
713.61	298.76
713.95	297.56
714.28	296.53
714.61	295.47
714.95	294.43
715.28	293.43
715.61	292.37
715.95	291.42
716.28	290.44
716.61	289.46
716.95	288.45
717.28	287.51
717.61	286.53
717.94	285.65
718.28	284.56
718.61	283.70
718.94	282.84
719.27	281.98
719.61	281.15
719.94	280.27
720.27	279.30
720.60	278.45
720.94	277.63
721.27	276.86
721.60	276.17
721.93	275.45
722.27	274.75
722.60	274.10
722.93	273.37
723.26	272.72
723.59	272.00
723.93	271.38
724.26	270.71
724.59	270.06
724.92	269.43
725.25	268.91
725.59	268.28
725.92	267.72
726.25	267.14
726.58	266.55
726.91	265.91
727.24	265.38
727.57	264.82
727.91	264.20
728.24	263.65
728.57	262.99
728.90	262.42
729.23	261.80
729.56	261.31
729.89	260.75
730.22	260.16
730.55	259.62
730.89	259.05
731.22	258.47
731.55	257.90
731.88	257.36
732.21	256.75
732.54	256.26
732.87	255.72
733.20	255.24
733.53	254.70
733.86	254.29
734.19	253.80
734.52	253.37
734.85	253.07
735.18	252.58
735.51	252.20
735.84	251.75
736.17	251.37
736.50	250.83
736.83	250.66
737.16	250.27
737.49	249.90
737.82	249.49
738.15	249.15
738.48	248.75
738.81	248.39
739.14	247.98
739.47	247.57
739.80	247.20
740.13	246.84
740.46	246.48
740.79	246.05
741.12	245.66
741.45	245.28
741.78	244.86
742.11	244.59
742.44	244.21
742.77	243.91
743.10	243.56
743.43	243.24
743.75	242.66
744.08	242.56
744.41	242.19
744.74	241.85
745.07	241.42
745.40	241.15
745.73	240.86
746.06	240.54
746.39	240.25
746.71	239.90
747.04	239.54
747.37	239.25
747.70	239.00
748.03	238.69
748.36	238.43
748.68	238.09
749.01	237.73
749.34	237.46
749.67	237.17
750.00	236.90
750.33	236.76
750.65	236.51
750.98	236.01
751.31	235.76
751.64	235.51
751.97	235.43
752.29	235.12
752.62	234.77
752.95	234.54
753.28	234.20
753.60	233.99
753.93	233.83
754.26	233.59
754.59	233.29
754.91	233.02
755.24	232.74
755.57	232.53
755.90	232.29
756.22	232.03
756.55	231.78
756.88	231.49
757.20	231.14
757.53	230.88
757.86	230.70
758.19	230.47
758.51	230.25
758.84	229.91
759.17	229.73
759.49	229.57
759.82	229.46
760.15	229.31
760.47	229.09
760.80	228.80
761.13	228.67
761.45	228.48
761.78	228.31
762.11	228.12
762.43	227.92
762.76	227.74
763.08	227.58
763.41	227.42
763.74	227.27
764.06	227.12
764.39	226.97
764.71	226.78
765.04	226.61
765.37	226.46
765.69	226.31
766.02	226.16
766.34	225.99
766.67	225.79
767.00	225.70
767.32	225.64
767.65	225.63
767.97	225.43
768.30	225.30
768.62	225.19
768.95	225.09
769.27	224.95
769.60	224.85
769.92	224.70
770.25	224.55
770.57	224.39
770.90	224.24
771.22	224.10
771.55	223.99
771.87	223.88
772.20	223.76
772.52	223.83
772.85	223.99
773.17	223.88
773.50	223.76
773.82	223.63
774.15	223.45
774.47	223.26
774.80	223.14
775.12	223.03
775.45	222.91
775.77	222.78
776.09	222.70
776.42	222.59
776.74	222.52
777.07	222.45
777.39	222.39
777.72	222.31
778.04	222.24
778.36	222.17
778.69	222.11
779.01	222.05
779.33	221.78
779.66	221.43
779.98	221.36
780.31	221.30
780.63	221.29
780.95	221.25
781.28	221.17
781.60	221.10
781.92	221.02
782.25	220.98
782.57	220.92
782.89	220.83
783.22	220.76
783.54	220.70
783.86	220.63
784.19	220.54
784.51	220.53
784.83	220.46
785.16	220.36
785.48	220.29
785.80	220.22
786.12	220.19
