SpectraSuite Data File
++++++++++++++++++++++++++++++++++++
Date: Tue Jan 29 16:06:55 EST 2013
User: group
Dark Spectrum Present: No
Reference Spectrum Present: No
Number of Sampled Component Spectra: 1
Spectrometers: USB2E7196
Integration Time (usec): 65000 (USB2E7196)
Spectra Averaged: 100 (USB2E7196)
Boxcar Smoothing: 10 (USB2E7196)
Correct for Electrical Dark: No (USB2E7196)
Strobe/Lamp Enabled: No (USB2E7196)
Correct for Detector Non-linearity: No (USB2E7196)
Correct for Stray Light: No (USB2E7196)
Number of Pixels in Processed Spectrum: 2048
>>>>>Begin Processed Spectral Data<<<<<
339.09	0.00
339.48	202.42
339.86	203.68
340.24	206.21
340.63	207.18
341.01	211.56
341.39	209.55
341.78	210.75
342.16	212.43
342.54	212.99
342.93	201.90
343.31	212.11
343.69	212.67
344.07	213.17
344.46	213.58
344.84	213.98
345.22	214.15
345.60	214.44
345.99	214.68
346.37	214.82
346.75	214.93
347.13	215.04
347.52	215.13
347.90	215.23
348.28	215.28
348.66	215.38
349.05	215.36
349.43	215.44
349.81	215.52
350.19	215.57
350.57	215.64
350.96	215.72
351.34	215.80
351.72	215.90
352.10	215.99
352.48	216.06
352.87	216.12
353.25	216.19
353.63	216.24
354.01	216.30
354.39	216.36
354.77	216.42
355.15	216.52
355.54	216.56
355.92	216.55
356.30	216.60
356.68	216.77
357.06	216.85
357.44	216.89
357.82	216.94
358.20	217.00
358.58	217.05
358.97	217.06
359.35	217.18
359.73	217.25
360.11	217.30
360.49	217.33
360.87	217.36
361.25	217.40
361.63	217.46
362.01	217.49
362.39	217.50
362.77	217.56
363.15	217.56
363.53	217.58
363.91	217.65
364.29	217.67
364.67	217.50
365.05	217.52
365.43	217.56
365.81	217.58
366.19	217.66
366.57	217.75
366.95	217.81
367.33	217.73
367.71	217.73
368.09	217.76
368.47	217.77
368.85	217.77
369.23	217.81
369.61	217.76
369.99	217.84
370.37	217.85
370.75	217.93
371.13	217.86
371.51	217.80
371.89	217.76
372.27	217.72
372.65	217.72
373.03	217.67
373.41	217.64
373.78	217.58
374.16	217.46
374.54	217.36
374.92	217.29
375.30	217.27
375.68	217.19
376.06	217.18
376.44	217.10
376.82	217.06
377.19	217.01
377.57	216.96
377.95	216.80
378.33	216.73
378.71	216.55
379.09	216.53
379.47	216.56
379.84	216.50
380.22	216.48
380.60	216.37
380.98	216.34
381.36	216.25
381.73	216.19
382.11	216.18
382.49	216.14
382.87	216.06
383.25	216.02
383.62	216.22
384.00	216.12
384.38	216.11
384.76	216.11
385.13	216.12
385.51	216.11
385.89	216.10
386.27	216.09
386.64	216.12
387.02	216.09
387.40	216.07
387.78	216.05
388.15	216.03
388.53	216.03
388.91	216.03
389.29	216.00
389.66	216.05
390.04	216.04
390.42	216.07
390.79	216.09
391.17	216.07
391.55	215.84
391.92	215.86
392.30	215.91
392.68	215.83
393.05	215.80
393.43	215.81
393.81	215.82
394.18	215.78
394.56	215.78
394.94	215.84
395.31	215.77
395.69	215.87
396.06	215.90
396.44	215.92
396.82	215.91
397.19	216.05
397.57	216.04
397.95	216.10
398.32	216.07
398.70	216.10
399.07	216.19
399.45	216.22
399.82	216.26
400.20	216.26
400.58	216.38
400.95	216.36
401.33	216.46
401.70	216.65
402.08	216.77
402.45	216.81
402.83	216.93
403.20	217.06
403.58	217.11
403.95	217.29
404.33	217.46
404.71	217.63
405.08	217.86
405.46	218.03
405.83	218.21
406.21	218.37
406.58	218.61
406.96	218.79
407.33	219.05
407.70	219.33
408.08	219.78
408.45	220.08
408.83	220.51
409.20	220.83
409.58	221.09
409.95	221.52
410.33	222.00
410.70	222.41
411.08	222.94
411.45	223.51
411.82	224.03
412.20	224.66
412.57	225.42
412.95	225.97
413.32	226.77
413.69	227.60
414.07	228.50
414.44	229.45
414.82	230.47
415.19	231.60
415.56	232.75
415.94	233.88
416.31	235.26
416.68	236.57
417.06	238.14
417.43	239.68
417.81	241.36
418.18	243.08
418.55	244.97
418.93	246.96
419.30	249.03
419.67	251.21
420.04	253.40
420.42	255.69
420.79	258.43
421.16	261.16
421.54	263.97
421.91	266.89
422.28	269.87
422.66	273.03
423.03	276.20
423.40	279.44
423.77	282.93
424.15	286.46
424.52	290.20
424.89	294.16
425.26	298.08
425.64	301.85
426.01	306.04
426.38	310.32
426.75	314.73
427.13	319.25
427.50	324.01
427.87	329.06
428.24	334.07
428.61	338.85
428.99	344.15
429.36	349.95
429.73	355.64
430.10	361.29
430.47	367.17
430.85	373.22
431.22	379.71
431.59	386.55
431.96	393.17
432.33	400.42
432.70	407.49
433.08	415.73
433.45	423.51
433.82	431.20
434.19	439.83
434.56	448.19
434.93	456.24
435.30	464.26
435.68	473.08
436.05	481.78
436.42	490.41
436.79	498.22
437.16	506.65
437.53	515.59
437.90	524.46
438.27	533.09
438.64	542.01
439.01	550.14
439.38	557.45
439.75	564.51
440.13	572.63
440.50	580.33
440.87	586.52
441.24	592.92
441.61	599.98
441.98	605.11
442.35	611.23
442.72	617.31
443.09	623.17
443.46	626.75
443.83	629.19
444.20	631.31
444.57	634.36
444.94	635.76
445.31	637.14
445.68	638.46
446.05	639.07
446.42	638.27
446.79	637.44
447.16	636.33
447.53	635.50
447.90	632.26
448.27	628.97
448.64	624.44
449.01	621.21
449.37	615.50
449.74	610.06
450.11	603.38
450.48	596.24
450.85	589.01
451.22	582.75
451.59	576.76
451.96	571.05
452.33	563.50
452.70	556.62
453.07	548.40
453.43	540.13
453.80	532.14
454.17	524.46
454.54	517.20
454.91	509.35
455.28	501.75
455.65	494.63
456.02	487.51
456.38	481.49
456.75	474.00
457.12	467.70
457.49	461.48
457.86	455.52
458.23	450.37
458.59	444.68
458.96	438.94
459.33	433.88
459.70	428.77
460.07	424.70
460.43	420.01
460.80	415.63
461.17	411.77
461.54	407.75
461.91	403.88
462.27	399.92
462.64	396.66
463.01	392.98
463.38	389.44
463.74	385.83
464.11	382.68
464.48	379.89
464.85	376.95
465.21	374.56
465.58	372.02
465.95	368.95
466.32	366.43
466.68	363.91
467.05	361.46
467.42	359.02
467.78	356.39
468.15	353.97
468.52	352.12
468.88	349.72
469.25	347.59
469.62	345.88
469.98	344.02
470.35	342.30
470.72	340.67
471.08	338.93
471.45	337.52
471.82	336.04
472.18	334.42
472.55	333.21
472.92	331.91
473.28	330.79
473.65	329.74
474.02	328.67
474.38	327.86
474.75	327.10
475.11	326.35
475.48	325.84
475.85	325.37
476.21	324.96
476.58	324.68
476.94	324.43
477.31	324.19
477.67	323.94
478.04	323.81
478.41	323.83
478.77	324.03
479.14	324.01
479.50	324.19
479.87	324.55
480.23	324.95
480.60	325.22
480.96	325.49
481.33	326.08
481.69	326.64
482.06	327.18
482.42	327.68
482.79	328.28
483.15	329.09
483.52	330.09
483.88	330.96
484.25	331.85
484.61	332.86
484.98	333.90
485.34	335.23
485.71	336.55
486.07	337.98
486.44	339.28
486.80	340.87
487.17	342.52
487.53	344.29
487.90	346.12
488.26	348.13
488.62	350.28
488.99	352.33
489.35	354.54
489.72	356.90
490.08	359.40
490.44	361.97
490.81	364.68
491.17	367.36
491.54	370.38
491.90	373.45
492.26	376.68
492.63	380.06
492.99	383.51
493.36	387.18
493.72	391.04
494.08	395.06
494.45	399.26
494.81	403.60
495.17	408.10
495.54	412.78
495.90	417.56
496.26	422.47
496.63	427.61
496.99	433.00
497.35	438.56
497.72	444.36
498.08	450.28
498.44	456.31
498.80	462.75
499.17	469.17
499.53	475.84
499.89	482.67
500.26	489.63
500.62	496.71
500.98	504.10
501.34	511.57
501.71	519.28
502.07	527.00
502.43	534.97
502.79	543.05
503.16	551.39
503.52	559.96
503.88	568.64
504.24	577.55
504.60	586.57
504.97	595.76
505.33	605.02
505.69	614.85
506.05	624.73
506.41	634.48
506.78	644.45
507.14	654.65
507.50	665.18
507.86	675.76
508.22	686.51
508.59	697.19
508.95	708.18
509.31	719.39
509.67	730.83
510.03	742.21
510.39	753.92
510.75	765.78
511.12	777.63
511.48	789.68
511.84	801.87
512.20	814.14
512.56	826.66
512.92	839.43
513.28	851.94
513.64	864.53
514.00	877.28
514.37	890.22
514.73	903.22
515.09	915.96
515.45	928.74
515.81	941.61
516.17	954.77
516.53	967.88
516.89	980.80
517.25	993.88
517.61	1007.29
517.97	1020.48
518.33	1033.33
518.69	1046.68
519.05	1060.31
519.41	1073.82
519.77	1087.50
520.13	1100.59
520.49	1113.50
520.85	1126.67
521.21	1139.78
521.57	1153.25
521.93	1166.08
522.29	1179.60
522.65	1193.12
523.01	1206.54
523.37	1219.56
523.73	1232.61
524.09	1245.52
524.45	1258.79
524.81	1272.02
525.17	1284.99
525.53	1297.83
525.89	1310.94
526.25	1323.79
526.61	1336.22
526.97	1349.06
527.33	1361.60
527.68	1374.84
528.04	1388.03
528.40	1400.86
528.76	1414.03
529.12	1426.55
529.48	1439.66
529.84	1451.72
530.20	1464.17
530.56	1476.55
530.91	1489.49
531.27	1502.12
531.63	1514.72
531.99	1527.12
532.35	1539.06
532.71	1551.28
533.07	1563.86
533.42	1575.72
533.78	1587.58
534.14	1599.48
534.50	1610.43
534.86	1621.79
535.21	1632.31
535.57	1643.42
535.93	1654.52
536.29	1665.25
536.65	1676.42
537.00	1686.97
537.36	1698.06
537.72	1708.76
538.08	1719.83
538.44	1730.50
538.79	1741.25
539.15	1751.64
539.51	1762.09
539.87	1773.06
540.22	1783.39
540.58	1793.93
540.94	1804.58
541.29	1814.52
541.65	1823.96
542.01	1834.14
542.37	1843.89
542.72	1853.80
543.08	1863.38
543.44	1873.40
543.79	1882.48
544.15	1891.64
544.51	1901.42
544.87	1910.93
545.22	1919.81
545.58	1928.41
545.94	1936.90
546.29	1945.18
546.65	1953.33
547.01	1961.28
547.36	1968.73
547.72	1976.32
548.07	1983.81
548.43	1991.42
548.79	1999.14
549.14	2006.93
549.50	2015.24
549.86	2022.90
550.21	2030.07
550.57	2037.49
550.92	2044.18
551.28	2051.50
551.64	2058.59
551.99	2065.95
552.35	2072.91
552.70	2079.57
553.06	2085.97
553.41	2092.01
553.77	2098.35
554.13	2104.64
554.48	2111.50
554.84	2118.43
555.19	2124.83
555.55	2131.36
555.90	2137.52
556.26	2144.11
556.61	2149.91
556.97	2154.68
557.32	2160.38
557.68	2166.72
558.03	2172.45
558.39	2177.61
558.74	2183.40
559.10	2188.85
559.45	2194.21
559.81	2199.64
560.16	2205.17
560.52	2211.05
560.87	2217.45
561.23	2223.34
561.58	2229.92
561.94	2235.15
562.29	2239.99
562.64	2246.22
563.00	2251.54
563.35	2257.03
563.71	2262.97
564.06	2268.89
564.42	2274.72
564.77	2279.89
565.12	2285.10
565.48	2290.43
565.83	2296.01
566.19	2301.57
566.54	2307.13
566.89	2311.79
567.25	2316.46
567.60	2322.10
567.96	2327.26
568.31	2332.05
568.66	2336.40
569.02	2340.29
569.37	2343.90
569.72	2348.17
570.08	2351.62
570.43	2354.80
570.78	2358.05
571.14	2360.61
571.49	2363.62
571.84	2367.31
572.20	2370.14
572.55	2373.33
572.90	2375.47
573.26	2378.59
573.61	2381.04
573.96	2383.33
574.31	2385.50
574.67	2387.42
575.02	2388.52
575.37	2390.15
575.72	2391.19
576.08	2392.84
576.43	2393.35
576.78	2394.42
577.13	2396.28
577.49	2397.55
577.84	2398.99
578.19	2400.51
578.54	2401.35
578.90	2402.63
579.25	2402.69
579.60	2403.02
579.95	2402.39
580.30	2402.82
580.66	2402.14
581.01	2400.70
581.36	2398.64
581.71	2397.46
582.06	2396.77
582.42	2396.11
582.77	2394.22
583.12	2392.66
583.47	2391.44
583.82	2390.94
584.17	2389.83
584.53	2387.91
584.88	2386.18
585.23	2384.44
585.58	2382.30
585.93	2380.11
586.28	2377.94
586.63	2375.77
586.98	2373.68
587.34	2372.10
587.69	2369.90
588.04	2368.07
588.39	2366.87
588.74	2364.57
589.09	2362.10
589.44	2359.14
589.79	2356.93
590.14	2355.11
590.49	2352.47
590.84	2348.82
591.19	2346.06
591.54	2342.86
591.89	2339.03
592.25	2335.86
592.60	2331.83
592.95	2327.86
593.30	2323.96
593.65	2319.81
594.00	2315.45
594.35	2312.53
594.70	2307.91
595.05	2303.48
595.40	2298.25
595.75	2292.70
596.10	2289.13
596.45	2284.44
596.80	2279.99
597.15	2274.67
597.50	2268.62
597.85	2263.66
598.19	2258.70
598.54	2252.91
598.89	2248.00
599.24	2243.56
599.59	2237.51
599.94	2231.91
600.29	2226.12
600.64	2220.45
600.99	2213.89
601.34	2208.74
601.69	2201.81
602.04	2195.45
602.39	2189.11
602.74	2183.15
603.08	2177.73
603.43	2171.31
603.78	2164.57
604.13	2157.47
604.48	2150.41
604.83	2144.59
605.18	2138.37
605.53	2131.43
605.87	2124.52
606.22	2117.74
606.57	2109.96
606.92	2102.20
607.27	2095.28
607.62	2088.79
607.96	2081.85
608.31	2075.41
608.66	2067.53
609.01	2060.17
609.36	2053.19
609.70	2045.37
610.05	2037.63
610.40	2029.33
610.75	2021.10
611.10	2013.58
611.44	2004.95
611.79	1996.35
612.14	1986.41
612.49	1976.06
612.83	1966.82
613.18	1957.79
613.53	1948.33
613.88	1938.75
614.22	1930.19
614.57	1920.35
614.92	1909.88
615.27	1899.84
615.61	1889.75
615.96	1880.08
616.31	1870.44
616.65	1861.13
617.00	1851.27
617.35	1841.68
617.70	1832.04
618.04	1821.95
618.39	1811.56
618.74	1801.82
619.08	1792.22
619.43	1783.53
619.78	1775.26
620.12	1766.57
620.47	1756.71
620.82	1746.54
621.16	1736.77
621.51	1726.85
621.85	1716.92
622.20	1706.32
622.55	1695.65
622.89	1685.74
623.24	1676.12
623.59	1666.38
623.93	1656.17
624.28	1646.52
624.62	1636.30
624.97	1625.94
625.32	1616.32
625.66	1607.49
626.01	1598.66
626.35	1589.19
626.70	1579.27
627.04	1569.08
627.39	1559.08
627.73	1549.81
628.08	1540.64
628.43	1531.03
628.77	1521.77
629.12	1512.92
629.46	1505.14
629.81	1496.67
630.15	1487.10
630.50	1477.22
630.84	1466.77
631.19	1456.92
631.53	1447.48
631.88	1437.33
632.22	1427.34
632.57	1417.92
632.91	1407.84
633.26	1398.01
633.60	1388.49
633.95	1379.07
634.29	1369.74
634.64	1360.29
634.98	1350.37
635.32	1341.17
635.67	1332.59
636.01	1323.31
636.36	1313.53
636.70	1303.95
637.05	1294.62
637.39	1285.61
637.73	1276.99
638.08	1269.41
638.42	1261.19
638.77	1252.47
639.11	1244.23
639.45	1236.36
639.80	1227.70
640.14	1219.00
640.49	1210.11
640.83	1201.30
641.17	1193.19
641.52	1184.89
641.86	1176.29
642.20	1168.45
642.55	1159.85
642.89	1151.07
643.23	1142.35
643.58	1134.26
643.92	1125.25
644.26	1116.59
644.61	1108.20
644.95	1099.46
645.29	1090.19
645.64	1080.92
645.98	1072.59
646.32	1064.63
646.66	1056.20
647.01	1047.82
647.35	1039.66
647.69	1031.30
648.04	1022.98
648.38	1014.03
648.72	1005.33
649.06	996.98
649.41	988.88
649.75	980.93
650.09	973.07
650.43	964.99
650.78	956.81
651.12	949.23
651.46	941.84
651.80	934.63
652.14	927.28
652.49	919.74
652.83	912.54
653.17	904.69
653.51	897.13
653.85	889.91
654.20	882.72
654.54	875.09
654.88	867.98
655.22	860.79
655.56	853.86
655.90	847.09
656.25	840.42
656.59	833.37
656.93	826.40
657.27	819.34
657.61	812.56
657.95	806.47
658.29	800.58
658.64	794.56
658.98	788.15
659.32	781.61
659.66	775.45
660.00	769.14
660.34	763.28
660.68	757.20
661.02	750.93
661.36	745.09
661.70	739.48
662.05	733.81
662.39	728.37
662.73	723.06
663.07	717.74
663.41	712.24
663.75	706.73
664.09	701.16
664.43	695.72
664.77	690.39
665.11	684.60
665.45	678.78
665.79	672.98
666.13	667.30
666.47	661.90
666.81	656.55
667.15	651.25
667.49	646.08
667.83	640.97
668.17	635.83
668.51	630.81
668.85	625.92
669.19	621.16
669.53	616.23
669.87	611.21
670.21	606.53
670.55	601.78
670.89	597.40
671.23	593.20
671.57	588.94
671.91	584.65
672.25	580.55
672.58	576.38
672.92	572.38
673.26	568.55
673.60	564.74
673.94	560.99
674.28	557.42
674.62	553.71
674.96	549.93
675.30	546.44
675.64	542.76
675.97	539.25
676.31	535.60
676.65	532.07
676.99	528.66
677.33	524.90
677.67	521.33
678.01	517.52
678.34	513.91
678.68	510.40
679.02	506.88
679.36	503.28
679.70	499.69
680.04	496.23
680.37	492.86
680.71	489.58
681.05	486.42
681.39	483.23
681.73	480.06
682.06	477.12
682.40	474.06
682.74	470.90
683.08	467.72
683.42	464.63
683.75	461.68
684.09	458.69
684.43	455.87
684.77	453.00
685.10	450.20
685.44	447.32
685.78	444.44
686.12	441.77
686.45	439.10
686.79	436.51
687.13	433.99
687.46	431.33
687.80	428.76
688.14	426.00
688.48	423.40
688.81	420.82
689.15	418.30
689.49	415.73
689.82	413.27
690.16	410.74
690.50	408.34
690.83	405.87
691.17	403.34
691.51	401.00
691.84	398.77
692.18	396.57
692.52	394.37
692.85	392.27
693.19	390.09
693.52	387.96
693.86	385.87
694.20	383.73
694.53	381.70
694.87	379.50
695.21	377.43
695.54	375.28
695.88	373.14
696.21	370.93
696.55	368.85
696.88	366.83
697.22	364.93
697.56	363.06
697.89	361.21
698.23	359.56
698.56	357.76
698.90	356.05
699.23	354.16
699.57	352.35
699.90	350.59
700.24	348.85
700.58	347.16
700.91	345.51
701.25	343.97
701.58	342.37
701.92	340.86
702.25	339.28
702.59	337.73
702.92	336.26
703.26	334.76
703.59	333.38
703.93	332.13
704.26	330.75
704.60	329.31
704.93	327.90
705.26	326.47
705.60	325.06
705.93	323.57
706.27	322.30
706.60	321.06
706.94	319.81
707.27	318.44
707.61	317.12
707.94	315.81
708.27	314.30
708.61	312.87
708.94	311.56
709.28	310.29
709.61	309.10
709.94	307.92
710.28	306.78
710.61	305.59
710.95	304.22
711.28	303.14
711.61	301.97
711.95	300.89
712.28	299.65
712.61	298.50
712.95	297.49
713.28	296.48
713.61	295.36
713.95	294.23
714.28	293.28
714.61	292.23
714.95	291.24
715.28	290.27
715.61	289.31
715.95	288.36
716.28	287.43
716.61	286.49
716.95	285.52
717.28	284.60
717.61	283.72
717.94	282.88
718.28	281.84
718.61	281.00
718.94	280.09
719.27	279.28
719.61	278.50
719.94	277.67
720.27	276.76
720.60	275.97
720.94	275.22
721.27	274.47
721.60	273.84
721.93	273.11
722.27	272.51
722.60	271.90
722.93	271.18
723.26	270.53
723.59	269.86
723.93	269.22
724.26	268.56
724.59	267.90
724.92	267.34
725.25	266.82
725.59	266.22
725.92	265.71
726.25	265.16
726.58	264.58
726.91	263.95
727.24	263.45
727.57	262.89
727.91	262.32
728.24	261.80
728.57	261.19
728.90	260.66
729.23	260.04
729.56	259.62
729.89	259.11
730.22	258.62
730.55	258.12
730.89	257.64
731.22	257.15
731.55	256.62
731.88	256.08
732.21	255.58
732.54	255.10
732.87	254.59
733.20	254.13
733.53	253.68
733.86	253.25
734.19	252.74
734.52	252.35
734.85	252.06
735.18	251.62
735.51	251.25
735.84	250.83
736.17	250.46
736.50	249.91
736.83	249.77
737.16	249.35
737.49	248.98
737.82	248.56
738.15	248.22
738.48	247.90
738.81	247.54
739.14	247.14
739.47	246.78
739.80	246.45
740.13	246.12
740.46	245.73
740.79	245.37
741.12	245.04
741.45	244.62
741.78	244.17
742.11	243.88
742.44	243.52
742.77	243.25
743.10	242.91
743.43	242.59
743.75	242.07
744.08	242.02
744.41	241.65
744.74	241.33
745.07	240.97
745.40	240.65
745.73	240.37
746.06	240.06
746.39	239.77
746.71	239.38
747.04	239.04
747.37	238.74
747.70	238.49
748.03	238.20
748.36	237.98
748.68	237.70
749.01	237.34
749.34	237.08
749.67	236.79
750.00	236.54
750.33	236.44
750.65	236.17
750.98	235.65
751.31	235.43
751.64	235.22
751.97	235.10
752.29	234.85
752.62	234.53
752.95	234.30
753.28	234.03
753.60	233.81
753.93	233.62
754.26	233.42
754.59	233.14
754.91	232.89
755.24	232.64
755.57	232.40
755.90	232.17
756.22	231.97
756.55	231.71
756.88	231.45
757.20	231.06
757.53	230.81
757.86	230.59
758.19	230.42
758.51	230.21
758.84	229.88
759.17	229.67
759.49	229.52
759.82	229.44
760.15	229.26
760.47	229.10
760.80	228.87
761.13	228.71
761.45	228.52
761.78	228.37
762.11	228.21
762.43	228.05
762.76	227.87
763.08	227.69
763.41	227.53
763.74	227.40
764.06	227.26
764.39	227.11
764.71	226.97
765.04	226.77
765.37	226.65
765.69	226.50
766.02	226.38
766.34	226.21
766.67	225.96
767.00	225.88
767.32	225.85
767.65	225.86
767.97	225.70
768.30	225.61
768.62	225.50
768.95	225.31
769.27	225.17
769.60	225.10
769.92	224.96
770.25	224.83
770.57	224.68
770.90	224.58
771.22	224.44
771.55	224.36
771.87	224.30
772.20	224.15
772.52	224.23
772.85	224.37
773.17	224.27
773.50	224.19
773.82	224.08
774.15	223.91
774.47	223.69
774.80	223.58
775.12	223.48
775.45	223.35
775.77	223.32
776.09	223.26
776.42	223.12
776.74	223.11
777.07	223.01
777.39	222.94
777.72	222.83
778.04	222.77
778.36	222.65
778.69	222.55
779.01	222.49
779.33	222.24
779.66	221.90
779.98	221.81
780.31	221.74
780.63	221.75
780.95	221.67
781.28	221.60
781.60	221.53
781.92	221.44
782.25	221.43
782.57	221.32
782.89	221.22
783.22	221.18
783.54	221.09
783.86	221.03
784.19	220.96
784.51	221.00
784.83	220.94
785.16	220.87
785.48	220.80
785.80	220.72
786.12	220.69
