SpectraSuite Data File
++++++++++++++++++++++++++++++++++++
Date: Tue Jan 29 16:08:49 EST 2013
User: group
Dark Spectrum Present: No
Reference Spectrum Present: No
Number of Sampled Component Spectra: 1
Spectrometers: USB2E7196
Integration Time (usec): 65000 (USB2E7196)
Spectra Averaged: 100 (USB2E7196)
Boxcar Smoothing: 10 (USB2E7196)
Correct for Electrical Dark: No (USB2E7196)
Strobe/Lamp Enabled: No (USB2E7196)
Correct for Detector Non-linearity: No (USB2E7196)
Correct for Stray Light: No (USB2E7196)
Number of Pixels in Processed Spectrum: 2048
>>>>>Begin Processed Spectral Data<<<<<
339.09	0.00
339.48	203.23
339.86	204.53
340.24	206.19
340.63	207.33
341.01	211.24
341.39	210.41
341.78	211.36
342.16	212.81
342.54	212.99
342.93	202.22
343.31	212.44
343.69	212.93
344.07	213.41
344.46	213.80
344.84	214.19
345.22	214.39
345.60	214.66
345.99	214.90
346.37	215.01
346.75	215.10
347.13	215.16
347.52	215.23
347.90	215.33
348.28	215.37
348.66	215.41
349.05	215.35
349.43	215.38
349.81	215.40
350.19	215.45
350.57	215.53
350.96	215.59
351.34	215.68
351.72	215.79
352.10	215.85
352.48	215.93
352.87	215.97
353.25	216.01
353.63	216.05
354.01	216.07
354.39	216.15
354.77	216.24
355.15	216.38
355.54	216.42
355.92	216.38
356.30	216.44
356.68	216.64
357.06	216.71
357.44	216.74
357.82	216.81
358.20	216.92
358.58	216.92
358.97	216.98
359.35	217.05
359.73	217.16
360.11	217.25
360.49	217.30
360.87	217.35
361.25	217.43
361.63	217.52
362.01	217.57
362.39	217.59
362.77	217.63
363.15	217.64
363.53	217.66
363.91	217.71
364.29	217.75
364.67	217.58
365.05	217.63
365.43	217.70
365.81	217.76
366.19	217.81
366.57	217.95
366.95	217.95
367.33	217.90
367.71	217.89
368.09	217.88
368.47	217.85
368.85	217.82
369.23	217.85
369.61	217.78
369.99	217.84
370.37	217.85
370.75	217.97
371.13	217.91
371.51	217.88
371.89	217.92
372.27	217.89
372.65	217.88
373.03	217.86
373.41	217.79
373.78	217.75
374.16	217.62
374.54	217.51
374.92	217.48
375.30	217.50
375.68	217.45
376.06	217.43
376.44	217.40
376.82	217.42
377.19	217.36
377.57	217.30
377.95	217.16
378.33	217.09
378.71	216.90
379.09	216.90
379.47	216.88
379.84	216.77
380.22	216.73
380.60	216.64
380.98	216.59
381.36	216.58
381.73	216.50
382.11	216.53
382.49	216.53
382.87	216.48
383.25	216.43
383.62	216.60
384.00	216.50
384.38	216.49
384.76	216.47
385.13	216.51
385.51	216.51
385.89	216.50
386.27	216.48
386.64	216.47
387.02	216.43
387.40	216.39
387.78	216.38
388.15	216.34
388.53	216.33
388.91	216.31
389.29	216.24
389.66	216.27
390.04	216.22
390.42	216.18
390.79	216.16
391.17	216.13
391.55	215.92
391.92	215.94
392.30	215.98
392.68	215.92
393.05	215.91
393.43	215.90
393.81	215.92
394.18	215.89
394.56	215.92
394.94	215.94
395.31	215.92
395.69	216.00
396.06	216.05
396.44	216.08
396.82	216.09
397.19	216.24
397.57	216.21
397.95	216.24
398.32	216.22
398.70	216.26
399.07	216.35
399.45	216.35
399.82	216.40
400.20	216.39
400.58	216.46
400.95	216.42
401.33	216.55
401.70	216.75
402.08	216.86
402.45	216.94
402.83	217.08
403.20	217.22
403.58	217.29
403.95	217.41
404.33	217.58
404.71	217.71
405.08	217.93
405.46	218.11
405.83	218.30
406.21	218.51
406.58	218.74
406.96	218.95
407.33	219.24
407.70	219.51
408.08	219.96
408.45	220.28
408.83	220.67
409.20	220.99
409.58	221.23
409.95	221.67
410.33	222.11
410.70	222.50
411.08	223.02
411.45	223.58
411.82	224.16
412.20	224.80
412.57	225.59
412.95	226.13
413.32	226.95
413.69	227.74
414.07	228.62
414.44	229.56
414.82	230.53
415.19	231.65
415.56	232.79
415.94	233.95
416.31	235.30
416.68	236.63
417.06	238.15
417.43	239.62
417.81	241.31
418.18	243.04
418.55	244.97
418.93	246.91
419.30	248.95
419.67	251.10
420.04	253.32
420.42	255.66
420.79	258.40
421.16	261.10
421.54	263.92
421.91	266.79
422.28	269.80
422.66	272.99
423.03	276.16
423.40	279.45
423.77	282.93
424.15	286.50
424.52	290.25
424.89	294.29
425.26	298.29
425.64	302.05
426.01	306.19
426.38	310.49
426.75	314.86
427.13	319.40
427.50	324.22
427.87	329.26
428.24	334.27
428.61	339.10
428.99	344.43
429.36	350.23
429.73	355.92
430.10	361.62
430.47	367.45
430.85	373.50
431.22	379.97
431.59	386.83
431.96	393.41
432.33	400.63
432.70	407.60
433.08	415.77
433.45	423.54
433.82	431.33
434.19	439.88
434.56	448.29
434.93	456.34
435.30	464.33
435.68	473.13
436.05	481.78
436.42	490.28
436.79	498.13
437.16	506.59
437.53	515.58
437.90	524.34
438.27	533.05
438.64	541.94
439.01	550.13
439.38	557.46
439.75	564.54
440.13	572.61
440.50	580.34
440.87	586.59
441.24	592.97
441.61	599.95
441.98	605.20
442.35	611.31
442.72	617.40
443.09	623.22
443.46	626.78
443.83	629.21
444.20	631.34
444.57	634.29
444.94	635.63
445.31	636.96
445.68	638.26
446.05	638.80
446.42	638.08
446.79	637.14
447.16	636.01
447.53	635.29
447.90	632.06
448.27	628.86
448.64	624.29
449.01	620.98
449.37	615.32
449.74	609.77
450.11	603.14
450.48	595.99
450.85	588.76
451.22	582.50
451.59	576.59
451.96	570.96
452.33	563.41
452.70	556.54
453.07	548.39
453.43	540.13
453.80	532.17
454.17	524.42
454.54	517.11
454.91	509.28
455.28	501.61
455.65	494.47
456.02	487.23
456.38	481.21
456.75	473.78
457.12	467.49
457.49	461.23
457.86	455.23
458.23	450.15
458.59	444.53
458.96	438.80
459.33	433.68
459.70	428.59
460.07	424.56
460.43	419.91
460.80	415.45
461.17	411.63
461.54	407.58
461.91	403.72
462.27	399.83
462.64	396.52
463.01	392.84
463.38	389.29
463.74	385.73
464.11	382.59
464.48	379.82
464.85	376.79
465.21	374.46
465.58	371.98
465.95	368.87
466.32	366.33
466.68	363.81
467.05	361.32
467.42	358.84
467.78	356.22
468.15	353.80
468.52	352.05
468.88	349.68
469.25	347.51
469.62	345.81
469.98	343.98
470.35	342.24
470.72	340.63
471.08	338.98
471.45	337.53
471.82	336.07
472.18	334.50
472.55	333.36
472.92	332.02
473.28	330.85
473.65	329.76
474.02	328.70
474.38	327.86
474.75	327.17
475.11	326.38
475.48	325.85
475.85	325.39
476.21	324.93
476.58	324.57
476.94	324.40
477.31	324.15
477.67	323.90
478.04	323.77
478.41	323.77
478.77	323.97
479.14	323.97
479.50	324.15
479.87	324.42
480.23	324.78
480.60	325.05
480.96	325.36
481.33	325.95
481.69	326.54
482.06	327.10
482.42	327.59
482.79	328.21
483.15	329.00
483.52	329.99
483.88	330.90
484.25	331.91
484.61	332.89
484.98	333.93
485.34	335.24
485.71	336.66
486.07	338.06
486.44	339.32
486.80	340.93
487.17	342.58
487.53	344.44
487.90	346.28
488.26	348.32
488.62	350.46
488.99	352.49
489.35	354.67
489.72	357.05
490.08	359.49
490.44	362.05
490.81	364.81
491.17	367.50
491.54	370.49
491.90	373.47
492.26	376.83
492.63	380.23
492.99	383.72
493.36	387.33
493.72	391.19
494.08	395.27
494.45	399.44
494.81	403.84
495.17	408.28
495.54	412.97
495.90	417.76
496.26	422.65
496.63	427.89
496.99	433.25
497.35	438.82
497.72	444.70
498.08	450.63
498.44	456.62
498.80	462.96
499.17	469.41
499.53	476.10
499.89	482.85
500.26	489.83
500.62	496.85
500.98	504.26
501.34	511.70
501.71	519.34
502.07	527.11
502.43	535.01
502.79	543.05
503.16	551.44
503.52	560.00
503.88	568.67
504.24	577.53
504.60	586.50
504.97	595.72
505.33	604.95
505.69	614.78
506.05	624.65
506.41	634.52
506.78	644.55
507.14	654.71
507.50	665.17
507.86	675.73
508.22	686.44
508.59	697.06
508.95	708.01
509.31	719.20
509.67	730.58
510.03	742.03
510.39	753.80
510.75	765.51
511.12	777.38
511.48	789.43
511.84	801.52
512.20	813.78
512.56	826.24
512.92	838.94
513.28	851.44
513.64	864.07
514.00	876.79
514.37	889.62
514.73	902.63
515.09	915.40
515.45	928.21
515.81	941.17
516.17	954.32
516.53	967.42
516.89	980.47
517.25	993.45
517.61	1006.68
517.97	1019.83
518.33	1032.89
518.69	1046.14
519.05	1059.66
519.41	1073.27
519.77	1086.95
520.13	1100.11
520.49	1113.03
520.85	1126.27
521.21	1139.34
521.57	1152.75
521.93	1165.69
522.29	1179.31
522.65	1192.77
523.01	1206.16
523.37	1219.06
523.73	1232.18
524.09	1245.11
524.45	1258.25
524.81	1271.57
525.17	1284.70
525.53	1297.61
525.89	1310.69
526.25	1323.68
526.61	1336.23
526.97	1349.06
527.33	1361.71
527.68	1374.84
528.04	1388.17
528.40	1400.85
528.76	1413.95
529.12	1426.56
529.48	1439.40
529.84	1451.41
530.20	1463.78
530.56	1476.15
530.91	1489.15
531.27	1501.72
531.63	1514.22
531.99	1526.79
532.35	1538.60
532.71	1550.78
533.07	1563.33
533.42	1575.11
533.78	1586.73
534.14	1598.57
534.50	1609.43
534.86	1620.79
535.21	1631.30
535.57	1642.41
535.93	1653.40
536.29	1664.28
536.65	1675.47
537.00	1686.26
537.36	1697.24
537.72	1708.04
538.08	1718.99
538.44	1729.61
538.79	1740.40
539.15	1750.83
539.51	1761.10
539.87	1772.24
540.22	1782.62
540.58	1793.25
540.94	1803.88
541.29	1813.92
541.65	1823.35
542.01	1833.65
542.37	1843.42
542.72	1853.44
543.08	1862.84
543.44	1873.10
543.79	1882.12
544.15	1891.16
544.51	1900.86
544.87	1910.40
545.22	1919.25
545.58	1927.86
545.94	1936.34
546.29	1944.56
546.65	1952.85
547.01	1960.94
547.36	1968.43
547.72	1976.01
548.07	1983.40
548.43	1990.88
548.79	1998.56
549.14	2006.58
549.50	2014.70
549.86	2022.24
550.21	2029.30
550.57	2036.76
550.92	2043.39
551.28	2050.60
551.64	2057.84
551.99	2065.04
552.35	2072.01
552.70	2078.56
553.06	2085.18
553.41	2091.38
553.77	2097.64
554.13	2103.84
554.48	2110.64
554.84	2117.37
555.19	2123.66
555.55	2130.14
555.90	2136.37
556.26	2142.96
556.61	2148.76
556.97	2153.52
557.32	2159.32
557.68	2165.69
558.03	2171.30
558.39	2176.44
558.74	2182.36
559.10	2187.83
559.45	2193.38
559.81	2198.89
560.16	2204.68
560.52	2210.37
560.87	2216.75
561.23	2222.80
561.58	2229.42
561.94	2234.55
562.29	2239.40
562.64	2245.56
563.00	2250.89
563.35	2256.55
563.71	2262.44
564.06	2268.03
564.42	2274.07
564.77	2279.17
565.12	2284.41
565.48	2289.89
565.83	2295.44
566.19	2300.93
566.54	2306.29
566.89	2310.94
567.25	2315.43
567.60	2320.98
567.96	2326.22
568.31	2330.81
568.66	2335.06
569.02	2338.88
569.37	2342.69
569.72	2347.25
570.08	2350.86
570.43	2354.15
570.78	2357.25
571.14	2359.80
571.49	2362.98
571.84	2366.56
572.20	2369.54
572.55	2372.69
572.90	2374.91
573.26	2378.06
573.61	2380.48
573.96	2382.75
574.31	2384.80
574.67	2386.89
575.02	2387.93
575.37	2389.37
575.72	2390.48
576.08	2392.15
576.43	2392.59
576.78	2393.40
577.13	2395.21
577.49	2396.40
577.84	2397.79
578.19	2399.28
578.54	2400.19
578.90	2401.31
579.25	2401.28
579.60	2401.38
579.95	2400.88
580.30	2401.26
580.66	2400.69
581.01	2399.32
581.36	2397.32
581.71	2396.24
582.06	2395.46
582.42	2394.75
582.77	2392.89
583.12	2391.22
583.47	2390.09
583.82	2389.75
584.17	2388.79
584.53	2386.64
584.88	2384.80
585.23	2382.89
585.58	2380.81
585.93	2378.80
586.28	2376.76
586.63	2374.68
586.98	2372.71
587.34	2370.88
587.69	2368.67
588.04	2366.73
588.39	2365.37
588.74	2363.02
589.09	2360.53
589.44	2357.50
589.79	2355.21
590.14	2353.49
590.49	2350.83
590.84	2347.16
591.19	2344.33
591.54	2341.05
591.89	2337.19
592.25	2334.17
592.60	2330.17
592.95	2326.17
593.30	2322.30
593.65	2317.98
594.00	2313.69
594.35	2310.64
594.70	2306.11
595.05	2301.53
595.40	2296.26
595.75	2290.87
596.10	2287.34
596.45	2282.56
596.80	2278.07
597.15	2272.99
597.50	2267.20
597.85	2262.52
598.19	2257.34
598.54	2251.56
598.89	2246.71
599.24	2242.36
599.59	2236.26
599.94	2230.76
600.29	2224.94
600.64	2219.06
600.99	2212.51
601.34	2207.18
601.69	2200.36
602.04	2194.02
602.39	2187.65
602.74	2181.67
603.08	2176.13
603.43	2169.72
603.78	2162.83
604.13	2155.92
604.48	2148.77
604.83	2142.68
605.18	2136.35
605.53	2129.44
605.87	2122.39
606.22	2115.54
606.57	2107.73
606.92	2099.99
607.27	2093.07
607.62	2086.62
607.96	2079.66
608.31	2073.22
608.66	2065.32
609.01	2057.76
609.36	2050.63
609.70	2042.89
610.05	2035.13
610.40	2026.96
610.75	2018.75
611.10	2011.31
611.44	2002.68
611.79	1994.07
612.14	1984.14
612.49	1973.78
612.83	1964.70
613.18	1955.61
613.53	1946.22
613.88	1936.66
614.22	1928.08
614.57	1918.20
614.92	1907.63
615.27	1897.59
615.61	1887.68
615.96	1878.12
616.31	1868.57
616.65	1859.41
617.00	1849.69
617.35	1840.17
617.70	1830.48
618.04	1820.34
618.39	1810.01
618.74	1800.29
619.08	1790.64
619.43	1782.06
619.78	1773.75
620.12	1765.00
620.47	1755.22
620.82	1745.11
621.16	1735.33
621.51	1725.23
621.85	1715.36
622.20	1704.94
622.55	1694.35
622.89	1684.52
623.24	1675.02
623.59	1665.27
623.93	1655.10
624.28	1645.42
624.62	1635.20
624.97	1624.90
625.32	1615.39
625.66	1606.66
626.01	1597.73
626.35	1588.25
626.70	1578.22
627.04	1568.17
627.39	1558.15
627.73	1548.93
628.08	1539.82
628.43	1530.25
628.77	1521.14
629.12	1512.28
629.46	1504.40
629.81	1495.93
630.15	1486.23
630.50	1476.29
630.84	1465.90
631.19	1456.03
631.53	1446.50
631.88	1436.38
632.22	1426.38
632.57	1416.98
632.91	1406.81
633.26	1397.05
633.60	1387.58
633.95	1378.21
634.29	1368.83
634.64	1359.43
634.98	1349.51
635.32	1340.17
635.67	1331.68
636.01	1322.46
636.36	1312.61
636.70	1303.01
637.05	1293.65
637.39	1284.69
637.73	1275.97
638.08	1268.41
638.42	1260.10
638.77	1251.48
639.11	1243.19
639.45	1235.37
639.80	1226.70
640.14	1218.09
640.49	1209.27
640.83	1200.32
641.17	1192.21
641.52	1183.92
641.86	1175.33
642.20	1167.51
642.55	1159.02
642.89	1150.14
643.23	1141.43
643.58	1133.44
643.92	1124.44
644.26	1115.88
644.61	1107.53
644.95	1098.84
645.29	1089.55
645.64	1080.41
645.98	1071.90
646.32	1064.06
646.66	1055.53
647.01	1047.17
647.35	1038.98
647.69	1030.55
648.04	1022.33
648.38	1013.34
648.72	1004.58
649.06	996.22
649.41	988.08
649.75	980.04
650.09	972.22
650.43	964.17
650.78	955.96
651.12	948.47
651.46	941.06
651.80	933.84
652.14	926.49
652.49	919.05
652.83	911.71
653.17	904.01
653.51	896.43
653.85	889.21
654.20	882.01
654.54	874.52
654.88	867.36
655.22	860.33
655.56	853.48
655.90	846.73
656.25	840.08
656.59	833.10
656.93	826.13
657.27	819.01
657.61	812.23
657.95	806.18
658.29	800.35
658.64	794.25
658.98	787.86
659.32	781.38
659.66	775.12
660.00	768.91
660.34	762.96
660.68	756.86
661.02	750.66
661.36	744.72
661.70	738.98
662.05	733.39
662.39	727.89
662.73	722.61
663.07	717.38
663.41	711.83
663.75	706.28
664.09	700.78
664.43	695.48
664.77	690.14
665.11	684.31
665.45	678.37
665.79	672.57
666.13	666.87
666.47	661.46
666.81	656.17
667.15	650.95
667.49	645.82
667.83	640.61
668.17	635.41
668.51	630.39
668.85	625.59
669.19	620.77
669.53	615.82
669.87	610.71
670.21	605.99
670.55	601.33
670.89	597.01
671.23	592.76
671.57	588.49
671.91	584.26
672.25	580.23
672.58	576.15
672.92	572.19
673.26	568.40
673.60	564.62
673.94	560.82
674.28	557.15
674.62	553.39
674.96	549.73
675.30	546.26
675.64	542.67
675.97	539.12
676.31	535.55
676.65	531.95
676.99	528.54
677.33	524.75
677.67	521.16
678.01	517.29
678.34	513.64
678.68	510.08
679.02	506.50
679.36	502.84
679.70	499.26
680.04	495.79
680.37	492.34
680.71	489.07
681.05	485.95
681.39	482.83
681.73	479.80
682.06	476.85
682.40	473.76
682.74	470.62
683.08	467.42
683.42	464.31
683.75	461.44
684.09	458.52
684.43	455.73
684.77	452.87
685.10	450.08
685.44	447.26
685.78	444.48
686.12	441.79
686.45	439.14
686.79	436.54
687.13	434.09
687.46	431.51
687.80	428.87
688.14	426.10
688.48	423.53
688.81	420.89
689.15	418.32
689.49	415.78
689.82	413.32
690.16	410.81
690.50	408.39
690.83	405.89
691.17	403.42
691.51	401.00
691.84	398.83
692.18	396.67
692.52	394.50
692.85	392.36
693.19	390.29
693.52	388.14
693.86	385.96
694.20	383.81
694.53	381.76
694.87	379.66
695.21	377.59
695.54	375.48
695.88	373.36
696.21	371.25
696.55	369.21
696.88	367.20
697.22	365.28
697.56	363.45
697.89	361.62
698.23	359.91
698.56	358.16
698.90	356.44
699.23	354.57
699.57	352.76
699.90	350.93
700.24	349.15
700.58	347.42
700.91	345.82
701.25	344.27
701.58	342.66
701.92	341.06
702.25	339.52
702.59	337.90
702.92	336.40
703.26	334.88
703.59	333.45
703.93	332.25
704.26	330.87
704.60	329.40
704.93	327.96
705.26	326.44
705.60	325.01
705.93	323.57
706.27	322.30
706.60	321.03
706.94	319.83
707.27	318.44
707.61	317.17
707.94	315.81
708.27	314.32
708.61	312.94
708.94	311.58
709.28	310.29
709.61	309.14
709.94	307.95
710.28	306.77
710.61	305.60
710.95	304.14
711.28	303.05
711.61	301.91
711.95	300.85
712.28	299.70
712.61	298.58
712.95	297.50
713.28	296.48
713.61	295.38
713.95	294.25
714.28	293.27
714.61	292.20
714.95	291.25
715.28	290.28
715.61	289.28
715.95	288.41
716.28	287.49
716.61	286.59
716.95	285.61
717.28	284.69
717.61	283.73
717.94	282.91
718.28	281.93
718.61	281.05
718.94	280.14
719.27	279.29
719.61	278.50
719.94	277.68
720.27	276.71
720.60	275.95
720.94	275.22
721.27	274.49
721.60	273.90
721.93	273.19
722.27	272.53
722.60	271.87
722.93	271.18
723.26	270.55
723.59	269.84
723.93	269.21
724.26	268.59
724.59	268.01
724.92	267.46
725.25	266.93
725.59	266.42
725.92	265.94
726.25	265.41
726.58	264.84
726.91	264.26
727.24	263.80
727.57	263.21
727.91	262.64
728.24	262.12
728.57	261.49
728.90	260.91
729.23	260.36
729.56	259.94
729.89	259.41
730.22	258.84
730.55	258.30
730.89	257.80
731.22	257.30
731.55	256.77
731.88	256.23
732.21	255.68
732.54	255.13
732.87	254.61
733.20	254.15
733.53	253.67
733.86	253.21
734.19	252.69
734.52	252.27
734.85	251.96
735.18	251.45
735.51	251.11
735.84	250.72
736.17	250.36
736.50	249.84
736.83	249.66
737.16	249.31
737.49	248.91
737.82	248.54
738.15	248.22
738.48	247.89
738.81	247.51
739.14	247.12
739.47	246.75
739.80	246.40
740.13	246.02
740.46	245.64
740.79	245.28
741.12	244.96
741.45	244.60
741.78	244.17
742.11	243.94
742.44	243.56
742.77	243.29
743.10	242.93
743.43	242.57
743.75	242.04
744.08	241.97
744.41	241.66
744.74	241.33
745.07	240.93
745.40	240.65
745.73	240.43
746.06	240.14
746.39	239.83
746.71	239.46
747.04	239.15
747.37	238.85
747.70	238.52
748.03	238.22
748.36	237.96
748.68	237.65
749.01	237.31
749.34	237.04
749.67	236.73
750.00	236.50
750.33	236.41
750.65	236.18
750.98	235.67
751.31	235.45
751.64	235.20
751.97	235.06
752.29	234.79
752.62	234.44
752.95	234.19
753.28	233.93
753.60	233.71
753.93	233.52
754.26	233.32
754.59	233.07
754.91	232.84
755.24	232.58
755.57	232.34
755.90	232.11
756.22	231.89
756.55	231.65
756.88	231.40
757.20	231.04
757.53	230.80
757.86	230.57
758.19	230.35
758.51	230.17
758.84	229.90
759.17	229.69
759.49	229.54
759.82	229.46
760.15	229.33
760.47	229.11
760.80	228.87
761.13	228.74
761.45	228.58
761.78	228.39
762.11	228.24
762.43	228.08
762.76	227.94
763.08	227.79
763.41	227.64
763.74	227.48
764.06	227.36
764.39	227.18
764.71	227.02
765.04	226.89
765.37	226.69
765.69	226.52
766.02	226.36
766.34	226.20
766.67	225.95
767.00	225.86
767.32	225.87
767.65	225.92
767.97	225.78
768.30	225.67
768.62	225.54
768.95	225.41
769.27	225.32
769.60	225.22
769.92	225.07
770.25	224.89
770.57	224.74
770.90	224.61
771.22	224.49
771.55	224.43
771.87	224.33
772.20	224.22
772.52	224.29
772.85	224.46
773.17	224.35
773.50	224.27
773.82	224.13
774.15	223.95
774.47	223.69
774.80	223.54
775.12	223.44
775.45	223.35
775.77	223.26
776.09	223.16
776.42	223.06
776.74	223.06
777.07	222.99
777.39	222.92
777.72	222.82
778.04	222.80
778.36	222.69
778.69	222.61
779.01	222.57
779.33	222.33
779.66	222.03
779.98	221.92
780.31	221.85
780.63	221.86
780.95	221.83
781.28	221.75
781.60	221.70
781.92	221.62
782.25	221.61
782.57	221.55
782.89	221.48
783.22	221.42
783.54	221.28
783.86	221.23
784.19	221.16
784.51	221.19
784.83	221.10
785.16	221.05
785.48	221.01
785.80	220.94
786.12	220.90
