SpectraSuite Data File
++++++++++++++++++++++++++++++++++++
Date: Tue Jan 29 16:06:01 EST 2013
User: group
Dark Spectrum Present: No
Reference Spectrum Present: No
Number of Sampled Component Spectra: 1
Spectrometers: USB2E7196
Integration Time (usec): 65000 (USB2E7196)
Spectra Averaged: 100 (USB2E7196)
Boxcar Smoothing: 10 (USB2E7196)
Correct for Electrical Dark: No (USB2E7196)
Strobe/Lamp Enabled: No (USB2E7196)
Correct for Detector Non-linearity: No (USB2E7196)
Correct for Stray Light: No (USB2E7196)
Number of Pixels in Processed Spectrum: 2048
>>>>>Begin Processed Spectral Data<<<<<
339.09	0.00
339.48	203.20
339.86	204.47
340.24	204.99
340.63	207.42
341.01	211.40
341.39	209.83
341.78	211.60
342.16	212.00
342.54	212.78
342.93	201.95
343.31	212.15
343.69	212.66
344.07	213.08
344.46	213.58
344.84	213.97
345.22	214.16
345.60	214.43
345.99	214.60
346.37	214.75
346.75	214.87
347.13	214.93
347.52	215.03
347.90	215.15
348.28	215.19
348.66	215.27
349.05	215.26
349.43	215.34
349.81	215.35
350.19	215.41
350.57	215.50
350.96	215.59
351.34	215.69
351.72	215.80
352.10	215.95
352.48	215.99
352.87	216.04
353.25	216.08
353.63	216.14
354.01	216.21
354.39	216.33
354.77	216.39
355.15	216.50
355.54	216.54
355.92	216.52
356.30	216.60
356.68	216.82
357.06	216.87
357.44	216.90
357.82	216.98
358.20	217.05
358.58	217.10
358.97	217.16
359.35	217.25
359.73	217.34
360.11	217.42
360.49	217.47
360.87	217.51
361.25	217.61
361.63	217.70
362.01	217.75
362.39	217.75
362.77	217.83
363.15	217.84
363.53	217.90
363.91	217.95
364.29	217.96
364.67	217.79
365.05	217.81
365.43	217.88
365.81	217.90
366.19	217.96
366.57	218.06
366.95	218.08
367.33	218.04
367.71	218.02
368.09	218.04
368.47	218.04
368.85	218.04
369.23	218.05
369.61	217.98
369.99	218.05
370.37	218.05
370.75	218.10
371.13	218.04
371.51	217.99
371.89	217.99
372.27	217.98
372.65	217.95
373.03	217.92
373.41	217.84
373.78	217.79
374.16	217.68
374.54	217.61
374.92	217.57
375.30	217.52
375.68	217.47
376.06	217.43
376.44	217.36
376.82	217.33
377.19	217.27
377.57	217.22
377.95	217.08
378.33	217.03
378.71	216.87
379.09	216.85
379.47	216.84
379.84	216.75
380.22	216.69
380.60	216.65
380.98	216.61
381.36	216.56
381.73	216.52
382.11	216.54
382.49	216.44
382.87	216.34
383.25	216.33
383.62	216.52
384.00	216.44
384.38	216.42
384.76	216.41
385.13	216.44
385.51	216.41
385.89	216.38
386.27	216.33
386.64	216.33
387.02	216.26
387.40	216.20
387.78	216.18
388.15	216.17
388.53	216.12
388.91	216.11
389.29	216.08
389.66	216.08
390.04	216.02
390.42	216.07
390.79	216.09
391.17	216.10
391.55	215.86
391.92	215.84
392.30	215.85
392.68	215.81
393.05	215.79
393.43	215.78
393.81	215.77
394.18	215.76
394.56	215.78
394.94	215.85
395.31	215.82
395.69	215.93
396.06	215.96
396.44	215.99
396.82	215.97
397.19	216.10
397.57	216.12
397.95	216.17
398.32	216.11
398.70	216.15
399.07	216.20
399.45	216.25
399.82	216.28
400.20	216.30
400.58	216.36
400.95	216.33
401.33	216.48
401.70	216.68
402.08	216.79
402.45	216.86
402.83	217.00
403.20	217.16
403.58	217.21
403.95	217.34
404.33	217.50
404.71	217.65
405.08	217.88
405.46	218.00
405.83	218.21
406.21	218.44
406.58	218.65
406.96	218.84
407.33	219.07
407.70	219.39
408.08	219.84
408.45	220.18
408.83	220.56
409.20	220.87
409.58	221.14
409.95	221.56
410.33	222.06
410.70	222.45
411.08	222.96
411.45	223.55
411.82	224.12
412.20	224.79
412.57	225.56
412.95	226.12
413.32	226.95
413.69	227.73
414.07	228.61
414.44	229.58
414.82	230.58
415.19	231.71
415.56	232.86
415.94	234.01
416.31	235.34
416.68	236.69
417.06	238.24
417.43	239.71
417.81	241.40
418.18	243.08
418.55	244.97
418.93	246.92
419.30	248.92
419.67	251.07
420.04	253.29
420.42	255.60
420.79	258.35
421.16	261.00
421.54	263.81
421.91	266.67
422.28	269.65
422.66	272.84
423.03	275.99
423.40	279.21
423.77	282.68
424.15	286.21
424.52	289.95
424.89	293.97
425.26	297.96
425.64	301.70
426.01	305.85
426.38	310.15
426.75	314.54
427.13	319.14
427.50	323.92
427.87	328.90
428.24	333.91
428.61	338.74
428.99	344.06
429.36	349.87
429.73	355.55
430.10	361.22
430.47	367.09
430.85	373.21
431.22	379.73
431.59	386.64
431.96	393.24
432.33	400.44
432.70	407.50
433.08	415.69
433.45	423.49
433.82	431.23
434.19	439.87
434.56	448.28
434.93	456.30
435.30	464.32
435.68	473.16
436.05	481.83
436.42	490.40
436.79	498.28
437.16	506.72
437.53	515.66
437.90	524.47
438.27	533.07
438.64	541.91
439.01	550.09
439.38	557.38
439.75	564.44
440.13	572.56
440.50	580.18
440.87	586.40
441.24	592.80
441.61	599.84
441.98	604.92
442.35	611.00
442.72	617.10
443.09	622.89
443.46	626.54
443.83	628.97
444.20	631.09
444.57	634.11
444.94	635.49
445.31	636.85
445.68	638.15
446.05	638.79
446.42	638.03
446.79	637.10
447.16	636.03
447.53	635.31
447.90	632.07
448.27	628.86
448.64	624.35
449.01	621.14
449.37	615.45
449.74	610.01
450.11	603.34
450.48	596.19
450.85	589.02
451.22	582.64
451.59	576.70
451.96	571.02
452.33	563.42
452.70	556.58
453.07	548.42
453.43	540.21
453.80	532.18
454.17	524.52
454.54	517.22
454.91	509.33
455.28	501.62
455.65	494.54
456.02	487.36
456.38	481.32
456.75	473.80
457.12	467.51
457.49	461.26
457.86	455.35
458.23	450.17
458.59	444.46
458.96	438.72
459.33	433.67
459.70	428.56
460.07	424.49
460.43	419.86
460.80	415.52
461.17	411.63
461.54	407.61
461.91	403.75
462.27	399.82
462.64	396.49
463.01	392.84
463.38	389.24
463.74	385.64
464.11	382.43
464.48	379.66
464.85	376.68
465.21	374.33
465.58	371.74
465.95	368.68
466.32	366.18
466.68	363.71
467.05	361.20
467.42	358.77
467.78	356.18
468.15	353.69
468.52	351.84
468.88	349.41
469.25	347.30
469.62	345.59
469.98	343.77
470.35	342.07
470.72	340.47
471.08	338.77
471.45	337.38
471.82	335.97
472.18	334.41
472.55	333.25
472.92	331.92
473.28	330.84
473.65	329.75
474.02	328.68
474.38	327.85
474.75	327.14
475.11	326.35
475.48	325.85
475.85	325.47
476.21	325.04
476.58	324.76
476.94	324.57
477.31	324.28
477.67	324.01
478.04	323.92
478.41	323.89
478.77	324.06
479.14	324.02
479.50	324.19
479.87	324.44
480.23	324.77
480.60	325.05
480.96	325.33
481.33	326.02
481.69	326.61
482.06	327.15
482.42	327.65
482.79	328.26
483.15	328.99
483.52	329.90
483.88	330.78
484.25	331.75
484.61	332.71
484.98	333.74
485.34	335.05
485.71	336.42
486.07	337.90
486.44	339.24
486.80	340.86
487.17	342.50
487.53	344.39
487.90	346.28
488.26	348.31
488.62	350.47
488.99	352.48
489.35	354.65
489.72	357.03
490.08	359.58
490.44	362.18
490.81	364.90
491.17	367.56
491.54	370.55
491.90	373.59
492.26	376.83
492.63	380.25
492.99	383.71
493.36	387.40
493.72	391.23
494.08	395.17
494.45	399.33
494.81	403.66
495.17	408.04
495.54	412.73
495.90	417.50
496.26	422.40
496.63	427.57
496.99	432.91
497.35	438.41
497.72	444.17
498.08	450.07
498.44	456.12
498.80	462.56
499.17	468.99
499.53	475.67
499.89	482.56
500.26	489.47
500.62	496.55
500.98	503.87
501.34	511.31
501.71	519.08
502.07	526.83
502.43	534.86
502.79	542.94
503.16	551.29
503.52	559.91
503.88	568.57
504.24	577.50
504.60	586.53
504.97	595.71
505.33	605.04
505.69	614.84
506.05	624.72
506.41	634.45
506.78	644.47
507.14	654.66
507.50	665.06
507.86	675.77
508.22	686.52
508.59	697.14
508.95	708.22
509.31	719.48
509.67	730.97
510.03	742.36
510.39	754.13
510.75	765.94
511.12	777.82
511.48	789.87
511.84	802.11
512.20	814.41
512.56	827.06
512.92	839.73
513.28	852.27
513.64	864.93
514.00	877.67
514.37	890.49
514.73	903.45
515.09	916.34
515.45	929.03
515.81	941.93
516.17	955.23
516.53	968.31
516.89	981.29
517.25	994.26
517.61	1007.58
517.97	1020.78
518.33	1033.69
518.69	1047.01
519.05	1060.59
519.41	1074.00
519.77	1087.64
520.13	1100.69
520.49	1113.57
520.85	1126.77
521.21	1139.88
521.57	1153.47
521.93	1166.48
522.29	1180.06
522.65	1193.59
523.01	1207.02
523.37	1220.04
523.73	1233.03
524.09	1245.88
524.45	1259.03
524.81	1272.31
525.17	1285.42
525.53	1298.31
525.89	1311.37
526.25	1324.13
526.61	1336.60
526.97	1349.45
527.33	1362.14
527.68	1375.42
528.04	1388.69
528.40	1401.49
528.76	1414.54
529.12	1427.05
529.48	1440.06
529.84	1451.94
530.20	1464.31
530.56	1476.69
530.91	1489.67
531.27	1502.28
531.63	1514.81
531.99	1527.23
532.35	1539.22
532.71	1551.39
533.07	1563.90
533.42	1575.84
533.78	1587.66
534.14	1599.57
534.50	1610.48
534.86	1621.81
535.21	1632.32
535.57	1643.40
535.93	1654.56
536.29	1665.40
536.65	1676.65
537.00	1687.22
537.36	1698.29
537.72	1709.02
538.08	1719.99
538.44	1730.57
538.79	1741.26
539.15	1751.80
539.51	1762.18
539.87	1773.13
540.22	1783.66
540.58	1794.35
540.94	1804.94
541.29	1815.01
541.65	1824.43
542.01	1834.73
542.37	1844.54
542.72	1854.47
543.08	1864.06
543.44	1874.14
543.79	1883.18
544.15	1892.23
544.51	1901.93
544.87	1911.61
545.22	1920.45
545.58	1929.17
545.94	1937.74
546.29	1946.03
546.65	1954.05
547.01	1962.13
547.36	1969.64
547.72	1977.15
548.07	1984.59
548.43	1992.06
548.79	1999.62
549.14	2007.47
549.50	2015.52
549.86	2023.07
550.21	2030.16
550.57	2037.65
550.92	2044.14
551.28	2051.47
551.64	2058.69
551.99	2066.05
552.35	2073.13
552.70	2079.76
553.06	2086.18
553.41	2092.20
553.77	2098.67
554.13	2104.97
554.48	2111.90
554.84	2118.72
555.19	2124.98
555.55	2131.38
555.90	2137.73
556.26	2144.47
556.61	2150.29
556.97	2155.19
557.32	2160.93
557.68	2167.31
558.03	2172.92
558.39	2178.17
558.74	2184.05
559.10	2189.49
559.45	2195.00
559.81	2200.27
560.16	2205.77
560.52	2211.71
560.87	2218.16
561.23	2224.11
561.58	2230.83
561.94	2235.80
562.29	2240.68
562.64	2246.75
563.00	2252.24
563.35	2257.72
563.71	2263.59
564.06	2269.34
564.42	2275.34
564.77	2280.52
565.12	2285.76
565.48	2290.97
565.83	2296.66
566.19	2302.16
566.54	2307.63
566.89	2312.26
567.25	2317.05
567.60	2322.79
567.96	2328.09
568.31	2332.67
568.66	2336.90
569.02	2340.80
569.37	2344.64
569.72	2349.05
570.08	2352.69
570.43	2355.84
570.78	2358.94
571.14	2361.51
571.49	2364.67
571.84	2368.20
572.20	2370.95
572.55	2373.99
572.90	2376.31
573.26	2379.26
573.61	2381.73
573.96	2383.96
574.31	2386.17
574.67	2388.13
575.02	2389.09
575.37	2390.44
575.72	2391.38
576.08	2392.93
576.43	2393.22
576.78	2394.11
577.13	2395.94
577.49	2397.11
577.84	2398.62
578.19	2400.29
578.54	2401.18
578.90	2402.36
579.25	2402.41
579.60	2402.72
579.95	2402.38
580.30	2402.77
580.66	2402.21
581.01	2400.86
581.36	2398.82
581.71	2397.49
582.06	2396.57
582.42	2395.92
582.77	2394.04
583.12	2392.63
583.47	2391.62
583.82	2391.34
584.17	2390.34
584.53	2388.34
584.88	2386.68
585.23	2384.80
585.58	2382.67
585.93	2380.64
586.28	2378.60
586.63	2376.40
586.98	2374.48
587.34	2372.65
587.69	2370.59
588.04	2368.69
588.39	2367.29
588.74	2364.98
589.09	2362.63
589.44	2359.84
589.79	2357.66
590.14	2355.98
590.49	2353.36
590.84	2349.77
591.19	2346.87
591.54	2343.64
591.89	2339.71
592.25	2336.46
592.60	2332.45
592.95	2328.49
593.30	2324.53
593.65	2320.25
594.00	2316.22
594.35	2313.22
594.70	2308.75
595.05	2304.09
595.40	2298.80
595.75	2293.44
596.10	2289.95
596.45	2285.14
596.80	2280.56
597.15	2275.49
597.50	2269.57
597.85	2264.85
598.19	2259.59
598.54	2253.96
598.89	2248.95
599.24	2244.61
599.59	2238.58
599.94	2232.94
600.29	2227.15
600.64	2221.39
600.99	2214.90
601.34	2209.41
601.69	2202.53
602.04	2196.13
602.39	2189.82
602.74	2183.97
603.08	2178.52
603.43	2171.90
603.78	2165.32
604.13	2158.31
604.48	2151.08
604.83	2145.14
605.18	2138.86
605.53	2132.13
605.87	2125.23
606.22	2118.51
606.57	2110.72
606.92	2103.00
607.27	2096.14
607.62	2089.54
607.96	2082.36
608.31	2075.86
608.66	2068.19
609.01	2060.70
609.36	2053.76
609.70	2046.08
610.05	2038.34
610.40	2029.96
610.75	2021.95
611.10	2014.36
611.44	2005.72
611.79	1997.05
612.14	1987.12
612.49	1976.61
612.83	1967.39
613.18	1958.23
613.53	1948.85
613.88	1939.30
614.22	1930.72
614.57	1920.84
614.92	1910.48
615.27	1900.63
615.61	1890.66
615.96	1880.98
616.31	1871.39
616.65	1862.05
617.00	1852.10
617.35	1842.37
617.70	1832.72
618.04	1822.62
618.39	1812.06
618.74	1802.44
619.08	1792.97
619.43	1784.24
619.78	1775.97
620.12	1767.21
620.47	1757.33
620.82	1747.22
621.16	1737.41
621.51	1727.45
621.85	1717.58
622.20	1707.04
622.55	1696.41
622.89	1686.50
623.24	1676.79
623.59	1667.09
623.93	1656.94
624.28	1647.33
624.62	1637.21
624.97	1626.94
625.32	1617.29
625.66	1608.59
626.01	1599.59
626.35	1590.15
626.70	1579.98
627.04	1569.86
627.39	1559.79
627.73	1550.60
628.08	1541.59
628.43	1531.95
628.77	1522.67
629.12	1513.80
629.46	1505.89
629.81	1497.49
630.15	1487.89
630.50	1477.99
630.84	1467.48
631.19	1457.56
631.53	1448.23
631.88	1438.19
632.22	1428.23
632.57	1418.72
632.91	1408.57
633.26	1398.72
633.60	1389.04
633.95	1379.78
634.29	1370.34
634.64	1360.92
634.98	1350.99
635.32	1341.59
635.67	1332.99
636.01	1323.91
636.36	1314.05
636.70	1304.57
637.05	1295.19
637.39	1286.19
637.73	1277.54
638.08	1269.96
638.42	1261.57
638.77	1252.65
639.11	1244.30
639.45	1236.38
639.80	1227.80
640.14	1219.12
640.49	1210.32
640.83	1201.52
641.17	1193.51
641.52	1185.26
641.86	1176.70
642.20	1168.79
642.55	1160.20
642.89	1151.45
643.23	1142.67
643.58	1134.59
643.92	1125.58
644.26	1116.92
644.61	1108.43
644.95	1099.74
645.29	1090.44
645.64	1081.42
645.98	1073.06
646.32	1065.22
646.66	1056.61
647.01	1048.22
647.35	1040.13
647.69	1031.76
648.04	1023.45
648.38	1014.37
648.72	1005.67
649.06	997.28
649.41	989.13
649.75	981.16
650.09	973.31
650.43	965.23
650.78	957.05
651.12	949.32
651.46	941.95
651.80	934.75
652.14	927.33
652.49	919.85
652.83	912.54
653.17	904.81
653.51	897.14
653.85	889.99
654.20	882.73
654.54	875.12
654.88	868.02
655.22	860.85
655.56	853.97
655.90	847.23
656.25	840.58
656.59	833.58
656.93	826.56
657.27	819.48
657.61	812.71
657.95	806.67
658.29	800.87
658.64	794.69
658.98	788.30
659.32	781.85
659.66	775.69
660.00	769.40
660.34	763.48
660.68	757.39
661.02	751.14
661.36	745.35
661.70	739.70
662.05	734.04
662.39	728.65
662.73	723.30
663.07	717.93
663.41	712.37
663.75	706.82
664.09	701.23
664.43	695.81
664.77	690.39
665.11	684.55
665.45	678.63
665.79	672.96
666.13	667.35
666.47	661.93
666.81	656.53
667.15	651.23
667.49	646.02
667.83	640.84
668.17	635.68
668.51	630.63
668.85	625.81
669.19	621.02
669.53	616.00
669.87	610.94
670.21	606.23
670.55	601.56
670.89	597.24
671.23	593.07
671.57	588.77
671.91	584.56
672.25	580.49
672.58	576.41
672.92	572.34
673.26	568.45
673.60	564.58
673.94	560.85
674.28	557.25
674.62	553.52
674.96	549.85
675.30	546.33
675.64	542.70
675.97	539.08
676.31	535.44
676.65	531.92
676.99	528.55
677.33	524.76
677.67	521.19
678.01	517.31
678.34	513.68
678.68	510.20
679.02	506.69
679.36	503.01
679.70	499.45
680.04	496.03
680.37	492.64
680.71	489.40
681.05	486.21
681.39	483.05
681.73	479.97
682.06	476.99
682.40	473.95
682.74	470.74
683.08	467.66
683.42	464.56
683.75	461.65
684.09	458.72
684.43	455.98
684.77	453.06
685.10	450.29
685.44	447.41
685.78	444.53
686.12	441.81
686.45	439.12
686.79	436.50
687.13	433.97
687.46	431.42
687.80	428.85
688.14	426.05
688.48	423.44
688.81	420.84
689.15	418.36
689.49	415.79
689.82	413.38
690.16	410.80
690.50	408.42
690.83	405.95
691.17	403.48
691.51	401.07
691.84	398.95
692.18	396.82
692.52	394.68
692.85	392.61
693.19	390.46
693.52	388.39
693.86	386.24
694.20	384.09
694.53	382.00
694.87	379.77
695.21	377.71
695.54	375.63
695.88	373.53
696.21	371.30
696.55	369.22
696.88	367.17
697.22	365.25
697.56	363.38
697.89	361.57
698.23	359.82
698.56	358.09
698.90	356.27
699.23	354.35
699.57	352.51
699.90	350.66
700.24	348.93
700.58	347.22
700.91	345.56
701.25	344.03
701.58	342.48
701.92	341.00
702.25	339.41
702.59	337.81
702.92	336.27
703.26	334.76
703.59	333.37
703.93	332.12
704.26	330.72
704.60	329.24
704.93	327.81
705.26	326.36
705.60	324.88
705.93	323.46
706.27	322.17
706.60	320.97
706.94	319.80
707.27	318.44
707.61	317.12
707.94	315.84
708.27	314.38
708.61	312.90
708.94	311.53
709.28	310.31
709.61	309.09
709.94	307.94
710.28	306.77
710.61	305.61
710.95	304.24
711.28	303.15
711.61	302.00
711.95	300.86
712.28	299.70
712.61	298.58
712.95	297.53
713.28	296.55
713.61	295.37
713.95	294.23
714.28	293.23
714.61	292.20
714.95	291.23
715.28	290.24
715.61	289.32
715.95	288.45
716.28	287.52
716.61	286.56
716.95	285.58
717.28	284.69
717.61	283.74
717.94	282.87
718.28	281.95
718.61	281.10
718.94	280.23
719.27	279.45
719.61	278.66
719.94	277.81
720.27	276.86
720.60	276.08
720.94	275.31
721.27	274.59
721.60	273.96
721.93	273.21
722.27	272.59
722.60	271.91
722.93	271.19
723.26	270.55
723.59	269.91
723.93	269.32
724.26	268.71
724.59	268.12
724.92	267.55
725.25	266.98
725.59	266.43
725.92	265.91
726.25	265.31
726.58	264.75
726.91	264.18
727.24	263.67
727.57	263.10
727.91	262.54
728.24	261.99
728.57	261.41
728.90	260.85
729.23	260.27
729.56	259.81
729.89	259.28
730.22	258.74
730.55	258.18
730.89	257.64
731.22	257.11
731.55	256.58
731.88	256.03
732.21	255.53
732.54	255.02
732.87	254.54
733.20	254.07
733.53	253.58
733.86	253.12
734.19	252.63
734.52	252.26
734.85	251.94
735.18	251.52
735.51	251.13
735.84	250.77
736.17	250.37
736.50	249.88
736.83	249.73
737.16	249.34
737.49	248.98
737.82	248.57
738.15	248.22
738.48	247.84
738.81	247.50
739.14	247.06
739.47	246.67
739.80	246.31
740.13	245.99
740.46	245.63
740.79	245.25
741.12	244.91
741.45	244.50
741.78	244.10
742.11	243.80
742.44	243.44
742.77	243.16
743.10	242.83
743.43	242.50
743.75	241.95
744.08	241.87
744.41	241.55
744.74	241.23
745.07	240.87
745.40	240.57
745.73	240.31
746.06	240.02
746.39	239.74
746.71	239.40
747.04	239.04
747.37	238.73
747.70	238.50
748.03	238.22
748.36	237.97
748.68	237.68
749.01	237.32
749.34	237.03
749.67	236.71
750.00	236.47
750.33	236.33
750.65	236.06
750.98	235.57
751.31	235.32
751.64	235.11
751.97	234.98
752.29	234.72
752.62	234.43
752.95	234.18
753.28	233.92
753.60	233.68
753.93	233.54
754.26	233.31
754.59	233.05
754.91	232.80
755.24	232.59
755.57	232.35
755.90	232.10
756.22	231.90
756.55	231.66
756.88	231.41
757.20	231.09
757.53	230.86
757.86	230.65
758.19	230.46
758.51	230.25
758.84	229.93
759.17	229.77
759.49	229.58
759.82	229.52
760.15	229.36
760.47	229.16
760.80	228.91
761.13	228.76
761.45	228.56
761.78	228.39
762.11	228.19
762.43	228.03
762.76	227.90
763.08	227.76
763.41	227.62
763.74	227.43
764.06	227.31
764.39	227.15
764.71	226.99
765.04	226.82
765.37	226.67
765.69	226.52
766.02	226.36
766.34	226.25
766.67	226.02
767.00	225.91
767.32	225.91
767.65	225.91
767.97	225.77
768.30	225.65
768.62	225.53
768.95	225.41
769.27	225.29
769.60	225.20
769.92	225.04
770.25	224.89
770.57	224.78
770.90	224.63
771.22	224.50
771.55	224.42
771.87	224.37
772.20	224.26
772.52	224.36
772.85	224.51
773.17	224.36
773.50	224.25
773.82	224.10
774.15	223.93
774.47	223.67
774.80	223.59
775.12	223.51
775.45	223.38
775.77	223.32
776.09	223.24
776.42	223.15
776.74	223.14
777.07	223.06
777.39	222.97
777.72	222.87
778.04	222.85
778.36	222.74
778.69	222.61
779.01	222.54
779.33	222.26
779.66	221.95
779.98	221.89
780.31	221.83
780.63	221.88
780.95	221.81
781.28	221.75
781.60	221.69
781.92	221.59
782.25	221.58
782.57	221.46
782.89	221.36
783.22	221.27
783.54	221.18
783.86	221.13
784.19	221.09
784.51	221.09
784.83	220.98
785.16	220.90
785.48	220.84
785.80	220.83
786.12	220.79
