SpectraSuite Data File
++++++++++++++++++++++++++++++++++++
Date: Tue Jan 29 15:54:16 EST 2013
User: group
Dark Spectrum Present: No
Reference Spectrum Present: No
Number of Sampled Component Spectra: 1
Spectrometers: USB2E7196
Integration Time (usec): 65000 (USB2E7196)
Spectra Averaged: 100 (USB2E7196)
Boxcar Smoothing: 10 (USB2E7196)
Correct for Electrical Dark: No (USB2E7196)
Strobe/Lamp Enabled: No (USB2E7196)
Correct for Detector Non-linearity: No (USB2E7196)
Correct for Stray Light: No (USB2E7196)
Number of Pixels in Processed Spectrum: 2048
>>>>>Begin Processed Spectral Data<<<<<
339.09	0.00
339.48	203.22
339.86	204.94
340.24	206.03
340.63	207.31
341.01	212.52
341.39	210.93
341.78	212.23
342.16	213.16
342.54	213.77
342.93	202.40
343.31	212.64
343.69	213.18
344.07	213.65
344.46	214.08
344.84	214.49
345.22	214.64
345.60	214.86
345.99	215.03
346.37	215.16
346.75	215.27
347.13	215.36
347.52	215.43
347.90	215.58
348.28	215.57
348.66	215.64
349.05	215.61
349.43	215.68
349.81	215.70
350.19	215.74
350.57	215.84
350.96	215.93
351.34	216.00
351.72	216.08
352.10	216.12
352.48	216.15
352.87	216.15
353.25	216.20
353.63	216.26
354.01	216.27
354.39	216.34
354.77	216.36
355.15	216.47
355.54	216.49
355.92	216.48
356.30	216.60
356.68	216.80
357.06	216.87
357.44	216.84
357.82	216.92
358.20	216.96
358.58	217.00
358.97	217.04
359.35	217.12
359.73	217.20
360.11	217.27
360.49	217.35
360.87	217.42
361.25	217.50
361.63	217.62
362.01	217.70
362.39	217.67
362.77	217.75
363.15	217.79
363.53	217.87
363.91	217.87
364.29	217.87
364.67	217.69
365.05	217.74
365.43	217.79
365.81	217.85
366.19	217.94
366.57	218.02
366.95	218.03
367.33	218.00
367.71	217.99
368.09	218.03
368.47	218.05
368.85	218.01
369.23	218.05
369.61	217.97
369.99	218.03
370.37	218.06
370.75	218.11
371.13	218.03
371.51	217.97
371.89	217.97
372.27	217.96
372.65	217.96
373.03	217.90
373.41	217.90
373.78	217.86
374.16	217.74
374.54	217.66
374.92	217.62
375.30	217.59
375.68	217.53
376.06	217.51
376.44	217.47
376.82	217.49
377.19	217.43
377.57	217.37
377.95	217.28
378.33	217.25
378.71	217.13
379.09	217.10
379.47	217.07
379.84	217.02
380.22	216.93
380.60	216.85
380.98	216.84
381.36	216.77
381.73	216.69
382.11	216.72
382.49	216.67
382.87	216.61
383.25	216.60
383.62	216.82
384.00	216.72
384.38	216.68
384.76	216.71
385.13	216.74
385.51	216.74
385.89	216.70
386.27	216.66
386.64	216.69
387.02	216.66
387.40	216.62
387.78	216.59
388.15	216.59
388.53	216.57
388.91	216.53
389.29	216.53
389.66	216.52
390.04	216.43
390.42	216.49
390.79	216.49
391.17	216.45
391.55	216.22
391.92	216.21
392.30	216.21
392.68	216.15
393.05	216.08
393.43	216.05
393.81	216.05
394.18	216.03
394.56	216.01
394.94	216.03
395.31	216.03
395.69	216.11
396.06	216.16
396.44	216.17
396.82	216.15
397.19	216.23
397.57	216.28
397.95	216.36
398.32	216.29
398.70	216.33
399.07	216.43
399.45	216.46
399.82	216.51
400.20	216.55
400.58	216.60
400.95	216.61
401.33	216.71
401.70	216.90
402.08	217.01
402.45	217.09
402.83	217.23
403.20	217.38
403.58	217.45
403.95	217.61
404.33	217.77
404.71	217.94
405.08	218.19
405.46	218.34
405.83	218.52
406.21	218.74
406.58	218.98
406.96	219.16
407.33	219.40
407.70	219.69
408.08	220.14
408.45	220.49
408.83	220.85
409.20	221.23
409.58	221.48
409.95	221.90
410.33	222.35
410.70	222.76
411.08	223.27
411.45	223.85
411.82	224.38
412.20	225.05
412.57	225.86
412.95	226.39
413.32	227.21
413.69	228.01
414.07	228.86
414.44	229.77
414.82	230.76
415.19	231.89
415.56	233.04
415.94	234.15
416.31	235.49
416.68	236.84
417.06	238.36
417.43	239.87
417.81	241.53
418.18	243.27
418.55	245.12
418.93	247.04
419.30	249.02
419.67	251.15
420.04	253.36
420.42	255.64
420.79	258.34
421.16	261.02
421.54	263.81
421.91	266.71
422.28	269.73
422.66	272.88
423.03	276.01
423.40	279.25
423.77	282.71
424.15	286.24
424.52	289.92
424.89	293.92
425.26	297.80
425.64	301.51
426.01	305.58
426.38	309.83
426.75	314.22
427.13	318.73
427.50	323.48
427.87	328.44
428.24	333.38
428.61	338.15
428.99	343.38
429.36	349.12
429.73	354.72
430.10	360.31
430.47	366.13
430.85	372.17
431.22	378.60
431.59	385.36
431.96	391.88
432.33	399.10
432.70	406.05
433.08	414.23
433.45	421.95
433.82	429.65
434.19	438.14
434.56	446.46
434.93	454.46
435.30	462.35
435.68	471.12
436.05	479.73
436.42	488.27
436.79	496.09
437.16	504.56
437.53	513.40
437.90	522.18
438.27	530.70
438.64	539.55
439.01	547.68
439.38	554.95
439.75	561.94
440.13	569.93
440.50	577.56
440.87	583.65
441.24	590.06
441.61	597.01
441.98	602.17
442.35	608.18
442.72	614.22
443.09	619.95
443.46	623.44
443.83	625.78
444.20	627.80
444.57	630.78
444.94	632.06
445.31	633.45
445.68	634.73
446.05	635.27
446.42	634.45
446.79	633.48
447.16	632.43
447.53	631.69
447.90	628.52
448.27	625.25
448.64	620.78
449.01	617.55
449.37	611.91
449.74	606.41
450.11	599.85
450.48	592.81
450.85	585.72
451.22	579.52
451.59	573.70
451.96	568.16
452.33	560.66
452.70	553.89
453.07	545.74
453.43	537.50
453.80	529.59
454.17	521.99
454.54	514.83
454.91	507.04
455.28	499.38
455.65	492.32
456.02	485.24
456.38	479.26
456.75	471.80
457.12	465.57
457.49	459.46
457.86	453.60
458.23	448.47
458.59	442.86
458.96	437.17
459.33	432.11
459.70	427.03
460.07	422.98
460.43	418.32
460.80	413.97
461.17	410.18
461.54	406.22
461.91	402.34
462.27	398.40
462.64	395.11
463.01	391.53
463.38	387.99
463.74	384.45
464.11	381.38
464.48	378.61
464.85	375.64
465.21	373.30
465.58	370.73
465.95	367.72
466.32	365.22
466.68	362.76
467.05	360.37
467.42	357.93
467.78	355.38
468.15	352.95
468.52	351.18
468.88	348.85
469.25	346.75
469.62	345.06
469.98	343.25
470.35	341.56
470.72	340.00
471.08	338.27
471.45	336.85
471.82	335.37
472.18	333.83
472.55	332.73
472.92	331.41
473.28	330.29
473.65	329.22
474.02	328.20
474.38	327.36
474.75	326.66
475.11	325.88
475.48	325.34
475.85	324.90
476.21	324.48
476.58	324.18
476.94	324.02
477.31	323.80
477.67	323.56
478.04	323.42
478.41	323.38
478.77	323.59
479.14	323.56
479.50	323.74
479.87	324.03
480.23	324.37
480.60	324.62
480.96	324.91
481.33	325.52
481.69	326.12
482.06	326.75
482.42	327.24
482.79	327.87
483.15	328.70
483.52	329.69
483.88	330.56
484.25	331.54
484.61	332.57
484.98	333.59
485.34	334.94
485.71	336.30
486.07	337.76
486.44	339.06
486.80	340.64
487.17	342.26
487.53	344.09
487.90	345.97
488.26	348.05
488.62	350.23
488.99	352.29
489.35	354.45
489.72	356.77
490.08	359.26
490.44	361.82
490.81	364.56
491.17	367.26
491.54	370.26
491.90	373.22
492.26	376.42
492.63	379.82
492.99	383.30
493.36	386.99
493.72	390.83
494.08	394.86
494.45	399.08
494.81	403.44
495.17	407.82
495.54	412.51
495.90	417.33
496.26	422.23
496.63	427.37
496.99	432.71
497.35	438.28
497.72	444.10
498.08	449.94
498.44	455.96
498.80	462.30
499.17	468.75
499.53	475.46
499.89	482.34
500.26	489.31
500.62	496.37
500.98	503.76
501.34	511.21
501.71	518.87
502.07	526.68
502.43	534.69
502.79	542.87
503.16	551.16
503.52	559.71
503.88	568.31
504.24	577.22
504.60	586.26
504.97	595.42
505.33	604.61
505.69	614.45
506.05	624.30
506.41	634.13
506.78	644.09
507.14	654.31
507.50	664.67
507.86	675.26
508.22	685.91
508.59	696.49
508.95	707.51
509.31	718.72
509.67	730.10
510.03	741.41
510.39	753.03
510.75	764.83
511.12	776.59
511.48	788.67
511.84	800.80
512.20	813.01
512.56	825.55
512.92	838.20
513.28	850.64
513.64	863.19
514.00	875.82
514.37	888.72
514.73	901.60
515.09	914.40
515.45	927.09
515.81	939.98
516.17	953.13
516.53	966.06
516.89	978.97
517.25	991.91
517.61	1005.14
517.97	1018.30
518.33	1031.24
518.69	1044.62
519.05	1058.18
519.41	1071.62
519.77	1085.15
520.13	1098.15
520.49	1111.11
520.85	1124.28
521.21	1137.42
521.57	1150.83
521.93	1163.65
522.29	1177.11
522.65	1190.55
523.01	1203.88
523.37	1216.78
523.73	1229.80
524.09	1242.67
524.45	1255.72
524.81	1268.85
525.17	1281.88
525.53	1294.65
525.89	1307.65
526.25	1320.28
526.61	1332.62
526.97	1345.30
527.33	1357.96
527.68	1370.98
528.04	1384.03
528.40	1396.75
528.76	1409.64
529.12	1422.12
529.48	1434.94
529.84	1446.80
530.20	1459.07
530.56	1471.35
530.91	1484.19
531.27	1496.62
531.63	1509.04
531.99	1521.49
532.35	1533.31
532.71	1545.23
533.07	1557.74
533.42	1569.43
533.78	1581.24
534.14	1592.99
534.50	1603.87
534.86	1615.02
535.21	1625.58
535.57	1636.69
535.93	1647.61
536.29	1658.23
536.65	1669.28
537.00	1679.82
537.36	1690.75
537.72	1701.23
538.08	1712.16
538.44	1722.71
538.79	1733.41
539.15	1743.77
539.51	1754.14
539.87	1765.10
540.22	1775.58
540.58	1786.30
540.94	1796.78
541.29	1806.57
541.65	1815.95
542.01	1826.19
542.37	1835.77
542.72	1845.56
543.08	1854.94
543.44	1864.92
543.79	1874.06
544.15	1883.09
544.51	1892.70
544.87	1902.02
545.22	1910.90
545.58	1919.42
545.94	1927.89
546.29	1935.86
546.65	1943.83
547.01	1951.52
547.36	1958.79
547.72	1966.12
548.07	1973.04
548.43	1980.43
548.79	1987.98
549.14	1995.63
549.50	2003.54
549.86	2011.13
550.21	2018.13
550.57	2025.49
550.92	2031.94
551.28	2038.78
551.64	2045.81
551.99	2052.96
552.35	2059.99
552.70	2066.50
553.06	2072.84
553.41	2078.84
553.77	2085.29
554.13	2091.46
554.48	2098.33
554.84	2105.15
555.19	2111.57
555.55	2117.91
555.90	2123.94
556.26	2130.49
556.61	2136.35
556.97	2141.02
557.32	2146.71
557.68	2153.06
558.03	2158.50
558.39	2163.57
558.74	2169.57
559.10	2175.03
559.45	2180.46
559.81	2185.91
560.16	2191.51
560.52	2197.24
560.87	2203.66
561.23	2209.48
561.58	2216.07
561.94	2221.19
562.29	2225.85
562.64	2231.92
563.00	2237.69
563.35	2243.44
563.71	2249.24
564.06	2254.90
564.42	2260.94
564.77	2266.10
565.12	2271.24
565.48	2276.54
565.83	2282.40
566.19	2287.89
566.54	2293.27
566.89	2297.94
567.25	2302.52
567.60	2308.08
567.96	2313.34
568.31	2317.76
568.66	2322.02
569.02	2325.90
569.37	2329.68
569.72	2334.24
570.08	2337.75
570.43	2340.63
570.78	2343.67
571.14	2346.28
571.49	2349.53
571.84	2353.17
572.20	2356.11
572.55	2359.38
572.90	2361.79
573.26	2364.80
573.61	2367.60
573.96	2369.89
574.31	2371.98
574.67	2374.17
575.02	2375.23
575.37	2376.79
575.72	2377.89
576.08	2379.53
576.43	2380.00
576.78	2380.90
577.13	2382.75
577.49	2384.27
577.84	2385.76
578.19	2387.35
578.54	2388.41
578.90	2389.54
579.25	2389.66
579.60	2389.91
579.95	2389.24
580.30	2389.60
580.66	2389.04
581.01	2387.62
581.36	2385.80
581.71	2384.86
582.06	2384.18
582.42	2383.73
582.77	2381.98
583.12	2380.62
583.47	2379.68
583.82	2379.49
584.17	2378.59
584.53	2376.74
584.88	2374.83
585.23	2373.38
585.58	2371.40
585.93	2369.43
586.28	2367.57
586.63	2365.38
586.98	2363.56
587.34	2362.03
587.69	2359.97
588.04	2358.26
588.39	2357.15
588.74	2354.93
589.09	2352.64
589.44	2349.69
589.79	2347.45
590.14	2345.76
590.49	2343.20
590.84	2339.70
591.19	2336.96
591.54	2334.03
591.89	2330.25
592.25	2327.39
592.60	2323.34
592.95	2319.64
593.30	2315.87
593.65	2311.75
594.00	2307.65
594.35	2304.83
594.70	2300.42
595.05	2296.06
595.40	2290.87
595.75	2285.41
596.10	2281.82
596.45	2277.11
596.80	2272.75
597.15	2267.76
597.50	2262.03
597.85	2257.24
598.19	2252.14
598.54	2246.31
598.89	2241.18
599.24	2236.79
599.59	2230.73
599.94	2225.13
600.29	2219.15
600.64	2213.26
600.99	2206.60
601.34	2201.33
601.69	2194.40
602.04	2188.29
602.39	2181.87
602.74	2175.93
603.08	2170.33
603.43	2164.01
603.78	2157.14
604.13	2149.98
604.48	2142.86
604.83	2136.87
605.18	2130.82
605.53	2124.08
605.87	2117.30
606.22	2110.68
606.57	2102.98
606.92	2095.32
607.27	2088.53
607.62	2082.11
607.96	2075.40
608.31	2069.15
608.66	2061.45
609.01	2053.95
609.36	2046.86
609.70	2039.33
610.05	2031.69
610.40	2023.71
610.75	2015.45
611.10	2007.87
611.44	1999.31
611.79	1990.62
612.14	1980.69
612.49	1970.28
612.83	1961.04
613.18	1951.88
613.53	1942.63
613.88	1933.03
614.22	1924.46
614.57	1914.64
614.92	1904.14
615.27	1894.04
615.61	1883.87
615.96	1874.21
616.31	1864.69
616.65	1855.30
617.00	1845.53
617.35	1835.80
617.70	1825.93
618.04	1816.03
618.39	1805.95
618.74	1796.26
619.08	1786.69
619.43	1778.08
619.78	1769.80
620.12	1761.11
620.47	1751.58
620.82	1741.26
621.16	1731.46
621.51	1721.46
621.85	1711.56
622.20	1701.13
622.55	1690.43
622.89	1680.59
623.24	1670.97
623.59	1661.20
623.93	1651.16
624.28	1641.36
624.62	1631.09
624.97	1620.79
625.32	1610.99
625.66	1602.18
626.01	1593.45
626.35	1584.12
626.70	1573.89
627.04	1563.67
627.39	1553.65
627.73	1544.28
628.08	1535.25
628.43	1525.82
628.77	1516.72
629.12	1507.84
629.46	1500.07
629.81	1491.70
630.15	1482.12
630.50	1472.23
630.84	1461.72
631.19	1451.69
631.53	1442.38
631.88	1432.39
632.22	1422.42
632.57	1413.08
632.91	1402.92
633.26	1392.96
633.60	1383.28
633.95	1374.08
634.29	1364.78
634.64	1355.37
634.98	1345.45
635.32	1336.20
635.67	1327.67
636.01	1318.27
636.36	1308.50
636.70	1298.91
637.05	1289.53
637.39	1280.58
637.73	1271.98
638.08	1264.39
638.42	1256.20
638.77	1247.32
639.11	1239.20
639.45	1231.30
639.80	1222.61
640.14	1213.90
640.49	1205.19
640.83	1196.54
641.17	1188.36
641.52	1180.15
641.86	1171.57
642.20	1163.67
642.55	1154.94
642.89	1145.99
643.23	1137.26
643.58	1129.10
643.92	1120.09
644.26	1111.44
644.61	1103.03
644.95	1094.24
645.29	1085.06
645.64	1075.90
645.98	1067.44
646.32	1059.44
646.66	1050.96
647.01	1042.59
647.35	1034.36
647.69	1025.90
648.04	1017.52
648.38	1008.61
648.72	999.87
649.06	991.51
649.41	983.32
649.75	975.47
650.09	967.60
650.43	959.59
650.78	951.45
651.12	943.86
651.46	936.59
651.80	929.38
652.14	921.99
652.49	914.47
652.83	907.19
653.17	899.61
653.51	892.05
653.85	884.81
654.20	877.66
654.54	870.23
654.88	863.15
655.22	856.02
655.56	849.18
655.90	842.40
656.25	835.80
656.59	828.93
656.93	822.00
657.27	814.95
657.61	808.19
657.95	802.15
658.29	796.20
658.64	789.95
658.98	783.58
659.32	777.23
659.66	771.11
660.00	764.83
660.34	758.85
660.68	752.79
661.02	746.63
661.36	740.76
661.70	735.20
662.05	729.50
662.39	724.08
662.73	718.74
663.07	713.50
663.41	707.84
663.75	702.26
664.09	696.69
664.43	691.40
664.77	686.10
665.11	680.35
665.45	674.56
665.79	668.90
666.13	663.26
666.47	657.82
666.81	652.48
667.15	647.25
667.49	642.14
667.83	636.99
668.17	631.82
668.51	626.74
668.85	621.81
669.19	617.07
669.53	612.21
669.87	607.20
670.21	602.43
670.55	597.82
670.89	593.39
671.23	589.14
671.57	584.86
671.91	580.61
672.25	576.52
672.58	572.49
672.92	568.57
673.26	564.70
673.60	560.93
673.94	557.18
674.28	553.56
674.62	549.85
674.96	546.21
675.30	542.76
675.64	539.25
675.97	535.75
676.31	532.21
676.65	528.65
676.99	525.31
677.33	521.62
677.67	518.12
678.01	514.38
678.34	510.82
678.68	507.34
679.02	503.87
679.36	500.21
679.70	496.69
680.04	493.24
680.37	489.88
680.71	486.65
681.05	483.52
681.39	480.35
681.73	477.25
682.06	474.24
682.40	471.22
682.74	468.08
683.08	464.95
683.42	461.86
683.75	458.87
684.09	455.95
684.43	453.20
684.77	450.33
685.10	447.59
685.44	444.75
685.78	441.95
686.12	439.24
686.45	436.65
686.79	434.05
687.13	431.53
687.46	429.02
687.80	426.39
688.14	423.63
688.48	421.13
688.81	418.58
689.15	416.07
689.49	413.50
689.82	411.03
690.16	408.52
690.50	406.17
690.83	403.79
691.17	401.28
691.51	398.95
691.84	396.79
692.18	394.63
692.52	392.49
692.85	390.41
693.19	388.36
693.52	386.25
693.86	384.11
694.20	382.00
694.53	379.92
694.87	377.81
695.21	375.80
695.54	373.69
695.88	371.58
696.21	369.47
696.55	367.43
696.88	365.45
697.22	363.55
697.56	361.70
697.89	359.91
698.23	358.23
698.56	356.46
698.90	354.75
699.23	352.93
699.57	351.10
699.90	349.33
700.24	347.51
700.58	345.84
700.91	344.20
701.25	342.68
701.58	341.16
701.92	339.69
702.25	338.15
702.59	336.60
702.92	335.14
703.26	333.67
703.59	332.28
703.93	331.09
704.26	329.73
704.60	328.29
704.93	326.88
705.26	325.38
705.60	323.94
705.93	322.44
706.27	321.16
706.60	319.96
706.94	318.73
707.27	317.41
707.61	316.13
707.94	314.84
708.27	313.34
708.61	311.92
708.94	310.56
709.28	309.31
709.61	308.12
709.94	306.93
710.28	305.74
710.61	304.59
710.95	303.22
711.28	302.17
711.61	301.03
711.95	299.96
712.28	298.84
712.61	297.70
712.95	296.71
713.28	295.71
713.61	294.60
713.95	293.53
714.28	292.56
714.61	291.54
714.95	290.61
715.28	289.67
715.61	288.71
715.95	287.79
716.28	286.88
716.61	285.94
716.95	285.01
717.28	284.13
717.61	283.23
717.94	282.38
718.28	281.41
718.61	280.54
718.94	279.62
719.27	278.82
719.61	278.04
719.94	277.23
720.27	276.27
720.60	275.49
720.94	274.74
721.27	274.08
721.60	273.47
721.93	272.75
722.27	272.15
722.60	271.52
722.93	270.84
723.26	270.20
723.59	269.53
723.93	268.93
724.26	268.27
724.59	267.66
724.92	267.08
725.25	266.54
725.59	266.02
725.92	265.52
726.25	264.97
726.58	264.44
726.91	263.85
727.24	263.40
727.57	262.85
727.91	262.19
728.24	261.64
728.57	261.00
728.90	260.41
729.23	259.82
729.56	259.39
729.89	258.87
730.22	258.33
730.55	257.82
730.89	257.30
731.22	256.79
731.55	256.31
731.88	255.80
732.21	255.29
732.54	254.77
732.87	254.29
733.20	253.80
733.53	253.32
733.86	252.89
734.19	252.40
734.52	251.99
734.85	251.75
735.18	251.29
735.51	250.95
735.84	250.57
736.17	250.19
736.50	249.68
736.83	249.59
737.16	249.17
737.49	248.83
737.82	248.45
738.15	248.13
738.48	247.79
738.81	247.44
739.14	247.04
739.47	246.66
739.80	246.29
740.13	246.00
740.46	245.61
740.79	245.22
741.12	244.90
741.45	244.54
741.78	244.10
742.11	243.82
742.44	243.47
742.77	243.16
743.10	242.84
743.43	242.51
743.75	241.93
744.08	241.88
744.41	241.54
744.74	241.22
745.07	240.86
745.40	240.59
745.73	240.33
746.06	240.02
746.39	239.75
746.71	239.44
747.04	239.10
747.37	238.80
747.70	238.55
748.03	238.23
748.36	237.99
748.68	237.71
749.01	237.38
749.34	237.09
749.67	236.81
750.00	236.54
750.33	236.43
750.65	236.19
750.98	235.66
751.31	235.44
751.64	235.23
751.97	235.13
752.29	234.80
752.62	234.47
752.95	234.22
753.28	233.97
753.60	233.71
753.93	233.53
754.26	233.38
754.59	233.10
754.91	232.88
755.24	232.60
755.57	232.36
755.90	232.13
756.22	231.91
756.55	231.67
756.88	231.45
757.20	231.14
757.53	230.87
757.86	230.70
758.19	230.51
758.51	230.26
758.84	229.96
759.17	229.78
759.49	229.60
759.82	229.57
760.15	229.41
760.47	229.23
760.80	229.01
761.13	228.83
761.45	228.62
761.78	228.46
762.11	228.32
762.43	228.15
762.76	228.01
763.08	227.88
763.41	227.73
763.74	227.60
764.06	227.43
764.39	227.30
764.71	227.13
765.04	226.96
765.37	226.85
765.69	226.68
766.02	226.57
766.34	226.46
766.67	226.22
767.00	226.12
767.32	226.12
767.65	226.13
767.97	225.98
768.30	225.90
768.62	225.79
768.95	225.63
769.27	225.53
769.60	225.44
769.92	225.27
770.25	225.12
770.57	224.93
770.90	224.84
771.22	224.68
771.55	224.58
771.87	224.49
772.20	224.36
772.52	224.42
772.85	224.55
773.17	224.44
773.50	224.32
773.82	224.21
774.15	224.01
774.47	223.77
774.80	223.64
775.12	223.55
775.45	223.45
775.77	223.42
776.09	223.32
776.42	223.24
776.74	223.23
777.07	223.14
777.39	223.09
777.72	222.94
778.04	222.90
778.36	222.79
778.69	222.70
779.01	222.64
779.33	222.38
779.66	222.08
779.98	221.99
780.31	221.92
780.63	221.90
780.95	221.88
781.28	221.80
781.60	221.77
781.92	221.72
782.25	221.64
782.57	221.55
782.89	221.50
783.22	221.44
783.54	221.34
783.86	221.32
784.19	221.24
784.51	221.26
784.83	221.19
785.16	221.15
785.48	221.09
785.80	221.04
786.12	221.02
