SpectraSuite Data File
++++++++++++++++++++++++++++++++++++
Date: Tue Jan 29 16:15:04 EST 2013
User: group
Dark Spectrum Present: No
Reference Spectrum Present: No
Number of Sampled Component Spectra: 1
Spectrometers: USB2E7196
Integration Time (usec): 65000 (USB2E7196)
Spectra Averaged: 100 (USB2E7196)
Boxcar Smoothing: 10 (USB2E7196)
Correct for Electrical Dark: No (USB2E7196)
Strobe/Lamp Enabled: No (USB2E7196)
Correct for Detector Non-linearity: No (USB2E7196)
Correct for Stray Light: No (USB2E7196)
Number of Pixels in Processed Spectrum: 2048
>>>>>Begin Processed Spectral Data<<<<<
339.09	0.00
339.48	201.46
339.86	203.65
340.24	205.10
340.63	206.55
341.01	211.39
341.39	209.01
341.78	210.73
342.16	211.86
342.54	212.52
342.93	201.44
343.31	211.61
343.69	212.18
344.07	212.63
344.46	213.07
344.84	213.50
345.22	213.64
345.60	213.93
345.99	214.14
346.37	214.28
346.75	214.38
347.13	214.51
347.52	214.57
347.90	214.72
348.28	214.74
348.66	214.80
349.05	214.73
349.43	214.78
349.81	214.88
350.19	214.93
350.57	215.01
350.96	215.10
351.34	215.22
351.72	215.33
352.10	215.45
352.48	215.55
352.87	215.57
353.25	215.64
353.63	215.68
354.01	215.73
354.39	215.82
354.77	215.92
355.15	215.99
355.54	216.08
355.92	216.09
356.30	216.19
356.68	216.41
357.06	216.52
357.44	216.58
357.82	216.62
358.20	216.70
358.58	216.79
358.97	216.85
359.35	216.95
359.73	217.10
360.11	217.16
360.49	217.21
360.87	217.28
361.25	217.38
361.63	217.52
362.01	217.62
362.39	217.64
362.77	217.71
363.15	217.76
363.53	217.79
363.91	217.80
364.29	217.83
364.67	217.69
365.05	217.75
365.43	217.81
365.81	217.89
366.19	217.99
366.57	218.06
366.95	218.12
367.33	218.05
367.71	218.01
368.09	218.08
368.47	218.08
368.85	218.06
369.23	218.07
369.61	217.97
369.99	217.99
370.37	218.01
370.75	218.08
371.13	218.02
371.51	217.97
371.89	217.98
372.27	218.00
372.65	217.96
373.03	217.90
373.41	217.86
373.78	217.77
374.16	217.67
374.54	217.60
374.92	217.52
375.30	217.51
375.68	217.42
376.06	217.40
376.44	217.32
376.82	217.28
377.19	217.24
377.57	217.19
377.95	217.08
378.33	217.01
378.71	216.83
379.09	216.83
379.47	216.79
379.84	216.72
380.22	216.60
380.60	216.52
380.98	216.49
381.36	216.40
381.73	216.34
382.11	216.31
382.49	216.25
382.87	216.15
383.25	216.12
383.62	216.33
384.00	216.22
384.38	216.24
384.76	216.26
385.13	216.29
385.51	216.26
385.89	216.22
386.27	216.19
386.64	216.19
387.02	216.11
387.40	216.09
387.78	216.06
388.15	216.06
388.53	216.03
388.91	216.00
389.29	215.99
389.66	215.98
390.04	215.94
390.42	215.95
390.79	215.97
391.17	215.91
391.55	215.66
391.92	215.64
392.30	215.60
392.68	215.56
393.05	215.52
393.43	215.51
393.81	215.48
394.18	215.47
394.56	215.47
394.94	215.52
395.31	215.48
395.69	215.57
396.06	215.63
396.44	215.67
396.82	215.67
397.19	215.82
397.57	215.81
397.95	215.86
398.32	215.83
398.70	215.88
399.07	215.97
399.45	215.99
399.82	216.06
400.20	216.13
400.58	216.18
400.95	216.16
401.33	216.29
401.70	216.50
402.08	216.61
402.45	216.68
402.83	216.81
403.20	216.93
403.58	217.00
403.95	217.15
404.33	217.32
404.71	217.47
405.08	217.69
405.46	217.87
405.83	218.06
406.21	218.28
406.58	218.51
406.96	218.72
407.33	219.00
407.70	219.26
408.08	219.70
408.45	220.06
408.83	220.45
409.20	220.75
409.58	221.01
409.95	221.44
410.33	221.92
410.70	222.34
411.08	222.86
411.45	223.42
411.82	223.96
412.20	224.61
412.57	225.42
412.95	225.97
413.32	226.78
413.69	227.58
414.07	228.47
414.44	229.40
414.82	230.40
415.19	231.50
415.56	232.68
415.94	233.80
416.31	235.14
416.68	236.47
417.06	237.99
417.43	239.49
417.81	241.15
418.18	242.82
418.55	244.68
418.93	246.65
419.30	248.64
419.67	250.75
420.04	252.96
420.42	255.25
420.79	258.00
421.16	260.71
421.54	263.52
421.91	266.39
422.28	269.38
422.66	272.59
423.03	275.73
423.40	278.94
423.77	282.42
424.15	285.94
424.52	289.67
424.89	293.75
425.26	297.71
425.64	301.48
426.01	305.62
426.38	309.94
426.75	314.38
427.13	318.98
427.50	323.85
427.87	328.86
428.24	333.88
428.61	338.67
428.99	344.02
429.36	349.80
429.73	355.51
430.10	361.21
430.47	367.03
430.85	373.19
431.22	379.69
431.59	386.56
431.96	393.20
432.33	400.49
432.70	407.47
433.08	415.71
433.45	423.50
433.82	431.29
434.19	439.85
434.56	448.25
434.93	456.30
435.30	464.29
435.68	473.07
436.05	481.70
436.42	490.31
436.79	498.12
437.16	506.59
437.53	515.52
437.90	524.37
438.27	533.00
438.64	541.86
439.01	550.07
439.38	557.35
439.75	564.40
440.13	572.51
440.50	580.23
440.87	586.42
441.24	592.85
441.61	599.95
441.98	605.11
442.35	611.15
442.72	617.25
443.09	623.06
443.46	626.63
443.83	629.05
444.20	631.19
444.57	634.24
444.94	635.61
445.31	636.96
445.68	638.26
446.05	638.83
446.42	638.03
446.79	637.09
447.16	636.06
447.53	635.25
447.90	631.98
448.27	628.77
448.64	624.30
449.01	621.07
449.37	615.32
449.74	609.93
450.11	603.30
450.48	596.18
450.85	588.94
451.22	582.74
451.59	576.90
451.96	571.28
452.33	563.73
452.70	556.89
453.07	548.72
453.43	540.40
453.80	532.45
454.17	524.75
454.54	517.53
454.91	509.68
455.28	502.06
455.65	494.93
456.02	487.71
456.38	481.66
456.75	474.08
457.12	467.80
457.49	461.47
457.86	455.52
458.23	450.35
458.59	444.70
458.96	438.91
459.33	433.76
459.70	428.55
460.07	424.46
460.43	419.80
460.80	415.42
461.17	411.60
461.54	407.53
461.91	403.70
462.27	399.73
462.64	396.39
463.01	392.75
463.38	389.15
463.74	385.58
464.11	382.41
464.48	379.66
464.85	376.67
465.21	374.35
465.58	371.80
465.95	368.75
466.32	366.22
466.68	363.73
467.05	361.24
467.42	358.80
467.78	356.19
468.15	353.71
468.52	351.89
468.88	349.53
469.25	347.41
469.62	345.66
469.98	343.79
470.35	342.06
470.72	340.42
471.08	338.73
471.45	337.29
471.82	335.85
472.18	334.27
472.55	333.13
472.92	331.79
473.28	330.64
473.65	329.59
474.02	328.54
474.38	327.70
474.75	327.02
475.11	326.26
475.48	325.71
475.85	325.32
476.21	324.85
476.58	324.54
476.94	324.36
477.31	324.09
477.67	323.82
478.04	323.69
478.41	323.68
478.77	323.91
479.14	323.89
479.50	324.01
479.87	324.33
480.23	324.65
480.60	324.93
480.96	325.22
481.33	325.83
481.69	326.46
482.06	327.00
482.42	327.49
482.79	328.05
483.15	328.85
483.52	329.78
483.88	330.69
484.25	331.56
484.61	332.56
484.98	333.64
485.34	334.99
485.71	336.38
486.07	337.82
486.44	339.13
486.80	340.76
487.17	342.44
487.53	344.27
487.90	346.18
488.26	348.17
488.62	350.33
488.99	352.34
489.35	354.45
489.72	356.81
490.08	359.35
490.44	361.91
490.81	364.63
491.17	367.35
491.54	370.34
491.90	373.41
492.26	376.65
492.63	380.06
492.99	383.55
493.36	387.17
493.72	390.97
494.08	394.96
494.45	399.15
494.81	403.50
495.17	407.86
495.54	412.55
495.90	417.41
496.26	422.38
496.63	427.58
496.99	432.94
497.35	438.49
497.72	444.21
498.08	450.15
498.44	456.17
498.80	462.53
499.17	468.98
499.53	475.61
499.89	482.50
500.26	489.35
500.62	496.40
500.98	503.81
501.34	511.28
501.71	518.99
502.07	526.75
502.43	534.63
502.79	542.75
503.16	551.01
503.52	559.51
503.88	568.13
504.24	576.99
504.60	586.05
504.97	595.23
505.33	604.44
505.69	614.24
506.05	624.15
506.41	633.95
506.78	643.93
507.14	654.18
507.50	664.51
507.86	675.12
508.22	685.78
508.59	696.35
508.95	707.35
509.31	718.56
509.67	729.90
510.03	741.25
510.39	752.90
510.75	764.68
511.12	776.48
511.48	788.43
511.84	800.54
512.20	812.68
512.56	825.12
512.92	837.80
513.28	850.30
513.64	862.80
514.00	875.46
514.37	888.20
514.73	901.04
515.09	913.87
515.45	926.70
515.81	939.61
516.17	952.74
516.53	965.71
516.89	978.65
517.25	991.64
517.61	1005.02
517.97	1018.19
518.33	1031.05
518.69	1044.39
519.05	1057.92
519.41	1071.37
519.77	1085.03
520.13	1098.25
520.49	1111.23
520.85	1124.39
521.21	1137.53
521.57	1150.88
521.93	1163.82
522.29	1177.31
522.65	1190.78
523.01	1204.12
523.37	1217.02
523.73	1230.09
524.09	1243.01
524.45	1256.19
524.81	1269.38
525.17	1282.41
525.53	1295.37
525.89	1308.48
526.25	1321.28
526.61	1333.78
526.97	1346.53
527.33	1359.10
527.68	1372.15
528.04	1385.34
528.40	1398.04
528.76	1411.06
529.12	1423.74
529.48	1436.66
529.84	1448.75
530.20	1461.19
530.56	1473.34
530.91	1486.30
531.27	1498.78
531.63	1511.23
531.99	1523.58
532.35	1535.47
532.71	1547.51
533.07	1560.00
533.42	1571.79
533.78	1583.68
534.14	1595.47
534.50	1606.46
534.86	1617.64
535.21	1628.25
535.57	1639.32
535.93	1650.34
536.29	1661.25
536.65	1672.33
537.00	1683.10
537.36	1694.12
537.72	1704.82
538.08	1715.95
538.44	1726.61
538.79	1737.32
539.15	1747.83
539.51	1758.24
539.87	1769.28
540.22	1779.81
540.58	1790.32
540.94	1800.98
541.29	1810.87
541.65	1820.40
542.01	1830.64
542.37	1840.53
542.72	1850.31
543.08	1859.79
543.44	1870.01
543.79	1878.89
544.15	1887.99
544.51	1897.54
544.87	1907.07
545.22	1915.73
545.58	1924.35
545.94	1932.94
546.29	1941.32
546.65	1949.47
547.01	1957.57
547.36	1965.06
547.72	1972.52
548.07	1979.99
548.43	1987.59
548.79	1995.17
549.14	2002.98
549.50	2011.00
549.86	2018.59
550.21	2025.89
550.57	2033.34
550.92	2039.93
551.28	2047.27
551.64	2054.57
551.99	2061.92
552.35	2068.87
552.70	2075.74
553.06	2082.09
553.41	2088.12
553.77	2094.37
554.13	2100.56
554.48	2107.19
554.84	2114.06
555.19	2120.52
555.55	2126.87
555.90	2133.07
556.26	2139.73
556.61	2145.57
556.97	2150.44
557.32	2156.18
557.68	2162.55
558.03	2168.19
558.39	2173.32
558.74	2179.28
559.10	2184.62
559.45	2190.06
559.81	2195.48
560.16	2200.90
560.52	2206.74
560.87	2213.06
561.23	2219.10
561.58	2225.65
561.94	2230.87
562.29	2235.53
562.64	2241.64
563.00	2247.10
563.35	2252.54
563.71	2258.27
564.06	2263.95
564.42	2269.93
564.77	2275.00
565.12	2280.13
565.48	2285.39
565.83	2290.89
566.19	2296.07
566.54	2301.41
566.89	2306.11
567.25	2310.83
567.60	2316.46
567.96	2321.78
568.31	2326.39
568.66	2330.61
569.02	2334.57
569.37	2338.41
569.72	2342.82
570.08	2346.36
570.43	2349.55
570.78	2352.68
571.14	2355.39
571.49	2358.59
571.84	2362.18
572.20	2365.21
572.55	2368.18
572.90	2370.46
573.26	2373.45
573.61	2376.16
573.96	2378.47
574.31	2380.60
574.67	2382.52
575.02	2383.51
575.37	2384.91
575.72	2385.84
576.08	2387.37
576.43	2387.88
576.78	2388.57
577.13	2390.46
577.49	2391.73
577.84	2393.14
578.19	2394.61
578.54	2395.49
578.90	2396.49
579.25	2396.56
579.60	2396.75
579.95	2396.29
580.30	2396.62
580.66	2396.10
581.01	2394.63
581.36	2392.60
581.71	2391.35
582.06	2390.51
582.42	2389.89
582.77	2387.89
583.12	2386.41
583.47	2385.44
583.82	2384.93
584.17	2383.79
584.53	2381.70
584.88	2379.80
585.23	2377.98
585.58	2375.93
585.93	2373.82
586.28	2371.84
586.63	2369.49
586.98	2367.39
587.34	2365.68
587.69	2363.48
588.04	2361.68
588.39	2360.30
588.74	2357.82
589.09	2355.35
589.44	2352.41
589.79	2350.11
590.14	2348.49
590.49	2345.87
590.84	2342.07
591.19	2339.07
591.54	2335.98
591.89	2332.13
592.25	2329.06
592.60	2324.84
592.95	2320.79
593.30	2316.73
593.65	2312.45
594.00	2308.27
594.35	2305.30
594.70	2300.66
595.05	2296.00
595.40	2290.71
595.75	2285.25
596.10	2281.79
596.45	2277.04
596.80	2272.44
597.15	2267.21
597.50	2261.34
597.85	2256.44
598.19	2251.42
598.54	2245.72
598.89	2240.74
599.24	2236.35
599.59	2230.17
599.94	2224.77
600.29	2219.11
600.64	2213.41
600.99	2206.74
601.34	2201.36
601.69	2194.47
602.04	2188.20
602.39	2181.91
602.74	2175.87
603.08	2170.52
603.43	2164.05
603.78	2157.27
604.13	2150.29
604.48	2143.16
604.83	2137.15
605.18	2131.01
605.53	2124.07
605.87	2117.25
606.22	2110.47
606.57	2102.60
606.92	2094.93
607.27	2087.96
607.62	2081.43
607.96	2074.42
608.31	2068.05
608.66	2060.34
609.01	2052.90
609.36	2045.98
609.70	2038.33
610.05	2030.55
610.40	2022.20
610.75	2014.11
611.10	2006.58
611.44	1998.00
611.79	1989.28
612.14	1979.43
612.49	1969.03
612.83	1959.79
613.18	1950.72
613.53	1941.48
613.88	1931.95
614.22	1923.31
614.57	1913.54
614.92	1902.97
615.27	1893.00
615.61	1883.07
615.96	1873.42
616.31	1863.91
616.65	1854.52
617.00	1844.78
617.35	1835.27
617.70	1825.58
618.04	1815.48
618.39	1805.22
618.74	1795.41
619.08	1786.04
619.43	1777.46
619.78	1769.11
620.12	1760.54
620.47	1750.76
620.82	1740.47
621.16	1730.88
621.51	1721.01
621.85	1711.22
622.20	1700.79
622.55	1690.17
622.89	1680.31
623.24	1670.73
623.59	1660.93
623.93	1650.86
624.28	1641.11
624.62	1631.05
624.97	1620.76
625.32	1611.09
625.66	1602.36
626.01	1593.57
626.35	1584.12
626.70	1573.89
627.04	1563.80
627.39	1553.76
627.73	1544.47
628.08	1535.45
628.43	1525.73
628.77	1516.47
629.12	1507.63
629.46	1499.93
629.81	1491.54
630.15	1481.96
630.50	1472.11
630.84	1461.75
631.19	1451.80
631.53	1442.44
631.88	1432.27
632.22	1422.42
632.57	1413.08
632.91	1402.93
633.26	1393.16
633.60	1383.74
633.95	1374.48
634.29	1365.29
634.64	1356.00
634.98	1346.16
635.32	1337.01
635.67	1328.60
636.01	1319.41
636.36	1309.53
636.70	1299.98
637.05	1290.64
637.39	1281.74
637.73	1273.09
638.08	1265.62
638.42	1257.35
638.77	1248.72
639.11	1240.48
639.45	1232.65
639.80	1224.03
640.14	1215.33
640.49	1206.51
640.83	1197.71
641.17	1189.71
641.52	1181.35
641.86	1172.81
642.20	1165.01
642.55	1156.44
642.89	1147.59
643.23	1138.93
643.58	1130.94
643.92	1121.92
644.26	1113.33
644.61	1104.97
644.95	1096.37
645.29	1087.03
645.64	1078.02
645.98	1069.60
646.32	1061.64
646.66	1053.18
647.01	1044.90
647.35	1036.84
647.69	1028.52
648.04	1020.27
648.38	1011.41
648.72	1002.74
649.06	994.31
649.41	986.20
649.75	978.24
650.09	970.42
650.43	962.46
650.78	954.23
651.12	946.60
651.46	939.35
651.80	932.11
652.14	924.77
652.49	917.37
652.83	910.19
653.17	902.46
653.51	895.04
653.85	887.84
654.20	880.64
654.54	873.18
654.88	866.08
655.22	858.86
655.56	852.00
655.90	845.33
656.25	838.72
656.59	831.81
656.93	824.88
657.27	817.85
657.61	811.09
657.95	805.06
658.29	799.30
658.64	793.13
658.98	786.75
659.32	780.36
659.66	774.13
660.00	767.79
660.34	761.89
660.68	755.81
661.02	749.65
661.36	743.82
661.70	738.10
662.05	732.55
662.39	727.15
662.73	721.79
663.07	716.44
663.41	710.97
663.75	705.37
664.09	699.80
664.43	694.49
664.77	689.17
665.11	683.46
665.45	677.62
665.79	671.91
666.13	666.28
666.47	660.79
666.81	655.51
667.15	650.24
667.49	645.11
667.83	639.95
668.17	634.79
668.51	629.76
668.85	624.93
669.19	620.07
669.53	615.23
669.87	610.14
670.21	605.44
670.55	600.77
670.89	596.41
671.23	592.21
671.57	587.91
671.91	583.64
672.25	579.58
672.58	575.50
672.92	571.53
673.26	567.70
673.60	563.96
673.94	560.16
674.28	556.62
674.62	552.91
674.96	549.23
675.30	545.75
675.64	542.17
675.97	538.62
676.31	535.12
676.65	531.51
676.99	528.19
677.33	524.44
677.67	520.83
678.01	517.10
678.34	513.53
678.68	510.07
679.02	506.58
679.36	502.91
679.70	499.31
680.04	495.78
680.37	492.40
680.71	489.09
681.05	485.99
681.39	482.82
681.73	479.74
682.06	476.77
682.40	473.74
682.74	470.57
683.08	467.42
683.42	464.28
683.75	461.31
684.09	458.32
684.43	455.60
684.77	452.73
685.10	449.92
685.44	447.04
685.78	444.17
686.12	441.43
686.45	438.73
686.79	436.13
687.13	433.68
687.46	431.10
687.80	428.45
688.14	425.64
688.48	423.06
688.81	420.37
689.15	417.87
689.49	415.31
689.82	412.85
690.16	410.33
690.50	407.95
690.83	405.55
691.17	403.08
691.51	400.62
691.84	398.41
692.18	396.23
692.52	394.10
692.85	392.00
693.19	389.95
693.52	387.87
693.86	385.70
694.20	383.54
694.53	381.46
694.87	379.37
695.21	377.36
695.54	375.23
695.88	373.16
696.21	370.96
696.55	368.86
696.88	366.86
697.22	364.97
697.56	363.08
697.89	361.22
698.23	359.53
698.56	357.76
698.90	356.04
699.23	354.16
699.57	352.31
699.90	350.50
700.24	348.70
700.58	347.00
700.91	345.39
701.25	343.91
701.58	342.34
701.92	340.80
702.25	339.21
702.59	337.63
702.92	336.16
703.26	334.62
703.59	333.21
703.93	331.95
704.26	330.53
704.60	329.08
704.93	327.70
705.26	326.26
705.60	324.84
705.93	323.40
706.27	322.16
706.60	320.94
706.94	319.76
707.27	318.37
707.61	317.02
707.94	315.69
708.27	314.19
708.61	312.75
708.94	311.37
709.28	310.12
709.61	308.91
709.94	307.72
710.28	306.59
710.61	305.45
710.95	304.09
711.28	303.03
711.61	301.87
711.95	300.73
712.28	299.56
712.61	298.45
712.95	297.39
713.28	296.37
713.61	295.25
713.95	294.10
714.28	293.15
714.61	292.16
714.95	291.19
715.28	290.20
715.61	289.26
715.95	288.33
716.28	287.37
716.61	286.44
716.95	285.48
717.28	284.61
717.61	283.66
717.94	282.79
718.28	281.81
718.61	280.93
718.94	280.05
719.27	279.23
719.61	278.45
719.94	277.58
720.27	276.61
720.60	275.79
720.94	275.01
721.27	274.25
721.60	273.58
721.93	272.85
722.27	272.20
722.60	271.54
722.93	270.86
723.26	270.26
723.59	269.57
723.93	268.95
724.26	268.29
724.59	267.65
724.92	267.08
725.25	266.56
725.59	266.04
725.92	265.53
726.25	264.94
726.58	264.34
726.91	263.78
727.24	263.31
727.57	262.76
727.91	262.17
728.24	261.66
728.57	261.07
728.90	260.55
729.23	259.99
729.56	259.58
729.89	259.08
730.22	258.50
730.55	257.97
730.89	257.41
731.22	256.90
731.55	256.38
731.88	255.84
732.21	255.30
732.54	254.74
732.87	254.22
733.20	253.75
733.53	253.31
733.86	252.87
734.19	252.38
734.52	251.98
734.85	251.71
735.18	251.27
735.51	250.91
735.84	250.48
736.17	250.11
736.50	249.55
736.83	249.39
737.16	249.01
737.49	248.67
737.82	248.32
738.15	247.95
738.48	247.62
738.81	247.26
739.14	246.84
739.47	246.49
739.80	246.14
740.13	245.82
740.46	245.40
740.79	245.04
741.12	244.66
741.45	244.30
741.78	243.85
742.11	243.54
742.44	243.16
742.77	242.88
743.10	242.52
743.43	242.16
743.75	241.60
744.08	241.53
744.41	241.18
744.74	240.85
745.07	240.51
745.40	240.22
745.73	240.01
746.06	239.74
746.39	239.44
746.71	239.11
747.04	238.78
747.37	238.51
747.70	238.27
748.03	237.97
748.36	237.73
748.68	237.47
749.01	237.13
749.34	236.87
749.67	236.59
750.00	236.37
750.33	236.28
750.65	236.08
750.98	235.59
751.31	235.37
751.64	235.14
751.97	235.00
752.29	234.75
752.62	234.43
752.95	234.17
753.28	233.90
753.60	233.72
753.93	233.58
754.26	233.38
754.59	233.07
754.91	232.85
755.24	232.59
755.57	232.34
755.90	232.17
756.22	231.93
756.55	231.69
756.88	231.43
757.20	231.11
757.53	230.83
757.86	230.64
758.19	230.41
758.51	230.23
758.84	229.90
759.17	229.68
759.49	229.51
759.82	229.47
760.15	229.33
760.47	229.09
760.80	228.82
761.13	228.65
761.45	228.49
761.78	228.34
762.11	228.20
762.43	228.03
762.76	227.84
763.08	227.71
763.41	227.57
763.74	227.42
764.06	227.22
764.39	227.07
764.71	226.91
765.04	226.78
765.37	226.60
765.69	226.46
766.02	226.30
766.34	226.14
766.67	225.91
767.00	225.81
767.32	225.78
767.65	225.74
767.97	225.58
768.30	225.47
768.62	225.31
768.95	225.13
769.27	224.99
769.60	224.92
769.92	224.77
770.25	224.60
770.57	224.43
770.90	224.34
771.22	224.21
771.55	224.09
771.87	223.98
772.20	223.88
772.52	223.93
772.85	224.10
773.17	224.01
773.50	223.86
773.82	223.74
774.15	223.59
774.47	223.41
774.80	223.31
775.12	223.21
775.45	223.09
775.77	223.05
776.09	222.99
776.42	222.89
776.74	222.85
777.07	222.77
777.39	222.74
777.72	222.67
778.04	222.61
778.36	222.55
778.69	222.49
779.01	222.39
779.33	222.17
779.66	221.84
779.98	221.72
780.31	221.67
780.63	221.67
780.95	221.58
781.28	221.49
781.60	221.42
781.92	221.35
782.25	221.33
782.57	221.24
782.89	221.14
783.22	221.04
783.54	220.92
783.86	220.89
784.19	220.80
784.51	220.77
784.83	220.67
785.16	220.59
785.48	220.50
785.80	220.46
786.12	220.42
