SpectraSuite Data File
++++++++++++++++++++++++++++++++++++
Date: Tue Jan 29 16:31:08 EST 2013
User: group
Dark Spectrum Present: No
Reference Spectrum Present: No
Number of Sampled Component Spectra: 1
Spectrometers: USB2E7196
Integration Time (usec): 65000 (USB2E7196)
Spectra Averaged: 100 (USB2E7196)
Boxcar Smoothing: 10 (USB2E7196)
Correct for Electrical Dark: No (USB2E7196)
Strobe/Lamp Enabled: No (USB2E7196)
Correct for Detector Non-linearity: No (USB2E7196)
Correct for Stray Light: No (USB2E7196)
Number of Pixels in Processed Spectrum: 2048
>>>>>Begin Processed Spectral Data<<<<<
339.09	0.00
339.48	202.50
339.86	204.25
340.24	205.71
340.63	206.76
341.01	211.08
341.39	209.53
341.78	211.42
342.16	212.36
342.54	212.55
342.93	201.68
343.31	211.84
343.69	212.38
344.07	212.82
344.46	213.25
344.84	213.66
345.22	213.84
345.60	214.06
345.99	214.22
346.37	214.36
346.75	214.46
347.13	214.52
347.52	214.57
347.90	214.69
348.28	214.71
348.66	214.77
349.05	214.75
349.43	214.79
349.81	214.86
350.19	214.89
350.57	214.95
350.96	215.00
351.34	215.10
351.72	215.14
352.10	215.27
352.48	215.28
352.87	215.33
353.25	215.38
353.63	215.45
354.01	215.50
354.39	215.54
354.77	215.60
355.15	215.75
355.54	215.74
355.92	215.73
356.30	215.80
356.68	215.98
357.06	216.04
357.44	216.06
357.82	216.09
358.20	216.17
358.58	216.25
358.97	216.33
359.35	216.42
359.73	216.53
360.11	216.53
360.49	216.58
360.87	216.57
361.25	216.59
361.63	216.72
362.01	216.78
362.39	216.79
362.77	216.83
363.15	216.82
363.53	216.86
363.91	216.90
364.29	216.92
364.67	216.75
365.05	216.79
365.43	216.83
365.81	216.89
366.19	216.98
366.57	217.03
366.95	217.03
367.33	216.98
367.71	217.01
368.09	217.07
368.47	217.10
368.85	217.09
369.23	217.14
369.61	217.06
369.99	217.07
370.37	217.11
370.75	217.23
371.13	217.17
371.51	217.14
371.89	217.14
372.27	217.14
372.65	217.13
373.03	217.08
373.41	217.07
373.78	217.02
374.16	216.90
374.54	216.84
374.92	216.76
375.30	216.73
375.68	216.63
376.06	216.61
376.44	216.54
376.82	216.56
377.19	216.49
377.57	216.45
377.95	216.35
378.33	216.27
378.71	216.08
379.09	216.08
379.47	216.05
379.84	215.95
380.22	215.87
380.60	215.80
380.98	215.75
381.36	215.69
381.73	215.61
382.11	215.57
382.49	215.55
382.87	215.54
383.25	215.53
383.62	215.75
384.00	215.68
384.38	215.66
384.76	215.66
385.13	215.73
385.51	215.70
385.89	215.66
386.27	215.65
386.64	215.65
387.02	215.61
387.40	215.59
387.78	215.58
388.15	215.60
388.53	215.55
388.91	215.56
389.29	215.52
389.66	215.52
390.04	215.49
390.42	215.45
390.79	215.45
391.17	215.38
391.55	215.13
391.92	215.11
392.30	215.12
392.68	215.09
393.05	215.04
393.43	215.07
393.81	215.09
394.18	215.06
394.56	215.08
394.94	215.11
395.31	215.09
395.69	215.19
396.06	215.20
396.44	215.26
396.82	215.28
397.19	215.43
397.57	215.45
397.95	215.54
398.32	215.57
398.70	215.60
399.07	215.72
399.45	215.77
399.82	215.83
400.20	215.88
400.58	215.93
400.95	215.92
401.33	216.05
401.70	216.26
402.08	216.36
402.45	216.44
402.83	216.61
403.20	216.74
403.58	216.84
403.95	217.01
404.33	217.21
404.71	217.35
405.08	217.61
405.46	217.81
405.83	217.99
406.21	218.21
406.58	218.43
406.96	218.68
407.33	218.94
407.70	219.22
408.08	219.69
408.45	220.05
408.83	220.44
409.20	220.72
409.58	220.98
409.95	221.47
410.33	221.93
410.70	222.32
411.08	222.87
411.45	223.42
411.82	224.02
412.20	224.66
412.57	225.47
412.95	226.01
413.32	226.81
413.69	227.66
414.07	228.58
414.44	229.57
414.82	230.58
415.19	231.76
415.56	232.94
415.94	234.09
416.31	235.49
416.68	236.88
417.06	238.52
417.43	240.08
417.81	241.81
418.18	243.63
418.55	245.62
418.93	247.65
419.30	249.74
419.67	251.93
420.04	254.23
420.42	256.59
420.79	259.45
421.16	262.25
421.54	265.14
421.91	268.10
422.28	271.20
422.66	274.48
423.03	277.71
423.40	281.10
423.77	284.67
424.15	288.37
424.52	292.22
424.89	296.38
425.26	300.47
425.64	304.37
426.01	308.63
426.38	313.08
426.75	317.59
427.13	322.34
427.50	327.32
427.87	332.48
428.24	337.70
428.61	342.65
428.99	348.18
429.36	354.19
429.73	360.10
430.10	366.00
430.47	372.07
430.85	378.39
431.22	385.05
431.59	392.15
431.96	398.88
432.33	406.38
432.70	413.65
433.08	422.18
433.45	430.17
433.82	438.21
434.19	447.08
434.56	455.78
434.93	464.09
435.30	472.36
435.68	481.51
436.05	490.39
436.42	499.33
436.79	507.42
437.16	516.15
437.53	525.40
437.90	534.51
438.27	543.44
438.64	552.65
439.01	561.28
439.38	568.82
439.75	576.22
440.13	584.60
440.50	592.56
440.87	598.90
441.24	605.59
441.61	612.96
441.98	618.34
442.35	624.70
442.72	631.08
443.09	637.14
443.46	640.92
443.83	643.48
444.20	645.66
444.57	648.85
444.94	650.38
445.31	651.81
445.68	653.24
446.05	653.89
446.42	653.11
446.79	652.09
447.16	651.02
447.53	650.27
447.90	646.96
448.27	643.66
448.64	639.08
449.01	635.73
449.37	629.80
449.74	624.11
450.11	617.22
450.48	609.75
450.85	602.30
451.22	595.82
451.59	589.75
451.96	583.88
452.33	576.01
452.70	568.80
453.07	560.33
453.43	551.67
453.80	543.36
454.17	535.38
454.54	527.86
454.91	519.75
455.28	511.75
455.65	504.35
456.02	496.84
456.38	490.50
456.75	482.64
457.12	476.06
457.49	469.58
457.86	463.39
458.23	458.03
458.59	452.11
458.96	446.05
459.33	440.72
459.70	435.39
460.07	431.15
460.43	426.32
460.80	421.77
461.17	417.80
461.54	413.56
461.91	409.58
462.27	405.42
462.64	402.01
463.01	398.22
463.38	394.54
463.74	390.81
464.11	387.60
464.48	384.81
464.85	381.75
465.21	379.29
465.58	376.68
465.95	373.56
466.32	370.94
466.68	368.35
467.05	365.76
467.42	363.17
467.78	360.48
468.15	357.89
468.52	355.97
468.88	353.46
469.25	351.32
469.62	349.46
469.98	347.52
470.35	345.68
470.72	343.98
471.08	342.19
471.45	340.70
471.82	339.12
472.18	337.38
472.55	336.14
472.92	334.77
473.28	333.55
473.65	332.41
474.02	331.34
474.38	330.43
474.75	329.67
475.11	328.88
475.48	328.28
475.85	327.82
476.21	327.33
476.58	327.00
476.94	326.74
477.31	326.46
477.67	326.21
478.04	326.08
478.41	326.04
478.77	326.22
479.14	326.16
479.50	326.30
479.87	326.65
480.23	327.00
480.60	327.28
480.96	327.56
481.33	328.17
481.69	328.70
482.06	329.24
482.42	329.70
482.79	330.30
483.15	331.09
483.52	332.10
483.88	332.98
484.25	333.88
484.61	334.93
484.98	336.00
485.34	337.32
485.71	338.64
486.07	340.10
486.44	341.39
486.80	343.03
487.17	344.73
487.53	346.57
487.90	348.44
488.26	350.43
488.62	352.60
488.99	354.66
489.35	356.85
489.72	359.20
490.08	361.73
490.44	364.30
490.81	367.01
491.17	369.68
491.54	372.71
491.90	375.74
492.26	378.94
492.63	382.35
492.99	385.84
493.36	389.59
493.72	393.42
494.08	397.47
494.45	401.64
494.81	405.97
495.17	410.37
495.54	415.04
495.90	419.89
496.26	424.82
496.63	430.02
496.99	435.45
497.35	441.10
497.72	446.96
498.08	452.92
498.44	459.04
498.80	465.47
499.17	471.95
499.53	478.74
499.89	485.66
500.26	492.64
500.62	499.77
500.98	507.17
501.34	514.65
501.71	522.42
502.07	530.35
502.43	538.44
502.79	546.67
503.16	555.11
503.52	563.75
503.88	572.49
504.24	581.49
504.60	590.54
504.97	599.84
505.33	609.12
505.69	619.02
506.05	628.90
506.41	638.85
506.78	648.92
507.14	659.18
507.50	669.68
507.86	680.41
508.22	691.20
508.59	701.94
508.95	713.08
509.31	724.36
509.67	735.86
510.03	747.35
510.39	759.14
510.75	771.06
511.12	783.04
511.48	795.24
511.84	807.51
512.20	819.86
512.56	832.51
512.92	845.39
513.28	858.22
513.64	871.10
514.00	884.08
514.37	897.20
514.73	910.45
515.09	923.54
515.45	936.63
515.81	949.79
516.17	963.29
516.53	976.58
516.89	989.81
517.25	1003.09
517.61	1016.71
517.97	1030.22
518.33	1043.31
518.69	1056.90
519.05	1070.75
519.41	1084.48
519.77	1098.57
520.13	1111.98
520.49	1125.31
520.85	1138.74
521.21	1152.17
521.57	1165.92
521.93	1179.10
522.29	1192.96
522.65	1206.69
523.01	1220.35
523.37	1233.64
523.73	1247.04
524.09	1260.35
524.45	1273.89
524.81	1287.53
525.17	1300.99
525.53	1314.31
525.89	1327.84
526.25	1341.23
526.61	1354.15
526.97	1367.40
527.33	1380.49
527.68	1394.10
528.04	1407.73
528.40	1420.87
528.76	1434.40
529.12	1447.44
529.48	1460.85
529.84	1473.16
530.20	1486.05
530.56	1498.86
530.91	1512.35
531.27	1525.29
531.63	1538.13
531.99	1550.97
532.35	1563.29
532.71	1575.81
533.07	1588.75
533.42	1601.04
533.78	1613.17
534.14	1625.43
534.50	1636.81
534.86	1648.44
535.21	1659.44
535.57	1671.02
535.93	1682.49
536.29	1693.63
536.65	1705.15
537.00	1716.25
537.36	1727.88
537.72	1738.93
538.08	1750.35
538.44	1761.39
538.79	1772.73
539.15	1783.77
539.51	1794.68
539.87	1806.09
540.22	1817.11
540.58	1828.17
540.94	1839.27
541.29	1849.75
541.65	1859.46
542.01	1870.17
542.37	1880.36
542.72	1890.61
543.08	1900.40
543.44	1910.96
543.79	1920.41
544.15	1929.88
544.51	1940.00
544.87	1949.86
545.22	1959.23
545.58	1968.20
545.94	1977.23
546.29	1985.86
546.65	1994.35
547.01	2002.66
547.36	2010.36
547.72	2017.98
548.07	2025.62
548.43	2033.45
548.79	2041.36
549.14	2049.63
549.50	2058.20
549.86	2066.22
550.21	2073.69
550.57	2081.67
550.92	2088.42
551.28	2096.04
551.64	2103.43
551.99	2110.90
552.35	2118.23
552.70	2125.29
553.06	2132.11
553.41	2138.33
553.77	2144.87
554.13	2151.36
554.48	2158.44
554.84	2165.75
555.19	2172.57
555.55	2178.94
555.90	2185.34
556.26	2192.20
556.61	2198.40
556.97	2203.02
557.32	2208.70
557.68	2215.15
558.03	2220.73
558.39	2226.21
558.74	2232.06
559.10	2237.69
559.45	2243.41
559.81	2248.93
560.16	2254.36
560.52	2260.19
560.87	2266.75
561.23	2272.59
561.58	2279.32
561.94	2284.62
562.29	2289.23
562.64	2295.24
563.00	2301.08
563.35	2306.57
563.71	2312.38
564.06	2318.08
564.42	2324.28
564.77	2329.50
565.12	2334.91
565.48	2340.20
565.83	2345.81
566.19	2351.24
566.54	2356.60
566.89	2361.13
567.25	2365.77
567.60	2371.58
567.96	2376.68
568.31	2381.03
568.66	2385.32
569.02	2389.23
569.37	2392.97
569.72	2397.52
570.08	2400.98
570.43	2404.21
570.78	2407.47
571.14	2409.98
571.49	2413.12
571.84	2416.57
572.20	2419.42
572.55	2422.33
572.90	2424.48
573.26	2427.29
573.61	2429.92
573.96	2432.02
574.31	2433.97
574.67	2435.83
575.02	2436.64
575.37	2438.13
575.72	2438.93
576.08	2440.37
576.43	2440.37
576.78	2440.92
577.13	2442.33
577.49	2443.53
577.84	2444.45
578.19	2445.64
578.54	2446.08
578.90	2446.71
579.25	2446.60
579.60	2446.63
579.95	2445.75
580.30	2445.93
580.66	2445.17
581.01	2443.43
581.36	2441.05
581.71	2439.64
582.06	2438.53
582.42	2437.49
582.77	2435.21
583.12	2433.57
583.47	2432.11
583.82	2431.58
584.17	2430.11
584.53	2428.02
584.88	2425.77
585.23	2423.99
585.58	2421.57
585.93	2419.62
586.28	2417.34
586.63	2414.87
586.98	2412.52
587.34	2410.47
587.69	2407.89
588.04	2405.71
588.39	2404.34
588.74	2401.91
589.09	2399.12
589.44	2395.82
589.79	2393.22
590.14	2391.23
590.49	2388.34
590.84	2384.52
591.19	2381.23
591.54	2378.02
591.89	2373.79
592.25	2370.51
592.60	2366.15
592.95	2362.15
593.30	2357.85
593.65	2353.49
594.00	2349.04
594.35	2346.04
594.70	2341.44
595.05	2336.93
595.40	2331.47
595.75	2325.42
596.10	2321.66
596.45	2316.81
596.80	2312.27
597.15	2307.01
597.50	2300.99
597.85	2295.97
598.19	2290.55
598.54	2284.89
598.89	2279.59
599.24	2275.08
599.59	2268.96
599.94	2263.14
600.29	2257.13
600.64	2251.10
600.99	2244.21
601.34	2238.57
601.69	2231.41
602.04	2225.00
602.39	2218.15
602.74	2211.98
603.08	2206.50
603.43	2199.84
603.78	2192.93
604.13	2185.74
604.48	2178.42
604.83	2172.21
605.18	2165.84
605.53	2159.03
605.87	2151.80
606.22	2144.96
606.57	2136.99
606.92	2128.82
607.27	2121.77
607.62	2114.88
607.96	2107.78
608.31	2101.40
608.66	2093.59
609.01	2086.00
609.36	2078.76
609.70	2071.10
610.05	2063.27
610.40	2054.91
610.75	2046.65
611.10	2038.81
611.44	2029.84
611.79	2021.19
612.14	2011.29
612.49	2000.67
612.83	1991.20
613.18	1981.94
613.53	1972.52
613.88	1962.92
614.22	1954.37
614.57	1944.35
614.92	1933.82
615.27	1923.65
615.61	1913.39
615.96	1903.65
616.31	1893.92
616.65	1884.45
617.00	1874.66
617.35	1865.03
617.70	1855.23
618.04	1845.18
618.39	1835.07
618.74	1825.39
619.08	1815.68
619.43	1806.80
619.78	1798.58
620.12	1789.86
620.47	1780.25
620.82	1769.89
621.16	1760.04
621.51	1750.09
621.85	1740.27
622.20	1729.83
622.55	1719.31
622.89	1709.31
623.24	1699.64
623.59	1689.90
623.93	1679.70
624.28	1669.96
624.62	1659.66
624.97	1649.32
625.32	1639.38
625.66	1630.36
626.01	1621.51
626.35	1612.08
626.70	1602.04
627.04	1591.84
627.39	1581.80
627.73	1572.49
628.08	1563.60
628.43	1553.97
628.77	1544.76
629.12	1535.89
629.46	1528.04
629.81	1519.58
630.15	1510.07
630.50	1500.22
630.84	1489.62
631.19	1479.74
631.53	1470.34
631.88	1460.21
632.22	1450.19
632.57	1440.87
632.91	1430.74
633.26	1420.83
633.60	1411.28
633.95	1401.89
634.29	1392.37
634.64	1382.99
634.98	1372.90
635.32	1363.50
635.67	1354.90
636.01	1345.50
636.36	1335.67
636.70	1326.09
637.05	1316.67
637.39	1307.64
637.73	1298.94
638.08	1291.38
638.42	1283.18
638.77	1274.35
639.11	1266.10
639.45	1258.30
639.80	1249.70
640.14	1240.98
640.49	1232.15
640.83	1223.22
641.17	1215.06
641.52	1206.92
641.86	1198.28
642.20	1190.43
642.55	1181.77
642.89	1172.91
643.23	1164.26
643.58	1156.14
643.92	1147.09
644.26	1138.33
644.61	1129.91
644.95	1121.02
645.29	1111.74
645.64	1102.43
645.98	1093.83
646.32	1085.87
646.66	1077.31
647.01	1068.96
647.35	1060.77
647.69	1052.31
648.04	1043.91
648.38	1034.98
648.72	1026.09
649.06	1017.55
649.41	1009.26
649.75	1001.23
650.09	993.29
650.43	985.21
650.78	976.75
651.12	968.96
651.46	961.47
651.80	954.09
652.14	946.78
652.49	939.13
652.83	931.80
653.17	924.09
653.51	916.33
653.85	908.97
654.20	901.61
654.54	894.03
654.88	886.82
655.22	879.62
655.56	872.58
655.90	865.72
656.25	859.02
656.59	852.17
656.93	845.04
657.27	837.84
657.61	830.74
657.95	824.53
658.29	818.53
658.64	812.42
658.98	805.91
659.32	799.35
659.66	793.07
660.00	786.63
660.34	780.50
660.68	774.38
661.02	768.06
661.36	762.06
661.70	756.23
662.05	750.42
662.39	744.82
662.73	739.37
663.07	733.95
663.41	728.25
663.75	722.39
664.09	716.70
664.43	711.29
664.77	705.89
665.11	700.05
665.45	694.10
665.79	688.19
666.13	682.49
666.47	676.88
666.81	671.39
667.15	666.03
667.49	660.81
667.83	655.45
668.17	650.14
668.51	644.97
668.85	639.99
669.19	635.10
669.53	630.06
669.87	624.89
670.21	620.08
670.55	615.31
670.89	610.85
671.23	606.46
671.57	601.96
671.91	597.66
672.25	593.47
672.58	589.32
672.92	585.17
673.26	581.16
673.60	577.24
673.94	573.46
674.28	569.76
674.62	565.93
674.96	562.15
675.30	558.62
675.64	554.90
675.97	551.29
676.31	547.59
676.65	543.92
676.99	540.50
677.33	536.57
677.67	532.89
678.01	528.96
678.34	525.31
678.68	521.77
679.02	518.15
679.36	514.43
679.70	510.74
680.04	507.16
680.37	503.64
680.71	500.32
681.05	497.01
681.39	493.70
681.73	490.46
682.06	487.41
682.40	484.25
682.74	481.01
683.08	477.76
683.42	474.56
683.75	471.53
684.09	468.44
684.43	465.61
684.77	462.63
685.10	459.79
685.44	456.85
685.78	453.92
686.12	451.07
686.45	448.36
686.79	445.65
687.13	443.05
687.46	440.43
687.80	437.64
688.14	434.78
688.48	432.15
688.81	429.43
689.15	426.76
689.49	424.01
689.82	421.46
690.16	418.78
690.50	416.28
690.83	413.80
691.17	411.21
691.51	408.72
691.84	406.43
692.18	404.13
692.52	401.81
692.85	399.60
693.19	397.44
693.52	395.21
693.86	392.97
694.20	390.81
694.53	388.61
694.87	386.41
695.21	384.25
695.54	382.00
695.88	379.84
696.21	377.62
696.55	375.51
696.88	373.41
697.22	371.42
697.56	369.51
697.89	367.54
698.23	365.72
698.56	363.87
698.90	362.04
699.23	360.13
699.57	358.27
699.90	356.40
700.24	354.53
700.58	352.73
700.91	351.01
701.25	349.37
701.58	347.75
701.92	346.15
702.25	344.55
702.59	342.97
702.92	341.40
703.26	339.86
703.59	338.40
703.93	337.13
704.26	335.67
704.60	334.15
704.93	332.62
705.26	331.10
705.60	329.63
705.93	328.12
706.27	326.77
706.60	325.48
706.94	324.24
707.27	322.83
707.61	321.45
707.94	320.10
708.27	318.57
708.61	317.08
708.94	315.68
709.28	314.33
709.61	313.02
709.94	311.79
710.28	310.55
710.61	309.32
710.95	307.87
711.28	306.76
711.61	305.55
711.95	304.44
712.28	303.23
712.61	302.06
712.95	300.98
713.28	299.91
713.61	298.75
713.95	297.55
714.28	296.51
714.61	295.42
714.95	294.37
715.28	293.30
715.61	292.26
715.95	291.30
716.28	290.32
716.61	289.35
716.95	288.35
717.28	287.45
717.61	286.46
717.94	285.52
718.28	284.50
718.61	283.60
718.94	282.67
719.27	281.83
719.61	280.97
719.94	280.09
720.27	279.11
720.60	278.21
720.94	277.41
721.27	276.68
721.60	276.00
721.93	275.30
722.27	274.64
722.60	274.00
722.93	273.26
723.26	272.56
723.59	271.86
723.93	271.22
724.26	270.53
724.59	269.87
724.92	269.28
725.25	268.71
725.59	268.13
725.92	267.61
726.25	267.01
726.58	266.43
726.91	265.83
727.24	265.29
727.57	264.77
727.91	264.12
728.24	263.56
728.57	263.00
728.90	262.41
729.23	261.85
729.56	261.37
729.89	260.85
730.22	260.33
730.55	259.78
730.89	259.25
731.22	258.72
731.55	258.20
731.88	257.66
732.21	257.12
732.54	256.58
732.87	256.02
733.20	255.55
733.53	255.05
733.86	254.59
734.19	254.07
734.52	253.66
734.85	253.40
735.18	252.89
735.51	252.48
735.84	252.06
736.17	251.64
736.50	251.11
736.83	250.96
737.16	250.55
737.49	250.16
737.82	249.73
738.15	249.34
738.48	248.95
738.81	248.59
739.14	248.14
739.47	247.77
739.80	247.38
740.13	247.02
740.46	246.60
740.79	246.22
741.12	245.87
741.45	245.46
741.78	244.99
742.11	244.73
742.44	244.38
742.77	244.06
743.10	243.70
743.43	243.36
743.75	242.73
744.08	242.66
744.41	242.29
744.74	241.94
745.07	241.55
745.40	241.24
745.73	240.95
746.06	240.65
746.39	240.34
746.71	240.01
747.04	239.62
747.37	239.31
747.70	239.03
748.03	238.71
748.36	238.45
748.68	238.12
749.01	237.74
749.34	237.43
749.67	237.16
750.00	236.92
750.33	236.80
750.65	236.54
750.98	236.00
751.31	235.76
751.64	235.53
751.97	235.40
752.29	235.13
752.62	234.80
752.95	234.54
753.28	234.26
753.60	234.05
753.93	233.90
754.26	233.68
754.59	233.39
754.91	233.16
755.24	232.90
755.57	232.69
755.90	232.47
756.22	232.19
756.55	231.92
756.88	231.64
757.20	231.26
757.53	231.04
757.86	230.82
758.19	230.64
758.51	230.40
758.84	230.09
759.17	229.89
759.49	229.70
759.82	229.61
760.15	229.44
760.47	229.22
760.80	228.96
761.13	228.81
761.45	228.61
761.78	228.42
762.11	228.25
762.43	228.05
762.76	227.86
763.08	227.72
763.41	227.57
763.74	227.40
764.06	227.26
764.39	227.06
764.71	226.92
765.04	226.73
765.37	226.59
765.69	226.46
766.02	226.32
766.34	226.17
766.67	225.95
767.00	225.86
767.32	225.84
767.65	225.83
767.97	225.68
768.30	225.58
768.62	225.46
768.95	225.32
769.27	225.19
769.60	225.09
769.92	224.93
770.25	224.78
770.57	224.63
770.90	224.49
771.22	224.38
771.55	224.28
771.87	224.20
772.20	224.04
772.52	224.06
772.85	224.20
773.17	224.10
773.50	223.97
773.82	223.81
774.15	223.59
774.47	223.36
774.80	223.22
775.12	223.11
775.45	223.00
775.77	222.90
776.09	222.79
776.42	222.69
776.74	222.64
777.07	222.55
777.39	222.49
777.72	222.39
778.04	222.33
778.36	222.21
778.69	222.14
779.01	222.11
779.33	221.86
779.66	221.53
779.98	221.41
780.31	221.36
780.63	221.37
780.95	221.30
781.28	221.21
781.60	221.15
781.92	221.09
782.25	221.02
782.57	220.94
782.89	220.89
783.22	220.80
783.54	220.70
783.86	220.65
784.19	220.58
784.51	220.59
784.83	220.48
785.16	220.42
785.48	220.36
785.80	220.31
786.12	220.27
