SpectraSuite Data File
++++++++++++++++++++++++++++++++++++
Date: Tue Jan 29 16:33:48 EST 2013
User: group
Dark Spectrum Present: No
Reference Spectrum Present: No
Number of Sampled Component Spectra: 1
Spectrometers: USB2E7196
Integration Time (usec): 65000 (USB2E7196)
Spectra Averaged: 100 (USB2E7196)
Boxcar Smoothing: 10 (USB2E7196)
Correct for Electrical Dark: No (USB2E7196)
Strobe/Lamp Enabled: No (USB2E7196)
Correct for Detector Non-linearity: No (USB2E7196)
Correct for Stray Light: No (USB2E7196)
Number of Pixels in Processed Spectrum: 2048
>>>>>Begin Processed Spectral Data<<<<<
339.09	0.00
339.48	202.35
339.86	203.16
340.24	204.83
340.63	206.31
341.01	210.48
341.39	209.31
341.78	209.96
342.16	211.99
342.54	211.83
342.93	201.06
343.31	211.24
343.69	211.76
344.07	212.26
344.46	212.71
344.84	213.10
345.22	213.28
345.60	213.53
345.99	213.73
346.37	213.87
346.75	213.96
347.13	214.04
347.52	214.12
347.90	214.24
348.28	214.29
348.66	214.37
349.05	214.34
349.43	214.41
349.81	214.50
350.19	214.57
350.57	214.66
350.96	214.74
351.34	214.81
351.72	214.87
352.10	214.93
352.48	214.99
352.87	215.02
353.25	215.07
353.63	215.13
354.01	215.20
354.39	215.24
354.77	215.34
355.15	215.50
355.54	215.55
355.92	215.52
356.30	215.56
356.68	215.74
357.06	215.80
357.44	215.86
357.82	215.92
358.20	215.98
358.58	216.01
358.97	216.08
359.35	216.19
359.73	216.31
360.11	216.38
360.49	216.42
360.87	216.49
361.25	216.56
361.63	216.67
362.01	216.70
362.39	216.74
362.77	216.75
363.15	216.76
363.53	216.80
363.91	216.84
364.29	216.87
364.67	216.69
365.05	216.74
365.43	216.81
365.81	216.83
366.19	216.92
366.57	217.04
366.95	217.04
367.33	216.96
367.71	216.99
368.09	217.03
368.47	217.04
368.85	217.01
369.23	217.10
369.61	217.01
369.99	217.08
370.37	217.09
370.75	217.19
371.13	217.14
371.51	217.09
371.89	217.11
372.27	217.09
372.65	217.11
373.03	217.07
373.41	216.98
373.78	216.92
374.16	216.76
374.54	216.67
374.92	216.64
375.30	216.66
375.68	216.58
376.06	216.56
376.44	216.50
376.82	216.50
377.19	216.44
377.57	216.41
377.95	216.30
378.33	216.26
378.71	216.13
379.09	216.10
379.47	216.08
379.84	216.01
380.22	215.96
380.60	215.87
380.98	215.82
381.36	215.78
381.73	215.72
382.11	215.75
382.49	215.70
382.87	215.65
383.25	215.60
383.62	215.80
384.00	215.70
384.38	215.64
384.76	215.65
385.13	215.70
385.51	215.66
385.89	215.62
386.27	215.60
386.64	215.61
387.02	215.61
387.40	215.54
387.78	215.51
388.15	215.50
388.53	215.51
388.91	215.48
389.29	215.47
389.66	215.49
390.04	215.46
390.42	215.49
390.79	215.46
391.17	215.42
391.55	215.19
391.92	215.20
392.30	215.22
392.68	215.12
393.05	215.07
393.43	215.07
393.81	215.05
394.18	215.01
394.56	214.98
394.94	214.99
395.31	214.97
395.69	215.06
396.06	215.10
396.44	215.12
396.82	215.11
397.19	215.23
397.57	215.22
397.95	215.27
398.32	215.24
398.70	215.26
399.07	215.34
399.45	215.37
399.82	215.41
400.20	215.48
400.58	215.57
400.95	215.55
401.33	215.65
401.70	215.89
402.08	215.99
402.45	216.07
402.83	216.20
403.20	216.35
403.58	216.39
403.95	216.52
404.33	216.67
404.71	216.86
405.08	217.14
405.46	217.34
405.83	217.55
406.21	217.76
406.58	218.04
406.96	218.26
407.33	218.50
407.70	218.83
408.08	219.30
408.45	219.67
408.83	220.06
409.20	220.42
409.58	220.67
409.95	221.16
410.33	221.64
410.70	222.07
411.08	222.61
411.45	223.24
411.82	223.83
412.20	224.53
412.57	225.36
412.95	225.91
413.32	226.71
413.69	227.55
414.07	228.45
414.44	229.38
414.82	230.42
415.19	231.60
415.56	232.76
415.94	233.93
416.31	235.31
416.68	236.73
417.06	238.32
417.43	239.90
417.81	241.63
418.18	243.39
418.55	245.33
418.93	247.37
419.30	249.46
419.67	251.68
420.04	253.98
420.42	256.37
420.79	259.19
421.16	261.99
421.54	264.86
421.91	267.87
422.28	270.96
422.66	274.22
423.03	277.50
423.40	280.83
423.77	284.44
424.15	288.12
424.52	291.96
424.89	296.17
425.26	300.21
425.64	304.10
426.01	308.43
426.38	312.94
426.75	317.46
427.13	322.20
427.50	327.17
427.87	332.39
428.24	337.62
428.61	342.59
428.99	348.12
429.36	354.17
429.73	360.05
430.10	365.99
430.47	372.06
430.85	378.38
431.22	385.11
431.59	392.24
431.96	399.04
432.33	406.53
432.70	413.75
433.08	422.33
433.45	430.37
433.82	438.38
434.19	447.28
434.56	456.04
434.93	464.41
435.30	472.66
435.68	481.76
436.05	490.68
436.42	499.59
436.79	507.70
437.16	516.47
437.53	525.81
437.90	534.94
438.27	543.91
438.64	553.09
439.01	561.67
439.38	569.26
439.75	576.62
440.13	585.05
440.50	593.05
440.87	599.47
441.24	606.12
441.61	613.49
441.98	618.89
442.35	625.26
442.72	631.59
443.09	637.78
443.46	641.53
443.83	644.14
444.20	646.35
444.57	649.58
444.94	651.02
445.31	652.46
445.68	653.89
446.05	654.50
446.42	653.80
446.79	652.82
447.16	651.68
447.53	650.89
447.90	647.55
448.27	644.23
448.64	639.55
449.01	636.25
449.37	630.29
449.74	624.63
450.11	617.68
450.48	610.29
450.85	602.76
451.22	596.27
451.59	590.08
451.96	584.26
452.33	576.35
452.70	569.22
453.07	560.74
453.43	552.06
453.80	543.76
454.17	535.69
454.54	528.14
454.91	520.02
455.28	512.07
455.65	504.75
456.02	497.20
456.38	490.89
456.75	483.02
457.12	476.52
457.49	469.93
457.86	463.71
458.23	458.33
458.59	452.40
458.96	446.42
459.33	441.11
459.70	435.73
460.07	431.47
460.43	426.63
460.80	422.02
461.17	418.08
461.54	413.91
461.91	409.92
462.27	405.78
462.64	402.29
463.01	398.47
463.38	394.67
463.74	390.96
464.11	387.68
464.48	384.84
464.85	381.72
465.21	379.30
465.58	376.68
465.95	373.48
466.32	370.85
466.68	368.22
467.05	365.63
467.42	363.02
467.78	360.30
468.15	357.72
468.52	355.80
468.88	353.30
469.25	351.09
469.62	349.29
469.98	347.34
470.35	345.55
470.72	343.85
471.08	342.07
471.45	340.62
471.82	339.11
472.18	337.40
472.55	336.20
472.92	334.80
473.28	333.60
473.65	332.48
474.02	331.34
474.38	330.45
474.75	329.68
475.11	328.89
475.48	328.37
475.85	327.86
476.21	327.39
476.58	327.02
476.94	326.77
477.31	326.38
477.67	326.17
478.04	326.02
478.41	325.99
478.77	326.14
479.14	326.08
479.50	326.23
479.87	326.56
480.23	326.84
480.60	327.05
480.96	327.29
481.33	327.86
481.69	328.46
482.06	328.96
482.42	329.42
482.79	330.06
483.15	330.84
483.52	331.82
483.88	332.68
484.25	333.63
484.61	334.60
484.98	335.70
485.34	337.01
485.71	338.39
486.07	339.81
486.44	341.13
486.80	342.74
487.17	344.39
487.53	346.23
487.90	348.07
488.26	350.10
488.62	352.29
488.99	354.35
489.35	356.53
489.72	358.93
490.08	361.47
490.44	363.99
490.81	366.66
491.17	369.35
491.54	372.31
491.90	375.39
492.26	378.62
492.63	382.02
492.99	385.48
493.36	389.09
493.72	393.03
494.08	397.09
494.45	401.25
494.81	405.65
495.17	410.09
495.54	414.85
495.90	419.78
496.26	424.72
496.63	429.92
496.99	435.29
497.35	440.92
497.72	446.75
498.08	452.72
498.44	458.87
498.80	465.33
499.17	471.86
499.53	478.56
499.89	485.57
500.26	492.62
500.62	499.70
500.98	507.24
501.34	514.71
501.71	522.49
502.07	530.42
502.43	538.45
502.79	546.64
503.16	555.06
503.52	563.64
503.88	572.39
504.24	581.41
504.60	590.49
504.97	599.77
505.33	609.05
505.69	618.92
506.05	628.86
506.41	638.78
506.78	648.89
507.14	659.17
507.50	669.68
507.86	680.42
508.22	691.27
508.59	701.93
508.95	713.04
509.31	724.30
509.67	735.84
510.03	747.26
510.39	759.08
510.75	770.98
511.12	782.90
511.48	795.09
511.84	807.42
512.20	819.85
512.56	832.58
512.92	845.45
513.28	858.23
513.64	871.09
514.00	883.97
514.37	897.07
514.73	910.25
515.09	923.25
515.45	936.28
515.81	949.45
516.17	962.98
516.53	976.28
516.89	989.55
517.25	1002.83
517.61	1016.41
517.97	1029.87
518.33	1043.17
518.69	1056.87
519.05	1070.64
519.41	1084.35
519.77	1098.33
520.13	1111.76
520.49	1125.04
520.85	1138.48
521.21	1151.84
521.57	1165.60
521.93	1178.73
522.29	1192.60
522.65	1206.39
523.01	1219.97
523.37	1233.27
523.73	1246.65
524.09	1260.05
524.45	1273.54
524.81	1287.11
525.17	1300.69
525.53	1314.03
525.89	1327.40
526.25	1340.61
526.61	1353.63
526.97	1366.91
527.33	1380.03
527.68	1393.56
528.04	1407.26
528.40	1420.57
528.76	1434.18
529.12	1447.27
529.48	1460.71
529.84	1473.02
530.20	1485.88
530.56	1498.72
530.91	1512.11
531.27	1525.14
531.63	1537.93
531.99	1550.86
532.35	1563.19
532.71	1575.73
533.07	1588.82
533.42	1601.31
533.78	1613.62
534.14	1625.78
534.50	1637.02
534.86	1648.68
535.21	1659.61
535.57	1671.12
535.93	1682.51
536.29	1693.63
536.65	1705.15
537.00	1716.24
537.36	1727.80
537.72	1738.93
538.08	1750.50
538.44	1761.70
538.79	1772.84
539.15	1783.80
539.51	1794.71
539.87	1806.20
540.22	1817.12
540.58	1828.09
540.94	1839.10
541.29	1849.45
541.65	1859.36
542.01	1870.01
542.37	1880.18
542.72	1890.48
543.08	1900.50
543.44	1911.03
543.79	1920.36
544.15	1929.90
544.51	1939.90
544.87	1949.95
545.22	1959.23
545.58	1968.12
545.94	1977.08
546.29	1985.78
546.65	1994.30
547.01	2002.51
547.36	2010.18
547.72	2017.95
548.07	2025.62
548.43	2033.31
548.79	2041.26
549.14	2049.52
549.50	2058.13
549.86	2066.17
550.21	2073.71
550.57	2081.41
550.92	2088.33
551.28	2096.00
551.64	2103.35
551.99	2111.05
552.35	2118.33
552.70	2125.37
553.06	2132.05
553.41	2138.32
553.77	2144.90
554.13	2151.38
554.48	2158.50
554.84	2165.79
555.19	2172.55
555.55	2179.01
555.90	2185.42
556.26	2192.30
556.61	2198.41
556.97	2203.31
557.32	2208.96
557.68	2215.41
558.03	2221.19
558.39	2226.62
558.74	2232.59
559.10	2238.18
559.45	2243.66
559.81	2249.17
560.16	2254.65
560.52	2260.81
560.87	2267.20
561.23	2272.94
561.58	2279.68
561.94	2284.94
562.29	2289.65
562.64	2295.59
563.00	2301.19
563.35	2306.67
563.71	2312.38
564.06	2318.03
564.42	2323.96
564.77	2329.15
565.12	2334.48
565.48	2339.66
565.83	2345.20
566.19	2350.57
566.54	2355.87
566.89	2360.55
567.25	2365.12
567.60	2370.86
567.96	2375.69
568.31	2380.22
568.66	2384.64
569.02	2388.56
569.37	2392.20
569.72	2396.53
570.08	2400.09
570.43	2403.21
570.78	2406.41
571.14	2408.85
571.49	2411.95
571.84	2415.45
572.20	2418.28
572.55	2421.19
572.90	2423.42
573.26	2426.09
573.61	2428.66
573.96	2430.94
574.31	2432.96
574.67	2434.79
575.02	2435.49
575.37	2437.02
575.72	2437.72
576.08	2439.09
576.43	2439.05
576.78	2439.46
577.13	2440.95
577.49	2442.02
577.84	2442.93
578.19	2444.12
578.54	2444.72
578.90	2445.39
579.25	2445.31
579.60	2445.21
579.95	2444.26
580.30	2444.19
580.66	2443.35
581.01	2441.58
581.36	2438.89
581.71	2437.28
582.06	2436.17
582.42	2435.37
582.77	2433.03
583.12	2431.30
583.47	2429.72
583.82	2429.14
584.17	2427.93
584.53	2425.65
584.88	2423.56
585.23	2421.77
585.58	2419.53
585.93	2417.45
586.28	2415.18
586.63	2412.60
586.98	2410.25
587.34	2408.29
587.69	2405.80
588.04	2403.71
588.39	2402.25
588.74	2399.98
589.09	2397.43
589.44	2394.07
589.79	2391.46
590.14	2389.41
590.49	2386.61
590.84	2382.88
591.19	2379.68
591.54	2376.44
591.89	2372.45
592.25	2369.10
592.60	2364.76
592.95	2360.51
593.30	2356.33
593.65	2351.90
594.00	2347.28
594.35	2344.43
594.70	2339.71
595.05	2335.10
595.40	2329.71
595.75	2323.91
596.10	2320.18
596.45	2315.12
596.80	2310.52
597.15	2305.14
597.50	2299.14
597.85	2294.17
598.19	2288.82
598.54	2283.01
598.89	2277.62
599.24	2273.05
599.59	2266.66
599.94	2260.78
600.29	2254.80
600.64	2248.77
600.99	2241.82
601.34	2236.25
601.69	2229.18
602.04	2222.78
602.39	2216.08
602.74	2209.88
603.08	2204.21
603.43	2197.54
603.78	2190.63
604.13	2183.40
604.48	2176.01
604.83	2169.83
605.18	2163.43
605.53	2156.51
605.87	2149.41
606.22	2142.70
606.57	2134.68
606.92	2126.72
607.27	2119.75
607.62	2113.06
607.96	2106.01
608.31	2099.61
608.66	2091.94
609.01	2084.18
609.36	2077.00
609.70	2069.30
610.05	2061.45
610.40	2053.09
610.75	2044.68
611.10	2037.00
611.44	2028.09
611.79	2019.53
612.14	2009.64
612.49	1998.98
612.83	1989.47
613.18	1980.08
613.53	1970.66
613.88	1961.06
614.22	1952.51
614.57	1942.60
614.92	1931.89
615.27	1921.61
615.61	1911.44
615.96	1901.75
616.31	1892.03
616.65	1882.57
617.00	1872.83
617.35	1863.14
617.70	1853.32
618.04	1843.37
618.39	1833.25
618.74	1823.61
619.08	1813.81
619.43	1805.03
619.78	1796.63
620.12	1788.07
620.47	1778.55
620.82	1768.20
621.16	1758.33
621.51	1748.35
621.85	1738.42
622.20	1728.12
622.55	1717.61
622.89	1707.64
623.24	1697.88
623.59	1688.04
623.93	1677.83
624.28	1667.95
624.62	1657.82
624.97	1647.59
625.32	1637.66
625.66	1628.63
626.01	1619.89
626.35	1610.45
626.70	1600.38
627.04	1590.39
627.39	1580.25
627.73	1570.88
628.08	1561.96
628.43	1552.37
628.77	1543.22
629.12	1534.38
629.46	1526.39
629.81	1517.87
630.15	1508.36
630.50	1498.50
630.84	1487.96
631.19	1478.04
631.53	1468.81
631.88	1458.59
632.22	1448.59
632.57	1439.22
632.91	1429.09
633.26	1419.13
633.60	1409.59
633.95	1400.32
634.29	1390.79
634.64	1381.48
634.98	1371.56
635.32	1362.16
635.67	1353.64
636.01	1344.35
636.36	1334.61
636.70	1325.06
637.05	1315.75
637.39	1306.86
637.73	1298.22
638.08	1290.82
638.42	1282.75
638.77	1273.97
639.11	1265.70
639.45	1257.88
639.80	1249.38
640.14	1240.60
640.49	1231.68
640.83	1222.80
641.17	1214.45
641.52	1206.18
641.86	1197.52
642.20	1189.58
642.55	1180.91
642.89	1172.04
643.23	1163.30
643.58	1155.11
643.92	1146.14
644.26	1137.35
644.61	1128.87
644.95	1120.01
645.29	1110.67
645.64	1101.35
645.98	1092.67
646.32	1084.69
646.66	1076.08
647.01	1067.64
647.35	1059.49
647.69	1051.17
648.04	1042.85
648.38	1034.02
648.72	1025.30
649.06	1016.75
649.41	1008.46
649.75	1000.51
650.09	992.52
650.43	984.44
650.78	976.06
651.12	968.26
651.46	960.88
651.80	953.45
652.14	946.10
652.49	938.57
652.83	931.16
653.17	923.45
653.51	915.82
653.85	908.48
654.20	901.19
654.54	893.67
654.88	886.42
655.22	879.22
655.56	872.16
655.90	865.33
656.25	858.67
656.59	851.73
656.93	844.57
657.27	837.46
657.61	830.28
657.95	824.12
658.29	818.13
658.64	811.93
658.98	805.46
659.32	798.95
659.66	792.62
660.00	786.28
660.34	780.21
660.68	774.02
661.02	767.70
661.36	761.71
661.70	755.84
662.05	750.14
662.39	744.52
662.73	739.04
663.07	733.62
663.41	727.92
663.75	722.22
664.09	716.44
664.43	710.92
664.77	705.62
665.11	699.78
665.45	693.87
665.79	688.01
666.13	682.31
666.47	676.76
666.81	671.28
667.15	665.82
667.49	660.50
667.83	655.21
668.17	649.89
668.51	644.65
668.85	639.67
669.19	634.72
669.53	629.65
669.87	624.48
670.21	619.60
670.55	614.89
670.89	610.30
671.23	606.00
671.57	601.54
671.91	597.19
672.25	592.97
672.58	588.75
672.92	584.65
673.26	580.63
673.60	576.63
673.94	572.76
674.28	569.15
674.62	565.42
674.96	561.60
675.30	558.07
675.64	554.41
675.97	550.78
676.31	547.12
676.65	543.56
676.99	540.18
677.33	536.24
677.67	532.57
678.01	528.70
678.34	525.10
678.68	521.60
679.02	517.97
679.36	514.27
679.70	510.60
680.04	506.96
680.37	503.45
680.71	500.08
681.05	496.86
681.39	493.51
681.73	490.28
682.06	487.23
682.40	484.07
682.74	480.87
683.08	477.61
683.42	474.32
683.75	471.19
684.09	468.04
684.43	465.22
684.77	462.21
685.10	459.33
685.44	456.33
685.78	453.39
686.12	450.58
686.45	447.82
686.79	445.13
687.13	442.62
687.46	439.98
687.80	437.29
688.14	434.41
688.48	431.79
688.81	429.08
689.15	426.43
689.49	423.79
689.82	421.26
690.16	418.61
690.50	416.17
690.83	413.70
691.17	411.15
691.51	408.64
691.84	406.33
692.18	404.12
692.52	401.83
692.85	399.65
693.19	397.48
693.52	395.28
693.86	393.00
694.20	390.74
694.53	388.57
694.87	386.34
695.21	384.20
695.54	381.97
695.88	379.81
696.21	377.61
696.55	375.48
696.88	373.34
697.22	371.34
697.56	369.42
697.89	367.47
698.23	365.67
698.56	363.90
698.90	362.15
699.23	360.21
699.57	358.35
699.90	356.37
700.24	354.50
700.58	352.73
700.91	351.07
701.25	349.45
701.58	347.82
701.92	346.19
702.25	344.53
702.59	342.91
702.92	341.31
703.26	339.70
703.59	338.21
703.93	336.92
704.26	335.49
704.60	333.98
704.93	332.50
705.26	330.99
705.60	329.46
705.93	327.90
706.27	326.54
706.60	325.24
706.94	324.04
707.27	322.70
707.61	321.28
707.94	319.89
708.27	318.38
708.61	316.93
708.94	315.57
709.28	314.25
709.61	312.95
709.94	311.73
710.28	310.54
710.61	309.30
710.95	307.85
711.28	306.72
711.61	305.50
711.95	304.33
712.28	303.13
712.61	301.94
712.95	300.89
713.28	299.81
713.61	298.60
713.95	297.39
714.28	296.30
714.61	295.29
714.95	294.24
715.28	293.22
715.61	292.17
715.95	291.18
716.28	290.24
716.61	289.27
716.95	288.23
717.28	287.28
717.61	286.31
717.94	285.41
718.28	284.38
718.61	283.50
718.94	282.59
719.27	281.71
719.61	280.86
719.94	279.98
720.27	279.00
720.60	278.16
720.94	277.33
721.27	276.56
721.60	275.88
721.93	275.12
722.27	274.47
722.60	273.77
722.93	273.06
723.26	272.34
723.59	271.63
723.93	271.02
724.26	270.36
724.59	269.68
724.92	269.09
725.25	268.56
725.59	267.97
725.92	267.43
726.25	266.84
726.58	266.27
726.91	265.65
727.24	265.11
727.57	264.53
727.91	263.96
728.24	263.41
728.57	262.76
728.90	262.23
729.23	261.59
729.56	261.14
729.89	260.59
730.22	260.04
730.55	259.50
730.89	258.90
731.22	258.38
731.55	257.89
731.88	257.38
732.21	256.80
732.54	256.27
732.87	255.74
733.20	255.25
733.53	254.78
733.86	254.30
734.19	253.83
734.52	253.43
734.85	253.13
735.18	252.65
735.51	252.31
735.84	251.85
736.17	251.49
736.50	250.96
736.83	250.81
737.16	250.43
737.49	250.04
737.82	249.67
738.15	249.29
738.48	248.86
738.81	248.44
739.14	247.98
739.47	247.59
739.80	247.21
740.13	246.88
740.46	246.44
740.79	246.03
741.12	245.63
741.45	245.22
741.78	244.76
742.11	244.48
742.44	244.06
742.77	243.79
743.10	243.40
743.43	243.05
743.75	242.48
744.08	242.40
744.41	242.04
744.74	241.69
745.07	241.30
745.40	241.00
745.73	240.71
746.06	240.40
746.39	240.09
746.71	239.72
747.04	239.39
747.37	239.13
747.70	238.86
748.03	238.59
748.36	238.32
748.68	238.03
749.01	237.67
749.34	237.38
749.67	237.03
750.00	236.78
750.33	236.68
750.65	236.40
750.98	235.84
751.31	235.59
751.64	235.34
751.97	235.20
752.29	234.92
752.62	234.61
752.95	234.33
753.28	234.06
753.60	233.83
753.93	233.63
754.26	233.37
754.59	233.08
754.91	232.83
755.24	232.56
755.57	232.27
755.90	232.00
756.22	231.76
756.55	231.53
756.88	231.25
757.20	230.91
757.53	230.66
757.86	230.48
758.19	230.29
758.51	230.07
758.84	229.76
759.17	229.61
759.49	229.41
759.82	229.38
760.15	229.21
760.47	229.03
760.80	228.77
761.13	228.62
761.45	228.46
761.78	228.26
762.11	228.08
762.43	227.96
762.76	227.82
763.08	227.68
763.41	227.52
763.74	227.37
764.06	227.16
764.39	227.00
764.71	226.84
765.04	226.67
765.37	226.53
765.69	226.40
766.02	226.21
766.34	226.07
766.67	225.80
767.00	225.68
767.32	225.66
767.65	225.66
767.97	225.50
768.30	225.36
768.62	225.25
768.95	225.14
769.27	224.98
769.60	224.89
769.92	224.73
770.25	224.57
770.57	224.43
770.90	224.31
771.22	224.18
771.55	224.04
771.87	223.93
772.20	223.79
772.52	223.82
772.85	223.98
773.17	223.90
773.50	223.80
773.82	223.63
774.15	223.42
774.47	223.18
774.80	223.06
775.12	222.99
775.45	222.91
775.77	222.80
776.09	222.71
776.42	222.62
776.74	222.59
777.07	222.51
777.39	222.42
777.72	222.33
778.04	222.29
778.36	222.20
778.69	222.14
779.01	222.09
779.33	221.83
779.66	221.51
779.98	221.36
780.31	221.28
780.63	221.30
780.95	221.27
781.28	221.21
781.60	221.14
781.92	221.01
782.25	220.93
782.57	220.89
782.89	220.78
783.22	220.71
783.54	220.59
783.86	220.54
784.19	220.44
784.51	220.43
784.83	220.32
785.16	220.27
785.48	220.18
785.80	220.12
786.12	220.07
