SpectraSuite Data File
++++++++++++++++++++++++++++++++++++
Date: Tue Jan 29 16:31:55 EST 2013
User: group
Dark Spectrum Present: No
Reference Spectrum Present: No
Number of Sampled Component Spectra: 1
Spectrometers: USB2E7196
Integration Time (usec): 65000 (USB2E7196)
Spectra Averaged: 100 (USB2E7196)
Boxcar Smoothing: 10 (USB2E7196)
Correct for Electrical Dark: No (USB2E7196)
Strobe/Lamp Enabled: No (USB2E7196)
Correct for Detector Non-linearity: No (USB2E7196)
Correct for Stray Light: No (USB2E7196)
Number of Pixels in Processed Spectrum: 2048
>>>>>Begin Processed Spectral Data<<<<<
339.09	0.00
339.48	201.51
339.86	203.01
340.24	205.47
340.63	206.26
341.01	210.35
341.39	208.62
341.78	210.16
342.16	211.44
342.54	211.87
342.93	201.10
343.31	211.27
343.69	211.84
344.07	212.36
344.46	212.79
344.84	213.21
345.22	213.40
345.60	213.70
345.99	213.90
346.37	214.06
346.75	214.19
347.13	214.30
347.52	214.38
347.90	214.51
348.28	214.56
348.66	214.62
349.05	214.58
349.43	214.67
349.81	214.72
350.19	214.78
350.57	214.87
350.96	214.95
351.34	215.07
351.72	215.16
352.10	215.23
352.48	215.27
352.87	215.32
353.25	215.40
353.63	215.46
354.01	215.54
354.39	215.63
354.77	215.73
355.15	215.84
355.54	215.90
355.92	215.86
356.30	215.93
356.68	216.15
357.06	216.25
357.44	216.26
357.82	216.33
358.20	216.39
358.58	216.45
358.97	216.53
359.35	216.65
359.73	216.75
360.11	216.83
360.49	216.88
360.87	216.89
361.25	216.95
361.63	217.05
362.01	217.09
362.39	217.10
362.77	217.13
363.15	217.17
363.53	217.21
363.91	217.26
364.29	217.28
364.67	217.12
365.05	217.15
365.43	217.21
365.81	217.24
366.19	217.33
366.57	217.40
366.95	217.41
367.33	217.30
367.71	217.26
368.09	217.27
368.47	217.28
368.85	217.29
369.23	217.30
369.61	217.20
369.99	217.23
370.37	217.20
370.75	217.26
371.13	217.18
371.51	217.14
371.89	217.15
372.27	217.14
372.65	217.13
373.03	217.11
373.41	217.05
373.78	217.01
374.16	216.88
374.54	216.80
374.92	216.72
375.30	216.71
375.68	216.64
376.06	216.63
376.44	216.56
376.82	216.53
377.19	216.49
377.57	216.46
377.95	216.38
378.33	216.37
378.71	216.22
379.09	216.24
379.47	216.24
379.84	216.13
380.22	216.04
380.60	215.94
380.98	215.86
381.36	215.82
381.73	215.73
382.11	215.74
382.49	215.65
382.87	215.57
383.25	215.52
383.62	215.74
384.00	215.67
384.38	215.66
384.76	215.66
385.13	215.69
385.51	215.63
385.89	215.55
386.27	215.50
386.64	215.53
387.02	215.46
387.40	215.38
387.78	215.37
388.15	215.39
388.53	215.38
388.91	215.37
389.29	215.35
389.66	215.39
390.04	215.33
390.42	215.38
390.79	215.39
391.17	215.38
391.55	215.13
391.92	215.12
392.30	215.16
392.68	215.12
393.05	215.08
393.43	215.11
393.81	215.18
394.18	215.19
394.56	215.17
394.94	215.21
395.31	215.23
395.69	215.29
396.06	215.34
396.44	215.38
396.82	215.39
397.19	215.50
397.57	215.51
397.95	215.59
398.32	215.54
398.70	215.60
399.07	215.68
399.45	215.72
399.82	215.76
400.20	215.78
400.58	215.83
400.95	215.83
401.33	215.94
401.70	216.10
402.08	216.19
402.45	216.27
402.83	216.43
403.20	216.53
403.58	216.64
403.95	216.78
404.33	216.92
404.71	217.07
405.08	217.34
405.46	217.47
405.83	217.65
406.21	217.85
406.58	218.08
406.96	218.31
407.33	218.57
407.70	218.89
408.08	219.34
408.45	219.68
408.83	220.07
409.20	220.37
409.58	220.66
409.95	221.13
410.33	221.60
410.70	221.99
411.08	222.54
411.45	223.10
411.82	223.67
412.20	224.38
412.57	225.20
412.95	225.76
413.32	226.61
413.69	227.44
414.07	228.36
414.44	229.38
414.82	230.36
415.19	231.55
415.56	232.74
415.94	233.90
416.31	235.33
416.68	236.73
417.06	238.36
417.43	239.92
417.81	241.63
418.18	243.44
418.55	245.39
418.93	247.42
419.30	249.52
419.67	251.73
420.04	253.99
420.42	256.37
420.79	259.22
421.16	262.02
421.54	264.97
421.91	267.97
422.28	271.04
422.66	274.35
423.03	277.61
423.40	280.99
423.77	284.64
424.15	288.22
424.52	292.08
424.89	296.29
425.26	300.36
425.64	304.28
426.01	308.55
426.38	313.03
426.75	317.56
427.13	322.29
427.50	327.27
427.87	332.51
428.24	337.73
428.61	342.68
428.99	348.18
429.36	354.18
429.73	360.10
430.10	365.99
430.47	372.08
430.85	378.37
431.22	385.03
431.59	392.12
431.96	399.00
432.33	406.45
432.70	413.66
433.08	422.16
433.45	430.17
433.82	438.18
434.19	447.06
434.56	455.76
434.93	464.15
435.30	472.39
435.68	481.47
436.05	490.42
436.42	499.32
436.79	507.45
437.16	516.19
437.53	525.34
437.90	534.48
438.27	543.43
438.64	552.65
439.01	561.18
439.38	568.73
439.75	576.06
440.13	584.60
440.50	592.55
440.87	598.97
441.24	605.64
441.61	612.96
441.98	618.35
442.35	624.63
442.72	630.90
443.09	637.02
443.46	640.77
443.83	643.31
444.20	645.52
444.57	648.76
444.94	650.25
445.31	651.80
445.68	653.15
446.05	653.77
446.42	653.05
446.79	652.16
447.16	651.12
447.53	650.38
447.90	646.97
448.27	643.69
448.64	639.07
449.01	635.74
449.37	629.84
449.74	624.22
450.11	617.32
450.48	609.96
450.85	602.46
451.22	595.99
451.59	589.79
451.96	584.03
452.33	576.07
452.70	568.94
453.07	560.44
453.43	551.86
453.80	543.54
454.17	535.48
454.54	527.86
454.91	519.65
455.28	511.61
455.65	504.21
456.02	496.71
456.38	490.40
456.75	482.54
457.12	475.99
457.49	469.43
457.86	463.28
458.23	457.87
458.59	451.97
458.96	445.98
459.33	440.74
459.70	435.30
460.07	431.05
460.43	426.16
460.80	421.55
461.17	417.55
461.54	413.40
461.91	409.38
462.27	405.30
462.64	401.88
463.01	398.14
463.38	394.45
463.74	390.77
464.11	387.51
464.48	384.68
464.85	381.64
465.21	379.23
465.58	376.59
465.95	373.47
466.32	370.84
466.68	368.21
467.05	365.60
467.42	363.04
467.78	360.37
468.15	357.78
468.52	355.89
468.88	353.41
469.25	351.16
469.62	349.34
469.98	347.39
470.35	345.57
470.72	343.81
471.08	342.00
471.45	340.52
471.82	338.97
472.18	337.35
472.55	336.09
472.92	334.62
473.28	333.43
473.65	332.29
474.02	331.17
474.38	330.30
474.75	329.56
475.11	328.76
475.48	328.23
475.85	327.76
476.21	327.29
476.58	326.93
476.94	326.70
477.31	326.42
477.67	326.18
478.04	326.04
478.41	326.07
478.77	326.22
479.14	326.17
479.50	326.29
479.87	326.58
480.23	326.85
480.60	327.15
480.96	327.44
481.33	328.05
481.69	328.59
482.06	329.13
482.42	329.61
482.79	330.20
483.15	330.92
483.52	331.87
483.88	332.81
484.25	333.75
484.61	334.75
484.98	335.81
485.34	337.13
485.71	338.45
486.07	339.84
486.44	341.15
486.80	342.75
487.17	344.50
487.53	346.29
487.90	348.18
488.26	350.26
488.62	352.46
488.99	354.47
489.35	356.69
489.72	359.15
490.08	361.67
490.44	364.22
490.81	366.93
491.17	369.67
491.54	372.56
491.90	375.60
492.26	378.89
492.63	382.30
492.99	385.83
493.36	389.58
493.72	393.45
494.08	397.46
494.45	401.71
494.81	406.03
495.17	410.53
495.54	415.31
495.90	420.11
496.26	424.99
496.63	430.21
496.99	435.59
497.35	441.09
497.72	446.93
498.08	452.87
498.44	459.04
498.80	465.49
499.17	472.02
499.53	478.74
499.89	485.65
500.26	492.66
500.62	499.76
500.98	507.17
501.34	514.68
501.71	522.51
502.07	530.33
502.43	538.34
502.79	546.47
503.16	554.92
503.52	563.51
503.88	572.26
504.24	581.26
504.60	590.40
504.97	599.72
505.33	609.12
505.69	619.07
506.05	629.00
506.41	638.92
506.78	649.04
507.14	659.35
507.50	669.87
507.86	680.61
508.22	691.45
508.59	702.18
508.95	713.35
509.31	724.66
509.67	736.22
510.03	747.72
510.39	759.55
510.75	771.32
511.12	783.39
511.48	795.56
511.84	807.95
512.20	820.41
512.56	833.08
512.92	845.86
513.28	858.66
513.64	871.41
514.00	884.39
514.37	897.50
514.73	910.70
515.09	923.83
515.45	936.92
515.81	950.05
516.17	963.56
516.53	976.88
516.89	990.05
517.25	1003.40
517.61	1017.04
517.97	1030.54
518.33	1043.80
518.69	1057.43
519.05	1071.22
519.41	1085.04
519.77	1098.97
520.13	1112.39
520.49	1125.69
520.85	1139.16
521.21	1152.63
521.57	1166.36
521.93	1179.48
522.29	1193.25
522.65	1206.92
523.01	1220.55
523.37	1233.78
523.73	1247.17
524.09	1260.48
524.45	1274.07
524.81	1287.55
525.17	1301.12
525.53	1314.43
525.89	1328.01
526.25	1341.24
526.61	1354.29
526.97	1367.39
527.33	1380.53
527.68	1394.14
528.04	1407.87
528.40	1421.01
528.76	1434.51
529.12	1447.51
529.48	1461.05
529.84	1473.51
530.20	1486.29
530.56	1498.87
530.91	1512.32
531.27	1525.23
531.63	1538.10
531.99	1550.97
532.35	1563.38
532.71	1575.76
533.07	1588.73
533.42	1601.02
533.78	1613.19
534.14	1625.28
534.50	1636.72
534.86	1648.41
535.21	1659.46
535.57	1671.08
535.93	1682.49
536.29	1693.69
536.65	1705.30
537.00	1716.33
537.36	1727.87
537.72	1739.11
538.08	1750.74
538.44	1761.74
538.79	1772.98
539.15	1784.02
539.51	1794.77
539.87	1806.28
540.22	1817.21
540.58	1828.24
540.94	1839.17
541.29	1849.56
541.65	1859.42
542.01	1869.92
542.37	1880.05
542.72	1890.28
543.08	1900.01
543.44	1910.70
543.79	1920.12
544.15	1929.61
544.51	1939.74
544.87	1949.59
545.22	1958.97
545.58	1967.84
545.94	1976.82
546.29	1985.41
546.65	1993.88
547.01	2002.40
547.36	2010.02
547.72	2017.81
548.07	2025.47
548.43	2033.34
548.79	2041.37
549.14	2049.70
549.50	2058.34
549.86	2066.25
550.21	2073.82
550.57	2081.55
550.92	2088.35
551.28	2095.86
551.64	2103.17
551.99	2110.62
552.35	2117.90
552.70	2124.77
553.06	2131.65
553.41	2137.93
553.77	2144.48
554.13	2150.92
554.48	2157.88
554.84	2165.08
555.19	2171.65
555.55	2178.26
555.90	2184.64
556.26	2191.46
556.61	2197.67
556.97	2202.44
557.32	2208.19
557.68	2214.47
558.03	2220.32
558.39	2225.64
558.74	2231.70
559.10	2237.26
559.45	2242.98
559.81	2248.64
560.16	2253.99
560.52	2259.88
560.87	2266.38
561.23	2272.30
561.58	2278.93
561.94	2284.31
562.29	2288.99
562.64	2295.21
563.00	2300.72
563.35	2306.18
563.71	2312.12
564.06	2317.58
564.42	2323.55
564.77	2328.58
565.12	2333.97
565.48	2339.18
565.83	2344.68
566.19	2350.10
566.54	2355.64
566.89	2360.21
567.25	2364.71
567.60	2370.70
567.96	2375.83
568.31	2380.33
568.66	2384.80
569.02	2388.64
569.37	2392.30
569.72	2396.67
570.08	2400.18
570.43	2403.32
570.78	2406.56
571.14	2408.82
571.49	2412.09
571.84	2415.67
572.20	2418.74
572.55	2421.63
572.90	2423.79
573.26	2426.60
573.61	2429.03
573.96	2430.96
574.31	2432.94
574.67	2434.91
575.02	2435.41
575.37	2436.82
575.72	2437.64
576.08	2439.07
576.43	2439.20
576.78	2439.59
577.13	2441.14
577.49	2442.25
577.84	2443.28
578.19	2444.53
578.54	2445.14
578.90	2445.75
579.25	2445.52
579.60	2445.46
579.95	2444.48
580.30	2444.55
580.66	2443.78
581.01	2442.18
581.36	2439.98
581.71	2438.42
582.06	2437.18
582.42	2436.45
582.77	2434.11
583.12	2432.21
583.47	2430.70
583.82	2430.16
584.17	2428.88
584.53	2426.66
584.88	2424.65
585.23	2422.75
585.58	2420.36
585.93	2418.17
586.28	2416.00
586.63	2413.55
586.98	2411.22
587.34	2409.43
587.69	2406.95
588.04	2404.94
588.39	2403.32
588.74	2400.57
589.09	2397.96
589.44	2394.67
589.79	2392.07
590.14	2390.22
590.49	2387.52
590.84	2383.59
591.19	2380.42
591.54	2377.18
591.89	2373.13
592.25	2369.71
592.60	2365.41
592.95	2361.37
593.30	2357.25
593.65	2352.69
594.00	2348.24
594.35	2345.19
594.70	2340.35
595.05	2335.68
595.40	2330.12
595.75	2324.31
596.10	2320.70
596.45	2315.79
596.80	2311.31
597.15	2306.13
597.50	2299.99
597.85	2294.98
598.19	2289.73
598.54	2283.80
598.89	2278.43
599.24	2273.84
599.59	2267.63
599.94	2261.73
600.29	2255.65
600.64	2249.61
600.99	2242.78
601.34	2237.27
601.69	2230.20
602.04	2223.87
602.39	2217.19
602.74	2211.02
603.08	2205.59
603.43	2199.04
603.78	2192.15
604.13	2185.06
604.48	2177.71
604.83	2171.65
605.18	2165.37
605.53	2158.40
605.87	2151.43
606.22	2144.71
606.57	2136.86
606.92	2128.88
607.27	2121.89
607.62	2115.10
607.96	2108.15
608.31	2101.62
608.66	2093.74
609.01	2086.06
609.36	2078.88
609.70	2071.07
610.05	2063.34
610.40	2054.92
610.75	2046.56
611.10	2038.73
611.44	2029.68
611.79	2020.92
612.14	2010.94
612.49	2000.18
612.83	1990.91
613.18	1981.50
613.53	1972.01
613.88	1962.21
614.22	1953.55
614.57	1943.66
614.92	1933.16
615.27	1922.87
615.61	1912.72
615.96	1903.04
616.31	1893.32
616.65	1883.92
617.00	1874.23
617.35	1864.57
617.70	1854.80
618.04	1844.76
618.39	1834.53
618.74	1824.90
619.08	1815.15
619.43	1806.31
619.78	1797.98
620.12	1789.26
620.47	1779.67
620.82	1769.29
621.16	1759.50
621.51	1749.45
621.85	1739.51
622.20	1729.14
622.55	1718.56
622.89	1708.54
623.24	1698.81
623.59	1689.05
623.93	1678.82
624.28	1669.05
624.62	1658.88
624.97	1648.48
625.32	1638.65
625.66	1629.77
626.01	1620.94
626.35	1611.55
626.70	1601.45
627.04	1591.39
627.39	1581.23
627.73	1571.96
628.08	1563.06
628.43	1553.49
628.77	1544.39
629.12	1535.50
629.46	1527.65
629.81	1519.31
630.15	1509.78
630.50	1499.96
630.84	1489.40
631.19	1479.43
631.53	1470.08
631.88	1459.75
632.22	1449.76
632.57	1440.34
632.91	1430.15
633.26	1420.18
633.60	1410.61
633.95	1401.37
634.29	1391.87
634.64	1382.49
634.98	1372.40
635.32	1363.07
635.67	1354.53
636.01	1345.10
636.36	1335.25
636.70	1325.62
637.05	1316.17
637.39	1307.29
637.73	1298.61
638.08	1291.16
638.42	1282.90
638.77	1274.06
639.11	1265.80
639.45	1258.02
639.80	1249.39
640.14	1240.53
640.49	1231.67
640.83	1222.93
641.17	1214.62
641.52	1206.40
641.86	1197.79
642.20	1189.94
642.55	1181.27
642.89	1172.41
643.23	1163.72
643.58	1155.62
643.92	1146.48
644.26	1137.81
644.61	1129.28
644.95	1120.47
645.29	1111.09
645.64	1101.88
645.98	1093.31
646.32	1085.38
646.66	1076.80
647.01	1068.48
647.35	1060.40
647.69	1051.97
648.04	1043.48
648.38	1034.56
648.72	1025.82
649.06	1017.30
649.41	1008.93
649.75	1000.87
650.09	992.98
650.43	984.87
650.78	976.54
651.12	968.80
651.46	961.25
651.80	953.96
652.14	946.59
652.49	939.02
652.83	931.72
653.17	924.01
653.51	916.35
653.85	908.94
654.20	901.60
654.54	894.08
654.88	886.83
655.22	879.55
655.56	872.54
655.90	865.65
656.25	858.95
656.59	852.03
656.93	844.98
657.27	837.77
657.61	830.64
657.95	824.44
658.29	818.46
658.64	812.32
658.98	805.83
659.32	799.26
659.66	792.95
660.00	786.57
660.34	780.43
660.68	774.22
661.02	767.84
661.36	761.86
661.70	756.01
662.05	750.34
662.39	744.85
662.73	739.46
663.07	734.03
663.41	728.24
663.75	722.49
664.09	716.78
664.43	711.25
664.77	705.94
665.11	700.10
665.45	694.15
665.79	688.19
666.13	682.39
666.47	676.80
666.81	671.31
667.15	665.83
667.49	660.59
667.83	655.32
668.17	650.10
668.51	644.92
668.85	639.98
669.19	635.01
669.53	629.94
669.87	624.72
670.21	619.93
670.55	615.21
670.89	610.72
671.23	606.35
671.57	601.93
671.91	597.62
672.25	593.45
672.58	589.26
672.92	585.24
673.26	581.27
673.60	577.34
673.94	573.45
674.28	569.81
674.62	566.00
674.96	562.26
675.30	558.67
675.64	554.91
675.97	551.21
676.31	547.52
676.65	543.82
676.99	540.34
677.33	536.38
677.67	532.68
678.01	528.78
678.34	525.11
678.68	521.57
679.02	517.90
679.36	514.16
679.70	510.51
680.04	506.86
680.37	503.36
680.71	500.03
681.05	496.79
681.39	493.47
681.73	490.24
682.06	487.12
682.40	483.95
682.74	480.77
683.08	477.49
683.42	474.27
683.75	471.26
684.09	468.23
684.43	465.41
684.77	462.46
685.10	459.59
685.44	456.66
685.78	453.67
686.12	450.85
686.45	448.06
686.79	445.28
687.13	442.74
687.46	440.08
687.80	437.31
688.14	434.46
688.48	431.79
688.81	429.12
689.15	426.45
689.49	423.83
689.82	421.29
690.16	418.72
690.50	416.26
690.83	413.72
691.17	411.09
691.51	408.57
691.84	406.27
692.18	404.00
692.52	401.73
692.85	399.53
693.19	397.33
693.52	395.16
693.86	392.98
694.20	390.73
694.53	388.54
694.87	386.34
695.21	384.13
695.54	381.94
695.88	379.70
696.21	377.48
696.55	375.29
696.88	373.18
697.22	371.12
697.56	369.16
697.89	367.20
698.23	365.41
698.56	363.57
698.90	361.81
699.23	359.86
699.57	357.95
699.90	356.11
700.24	354.28
700.58	352.48
700.91	350.75
701.25	349.15
701.58	347.57
701.92	345.93
702.25	344.37
702.59	342.70
702.92	341.19
703.26	339.65
703.59	338.14
703.93	336.86
704.26	335.41
704.60	333.88
704.93	332.41
705.26	330.87
705.60	329.43
705.93	327.89
706.27	326.54
706.60	325.27
706.94	324.01
707.27	322.58
707.61	321.23
707.94	319.88
708.27	318.37
708.61	316.86
708.94	315.47
709.28	314.15
709.61	312.92
709.94	311.65
710.28	310.42
710.61	309.22
710.95	307.76
711.28	306.66
711.61	305.45
711.95	304.30
712.28	303.09
712.61	301.88
712.95	300.79
713.28	299.76
713.61	298.57
713.95	297.37
714.28	296.36
714.61	295.31
714.95	294.26
715.28	293.25
715.61	292.25
715.95	291.27
716.28	290.27
716.61	289.28
716.95	288.28
717.28	287.34
717.61	286.36
717.94	285.45
718.28	284.39
718.61	283.54
718.94	282.65
719.27	281.83
719.61	280.98
719.94	280.09
720.27	279.07
720.60	278.23
720.94	277.46
721.27	276.70
721.60	275.97
721.93	275.21
722.27	274.53
722.60	273.87
722.93	273.18
723.26	272.56
723.59	271.83
723.93	271.21
724.26	270.53
724.59	269.87
724.92	269.28
725.25	268.77
725.59	268.17
725.92	267.60
726.25	266.97
726.58	266.39
726.91	265.79
727.24	265.26
727.57	264.66
727.91	264.03
728.24	263.43
728.57	262.83
728.90	262.28
729.23	261.66
729.56	261.19
729.89	260.66
730.22	260.05
730.55	259.49
730.89	258.93
731.22	258.40
731.55	257.89
731.88	257.36
732.21	256.75
732.54	256.20
732.87	255.66
733.20	255.22
733.53	254.71
733.86	254.25
734.19	253.76
734.52	253.33
734.85	253.02
735.18	252.55
735.51	252.19
735.84	251.78
736.17	251.36
736.50	250.83
736.83	250.64
737.16	250.25
737.49	249.86
737.82	249.44
738.15	249.08
738.48	248.69
738.81	248.27
739.14	247.89
739.47	247.51
739.80	247.16
740.13	246.82
740.46	246.45
740.79	246.02
741.12	245.63
741.45	245.31
741.78	244.87
742.11	244.58
742.44	244.18
742.77	243.85
743.10	243.52
743.43	243.17
743.75	242.57
744.08	242.52
744.41	242.17
744.74	241.81
745.07	241.41
745.40	241.14
745.73	240.90
746.06	240.58
746.39	240.25
746.71	239.87
747.04	239.49
747.37	239.17
747.70	238.90
748.03	238.60
748.36	238.31
748.68	238.03
749.01	237.69
749.34	237.39
749.67	237.10
750.00	236.83
750.33	236.67
750.65	236.46
750.98	235.91
751.31	235.66
751.64	235.44
751.97	235.35
752.29	235.03
752.62	234.66
752.95	234.35
753.28	234.10
753.60	233.90
753.93	233.71
754.26	233.52
754.59	233.27
754.91	233.05
755.24	232.81
755.57	232.56
755.90	232.34
756.22	232.10
756.55	231.85
756.88	231.59
757.20	231.25
757.53	230.97
757.86	230.75
758.19	230.56
758.51	230.32
758.84	229.96
759.17	229.79
759.49	229.67
759.82	229.62
760.15	229.46
760.47	229.27
760.80	229.01
761.13	228.85
761.45	228.67
761.78	228.46
762.11	228.29
762.43	228.10
762.76	227.94
763.08	227.80
763.41	227.64
763.74	227.52
764.06	227.37
764.39	227.18
764.71	227.04
765.04	226.88
765.37	226.74
765.69	226.60
766.02	226.44
766.34	226.24
766.67	226.00
767.00	225.88
767.32	225.83
767.65	225.79
767.97	225.61
768.30	225.49
768.62	225.41
768.95	225.23
769.27	225.11
769.60	224.99
769.92	224.81
770.25	224.65
770.57	224.49
770.90	224.34
771.22	224.23
771.55	224.09
771.87	223.98
772.20	223.86
772.52	223.91
772.85	224.04
773.17	223.94
773.50	223.83
773.82	223.68
774.15	223.51
774.47	223.33
774.80	223.19
775.12	223.07
775.45	222.94
775.77	222.86
776.09	222.76
776.42	222.64
776.74	222.65
777.07	222.57
777.39	222.46
777.72	222.36
778.04	222.30
778.36	222.23
778.69	222.12
779.01	222.06
779.33	221.81
779.66	221.48
779.98	221.42
780.31	221.37
780.63	221.39
780.95	221.33
781.28	221.24
781.60	221.17
781.92	221.10
782.25	221.04
782.57	220.96
782.89	220.90
783.22	220.84
783.54	220.72
783.86	220.68
784.19	220.64
784.51	220.64
784.83	220.56
785.16	220.49
785.48	220.45
785.80	220.38
786.12	220.32
