SpectraSuite Data File
++++++++++++++++++++++++++++++++++++
Date: Fri Feb 01 15:26:09 EST 2013
User: group
Dark Spectrum Present: No
Reference Spectrum Present: No
Number of Sampled Component Spectra: 1
Spectrometers: USB2E7196
Integration Time (usec): 35000 (USB2E7196)
Spectra Averaged: 100 (USB2E7196)
Boxcar Smoothing: 10 (USB2E7196)
Correct for Electrical Dark: No (USB2E7196)
Strobe/Lamp Enabled: No (USB2E7196)
Correct for Detector Non-linearity: No (USB2E7196)
Correct for Stray Light: No (USB2E7196)
Number of Pixels in Processed Spectrum: 2048
>>>>>Begin Processed Spectral Data<<<<<
339.09	0.00
339.48	215.11
339.86	216.30
340.24	217.85
340.63	219.66
341.01	221.82
341.39	222.58
341.78	223.96
342.16	224.18
342.54	225.10
342.93	213.38
343.31	224.18
343.69	224.71
344.07	225.20
344.46	225.62
344.84	225.98
345.22	226.25
345.60	226.49
345.99	226.64
346.37	226.80
346.75	226.88
347.13	226.98
347.52	227.01
347.90	227.07
348.28	227.09
348.66	227.10
349.05	227.13
349.43	227.18
349.81	227.22
350.19	227.27
350.57	227.38
350.96	227.44
351.34	227.52
351.72	227.60
352.10	227.68
352.48	227.75
352.87	227.80
353.25	227.85
353.63	227.88
354.01	227.98
354.39	228.06
354.77	228.17
355.15	228.26
355.54	228.31
355.92	228.37
356.30	228.46
356.68	228.60
357.06	228.64
357.44	228.69
357.82	228.77
358.20	228.81
358.58	228.84
358.97	228.92
359.35	228.98
359.73	229.06
360.11	229.10
360.49	229.18
360.87	229.23
361.25	229.32
361.63	229.37
362.01	229.39
362.39	229.40
362.77	229.43
363.15	229.47
363.53	229.51
363.91	229.51
364.29	229.52
364.67	229.41
365.05	229.46
365.43	229.49
365.81	229.48
366.19	229.53
366.57	229.55
366.95	229.53
367.33	229.49
367.71	229.46
368.09	229.47
368.47	229.41
368.85	229.35
369.23	229.32
369.61	229.28
369.99	229.23
370.37	229.22
370.75	229.23
371.13	229.11
371.51	229.04
371.89	229.01
372.27	228.98
372.65	228.97
373.03	228.93
373.41	228.85
373.78	228.81
374.16	228.73
374.54	228.68
374.92	228.61
375.30	228.56
375.68	228.49
376.06	228.45
376.44	228.40
376.82	228.38
377.19	228.29
377.57	228.21
377.95	228.14
378.33	228.06
378.71	227.93
379.09	227.92
379.47	227.86
379.84	227.80
380.22	227.72
380.60	227.61
380.98	227.53
381.36	227.47
381.73	227.40
382.11	227.36
382.49	227.31
382.87	227.19
383.25	227.12
383.62	227.18
384.00	227.09
384.38	227.07
384.76	227.02
385.13	227.01
385.51	226.98
385.89	226.91
386.27	226.84
386.64	226.81
387.02	226.75
387.40	226.72
387.78	226.67
388.15	226.64
388.53	226.60
388.91	226.56
389.29	226.48
389.66	226.48
390.04	226.42
390.42	226.38
390.79	226.43
391.17	226.44
391.55	226.32
391.92	226.31
392.30	226.28
392.68	226.26
393.05	226.24
393.43	226.26
393.81	226.27
394.18	226.30
394.56	226.31
394.94	226.36
395.31	226.36
395.69	226.38
396.06	226.41
396.44	226.47
396.82	226.48
397.19	226.59
397.57	226.62
397.95	226.70
398.32	226.70
398.70	226.75
399.07	226.84
399.45	226.87
399.82	226.91
400.20	226.97
400.58	227.06
400.95	227.12
401.33	227.21
401.70	227.38
402.08	227.48
402.45	227.57
402.83	227.72
403.20	227.85
403.58	227.98
403.95	228.11
404.33	228.25
404.71	228.40
405.08	228.58
405.46	228.73
405.83	228.86
406.21	229.06
406.58	229.23
406.96	229.37
407.33	229.58
407.70	229.79
408.08	230.10
408.45	230.34
408.83	230.59
409.20	230.78
409.58	230.96
409.95	231.22
410.33	231.56
410.70	231.76
411.08	232.06
411.45	232.40
411.82	232.69
412.20	233.07
412.57	233.51
412.95	233.80
413.32	234.23
413.69	234.64
414.07	235.08
414.44	235.56
414.82	236.03
415.19	236.56
415.56	237.10
415.94	237.62
416.31	238.22
416.68	238.86
417.06	239.58
417.43	240.25
417.81	241.04
418.18	241.80
418.55	242.65
418.93	243.51
419.30	244.39
419.67	245.38
420.04	246.32
420.42	247.31
420.79	248.49
421.16	249.63
421.54	250.80
421.91	252.02
422.28	253.25
422.66	254.62
423.03	255.90
423.40	257.28
423.77	258.68
424.15	260.09
424.52	261.59
424.89	263.19
425.26	264.75
425.64	266.19
426.01	267.76
426.38	269.42
426.75	271.10
427.13	272.84
427.50	274.61
427.87	276.53
428.24	278.38
428.61	280.15
428.99	282.09
429.36	284.22
429.73	286.28
430.10	288.32
430.47	290.36
430.85	292.50
431.22	294.73
431.59	297.12
431.96	299.39
432.33	301.81
432.70	304.22
433.08	307.04
433.45	309.67
433.82	312.29
434.19	315.16
434.56	317.97
434.93	320.61
435.30	323.23
435.68	326.10
436.05	328.93
436.42	331.73
436.79	334.19
437.16	336.90
437.53	339.71
437.90	342.50
438.27	345.28
438.64	348.11
439.01	350.71
439.38	352.93
439.75	355.13
440.13	357.66
440.50	360.00
440.87	361.84
441.24	363.83
441.61	365.97
441.98	367.50
442.35	369.32
442.72	371.20
443.09	373.06
443.46	374.06
443.83	374.64
444.20	375.11
444.57	376.02
444.94	376.32
445.31	376.65
445.68	377.03
446.05	377.07
446.42	376.70
446.79	376.30
447.16	375.84
447.53	375.50
447.90	374.36
448.27	373.19
448.64	371.61
449.01	370.37
449.37	368.39
449.74	366.45
450.11	364.18
450.48	361.69
450.85	359.11
451.22	356.95
451.59	354.96
451.96	353.00
452.33	350.36
452.70	347.99
453.07	345.20
453.43	342.29
453.80	339.57
454.17	336.86
454.54	334.24
454.91	331.53
455.28	328.86
455.65	326.32
456.02	323.87
456.38	321.74
456.75	319.14
457.12	316.90
457.49	314.69
457.86	312.56
458.23	310.67
458.59	308.62
458.96	306.56
459.33	304.68
459.70	302.87
460.07	301.39
460.43	299.63
460.80	297.96
461.17	296.51
461.54	294.97
461.91	293.57
462.27	292.17
462.64	290.91
463.01	289.51
463.38	288.23
463.74	286.86
464.11	285.70
464.48	284.64
464.85	283.54
465.21	282.67
465.58	281.73
465.95	280.64
466.32	279.76
466.68	278.80
467.05	277.91
467.42	277.01
467.78	276.07
468.15	275.22
468.52	274.58
468.88	273.70
469.25	272.89
469.62	272.23
469.98	271.56
470.35	270.95
470.72	270.40
471.08	269.75
471.45	269.18
471.82	268.62
472.18	268.01
472.55	267.56
472.92	267.04
473.28	266.56
473.65	266.13
474.02	265.67
474.38	265.33
474.75	265.01
475.11	264.64
475.48	264.40
475.85	264.16
476.21	263.92
476.58	263.77
476.94	263.67
477.31	263.51
477.67	263.36
478.04	263.23
478.41	263.15
478.77	263.20
479.14	263.12
479.50	263.12
479.87	263.19
480.23	263.28
480.60	263.35
480.96	263.43
481.33	263.63
481.69	263.82
482.06	263.99
482.42	264.17
482.79	264.44
483.15	264.74
483.52	265.11
483.88	265.43
484.25	265.83
484.61	266.22
484.98	266.67
485.34	267.22
485.71	267.83
486.07	268.42
486.44	269.01
486.80	269.72
487.17	270.44
487.53	271.26
487.90	272.09
488.26	273.01
488.62	273.99
488.99	274.93
489.35	275.98
489.72	277.10
490.08	278.33
490.44	279.54
490.81	280.87
491.17	282.19
491.54	283.66
491.90	285.15
492.26	286.82
492.63	288.52
492.99	290.27
493.36	292.14
493.72	294.19
494.08	296.25
494.45	298.52
494.81	300.91
495.17	303.35
495.54	305.94
495.90	308.59
496.26	311.41
496.63	314.39
496.99	317.50
497.35	320.76
497.72	324.18
498.08	327.72
498.44	331.39
498.80	335.37
499.17	339.41
499.53	343.60
499.89	347.98
500.26	352.52
500.62	357.23
500.98	362.17
501.34	367.26
501.71	372.60
502.07	378.00
502.43	383.61
502.79	389.39
503.16	395.46
503.52	401.73
503.88	408.14
504.24	414.75
504.60	421.64
504.97	428.77
505.33	436.06
505.69	443.74
506.05	451.48
506.41	459.36
506.78	467.57
507.14	476.03
507.50	484.70
507.86	493.66
508.22	502.85
508.59	512.11
508.95	521.69
509.31	531.47
509.67	541.58
510.03	551.90
510.39	562.50
510.75	573.23
511.12	584.24
511.48	595.55
511.84	607.01
512.20	618.54
512.56	630.51
512.92	642.65
513.28	654.97
513.64	667.50
514.00	680.22
514.37	693.12
514.73	706.21
515.09	719.25
515.45	732.64
515.81	746.17
516.17	760.13
516.53	774.29
516.89	788.52
517.25	802.79
517.61	817.20
517.97	831.71
518.33	846.18
518.69	860.90
519.05	875.88
519.41	891.18
519.77	906.81
520.13	922.25
520.49	937.69
520.85	953.13
521.21	968.90
521.57	985.13
521.93	1000.90
522.29	1017.26
522.65	1033.64
523.01	1049.90
523.37	1066.06
523.73	1082.23
524.09	1098.33
524.45	1114.76
524.81	1131.34
525.17	1148.23
525.53	1165.05
525.89	1181.91
526.25	1198.72
526.61	1215.23
526.97	1231.99
527.33	1248.53
527.68	1265.20
528.04	1281.67
528.40	1298.40
528.76	1315.57
529.12	1332.21
529.48	1349.25
529.84	1365.35
530.20	1382.00
530.56	1399.17
530.91	1416.59
531.27	1433.50
531.63	1449.98
531.99	1466.52
532.35	1482.66
532.71	1498.52
533.07	1514.83
533.42	1530.86
533.78	1546.97
534.14	1563.30
534.50	1578.70
534.86	1594.62
535.21	1609.79
535.57	1625.90
535.93	1641.42
536.29	1656.08
536.65	1671.24
537.00	1686.07
537.36	1701.40
537.72	1716.02
538.08	1730.32
538.44	1744.09
538.79	1758.00
539.15	1771.82
539.51	1785.76
539.87	1800.06
540.22	1813.81
540.58	1827.72
540.94	1841.18
541.29	1854.42
541.65	1867.16
542.01	1880.48
542.37	1892.89
542.72	1905.51
543.08	1917.23
543.44	1929.69
543.79	1941.06
544.15	1952.07
544.51	1963.69
544.87	1974.76
545.22	1985.54
545.58	1995.78
545.94	2005.71
546.29	2015.65
546.65	2025.65
547.01	2034.83
547.36	2043.45
547.72	2052.04
548.07	2059.96
548.43	2068.10
548.79	2075.98
549.14	2083.45
549.50	2090.87
549.86	2098.44
550.21	2105.75
550.57	2113.01
550.92	2119.57
551.28	2126.68
551.64	2133.92
551.99	2140.53
552.35	2146.65
552.70	2152.87
553.06	2158.90
553.41	2165.22
553.77	2171.20
554.13	2177.14
554.48	2183.31
554.84	2188.86
555.19	2194.31
555.55	2199.47
555.90	2203.99
556.26	2208.81
556.61	2213.57
556.97	2217.55
557.32	2221.72
557.68	2225.72
558.03	2230.11
558.39	2233.96
558.74	2238.56
559.10	2242.35
559.45	2246.00
559.81	2250.42
560.16	2254.29
560.52	2257.51
560.87	2260.85
561.23	2263.48
561.58	2266.58
561.94	2269.15
562.29	2271.58
562.64	2274.09
563.00	2276.67
563.35	2280.13
563.71	2283.23
564.06	2286.50
564.42	2289.45
564.77	2291.97
565.12	2294.21
565.48	2295.93
565.83	2297.62
566.19	2298.78
566.54	2299.69
566.89	2300.66
567.25	2301.13
567.60	2302.30
567.96	2304.07
568.31	2304.91
568.66	2305.99
569.02	2306.47
569.37	2306.73
569.72	2307.55
570.08	2307.67
570.43	2307.67
570.78	2306.86
571.14	2305.33
571.49	2303.84
571.84	2303.46
572.20	2302.08
572.55	2301.14
572.90	2299.63
573.26	2298.16
573.61	2296.51
573.96	2294.55
574.31	2291.48
574.67	2288.31
575.02	2284.56
575.37	2280.96
575.72	2277.08
576.08	2273.70
576.43	2270.32
576.78	2266.50
577.13	2263.23
577.49	2259.97
577.84	2256.42
578.19	2252.76
578.54	2248.99
578.90	2244.73
579.25	2239.18
579.60	2234.18
579.95	2229.11
580.30	2223.95
580.66	2218.76
581.01	2213.73
581.36	2208.77
581.71	2204.48
582.06	2200.03
582.42	2195.50
582.77	2190.24
583.12	2185.52
583.47	2180.54
583.82	2175.23
584.17	2169.86
584.53	2164.28
584.88	2158.62
585.23	2152.63
585.58	2147.18
585.93	2141.69
586.28	2136.82
586.63	2131.71
586.98	2126.62
587.34	2121.79
587.69	2116.89
588.04	2111.52
588.39	2105.81
588.74	2099.23
589.09	2093.06
589.44	2086.24
589.79	2080.34
590.14	2074.61
590.49	2068.07
590.84	2061.85
591.19	2055.85
591.54	2049.42
591.89	2041.94
592.25	2035.16
592.60	2027.94
592.95	2020.16
593.30	2012.66
593.65	2005.01
594.00	1997.77
594.35	1990.55
594.70	1982.40
595.05	1974.97
595.40	1967.64
595.75	1960.06
596.10	1953.75
596.45	1946.96
596.80	1940.67
597.15	1933.81
597.50	1926.66
597.85	1920.23
598.19	1913.46
598.54	1906.30
598.89	1899.57
599.24	1893.80
599.59	1886.96
599.94	1880.86
600.29	1874.56
600.64	1868.02
600.99	1860.46
601.34	1853.59
601.69	1846.46
602.04	1839.56
602.39	1832.23
602.74	1825.43
603.08	1818.67
603.43	1812.04
603.78	1804.78
604.13	1797.58
604.48	1790.29
604.83	1783.52
605.18	1776.41
605.53	1768.25
605.87	1760.21
606.22	1752.89
606.57	1744.76
606.92	1737.53
607.27	1730.23
607.62	1723.18
607.96	1715.82
608.31	1709.08
608.66	1701.42
609.01	1693.94
609.36	1686.34
609.70	1678.34
610.05	1670.16
610.40	1662.51
610.75	1653.98
611.10	1646.27
611.44	1637.91
611.79	1629.97
612.14	1621.19
612.49	1612.12
612.83	1603.94
613.18	1595.91
613.53	1587.80
613.88	1579.24
614.22	1570.87
614.57	1562.22
614.92	1554.21
615.27	1546.73
615.61	1538.59
615.96	1530.58
616.31	1522.95
616.65	1515.54
617.00	1507.99
617.35	1500.40
617.70	1491.89
618.04	1483.49
618.39	1475.13
618.74	1467.52
619.08	1459.16
619.43	1451.60
619.78	1444.65
620.12	1437.35
620.47	1429.60
620.82	1421.49
621.16	1414.13
621.51	1406.57
621.85	1398.91
622.20	1390.48
622.55	1382.05
622.89	1374.10
623.24	1366.50
623.59	1359.09
623.93	1351.60
624.28	1344.32
624.62	1336.74
624.97	1329.59
625.32	1322.85
625.66	1315.84
626.01	1308.54
626.35	1301.03
626.70	1293.23
627.04	1285.43
627.39	1277.58
627.73	1270.27
628.08	1263.28
628.43	1255.99
628.77	1248.59
629.12	1241.06
629.46	1233.79
629.81	1226.53
630.15	1219.43
630.50	1211.97
630.84	1203.79
631.19	1195.92
631.53	1188.48
631.88	1180.95
632.22	1173.40
632.57	1166.11
632.91	1158.60
633.26	1151.32
633.60	1144.00
633.95	1136.95
634.29	1130.02
634.64	1123.42
634.98	1116.05
635.32	1109.04
635.67	1102.49
636.01	1095.85
636.36	1089.05
636.70	1082.56
637.05	1075.99
637.39	1069.46
637.73	1063.07
638.08	1057.31
638.42	1051.34
638.77	1044.84
639.11	1038.30
639.45	1031.96
639.80	1025.34
640.14	1018.94
640.49	1012.32
640.83	1006.01
641.17	999.81
641.52	993.59
641.86	987.24
642.20	981.51
642.55	975.24
642.89	968.68
643.23	962.13
643.58	956.43
643.92	950.29
644.26	944.11
644.61	938.27
644.95	932.23
645.29	925.49
645.64	918.76
645.98	912.47
646.32	906.66
646.66	900.62
647.01	894.79
647.35	889.12
647.69	883.35
648.04	877.91
648.38	872.07
648.72	865.96
649.06	859.83
649.41	853.92
649.75	847.84
650.09	841.93
650.43	836.16
650.78	829.94
651.12	823.98
651.46	818.25
651.80	812.34
652.14	806.96
652.49	801.68
652.83	796.51
653.17	790.78
653.51	784.97
653.85	779.52
654.20	773.83
654.54	767.85
654.88	762.04
655.22	756.11
655.56	750.46
655.90	744.97
656.25	739.70
656.59	734.36
656.93	729.27
657.27	724.04
657.61	718.63
657.95	713.58
658.29	708.48
658.64	703.24
658.98	697.91
659.32	692.36
659.66	687.11
660.00	681.76
660.34	676.84
660.68	671.91
661.02	666.96
661.36	662.28
661.70	657.74
662.05	653.46
662.39	649.11
662.73	644.69
663.07	640.32
663.41	635.93
663.75	631.42
664.09	626.89
664.43	622.57
664.77	618.43
665.11	614.16
665.45	610.03
665.79	605.98
666.13	601.86
666.47	597.85
666.81	593.59
667.15	589.47
667.49	585.61
667.83	581.81
668.17	577.83
668.51	573.75
668.85	569.72
669.19	565.84
669.53	562.01
669.87	558.11
670.21	554.38
670.55	550.76
670.89	547.35
671.23	543.95
671.57	540.42
671.91	536.97
672.25	533.51
672.58	529.98
672.92	526.63
673.26	523.52
673.60	520.39
673.94	517.36
674.28	514.54
674.62	511.60
674.96	508.58
675.30	505.71
675.64	502.78
675.97	500.05
676.31	497.23
676.65	494.37
676.99	491.68
677.33	488.85
677.67	485.99
678.01	482.95
678.34	479.99
678.68	477.12
679.02	474.24
679.36	471.46
679.70	468.83
680.04	466.02
680.37	463.15
680.71	460.38
681.05	457.75
681.39	454.95
681.73	452.29
682.06	449.74
682.40	447.16
682.74	444.64
683.08	442.16
683.42	439.57
683.75	437.03
684.09	434.48
684.43	432.02
684.77	429.54
685.10	427.18
685.44	424.88
685.78	422.72
686.12	420.53
686.45	418.32
686.79	416.02
687.13	413.87
687.46	411.78
687.80	409.65
688.14	407.50
688.48	405.47
688.81	403.20
689.15	401.03
689.49	398.95
689.82	396.92
690.16	394.78
690.50	392.82
690.83	390.93
691.17	388.98
691.51	387.05
691.84	385.27
692.18	383.34
692.52	381.35
692.85	379.35
693.19	377.45
693.52	375.63
693.86	373.81
694.20	371.98
694.53	370.12
694.87	368.28
695.21	366.43
695.54	364.63
695.88	362.94
696.21	361.22
696.55	359.49
696.88	357.80
697.22	356.15
697.56	354.51
697.89	352.79
698.23	351.17
698.56	349.57
698.90	347.98
699.23	346.29
699.57	344.77
699.90	343.22
700.24	341.66
700.58	340.07
700.91	338.55
701.25	337.12
701.58	335.80
701.92	334.39
702.25	333.05
702.59	331.66
702.92	330.34
703.26	329.05
703.59	327.78
703.93	326.58
704.26	325.34
704.60	324.03
704.93	322.76
705.26	321.46
705.60	320.29
705.93	319.12
706.27	318.14
706.60	317.05
706.94	315.96
707.27	314.81
707.61	313.76
707.94	312.75
708.27	311.65
708.61	310.50
708.94	309.51
709.28	308.54
709.61	307.55
709.94	306.62
710.28	305.59
710.61	304.60
710.95	303.54
711.28	302.60
711.61	301.66
711.95	300.78
712.28	299.89
712.61	298.93
712.95	297.99
713.28	297.10
713.61	296.16
713.95	295.25
714.28	294.44
714.61	293.57
714.95	292.71
715.28	291.84
715.61	291.03
715.95	290.18
716.28	289.31
716.61	288.49
716.95	287.62
717.28	286.87
717.61	286.15
717.94	285.37
718.28	284.62
718.61	283.91
718.94	283.23
719.27	282.61
719.61	281.99
719.94	281.35
720.27	280.62
720.60	280.00
720.94	279.41
721.27	278.81
721.60	278.23
721.93	277.67
722.27	277.12
722.60	276.54
722.93	275.95
723.26	275.45
723.59	274.92
723.93	274.43
724.26	273.86
724.59	273.31
724.92	272.82
725.25	272.31
725.59	271.80
725.92	271.27
726.25	270.72
726.58	270.24
726.91	269.75
727.24	269.32
727.57	268.89
727.91	268.41
728.24	267.94
728.57	267.45
728.90	267.03
729.23	266.58
729.56	266.19
729.89	265.75
730.22	265.28
730.55	264.83
730.89	264.36
731.22	263.95
731.55	263.50
731.88	263.11
732.21	262.70
732.54	262.26
732.87	261.86
733.20	261.47
733.53	261.04
733.86	260.69
734.19	260.30
734.52	259.92
734.85	259.58
735.18	259.17
735.51	258.84
735.84	258.42
736.17	258.00
736.50	257.57
736.83	257.35
737.16	257.00
737.49	256.66
737.82	256.34
738.15	256.01
738.48	255.71
738.81	255.39
739.14	255.03
739.47	254.74
739.80	254.39
740.13	254.08
740.46	253.72
740.79	253.32
741.12	252.97
741.45	252.63
741.78	252.28
742.11	251.95
742.44	251.61
742.77	251.32
743.10	251.08
743.43	250.79
743.75	250.38
744.08	250.22
744.41	249.95
744.74	249.68
745.07	249.40
745.40	249.14
745.73	248.86
746.06	248.56
746.39	248.31
746.71	248.03
747.04	247.75
747.37	247.51
747.70	247.30
748.03	247.07
748.36	246.83
748.68	246.59
749.01	246.39
749.34	246.17
749.67	245.93
750.00	245.69
750.33	245.57
750.65	245.35
750.98	245.01
751.31	244.77
751.64	244.53
751.97	244.35
752.29	244.11
752.62	243.85
752.95	243.66
753.28	243.38
753.60	243.20
753.93	243.03
754.26	242.84
754.59	242.59
754.91	242.40
755.24	242.22
755.57	242.04
755.90	241.82
756.22	241.64
756.55	241.44
756.88	241.24
757.20	241.00
757.53	240.83
757.86	240.65
758.19	240.52
758.51	240.34
758.84	240.14
759.17	239.97
759.49	239.85
759.82	239.74
760.15	239.65
760.47	239.50
760.80	239.29
761.13	239.17
761.45	239.05
761.78	238.94
762.11	238.78
762.43	238.63
762.76	238.53
763.08	238.41
763.41	238.28
763.74	238.16
764.06	237.99
764.39	237.84
764.71	237.72
765.04	237.59
765.37	237.46
765.69	237.33
766.02	237.23
766.34	237.10
766.67	236.96
767.00	236.84
767.32	236.78
767.65	236.76
767.97	236.64
768.30	236.54
768.62	236.41
768.95	236.31
769.27	236.19
769.60	236.09
769.92	235.98
770.25	235.88
770.57	235.78
770.90	235.72
771.22	235.62
771.55	235.52
771.87	235.44
772.20	235.33
772.52	235.33
772.85	235.33
773.17	235.26
773.50	235.16
773.82	235.05
774.15	234.94
774.47	234.80
774.80	234.71
775.12	234.60
775.45	234.51
775.77	234.40
776.09	234.34
776.42	234.28
776.74	234.20
777.07	234.11
777.39	234.04
777.72	233.93
778.04	233.87
778.36	233.79
778.69	233.70
779.01	233.64
779.33	233.47
779.66	233.29
779.98	233.21
780.31	233.15
780.63	233.10
780.95	233.01
781.28	232.95
781.60	232.84
781.92	232.77
782.25	232.67
782.57	232.59
782.89	232.49
783.22	232.39
783.54	232.33
783.86	232.27
784.19	232.16
784.51	232.14
784.83	232.07
785.16	232.00
785.48	231.93
785.80	231.85
786.12	231.80
786.45	231.74
786.77	231.67
787.09	231.59
