SpectraSuite Data File
++++++++++++++++++++++++++++++++++++
Date: Fri Feb 01 15:05:42 EST 2013
User: group
Dark Spectrum Present: No
Reference Spectrum Present: No
Number of Sampled Component Spectra: 1
Spectrometers: USB2E7196
Integration Time (usec): 35000 (USB2E7196)
Spectra Averaged: 100 (USB2E7196)
Boxcar Smoothing: 10 (USB2E7196)
Correct for Electrical Dark: No (USB2E7196)
Strobe/Lamp Enabled: No (USB2E7196)
Correct for Detector Non-linearity: No (USB2E7196)
Correct for Stray Light: No (USB2E7196)
Number of Pixels in Processed Spectrum: 2048
>>>>>Begin Processed Spectral Data<<<<<
339.09	0.00
339.48	215.24
339.86	217.07
340.24	217.70
340.63	219.19
341.01	222.43
341.39	221.95
341.78	223.53
342.16	224.29
342.54	224.87
342.93	213.47
343.31	224.23
343.69	224.78
344.07	225.24
344.46	225.69
344.84	226.07
345.22	226.29
345.60	226.54
345.99	226.72
346.37	226.86
346.75	227.00
347.13	227.05
347.52	227.10
347.90	227.16
348.28	227.21
348.66	227.24
349.05	227.23
349.43	227.26
349.81	227.29
350.19	227.30
350.57	227.38
350.96	227.45
351.34	227.57
351.72	227.67
352.10	227.73
352.48	227.77
352.87	227.84
353.25	227.94
353.63	227.98
354.01	228.02
354.39	228.13
354.77	228.16
355.15	228.27
355.54	228.31
355.92	228.37
356.30	228.38
356.68	228.53
357.06	228.63
357.44	228.68
357.82	228.76
358.20	228.84
358.58	228.86
358.97	228.90
359.35	228.95
359.73	229.00
360.11	229.07
360.49	229.12
360.87	229.16
361.25	229.19
361.63	229.29
362.01	229.36
362.39	229.34
362.77	229.36
363.15	229.38
363.53	229.42
363.91	229.41
364.29	229.46
364.67	229.36
365.05	229.34
365.43	229.35
365.81	229.34
366.19	229.36
366.57	229.40
366.95	229.42
367.33	229.37
367.71	229.34
368.09	229.32
368.47	229.30
368.85	229.28
369.23	229.26
369.61	229.19
369.99	229.18
370.37	229.16
370.75	229.18
371.13	229.13
371.51	229.06
371.89	229.07
372.27	229.01
372.65	228.97
373.03	228.94
373.41	228.89
373.78	228.79
374.16	228.74
374.54	228.64
374.92	228.57
375.30	228.49
375.68	228.40
376.06	228.34
376.44	228.25
376.82	228.16
377.19	228.06
377.57	227.98
377.95	227.87
378.33	227.78
378.71	227.68
379.09	227.60
379.47	227.55
379.84	227.45
380.22	227.37
380.60	227.29
380.98	227.22
381.36	227.13
381.73	227.07
382.11	226.98
382.49	226.89
382.87	226.79
383.25	226.74
383.62	226.79
384.00	226.69
384.38	226.62
384.76	226.61
385.13	226.62
385.51	226.55
385.89	226.48
386.27	226.46
386.64	226.39
387.02	226.33
387.40	226.27
387.78	226.21
388.15	226.18
388.53	226.12
388.91	226.10
389.29	226.07
389.66	226.07
390.04	226.05
390.42	226.07
390.79	226.09
391.17	226.06
391.55	225.96
391.92	225.96
392.30	226.01
392.68	225.96
393.05	225.91
393.43	225.97
393.81	226.01
394.18	226.02
394.56	226.04
394.94	226.11
395.31	226.16
395.69	226.24
396.06	226.29
396.44	226.32
396.82	226.34
397.19	226.47
397.57	226.52
397.95	226.59
398.32	226.61
398.70	226.69
399.07	226.80
399.45	226.88
399.82	226.97
400.20	227.04
400.58	227.11
400.95	227.22
401.33	227.29
401.70	227.40
402.08	227.49
402.45	227.62
402.83	227.73
403.20	227.84
403.58	227.93
403.95	228.07
404.33	228.25
404.71	228.38
405.08	228.55
405.46	228.70
405.83	228.88
406.21	229.03
406.58	229.20
406.96	229.39
407.33	229.57
407.70	229.79
408.08	230.07
408.45	230.33
408.83	230.52
409.20	230.75
409.58	230.98
409.95	231.28
410.33	231.54
410.70	231.79
411.08	232.09
411.45	232.41
411.82	232.70
412.20	233.03
412.57	233.49
412.95	233.80
413.32	234.20
413.69	234.58
414.07	235.03
414.44	235.54
414.82	235.99
415.19	236.56
415.56	237.08
415.94	237.62
416.31	238.24
416.68	238.90
417.06	239.61
417.43	240.29
417.81	241.05
418.18	241.84
418.55	242.67
418.93	243.54
419.30	244.47
419.67	245.42
420.04	246.40
420.42	247.36
420.79	248.54
421.16	249.66
421.54	250.89
421.91	252.10
422.28	253.32
422.66	254.70
423.03	255.97
423.40	257.29
423.77	258.73
424.15	260.14
424.52	261.62
424.89	263.25
425.26	264.79
425.64	266.23
426.01	267.80
426.38	269.47
426.75	271.14
427.13	272.82
427.50	274.67
427.87	276.53
428.24	278.44
428.61	280.18
428.99	282.14
429.36	284.21
429.73	286.26
430.10	288.26
430.47	290.28
430.85	292.40
431.22	294.67
431.59	297.06
431.96	299.35
432.33	301.84
432.70	304.20
433.08	307.04
433.45	309.66
433.82	312.30
434.19	315.20
434.56	318.02
434.93	320.68
435.30	323.27
435.68	326.17
436.05	328.97
436.42	331.80
436.79	334.29
437.16	337.03
437.53	339.89
437.90	342.72
438.27	345.44
438.64	348.29
439.01	350.89
439.38	353.10
439.75	355.22
440.13	357.74
440.50	360.09
440.87	361.92
441.24	363.91
441.61	366.04
441.98	367.52
442.35	369.34
442.72	371.24
443.09	373.06
443.46	374.07
443.83	374.63
444.20	375.10
444.57	375.99
444.94	376.26
445.31	376.58
445.68	376.96
446.05	377.06
446.42	376.67
446.79	376.26
447.16	375.79
447.53	375.51
447.90	374.35
448.27	373.18
448.64	371.60
449.01	370.46
449.37	368.48
449.74	366.56
450.11	364.30
450.48	361.81
450.85	359.26
451.22	357.13
451.59	355.16
451.96	353.23
452.33	350.62
452.70	348.26
453.07	345.42
453.43	342.53
453.80	339.79
454.17	337.15
454.54	334.59
454.91	331.91
455.28	329.21
455.65	326.74
456.02	324.32
456.38	322.18
456.75	319.49
457.12	317.26
457.49	315.08
457.86	312.91
458.23	311.07
458.59	309.03
458.96	306.94
459.33	305.08
459.70	303.25
460.07	301.73
460.43	300.01
460.80	298.41
461.17	296.94
461.54	295.46
461.91	293.99
462.27	292.57
462.64	291.31
463.01	289.96
463.38	288.66
463.74	287.29
464.11	286.12
464.48	285.13
464.85	284.04
465.21	283.15
465.58	282.24
465.95	281.15
466.32	280.22
466.68	279.28
467.05	278.38
467.42	277.46
467.78	276.50
468.15	275.58
468.52	274.89
468.88	273.99
469.25	273.18
469.62	272.54
469.98	271.86
470.35	271.21
470.72	270.57
471.08	269.90
471.45	269.31
471.82	268.76
472.18	268.11
472.55	267.65
472.92	267.09
473.28	266.62
473.65	266.13
474.02	265.70
474.38	265.31
474.75	264.96
475.11	264.58
475.48	264.35
475.85	264.09
476.21	263.86
476.58	263.67
476.94	263.50
477.31	263.31
477.67	263.13
478.04	263.01
478.41	262.96
478.77	262.98
479.14	262.93
479.50	262.92
479.87	262.97
480.23	263.02
480.60	263.11
480.96	263.20
481.33	263.38
481.69	263.55
482.06	263.73
482.42	263.91
482.79	264.19
483.15	264.49
483.52	264.91
483.88	265.26
484.25	265.68
484.61	266.07
484.98	266.49
485.34	267.04
485.71	267.62
486.07	268.19
486.44	268.72
486.80	269.40
487.17	270.11
487.53	270.93
487.90	271.78
488.26	272.70
488.62	273.66
488.99	274.65
489.35	275.65
489.72	276.80
490.08	278.01
490.44	279.19
490.81	280.53
491.17	281.85
491.54	283.32
491.90	284.83
492.26	286.52
492.63	288.24
492.99	290.03
493.36	291.88
493.72	293.95
494.08	296.07
494.45	298.29
494.81	300.68
495.17	303.10
495.54	305.63
495.90	308.28
496.26	311.09
496.63	314.03
496.99	317.16
497.35	320.40
497.72	323.79
498.08	327.34
498.44	330.99
498.80	334.92
499.17	338.92
499.53	343.07
499.89	347.42
500.26	351.91
500.62	356.61
500.98	361.55
501.34	366.60
501.71	371.92
502.07	377.36
502.43	382.95
502.79	388.68
503.16	394.78
503.52	401.03
503.88	407.38
504.24	414.00
504.60	420.85
504.97	427.97
505.33	435.21
505.69	442.85
506.05	450.55
506.41	458.41
506.78	466.57
507.14	475.02
507.50	483.71
507.86	492.71
508.22	501.80
508.59	511.05
508.95	520.63
509.31	530.42
509.67	540.53
510.03	550.83
510.39	561.43
510.75	572.28
511.12	583.24
511.48	594.68
511.84	606.13
512.20	617.61
512.56	629.56
512.92	641.82
513.28	654.14
513.64	666.70
514.00	679.45
514.37	692.30
514.73	705.38
515.09	718.40
515.45	731.78
515.81	745.37
516.17	759.31
516.53	773.42
516.89	787.58
517.25	801.70
517.61	816.12
517.97	830.59
518.33	844.96
518.69	859.82
519.05	874.74
519.41	889.92
519.77	905.60
520.13	921.06
520.49	936.39
520.85	951.83
521.21	967.55
521.57	983.74
521.93	999.63
522.29	1016.02
522.65	1032.27
523.01	1048.42
523.37	1064.51
523.73	1080.79
524.09	1097.01
524.45	1113.40
524.81	1130.10
525.17	1146.97
525.53	1163.98
525.89	1180.81
526.25	1197.64
526.61	1214.03
526.97	1230.79
527.33	1247.34
527.68	1264.02
528.04	1280.58
528.40	1297.37
528.76	1314.50
529.12	1331.25
529.48	1348.20
529.84	1364.33
530.20	1380.97
530.56	1398.13
530.91	1415.66
531.27	1432.56
531.63	1448.92
531.99	1465.59
532.35	1481.66
532.71	1497.57
533.07	1513.91
533.42	1529.92
533.78	1546.03
534.14	1562.41
534.50	1577.79
534.86	1593.57
535.21	1608.75
535.57	1624.81
535.93	1640.41
536.29	1655.39
536.65	1670.61
537.00	1685.51
537.36	1700.98
537.72	1715.80
538.08	1730.25
538.44	1744.07
538.79	1758.03
539.15	1771.98
539.51	1785.91
539.87	1800.31
540.22	1814.17
540.58	1828.02
540.94	1841.50
541.29	1854.62
541.65	1867.46
542.01	1880.84
542.37	1893.31
542.72	1905.93
543.08	1917.79
543.44	1930.17
543.79	1941.40
544.15	1952.35
544.51	1963.92
544.87	1974.95
545.22	1985.81
545.58	1996.01
545.94	2005.81
546.29	2015.72
546.65	2025.45
547.01	2034.60
547.36	2043.42
547.72	2051.98
548.07	2059.80
548.43	2067.88
548.79	2075.86
549.14	2083.33
549.50	2090.80
549.86	2098.58
550.21	2105.95
550.57	2113.03
550.92	2119.61
551.28	2126.69
551.64	2133.68
551.99	2140.28
552.35	2146.43
552.70	2152.44
553.06	2158.56
553.41	2164.97
553.77	2170.92
554.13	2177.23
554.48	2183.29
554.84	2188.65
555.19	2193.93
555.55	2198.99
555.90	2203.64
556.26	2208.32
556.61	2213.14
556.97	2217.28
557.32	2221.23
557.68	2225.21
558.03	2229.59
558.39	2233.25
558.74	2237.86
559.10	2241.82
559.45	2245.19
559.81	2249.33
560.16	2253.07
560.52	2256.21
560.87	2259.58
561.23	2262.18
561.58	2264.85
561.94	2267.47
562.29	2269.88
562.64	2272.48
563.00	2275.16
563.35	2278.66
563.71	2281.84
564.06	2284.87
564.42	2287.79
564.77	2290.27
565.12	2292.46
565.48	2294.21
565.83	2295.94
566.19	2297.12
566.54	2297.83
566.89	2299.06
567.25	2299.57
567.60	2300.85
567.96	2302.39
568.31	2303.10
568.66	2304.01
569.02	2304.54
569.37	2304.68
569.72	2305.33
570.08	2305.32
570.43	2305.03
570.78	2303.98
571.14	2302.25
571.49	2300.68
571.84	2300.19
572.20	2298.89
572.55	2297.66
572.90	2295.98
573.26	2294.49
573.61	2292.70
573.96	2290.94
574.31	2287.94
574.67	2284.79
575.02	2281.10
575.37	2277.63
575.72	2273.72
576.08	2270.28
576.43	2266.84
576.78	2263.09
577.13	2259.87
577.49	2256.62
577.84	2253.27
578.19	2249.56
578.54	2245.75
578.90	2241.50
579.25	2235.67
579.60	2230.70
579.95	2225.66
580.30	2220.66
580.66	2215.32
581.01	2210.23
581.36	2205.08
581.71	2200.66
582.06	2196.18
582.42	2191.57
582.77	2186.18
583.12	2181.45
583.47	2176.62
583.82	2171.50
584.17	2166.19
584.53	2160.58
584.88	2154.92
585.23	2148.87
585.58	2143.28
585.93	2137.84
586.28	2132.96
586.63	2127.82
586.98	2122.53
587.34	2117.76
587.69	2112.66
588.04	2107.32
588.39	2101.57
588.74	2095.08
589.09	2088.90
589.44	2082.01
589.79	2075.88
590.14	2070.16
590.49	2063.48
590.84	2057.05
591.19	2050.98
591.54	2044.32
591.89	2036.70
592.25	2029.83
592.60	2022.52
592.95	2014.87
593.30	2007.42
593.65	1999.85
594.00	1992.82
594.35	1985.53
594.70	1977.35
595.05	1970.01
595.40	1962.65
595.75	1955.04
596.10	1948.59
596.45	1941.74
596.80	1935.47
597.15	1928.74
597.50	1921.48
597.85	1915.08
598.19	1908.30
598.54	1901.21
598.89	1894.46
599.24	1888.60
599.59	1881.77
599.94	1875.58
600.29	1869.18
600.64	1862.64
600.99	1854.97
601.34	1847.92
601.69	1840.99
602.04	1834.01
602.39	1826.70
602.74	1819.83
603.08	1813.18
603.43	1806.58
603.78	1799.29
604.13	1792.06
604.48	1784.75
604.83	1778.06
605.18	1770.98
605.53	1762.97
605.87	1754.87
606.22	1747.75
606.57	1739.81
606.92	1732.50
607.27	1725.21
607.62	1718.33
607.96	1710.93
608.31	1704.26
608.66	1696.73
609.01	1689.09
609.36	1681.46
609.70	1673.37
610.05	1665.33
610.40	1657.49
610.75	1649.00
611.10	1641.41
611.44	1633.01
611.79	1625.09
612.14	1616.37
612.49	1607.38
612.83	1599.09
613.18	1590.86
613.53	1582.69
613.88	1574.21
614.22	1565.94
614.57	1557.48
614.92	1549.42
615.27	1541.87
615.61	1533.58
615.96	1525.58
616.31	1517.96
616.65	1510.72
617.00	1503.23
617.35	1495.67
617.70	1487.38
618.04	1478.93
618.39	1470.66
618.74	1463.11
619.08	1454.88
619.43	1447.33
619.78	1440.28
620.12	1433.11
620.47	1425.66
620.82	1417.55
621.16	1410.11
621.51	1402.46
621.85	1394.80
622.20	1386.39
622.55	1378.08
622.89	1370.30
623.24	1362.78
623.59	1355.52
623.93	1348.02
624.28	1340.77
624.62	1333.15
624.97	1325.94
625.32	1319.26
625.66	1312.19
626.01	1304.84
626.35	1297.24
626.70	1289.53
627.04	1281.88
627.39	1274.14
627.73	1266.75
628.08	1259.85
628.43	1252.59
628.77	1245.30
629.12	1237.78
629.46	1230.52
629.81	1223.15
630.15	1215.99
630.50	1208.53
630.84	1200.37
631.19	1192.47
631.53	1185.04
631.88	1177.60
632.22	1170.13
632.57	1162.80
632.91	1155.44
633.26	1148.20
633.60	1141.05
633.95	1134.02
634.29	1127.00
634.64	1120.36
634.98	1113.05
635.32	1105.96
635.67	1099.46
636.01	1092.84
636.36	1086.11
636.70	1079.73
637.05	1073.19
637.39	1066.87
637.73	1060.48
638.08	1054.60
638.42	1048.67
638.77	1042.29
639.11	1035.75
639.45	1029.35
639.80	1022.77
640.14	1016.25
640.49	1009.75
640.83	1003.42
641.17	997.20
641.52	990.98
641.86	984.59
642.20	978.78
642.55	972.57
642.89	966.05
643.23	959.66
643.58	953.92
643.92	947.74
644.26	941.72
644.61	935.65
644.95	929.54
645.29	922.94
645.64	916.22
645.98	909.92
646.32	904.09
646.66	898.07
647.01	892.32
647.35	886.71
647.69	880.89
648.04	875.31
648.38	869.49
648.72	863.44
649.06	857.30
649.41	851.51
649.75	845.50
650.09	839.56
650.43	833.73
650.78	827.52
651.12	821.51
651.46	815.79
651.80	810.02
652.14	804.70
652.49	799.41
652.83	794.23
653.17	788.45
653.51	782.67
653.85	777.28
654.20	771.63
654.54	765.61
654.88	759.94
655.22	754.20
655.56	748.56
655.90	743.14
656.25	737.96
656.59	732.56
656.93	727.45
657.27	722.24
657.61	716.78
657.95	711.74
658.29	706.72
658.64	701.52
658.98	696.18
659.32	690.73
659.66	685.54
660.00	680.20
660.34	675.32
660.68	670.56
661.02	665.49
661.36	660.77
661.70	656.29
662.05	651.89
662.39	647.49
662.73	643.08
663.07	638.76
663.41	634.31
663.75	629.80
664.09	625.28
664.43	620.97
664.77	616.87
665.11	612.61
665.45	608.56
665.79	604.47
666.13	600.43
666.47	596.36
666.81	592.12
667.15	588.03
667.49	584.17
667.83	580.32
668.17	576.47
668.51	572.48
668.85	568.49
669.19	564.73
669.53	560.93
669.87	557.01
670.21	553.26
670.55	549.65
670.89	546.32
671.23	542.88
671.57	539.42
671.91	535.91
672.25	532.49
672.58	528.95
672.92	525.62
673.26	522.49
673.60	519.37
673.94	516.35
674.28	513.56
674.62	510.65
674.96	507.62
675.30	504.73
675.64	501.87
675.97	499.09
676.31	496.19
676.65	493.27
676.99	490.64
677.33	487.84
677.67	485.08
678.01	481.99
678.34	479.09
678.68	476.26
679.02	473.44
679.36	470.68
679.70	468.01
680.04	465.18
680.37	462.29
680.71	459.51
681.05	456.88
681.39	454.19
681.73	451.57
682.06	449.00
682.40	446.46
682.74	443.91
683.08	441.37
683.42	438.80
683.75	436.34
684.09	433.81
684.43	431.35
684.77	428.89
685.10	426.63
685.44	424.32
685.78	422.02
686.12	419.84
686.45	417.61
686.79	415.32
687.13	413.24
687.46	411.15
687.80	409.02
688.14	406.87
688.48	404.83
688.81	402.53
689.15	400.41
689.49	398.30
689.82	396.19
690.16	394.12
690.50	392.17
690.83	390.17
691.17	388.18
691.51	386.28
691.84	384.47
692.18	382.51
692.52	380.55
692.85	378.65
693.19	376.78
693.52	374.95
693.86	373.11
694.20	371.33
694.53	369.52
694.87	367.63
695.21	365.82
695.54	363.95
695.88	362.24
696.21	360.55
696.55	358.86
696.88	357.22
697.22	355.56
697.56	353.95
697.89	352.30
698.23	350.69
698.56	349.05
698.90	347.40
699.23	345.79
699.57	344.21
699.90	342.69
700.24	341.11
700.58	339.56
700.91	338.08
701.25	336.63
701.58	335.28
701.92	333.96
702.25	332.59
702.59	331.25
702.92	329.93
703.26	328.63
703.59	327.33
703.93	326.12
704.26	324.87
704.60	323.56
704.93	322.35
705.26	321.10
705.60	319.94
705.93	318.83
706.27	317.77
706.60	316.75
706.94	315.61
707.27	314.50
707.61	313.48
707.94	312.45
708.27	311.37
708.61	310.30
708.94	309.29
709.28	308.33
709.61	307.34
709.94	306.44
710.28	305.43
710.61	304.48
710.95	303.44
711.28	302.57
711.61	301.62
711.95	300.71
712.28	299.79
712.61	298.81
712.95	297.85
713.28	296.97
713.61	296.06
713.95	295.22
714.28	294.38
714.61	293.48
714.95	292.66
715.28	291.83
715.61	290.95
715.95	290.14
716.28	289.29
716.61	288.48
716.95	287.69
717.28	286.95
717.61	286.19
717.94	285.46
718.28	284.63
718.61	283.98
718.94	283.29
719.27	282.65
719.61	282.04
719.94	281.42
720.27	280.71
720.60	280.05
720.94	279.46
721.27	278.89
721.60	278.35
721.93	277.79
722.27	277.27
722.60	276.71
722.93	276.09
723.26	275.55
723.59	275.00
723.93	274.46
724.26	273.88
724.59	273.31
724.92	272.79
725.25	272.38
725.59	271.84
725.92	271.34
726.25	270.84
726.58	270.32
726.91	269.85
727.24	269.44
727.57	268.98
727.91	268.48
728.24	268.03
728.57	267.52
728.90	267.08
729.23	266.53
729.56	266.12
729.89	265.71
730.22	265.22
730.55	264.79
730.89	264.33
731.22	263.92
731.55	263.51
731.88	263.09
732.21	262.57
732.54	262.14
732.87	261.68
733.20	261.28
733.53	260.90
733.86	260.49
734.19	260.01
734.52	259.64
734.85	259.33
735.18	258.88
735.51	258.49
735.84	258.10
736.17	257.74
736.50	257.32
736.83	257.06
737.16	256.75
737.49	256.38
737.82	256.00
738.15	255.66
738.48	255.33
738.81	255.00
739.14	254.70
739.47	254.35
739.80	254.05
740.13	253.71
740.46	253.37
740.79	253.05
741.12	252.76
741.45	252.44
741.78	252.06
742.11	251.76
742.44	251.44
742.77	251.08
743.10	250.79
743.43	250.50
743.75	250.10
744.08	249.90
744.41	249.62
744.74	249.33
745.07	249.04
745.40	248.74
745.73	248.46
746.06	248.17
746.39	247.94
746.71	247.68
747.04	247.39
747.37	247.14
747.70	246.88
748.03	246.62
748.36	246.40
748.68	246.17
749.01	245.94
749.34	245.73
749.67	245.54
750.00	245.29
750.33	245.12
750.65	244.90
750.98	244.56
751.31	244.35
751.64	244.18
751.97	244.02
752.29	243.81
752.62	243.58
752.95	243.38
753.28	243.14
753.60	242.93
753.93	242.82
754.26	242.62
754.59	242.39
754.91	242.19
755.24	241.99
755.57	241.83
755.90	241.62
756.22	241.43
756.55	241.21
756.88	241.04
757.20	240.84
757.53	240.66
757.86	240.51
758.19	240.38
758.51	240.21
758.84	239.99
759.17	239.83
759.49	239.73
759.82	239.63
760.15	239.50
760.47	239.39
760.80	239.21
761.13	239.11
761.45	238.95
761.78	238.85
762.11	238.71
762.43	238.55
762.76	238.46
763.08	238.34
763.41	238.26
763.74	238.16
764.06	238.02
764.39	237.92
764.71	237.81
765.04	237.67
765.37	237.56
765.69	237.50
766.02	237.41
766.34	237.28
766.67	237.12
767.00	237.03
767.32	236.91
767.65	236.87
767.97	236.74
768.30	236.68
768.62	236.55
768.95	236.45
769.27	236.37
769.60	236.27
769.92	236.15
770.25	236.02
770.57	235.89
770.90	235.78
771.22	235.66
771.55	235.56
771.87	235.46
772.20	235.36
772.52	235.32
772.85	235.32
773.17	235.22
773.50	235.16
773.82	235.04
774.15	234.91
774.47	234.75
774.80	234.65
775.12	234.56
775.45	234.49
775.77	234.37
776.09	234.26
776.42	234.15
776.74	234.15
777.07	234.07
777.39	234.00
777.72	233.93
778.04	233.86
778.36	233.76
778.69	233.68
779.01	233.61
779.33	233.43
779.66	233.21
779.98	233.12
780.31	233.03
780.63	232.97
780.95	232.94
781.28	232.85
781.60	232.76
781.92	232.66
782.25	232.56
782.57	232.49
782.89	232.41
783.22	232.37
783.54	232.21
783.86	232.15
784.19	232.05
784.51	232.00
784.83	231.92
785.16	231.86
785.48	231.79
785.80	231.70
786.12	231.63
786.45	231.58
786.77	231.55
787.09	231.46
