SpectraSuite Data File
++++++++++++++++++++++++++++++++++++
Date: Fri Feb 01 14:58:47 EST 2013
User: group
Dark Spectrum Present: No
Reference Spectrum Present: No
Number of Sampled Component Spectra: 1
Spectrometers: USB2E7196
Integration Time (usec): 35000 (USB2E7196)
Spectra Averaged: 100 (USB2E7196)
Boxcar Smoothing: 10 (USB2E7196)
Correct for Electrical Dark: No (USB2E7196)
Strobe/Lamp Enabled: No (USB2E7196)
Correct for Detector Non-linearity: No (USB2E7196)
Correct for Stray Light: No (USB2E7196)
Number of Pixels in Processed Spectrum: 2048
>>>>>Begin Processed Spectral Data<<<<<
339.09	0.00
339.48	215.41
339.86	216.65
340.24	217.95
340.63	219.66
341.01	222.70
341.39	222.11
341.78	224.25
342.16	224.56
342.54	225.47
342.93	213.72
343.31	224.50
343.69	225.04
344.07	225.50
344.46	225.94
344.84	226.30
345.22	226.52
345.60	226.75
345.99	226.91
346.37	227.04
346.75	227.13
347.13	227.20
347.52	227.24
347.90	227.31
348.28	227.31
348.66	227.34
349.05	227.37
349.43	227.40
349.81	227.46
350.19	227.47
350.57	227.53
350.96	227.61
351.34	227.69
351.72	227.77
352.10	227.85
352.48	227.89
352.87	227.95
353.25	228.03
353.63	228.07
354.01	228.12
354.39	228.22
354.77	228.30
355.15	228.36
355.54	228.41
355.92	228.42
356.30	228.52
356.68	228.62
357.06	228.68
357.44	228.74
357.82	228.78
358.20	228.88
358.58	228.91
358.97	228.93
359.35	229.00
359.73	229.10
360.11	229.16
360.49	229.23
360.87	229.31
361.25	229.33
361.63	229.42
362.01	229.48
362.39	229.49
362.77	229.51
363.15	229.54
363.53	229.58
363.91	229.60
364.29	229.59
364.67	229.50
365.05	229.50
365.43	229.48
365.81	229.50
366.19	229.52
366.57	229.56
366.95	229.58
367.33	229.55
367.71	229.49
368.09	229.50
368.47	229.46
368.85	229.41
369.23	229.39
369.61	229.33
369.99	229.32
370.37	229.27
370.75	229.27
371.13	229.23
371.51	229.14
371.89	229.06
372.27	229.03
372.65	228.98
373.03	228.93
373.41	228.88
373.78	228.84
374.16	228.76
374.54	228.68
374.92	228.57
375.30	228.52
375.68	228.43
376.06	228.37
376.44	228.29
376.82	228.23
377.19	228.16
377.57	228.12
377.95	227.97
378.33	227.90
378.71	227.76
379.09	227.68
379.47	227.66
379.84	227.60
380.22	227.50
380.60	227.44
380.98	227.36
381.36	227.28
381.73	227.20
382.11	227.12
382.49	227.08
382.87	227.01
383.25	226.96
383.62	226.97
384.00	226.88
384.38	226.79
384.76	226.74
385.13	226.69
385.51	226.61
385.89	226.59
386.27	226.53
386.64	226.48
387.02	226.45
387.40	226.34
387.78	226.31
388.15	226.31
388.53	226.25
388.91	226.22
389.29	226.18
389.66	226.17
390.04	226.13
390.42	226.09
390.79	226.07
391.17	226.03
391.55	225.94
391.92	225.97
392.30	225.99
392.68	226.01
393.05	226.01
393.43	226.03
393.81	226.06
394.18	226.10
394.56	226.16
394.94	226.19
395.31	226.25
395.69	226.33
396.06	226.35
396.44	226.40
396.82	226.43
397.19	226.53
397.57	226.57
397.95	226.63
398.32	226.68
398.70	226.80
399.07	226.89
399.45	226.98
399.82	227.04
400.20	227.12
400.58	227.19
400.95	227.24
401.33	227.36
401.70	227.48
402.08	227.57
402.45	227.69
402.83	227.83
403.20	227.96
403.58	228.05
403.95	228.19
404.33	228.36
404.71	228.51
405.08	228.71
405.46	228.86
405.83	229.06
406.21	229.23
406.58	229.42
406.96	229.59
407.33	229.76
407.70	229.96
408.08	230.25
408.45	230.48
408.83	230.75
409.20	230.98
409.58	231.20
409.95	231.47
410.33	231.76
410.70	232.00
411.08	232.31
411.45	232.61
411.82	232.95
412.20	233.33
412.57	233.76
412.95	234.05
413.32	234.47
413.69	234.85
414.07	235.29
414.44	235.73
414.82	236.20
415.19	236.76
415.56	237.30
415.94	237.83
416.31	238.48
416.68	239.09
417.06	239.81
417.43	240.47
417.81	241.21
418.18	241.95
418.55	242.78
418.93	243.63
419.30	244.57
419.67	245.48
420.04	246.43
420.42	247.38
420.79	248.55
421.16	249.70
421.54	250.90
421.91	252.10
422.28	253.33
422.66	254.65
423.03	255.94
423.40	257.26
423.77	258.67
424.15	260.07
424.52	261.56
424.89	263.14
425.26	264.71
425.64	266.19
426.01	267.80
426.38	269.45
426.75	271.12
427.13	272.83
427.50	274.63
427.87	276.49
428.24	278.37
428.61	280.13
428.99	282.08
429.36	284.16
429.73	286.27
430.10	288.32
430.47	290.40
430.85	292.52
431.22	294.79
431.59	297.18
431.96	299.44
432.33	301.92
432.70	304.34
433.08	307.17
433.45	309.82
433.82	312.45
434.19	315.34
434.56	318.19
434.93	320.87
435.30	323.50
435.68	326.39
436.05	329.22
436.42	332.03
436.79	334.57
437.16	337.31
437.53	340.09
437.90	342.93
438.27	345.66
438.64	348.52
439.01	351.14
439.38	353.39
439.75	355.59
440.13	358.12
440.50	360.45
440.87	362.31
441.24	364.23
441.61	366.40
441.98	367.91
442.35	369.71
442.72	371.57
443.09	373.40
443.46	374.42
443.83	374.97
444.20	375.47
444.57	376.27
444.94	376.52
445.31	376.88
445.68	377.21
446.05	377.29
446.42	376.87
446.79	376.41
447.16	375.98
447.53	375.65
447.90	374.48
448.27	373.30
448.64	371.67
449.01	370.56
449.37	368.61
449.74	366.70
450.11	364.41
450.48	361.92
450.85	359.37
451.22	357.23
451.59	355.22
451.96	353.26
452.33	350.65
452.70	348.32
453.07	345.52
453.43	342.61
453.80	339.88
454.17	337.22
454.54	334.69
454.91	331.94
455.28	329.25
455.65	326.73
456.02	324.29
456.38	322.16
456.75	319.48
457.12	317.22
457.49	315.01
457.86	312.87
458.23	311.00
458.59	308.93
458.96	306.87
459.33	305.06
459.70	303.21
460.07	301.71
460.43	299.98
460.80	298.30
461.17	296.85
461.54	295.35
461.91	293.92
462.27	292.49
462.64	291.19
463.01	289.87
463.38	288.61
463.74	287.18
464.11	285.99
464.48	284.94
464.85	283.81
465.21	282.92
465.58	281.96
465.95	280.84
466.32	279.93
466.68	279.03
467.05	278.10
467.42	277.18
467.78	276.25
468.15	275.37
468.52	274.70
468.88	273.83
469.25	273.02
469.62	272.41
469.98	271.67
470.35	271.04
470.72	270.38
471.08	269.70
471.45	269.18
471.82	268.65
472.18	268.03
472.55	267.57
472.92	267.00
473.28	266.56
473.65	266.12
474.02	265.68
474.38	265.25
474.75	264.91
475.11	264.58
475.48	264.30
475.85	263.99
476.21	263.76
476.58	263.56
476.94	263.41
477.31	263.23
477.67	263.13
478.04	263.01
478.41	262.96
478.77	262.97
479.14	262.87
479.50	262.81
479.87	262.89
480.23	262.94
480.60	263.00
480.96	263.06
481.33	263.22
481.69	263.39
482.06	263.55
482.42	263.75
482.79	263.98
483.15	264.28
483.52	264.71
483.88	265.07
484.25	265.46
484.61	265.84
484.98	266.24
485.34	266.72
485.71	267.28
486.07	267.89
486.44	268.41
486.80	269.13
487.17	269.88
487.53	270.70
487.90	271.57
488.26	272.53
488.62	273.51
488.99	274.49
489.35	275.53
489.72	276.68
490.08	277.85
490.44	279.12
490.81	280.42
491.17	281.74
491.54	283.20
491.90	284.74
492.26	286.40
492.63	288.14
492.99	289.94
493.36	291.82
493.72	293.85
494.08	295.96
494.45	298.17
494.81	300.56
495.17	302.99
495.54	305.56
495.90	308.22
496.26	311.01
496.63	313.99
496.99	317.08
497.35	320.31
497.72	323.74
498.08	327.21
498.44	330.89
498.80	334.86
499.17	338.88
499.53	343.01
499.89	347.40
500.26	351.94
500.62	356.61
500.98	361.56
501.34	366.59
501.71	371.94
502.07	377.41
502.43	382.99
502.79	388.80
503.16	394.85
503.52	401.05
503.88	407.44
504.24	414.03
504.60	420.91
504.97	428.00
505.33	435.30
505.69	443.00
506.05	450.70
506.41	458.54
506.78	466.70
507.14	475.18
507.50	483.84
507.86	492.85
508.22	502.00
508.59	511.15
508.95	520.80
509.31	530.59
509.67	540.62
510.03	550.87
510.39	561.40
510.75	572.22
511.12	583.21
511.48	594.41
511.84	605.82
512.20	617.33
512.56	629.28
512.92	641.42
513.28	653.73
513.64	666.28
514.00	678.95
514.37	691.87
514.73	704.90
515.09	717.97
515.45	731.26
515.81	744.89
516.17	758.96
516.53	773.05
516.89	787.23
517.25	801.45
517.61	815.87
517.97	830.29
518.33	844.62
518.69	859.42
519.05	874.53
519.41	889.79
519.77	905.36
520.13	920.80
520.49	936.24
520.85	951.70
521.21	967.50
521.57	983.80
521.93	999.58
522.29	1016.07
522.65	1032.31
523.01	1048.59
523.37	1064.68
523.73	1080.95
524.09	1097.09
524.45	1113.49
524.81	1130.17
525.17	1147.11
525.53	1164.18
525.89	1181.09
526.25	1197.91
526.61	1214.37
526.97	1231.17
527.33	1247.74
527.68	1264.45
528.04	1281.00
528.40	1297.79
528.76	1314.89
529.12	1331.47
529.48	1348.46
529.84	1364.52
530.20	1381.24
530.56	1398.32
530.91	1415.78
531.27	1432.54
531.63	1449.06
531.99	1465.71
532.35	1481.82
532.71	1497.67
533.07	1513.87
533.42	1529.92
533.78	1546.04
534.14	1562.40
534.50	1577.82
534.86	1593.80
535.21	1609.06
535.57	1625.08
535.93	1640.62
536.29	1655.45
536.65	1670.61
537.00	1685.51
537.36	1700.86
537.72	1715.49
538.08	1730.07
538.44	1743.96
538.79	1757.91
539.15	1771.81
539.51	1785.72
539.87	1800.07
540.22	1814.02
540.58	1827.93
540.94	1841.43
541.29	1854.61
541.65	1867.48
542.01	1880.77
542.37	1893.06
542.72	1905.66
543.08	1917.51
543.44	1930.05
543.79	1941.37
544.15	1952.43
544.51	1964.15
544.87	1975.21
545.22	1986.10
545.58	1996.28
545.94	2006.08
546.29	2015.99
546.65	2025.68
547.01	2034.87
547.36	2043.75
547.72	2052.26
548.07	2060.25
548.43	2068.49
548.79	2076.45
549.14	2083.94
549.50	2091.35
549.86	2099.27
550.21	2106.54
550.57	2113.70
550.92	2120.21
551.28	2127.34
551.64	2134.41
551.99	2140.89
552.35	2147.05
552.70	2153.09
553.06	2159.00
553.41	2165.34
553.77	2171.35
554.13	2177.58
554.48	2183.59
554.84	2188.78
555.19	2194.15
555.55	2199.01
555.90	2203.30
556.26	2208.18
556.61	2212.82
556.97	2216.94
557.32	2220.91
557.68	2224.98
558.03	2229.27
558.39	2232.95
558.74	2237.36
559.10	2241.25
559.45	2244.79
559.81	2249.01
560.16	2252.88
560.52	2256.00
560.87	2259.42
561.23	2261.97
561.58	2264.76
561.94	2267.33
562.29	2269.85
562.64	2272.28
563.00	2274.93
563.35	2278.54
563.71	2281.39
564.06	2284.60
564.42	2287.41
564.77	2289.70
565.12	2291.80
565.48	2293.50
565.83	2295.15
566.19	2296.41
566.54	2297.28
566.89	2298.23
567.25	2298.57
567.60	2299.74
567.96	2301.24
568.31	2301.93
568.66	2302.93
569.02	2303.43
569.37	2303.66
569.72	2304.21
570.08	2304.29
570.43	2304.10
570.78	2303.16
571.14	2301.55
571.49	2299.91
571.84	2299.45
572.20	2298.18
572.55	2296.96
572.90	2295.35
573.26	2293.79
573.61	2292.13
573.96	2290.09
574.31	2286.98
574.67	2283.96
575.02	2280.16
575.37	2276.68
575.72	2272.65
576.08	2269.33
576.43	2265.79
576.78	2261.87
577.13	2258.61
577.49	2255.32
577.84	2251.76
578.19	2248.03
578.54	2244.18
578.90	2239.88
579.25	2234.19
579.60	2229.05
579.95	2223.99
580.30	2218.75
580.66	2213.52
581.01	2208.33
581.36	2203.22
581.71	2198.96
582.06	2194.42
582.42	2189.84
582.77	2184.42
583.12	2179.60
583.47	2174.60
583.82	2169.37
584.17	2164.08
584.53	2158.41
584.88	2152.67
585.23	2146.67
585.58	2141.06
585.93	2135.55
586.28	2130.64
586.63	2125.35
586.98	2120.34
587.34	2115.60
587.69	2110.66
588.04	2105.22
588.39	2099.32
588.74	2092.85
589.09	2086.57
589.44	2079.67
589.79	2073.57
590.14	2067.99
590.49	2061.42
590.84	2054.88
591.19	2048.85
591.54	2042.23
591.89	2034.75
592.25	2027.80
592.60	2020.64
592.95	2012.97
593.30	2005.48
593.65	1997.75
594.00	1990.62
594.35	1983.22
594.70	1975.01
595.05	1967.66
595.40	1960.42
595.75	1952.78
596.10	1946.31
596.45	1939.31
596.80	1933.00
597.15	1926.11
597.50	1918.94
597.85	1912.52
598.19	1905.81
598.54	1898.68
598.89	1891.93
599.24	1886.02
599.59	1879.19
599.94	1872.90
600.29	1866.44
600.64	1859.86
600.99	1852.26
601.34	1845.40
601.69	1838.35
602.04	1831.34
602.39	1824.01
602.74	1817.12
603.08	1810.46
603.43	1803.75
603.78	1796.56
604.13	1789.16
604.48	1781.94
604.83	1775.10
605.18	1768.02
605.53	1760.00
605.87	1751.97
606.22	1744.72
606.57	1736.79
606.92	1729.50
607.27	1722.15
607.62	1715.20
607.96	1707.80
608.31	1701.43
608.66	1693.85
609.01	1686.35
609.36	1678.93
609.70	1670.93
610.05	1662.78
610.40	1654.99
610.75	1646.74
611.10	1639.10
611.44	1630.94
611.79	1623.02
612.14	1614.19
612.49	1605.17
612.83	1596.81
613.18	1588.62
613.53	1580.58
613.88	1572.13
614.22	1563.91
614.57	1555.49
614.92	1547.55
615.27	1540.12
615.61	1531.67
615.96	1523.73
616.31	1516.05
616.65	1508.61
617.00	1500.97
617.35	1493.42
617.70	1485.11
618.04	1476.49
618.39	1468.32
618.74	1460.66
619.08	1452.40
619.43	1444.93
619.78	1438.01
620.12	1430.87
620.47	1423.46
620.82	1415.32
621.16	1407.91
621.51	1400.27
621.85	1392.81
622.20	1384.25
622.55	1376.03
622.89	1368.36
623.24	1360.82
623.59	1353.50
623.93	1346.00
624.28	1338.94
624.62	1331.53
624.97	1324.38
625.32	1317.80
625.66	1310.80
626.01	1303.64
626.35	1296.13
626.70	1288.45
627.04	1280.69
627.39	1273.04
627.73	1265.60
628.08	1258.83
628.43	1251.44
628.77	1244.19
629.12	1236.60
629.46	1229.48
629.81	1222.02
630.15	1214.79
630.50	1207.43
630.84	1199.33
631.19	1191.52
631.53	1184.00
631.88	1176.38
632.22	1168.97
632.57	1161.69
632.91	1154.22
633.26	1146.89
633.60	1139.68
633.95	1132.71
634.29	1125.84
634.64	1119.10
634.98	1111.85
635.32	1104.74
635.67	1098.29
636.01	1091.67
636.36	1084.91
636.70	1078.47
637.05	1072.01
637.39	1065.64
637.73	1059.13
638.08	1053.32
638.42	1047.36
638.77	1040.93
639.11	1034.36
639.45	1028.07
639.80	1021.48
640.14	1015.09
640.49	1008.46
640.83	1002.19
641.17	995.94
641.52	989.63
641.86	983.44
642.20	977.60
642.55	971.34
642.89	964.83
643.23	958.47
643.58	952.72
643.92	946.50
644.26	940.40
644.61	934.33
644.95	928.32
645.29	921.72
645.64	914.91
645.98	908.65
646.32	902.84
646.66	896.72
647.01	891.01
647.35	885.44
647.69	879.76
648.04	874.29
648.38	868.48
648.72	862.38
649.06	856.22
649.41	850.43
649.75	844.42
650.09	838.54
650.43	832.70
650.78	826.51
651.12	820.65
651.46	814.90
651.80	809.15
652.14	803.78
652.49	798.40
652.83	793.27
653.17	787.51
653.51	781.81
653.85	776.43
654.20	770.69
654.54	764.62
654.88	758.93
655.22	753.08
655.56	747.43
655.90	742.06
656.25	736.82
656.59	731.43
656.93	726.32
657.27	721.21
657.61	715.75
657.95	710.69
658.29	705.57
658.64	700.37
658.98	695.13
659.32	689.71
659.66	684.57
660.00	679.32
660.34	674.45
660.68	669.60
661.02	664.58
661.36	659.92
661.70	655.49
662.05	651.17
662.39	646.83
662.73	642.39
663.07	638.03
663.41	633.59
663.75	629.13
664.09	624.65
664.43	620.30
664.77	616.28
665.11	612.12
665.45	608.11
665.79	604.11
666.13	599.99
666.47	595.92
666.81	591.77
667.15	587.72
667.49	583.90
667.83	580.13
668.17	576.33
668.51	572.29
668.85	568.29
669.19	564.41
669.53	560.60
669.87	556.76
670.21	553.17
670.55	549.55
670.89	546.19
671.23	542.79
671.57	539.28
671.91	535.73
672.25	532.26
672.58	528.79
672.92	525.46
673.26	522.39
673.60	519.32
673.94	516.24
674.28	513.37
674.62	510.43
674.96	507.31
675.30	504.37
675.64	501.53
675.97	498.76
676.31	495.97
676.65	493.03
676.99	490.35
677.33	487.46
677.67	484.63
678.01	481.62
678.34	478.64
678.68	475.80
679.02	473.00
679.36	470.20
679.70	467.48
680.04	464.70
680.37	461.77
680.71	459.00
681.05	456.44
681.39	453.77
681.73	451.13
682.06	448.68
682.40	446.12
682.74	443.58
683.08	441.04
683.42	438.46
683.75	436.01
684.09	433.52
684.43	431.04
684.77	428.66
685.10	426.34
685.44	424.07
685.78	421.84
686.12	419.62
686.45	417.37
686.79	415.06
687.13	412.86
687.46	410.73
687.80	408.54
688.14	406.33
688.48	404.26
688.81	402.01
689.15	399.83
689.49	397.72
689.82	395.62
690.16	393.52
690.50	391.54
690.83	389.58
691.17	387.60
691.51	385.70
691.84	383.80
692.18	381.83
692.52	379.81
692.85	377.87
693.19	375.98
693.52	374.21
693.86	372.39
694.20	370.60
694.53	368.82
694.87	366.99
695.21	365.17
695.54	363.33
695.88	361.65
696.21	359.93
696.55	358.21
696.88	356.59
697.22	354.98
697.56	353.41
697.89	351.74
698.23	350.09
698.56	348.51
698.90	346.96
699.23	345.32
699.57	343.81
699.90	342.25
700.24	340.70
700.58	339.10
700.91	337.65
701.25	336.20
701.58	334.86
701.92	333.53
702.25	332.18
702.59	330.80
702.92	329.49
703.26	328.22
703.59	326.96
703.93	325.76
704.26	324.54
704.60	323.24
704.93	322.01
705.26	320.82
705.60	319.70
705.93	318.57
706.27	317.53
706.60	316.52
706.94	315.46
707.27	314.36
707.61	313.36
707.94	312.33
708.27	311.30
708.61	310.24
708.94	309.23
709.28	308.31
709.61	307.39
709.94	306.46
710.28	305.44
710.61	304.51
710.95	303.49
711.28	302.59
711.61	301.67
711.95	300.79
712.28	299.82
712.61	298.83
712.95	297.90
713.28	297.09
713.61	296.18
713.95	295.31
714.28	294.52
714.61	293.66
714.95	292.84
715.28	291.98
715.61	291.09
715.95	290.25
716.28	289.38
716.61	288.55
716.95	287.77
717.28	287.04
717.61	286.27
717.94	285.54
718.28	284.74
718.61	284.06
718.94	283.35
719.27	282.77
719.61	282.15
719.94	281.55
720.27	280.80
720.60	280.18
720.94	279.58
721.27	279.01
721.60	278.44
721.93	277.88
722.27	277.31
722.60	276.81
722.93	276.23
723.26	275.68
723.59	275.13
723.93	274.56
724.26	274.04
724.59	273.53
724.92	272.99
725.25	272.52
725.59	271.98
725.92	271.48
726.25	270.94
726.58	270.44
726.91	269.93
727.24	269.47
727.57	268.95
727.91	268.45
728.24	267.95
728.57	267.46
728.90	266.96
729.23	266.46
729.56	266.02
729.89	265.55
730.22	265.05
730.55	264.57
730.89	264.12
731.22	263.63
731.55	263.13
731.88	262.70
732.21	262.22
732.54	261.76
732.87	261.31
733.20	260.91
733.53	260.55
733.86	260.12
734.19	259.71
734.52	259.33
734.85	258.99
735.18	258.58
735.51	258.21
735.84	257.84
736.17	257.50
736.50	257.08
736.83	256.82
737.16	256.49
737.49	256.15
737.82	255.81
738.15	255.49
738.48	255.17
738.81	254.85
739.14	254.53
739.47	254.22
739.80	253.91
740.13	253.61
740.46	253.22
740.79	252.90
741.12	252.59
741.45	252.30
741.78	251.94
742.11	251.66
742.44	251.34
742.77	251.08
743.10	250.74
743.43	250.45
743.75	250.09
744.08	249.96
744.41	249.71
744.74	249.41
745.07	249.12
745.40	248.91
745.73	248.67
746.06	248.38
746.39	248.13
746.71	247.85
747.04	247.56
747.37	247.32
747.70	247.08
748.03	246.84
748.36	246.65
748.68	246.41
749.01	246.15
749.34	245.96
749.67	245.71
750.00	245.54
750.33	245.39
750.65	245.20
750.98	244.87
751.31	244.64
751.64	244.47
751.97	244.34
752.29	244.11
752.62	243.88
752.95	243.69
753.28	243.48
753.60	243.30
753.93	243.17
754.26	243.01
754.59	242.79
754.91	242.61
755.24	242.41
755.57	242.24
755.90	242.10
756.22	241.92
756.55	241.76
756.88	241.58
757.20	241.37
757.53	241.14
757.86	240.98
758.19	240.87
758.51	240.70
758.84	240.49
759.17	240.32
759.49	240.18
759.82	240.11
760.15	239.96
760.47	239.84
760.80	239.65
761.13	239.49
761.45	239.40
761.78	239.21
762.11	239.06
762.43	238.92
762.76	238.76
763.08	238.63
763.41	238.52
763.74	238.38
764.06	238.28
764.39	238.19
764.71	238.04
765.04	237.85
765.37	237.72
765.69	237.59
766.02	237.48
766.34	237.29
766.67	237.11
767.00	237.05
767.32	236.96
767.65	236.88
767.97	236.76
768.30	236.62
768.62	236.55
768.95	236.41
769.27	236.28
769.60	236.16
769.92	236.03
770.25	235.90
770.57	235.78
770.90	235.64
771.22	235.48
771.55	235.39
771.87	235.31
772.20	235.19
772.52	235.16
772.85	235.18
773.17	235.13
773.50	235.02
773.82	234.89
774.15	234.76
774.47	234.60
774.80	234.53
775.12	234.43
775.45	234.35
775.77	234.29
776.09	234.22
776.42	234.15
776.74	234.04
777.07	233.93
777.39	233.84
777.72	233.75
778.04	233.72
778.36	233.63
778.69	233.58
779.01	233.53
779.33	233.36
779.66	233.14
779.98	233.06
780.31	233.00
780.63	232.99
780.95	232.92
781.28	232.84
781.60	232.75
781.92	232.65
782.25	232.59
782.57	232.51
782.89	232.43
783.22	232.35
783.54	232.31
783.86	232.24
784.19	232.18
784.51	232.15
784.83	232.10
785.16	232.04
785.48	231.98
785.80	231.90
786.12	231.86
786.45	231.82
786.77	231.79
787.09	231.73
