SpectraSuite Data File
++++++++++++++++++++++++++++++++++++
Date: Fri Feb 01 15:33:20 EST 2013
User: group
Dark Spectrum Present: No
Reference Spectrum Present: No
Number of Sampled Component Spectra: 1
Spectrometers: USB2E7196
Integration Time (usec): 35000 (USB2E7196)
Spectra Averaged: 100 (USB2E7196)
Boxcar Smoothing: 10 (USB2E7196)
Correct for Electrical Dark: No (USB2E7196)
Strobe/Lamp Enabled: No (USB2E7196)
Correct for Detector Non-linearity: No (USB2E7196)
Correct for Stray Light: No (USB2E7196)
Number of Pixels in Processed Spectrum: 2048
>>>>>Begin Processed Spectral Data<<<<<
339.09	0.00
339.48	215.64
339.86	216.60
340.24	217.71
340.63	219.87
341.01	222.10
341.39	222.08
341.78	223.70
342.16	224.81
342.54	225.12
342.93	213.39
343.31	224.17
343.69	224.65
344.07	225.10
344.46	225.51
344.84	225.84
345.22	226.07
345.60	226.30
345.99	226.46
346.37	226.57
346.75	226.63
347.13	226.69
347.52	226.75
347.90	226.84
348.28	226.87
348.66	226.89
349.05	226.90
349.43	226.92
349.81	226.94
350.19	226.95
350.57	226.98
350.96	227.00
351.34	227.04
351.72	227.14
352.10	227.24
352.48	227.29
352.87	227.35
353.25	227.41
353.63	227.46
354.01	227.54
354.39	227.60
354.77	227.69
355.15	227.80
355.54	227.88
355.92	227.92
356.30	227.99
356.68	228.12
357.06	228.21
357.44	228.29
357.82	228.36
358.20	228.41
358.58	228.45
358.97	228.57
359.35	228.66
359.73	228.76
360.11	228.81
360.49	228.89
360.87	228.93
361.25	228.97
361.63	229.04
362.01	229.06
362.39	229.11
362.77	229.16
363.15	229.18
363.53	229.23
363.91	229.26
364.29	229.26
364.67	229.21
365.05	229.19
365.43	229.20
365.81	229.21
366.19	229.30
366.57	229.34
366.95	229.33
367.33	229.29
367.71	229.29
368.09	229.29
368.47	229.26
368.85	229.24
369.23	229.27
369.61	229.23
369.99	229.24
370.37	229.22
370.75	229.24
371.13	229.20
371.51	229.11
371.89	229.08
372.27	229.04
372.65	228.97
373.03	228.96
373.41	228.88
373.78	228.84
374.16	228.72
374.54	228.65
374.92	228.57
375.30	228.52
375.68	228.41
376.06	228.35
376.44	228.28
376.82	228.25
377.19	228.15
377.57	228.07
377.95	227.96
378.33	227.88
378.71	227.72
379.09	227.62
379.47	227.56
379.84	227.48
380.22	227.41
380.60	227.32
380.98	227.26
381.36	227.21
381.73	227.12
382.11	227.07
382.49	227.07
382.87	227.00
383.25	226.95
383.62	226.98
384.00	226.93
384.38	226.89
384.76	226.86
385.13	226.85
385.51	226.80
385.89	226.74
386.27	226.68
386.64	226.66
387.02	226.65
387.40	226.61
387.78	226.57
388.15	226.57
388.53	226.53
388.91	226.46
389.29	226.41
389.66	226.42
390.04	226.39
390.42	226.29
390.79	226.31
391.17	226.30
391.55	226.19
391.92	226.17
392.30	226.16
392.68	226.13
393.05	226.13
393.43	226.13
393.81	226.17
394.18	226.21
394.56	226.23
394.94	226.25
395.31	226.25
395.69	226.27
396.06	226.31
396.44	226.32
396.82	226.35
397.19	226.45
397.57	226.46
397.95	226.54
398.32	226.58
398.70	226.61
399.07	226.69
399.45	226.78
399.82	226.84
400.20	226.91
400.58	226.99
400.95	227.02
401.33	227.15
401.70	227.26
402.08	227.36
402.45	227.42
402.83	227.57
403.20	227.68
403.58	227.81
403.95	227.93
404.33	228.07
404.71	228.20
405.08	228.35
405.46	228.50
405.83	228.65
406.21	228.80
406.58	228.99
406.96	229.14
407.33	229.31
407.70	229.55
408.08	229.81
408.45	230.02
408.83	230.26
409.20	230.50
409.58	230.71
409.95	230.98
410.33	231.27
410.70	231.50
411.08	231.81
411.45	232.14
411.82	232.47
412.20	232.88
412.57	233.31
412.95	233.62
413.32	234.05
413.69	234.47
414.07	234.92
414.44	235.38
414.82	235.86
415.19	236.40
415.56	236.92
415.94	237.47
416.31	238.09
416.68	238.71
417.06	239.45
417.43	240.17
417.81	240.93
418.18	241.74
418.55	242.59
418.93	243.49
419.30	244.35
419.67	245.31
420.04	246.21
420.42	247.24
420.79	248.43
421.16	249.56
421.54	250.75
421.91	251.96
422.28	253.25
422.66	254.58
423.03	255.90
423.40	257.21
423.77	258.61
424.15	260.05
424.52	261.51
424.89	263.09
425.26	264.60
425.64	266.06
426.01	267.63
426.38	269.31
426.75	270.98
427.13	272.74
427.50	274.51
427.87	276.44
428.24	278.29
428.61	280.04
428.99	282.01
429.36	284.11
429.73	286.19
430.10	288.19
430.47	290.26
430.85	292.38
431.22	294.66
431.59	297.06
431.96	299.30
432.33	301.85
432.70	304.22
433.08	307.04
433.45	309.64
433.82	312.24
434.19	315.09
434.56	317.89
434.93	320.56
435.30	323.18
435.68	326.09
436.05	328.89
436.42	331.71
436.79	334.17
437.16	336.90
437.53	339.73
437.90	342.54
438.27	345.30
438.64	348.14
439.01	350.65
439.38	352.90
439.75	355.11
440.13	357.60
440.50	359.92
440.87	361.76
441.24	363.74
441.61	365.88
441.98	367.40
442.35	369.18
442.72	371.00
443.09	372.84
443.46	373.79
443.83	374.43
444.20	374.89
444.57	375.77
444.94	376.04
445.31	376.44
445.68	376.85
446.05	376.90
446.42	376.50
446.79	376.10
447.16	375.61
447.53	375.23
447.90	374.02
448.27	372.89
448.64	371.28
449.01	370.13
449.37	368.19
449.74	366.27
450.11	364.03
450.48	361.56
450.85	359.00
451.22	356.86
451.59	354.82
451.96	352.90
452.33	350.24
452.70	347.89
453.07	344.97
453.43	342.00
453.80	339.23
454.17	336.57
454.54	334.07
454.91	331.39
455.28	328.73
455.65	326.26
456.02	323.84
456.38	321.72
456.75	319.05
457.12	316.79
457.49	314.57
457.86	312.40
458.23	310.55
458.59	308.51
458.96	306.41
459.33	304.54
459.70	302.67
460.07	301.20
460.43	299.43
460.80	297.87
461.17	296.44
461.54	294.96
461.91	293.53
462.27	292.09
462.64	290.82
463.01	289.47
463.38	288.18
463.74	286.78
464.11	285.66
464.48	284.67
464.85	283.52
465.21	282.64
465.58	281.72
465.95	280.62
466.32	279.72
466.68	278.83
467.05	277.90
467.42	277.00
467.78	276.05
468.15	275.20
468.52	274.50
468.88	273.64
469.25	272.85
469.62	272.22
469.98	271.50
470.35	270.88
470.72	270.27
471.08	269.61
471.45	269.08
471.82	268.47
472.18	267.86
472.55	267.45
472.92	266.91
473.28	266.45
473.65	265.99
474.02	265.53
474.38	265.15
474.75	264.90
475.11	264.54
475.48	264.30
475.85	264.09
476.21	263.87
476.58	263.72
476.94	263.60
477.31	263.44
477.67	263.31
478.04	263.19
478.41	263.13
478.77	263.18
479.14	263.11
479.50	263.13
479.87	263.19
480.23	263.27
480.60	263.40
480.96	263.46
481.33	263.68
481.69	263.86
482.06	264.03
482.42	264.19
482.79	264.46
483.15	264.75
483.52	265.11
483.88	265.43
484.25	265.81
484.61	266.22
484.98	266.67
485.34	267.26
485.71	267.83
486.07	268.44
486.44	268.98
486.80	269.65
487.17	270.38
487.53	271.17
487.90	272.00
488.26	272.86
488.62	273.88
488.99	274.85
489.35	275.90
489.72	277.06
490.08	278.26
490.44	279.49
490.81	280.83
491.17	282.19
491.54	283.68
491.90	285.21
492.26	286.82
492.63	288.51
492.99	290.26
493.36	292.14
493.72	294.18
494.08	296.29
494.45	298.53
494.81	300.88
495.17	303.32
495.54	305.97
495.90	308.63
496.26	311.45
496.63	314.40
496.99	317.49
497.35	320.75
497.72	324.14
498.08	327.65
498.44	331.30
498.80	335.17
499.17	339.23
499.53	343.38
499.89	347.75
500.26	352.28
500.62	356.98
500.98	361.94
501.34	367.01
501.71	372.40
502.07	377.86
502.43	383.49
502.79	389.33
503.16	395.37
503.52	401.73
503.88	408.10
504.24	414.75
504.60	421.65
504.97	428.83
505.33	436.16
505.69	443.87
506.05	451.71
506.41	459.62
506.78	467.80
507.14	476.29
507.50	485.01
507.86	494.06
508.22	503.23
508.59	512.48
508.95	522.05
509.31	531.78
509.67	541.90
510.03	552.19
510.39	562.74
510.75	573.52
511.12	584.42
511.48	595.79
511.84	607.20
512.20	618.73
512.56	630.63
512.92	642.86
513.28	655.22
513.64	667.65
514.00	680.35
514.37	693.24
514.73	706.33
515.09	719.48
515.45	732.77
515.81	746.36
516.17	760.33
516.53	774.57
516.89	788.82
517.25	803.06
517.61	817.51
517.97	832.05
518.33	846.41
518.69	861.25
519.05	876.23
519.41	891.45
519.77	907.09
520.13	922.74
520.49	938.05
520.85	953.52
521.21	969.31
521.57	985.63
521.93	1001.47
522.29	1017.88
522.65	1034.05
523.01	1050.37
523.37	1066.58
523.73	1082.80
524.09	1098.80
524.45	1115.15
524.81	1131.80
525.17	1148.67
525.53	1165.54
525.89	1182.60
526.25	1199.38
526.61	1215.79
526.97	1232.60
527.33	1249.12
527.68	1265.64
528.04	1282.23
528.40	1298.93
528.76	1316.09
529.12	1332.71
529.48	1349.63
529.84	1365.71
530.20	1382.45
530.56	1399.58
530.91	1416.93
531.27	1433.77
531.63	1450.33
531.99	1466.92
532.35	1482.92
532.71	1498.91
533.07	1515.18
533.42	1531.05
533.78	1547.20
534.14	1563.42
534.50	1578.91
534.86	1594.78
535.21	1609.96
535.57	1625.92
535.93	1641.36
536.29	1656.09
536.65	1671.22
537.00	1686.10
537.36	1701.34
537.72	1715.88
538.08	1730.09
538.44	1743.97
538.79	1757.89
539.15	1771.71
539.51	1785.43
539.87	1799.93
540.22	1813.59
540.58	1827.42
540.94	1840.85
541.29	1853.78
541.65	1866.66
542.01	1879.93
542.37	1892.26
542.72	1904.80
543.08	1916.60
543.44	1929.13
543.79	1940.47
544.15	1951.49
544.51	1963.07
544.87	1974.13
545.22	1984.96
545.58	1995.40
545.94	2005.10
546.29	2015.02
546.65	2024.80
547.01	2034.18
547.36	2042.84
547.72	2051.44
548.07	2059.26
548.43	2067.44
548.79	2075.42
549.14	2082.92
549.50	2090.07
549.86	2097.85
550.21	2105.20
550.57	2112.47
550.92	2119.00
551.28	2126.07
551.64	2133.13
551.99	2139.70
552.35	2145.89
552.70	2152.00
553.06	2157.87
553.41	2164.24
553.77	2170.25
554.13	2176.38
554.48	2182.49
554.84	2187.88
555.19	2193.24
555.55	2198.48
555.90	2202.92
556.26	2207.84
556.61	2212.51
556.97	2216.79
557.32	2220.97
557.68	2225.01
558.03	2229.19
558.39	2232.90
558.74	2237.52
559.10	2241.36
559.45	2245.00
559.81	2249.36
560.16	2253.34
560.52	2256.60
560.87	2260.06
561.23	2262.65
561.58	2265.64
561.94	2268.22
562.29	2270.59
562.64	2273.04
563.00	2275.43
563.35	2279.13
563.71	2282.29
564.06	2285.69
564.42	2288.52
564.77	2290.92
565.12	2293.21
565.48	2295.10
565.83	2296.91
566.19	2298.13
566.54	2299.09
566.89	2300.18
567.25	2300.66
567.60	2301.93
567.96	2303.68
568.31	2304.48
568.66	2305.59
569.02	2306.07
569.37	2306.33
569.72	2307.27
570.08	2307.51
570.43	2307.67
570.78	2306.92
571.14	2305.30
571.49	2303.93
571.84	2303.60
572.20	2302.32
572.55	2301.25
572.90	2299.70
573.26	2298.28
573.61	2296.59
573.96	2294.70
574.31	2291.64
574.67	2288.58
575.02	2284.94
575.37	2281.43
575.72	2277.50
576.08	2274.08
576.43	2270.74
576.78	2266.99
577.13	2263.83
577.49	2260.66
577.84	2257.11
578.19	2253.20
578.54	2249.59
578.90	2245.10
579.25	2239.64
579.60	2234.69
579.95	2229.51
580.30	2224.43
580.66	2219.17
581.01	2214.19
581.36	2209.31
581.71	2205.06
582.06	2200.52
582.42	2195.88
582.77	2190.47
583.12	2185.87
583.47	2181.08
583.82	2175.98
584.17	2170.64
584.53	2165.00
584.88	2159.27
585.23	2153.38
585.58	2147.99
585.93	2142.41
586.28	2137.79
586.63	2132.51
586.98	2127.44
587.34	2122.86
587.69	2118.01
588.04	2112.75
588.39	2106.91
588.74	2100.36
589.09	2094.22
589.44	2087.42
589.79	2081.38
590.14	2075.87
590.49	2069.20
590.84	2062.90
591.19	2056.77
591.54	2050.20
591.89	2042.65
592.25	2035.78
592.60	2028.59
592.95	2020.93
593.30	2013.48
593.65	2005.83
594.00	1998.85
594.35	1991.43
594.70	1983.21
595.05	1975.84
595.40	1968.52
595.75	1961.00
596.10	1954.62
596.45	1947.77
596.80	1941.53
597.15	1934.77
597.50	1927.55
597.85	1921.13
598.19	1914.30
598.54	1907.24
598.89	1900.63
599.24	1894.83
599.59	1888.06
599.94	1881.85
600.29	1875.52
600.64	1868.90
600.99	1861.27
601.34	1854.34
601.69	1847.43
602.04	1840.53
602.39	1833.12
602.74	1826.26
603.08	1819.51
603.43	1812.76
603.78	1805.42
604.13	1798.11
604.48	1790.85
604.83	1784.06
605.18	1776.99
605.53	1769.04
605.87	1760.86
606.22	1753.56
606.57	1745.51
606.92	1738.22
607.27	1731.04
607.62	1723.99
607.96	1716.82
608.31	1710.25
608.66	1702.56
609.01	1694.90
609.36	1687.38
609.70	1679.33
610.05	1671.13
610.40	1663.48
610.75	1655.09
611.10	1647.55
611.44	1639.25
611.79	1631.26
612.14	1622.44
612.49	1613.40
612.83	1605.05
613.18	1597.01
613.53	1589.00
613.88	1580.48
614.22	1572.16
614.57	1563.60
614.92	1555.63
615.27	1547.91
615.61	1539.59
615.96	1531.68
616.31	1524.09
616.65	1516.62
617.00	1509.15
617.35	1501.54
617.70	1493.08
618.04	1484.51
618.39	1476.28
618.74	1468.57
619.08	1460.18
619.43	1452.63
619.78	1445.66
620.12	1438.37
620.47	1430.75
620.82	1422.60
621.16	1415.17
621.51	1407.62
621.85	1399.95
622.20	1391.41
622.55	1383.10
622.89	1375.24
623.24	1367.57
623.59	1360.22
623.93	1352.78
624.28	1345.49
624.62	1338.03
624.97	1330.97
625.32	1324.40
625.66	1317.28
626.01	1310.10
626.35	1302.69
626.70	1294.92
627.04	1287.04
627.39	1279.35
627.73	1271.97
628.08	1265.04
628.43	1257.73
628.77	1250.42
629.12	1242.84
629.46	1235.57
629.81	1228.16
630.15	1220.87
630.50	1213.47
630.84	1205.23
631.19	1197.20
631.53	1189.69
631.88	1182.08
632.22	1174.38
632.57	1167.05
632.91	1159.42
633.26	1152.09
633.60	1144.79
633.95	1137.71
634.29	1130.82
634.64	1124.06
634.98	1116.69
635.32	1109.51
635.67	1103.02
636.01	1096.29
636.36	1089.50
636.70	1083.10
637.05	1076.47
637.39	1070.05
637.73	1063.50
638.08	1057.65
638.42	1051.69
638.77	1045.29
639.11	1038.68
639.45	1032.40
639.80	1025.67
640.14	1019.27
640.49	1012.68
640.83	1006.36
641.17	1000.14
641.52	993.81
641.86	987.43
642.20	981.63
642.55	975.37
642.89	968.77
643.23	962.18
643.58	956.37
643.92	950.12
644.26	944.09
644.61	938.04
644.95	932.04
645.29	925.47
645.64	918.74
645.98	912.30
646.32	906.54
646.66	900.47
647.01	894.66
647.35	888.97
647.69	883.16
648.04	877.58
648.38	871.78
648.72	865.85
649.06	859.73
649.41	853.82
649.75	847.72
650.09	841.82
650.43	836.11
650.78	829.97
651.12	824.03
651.46	818.26
651.80	812.49
652.14	807.09
652.49	801.70
652.83	796.59
653.17	790.92
653.51	785.11
653.85	779.73
654.20	774.02
654.54	768.07
654.88	762.32
655.22	756.48
655.56	750.74
655.90	745.28
656.25	740.03
656.59	734.66
656.93	729.61
657.27	724.45
657.61	718.98
657.95	713.81
658.29	708.73
658.64	703.52
658.98	698.20
659.32	692.75
659.66	687.54
660.00	682.17
660.34	677.18
660.68	672.34
661.02	667.28
661.36	662.67
661.70	658.22
662.05	653.85
662.39	649.50
662.73	645.10
663.07	640.67
663.41	636.23
663.75	631.78
664.09	627.25
664.43	622.86
664.77	618.76
665.11	614.52
665.45	610.42
665.79	606.38
666.13	602.26
666.47	598.16
666.81	593.95
667.15	589.83
667.49	585.98
667.83	582.17
668.17	578.25
668.51	574.13
668.85	570.04
669.19	566.21
669.53	562.42
669.87	558.52
670.21	554.82
670.55	551.19
670.89	547.71
671.23	544.25
671.57	540.76
671.91	537.26
672.25	533.78
672.58	530.26
672.92	526.86
673.26	523.74
673.60	520.64
673.94	517.59
674.28	514.73
674.62	511.83
674.96	508.67
675.30	505.80
675.64	502.90
675.97	500.19
676.31	497.39
676.65	494.40
676.99	491.70
677.33	488.82
677.67	485.97
678.01	482.97
678.34	480.01
678.68	477.06
679.02	474.19
679.36	471.42
679.70	468.69
680.04	465.94
680.37	463.08
680.71	460.31
681.05	457.75
681.39	455.00
681.73	452.32
682.06	449.87
682.40	447.31
682.74	444.80
683.08	442.18
683.42	439.56
683.75	437.09
684.09	434.53
684.43	432.09
684.77	429.67
685.10	427.31
685.44	425.02
685.78	422.81
686.12	420.64
686.45	418.32
686.79	416.00
687.13	413.80
687.46	411.62
687.80	409.46
688.14	407.18
688.48	405.12
688.81	402.87
689.15	400.61
689.49	398.44
689.82	396.37
690.16	394.34
690.50	392.34
690.83	390.43
691.17	388.47
691.51	386.55
691.84	384.70
692.18	382.76
692.52	380.77
692.85	378.85
693.19	376.97
693.52	375.22
693.86	373.39
694.20	371.61
694.53	369.83
694.87	367.95
695.21	366.18
695.54	364.37
695.88	362.68
696.21	361.01
696.55	359.33
696.88	357.64
697.22	355.98
697.56	354.35
697.89	352.67
698.23	351.09
698.56	349.47
698.90	347.87
699.23	346.28
699.57	344.72
699.90	343.15
700.24	341.54
700.58	339.97
700.91	338.51
701.25	337.03
701.58	335.61
701.92	334.27
702.25	332.86
702.59	331.48
702.92	330.14
703.26	328.84
703.59	327.57
703.93	326.38
704.26	325.12
704.60	323.82
704.93	322.54
705.26	321.25
705.60	320.15
705.93	318.99
706.27	317.97
706.60	316.89
706.94	315.82
707.27	314.75
707.61	313.74
707.94	312.72
708.27	311.66
708.61	310.58
708.94	309.57
709.28	308.60
709.61	307.65
709.94	306.71
710.28	305.69
710.61	304.73
710.95	303.66
711.28	302.75
711.61	301.84
711.95	300.96
712.28	300.03
712.61	299.01
712.95	298.08
713.28	297.16
713.61	296.30
713.95	295.42
714.28	294.57
714.61	293.72
714.95	292.87
715.28	292.03
715.61	291.18
715.95	290.34
716.28	289.48
716.61	288.67
716.95	287.87
717.28	287.17
717.61	286.40
717.94	285.66
718.28	284.86
718.61	284.11
718.94	283.43
719.27	282.81
719.61	282.19
719.94	281.55
720.27	280.87
720.60	280.18
720.94	279.56
721.27	278.98
721.60	278.39
721.93	277.80
722.27	277.22
722.60	276.67
722.93	276.10
723.26	275.60
723.59	275.02
723.93	274.47
724.26	273.90
724.59	273.34
724.92	272.81
725.25	272.36
725.59	271.85
725.92	271.32
726.25	270.77
726.58	270.25
726.91	269.76
727.24	269.29
727.57	268.84
727.91	268.32
728.24	267.84
728.57	267.31
728.90	266.86
729.23	266.37
729.56	265.95
729.89	265.46
730.22	264.95
730.55	264.48
730.89	264.02
731.22	263.55
731.55	263.13
731.88	262.71
732.21	262.23
732.54	261.79
732.87	261.33
733.20	260.95
733.53	260.54
733.86	260.13
734.19	259.69
734.52	259.30
734.85	259.01
735.18	258.59
735.51	258.25
735.84	257.84
736.17	257.54
736.50	257.10
736.83	256.87
737.16	256.53
737.49	256.17
737.82	255.80
738.15	255.44
738.48	255.11
738.81	254.78
739.14	254.48
739.47	254.15
739.80	253.87
740.13	253.54
740.46	253.19
740.79	252.86
741.12	252.57
741.45	252.24
741.78	251.89
742.11	251.60
742.44	251.24
742.77	251.01
743.10	250.63
743.43	250.37
743.75	249.97
744.08	249.83
744.41	249.60
744.74	249.36
745.07	249.09
745.40	248.80
745.73	248.57
746.06	248.31
746.39	248.07
746.71	247.80
747.04	247.52
747.37	247.31
747.70	247.06
748.03	246.82
748.36	246.63
748.68	246.39
749.01	246.13
749.34	245.91
749.67	245.67
750.00	245.52
750.33	245.34
750.65	245.11
750.98	244.78
751.31	244.54
751.64	244.32
751.97	244.16
752.29	243.95
752.62	243.75
752.95	243.55
753.28	243.36
753.60	243.20
753.93	243.05
754.26	242.84
754.59	242.65
754.91	242.43
755.24	242.23
755.57	242.05
755.90	241.89
756.22	241.72
756.55	241.52
756.88	241.30
757.20	241.08
757.53	240.93
757.86	240.73
758.19	240.57
758.51	240.40
758.84	240.21
759.17	240.06
759.49	239.89
759.82	239.75
760.15	239.61
760.47	239.45
760.80	239.28
761.13	239.14
761.45	238.96
761.78	238.83
762.11	238.69
762.43	238.54
762.76	238.37
763.08	238.26
763.41	238.14
763.74	237.99
764.06	237.84
764.39	237.70
764.71	237.61
765.04	237.51
765.37	237.39
765.69	237.29
766.02	237.14
766.34	236.99
766.67	236.84
767.00	236.70
767.32	236.62
767.65	236.56
767.97	236.48
768.30	236.38
768.62	236.28
768.95	236.14
769.27	236.03
769.60	235.95
769.92	235.83
770.25	235.68
770.57	235.57
770.90	235.48
771.22	235.41
771.55	235.33
771.87	235.22
772.20	235.08
772.52	235.08
772.85	235.12
773.17	235.05
773.50	234.97
773.82	234.87
774.15	234.72
774.47	234.54
774.80	234.43
775.12	234.33
775.45	234.24
775.77	234.17
776.09	234.08
776.42	234.01
776.74	233.94
777.07	233.85
777.39	233.83
777.72	233.72
778.04	233.63
778.36	233.53
778.69	233.43
779.01	233.39
779.33	233.20
779.66	233.02
779.98	232.96
780.31	232.88
780.63	232.83
780.95	232.79
781.28	232.74
781.60	232.65
781.92	232.60
782.25	232.52
782.57	232.49
782.89	232.44
783.22	232.37
783.54	232.25
783.86	232.23
784.19	232.12
784.51	232.10
784.83	232.00
785.16	231.94
785.48	231.90
785.80	231.84
786.12	231.79
786.45	231.77
786.77	231.68
787.09	231.62
