SpectraSuite Data File
++++++++++++++++++++++++++++++++++++
Date: Fri Feb 01 18:06:09 EST 2013
User: group
Dark Spectrum Present: No
Reference Spectrum Present: No
Number of Sampled Component Spectra: 1
Spectrometers: USB2E7196
Integration Time (usec): 35000 (USB2E7196)
Spectra Averaged: 100 (USB2E7196)
Boxcar Smoothing: 10 (USB2E7196)
Correct for Electrical Dark: No (USB2E7196)
Strobe/Lamp Enabled: No (USB2E7196)
Correct for Detector Non-linearity: No (USB2E7196)
Correct for Stray Light: No (USB2E7196)
Number of Pixels in Processed Spectrum: 2048
>>>>>Begin Processed Spectral Data<<<<<
339.09	0.00
339.48	212.75
339.86	215.30
340.24	215.79
340.63	217.63
341.01	220.34
341.39	220.87
341.78	221.48
342.16	222.88
342.54	222.49
342.93	211.75
343.31	222.42
343.69	222.97
344.07	223.39
344.46	223.82
344.84	224.19
345.22	224.42
345.60	224.63
345.99	224.83
346.37	224.96
346.75	225.11
347.13	225.14
347.52	225.17
347.90	225.25
348.28	225.25
348.66	225.27
349.05	225.22
349.43	225.26
349.81	225.28
350.19	225.29
350.57	225.33
350.96	225.37
351.34	225.48
351.72	225.59
352.10	225.67
352.48	225.75
352.87	225.79
353.25	225.83
353.63	225.85
354.01	225.91
354.39	225.95
354.77	226.02
355.15	226.16
355.54	226.20
355.92	226.24
356.30	226.30
356.68	226.39
357.06	226.51
357.44	226.55
357.82	226.61
358.20	226.66
358.58	226.74
358.97	226.80
359.35	226.85
359.73	226.90
360.11	226.94
360.49	226.97
360.87	227.00
361.25	227.10
361.63	227.20
362.01	227.26
362.39	227.28
362.77	227.33
363.15	227.34
363.53	227.38
363.91	227.41
364.29	227.48
364.67	227.41
365.05	227.42
365.43	227.44
365.81	227.44
366.19	227.50
366.57	227.56
366.95	227.59
367.33	227.58
367.71	227.58
368.09	227.62
368.47	227.60
368.85	227.62
369.23	227.61
369.61	227.56
369.99	227.55
370.37	227.58
370.75	227.59
371.13	227.57
371.51	227.51
371.89	227.49
372.27	227.47
372.65	227.45
373.03	227.44
373.41	227.42
373.78	227.41
374.16	227.32
374.54	227.25
374.92	227.15
375.30	227.11
375.68	227.05
376.06	226.99
376.44	226.97
376.82	226.93
377.19	226.82
377.57	226.77
377.95	226.69
378.33	226.60
378.71	226.50
379.09	226.46
379.47	226.42
379.84	226.33
380.22	226.21
380.60	226.15
380.98	226.05
381.36	225.98
381.73	225.89
382.11	225.87
382.49	225.83
382.87	225.79
383.25	225.73
383.62	225.80
384.00	225.75
384.38	225.70
384.76	225.65
385.13	225.66
385.51	225.62
385.89	225.59
386.27	225.56
386.64	225.52
387.02	225.47
387.40	225.42
387.78	225.41
388.15	225.39
388.53	225.35
388.91	225.34
389.29	225.30
389.66	225.30
390.04	225.27
390.42	225.22
390.79	225.23
391.17	225.21
391.55	225.06
391.92	225.03
392.30	225.00
392.68	224.97
393.05	224.97
393.43	224.98
393.81	224.96
394.18	224.95
394.56	224.92
394.94	224.91
395.31	224.93
395.69	224.96
396.06	224.98
396.44	225.01
396.82	225.01
397.19	225.08
397.57	225.10
397.95	225.13
398.32	225.15
398.70	225.18
399.07	225.25
399.45	225.28
399.82	225.36
400.20	225.41
400.58	225.45
400.95	225.47
401.33	225.55
401.70	225.72
402.08	225.78
402.45	225.90
402.83	226.01
403.20	226.09
403.58	226.21
403.95	226.33
404.33	226.48
404.71	226.61
405.08	226.82
405.46	226.94
405.83	227.10
406.21	227.27
406.58	227.45
406.96	227.64
407.33	227.86
407.70	228.07
408.08	228.41
408.45	228.68
408.83	228.96
409.20	229.20
409.58	229.39
409.95	229.73
410.33	230.09
410.70	230.41
411.08	230.84
411.45	231.24
411.82	231.64
412.20	232.07
412.57	232.61
412.95	233.00
413.32	233.57
413.69	234.09
414.07	234.64
414.44	235.25
414.82	235.86
415.19	236.60
415.56	237.35
415.94	238.08
416.31	238.96
416.68	239.81
417.06	240.79
417.43	241.77
417.81	242.82
418.18	243.87
418.55	245.02
418.93	246.15
419.30	247.35
419.67	248.62
420.04	249.91
420.42	251.28
420.79	252.88
421.16	254.43
421.54	256.07
421.91	257.72
422.28	259.46
422.66	261.33
423.03	263.12
423.40	264.90
423.77	266.83
424.15	268.77
424.52	270.80
424.89	272.97
425.26	275.05
425.64	277.01
426.01	279.14
426.38	281.37
426.75	283.68
427.13	286.03
427.50	288.53
427.87	291.16
428.24	293.67
428.61	296.02
428.99	298.68
429.36	301.59
429.73	304.43
430.10	307.18
430.47	309.97
430.85	312.83
431.22	315.87
431.59	319.10
431.96	322.14
432.33	325.54
432.70	328.80
433.08	332.60
433.45	336.19
433.82	339.76
434.19	343.70
434.56	347.54
434.93	351.16
435.30	354.73
435.68	358.67
436.05	362.55
436.42	366.41
436.79	369.81
437.16	373.50
437.53	377.38
437.90	381.21
438.27	384.91
438.64	388.79
439.01	392.37
439.38	395.47
439.75	398.44
440.13	401.84
440.50	405.08
440.87	407.64
441.24	410.30
441.61	413.25
441.98	415.30
442.35	417.71
442.72	420.28
443.09	422.76
443.46	424.08
443.83	424.87
444.20	425.61
444.57	426.83
444.94	427.18
445.31	427.66
445.68	428.10
446.05	428.26
446.42	427.74
446.79	427.13
447.16	426.48
447.53	426.07
447.90	424.51
448.27	422.91
448.64	420.76
449.01	419.18
449.37	416.51
449.74	413.98
450.11	410.91
450.48	407.52
450.85	404.05
451.22	401.10
451.59	398.32
451.96	395.61
452.33	391.99
452.70	388.79
453.07	384.90
453.43	380.96
453.80	377.17
454.17	373.55
454.54	370.12
454.91	366.43
455.28	362.79
455.65	359.36
456.02	355.92
456.38	352.97
456.75	349.37
457.12	346.27
457.49	343.19
457.86	340.26
458.23	337.70
458.59	334.86
458.96	332.04
459.33	329.46
459.70	326.91
460.07	324.84
460.43	322.49
460.80	320.26
461.17	318.29
461.54	316.21
461.91	314.22
462.27	312.20
462.64	310.50
463.01	308.60
463.38	306.80
463.74	304.97
464.11	303.37
464.48	301.97
464.85	300.45
465.21	299.23
465.58	297.98
465.95	296.50
466.32	295.25
466.68	293.99
467.05	292.83
467.42	291.61
467.78	290.33
468.15	289.09
468.52	288.14
468.88	286.93
469.25	285.89
469.62	285.03
469.98	284.10
470.35	283.19
470.72	282.34
471.08	281.46
471.45	280.71
471.82	279.93
472.18	279.11
472.55	278.47
472.92	277.77
473.28	277.11
473.65	276.47
474.02	275.87
474.38	275.33
474.75	274.82
475.11	274.29
475.48	273.91
475.85	273.56
476.21	273.21
476.58	272.96
476.94	272.70
477.31	272.38
477.67	272.15
478.04	271.94
478.41	271.81
478.77	271.75
479.14	271.59
479.50	271.56
479.87	271.53
480.23	271.57
480.60	271.52
480.96	271.53
481.33	271.67
481.69	271.81
482.06	271.97
482.42	272.11
482.79	272.31
483.15	272.57
483.52	272.94
483.88	273.25
484.25	273.61
484.61	273.97
484.98	274.42
485.34	274.95
485.71	275.50
486.07	276.10
486.44	276.66
486.80	277.34
487.17	278.05
487.53	278.85
487.90	279.70
488.26	280.70
488.62	281.71
488.99	282.72
489.35	283.79
489.72	284.96
490.08	286.26
490.44	287.60
490.81	289.01
491.17	290.42
491.54	292.00
491.90	293.59
492.26	295.37
492.63	297.14
492.99	299.01
493.36	301.04
493.72	303.24
494.08	305.50
494.45	307.92
494.81	310.47
495.17	313.09
495.54	315.81
495.90	318.61
496.26	321.58
496.63	324.74
496.99	328.04
497.35	331.48
497.72	335.09
498.08	338.83
498.44	342.71
498.80	346.90
499.17	351.15
499.53	355.56
499.89	360.21
500.26	365.05
500.62	370.05
500.98	375.34
501.34	380.64
501.71	386.27
502.07	392.05
502.43	398.03
502.79	404.27
503.16	410.76
503.52	417.48
503.88	424.34
504.24	431.36
504.60	438.73
504.97	446.35
505.33	454.11
505.69	462.37
506.05	470.63
506.41	479.00
506.78	487.72
507.14	496.78
507.50	506.09
507.86	515.71
508.22	525.52
508.59	535.36
508.95	545.65
509.31	556.12
509.67	566.94
510.03	577.88
510.39	589.09
510.75	600.62
511.12	612.34
511.48	624.49
511.84	636.84
512.20	649.14
512.56	662.00
512.92	675.13
513.28	688.39
513.64	701.85
514.00	715.55
514.37	729.54
514.73	743.69
515.09	757.78
515.45	772.15
515.81	786.86
516.17	802.04
516.53	817.41
516.89	832.77
517.25	848.11
517.61	863.83
517.97	879.62
518.33	895.28
518.69	911.34
519.05	927.54
519.41	944.07
519.77	961.11
520.13	977.96
520.49	994.79
520.85	1011.57
521.21	1028.72
521.57	1046.51
521.93	1063.71
522.29	1081.55
522.65	1099.44
523.01	1117.29
523.37	1134.97
523.73	1152.69
524.09	1170.32
524.45	1188.28
524.81	1206.63
525.17	1225.05
525.53	1243.73
525.89	1262.44
526.25	1281.04
526.61	1299.24
526.97	1317.79
527.33	1336.02
527.68	1354.36
528.04	1372.71
528.40	1391.20
528.76	1410.21
529.12	1428.80
529.48	1447.82
529.84	1465.83
530.20	1484.30
530.56	1503.16
530.91	1522.60
531.27	1541.42
531.63	1559.86
531.99	1578.54
532.35	1596.62
532.71	1614.65
533.07	1632.94
533.42	1650.98
533.78	1669.33
534.14	1687.85
534.50	1705.30
534.86	1723.35
535.21	1740.71
535.57	1758.94
535.93	1776.65
536.29	1793.66
536.65	1810.82
537.00	1827.66
537.36	1845.23
537.72	1862.06
538.08	1878.82
538.44	1894.73
538.79	1910.86
539.15	1926.77
539.51	1942.79
539.87	1959.34
540.22	1975.30
540.58	1991.41
540.94	2007.12
541.29	2022.20
541.65	2037.12
542.01	2052.54
542.37	2067.15
542.72	2081.99
543.08	2095.88
543.44	2110.71
543.79	2124.24
544.15	2137.51
544.51	2151.53
544.87	2164.71
545.22	2177.83
545.58	2190.37
545.94	2202.39
546.29	2214.42
546.65	2226.73
547.01	2238.20
547.36	2249.22
547.72	2259.84
548.07	2269.95
548.43	2280.08
548.79	2290.12
549.14	2299.69
549.50	2309.15
549.86	2318.86
550.21	2328.14
550.57	2337.38
550.92	2345.90
551.28	2354.96
551.64	2364.19
551.99	2372.61
552.35	2380.77
552.70	2388.97
553.06	2396.96
553.41	2405.44
553.77	2413.37
554.13	2421.25
554.48	2429.50
554.84	2436.93
555.19	2444.00
555.55	2450.82
555.90	2457.07
556.26	2463.90
556.61	2470.50
556.97	2476.76
557.32	2482.64
557.68	2488.74
558.03	2494.72
558.39	2499.97
558.74	2506.31
559.10	2511.82
559.45	2517.03
559.81	2523.00
560.16	2528.22
560.52	2532.94
560.87	2537.72
561.23	2541.82
561.58	2546.25
561.94	2550.18
562.29	2553.82
562.64	2558.08
563.00	2562.17
563.35	2567.24
563.71	2571.64
564.06	2576.29
564.42	2580.47
564.77	2584.40
565.12	2587.89
565.48	2591.13
565.83	2594.26
566.19	2596.80
566.54	2598.54
566.89	2600.81
567.25	2602.39
567.60	2604.76
567.96	2607.50
568.31	2609.37
568.66	2611.57
569.02	2613.10
569.37	2614.14
569.72	2615.92
570.08	2616.92
570.43	2617.75
570.78	2617.91
571.14	2617.00
571.49	2616.20
571.84	2616.48
572.20	2616.03
572.55	2615.43
572.90	2614.32
573.26	2613.49
573.61	2612.23
573.96	2611.15
574.31	2608.41
574.67	2605.71
575.02	2602.36
575.37	2599.10
575.72	2595.39
576.08	2592.13
576.43	2588.82
576.78	2585.32
577.13	2582.29
577.49	2579.17
577.84	2575.52
578.19	2571.73
578.54	2568.13
578.90	2563.84
579.25	2557.89
579.60	2552.63
579.95	2547.31
580.30	2542.04
580.66	2536.56
581.01	2531.29
581.36	2525.89
581.71	2521.57
582.06	2516.90
582.42	2512.14
582.77	2506.60
583.12	2501.70
583.47	2496.74
583.82	2491.52
584.17	2485.76
584.53	2479.79
584.88	2473.78
585.23	2467.70
585.58	2461.73
585.93	2455.79
586.28	2450.46
586.63	2444.95
586.98	2439.45
587.34	2434.28
587.69	2428.76
588.04	2423.03
588.39	2416.65
588.74	2409.58
589.09	2402.80
589.44	2395.08
589.79	2388.26
590.14	2381.87
590.49	2374.51
590.84	2367.26
591.19	2360.53
591.54	2353.31
591.89	2345.13
592.25	2337.38
592.60	2329.23
592.95	2320.65
593.30	2312.27
593.65	2303.61
594.00	2295.67
594.35	2287.19
594.70	2277.95
595.05	2270.11
595.40	2261.78
595.75	2253.21
596.10	2246.09
596.45	2238.39
596.80	2231.43
597.15	2223.96
597.50	2215.99
597.85	2208.49
598.19	2200.93
598.54	2192.72
598.89	2185.11
599.24	2178.12
599.59	2170.41
599.94	2163.06
600.29	2155.66
600.64	2147.96
600.99	2139.49
601.34	2131.54
601.69	2123.58
602.04	2115.74
602.39	2107.02
602.74	2099.01
603.08	2091.15
603.43	2083.16
603.78	2074.52
604.13	2066.19
604.48	2057.76
604.83	2049.57
605.18	2041.71
605.53	2032.40
605.87	2022.98
606.22	2014.49
606.57	2005.13
606.92	1996.53
607.27	1988.27
607.62	1980.11
607.96	1971.70
608.31	1963.98
608.66	1955.12
609.01	1946.25
609.36	1937.22
609.70	1927.69
610.05	1918.21
610.40	1909.13
610.75	1899.58
611.10	1890.59
611.44	1880.52
611.79	1870.93
612.14	1860.84
612.49	1849.84
612.83	1839.81
613.18	1830.18
613.53	1820.52
613.88	1810.62
614.22	1800.87
614.57	1790.63
614.92	1781.22
615.27	1772.31
615.61	1762.48
615.96	1752.98
616.31	1743.89
616.65	1735.39
617.00	1726.60
617.35	1717.67
617.70	1707.94
618.04	1697.82
618.39	1688.00
618.74	1679.07
619.08	1669.32
619.43	1660.28
619.78	1652.13
620.12	1643.73
620.47	1634.92
620.82	1625.17
621.16	1616.32
621.51	1607.29
621.85	1598.26
622.20	1588.19
622.55	1578.30
622.89	1568.97
623.24	1559.83
623.59	1551.06
623.93	1542.07
624.28	1533.42
624.62	1524.38
624.97	1515.81
625.32	1507.69
625.66	1499.40
626.01	1490.99
626.35	1482.34
626.70	1473.20
627.04	1464.10
627.39	1454.95
627.73	1446.12
628.08	1438.06
628.43	1429.44
628.77	1420.70
629.12	1411.86
629.46	1403.37
629.81	1394.42
630.15	1385.88
630.50	1377.18
630.84	1367.58
631.19	1358.16
631.53	1349.25
631.88	1340.36
632.22	1331.55
632.57	1322.91
632.91	1313.92
633.26	1305.07
633.60	1296.15
633.95	1287.78
634.29	1279.44
634.64	1271.53
634.98	1262.92
635.32	1254.51
635.67	1246.64
636.01	1238.89
636.36	1230.80
636.70	1223.02
637.05	1215.44
637.39	1207.76
637.73	1200.09
638.08	1193.12
638.42	1186.05
638.77	1178.53
639.11	1170.80
639.45	1163.24
639.80	1155.49
640.14	1148.14
640.49	1140.58
640.83	1133.13
641.17	1125.88
641.52	1118.48
641.86	1110.87
642.20	1103.92
642.55	1096.42
642.89	1088.90
643.23	1081.16
643.58	1074.44
643.92	1067.25
644.26	1060.07
644.61	1052.96
644.95	1046.03
645.29	1038.42
645.64	1030.57
645.98	1023.05
646.32	1016.15
646.66	1009.11
647.01	1002.33
647.35	995.62
647.69	988.69
648.04	982.36
648.38	975.54
648.72	968.62
649.06	961.56
649.41	954.76
649.75	947.85
650.09	941.01
650.43	934.31
650.78	927.20
651.12	920.33
651.46	913.74
651.80	907.11
652.14	900.77
652.49	894.43
652.83	888.43
653.17	881.84
653.51	875.20
653.85	868.82
654.20	862.31
654.54	855.32
654.88	848.63
655.22	841.72
655.56	835.10
655.90	828.65
656.25	822.55
656.59	816.22
656.93	810.40
657.27	804.44
657.61	798.08
657.95	792.08
658.29	786.18
658.64	779.98
658.98	773.73
659.32	767.37
659.66	761.42
660.00	755.27
660.34	749.65
660.68	743.97
661.02	738.17
661.36	732.69
661.70	727.46
662.05	722.43
662.39	717.42
662.73	712.18
663.07	707.10
663.41	701.96
663.75	696.82
664.09	691.48
664.43	686.28
664.77	681.58
665.11	676.64
665.45	671.81
665.79	667.10
666.13	662.41
666.47	657.63
666.81	652.79
667.15	648.01
667.49	643.40
667.83	638.99
668.17	634.45
668.51	629.72
668.85	625.08
669.19	620.61
669.53	616.23
669.87	611.80
670.21	607.48
670.55	603.29
670.89	599.32
671.23	595.29
671.57	591.19
671.91	587.02
672.25	582.98
672.58	578.90
672.92	574.92
673.26	571.23
673.60	567.65
673.94	564.01
674.28	560.63
674.62	557.25
674.96	553.62
675.30	550.21
675.64	546.76
675.97	543.43
676.31	540.13
676.65	536.69
676.99	533.55
677.33	530.26
677.67	526.99
678.01	523.50
678.34	520.10
678.68	516.76
679.02	513.53
679.36	510.29
679.70	507.11
680.04	503.92
680.37	500.62
680.71	497.38
681.05	494.40
681.39	491.25
681.73	488.15
682.06	485.23
682.40	482.34
682.74	479.43
683.08	476.55
683.42	473.56
683.75	470.69
684.09	467.68
684.43	464.81
684.77	461.93
685.10	459.15
685.44	456.48
685.78	453.85
686.12	451.17
686.45	448.56
686.79	445.89
687.13	443.36
687.46	440.83
687.80	438.26
688.14	435.60
688.48	433.21
688.81	430.60
689.15	428.13
689.49	425.57
689.82	423.11
690.16	420.67
690.50	418.40
690.83	416.12
691.17	413.79
691.51	411.57
691.84	409.43
692.18	407.20
692.52	404.88
692.85	402.59
693.19	400.47
693.52	398.26
693.86	396.13
694.20	394.07
694.53	391.99
694.87	389.86
695.21	387.77
695.54	385.63
695.88	383.65
696.21	381.60
696.55	379.64
696.88	377.68
697.22	375.77
697.56	373.85
697.89	371.91
698.23	370.10
698.56	368.22
698.90	366.39
699.23	364.47
699.57	362.68
699.90	360.87
700.24	359.05
700.58	357.29
700.91	355.59
701.25	353.86
701.58	352.27
701.92	350.72
702.25	349.10
702.59	347.50
702.92	345.92
703.26	344.43
703.59	342.94
703.93	341.55
704.26	340.08
704.60	338.54
704.93	337.06
705.26	335.59
705.60	334.21
705.93	332.83
706.27	331.59
706.60	330.34
706.94	329.09
707.27	327.80
707.61	326.54
707.94	325.31
708.27	324.06
708.61	322.76
708.94	321.51
709.28	320.38
709.61	319.26
709.94	318.16
710.28	316.92
710.61	315.79
710.95	314.54
711.28	313.44
711.61	312.33
711.95	311.28
712.28	310.15
712.61	309.03
712.95	307.95
713.28	306.91
713.61	305.87
713.95	304.83
714.28	303.82
714.61	302.84
714.95	301.86
715.28	300.88
715.61	299.86
715.95	298.85
716.28	297.85
716.61	296.84
716.95	295.87
717.28	295.02
717.61	294.10
717.94	293.25
718.28	292.35
718.61	291.51
718.94	290.72
719.27	289.96
719.61	289.19
719.94	288.39
720.27	287.52
720.60	286.74
720.94	286.01
721.27	285.29
721.60	284.61
721.93	283.86
722.27	283.21
722.60	282.58
722.93	281.95
723.26	281.34
723.59	280.71
723.93	280.10
724.26	279.43
724.59	278.80
724.92	278.18
725.25	277.56
725.59	276.98
725.92	276.36
726.25	275.73
726.58	275.14
726.91	274.56
727.24	274.08
727.57	273.51
727.91	272.90
728.24	272.36
728.57	271.78
728.90	271.28
729.23	270.68
729.56	270.14
729.89	269.58
730.22	269.00
730.55	268.47
730.89	267.90
731.22	267.39
731.55	266.86
731.88	266.39
732.21	265.86
732.54	265.36
732.87	264.87
733.20	264.44
733.53	264.00
733.86	263.55
734.19	263.04
734.52	262.62
734.85	262.24
735.18	261.76
735.51	261.33
735.84	260.90
736.17	260.52
736.50	260.05
736.83	259.77
737.16	259.41
737.49	258.99
737.82	258.60
738.15	258.23
738.48	257.85
738.81	257.40
739.14	257.08
739.47	256.69
739.80	256.33
740.13	255.99
740.46	255.60
740.79	255.23
741.12	254.88
741.45	254.54
741.78	254.14
742.11	253.82
742.44	253.45
742.77	253.08
743.10	252.71
743.43	252.36
743.75	251.91
744.08	251.70
744.41	251.43
744.74	251.13
745.07	250.78
745.40	250.53
745.73	250.27
746.06	249.95
746.39	249.68
746.71	249.37
747.04	249.03
747.37	248.74
747.70	248.48
748.03	248.18
748.36	247.91
748.68	247.67
749.01	247.37
749.34	247.11
749.67	246.86
750.00	246.65
750.33	246.49
750.65	246.26
750.98	245.89
751.31	245.61
751.64	245.37
751.97	245.17
752.29	244.86
752.62	244.58
752.95	244.34
753.28	244.08
753.60	243.84
753.93	243.63
754.26	243.38
754.59	243.08
754.91	242.85
755.24	242.61
755.57	242.37
755.90	242.17
756.22	241.97
756.55	241.73
756.88	241.48
757.20	241.20
757.53	240.94
757.86	240.78
758.19	240.59
758.51	240.37
758.84	240.13
759.17	239.95
759.49	239.76
759.82	239.57
760.15	239.42
760.47	239.24
760.80	239.02
761.13	238.88
761.45	238.72
761.78	238.53
762.11	238.37
762.43	238.18
762.76	237.99
763.08	237.82
763.41	237.66
763.74	237.44
764.06	237.31
764.39	237.17
764.71	236.98
765.04	236.80
765.37	236.63
765.69	236.49
766.02	236.33
766.34	236.17
766.67	236.05
767.00	235.89
767.32	235.79
767.65	235.73
767.97	235.57
768.30	235.46
768.62	235.36
768.95	235.23
769.27	235.11
769.60	235.05
769.92	234.91
770.25	234.78
770.57	234.70
770.90	234.55
771.22	234.46
771.55	234.35
771.87	234.28
772.20	234.21
772.52	234.21
772.85	234.20
773.17	234.12
773.50	234.04
773.82	233.92
774.15	233.79
774.47	233.63
774.80	233.53
775.12	233.43
775.45	233.32
775.77	233.21
776.09	233.12
776.42	233.01
776.74	232.96
777.07	232.88
777.39	232.80
777.72	232.73
778.04	232.65
778.36	232.56
778.69	232.48
779.01	232.40
779.33	232.21
779.66	232.06
779.98	232.00
780.31	231.90
780.63	231.85
780.95	231.82
781.28	231.76
781.60	231.69
781.92	231.62
782.25	231.57
782.57	231.51
782.89	231.46
783.22	231.38
783.54	231.29
783.86	231.23
784.19	231.15
784.51	231.09
784.83	231.01
785.16	230.95
785.48	230.84
785.80	230.79
786.12	230.72
786.45	230.66
