SpectraSuite Data File
++++++++++++++++++++++++++++++++++++
Date: Fri Feb 01 16:39:52 EST 2013
User: group
Dark Spectrum Present: No
Reference Spectrum Present: No
Number of Sampled Component Spectra: 1
Spectrometers: USB2E7196
Integration Time (usec): 35000 (USB2E7196)
Spectra Averaged: 100 (USB2E7196)
Boxcar Smoothing: 10 (USB2E7196)
Correct for Electrical Dark: No (USB2E7196)
Strobe/Lamp Enabled: No (USB2E7196)
Correct for Detector Non-linearity: No (USB2E7196)
Correct for Stray Light: No (USB2E7196)
Number of Pixels in Processed Spectrum: 2048
>>>>>Begin Processed Spectral Data<<<<<
339.09	0.00
339.48	213.75
339.86	214.92
340.24	216.36
340.63	217.86
341.01	220.74
341.39	220.55
341.78	222.10
342.16	223.20
342.54	223.56
342.93	212.10
343.31	222.80
343.69	223.35
344.07	223.86
344.46	224.29
344.84	224.68
345.22	224.91
345.60	225.15
345.99	225.32
346.37	225.47
346.75	225.57
347.13	225.67
347.52	225.70
347.90	225.76
348.28	225.77
348.66	225.83
349.05	225.86
349.43	225.91
349.81	225.96
350.19	226.03
350.57	226.11
350.96	226.18
351.34	226.31
351.72	226.36
352.10	226.42
352.48	226.49
352.87	226.56
353.25	226.65
353.63	226.74
354.01	226.81
354.39	226.88
354.77	226.94
355.15	227.06
355.54	227.13
355.92	227.20
356.30	227.28
356.68	227.42
357.06	227.47
357.44	227.52
357.82	227.57
358.20	227.65
358.58	227.66
358.97	227.74
359.35	227.78
359.73	227.91
360.11	227.96
360.49	228.04
360.87	228.09
361.25	228.16
361.63	228.24
362.01	228.31
362.39	228.32
362.77	228.37
363.15	228.38
363.53	228.38
363.91	228.39
364.29	228.41
364.67	228.33
365.05	228.36
365.43	228.39
365.81	228.39
366.19	228.40
366.57	228.47
366.95	228.45
367.33	228.40
367.71	228.34
368.09	228.38
368.47	228.32
368.85	228.30
369.23	228.26
369.61	228.16
369.99	228.16
370.37	228.15
370.75	228.20
371.13	228.11
371.51	228.10
371.89	228.07
372.27	228.01
372.65	227.96
373.03	227.92
373.41	227.87
373.78	227.81
374.16	227.75
374.54	227.64
374.92	227.58
375.30	227.59
375.68	227.52
376.06	227.44
376.44	227.40
376.82	227.33
377.19	227.26
377.57	227.17
377.95	227.08
378.33	227.01
378.71	226.88
379.09	226.85
379.47	226.77
379.84	226.68
380.22	226.60
380.60	226.53
380.98	226.45
381.36	226.38
381.73	226.29
382.11	226.21
382.49	226.19
382.87	226.12
383.25	226.03
383.62	226.12
384.00	226.05
384.38	225.99
384.76	225.95
385.13	225.95
385.51	225.94
385.89	225.89
386.27	225.82
386.64	225.79
387.02	225.78
387.40	225.75
387.78	225.74
388.15	225.73
388.53	225.69
388.91	225.65
389.29	225.60
389.66	225.61
390.04	225.58
390.42	225.53
390.79	225.51
391.17	225.49
391.55	225.34
391.92	225.32
392.30	225.31
392.68	225.28
393.05	225.28
393.43	225.30
393.81	225.31
394.18	225.33
394.56	225.29
394.94	225.30
395.31	225.30
395.69	225.33
396.06	225.34
396.44	225.38
396.82	225.41
397.19	225.52
397.57	225.55
397.95	225.61
398.32	225.65
398.70	225.74
399.07	225.82
399.45	225.87
399.82	225.98
400.20	226.01
400.58	226.06
400.95	226.07
401.33	226.12
401.70	226.22
402.08	226.31
402.45	226.42
402.83	226.50
403.20	226.60
403.58	226.69
403.95	226.83
404.33	226.97
404.71	227.08
405.08	227.23
405.46	227.35
405.83	227.48
406.21	227.62
406.58	227.76
406.96	227.87
407.33	228.04
407.70	228.20
408.08	228.50
408.45	228.76
408.83	229.03
409.20	229.25
409.58	229.45
409.95	229.66
410.33	229.95
410.70	230.22
411.08	230.52
411.45	230.86
411.82	231.15
412.20	231.46
412.57	231.86
412.95	232.14
413.32	232.53
413.69	232.97
414.07	233.38
414.44	233.85
414.82	234.37
415.19	234.94
415.56	235.47
415.94	236.01
416.31	236.64
416.68	237.21
417.06	237.95
417.43	238.63
417.81	239.42
418.18	240.18
418.55	240.99
418.93	241.86
419.30	242.73
419.67	243.65
420.04	244.60
420.42	245.58
420.79	246.77
421.16	247.93
421.54	249.10
421.91	250.33
422.28	251.56
422.66	252.88
423.03	254.16
423.40	255.50
423.77	256.88
424.15	258.26
424.52	259.74
424.89	261.31
425.26	262.83
425.64	264.28
426.01	265.85
426.38	267.51
426.75	269.17
427.13	270.84
427.50	272.68
427.87	274.56
428.24	276.40
428.61	278.13
428.99	280.04
429.36	282.07
429.73	284.12
430.10	286.12
430.47	288.13
430.85	290.21
431.22	292.38
431.59	294.74
431.96	297.00
432.33	299.49
432.70	301.83
433.08	304.60
433.45	307.18
433.82	309.72
434.19	312.58
434.56	315.36
434.93	317.97
435.30	320.55
435.68	323.37
436.05	326.19
436.42	328.93
436.79	331.44
437.16	334.13
437.53	336.89
437.90	339.67
438.27	342.41
438.64	345.24
439.01	347.85
439.38	350.04
439.75	352.19
440.13	354.66
440.50	356.95
440.87	358.76
441.24	360.70
441.61	362.92
441.98	364.37
442.35	366.16
442.72	368.04
443.09	369.83
443.46	370.82
443.83	371.42
444.20	371.94
444.57	372.77
444.94	373.09
445.31	373.47
445.68	373.84
446.05	373.93
446.42	373.55
446.79	373.15
447.16	372.73
447.53	372.40
447.90	371.28
448.27	370.12
448.64	368.62
449.01	367.54
449.37	365.59
449.74	363.72
450.11	361.53
450.48	359.15
450.85	356.61
451.22	354.53
451.59	352.52
451.96	350.61
452.33	348.05
452.70	345.70
453.07	342.88
453.43	340.01
453.80	337.24
454.17	334.60
454.54	332.08
454.91	329.37
455.28	326.73
455.65	324.22
456.02	321.87
456.38	319.73
456.75	317.06
457.12	314.84
457.49	312.65
457.86	310.45
458.23	308.56
458.59	306.57
458.96	304.51
459.33	302.65
459.70	300.80
460.07	299.33
460.43	297.62
460.80	296.01
461.17	294.58
461.54	293.09
461.91	291.65
462.27	290.19
462.64	288.97
463.01	287.61
463.38	286.40
463.74	285.03
464.11	283.88
464.48	282.86
464.85	281.73
465.21	280.90
465.58	280.00
465.95	278.87
466.32	277.97
466.68	277.09
467.05	276.22
467.42	275.36
467.78	274.41
468.15	273.57
468.52	272.94
468.88	272.09
469.25	271.33
469.62	270.76
469.98	270.11
470.35	269.51
470.72	268.96
471.08	268.25
471.45	267.71
471.82	267.15
472.18	266.56
472.55	266.10
472.92	265.57
473.28	265.13
473.65	264.71
474.02	264.26
474.38	263.93
474.75	263.63
475.11	263.26
475.48	263.02
475.85	262.74
476.21	262.50
476.58	262.34
476.94	262.22
477.31	262.04
477.67	261.89
478.04	261.79
478.41	261.73
478.77	261.79
479.14	261.73
479.50	261.76
479.87	261.89
480.23	261.99
480.60	262.03
480.96	262.13
481.33	262.36
481.69	262.52
482.06	262.69
482.42	262.87
482.79	263.12
483.15	263.42
483.52	263.84
483.88	264.20
484.25	264.57
484.61	265.04
484.98	265.47
485.34	266.05
485.71	266.64
486.07	267.21
486.44	267.77
486.80	268.46
487.17	269.25
487.53	270.01
487.90	270.85
488.26	271.79
488.62	272.78
488.99	273.78
489.35	274.86
489.72	275.97
490.08	277.17
490.44	278.43
490.81	279.79
491.17	281.19
491.54	282.69
491.90	284.21
492.26	285.85
492.63	287.60
492.99	289.38
493.36	291.28
493.72	293.34
494.08	295.46
494.45	297.71
494.81	300.04
495.17	302.50
495.54	305.12
495.90	307.82
496.26	310.63
496.63	313.57
496.99	316.66
497.35	319.99
497.72	323.39
498.08	326.90
498.44	330.62
498.80	334.53
499.17	338.54
499.53	342.79
499.89	347.18
500.26	351.70
500.62	356.36
500.98	361.34
501.34	366.45
501.71	371.77
502.07	377.24
502.43	382.86
502.79	388.74
503.16	394.78
503.52	401.06
503.88	407.48
504.24	414.12
504.60	421.02
504.97	428.10
505.33	435.43
505.69	443.18
506.05	450.91
506.41	458.74
506.78	466.88
507.14	475.28
507.50	483.96
507.86	492.90
508.22	502.08
508.59	511.26
508.95	520.77
509.31	530.58
509.67	540.68
510.03	550.91
510.39	561.40
510.75	572.20
511.12	583.11
511.48	594.32
511.84	605.70
512.20	617.17
512.56	629.06
512.92	641.19
513.28	653.51
513.64	665.86
514.00	678.58
514.37	691.50
514.73	704.55
515.09	717.57
515.45	730.83
515.81	744.32
516.17	758.22
516.53	772.31
516.89	786.35
517.25	800.43
517.61	814.83
517.97	829.21
518.33	843.56
518.69	858.31
519.05	873.29
519.41	888.52
519.77	903.93
520.13	919.41
520.49	934.70
520.85	949.96
521.21	965.60
521.57	981.64
521.93	997.32
522.29	1013.53
522.65	1029.69
523.01	1045.80
523.37	1061.78
523.73	1077.88
524.09	1093.91
524.45	1110.11
524.81	1126.69
525.17	1143.30
525.53	1160.06
525.89	1176.70
526.25	1193.37
526.61	1209.57
526.97	1226.12
527.33	1242.44
527.68	1258.81
528.04	1275.17
528.40	1291.65
528.76	1308.60
529.12	1325.21
529.48	1341.97
529.84	1357.80
530.20	1374.15
530.56	1391.00
530.91	1408.20
531.27	1424.79
531.63	1441.14
531.99	1457.60
532.35	1473.55
532.71	1489.39
533.07	1505.55
533.42	1521.60
533.78	1537.56
534.14	1553.74
534.50	1568.85
534.86	1584.65
535.21	1599.73
535.57	1615.58
535.93	1630.80
536.29	1645.43
536.65	1660.23
537.00	1674.80
537.36	1690.06
537.72	1704.42
538.08	1718.72
538.44	1732.37
538.79	1746.11
539.15	1759.37
539.51	1772.84
539.87	1786.86
540.22	1800.28
540.58	1813.68
540.94	1826.48
541.29	1838.94
541.65	1851.29
542.01	1864.36
542.37	1876.55
542.72	1888.69
543.08	1900.29
543.44	1912.50
543.79	1923.62
544.15	1934.46
544.51	1945.96
544.87	1956.52
545.22	1967.26
545.58	1977.31
545.94	1987.04
546.29	1996.78
546.65	2006.74
547.01	2016.11
547.36	2024.77
547.72	2033.37
548.07	2041.30
548.43	2049.55
548.79	2057.57
549.14	2065.24
549.50	2072.53
549.86	2080.08
550.21	2087.39
550.57	2094.51
550.92	2101.20
551.28	2108.33
551.64	2115.42
551.99	2121.86
552.35	2128.26
552.70	2134.46
553.06	2140.42
553.41	2146.86
553.77	2152.67
554.13	2158.61
554.48	2164.58
554.84	2170.19
555.19	2175.31
555.55	2180.49
555.90	2184.91
556.26	2189.98
556.61	2194.58
556.97	2198.98
557.32	2203.23
557.68	2207.37
558.03	2211.56
558.39	2215.20
558.74	2219.72
559.10	2223.47
559.45	2227.27
559.81	2231.41
560.16	2235.32
560.52	2238.60
560.87	2241.85
561.23	2244.76
561.58	2247.63
561.94	2250.28
562.29	2252.42
562.64	2255.26
563.00	2257.91
563.35	2261.33
563.71	2264.27
564.06	2267.55
564.42	2270.30
564.77	2272.86
565.12	2275.19
565.48	2277.31
565.83	2279.29
566.19	2280.77
566.54	2281.69
566.89	2282.79
567.25	2283.50
567.60	2284.69
567.96	2286.49
568.31	2287.40
568.66	2288.53
569.02	2289.36
569.37	2289.65
569.72	2290.70
570.08	2291.00
570.43	2291.11
570.78	2290.81
571.14	2289.43
571.49	2288.08
571.84	2287.89
572.20	2286.83
572.55	2285.92
572.90	2284.21
573.26	2282.92
573.61	2281.03
573.96	2279.57
574.31	2276.69
574.67	2273.83
575.02	2270.26
575.37	2266.89
575.72	2263.23
576.08	2259.76
576.43	2256.25
576.78	2252.80
577.13	2249.53
577.49	2246.15
577.84	2242.69
578.19	2238.78
578.54	2235.25
578.90	2231.25
579.25	2225.80
579.60	2220.93
579.95	2215.99
580.30	2211.07
580.66	2205.95
581.01	2201.07
581.36	2195.98
581.71	2191.93
582.06	2187.70
582.42	2183.43
582.77	2178.30
583.12	2173.81
583.47	2169.50
583.82	2164.80
584.17	2159.59
584.53	2154.22
584.88	2148.79
585.23	2143.27
585.58	2138.02
585.93	2132.76
586.28	2127.88
586.63	2122.98
586.98	2117.91
587.34	2113.18
587.69	2108.22
588.04	2103.12
588.39	2097.69
588.74	2091.38
589.09	2085.09
589.44	2078.34
589.79	2072.06
590.14	2066.49
590.49	2059.87
590.84	2053.33
591.19	2047.34
591.54	2040.83
591.89	2033.78
592.25	2027.16
592.60	2019.89
592.95	2012.40
593.30	2005.06
593.65	1997.56
594.00	1990.46
594.35	1983.40
594.70	1975.35
595.05	1968.51
595.40	1961.39
595.75	1953.98
596.10	1947.93
596.45	1941.42
596.80	1935.25
597.15	1928.97
597.50	1922.21
597.85	1915.85
598.19	1909.36
598.54	1902.44
598.89	1896.11
599.24	1890.14
599.59	1883.66
599.94	1877.37
600.29	1871.04
600.64	1864.39
600.99	1857.21
601.34	1850.40
601.69	1843.26
602.04	1836.61
602.39	1829.21
602.74	1822.38
603.08	1815.69
603.43	1808.91
603.78	1801.64
604.13	1794.51
604.48	1787.20
604.83	1780.26
605.18	1773.54
605.53	1765.63
605.87	1757.63
606.22	1750.28
606.57	1742.30
606.92	1734.64
607.27	1727.64
607.62	1720.77
607.96	1713.66
608.31	1707.12
608.66	1699.64
609.01	1692.18
609.36	1684.67
609.70	1676.76
610.05	1668.68
610.40	1661.03
610.75	1652.70
611.10	1644.96
611.44	1636.39
611.79	1628.45
612.14	1619.81
612.49	1610.51
612.83	1602.08
613.18	1593.96
613.53	1585.89
613.88	1577.47
614.22	1569.35
614.57	1560.84
614.92	1552.96
615.27	1545.51
615.61	1537.15
615.96	1529.17
616.31	1521.56
616.65	1514.26
617.00	1506.73
617.35	1499.07
617.70	1490.90
618.04	1482.62
618.39	1474.50
618.74	1467.07
619.08	1458.76
619.43	1451.07
619.78	1444.08
620.12	1437.05
620.47	1429.53
620.82	1421.33
621.16	1413.81
621.51	1406.19
621.85	1398.36
622.20	1389.85
622.55	1381.43
622.89	1373.55
623.24	1365.96
623.59	1358.51
623.93	1350.99
624.28	1343.71
624.62	1336.27
624.97	1328.93
625.32	1322.02
625.66	1315.03
626.01	1307.89
626.35	1300.59
626.70	1292.85
627.04	1285.26
627.39	1277.38
627.73	1270.04
628.08	1263.25
628.43	1256.15
628.77	1248.92
629.12	1241.64
629.46	1234.47
629.81	1227.00
630.15	1219.79
630.50	1212.41
630.84	1204.37
631.19	1196.31
631.53	1188.80
631.88	1181.22
632.22	1173.58
632.57	1166.23
632.91	1158.75
633.26	1151.43
633.60	1144.02
633.95	1136.85
634.29	1129.78
634.64	1123.12
634.98	1115.76
635.32	1108.63
635.67	1101.82
636.01	1095.16
636.36	1088.27
636.70	1081.71
637.05	1075.17
637.39	1068.73
637.73	1062.21
638.08	1056.26
638.42	1050.41
638.77	1044.09
639.11	1037.58
639.45	1031.23
639.80	1024.68
640.14	1018.27
640.49	1011.73
640.83	1005.48
641.17	999.44
641.52	993.21
641.86	986.73
642.20	980.82
642.55	974.31
642.89	968.01
643.23	961.36
643.58	955.66
643.92	949.62
644.26	943.77
644.61	937.77
644.95	931.75
645.29	925.28
645.64	918.52
645.98	912.15
646.32	906.12
646.66	900.13
647.01	894.36
647.35	888.67
647.69	882.74
648.04	877.16
648.38	871.30
648.72	865.35
649.06	859.45
649.41	853.53
649.75	847.73
650.09	841.86
650.43	836.14
650.78	829.98
651.12	823.91
651.46	818.06
651.80	812.34
652.14	806.94
652.49	801.51
652.83	796.32
653.17	790.68
653.51	785.12
653.85	779.72
654.20	774.14
654.54	768.15
654.88	762.43
655.22	756.53
655.56	750.75
655.90	745.26
656.25	739.96
656.59	734.64
656.93	729.54
657.27	724.31
657.61	718.93
657.95	713.81
658.29	708.74
658.64	703.45
658.98	698.01
659.32	692.55
659.66	687.41
660.00	682.17
660.34	677.15
660.68	672.18
661.02	667.17
661.36	662.45
661.70	657.90
662.05	653.57
662.39	649.30
662.73	644.94
663.07	640.49
663.41	636.05
663.75	631.59
664.09	627.00
664.43	622.64
664.77	618.54
665.11	614.31
665.45	610.13
665.79	606.05
666.13	601.98
666.47	597.84
666.81	593.66
667.15	589.46
667.49	585.58
667.83	581.70
668.17	577.76
668.51	573.65
668.85	569.63
669.19	565.76
669.53	561.97
669.87	558.07
670.21	554.40
670.55	550.72
670.89	547.26
671.23	543.82
671.57	540.28
671.91	536.76
672.25	533.25
672.58	529.80
672.92	526.37
673.26	523.22
673.60	520.12
673.94	516.99
674.28	514.09
674.62	511.18
674.96	508.13
675.30	505.25
675.64	502.32
675.97	499.53
676.31	496.69
676.65	493.72
676.99	490.99
677.33	488.14
677.67	485.34
678.01	482.35
678.34	479.41
678.68	476.51
679.02	473.68
679.36	470.87
679.70	468.06
680.04	465.36
680.37	462.55
680.71	459.76
681.05	457.18
681.39	454.44
681.73	451.74
682.06	449.19
682.40	446.61
682.74	444.09
683.08	441.52
683.42	438.88
683.75	436.37
684.09	433.83
684.43	431.34
684.77	428.87
685.10	426.53
685.44	424.15
685.78	421.87
686.12	419.57
686.45	417.28
686.79	415.05
687.13	412.80
687.46	410.56
687.80	408.34
688.14	406.08
688.48	404.04
688.81	401.88
689.15	399.71
689.49	397.55
689.82	395.46
690.16	393.36
690.50	391.41
690.83	389.50
691.17	387.51
691.51	385.63
691.84	383.82
692.18	381.89
692.52	380.01
692.85	378.06
693.19	376.18
693.52	374.38
693.86	372.53
694.20	370.77
694.53	369.03
694.87	367.19
695.21	365.37
695.54	363.54
695.88	361.75
696.21	360.06
696.55	358.38
696.88	356.69
697.22	354.98
697.56	353.34
697.89	351.65
698.23	350.07
698.56	348.45
698.90	346.86
699.23	345.21
699.57	343.67
699.90	342.12
700.24	340.58
700.58	339.03
700.91	337.57
701.25	336.14
701.58	334.74
701.92	333.42
702.25	332.05
702.59	330.70
702.92	329.36
703.26	328.04
703.59	326.76
703.93	325.58
704.26	324.44
704.60	323.15
704.93	321.92
705.26	320.64
705.60	319.44
705.93	318.25
706.27	317.21
706.60	316.14
706.94	315.06
707.27	313.91
707.61	312.88
707.94	311.82
708.27	310.74
708.61	309.65
708.94	308.61
709.28	307.65
709.61	306.65
709.94	305.74
710.28	304.72
710.61	303.74
710.95	302.66
711.28	301.70
711.61	300.78
711.95	299.84
712.28	298.96
712.61	298.00
712.95	297.09
713.28	296.19
713.61	295.30
713.95	294.44
714.28	293.63
714.61	292.75
714.95	291.93
715.28	291.05
715.61	290.22
715.95	289.40
716.28	288.53
716.61	287.70
716.95	286.86
717.28	286.11
717.61	285.37
717.94	284.64
718.28	283.88
718.61	283.14
718.94	282.46
719.27	281.77
719.61	281.13
719.94	280.50
720.27	279.80
720.60	279.12
720.94	278.46
721.27	277.88
721.60	277.31
721.93	276.70
722.27	276.15
722.60	275.56
722.93	274.98
723.26	274.43
723.59	273.88
723.93	273.36
724.26	272.84
724.59	272.23
724.92	271.70
725.25	271.14
725.59	270.65
725.92	270.11
726.25	269.59
726.58	269.08
726.91	268.53
727.24	268.03
727.57	267.53
727.91	267.02
728.24	266.53
728.57	265.99
728.90	265.51
729.23	265.01
729.56	264.58
729.89	264.08
730.22	263.60
730.55	263.16
730.89	262.68
731.22	262.19
731.55	261.79
731.88	261.38
732.21	261.00
732.54	260.55
732.87	260.12
733.20	259.72
733.53	259.28
733.86	258.91
734.19	258.54
734.52	258.15
734.85	257.83
735.18	257.43
735.51	257.11
735.84	256.75
736.17	256.40
736.50	256.00
736.83	255.79
737.16	255.50
737.49	255.15
737.82	254.81
738.15	254.50
738.48	254.14
738.81	253.79
739.14	253.42
739.47	253.10
739.80	252.76
740.13	252.44
740.46	252.16
740.79	251.84
741.12	251.51
741.45	251.21
741.78	250.90
742.11	250.62
742.44	250.27
742.77	250.00
743.10	249.71
743.43	249.40
743.75	249.02
744.08	248.85
744.41	248.58
744.74	248.33
745.07	248.01
745.40	247.78
745.73	247.58
746.06	247.34
746.39	247.06
746.71	246.83
747.04	246.54
747.37	246.27
747.70	246.00
748.03	245.77
748.36	245.58
748.68	245.30
749.01	245.04
749.34	244.85
749.67	244.65
750.00	244.43
750.33	244.26
750.65	244.05
750.98	243.69
751.31	243.49
751.64	243.29
751.97	243.16
752.29	242.93
752.62	242.65
752.95	242.40
753.28	242.21
753.60	242.01
753.93	241.86
754.26	241.70
754.59	241.49
754.91	241.28
755.24	241.05
755.57	240.88
755.90	240.69
756.22	240.48
756.55	240.25
756.88	240.04
757.20	239.82
757.53	239.61
757.86	239.47
758.19	239.31
758.51	239.14
758.84	238.93
759.17	238.77
759.49	238.61
759.82	238.53
760.15	238.37
760.47	238.22
760.80	238.06
761.13	237.95
761.45	237.83
761.78	237.70
762.11	237.56
762.43	237.39
762.76	237.25
763.08	237.14
763.41	237.01
763.74	236.89
764.06	236.75
764.39	236.61
764.71	236.46
765.04	236.29
765.37	236.13
765.69	235.98
766.02	235.85
766.34	235.75
766.67	235.57
767.00	235.50
767.32	235.43
767.65	235.37
767.97	235.24
768.30	235.11
768.62	234.97
768.95	234.84
769.27	234.72
769.60	234.63
769.92	234.50
770.25	234.37
770.57	234.22
770.90	234.14
771.22	234.01
771.55	233.91
771.87	233.83
772.20	233.71
772.52	233.74
772.85	233.75
773.17	233.63
773.50	233.49
773.82	233.37
774.15	233.21
774.47	233.06
774.80	232.95
775.12	232.87
775.45	232.81
775.77	232.78
776.09	232.73
776.42	232.66
776.74	232.60
777.07	232.53
777.39	232.51
777.72	232.42
778.04	232.39
778.36	232.29
778.69	232.24
779.01	232.22
779.33	232.04
779.66	231.85
779.98	231.75
780.31	231.73
780.63	231.68
780.95	231.62
781.28	231.52
781.60	231.45
781.92	231.37
782.25	231.27
782.57	231.15
782.89	231.06
783.22	230.96
783.54	230.89
783.86	230.83
784.19	230.72
784.51	230.67
784.83	230.61
785.16	230.53
785.48	230.46
785.80	230.40
786.12	230.36
786.45	230.28
786.77	230.29
787.09	230.25
