SpectraSuite Data File
++++++++++++++++++++++++++++++++++++
Date: Fri Feb 01 16:35:05 EST 2013
User: group
Dark Spectrum Present: No
Reference Spectrum Present: No
Number of Sampled Component Spectra: 1
Spectrometers: USB2E7196
Integration Time (usec): 35000 (USB2E7196)
Spectra Averaged: 100 (USB2E7196)
Boxcar Smoothing: 10 (USB2E7196)
Correct for Electrical Dark: No (USB2E7196)
Strobe/Lamp Enabled: No (USB2E7196)
Correct for Detector Non-linearity: No (USB2E7196)
Correct for Stray Light: No (USB2E7196)
Number of Pixels in Processed Spectrum: 2048
>>>>>Begin Processed Spectral Data<<<<<
339.09	0.00
339.48	214.25
339.86	215.47
340.24	217.49
340.63	218.41
341.01	221.17
341.39	220.99
341.78	221.96
342.16	223.62
342.54	224.07
342.93	212.33
343.31	223.05
343.69	223.59
344.07	224.04
344.46	224.43
344.84	224.78
345.22	225.00
345.60	225.23
345.99	225.43
346.37	225.53
346.75	225.61
347.13	225.64
347.52	225.71
347.90	225.81
348.28	225.84
348.66	225.88
349.05	225.88
349.43	225.88
349.81	225.94
350.19	225.92
350.57	225.94
350.96	226.01
351.34	226.09
351.72	226.13
352.10	226.25
352.48	226.30
352.87	226.36
353.25	226.42
353.63	226.51
354.01	226.54
354.39	226.61
354.77	226.67
355.15	226.80
355.54	226.85
355.92	226.87
356.30	226.94
356.68	227.09
357.06	227.17
357.44	227.23
357.82	227.27
358.20	227.34
358.58	227.42
358.97	227.46
359.35	227.54
359.73	227.61
360.11	227.61
360.49	227.67
360.87	227.72
361.25	227.77
361.63	227.83
362.01	227.89
362.39	227.93
362.77	227.97
363.15	227.99
363.53	228.02
363.91	228.04
364.29	228.04
364.67	227.97
365.05	227.98
365.43	228.02
365.81	228.03
366.19	228.08
366.57	228.11
366.95	228.12
367.33	228.09
367.71	228.11
368.09	228.15
368.47	228.14
368.85	228.12
369.23	228.11
369.61	228.04
369.99	228.04
370.37	228.03
370.75	228.05
371.13	228.02
371.51	227.98
371.89	227.96
372.27	227.94
372.65	227.92
373.03	227.86
373.41	227.80
373.78	227.79
374.16	227.70
374.54	227.65
374.92	227.57
375.30	227.51
375.68	227.42
376.06	227.37
376.44	227.30
376.82	227.30
377.19	227.25
377.57	227.21
377.95	227.14
378.33	227.05
378.71	226.96
379.09	226.89
379.47	226.85
379.84	226.77
380.22	226.68
380.60	226.58
380.98	226.53
381.36	226.47
381.73	226.38
382.11	226.33
382.49	226.26
382.87	226.21
383.25	226.17
383.62	226.24
384.00	226.14
384.38	226.09
384.76	225.99
385.13	225.98
385.51	225.92
385.89	225.85
386.27	225.81
386.64	225.75
387.02	225.71
387.40	225.67
387.78	225.64
388.15	225.65
388.53	225.65
388.91	225.61
389.29	225.59
389.66	225.58
390.04	225.56
390.42	225.56
390.79	225.54
391.17	225.51
391.55	225.37
391.92	225.40
392.30	225.39
392.68	225.40
393.05	225.40
393.43	225.41
393.81	225.42
394.18	225.45
394.56	225.49
394.94	225.48
395.31	225.52
395.69	225.56
396.06	225.60
396.44	225.64
396.82	225.71
397.19	225.79
397.57	225.81
397.95	225.86
398.32	225.89
398.70	225.97
399.07	226.05
399.45	226.12
399.82	226.14
400.20	226.19
400.58	226.24
400.95	226.28
401.33	226.38
401.70	226.52
402.08	226.60
402.45	226.65
402.83	226.76
403.20	226.85
403.58	226.95
403.95	227.04
404.33	227.12
404.71	227.22
405.08	227.40
405.46	227.55
405.83	227.69
406.21	227.84
406.58	227.99
406.96	228.13
407.33	228.27
407.70	228.49
408.08	228.77
408.45	228.97
408.83	229.20
409.20	229.40
409.58	229.56
409.95	229.81
410.33	230.09
410.70	230.36
411.08	230.63
411.45	230.94
411.82	231.20
412.20	231.57
412.57	232.03
412.95	232.30
413.32	232.69
413.69	233.08
414.07	233.49
414.44	233.94
414.82	234.41
415.19	235.01
415.56	235.55
415.94	236.07
416.31	236.74
416.68	237.32
417.06	238.04
417.43	238.71
417.81	239.48
418.18	240.27
418.55	241.08
418.93	241.97
419.30	242.83
419.67	243.81
420.04	244.76
420.42	245.70
420.79	246.89
421.16	248.04
421.54	249.22
421.91	250.43
422.28	251.66
422.66	252.98
423.03	254.29
423.40	255.63
423.77	256.99
424.15	258.42
424.52	259.93
424.89	261.53
425.26	263.10
425.64	264.53
426.01	266.10
426.38	267.74
426.75	269.43
427.13	271.14
427.50	272.93
427.87	274.80
428.24	276.63
428.61	278.37
428.99	280.30
429.36	282.39
429.73	284.41
430.10	286.44
430.47	288.49
430.85	290.57
431.22	292.80
431.59	295.18
431.96	297.38
432.33	299.83
432.70	302.17
433.08	304.94
433.45	307.58
433.82	310.15
434.19	313.02
434.56	315.76
434.93	318.39
435.30	320.97
435.68	323.84
436.05	326.70
436.42	329.46
436.79	331.92
437.16	334.62
437.53	337.47
437.90	340.27
438.27	343.02
438.64	345.79
439.01	348.37
439.38	350.60
439.75	352.78
440.13	355.24
440.50	357.57
440.87	359.41
441.24	361.31
441.61	363.46
441.98	364.95
442.35	366.74
442.72	368.59
443.09	370.45
443.46	371.41
443.83	372.01
444.20	372.51
444.57	373.37
444.94	373.59
445.31	373.90
445.68	374.23
446.05	374.30
446.42	373.91
446.79	373.51
447.16	373.07
447.53	372.74
447.90	371.62
448.27	370.45
448.64	368.87
449.01	367.72
449.37	365.78
449.74	363.92
450.11	361.68
450.48	359.27
450.85	356.70
451.22	354.59
451.59	352.54
451.96	350.62
452.33	348.06
452.70	345.79
453.07	343.03
453.43	340.17
453.80	337.41
454.17	334.80
454.54	332.25
454.91	329.58
455.28	326.91
455.65	324.50
456.02	322.07
456.38	319.97
456.75	317.37
457.12	315.09
457.49	312.86
457.86	310.72
458.23	308.85
458.59	306.82
458.96	304.78
459.33	302.92
459.70	301.05
460.07	299.56
460.43	297.84
460.80	296.21
461.17	294.76
461.54	293.30
461.91	291.83
462.27	290.39
462.64	289.14
463.01	287.80
463.38	286.45
463.74	285.14
464.11	283.95
464.48	282.94
464.85	281.88
465.21	281.06
465.58	280.15
465.95	279.07
466.32	278.16
466.68	277.24
467.05	276.35
467.42	275.47
467.78	274.52
468.15	273.67
468.52	273.01
468.88	272.19
469.25	271.43
469.62	270.83
469.98	270.14
470.35	269.54
470.72	268.94
471.08	268.33
471.45	267.77
471.82	267.27
472.18	266.66
472.55	266.25
472.92	265.72
473.28	265.26
473.65	264.82
474.02	264.40
474.38	264.07
474.75	263.76
475.11	263.44
475.48	263.20
475.85	262.96
476.21	262.73
476.58	262.55
476.94	262.40
477.31	262.26
477.67	262.15
478.04	262.01
478.41	262.00
478.77	262.01
479.14	261.96
479.50	261.98
479.87	262.07
480.23	262.11
480.60	262.17
480.96	262.27
481.33	262.51
481.69	262.72
482.06	262.92
482.42	263.09
482.79	263.34
483.15	263.63
483.52	263.98
483.88	264.30
484.25	264.68
484.61	265.10
484.98	265.52
485.34	266.08
485.71	266.66
486.07	267.23
486.44	267.80
486.80	268.46
487.17	269.17
487.53	269.97
487.90	270.83
488.26	271.79
488.62	272.77
488.99	273.72
489.35	274.71
489.72	275.82
490.08	277.07
490.44	278.33
490.81	279.67
491.17	281.04
491.54	282.54
491.90	284.10
492.26	285.74
492.63	287.51
492.99	289.26
493.36	291.16
493.72	293.23
494.08	295.33
494.45	297.60
494.81	299.96
495.17	302.36
495.54	304.93
495.90	307.61
496.26	310.44
496.63	313.39
496.99	316.57
497.35	319.82
497.72	323.24
498.08	326.75
498.44	330.43
498.80	334.39
499.17	338.46
499.53	342.64
499.89	347.03
500.26	351.58
500.62	356.29
500.98	361.27
501.34	366.31
501.71	371.66
502.07	377.13
502.43	382.74
502.79	388.58
503.16	394.67
503.52	400.96
503.88	407.34
504.24	413.99
504.60	420.88
504.97	428.04
505.33	435.37
505.69	443.12
506.05	450.93
506.41	458.76
506.78	466.94
507.14	475.42
507.50	484.17
507.86	493.16
508.22	502.38
508.59	511.60
508.95	521.22
509.31	531.05
509.67	541.16
510.03	551.48
510.39	562.08
510.75	572.86
511.12	583.79
511.48	595.07
511.84	606.57
512.20	618.07
512.56	629.93
512.92	642.13
513.28	654.46
513.64	666.89
514.00	679.65
514.37	692.61
514.73	705.67
515.09	718.71
515.45	731.96
515.81	745.56
516.17	759.48
516.53	773.61
516.89	787.81
517.25	801.97
517.61	816.33
517.97	830.72
518.33	845.10
518.69	859.88
519.05	874.88
519.41	890.02
519.77	905.48
520.13	920.93
520.49	936.30
520.85	951.56
521.21	967.31
521.57	983.43
521.93	999.08
522.29	1015.38
522.65	1031.50
523.01	1047.59
523.37	1063.56
523.73	1079.71
524.09	1095.73
524.45	1111.80
524.81	1128.33
525.17	1145.09
525.53	1161.90
525.89	1178.84
526.25	1195.57
526.61	1211.84
526.97	1228.47
527.33	1244.86
527.68	1261.36
528.04	1277.74
528.40	1294.22
528.76	1311.15
529.12	1327.65
529.48	1344.47
529.84	1360.29
530.20	1376.86
530.56	1393.77
530.91	1411.00
531.27	1427.67
531.63	1444.03
531.99	1460.68
532.35	1476.56
532.71	1492.40
533.07	1508.54
533.42	1524.30
533.78	1540.21
534.14	1556.39
534.50	1571.61
534.86	1587.37
535.21	1602.51
535.57	1618.20
535.93	1633.52
536.29	1648.02
536.65	1663.03
537.00	1677.54
537.36	1692.77
537.72	1706.97
538.08	1721.22
538.44	1734.89
538.79	1748.56
539.15	1761.93
539.51	1775.45
539.87	1789.64
540.22	1802.99
540.58	1816.47
540.94	1829.28
541.29	1841.87
541.65	1854.34
542.01	1867.23
542.37	1879.25
542.72	1891.40
543.08	1903.09
543.44	1915.36
543.79	1926.59
544.15	1937.43
544.51	1948.94
544.87	1959.75
545.22	1970.56
545.58	1980.66
545.94	1990.44
546.29	2000.22
546.65	2010.16
547.01	2019.35
547.36	2027.86
547.72	2036.53
548.07	2044.60
548.43	2052.94
548.79	2060.93
549.14	2068.59
549.50	2076.03
549.86	2083.79
550.21	2091.24
550.57	2098.41
550.92	2105.12
551.28	2112.25
551.64	2119.28
551.99	2125.86
552.35	2132.16
552.70	2138.43
553.06	2144.56
553.41	2150.93
553.77	2156.91
554.13	2162.97
554.48	2169.04
554.84	2174.81
555.19	2179.82
555.55	2184.94
555.90	2189.68
556.26	2194.80
556.61	2199.40
556.97	2203.83
557.32	2208.11
557.68	2212.17
558.03	2216.42
558.39	2219.92
558.74	2224.54
559.10	2228.44
559.45	2232.08
559.81	2236.35
560.16	2240.15
560.52	2243.33
560.87	2246.64
561.23	2249.36
561.58	2252.25
561.94	2254.80
562.29	2256.98
562.64	2259.89
563.00	2262.30
563.35	2265.62
563.71	2268.62
564.06	2271.86
564.42	2274.67
564.77	2277.17
565.12	2279.54
565.48	2281.58
565.83	2283.70
566.19	2285.15
566.54	2286.00
566.89	2287.19
567.25	2287.77
567.60	2288.99
567.96	2290.73
568.31	2291.50
568.66	2292.74
569.02	2293.43
569.37	2293.75
569.72	2294.70
570.08	2295.01
570.43	2295.13
570.78	2294.60
571.14	2293.14
571.49	2291.89
571.84	2291.54
572.20	2290.51
572.55	2289.56
572.90	2287.90
573.26	2286.47
573.61	2284.63
573.96	2283.16
574.31	2280.35
574.67	2277.52
575.02	2273.92
575.37	2270.48
575.72	2266.80
576.08	2263.25
576.43	2259.87
576.78	2256.40
577.13	2253.28
577.49	2250.01
577.84	2246.70
578.19	2242.90
578.54	2239.43
578.90	2235.36
579.25	2229.84
579.60	2224.96
579.95	2219.90
580.30	2215.01
580.66	2210.03
581.01	2205.01
581.36	2199.90
581.71	2195.67
582.06	2191.25
582.42	2186.98
582.77	2181.89
583.12	2177.51
583.47	2173.24
583.82	2168.44
584.17	2163.32
584.53	2157.91
584.88	2152.35
585.23	2146.67
585.58	2141.37
585.93	2135.84
586.28	2130.80
586.63	2125.88
586.98	2120.85
587.34	2116.06
587.69	2111.11
588.04	2105.88
588.39	2100.42
588.74	2094.11
589.09	2087.96
589.44	2081.21
589.79	2075.06
590.14	2069.54
590.49	2062.98
590.84	2056.49
591.19	2050.38
591.54	2043.87
591.89	2036.67
592.25	2030.10
592.60	2022.86
592.95	2015.38
593.30	2008.07
593.65	2000.62
594.00	1993.67
594.35	1986.42
594.70	1978.44
595.05	1971.41
595.40	1964.14
595.75	1956.74
596.10	1950.72
596.45	1944.24
596.80	1938.25
597.15	1931.87
597.50	1924.97
597.85	1918.49
598.19	1911.93
598.54	1905.07
598.89	1898.57
599.24	1892.54
599.59	1885.98
599.94	1879.92
600.29	1873.70
600.64	1867.24
600.99	1859.95
601.34	1853.18
601.69	1846.31
602.04	1839.68
602.39	1832.42
602.74	1825.79
603.08	1819.02
603.43	1812.18
603.78	1804.92
604.13	1797.59
604.48	1790.38
604.83	1783.46
605.18	1776.66
605.53	1768.70
605.87	1760.56
606.22	1753.23
606.57	1745.26
606.92	1737.64
607.27	1730.40
607.62	1723.40
607.96	1716.07
608.31	1709.64
608.66	1702.09
609.01	1694.50
609.36	1686.86
609.70	1678.90
610.05	1670.79
610.40	1663.00
610.75	1654.66
611.10	1646.77
611.44	1638.26
611.79	1630.16
612.14	1621.48
612.49	1612.23
612.83	1603.83
613.18	1595.74
613.53	1587.63
613.88	1579.18
614.22	1570.99
614.57	1562.34
614.92	1554.40
615.27	1547.02
615.61	1538.70
615.96	1530.61
616.31	1522.92
616.65	1515.54
617.00	1507.91
617.35	1500.25
617.70	1492.08
618.04	1483.74
618.39	1475.60
618.74	1468.14
619.08	1459.91
619.43	1452.27
619.78	1445.38
620.12	1438.23
620.47	1430.67
620.82	1422.47
621.16	1414.99
621.51	1407.36
621.85	1399.83
622.20	1391.27
622.55	1382.84
622.89	1374.86
623.24	1367.14
623.59	1359.82
623.93	1352.38
624.28	1345.10
624.62	1337.58
624.97	1330.44
625.32	1323.54
625.66	1316.41
626.01	1309.23
626.35	1301.78
626.70	1294.06
627.04	1286.38
627.39	1278.64
627.73	1271.37
628.08	1264.57
628.43	1257.45
628.77	1250.21
629.12	1242.63
629.46	1235.46
629.81	1227.99
630.15	1220.74
630.50	1213.43
630.84	1205.20
631.19	1197.20
631.53	1189.67
631.88	1182.10
632.22	1174.49
632.57	1167.28
632.91	1159.92
633.26	1152.56
633.60	1145.20
633.95	1138.02
634.29	1131.01
634.64	1124.29
634.98	1116.88
635.32	1109.72
635.67	1102.97
636.01	1096.24
636.36	1089.46
636.70	1082.88
637.05	1076.32
637.39	1069.88
637.73	1063.36
638.08	1057.43
638.42	1051.50
638.77	1045.18
639.11	1038.62
639.45	1032.17
639.80	1025.38
640.14	1018.95
640.49	1012.45
640.83	1006.18
641.17	1000.14
641.52	993.78
641.86	987.24
642.20	981.45
642.55	975.06
642.89	968.69
643.23	962.14
643.58	956.38
643.92	950.26
644.26	944.33
644.61	938.34
644.95	932.27
645.29	925.88
645.64	919.11
645.98	912.74
646.32	906.79
646.66	900.78
647.01	895.03
647.35	889.34
647.69	883.40
648.04	877.77
648.38	871.90
648.72	866.00
649.06	859.99
649.41	854.03
649.75	848.11
650.09	842.14
650.43	836.37
650.78	830.27
651.12	824.35
651.46	818.60
651.80	812.85
652.14	807.57
652.49	802.15
652.83	797.01
653.17	791.38
653.51	785.79
653.85	780.40
654.20	774.79
654.54	768.79
654.88	763.01
655.22	757.13
655.56	751.40
655.90	745.76
656.25	740.56
656.59	735.18
656.93	730.11
657.27	724.97
657.61	719.54
657.95	714.44
658.29	709.32
658.64	703.98
658.98	698.60
659.32	693.06
659.66	687.82
660.00	682.60
660.34	677.66
660.68	672.71
661.02	667.67
661.36	662.99
661.70	658.48
662.05	654.17
662.39	649.88
662.73	645.42
663.07	641.10
663.41	636.73
663.75	632.23
664.09	627.61
664.43	623.20
664.77	619.09
665.11	614.82
665.45	610.64
665.79	606.52
666.13	602.43
666.47	598.33
666.81	594.24
667.15	590.02
667.49	586.04
667.83	582.11
668.17	578.17
668.51	574.05
668.85	569.98
669.19	566.12
669.53	562.31
669.87	558.46
670.21	554.81
670.55	551.11
670.89	547.73
671.23	544.37
671.57	540.85
671.91	537.38
672.25	533.86
672.58	530.37
672.92	527.02
673.26	523.88
673.60	520.70
673.94	517.57
674.28	514.65
674.62	511.70
674.96	508.67
675.30	505.79
675.64	502.91
675.97	500.12
676.31	497.24
676.65	494.31
676.99	491.58
677.33	488.65
677.67	485.83
678.01	482.82
678.34	479.86
678.68	476.98
679.02	474.14
679.36	471.37
679.70	468.63
680.04	465.88
680.37	462.96
680.71	460.17
681.05	457.51
681.39	454.79
681.73	452.14
682.06	449.55
682.40	447.01
682.74	444.45
683.08	441.85
683.42	439.27
683.75	436.79
684.09	434.19
684.43	431.74
684.77	429.29
685.10	426.90
685.44	424.56
685.78	422.28
686.12	419.98
686.45	417.72
686.79	415.48
687.13	413.30
687.46	411.18
687.80	409.06
688.14	406.80
688.48	404.79
688.81	402.58
689.15	400.43
689.49	398.27
689.82	396.15
690.16	394.05
690.50	392.11
690.83	390.17
691.17	388.19
691.51	386.28
691.84	384.40
692.18	382.51
692.52	380.50
692.85	378.55
693.19	376.72
693.52	374.84
693.86	373.01
694.20	371.21
694.53	369.46
694.87	367.57
695.21	365.79
695.54	363.89
695.88	362.12
696.21	360.42
696.55	358.72
696.88	357.07
697.22	355.39
697.56	353.73
697.89	352.04
698.23	350.47
698.56	348.86
698.90	347.30
699.23	345.64
699.57	344.11
699.90	342.54
700.24	341.01
700.58	339.53
700.91	338.01
701.25	336.55
701.58	335.16
701.92	333.81
702.25	332.44
702.59	331.08
702.92	329.77
703.26	328.45
703.59	327.22
703.93	325.99
704.26	324.80
704.60	323.52
704.93	322.26
705.26	320.96
705.60	319.79
705.93	318.60
706.27	317.55
706.60	316.49
706.94	315.43
707.27	314.23
707.61	313.16
707.94	312.09
708.27	311.00
708.61	309.87
708.94	308.81
709.28	307.83
709.61	306.89
709.94	305.94
710.28	304.94
710.61	303.87
710.95	302.77
711.28	301.87
711.61	300.86
711.95	299.94
712.28	298.99
712.61	298.00
712.95	297.04
713.28	296.14
713.61	295.20
713.95	294.31
714.28	293.45
714.61	292.58
714.95	291.75
715.28	290.87
715.61	290.05
715.95	289.24
716.28	288.36
716.61	287.51
716.95	286.67
717.28	285.93
717.61	285.19
717.94	284.48
718.28	283.65
718.61	282.96
718.94	282.28
719.27	281.63
719.61	280.95
719.94	280.31
720.27	279.59
720.60	278.93
720.94	278.28
721.27	277.73
721.60	277.11
721.93	276.49
722.27	275.91
722.60	275.31
722.93	274.68
723.26	274.19
723.59	273.64
723.93	273.09
724.26	272.56
724.59	272.02
724.92	271.48
725.25	270.98
725.59	270.47
725.92	269.95
726.25	269.46
726.58	269.01
726.91	268.51
727.24	268.05
727.57	267.59
727.91	267.10
728.24	266.60
728.57	266.15
728.90	265.72
729.23	265.27
729.56	264.87
729.89	264.42
730.22	263.91
730.55	263.45
730.89	263.03
731.22	262.58
731.55	262.13
731.88	261.73
732.21	261.33
732.54	260.90
732.87	260.47
733.20	260.09
733.53	259.72
733.86	259.37
734.19	259.00
734.52	258.65
734.85	258.36
735.18	257.98
735.51	257.64
735.84	257.28
736.17	256.94
736.50	256.53
736.83	256.33
737.16	256.01
737.49	255.70
737.82	255.35
738.15	254.99
738.48	254.69
738.81	254.37
739.14	254.01
739.47	253.69
739.80	253.38
740.13	253.07
740.46	252.73
740.79	252.37
741.12	252.05
741.45	251.74
741.78	251.37
742.11	251.07
742.44	250.73
742.77	250.43
743.10	250.11
743.43	249.78
743.75	249.38
744.08	249.23
744.41	248.95
744.74	248.67
745.07	248.36
745.40	248.10
745.73	247.87
746.06	247.62
746.39	247.35
746.71	247.09
747.04	246.79
747.37	246.51
747.70	246.27
748.03	246.02
748.36	245.78
748.68	245.55
749.01	245.30
749.34	245.09
749.67	244.87
750.00	244.63
750.33	244.47
750.65	244.23
750.98	243.93
751.31	243.71
751.64	243.49
751.97	243.34
752.29	243.11
752.62	242.81
752.95	242.58
753.28	242.37
753.60	242.16
753.93	241.99
754.26	241.81
754.59	241.54
754.91	241.33
755.24	241.11
755.57	240.87
755.90	240.69
756.22	240.44
756.55	240.19
756.88	240.02
757.20	239.81
757.53	239.62
757.86	239.44
758.19	239.28
758.51	239.12
758.84	238.92
759.17	238.76
759.49	238.60
759.82	238.46
760.15	238.32
760.47	238.13
760.80	237.93
761.13	237.78
761.45	237.65
761.78	237.51
762.11	237.33
762.43	237.24
762.76	237.07
763.08	236.99
763.41	236.85
763.74	236.67
764.06	236.51
764.39	236.34
764.71	236.16
765.04	236.02
765.37	235.86
765.69	235.69
766.02	235.55
766.34	235.41
766.67	235.27
767.00	235.15
767.32	235.13
767.65	235.08
767.97	234.97
768.30	234.88
768.62	234.75
768.95	234.64
769.27	234.50
769.60	234.44
769.92	234.31
770.25	234.22
770.57	234.14
770.90	234.07
771.22	233.98
771.55	233.89
771.87	233.80
772.20	233.72
772.52	233.77
772.85	233.79
773.17	233.72
773.50	233.62
773.82	233.54
774.15	233.39
774.47	233.25
774.80	233.17
775.12	233.08
775.45	233.04
775.77	232.99
776.09	232.90
776.42	232.83
776.74	232.78
777.07	232.73
777.39	232.65
777.72	232.57
778.04	232.56
778.36	232.50
778.69	232.43
779.01	232.39
779.33	232.23
779.66	232.07
779.98	232.00
780.31	231.95
780.63	231.93
780.95	231.88
781.28	231.84
781.60	231.76
781.92	231.70
782.25	231.61
782.57	231.53
782.89	231.52
783.22	231.42
783.54	231.36
783.86	231.28
784.19	231.24
784.51	231.20
784.83	231.13
785.16	231.05
785.48	231.01
785.80	230.95
786.12	230.91
786.45	230.84
786.77	230.77
787.09	230.72
