SpectraSuite Data File
++++++++++++++++++++++++++++++++++++
Date: Fri Feb 01 16:24:53 EST 2013
User: group
Dark Spectrum Present: No
Reference Spectrum Present: No
Number of Sampled Component Spectra: 1
Spectrometers: USB2E7196
Integration Time (usec): 35000 (USB2E7196)
Spectra Averaged: 100 (USB2E7196)
Boxcar Smoothing: 10 (USB2E7196)
Correct for Electrical Dark: No (USB2E7196)
Strobe/Lamp Enabled: No (USB2E7196)
Correct for Detector Non-linearity: No (USB2E7196)
Correct for Stray Light: No (USB2E7196)
Number of Pixels in Processed Spectrum: 2048
>>>>>Begin Processed Spectral Data<<<<<
339.09	0.00
339.48	214.49
339.86	215.80
340.24	217.15
340.63	218.74
341.01	221.76
341.39	220.84
341.78	222.63
342.16	224.28
342.54	224.02
342.93	212.79
343.31	223.51
343.69	224.05
344.07	224.52
344.46	224.92
344.84	225.29
345.22	225.52
345.60	225.79
345.99	225.98
346.37	226.10
346.75	226.23
347.13	226.28
347.52	226.37
347.90	226.43
348.28	226.41
348.66	226.45
349.05	226.41
349.43	226.45
349.81	226.50
350.19	226.54
350.57	226.56
350.96	226.61
351.34	226.70
351.72	226.76
352.10	226.85
352.48	226.93
352.87	226.96
353.25	227.01
353.63	227.08
354.01	227.14
354.39	227.17
354.77	227.24
355.15	227.36
355.54	227.41
355.92	227.45
356.30	227.55
356.68	227.66
357.06	227.74
357.44	227.76
357.82	227.81
358.20	227.90
358.58	227.96
358.97	228.03
359.35	228.14
359.73	228.21
360.11	228.28
360.49	228.33
360.87	228.42
361.25	228.46
361.63	228.50
362.01	228.55
362.39	228.60
362.77	228.60
363.15	228.61
363.53	228.62
363.91	228.64
364.29	228.69
364.67	228.61
365.05	228.65
365.43	228.68
365.81	228.70
366.19	228.71
366.57	228.77
366.95	228.73
367.33	228.69
367.71	228.68
368.09	228.67
368.47	228.63
368.85	228.60
369.23	228.61
369.61	228.58
369.99	228.58
370.37	228.55
370.75	228.58
371.13	228.53
371.51	228.53
371.89	228.49
372.27	228.40
372.65	228.38
373.03	228.33
373.41	228.26
373.78	228.21
374.16	228.12
374.54	228.01
374.92	227.95
375.30	227.90
375.68	227.83
376.06	227.74
376.44	227.70
376.82	227.62
377.19	227.54
377.57	227.43
377.95	227.33
378.33	227.26
378.71	227.13
379.09	227.06
379.47	227.01
379.84	226.92
380.22	226.84
380.60	226.75
380.98	226.69
381.36	226.59
381.73	226.55
382.11	226.49
382.49	226.47
382.87	226.41
383.25	226.32
383.62	226.37
384.00	226.32
384.38	226.26
384.76	226.24
385.13	226.21
385.51	226.20
385.89	226.14
386.27	226.09
386.64	226.07
387.02	225.99
387.40	225.96
387.78	225.94
388.15	225.94
388.53	225.91
388.91	225.85
389.29	225.83
389.66	225.78
390.04	225.74
390.42	225.71
390.79	225.71
391.17	225.72
391.55	225.61
391.92	225.60
392.30	225.62
392.68	225.62
393.05	225.63
393.43	225.60
393.81	225.62
394.18	225.63
394.56	225.65
394.94	225.72
395.31	225.71
395.69	225.77
396.06	225.79
396.44	225.82
396.82	225.84
397.19	225.96
397.57	225.97
397.95	226.03
398.32	226.06
398.70	226.14
399.07	226.18
399.45	226.21
399.82	226.25
400.20	226.29
400.58	226.37
400.95	226.37
401.33	226.47
401.70	226.60
402.08	226.69
402.45	226.78
402.83	226.86
403.20	226.97
403.58	227.07
403.95	227.19
404.33	227.33
404.71	227.47
405.08	227.60
405.46	227.79
405.83	227.97
406.21	228.13
406.58	228.25
406.96	228.42
407.33	228.61
407.70	228.84
408.08	229.11
408.45	229.30
408.83	229.55
409.20	229.78
409.58	229.98
409.95	230.25
410.33	230.51
410.70	230.80
411.08	231.11
411.45	231.42
411.82	231.75
412.20	232.07
412.57	232.51
412.95	232.84
413.32	233.25
413.69	233.62
414.07	234.04
414.44	234.53
414.82	235.02
415.19	235.60
415.56	236.12
415.94	236.69
416.31	237.33
416.68	237.98
417.06	238.72
417.43	239.42
417.81	240.16
418.18	240.97
418.55	241.81
418.93	242.67
419.30	243.57
419.67	244.51
420.04	245.46
420.42	246.42
420.79	247.58
421.16	248.74
421.54	249.94
421.91	251.15
422.28	252.38
422.66	253.71
423.03	255.03
423.40	256.35
423.77	257.73
424.15	259.14
424.52	260.60
424.89	262.20
425.26	263.76
425.64	265.20
426.01	266.77
426.38	268.41
426.75	270.06
427.13	271.78
427.50	273.57
427.87	275.45
428.24	277.30
428.61	279.03
428.99	280.95
429.36	283.06
429.73	285.13
430.10	287.16
430.47	289.24
430.85	291.31
431.22	293.58
431.59	295.94
431.96	298.18
432.33	300.65
432.70	302.99
433.08	305.77
433.45	308.43
433.82	311.04
434.19	313.91
434.56	316.75
434.93	319.37
435.30	321.98
435.68	324.84
436.05	327.71
436.42	330.50
436.79	332.97
437.16	335.61
437.53	338.40
437.90	341.17
438.27	343.85
438.64	346.67
439.01	349.19
439.38	351.41
439.75	353.58
440.13	356.07
440.50	358.41
440.87	360.20
441.24	362.10
441.61	364.24
441.98	365.70
442.35	367.41
442.72	369.25
443.09	371.00
443.46	371.98
443.83	372.51
444.20	373.02
444.57	373.85
444.94	374.16
445.31	374.51
445.68	374.86
446.05	374.94
446.42	374.56
446.79	374.16
447.16	373.69
447.53	373.32
447.90	372.11
448.27	370.93
448.64	369.37
449.01	368.24
449.37	366.28
449.74	364.40
450.11	362.18
450.48	359.75
450.85	357.21
451.22	355.06
451.59	353.05
451.96	351.08
452.33	348.48
452.70	346.15
453.07	343.36
453.43	340.48
453.80	337.71
454.17	334.99
454.54	332.45
454.91	329.77
455.28	327.13
455.65	324.68
456.02	322.24
456.38	320.06
456.75	317.39
457.12	315.12
457.49	312.91
457.86	310.76
458.23	308.93
458.59	306.87
458.96	304.81
459.33	302.99
459.70	301.15
460.07	299.70
460.43	297.97
460.80	296.36
461.17	294.92
461.54	293.46
461.91	292.06
462.27	290.63
462.64	289.36
463.01	288.03
463.38	286.72
463.74	285.35
464.11	284.23
464.48	283.24
464.85	282.17
465.21	281.29
465.58	280.38
465.95	279.27
466.32	278.44
466.68	277.54
467.05	276.64
467.42	275.77
467.78	274.83
468.15	273.96
468.52	273.29
468.88	272.47
469.25	271.73
469.62	271.11
469.98	270.47
470.35	269.86
470.72	269.27
471.08	268.65
471.45	268.16
471.82	267.65
472.18	267.06
472.55	266.65
472.92	266.12
473.28	265.65
473.65	265.23
474.02	264.77
474.38	264.44
474.75	264.13
475.11	263.75
475.48	263.52
475.85	263.33
476.21	263.10
476.58	262.88
476.94	262.74
477.31	262.61
477.67	262.49
478.04	262.40
478.41	262.36
478.77	262.41
479.14	262.32
479.50	262.33
479.87	262.42
480.23	262.48
480.60	262.59
480.96	262.68
481.33	262.90
481.69	263.10
482.06	263.29
482.42	263.49
482.79	263.82
483.15	264.15
483.52	264.50
483.88	264.84
484.25	265.26
484.61	265.72
484.98	266.18
485.34	266.70
485.71	267.30
486.07	267.91
486.44	268.49
486.80	269.23
487.17	269.98
487.53	270.78
487.90	271.59
488.26	272.52
488.62	273.54
488.99	274.50
489.35	275.53
489.72	276.67
490.08	277.87
490.44	279.08
490.81	280.38
491.17	281.76
491.54	283.24
491.90	284.80
492.26	286.40
492.63	288.13
492.99	289.92
493.36	291.82
493.72	293.88
494.08	295.96
494.45	298.17
494.81	300.52
495.17	302.94
495.54	305.52
495.90	308.20
496.26	310.97
496.63	313.89
496.99	317.01
497.35	320.24
497.72	323.64
498.08	327.16
498.44	330.84
498.80	334.72
499.17	338.74
499.53	342.92
499.89	347.28
500.26	351.77
500.62	356.49
500.98	361.45
501.34	366.54
501.71	371.91
502.07	377.39
502.43	383.00
502.79	388.79
503.16	394.90
503.52	401.21
503.88	407.67
504.24	414.38
504.60	421.27
504.97	428.47
505.33	435.78
505.69	443.50
506.05	451.29
506.41	459.26
506.78	467.48
507.14	475.94
507.50	484.72
507.86	493.77
508.22	502.93
508.59	512.13
508.95	521.65
509.31	531.44
509.67	541.59
510.03	551.85
510.39	562.44
510.75	573.21
511.12	584.16
511.48	595.49
511.84	606.94
512.20	618.48
512.56	630.37
512.92	642.62
513.28	655.01
513.64	667.44
514.00	680.08
514.37	693.10
514.73	706.19
515.09	719.21
515.45	732.45
515.81	745.98
516.17	759.96
516.53	774.15
516.89	788.39
517.25	802.48
517.61	816.94
517.97	831.40
518.33	845.76
518.69	860.52
519.05	875.41
519.41	890.53
519.77	906.08
520.13	921.57
520.49	936.86
520.85	952.21
521.21	967.93
521.57	984.10
521.93	999.67
522.29	1015.94
522.65	1032.13
523.01	1048.31
523.37	1064.33
523.73	1080.44
524.09	1096.50
524.45	1112.70
524.81	1129.32
525.17	1145.93
525.53	1162.75
525.89	1179.62
526.25	1196.43
526.61	1212.75
526.97	1229.46
527.33	1245.76
527.68	1262.22
528.04	1278.66
528.40	1295.19
528.76	1312.11
529.12	1328.60
529.48	1345.39
529.84	1361.43
530.20	1377.99
530.56	1394.92
530.91	1412.23
531.27	1428.87
531.63	1445.16
531.99	1461.65
532.35	1477.44
532.71	1493.33
533.07	1509.50
533.42	1525.25
533.78	1541.08
534.14	1557.41
534.50	1572.58
534.86	1588.45
535.21	1603.51
535.57	1619.37
535.93	1634.74
536.29	1649.56
536.65	1664.62
537.00	1679.34
537.36	1694.44
537.72	1708.96
538.08	1723.37
538.44	1737.12
538.79	1750.95
539.15	1764.54
539.51	1778.16
539.87	1792.51
540.22	1806.27
540.58	1819.90
540.94	1833.25
541.29	1846.03
541.65	1858.41
542.01	1871.62
542.37	1883.80
542.72	1896.21
543.08	1907.94
543.44	1920.23
543.79	1931.35
544.15	1942.35
544.51	1954.01
544.87	1964.95
545.22	1975.63
545.58	1985.70
545.94	1995.41
546.29	2005.16
546.65	2014.91
547.01	2024.19
547.36	2032.88
547.72	2041.27
548.07	2048.99
548.43	2057.15
548.79	2065.24
549.14	2072.79
549.50	2079.96
549.86	2087.67
550.21	2094.90
550.57	2101.95
550.92	2108.47
551.28	2115.37
551.64	2122.28
551.99	2128.57
552.35	2134.59
552.70	2140.75
553.06	2146.74
553.41	2153.19
553.77	2159.20
554.13	2165.24
554.48	2171.32
554.84	2176.81
555.19	2181.95
555.55	2187.24
555.90	2191.65
556.26	2196.47
556.61	2201.18
556.97	2205.60
557.32	2209.62
557.68	2213.71
558.03	2217.90
558.39	2221.66
558.74	2226.45
559.10	2230.22
559.45	2233.95
559.81	2238.25
560.16	2242.04
560.52	2245.24
560.87	2248.47
561.23	2251.23
561.58	2254.38
561.94	2256.87
562.29	2259.05
562.64	2261.82
563.00	2264.37
563.35	2267.82
563.71	2270.96
564.06	2274.27
564.42	2277.09
564.77	2279.70
565.12	2282.06
565.48	2284.17
565.83	2286.09
566.19	2287.44
566.54	2288.52
566.89	2289.63
567.25	2290.33
567.60	2291.79
567.96	2293.51
568.31	2294.46
568.66	2295.62
569.02	2296.11
569.37	2296.57
569.72	2297.55
570.08	2297.81
570.43	2297.99
570.78	2297.46
571.14	2295.99
571.49	2294.57
571.84	2294.38
572.20	2293.38
572.55	2292.30
572.90	2290.72
573.26	2289.42
573.61	2287.71
573.96	2285.88
574.31	2283.00
574.67	2280.12
575.02	2276.45
575.37	2273.17
575.72	2269.42
576.08	2266.06
576.43	2262.86
576.78	2259.02
577.13	2255.90
577.49	2252.77
577.84	2249.29
578.19	2245.63
578.54	2242.15
578.90	2237.98
579.25	2232.46
579.60	2227.41
579.95	2222.62
580.30	2217.66
580.66	2212.47
581.01	2207.60
581.36	2202.89
581.71	2198.81
582.06	2194.32
582.42	2189.80
582.77	2184.65
583.12	2180.20
583.47	2175.54
583.82	2170.36
584.17	2165.23
584.53	2159.89
584.88	2154.25
585.23	2148.61
585.58	2143.23
585.93	2137.63
586.28	2132.99
586.63	2127.91
586.98	2123.07
587.34	2118.37
587.69	2113.49
588.04	2108.21
588.39	2102.51
588.74	2095.92
589.09	2089.81
589.44	2083.11
589.79	2077.16
590.14	2071.49
590.49	2064.90
590.84	2058.60
591.19	2052.78
591.54	2046.42
591.89	2038.96
592.25	2032.25
592.60	2024.93
592.95	2017.42
593.30	2010.23
593.65	2002.80
594.00	1995.86
594.35	1988.54
594.70	1980.54
595.05	1973.30
595.40	1966.21
595.75	1958.91
596.10	1952.91
596.45	1946.34
596.80	1940.20
597.15	1933.69
597.50	1926.69
597.85	1920.18
598.19	1913.57
598.54	1906.46
598.89	1899.89
599.24	1894.06
599.59	1887.42
599.94	1881.30
600.29	1874.90
600.64	1868.33
600.99	1860.85
601.34	1854.02
601.69	1847.08
602.04	1840.25
602.39	1832.99
602.74	1826.06
603.08	1819.31
603.43	1812.59
603.78	1805.23
604.13	1798.08
604.48	1790.76
604.83	1783.88
605.18	1776.99
605.53	1769.09
605.87	1761.16
606.22	1754.04
606.57	1746.18
606.92	1738.91
607.27	1731.84
607.62	1724.97
607.96	1717.78
608.31	1711.03
608.66	1703.45
609.01	1695.98
609.36	1688.46
609.70	1680.43
610.05	1672.53
610.40	1664.75
610.75	1656.39
611.10	1648.57
611.44	1640.09
611.79	1632.11
612.14	1623.57
612.49	1614.40
612.83	1605.93
613.18	1597.81
613.53	1589.74
613.88	1581.18
614.22	1572.93
614.57	1564.32
614.92	1556.24
615.27	1548.64
615.61	1540.41
615.96	1532.35
616.31	1524.68
616.65	1517.29
617.00	1509.84
617.35	1502.09
617.70	1493.84
618.04	1485.29
618.39	1477.24
618.74	1469.68
619.08	1461.37
619.43	1453.61
619.78	1446.71
620.12	1439.52
620.47	1431.91
620.82	1423.61
621.16	1416.21
621.51	1408.63
621.85	1401.01
622.20	1392.52
622.55	1384.14
622.89	1376.23
623.24	1368.62
623.59	1361.18
623.93	1353.64
624.28	1346.33
624.62	1338.83
624.97	1331.63
625.32	1324.90
625.66	1317.85
626.01	1310.73
626.35	1303.30
626.70	1295.56
627.04	1287.82
627.39	1280.08
627.73	1272.75
628.08	1265.75
628.43	1258.41
628.77	1250.86
629.12	1243.21
629.46	1236.09
629.81	1228.67
630.15	1221.55
630.50	1214.08
630.84	1205.75
631.19	1197.77
631.53	1190.21
631.88	1182.63
632.22	1175.08
632.57	1167.74
632.91	1160.07
633.26	1152.51
633.60	1145.06
633.95	1138.06
634.29	1131.03
634.64	1124.31
634.98	1116.98
635.32	1109.83
635.67	1103.28
636.01	1096.72
636.36	1089.88
636.70	1083.30
637.05	1076.75
637.39	1070.21
637.73	1063.74
638.08	1058.01
638.42	1052.00
638.77	1045.61
639.11	1039.08
639.45	1032.54
639.80	1025.92
640.14	1019.60
640.49	1013.14
640.83	1006.86
641.17	1000.54
641.52	994.19
641.86	987.74
642.20	981.81
642.55	975.62
642.89	969.08
643.23	962.55
643.58	956.86
643.92	950.73
644.26	944.52
644.61	938.52
644.95	932.46
645.29	925.84
645.64	919.10
645.98	912.73
646.32	906.83
646.66	900.84
647.01	895.06
647.35	889.33
647.69	883.46
648.04	877.90
648.38	872.15
648.72	866.15
649.06	860.11
649.41	854.23
649.75	848.21
650.09	842.29
650.43	836.52
650.78	830.33
651.12	824.36
651.46	818.65
651.80	812.89
652.14	807.50
652.49	802.10
652.83	797.01
653.17	791.36
653.51	785.60
653.85	780.23
654.20	774.54
654.54	768.55
654.88	762.87
655.22	756.97
655.56	751.30
655.90	745.90
656.25	740.60
656.59	735.25
656.93	730.12
657.27	724.98
657.61	719.54
657.95	714.48
658.29	709.39
658.64	704.26
658.98	698.93
659.32	693.56
659.66	688.33
660.00	682.98
660.34	678.07
660.68	673.15
661.02	668.14
661.36	663.45
661.70	658.90
662.05	654.53
662.39	650.21
662.73	645.72
663.07	641.29
663.41	636.89
663.75	632.45
664.09	627.90
664.43	623.41
664.77	619.23
665.11	614.92
665.45	610.79
665.79	606.63
666.13	602.55
666.47	598.39
666.81	594.28
667.15	590.14
667.49	586.17
667.83	582.39
668.17	578.37
668.51	574.21
668.85	570.16
669.19	566.30
669.53	562.45
669.87	558.61
670.21	554.89
670.55	551.22
670.89	547.77
671.23	544.43
671.57	540.96
671.91	537.41
672.25	533.94
672.58	530.38
672.92	526.96
673.26	523.75
673.60	520.63
673.94	517.48
674.28	514.54
674.62	511.56
674.96	508.45
675.30	505.53
675.64	502.63
675.97	499.85
676.31	496.94
676.65	494.01
676.99	491.25
677.33	488.38
677.67	485.52
678.01	482.45
678.34	479.40
678.68	476.50
679.02	473.72
679.36	470.93
679.70	468.27
680.04	465.50
680.37	462.57
680.71	459.71
681.05	457.09
681.39	454.35
681.73	451.70
682.06	449.19
682.40	446.68
682.74	444.17
683.08	441.61
683.42	439.00
683.75	436.49
684.09	433.90
684.43	431.45
684.77	429.07
685.10	426.71
685.44	424.40
685.78	422.10
686.12	419.80
686.45	417.48
686.79	415.09
687.13	412.94
687.46	410.82
687.80	408.70
688.14	406.48
688.48	404.42
688.81	402.17
689.15	400.02
689.49	397.88
689.82	395.80
690.16	393.77
690.50	391.88
690.83	389.95
691.17	388.03
691.51	386.13
691.84	384.24
692.18	382.35
692.52	380.41
692.85	378.51
693.19	376.69
693.52	374.87
693.86	373.11
694.20	371.31
694.53	369.54
694.87	367.72
695.21	365.94
695.54	364.12
695.88	362.44
696.21	360.69
696.55	358.99
696.88	357.27
697.22	355.59
697.56	353.88
697.89	352.23
698.23	350.64
698.56	349.00
698.90	347.41
699.23	345.73
699.57	344.19
699.90	342.67
700.24	341.13
700.58	339.64
700.91	338.14
701.25	336.70
701.58	335.32
701.92	333.94
702.25	332.56
702.59	331.23
702.92	329.87
703.26	328.58
703.59	327.29
703.93	326.15
704.26	324.92
704.60	323.67
704.93	322.37
705.26	321.11
705.60	319.97
705.93	318.80
706.27	317.78
706.60	316.66
706.94	315.55
707.27	314.40
707.61	313.34
707.94	312.31
708.27	311.22
708.61	310.12
708.94	309.09
709.28	308.13
709.61	307.16
709.94	306.20
710.28	305.15
710.61	304.17
710.95	303.10
711.28	302.16
711.61	301.21
711.95	300.33
712.28	299.39
712.61	298.40
712.95	297.50
713.28	296.61
713.61	295.72
713.95	294.84
714.28	294.01
714.61	293.11
714.95	292.25
715.28	291.39
715.61	290.54
715.95	289.65
716.28	288.78
716.61	287.96
716.95	287.16
717.28	286.45
717.61	285.72
717.94	284.95
718.28	284.15
718.61	283.40
718.94	282.69
719.27	282.01
719.61	281.34
719.94	280.63
720.27	279.85
720.60	279.20
720.94	278.57
721.27	278.01
721.60	277.44
721.93	276.85
722.27	276.25
722.60	275.70
722.93	275.17
723.26	274.62
723.59	274.04
723.93	273.51
724.26	272.93
724.59	272.31
724.92	271.81
725.25	271.32
725.59	270.81
725.92	270.30
726.25	269.77
726.58	269.25
726.91	268.79
727.24	268.36
727.57	267.88
727.91	267.32
728.24	266.78
728.57	266.28
728.90	265.82
729.23	265.36
729.56	264.95
729.89	264.45
730.22	263.95
730.55	263.52
730.89	263.03
731.22	262.59
731.55	262.15
731.88	261.69
732.21	261.27
732.54	260.81
732.87	260.41
733.20	260.03
733.53	259.68
733.86	259.32
734.19	258.92
734.52	258.54
734.85	258.25
735.18	257.86
735.51	257.53
735.84	257.15
736.17	256.81
736.50	256.40
736.83	256.17
737.16	255.88
737.49	255.53
737.82	255.17
738.15	254.83
738.48	254.53
738.81	254.25
739.14	253.90
739.47	253.60
739.80	253.28
740.13	252.99
740.46	252.64
740.79	252.29
741.12	251.99
741.45	251.70
741.78	251.35
742.11	251.07
742.44	250.75
742.77	250.45
743.10	250.13
743.43	249.85
743.75	249.49
744.08	249.34
744.41	249.08
744.74	248.87
745.07	248.63
745.40	248.39
745.73	248.15
746.06	247.92
746.39	247.65
746.71	247.41
747.04	247.15
747.37	246.94
747.70	246.71
748.03	246.49
748.36	246.27
748.68	246.03
749.01	245.80
749.34	245.58
749.67	245.35
750.00	245.14
750.33	244.97
750.65	244.78
750.98	244.43
751.31	244.17
751.64	243.91
751.97	243.75
752.29	243.49
752.62	243.23
752.95	243.00
753.28	242.81
753.60	242.57
753.93	242.38
754.26	242.18
754.59	241.95
754.91	241.72
755.24	241.50
755.57	241.35
755.90	241.19
756.22	240.99
756.55	240.82
756.88	240.62
757.20	240.38
757.53	240.14
757.86	239.98
758.19	239.85
758.51	239.67
758.84	239.44
759.17	239.27
759.49	239.10
759.82	238.96
760.15	238.79
760.47	238.62
760.80	238.44
761.13	238.26
761.45	238.11
761.78	237.93
762.11	237.78
762.43	237.61
762.76	237.44
763.08	237.29
763.41	237.15
763.74	237.03
764.06	236.89
764.39	236.77
764.71	236.62
765.04	236.48
765.37	236.35
765.69	236.20
766.02	236.07
766.34	235.96
766.67	235.80
767.00	235.69
767.32	235.59
767.65	235.54
767.97	235.45
768.30	235.36
768.62	235.26
768.95	235.17
769.27	235.03
769.60	234.96
769.92	234.86
770.25	234.72
770.57	234.60
770.90	234.52
771.22	234.40
771.55	234.30
771.87	234.20
772.20	234.10
772.52	234.10
772.85	234.11
773.17	234.03
773.50	233.95
773.82	233.86
774.15	233.76
774.47	233.58
774.80	233.45
775.12	233.34
775.45	233.25
775.77	233.13
776.09	233.03
776.42	232.95
776.74	232.86
777.07	232.80
777.39	232.72
777.72	232.61
778.04	232.56
778.36	232.46
778.69	232.39
779.01	232.31
779.33	232.18
779.66	232.03
779.98	231.97
780.31	231.93
780.63	231.90
780.95	231.86
781.28	231.82
781.60	231.77
781.92	231.74
782.25	231.69
782.57	231.60
782.89	231.57
783.22	231.45
783.54	231.41
783.86	231.38
784.19	231.33
784.51	231.28
784.83	231.21
785.16	231.16
785.48	231.12
785.80	231.06
786.12	231.01
786.45	230.97
786.77	230.94
787.09	230.88
