SpectraSuite Data File
++++++++++++++++++++++++++++++++++++
Date: Fri Feb 01 16:18:27 EST 2013
User: group
Dark Spectrum Present: No
Reference Spectrum Present: No
Number of Sampled Component Spectra: 1
Spectrometers: USB2E7196
Integration Time (usec): 35000 (USB2E7196)
Spectra Averaged: 100 (USB2E7196)
Boxcar Smoothing: 10 (USB2E7196)
Correct for Electrical Dark: No (USB2E7196)
Strobe/Lamp Enabled: No (USB2E7196)
Correct for Detector Non-linearity: No (USB2E7196)
Correct for Stray Light: No (USB2E7196)
Number of Pixels in Processed Spectrum: 2048
>>>>>Begin Processed Spectral Data<<<<<
339.09	0.00
339.48	213.88
339.86	215.54
340.24	217.43
340.63	218.17
341.01	221.02
341.39	221.30
341.78	222.75
342.16	224.07
342.54	224.10
342.93	212.59
343.31	223.34
343.69	223.92
344.07	224.38
344.46	224.78
344.84	225.20
345.22	225.43
345.60	225.66
345.99	225.82
346.37	225.92
346.75	226.01
347.13	226.07
347.52	226.10
347.90	226.16
348.28	226.19
348.66	226.26
349.05	226.25
349.43	226.27
349.81	226.32
350.19	226.33
350.57	226.40
350.96	226.47
351.34	226.54
351.72	226.59
352.10	226.68
352.48	226.76
352.87	226.78
353.25	226.84
353.63	226.89
354.01	226.96
354.39	227.02
354.77	227.11
355.15	227.22
355.54	227.29
355.92	227.32
356.30	227.38
356.68	227.49
357.06	227.54
357.44	227.57
357.82	227.62
358.20	227.71
358.58	227.76
358.97	227.80
359.35	227.85
359.73	227.93
360.11	227.97
360.49	227.98
360.87	228.00
361.25	228.06
361.63	228.12
362.01	228.19
362.39	228.21
362.77	228.23
363.15	228.24
363.53	228.25
363.91	228.27
364.29	228.32
364.67	228.25
365.05	228.27
365.43	228.32
365.81	228.32
366.19	228.33
366.57	228.34
366.95	228.36
367.33	228.36
367.71	228.33
368.09	228.35
368.47	228.38
368.85	228.36
369.23	228.37
369.61	228.31
369.99	228.27
370.37	228.27
370.75	228.30
371.13	228.25
371.51	228.21
371.89	228.20
372.27	228.15
372.65	228.10
373.03	228.08
373.41	228.05
373.78	228.01
374.16	227.92
374.54	227.84
374.92	227.77
375.30	227.70
375.68	227.62
376.06	227.55
376.44	227.45
376.82	227.45
377.19	227.35
377.57	227.31
377.95	227.23
378.33	227.16
378.71	227.03
379.09	226.98
379.47	226.93
379.84	226.85
380.22	226.75
380.60	226.66
380.98	226.58
381.36	226.50
381.73	226.42
382.11	226.38
382.49	226.34
382.87	226.25
383.25	226.19
383.62	226.27
384.00	226.19
384.38	226.17
384.76	226.10
385.13	226.10
385.51	226.05
385.89	225.99
386.27	225.93
386.64	225.90
387.02	225.83
387.40	225.78
387.78	225.72
388.15	225.72
388.53	225.70
388.91	225.64
389.29	225.58
389.66	225.57
390.04	225.53
390.42	225.49
390.79	225.52
391.17	225.51
391.55	225.37
391.92	225.38
392.30	225.35
392.68	225.30
393.05	225.26
393.43	225.25
393.81	225.29
394.18	225.32
394.56	225.35
394.94	225.40
395.31	225.43
395.69	225.49
396.06	225.50
396.44	225.52
396.82	225.56
397.19	225.66
397.57	225.69
397.95	225.76
398.32	225.82
398.70	225.86
399.07	225.95
399.45	226.03
399.82	226.11
400.20	226.18
400.58	226.31
400.95	226.39
401.33	226.50
401.70	226.64
402.08	226.70
402.45	226.78
402.83	226.90
403.20	226.99
403.58	227.07
403.95	227.20
404.33	227.36
404.71	227.52
405.08	227.70
405.46	227.83
405.83	228.01
406.21	228.15
406.58	228.32
406.96	228.47
407.33	228.63
407.70	228.83
408.08	229.12
408.45	229.32
408.83	229.52
409.20	229.72
409.58	229.91
409.95	230.18
410.33	230.45
410.70	230.71
411.08	231.04
411.45	231.38
411.82	231.70
412.20	232.05
412.57	232.43
412.95	232.72
413.32	233.09
413.69	233.43
414.07	233.87
414.44	234.30
414.82	234.78
415.19	235.31
415.56	235.84
415.94	236.36
416.31	236.97
416.68	237.60
417.06	238.32
417.43	238.99
417.81	239.76
418.18	240.51
418.55	241.33
418.93	242.20
419.30	243.07
419.67	244.00
420.04	244.93
420.42	245.93
420.79	247.14
421.16	248.33
421.54	249.58
421.91	250.79
422.28	252.07
422.66	253.39
423.03	254.71
423.40	256.03
423.77	257.45
424.15	258.91
424.52	260.40
424.89	261.99
425.26	263.54
425.64	264.97
426.01	266.58
426.38	268.24
426.75	269.88
427.13	271.61
427.50	273.37
427.87	275.30
428.24	277.16
428.61	278.87
428.99	280.79
429.36	282.86
429.73	284.88
430.10	286.86
430.47	288.91
430.85	291.05
431.22	293.31
431.59	295.63
431.96	297.85
432.33	300.33
432.70	302.69
433.08	305.49
433.45	308.14
433.82	310.75
434.19	313.60
434.56	316.41
434.93	319.05
435.30	321.71
435.68	324.56
436.05	327.40
436.42	330.16
436.79	332.66
437.16	335.34
437.53	338.22
437.90	341.03
438.27	343.76
438.64	346.58
439.01	349.15
439.38	351.44
439.75	353.58
440.13	356.08
440.50	358.44
440.87	360.29
441.24	362.21
441.61	364.31
441.98	365.79
442.35	367.61
442.72	369.47
443.09	371.25
443.46	372.21
443.83	372.79
444.20	373.31
444.57	374.15
444.94	374.44
445.31	374.73
445.68	375.15
446.05	375.23
446.42	374.82
446.79	374.37
447.16	373.89
447.53	373.59
447.90	372.41
448.27	371.25
448.64	369.64
449.01	368.52
449.37	366.61
449.74	364.71
450.11	362.45
450.48	359.96
450.85	357.43
451.22	355.34
451.59	353.31
451.96	351.38
452.33	348.76
452.70	346.39
453.07	343.59
453.43	340.64
453.80	337.87
454.17	335.20
454.54	332.68
454.91	330.00
455.28	327.35
455.65	324.87
456.02	322.45
456.38	320.30
456.75	317.65
457.12	315.40
457.49	313.21
457.86	311.04
458.23	309.19
458.59	307.18
458.96	305.06
459.33	303.21
459.70	301.35
460.07	299.89
460.43	298.20
460.80	296.59
461.17	295.17
461.54	293.69
461.91	292.30
462.27	290.87
462.64	289.60
463.01	288.24
463.38	286.99
463.74	285.62
464.11	284.44
464.48	283.40
464.85	282.29
465.21	281.41
465.58	280.52
465.95	279.43
466.32	278.56
466.68	277.67
467.05	276.78
467.42	275.90
467.78	274.96
468.15	274.10
468.52	273.45
468.88	272.62
469.25	271.81
469.62	271.19
469.98	270.53
470.35	269.90
470.72	269.31
471.08	268.64
471.45	268.13
471.82	267.61
472.18	267.05
472.55	266.64
472.92	266.11
473.28	265.64
473.65	265.22
474.02	264.74
474.38	264.36
474.75	264.02
475.11	263.69
475.48	263.42
475.85	263.18
476.21	262.92
476.58	262.72
476.94	262.58
477.31	262.40
477.67	262.22
478.04	262.11
478.41	262.03
478.77	262.08
479.14	261.99
479.50	261.96
479.87	261.99
480.23	262.05
480.60	262.13
480.96	262.23
481.33	262.42
481.69	262.60
482.06	262.81
482.42	263.03
482.79	263.30
483.15	263.65
483.52	264.05
483.88	264.44
484.25	264.83
484.61	265.30
484.98	265.78
485.34	266.36
485.71	266.96
486.07	267.59
486.44	268.12
486.80	268.81
487.17	269.59
487.53	270.43
487.90	271.27
488.26	272.21
488.62	273.19
488.99	274.18
489.35	275.29
489.72	276.39
490.08	277.58
490.44	278.84
490.81	280.14
491.17	281.50
491.54	282.95
491.90	284.48
492.26	286.15
492.63	287.91
492.99	289.69
493.36	291.58
493.72	293.61
494.08	295.75
494.45	298.00
494.81	300.36
495.17	302.81
495.54	305.42
495.90	308.15
496.26	310.98
496.63	313.94
496.99	317.01
497.35	320.29
497.72	323.73
498.08	327.27
498.44	330.92
498.80	334.80
499.17	338.85
499.53	343.08
499.89	347.40
500.26	351.93
500.62	356.63
500.98	361.62
501.34	366.77
501.71	372.13
502.07	377.62
502.43	383.27
502.79	389.11
503.16	395.19
503.52	401.39
503.88	407.82
504.24	414.49
504.60	421.40
504.97	428.56
505.33	435.85
505.69	443.56
506.05	451.42
506.41	459.34
506.78	467.53
507.14	476.00
507.50	484.83
507.86	493.86
508.22	503.08
508.59	512.27
508.95	521.84
509.31	531.61
509.67	541.73
510.03	551.97
510.39	562.53
510.75	573.33
511.12	584.40
511.48	595.66
511.84	607.13
512.20	618.66
512.56	630.57
512.92	642.86
513.28	655.19
513.64	667.62
514.00	680.33
514.37	693.33
514.73	706.29
515.09	719.23
515.45	732.54
515.81	746.12
516.17	760.14
516.53	774.23
516.89	788.50
517.25	802.66
517.61	817.05
517.97	831.51
518.33	845.93
518.69	860.62
519.05	875.65
519.41	890.84
519.77	906.36
520.13	921.80
520.49	937.11
520.85	952.49
521.21	968.15
521.57	984.39
521.93	1000.05
522.29	1016.46
522.65	1032.76
523.01	1048.85
523.37	1064.80
523.73	1080.94
524.09	1096.97
524.45	1113.16
524.81	1129.71
525.17	1146.44
525.53	1163.30
525.89	1180.18
526.25	1196.98
526.61	1213.33
526.97	1230.05
527.33	1246.43
527.68	1262.93
528.04	1279.40
528.40	1295.94
528.76	1312.98
529.12	1329.58
529.48	1346.46
529.84	1362.37
530.20	1378.92
530.56	1396.04
530.91	1413.51
531.27	1430.22
531.63	1446.72
531.99	1463.28
532.35	1479.38
532.71	1495.38
533.07	1511.70
533.42	1527.55
533.78	1543.56
534.14	1559.72
534.50	1574.87
534.86	1590.77
535.21	1606.02
535.57	1621.81
535.93	1637.32
536.29	1652.00
536.65	1666.85
537.00	1681.52
537.36	1696.93
537.72	1711.37
538.08	1725.62
538.44	1739.21
538.79	1753.00
539.15	1766.64
539.51	1780.33
539.87	1794.42
540.22	1808.02
540.58	1821.74
540.94	1834.81
541.29	1847.60
541.65	1860.31
542.01	1873.52
542.37	1885.69
542.72	1898.06
543.08	1909.84
543.44	1922.23
543.79	1933.49
544.15	1944.51
544.51	1956.03
544.87	1966.89
545.22	1977.73
545.58	1987.80
545.94	1997.58
546.29	2007.39
546.65	2017.15
547.01	2026.38
547.36	2035.15
547.72	2043.60
548.07	2051.30
548.43	2059.58
548.79	2067.52
549.14	2074.93
549.50	2082.12
549.86	2089.73
550.21	2096.97
550.57	2104.10
550.92	2110.49
551.28	2117.51
551.64	2124.50
551.99	2131.10
552.35	2137.17
552.70	2143.27
553.06	2149.37
553.41	2155.66
553.77	2161.72
554.13	2167.82
554.48	2173.95
554.84	2179.42
555.19	2184.73
555.55	2189.86
555.90	2194.22
556.26	2199.18
556.61	2203.96
556.97	2208.28
557.32	2212.61
557.68	2216.67
558.03	2220.94
558.39	2224.69
558.74	2229.42
559.10	2233.34
559.45	2236.95
559.81	2241.18
560.16	2245.08
560.52	2248.39
560.87	2251.81
561.23	2254.44
561.58	2257.35
561.94	2259.76
562.29	2262.00
562.64	2264.60
563.00	2267.17
563.35	2270.77
563.71	2273.84
564.06	2277.14
564.42	2280.02
564.77	2282.42
565.12	2284.73
565.48	2286.57
565.83	2288.42
566.19	2289.77
566.54	2290.77
566.89	2291.86
567.25	2292.51
567.60	2293.74
567.96	2295.31
568.31	2296.20
568.66	2297.30
569.02	2297.77
569.37	2298.19
569.72	2299.18
570.08	2299.48
570.43	2299.49
570.78	2298.86
571.14	2297.30
571.49	2295.89
571.84	2295.64
572.20	2294.62
572.55	2293.84
572.90	2292.49
573.26	2291.14
573.61	2289.44
573.96	2287.73
574.31	2284.80
574.67	2281.89
575.02	2278.24
575.37	2274.91
575.72	2271.11
576.08	2267.83
576.43	2264.65
576.78	2260.85
577.13	2257.66
577.49	2254.44
577.84	2251.11
578.19	2247.53
578.54	2244.01
578.90	2239.73
579.25	2234.20
579.60	2229.30
579.95	2224.19
580.30	2219.10
580.66	2213.97
581.01	2209.07
581.36	2204.09
581.71	2199.95
582.06	2195.62
582.42	2191.26
582.77	2186.11
583.12	2181.60
583.47	2177.06
583.82	2172.10
584.17	2167.06
584.53	2161.66
584.88	2156.14
585.23	2150.38
585.58	2144.89
585.93	2139.60
586.28	2134.95
586.63	2129.97
586.98	2124.95
587.34	2120.28
587.69	2115.41
588.04	2110.15
588.39	2104.55
588.74	2098.12
589.09	2092.03
589.44	2085.18
589.79	2079.12
590.14	2073.61
590.49	2067.03
590.84	2060.50
591.19	2054.55
591.54	2048.09
591.89	2040.73
592.25	2033.91
592.60	2026.78
592.95	2019.27
593.30	2011.82
593.65	2004.31
594.00	1997.31
594.35	1990.08
594.70	1982.13
595.05	1974.94
595.40	1967.78
595.75	1960.23
596.10	1954.03
596.45	1947.35
596.80	1941.29
597.15	1934.71
597.50	1927.61
597.85	1921.23
598.19	1914.68
598.54	1907.51
598.89	1900.92
599.24	1895.08
599.59	1888.49
599.94	1882.31
600.29	1875.88
600.64	1869.47
600.99	1861.96
601.34	1855.18
601.69	1848.27
602.04	1841.35
602.39	1834.02
602.74	1827.25
603.08	1820.49
603.43	1813.75
603.78	1806.46
604.13	1799.22
604.48	1791.94
604.83	1785.00
605.18	1778.12
605.53	1770.22
605.87	1762.25
606.22	1754.99
606.57	1747.07
606.92	1739.79
607.27	1732.65
607.62	1725.77
607.96	1718.45
608.31	1712.02
608.66	1704.36
609.01	1696.67
609.36	1689.13
609.70	1681.24
610.05	1673.08
610.40	1665.43
610.75	1657.09
611.10	1649.50
611.44	1641.09
611.79	1633.11
612.14	1624.47
612.49	1615.29
612.83	1606.89
613.18	1598.74
613.53	1590.68
613.88	1582.06
614.22	1573.70
614.57	1565.02
614.92	1556.93
615.27	1549.27
615.61	1540.84
615.96	1532.85
616.31	1525.24
616.65	1517.77
617.00	1510.21
617.35	1502.63
617.70	1494.33
618.04	1485.92
618.39	1477.59
618.74	1469.99
619.08	1461.69
619.43	1454.15
619.78	1447.18
620.12	1439.89
620.47	1432.40
620.82	1424.20
621.16	1416.83
621.51	1409.26
621.85	1401.63
622.20	1393.23
622.55	1384.94
622.89	1377.05
623.24	1369.32
623.59	1361.99
623.93	1354.55
624.28	1347.29
624.62	1339.69
624.97	1332.42
625.32	1325.56
625.66	1318.57
626.01	1311.42
626.35	1303.97
626.70	1296.27
627.04	1288.65
627.39	1280.92
627.73	1273.43
628.08	1266.54
628.43	1259.22
628.77	1251.77
629.12	1244.25
629.46	1237.08
629.81	1229.62
630.15	1222.36
630.50	1214.88
630.84	1206.66
631.19	1198.60
631.53	1191.02
631.88	1183.49
632.22	1175.89
632.57	1168.66
632.91	1161.05
633.26	1153.61
633.60	1146.22
633.95	1138.99
634.29	1131.88
634.64	1125.24
634.98	1117.92
635.32	1110.68
635.67	1104.01
636.01	1097.47
636.36	1090.67
636.70	1084.19
637.05	1077.69
637.39	1071.25
637.73	1064.86
638.08	1059.01
638.42	1053.14
638.77	1046.71
639.11	1040.16
639.45	1033.76
639.80	1027.02
640.14	1020.63
640.49	1014.10
640.83	1007.78
641.17	1001.52
641.52	995.08
641.86	988.54
642.20	982.71
642.55	976.43
642.89	969.93
643.23	963.38
643.58	957.55
643.92	951.21
644.26	945.06
644.61	938.98
644.95	932.90
645.29	926.27
645.64	919.46
645.98	913.09
646.32	907.18
646.66	901.13
647.01	895.34
647.35	889.61
647.69	883.71
648.04	878.15
648.38	872.34
648.72	866.41
649.06	860.35
649.41	854.48
649.75	848.51
650.09	842.65
650.43	836.83
650.78	830.64
651.12	824.80
651.46	819.07
651.80	813.38
652.14	807.97
652.49	802.60
652.83	797.39
653.17	791.68
653.51	786.00
653.85	780.64
654.20	775.05
654.54	769.09
654.88	763.37
655.22	757.56
655.56	751.90
655.90	746.45
656.25	741.26
656.59	735.84
656.93	730.74
657.27	725.51
657.61	720.09
657.95	715.06
658.29	709.94
658.64	704.66
658.98	699.37
659.32	693.92
659.66	688.73
660.00	683.39
660.34	678.46
660.68	673.47
661.02	668.43
661.36	663.60
661.70	659.07
662.05	654.67
662.39	650.29
662.73	645.80
663.07	641.44
663.41	636.95
663.75	632.47
664.09	627.95
664.43	623.61
664.77	619.42
665.11	615.10
665.45	611.03
665.79	606.96
666.13	602.81
666.47	598.71
666.81	594.50
667.15	590.42
667.49	586.55
667.83	582.76
668.17	578.84
668.51	574.83
668.85	570.82
669.19	566.93
669.53	563.00
669.87	559.13
670.21	555.38
670.55	551.67
670.89	548.25
671.23	544.79
671.57	541.24
671.91	537.71
672.25	534.22
672.58	530.63
672.92	527.22
673.26	524.01
673.60	520.85
673.94	517.74
674.28	514.79
674.62	511.79
674.96	508.65
675.30	505.66
675.64	502.69
675.97	499.88
676.31	497.06
676.65	494.19
676.99	491.45
677.33	488.57
677.67	485.85
678.01	482.82
678.34	479.84
678.68	476.98
679.02	474.17
679.36	471.38
679.70	468.68
680.04	465.90
680.37	463.03
680.71	460.22
681.05	457.59
681.39	454.83
681.73	452.15
682.06	449.61
682.40	447.10
682.74	444.57
683.08	442.06
683.42	439.47
683.75	436.94
684.09	434.42
684.43	431.96
684.77	429.43
685.10	427.10
685.44	424.77
685.78	422.51
686.12	420.22
686.45	417.91
686.79	415.61
687.13	413.39
687.46	411.23
687.80	409.08
688.14	406.87
688.48	404.86
688.81	402.63
689.15	400.48
689.49	398.32
689.82	396.24
690.16	394.09
690.50	392.17
690.83	390.24
691.17	388.21
691.51	386.32
691.84	384.43
692.18	382.43
692.52	380.48
692.85	378.50
693.19	376.67
693.52	374.90
693.86	373.04
694.20	371.26
694.53	369.43
694.87	367.60
695.21	365.78
695.54	363.96
695.88	362.24
696.21	360.55
696.55	358.88
696.88	357.21
697.22	355.57
697.56	353.90
697.89	352.28
698.23	350.68
698.56	349.08
698.90	347.51
699.23	345.86
699.57	344.29
699.90	342.71
700.24	341.16
700.58	339.58
700.91	338.09
701.25	336.67
701.58	335.35
701.92	333.95
702.25	332.57
702.59	331.19
702.92	329.86
703.26	328.52
703.59	327.22
703.93	326.03
704.26	324.78
704.60	323.49
704.93	322.18
705.26	320.92
705.60	319.72
705.93	318.56
706.27	317.55
706.60	316.53
706.94	315.47
707.27	314.33
707.61	313.26
707.94	312.21
708.27	311.10
708.61	309.99
708.94	309.00
709.28	307.99
709.61	307.01
709.94	306.12
710.28	305.10
710.61	304.15
710.95	303.07
711.28	302.15
711.61	301.18
711.95	300.27
712.28	299.35
712.61	298.36
712.95	297.40
713.28	296.52
713.61	295.61
713.95	294.74
714.28	293.89
714.61	293.01
714.95	292.18
715.28	291.32
715.61	290.45
715.95	289.57
716.28	288.76
716.61	287.90
716.95	287.07
717.28	286.33
717.61	285.51
717.94	284.75
718.28	283.90
718.61	283.18
718.94	282.50
719.27	281.85
719.61	281.21
719.94	280.59
720.27	279.83
720.60	279.15
720.94	278.50
721.27	277.90
721.60	277.37
721.93	276.76
722.27	276.21
722.60	275.62
722.93	275.04
723.26	274.49
723.59	273.98
723.93	273.41
724.26	272.86
724.59	272.34
724.92	271.84
725.25	271.37
725.59	270.86
725.92	270.37
726.25	269.84
726.58	269.36
726.91	268.86
727.24	268.39
727.57	267.93
727.91	267.44
728.24	266.97
728.57	266.45
728.90	265.97
729.23	265.46
729.56	265.03
729.89	264.56
730.22	264.11
730.55	263.63
730.89	263.16
731.22	262.69
731.55	262.29
731.88	261.86
732.21	261.46
732.54	260.99
732.87	260.52
733.20	260.11
733.53	259.67
733.86	259.29
734.19	258.89
734.52	258.49
734.85	258.19
735.18	257.80
735.51	257.41
735.84	257.03
736.17	256.74
736.50	256.32
736.83	256.09
737.16	255.71
737.49	255.36
737.82	255.03
738.15	254.68
738.48	254.32
738.81	253.99
739.14	253.65
739.47	253.39
739.80	253.07
740.13	252.75
740.46	252.42
740.79	252.12
741.12	251.82
741.45	251.53
741.78	251.13
742.11	250.81
742.44	250.51
742.77	250.24
743.10	249.91
743.43	249.62
743.75	249.27
744.08	249.12
744.41	248.85
744.74	248.56
745.07	248.29
745.40	248.02
745.73	247.77
746.06	247.46
746.39	247.17
746.71	246.90
747.04	246.61
747.37	246.37
747.70	246.10
748.03	245.83
748.36	245.59
748.68	245.36
749.01	245.07
749.34	244.85
749.67	244.62
750.00	244.39
750.33	244.24
750.65	244.00
750.98	243.69
751.31	243.49
751.64	243.26
751.97	243.08
752.29	242.88
752.62	242.63
752.95	242.44
753.28	242.22
753.60	241.99
753.93	241.82
754.26	241.63
754.59	241.40
754.91	241.21
755.24	241.00
755.57	240.81
755.90	240.66
756.22	240.45
756.55	240.27
756.88	240.10
757.20	239.86
757.53	239.66
757.86	239.46
758.19	239.30
758.51	239.14
758.84	238.96
759.17	238.77
759.49	238.63
759.82	238.51
760.15	238.39
760.47	238.29
760.80	238.11
761.13	238.01
761.45	237.86
761.78	237.72
762.11	237.58
762.43	237.48
762.76	237.34
763.08	237.23
763.41	237.12
763.74	236.97
764.06	236.82
764.39	236.69
764.71	236.57
765.04	236.45
765.37	236.34
765.69	236.21
766.02	236.10
766.34	235.96
766.67	235.83
767.00	235.70
767.32	235.65
767.65	235.61
767.97	235.48
768.30	235.37
768.62	235.29
768.95	235.18
769.27	235.02
769.60	234.96
769.92	234.85
770.25	234.71
770.57	234.61
770.90	234.54
771.22	234.46
771.55	234.38
771.87	234.28
772.20	234.18
772.52	234.18
772.85	234.24
773.17	234.18
773.50	234.08
773.82	234.01
774.15	233.87
774.47	233.73
774.80	233.64
775.12	233.57
775.45	233.47
775.77	233.41
776.09	233.36
776.42	233.29
776.74	233.22
777.07	233.15
777.39	233.07
777.72	232.98
778.04	232.93
778.36	232.85
778.69	232.76
779.01	232.71
779.33	232.54
779.66	232.31
779.98	232.22
780.31	232.11
780.63	232.07
780.95	232.01
781.28	231.95
781.60	231.88
781.92	231.81
782.25	231.75
782.57	231.71
782.89	231.60
783.22	231.51
783.54	231.45
783.86	231.39
784.19	231.33
784.51	231.29
784.83	231.20
785.16	231.13
785.48	231.09
785.80	231.00
786.12	230.94
786.45	230.89
786.77	230.84
787.09	230.81
