SpectraSuite Data File
++++++++++++++++++++++++++++++++++++
Date: Fri Feb 01 17:26:03 EST 2013
User: group
Dark Spectrum Present: No
Reference Spectrum Present: No
Number of Sampled Component Spectra: 1
Spectrometers: USB2E7196
Integration Time (usec): 35000 (USB2E7196)
Spectra Averaged: 100 (USB2E7196)
Boxcar Smoothing: 10 (USB2E7196)
Correct for Electrical Dark: No (USB2E7196)
Strobe/Lamp Enabled: No (USB2E7196)
Correct for Detector Non-linearity: No (USB2E7196)
Correct for Stray Light: No (USB2E7196)
Number of Pixels in Processed Spectrum: 2048
>>>>>Begin Processed Spectral Data<<<<<
339.09	0.00
339.48	212.84
339.86	214.12
340.24	216.35
340.63	217.41
341.01	219.90
341.39	219.93
341.78	221.07
342.16	222.62
342.54	223.45
342.93	211.53
343.31	222.24
343.69	222.80
344.07	223.30
344.46	223.71
344.84	224.10
345.22	224.36
345.60	224.62
345.99	224.83
346.37	224.98
346.75	225.08
347.13	225.16
347.52	225.24
347.90	225.33
348.28	225.37
348.66	225.43
349.05	225.40
349.43	225.46
349.81	225.48
350.19	225.55
350.57	225.63
350.96	225.70
351.34	225.74
351.72	225.83
352.10	225.95
352.48	226.01
352.87	226.04
353.25	226.11
353.63	226.17
354.01	226.24
354.39	226.29
354.77	226.36
355.15	226.46
355.54	226.53
355.92	226.54
356.30	226.59
356.68	226.70
357.06	226.81
357.44	226.86
357.82	226.96
358.20	227.01
358.58	227.06
358.97	227.10
359.35	227.16
359.73	227.22
360.11	227.23
360.49	227.26
360.87	227.28
361.25	227.34
361.63	227.39
362.01	227.42
362.39	227.44
362.77	227.48
363.15	227.46
363.53	227.43
363.91	227.43
364.29	227.43
364.67	227.34
365.05	227.33
365.43	227.30
365.81	227.32
366.19	227.32
366.57	227.33
366.95	227.31
367.33	227.27
367.71	227.24
368.09	227.22
368.47	227.22
368.85	227.20
369.23	227.16
369.61	227.08
369.99	227.04
370.37	227.04
370.75	227.03
371.13	226.99
371.51	226.95
371.89	226.93
372.27	226.90
372.65	226.86
373.03	226.79
373.41	226.75
373.78	226.65
374.16	226.55
374.54	226.44
374.92	226.37
375.30	226.32
375.68	226.23
376.06	226.17
376.44	226.13
376.82	226.04
377.19	225.98
377.57	225.93
377.95	225.85
378.33	225.75
378.71	225.62
379.09	225.57
379.47	225.53
379.84	225.47
380.22	225.37
380.60	225.32
380.98	225.28
381.36	225.21
381.73	225.16
382.11	225.09
382.49	225.08
382.87	224.99
383.25	224.96
383.62	225.04
384.00	224.96
384.38	224.92
384.76	224.91
385.13	224.93
385.51	224.88
385.89	224.83
386.27	224.79
386.64	224.79
387.02	224.74
387.40	224.69
387.78	224.65
388.15	224.63
388.53	224.56
388.91	224.52
389.29	224.51
389.66	224.52
390.04	224.50
390.42	224.49
390.79	224.52
391.17	224.51
391.55	224.38
391.92	224.41
392.30	224.39
392.68	224.39
393.05	224.37
393.43	224.40
393.81	224.40
394.18	224.40
394.56	224.39
394.94	224.44
395.31	224.47
395.69	224.53
396.06	224.61
396.44	224.66
396.82	224.70
397.19	224.80
397.57	224.82
397.95	224.88
398.32	224.90
398.70	224.95
399.07	225.05
399.45	225.11
399.82	225.13
400.20	225.20
400.58	225.28
400.95	225.30
401.33	225.40
401.70	225.57
402.08	225.67
402.45	225.74
402.83	225.84
403.20	225.94
403.58	226.02
403.95	226.12
404.33	226.22
404.71	226.33
405.08	226.47
405.46	226.57
405.83	226.73
406.21	226.86
406.58	227.03
406.96	227.14
407.33	227.30
407.70	227.50
408.08	227.76
408.45	227.97
408.83	228.20
409.20	228.38
409.58	228.52
409.95	228.79
410.33	229.04
410.70	229.27
411.08	229.58
411.45	229.89
411.82	230.13
412.20	230.50
412.57	230.93
412.95	231.21
413.32	231.66
413.69	232.06
414.07	232.50
414.44	232.96
414.82	233.45
415.19	233.99
415.56	234.57
415.94	235.11
416.31	235.71
416.68	236.36
417.06	237.10
417.43	237.77
417.81	238.55
418.18	239.39
418.55	240.24
418.93	241.13
419.30	242.08
419.67	243.05
420.04	244.04
420.42	245.04
420.79	246.29
421.16	247.45
421.54	248.69
421.91	249.95
422.28	251.26
422.66	252.60
423.03	253.97
423.40	255.35
423.77	256.81
424.15	258.34
424.52	259.87
424.89	261.54
425.26	263.19
425.64	264.70
426.01	266.35
426.38	268.08
426.75	269.78
427.13	271.53
427.50	273.43
427.87	275.39
428.24	277.32
428.61	279.13
428.99	281.15
429.36	283.31
429.73	285.44
430.10	287.57
430.47	289.77
430.85	292.00
431.22	294.29
431.59	296.76
431.96	299.12
432.33	301.73
432.70	304.19
433.08	307.13
433.45	309.87
433.82	312.58
434.19	315.59
434.56	318.58
434.93	321.35
435.30	324.09
435.68	327.06
436.05	330.05
436.42	332.98
436.79	335.63
437.16	338.46
437.53	341.47
437.90	344.36
438.27	347.18
438.64	350.13
439.01	352.88
439.38	355.21
439.75	357.40
440.13	359.97
440.50	362.40
440.87	364.33
441.24	366.39
441.61	368.66
441.98	370.20
442.35	372.04
442.72	373.96
443.09	375.87
443.46	376.97
443.83	377.59
444.20	378.12
444.57	379.01
444.94	379.33
445.31	379.71
445.68	380.05
446.05	380.22
446.42	379.81
446.79	379.40
447.16	378.97
447.53	378.71
447.90	377.58
448.27	376.42
448.64	374.78
449.01	373.63
449.37	371.60
449.74	369.69
450.11	367.44
450.48	364.94
450.85	362.32
451.22	360.09
451.59	358.02
451.96	356.03
452.33	353.31
452.70	350.89
453.07	347.92
453.43	344.94
453.80	342.08
454.17	339.33
454.54	336.66
454.91	333.84
455.28	331.07
455.65	328.44
456.02	325.89
456.38	323.64
456.75	320.85
457.12	318.51
457.49	316.17
457.86	313.91
458.23	311.96
458.59	309.83
458.96	307.70
459.33	305.74
459.70	303.75
460.07	302.18
460.43	300.37
460.80	298.68
461.17	297.19
461.54	295.58
461.91	294.07
462.27	292.57
462.64	291.27
463.01	289.84
463.38	288.52
463.74	287.10
464.11	285.90
464.48	284.82
464.85	283.65
465.21	282.76
465.58	281.76
465.95	280.62
466.32	279.67
466.68	278.71
467.05	277.79
467.42	276.87
467.78	275.91
468.15	275.02
468.52	274.36
468.88	273.48
469.25	272.68
469.62	272.05
469.98	271.33
470.35	270.67
470.72	270.04
471.08	269.31
471.45	268.76
471.82	268.20
472.18	267.59
472.55	267.15
472.92	266.63
473.28	266.15
473.65	265.67
474.02	265.18
474.38	264.78
474.75	264.44
475.11	264.07
475.48	263.83
475.85	263.61
476.21	263.36
476.58	263.20
476.94	263.04
477.31	262.85
477.67	262.71
478.04	262.59
478.41	262.49
478.77	262.55
479.14	262.49
479.50	262.50
479.87	262.59
480.23	262.71
480.60	262.77
480.96	262.87
481.33	263.11
481.69	263.34
482.06	263.54
482.42	263.75
482.79	264.00
483.15	264.33
483.52	264.73
483.88	265.06
484.25	265.44
484.61	265.87
484.98	266.31
485.34	266.91
485.71	267.52
486.07	268.18
486.44	268.75
486.80	269.45
487.17	270.19
487.53	270.99
487.90	271.79
488.26	272.71
488.62	273.72
488.99	274.69
489.35	275.72
489.72	276.86
490.08	278.04
490.44	279.31
490.81	280.60
491.17	281.90
491.54	283.37
491.90	284.90
492.26	286.52
492.63	288.23
492.99	289.96
493.36	291.84
493.72	293.90
494.08	296.00
494.45	298.23
494.81	300.58
495.17	302.99
495.54	305.54
495.90	308.24
496.26	310.99
496.63	313.90
496.99	317.00
497.35	320.27
497.72	323.68
498.08	327.13
498.44	330.77
498.80	334.65
499.17	338.64
499.53	342.77
499.89	347.08
500.26	351.56
500.62	356.20
500.98	361.05
501.34	366.05
501.71	371.32
502.07	376.72
502.43	382.28
502.79	387.99
503.16	393.94
503.52	400.09
503.88	406.41
504.24	412.91
504.60	419.68
504.97	426.63
505.33	433.86
505.69	441.48
506.05	449.13
506.41	456.82
506.78	464.80
507.14	473.04
507.50	481.66
507.86	490.54
508.22	499.58
508.59	508.69
508.95	518.00
509.31	527.54
509.67	537.41
510.03	547.48
510.39	557.87
510.75	568.46
511.12	579.19
511.48	590.21
511.84	601.44
512.20	612.64
512.56	624.29
512.92	636.15
513.28	648.21
513.64	660.42
514.00	672.91
514.37	685.57
514.73	698.43
515.09	711.06
515.45	723.96
515.81	737.23
516.17	750.78
516.53	764.62
516.89	778.59
517.25	792.40
517.61	806.42
517.97	820.50
518.33	834.63
518.69	849.02
519.05	863.66
519.41	878.43
519.77	893.65
520.13	908.76
520.49	923.73
520.85	938.70
521.21	953.94
521.57	969.70
521.93	984.97
522.29	1000.81
522.65	1016.72
523.01	1032.53
523.37	1048.12
523.73	1063.84
524.09	1079.41
524.45	1095.20
524.81	1111.37
525.17	1127.63
525.53	1144.08
525.89	1160.43
526.25	1176.79
526.61	1192.78
526.97	1209.15
527.33	1225.19
527.68	1241.43
528.04	1257.48
528.40	1273.52
528.76	1290.10
529.12	1306.36
529.48	1322.92
529.84	1338.49
530.20	1354.72
530.56	1371.35
530.91	1388.38
531.27	1404.89
531.63	1421.09
531.99	1437.29
532.35	1453.05
532.71	1468.59
533.07	1484.39
533.42	1499.94
533.78	1515.71
534.14	1531.47
534.50	1546.52
534.86	1562.01
535.21	1576.75
535.57	1592.18
535.93	1607.39
536.29	1621.95
536.65	1636.85
537.00	1651.25
537.36	1666.40
537.72	1680.58
538.08	1694.75
538.44	1708.21
538.79	1721.85
539.15	1735.16
539.51	1748.61
539.87	1762.65
540.22	1776.13
540.58	1789.75
540.94	1802.83
541.29	1815.33
541.65	1827.98
542.01	1840.85
542.37	1853.11
542.72	1865.37
543.08	1877.22
543.44	1889.53
543.79	1900.79
544.15	1911.58
544.51	1923.16
544.87	1934.05
545.22	1944.91
545.58	1955.13
545.94	1965.01
546.29	1974.85
546.65	1984.91
547.01	1994.34
547.36	2003.18
547.72	2012.02
548.07	2020.17
548.43	2028.47
548.79	2036.60
549.14	2044.38
549.50	2051.86
549.86	2059.52
550.21	2067.23
550.57	2074.61
550.92	2081.42
551.28	2088.56
551.64	2095.80
551.99	2102.50
552.35	2108.87
552.70	2115.19
553.06	2121.48
553.41	2127.92
553.77	2134.08
554.13	2140.34
554.48	2146.70
554.84	2152.52
555.19	2157.86
555.55	2163.25
555.90	2168.19
556.26	2173.61
556.61	2178.48
556.97	2183.30
557.32	2187.91
557.68	2192.16
558.03	2196.81
558.39	2200.73
558.74	2205.75
559.10	2209.99
559.45	2214.03
559.81	2218.62
560.16	2222.74
560.52	2226.23
560.87	2230.07
561.23	2233.21
561.58	2236.39
561.94	2239.35
562.29	2241.93
562.64	2245.17
563.00	2247.93
563.35	2251.66
563.71	2255.14
564.06	2258.65
564.42	2261.98
564.77	2264.92
565.12	2267.62
565.48	2269.97
565.83	2272.49
566.19	2274.24
566.54	2275.43
566.89	2277.01
567.25	2278.12
567.60	2279.86
567.96	2282.00
568.31	2283.27
568.66	2284.80
569.02	2285.77
569.37	2286.29
569.72	2287.64
570.08	2288.17
570.43	2288.68
570.78	2288.54
571.14	2287.37
571.49	2286.60
571.84	2286.35
572.20	2285.45
572.55	2284.77
572.90	2283.23
573.26	2282.16
573.61	2280.77
573.96	2279.64
574.31	2277.09
574.67	2274.44
575.02	2271.21
575.37	2268.11
575.72	2264.74
576.08	2261.52
576.43	2258.50
576.78	2255.52
577.13	2252.41
577.49	2249.49
577.84	2246.39
578.19	2242.99
578.54	2239.73
578.90	2235.98
579.25	2230.84
579.60	2226.45
579.95	2221.96
580.30	2217.52
580.66	2212.78
581.01	2208.05
581.36	2203.20
581.71	2199.41
582.06	2195.40
582.42	2191.28
582.77	2186.43
583.12	2182.18
583.47	2178.08
583.82	2173.67
584.17	2168.57
584.53	2163.46
584.88	2158.18
585.23	2152.79
585.58	2147.43
585.93	2142.16
586.28	2137.36
586.63	2132.71
586.98	2127.73
587.34	2123.14
587.69	2118.41
588.04	2113.29
588.39	2107.93
588.74	2101.71
589.09	2095.74
589.44	2089.17
589.79	2083.22
590.14	2077.84
590.49	2071.47
590.84	2065.09
591.19	2059.12
591.54	2052.85
591.89	2045.95
592.25	2039.50
592.60	2032.49
592.95	2025.39
593.30	2018.34
593.65	2010.94
594.00	2004.02
594.35	1997.02
594.70	1989.15
595.05	1982.41
595.40	1975.29
595.75	1967.98
596.10	1962.08
596.45	1955.50
596.80	1949.53
597.15	1943.19
597.50	1936.41
597.85	1930.11
598.19	1923.71
598.54	1917.00
598.89	1910.48
599.24	1904.61
599.59	1898.18
599.94	1892.09
600.29	1885.76
600.64	1879.05
600.99	1871.78
601.34	1865.12
601.69	1858.12
602.04	1851.35
602.39	1843.97
602.74	1837.28
603.08	1830.63
603.43	1823.90
603.78	1816.74
604.13	1809.52
604.48	1802.40
604.83	1795.44
605.18	1788.64
605.53	1780.76
605.87	1772.71
606.22	1765.47
606.57	1757.39
606.92	1749.78
607.27	1742.76
607.62	1735.98
607.96	1728.97
608.31	1722.42
608.66	1714.82
609.01	1707.40
609.36	1699.88
609.70	1691.87
610.05	1683.77
610.40	1676.16
610.75	1667.85
611.10	1660.09
611.44	1651.54
611.79	1643.43
612.14	1634.81
612.49	1625.43
612.83	1616.83
613.18	1608.51
613.53	1600.41
613.88	1591.93
614.22	1583.64
614.57	1574.63
614.92	1566.48
615.27	1558.85
615.61	1550.52
615.96	1542.34
616.31	1534.50
616.65	1527.10
617.00	1519.45
617.35	1511.69
617.70	1503.28
618.04	1494.81
618.39	1486.51
618.74	1478.91
619.08	1470.46
619.43	1462.72
619.78	1455.68
620.12	1448.53
620.47	1440.99
620.82	1432.71
621.16	1425.08
621.51	1417.45
621.85	1409.85
622.20	1401.22
622.55	1392.75
622.89	1384.80
623.24	1377.05
623.59	1369.62
623.93	1361.88
624.28	1354.52
624.62	1347.03
624.97	1339.76
625.32	1332.76
625.66	1325.58
626.01	1318.36
626.35	1311.05
626.70	1303.16
627.04	1295.54
627.39	1287.70
627.73	1280.25
628.08	1273.30
628.43	1266.17
628.77	1258.73
629.12	1251.14
629.46	1243.92
629.81	1236.36
630.15	1229.03
630.50	1221.65
630.84	1213.41
631.19	1205.43
631.53	1197.74
631.88	1190.06
632.22	1182.30
632.57	1174.88
632.91	1167.31
633.26	1159.74
633.60	1152.14
633.95	1144.83
634.29	1137.62
634.64	1130.78
634.98	1123.28
635.32	1116.06
635.67	1109.28
636.01	1102.53
636.36	1095.66
636.70	1089.06
637.05	1082.41
637.39	1075.85
637.73	1069.32
638.08	1063.36
638.42	1057.31
638.77	1050.90
639.11	1044.39
639.45	1037.94
639.80	1031.26
640.14	1024.76
640.49	1018.21
640.83	1011.83
641.17	1005.69
641.52	999.34
641.86	992.76
642.20	986.96
642.55	980.41
642.89	973.93
643.23	967.28
643.58	961.47
643.92	955.18
644.26	949.22
644.61	943.13
644.95	937.08
645.29	930.55
645.64	923.80
645.98	917.39
646.32	911.37
646.66	905.35
647.01	899.51
647.35	893.85
647.69	887.93
648.04	882.41
648.38	876.61
648.72	870.63
649.06	864.61
649.41	858.59
649.75	852.70
650.09	846.68
650.43	840.94
650.78	834.78
651.12	828.80
651.46	822.99
651.80	817.28
652.14	811.79
652.49	806.27
652.83	801.06
653.17	795.43
653.51	789.70
653.85	784.24
654.20	778.60
654.54	772.55
654.88	766.78
655.22	760.77
655.56	755.00
655.90	749.42
656.25	744.16
656.59	738.82
656.93	733.74
657.27	728.58
657.61	723.07
657.95	717.92
658.29	712.86
658.64	707.55
658.98	702.17
659.32	696.68
659.66	691.56
660.00	686.27
660.34	681.27
660.68	676.30
661.02	671.27
661.36	666.50
661.70	661.96
662.05	657.62
662.39	653.39
662.73	648.91
663.07	644.56
663.41	640.13
663.75	635.63
664.09	631.03
664.43	626.61
664.77	622.52
665.11	618.29
665.45	614.07
665.79	609.98
666.13	605.92
666.47	601.80
666.81	597.58
667.15	593.40
667.49	589.43
667.83	585.49
668.17	581.48
668.51	577.44
668.85	573.34
669.19	569.45
669.53	565.57
669.87	561.68
670.21	557.97
670.55	554.27
670.89	550.75
671.23	547.33
671.57	543.77
671.91	540.22
672.25	536.61
672.58	533.13
672.92	529.65
673.26	526.40
673.60	523.23
673.94	520.17
674.28	517.26
674.62	514.31
674.96	511.25
675.30	508.35
675.64	505.44
675.97	502.66
676.31	499.80
676.65	496.83
676.99	494.09
677.33	491.12
677.67	488.26
678.01	485.30
678.34	482.32
678.68	479.43
679.02	476.62
679.36	473.83
679.70	471.05
680.04	468.30
680.37	465.43
680.71	462.60
681.05	459.90
681.39	457.16
681.73	454.49
682.06	452.02
682.40	449.41
682.74	446.80
683.08	444.24
683.42	441.56
683.75	439.05
684.09	436.46
684.43	433.96
684.77	431.52
685.10	429.12
685.44	426.72
685.78	424.42
686.12	422.12
686.45	419.82
686.79	417.52
687.13	415.29
687.46	413.09
687.80	410.86
688.14	408.57
688.48	406.47
688.81	404.15
689.15	401.91
689.49	399.76
689.82	397.65
690.16	395.51
690.50	393.54
690.83	391.54
691.17	389.54
691.51	387.64
691.84	385.73
692.18	383.75
692.52	381.76
692.85	379.83
693.19	377.89
693.52	376.04
693.86	374.13
694.20	372.34
694.53	370.51
694.87	368.64
695.21	366.84
695.54	364.96
695.88	363.22
696.21	361.49
696.55	359.78
696.88	358.09
697.22	356.39
697.56	354.74
697.89	353.08
698.23	351.47
698.56	349.81
698.90	348.25
699.23	346.56
699.57	344.99
699.90	343.39
700.24	341.82
700.58	340.30
700.91	338.81
701.25	337.30
701.58	335.92
701.92	334.56
702.25	333.17
702.59	331.78
702.92	330.49
703.26	329.12
703.59	327.81
703.93	326.59
704.26	325.36
704.60	324.10
704.93	322.81
705.26	321.51
705.60	320.36
705.93	319.15
706.27	318.11
706.60	317.03
706.94	315.91
707.27	314.76
707.61	313.64
707.94	312.60
708.27	311.51
708.61	310.38
708.94	309.38
709.28	308.38
709.61	307.41
709.94	306.42
710.28	305.40
710.61	304.41
710.95	303.33
711.28	302.38
711.61	301.39
711.95	300.45
712.28	299.52
712.61	298.50
712.95	297.57
713.28	296.69
713.61	295.78
713.95	294.88
714.28	294.00
714.61	293.14
714.95	292.29
715.28	291.44
715.61	290.54
715.95	289.64
716.28	288.74
716.61	287.92
716.95	287.07
717.28	286.34
717.61	285.57
717.94	284.79
718.28	283.99
718.61	283.24
718.94	282.50
719.27	281.83
719.61	281.15
719.94	280.45
720.27	279.68
720.60	279.03
720.94	278.41
721.27	277.85
721.60	277.24
721.93	276.63
722.27	276.05
722.60	275.49
722.93	274.91
723.26	274.38
723.59	273.76
723.93	273.21
724.26	272.62
724.59	272.01
724.92	271.49
725.25	270.94
725.59	270.40
725.92	269.90
726.25	269.31
726.58	268.81
726.91	268.32
727.24	267.87
727.57	267.37
727.91	266.80
728.24	266.31
728.57	265.87
728.90	265.40
729.23	264.90
729.56	264.46
729.89	264.00
730.22	263.53
730.55	263.09
730.89	262.65
731.22	262.23
731.55	261.79
731.88	261.37
732.21	260.96
732.54	260.56
732.87	260.12
733.20	259.77
733.53	259.38
733.86	258.98
734.19	258.60
734.52	258.18
734.85	257.90
735.18	257.51
735.51	257.12
735.84	256.70
736.17	256.37
736.50	255.94
736.83	255.67
737.16	255.33
737.49	255.00
737.82	254.62
738.15	254.29
738.48	253.98
738.81	253.65
739.14	253.33
739.47	253.00
739.80	252.69
740.13	252.39
740.46	252.05
740.79	251.73
741.12	251.40
741.45	251.12
741.78	250.78
742.11	250.52
742.44	250.18
742.77	249.88
743.10	249.54
743.43	249.26
743.75	248.90
744.08	248.75
744.41	248.48
744.74	248.22
745.07	247.91
745.40	247.67
745.73	247.41
746.06	247.12
746.39	246.84
746.71	246.57
747.04	246.27
747.37	246.00
747.70	245.73
748.03	245.48
748.36	245.22
748.68	244.95
749.01	244.65
749.34	244.44
749.67	244.24
750.00	244.01
750.33	243.87
750.65	243.61
750.98	243.25
751.31	242.96
751.64	242.75
751.97	242.57
752.29	242.29
752.62	242.01
752.95	241.80
753.28	241.57
753.60	241.35
753.93	241.20
754.26	241.03
754.59	240.82
754.91	240.62
755.24	240.44
755.57	240.26
755.90	240.06
756.22	239.85
756.55	239.67
756.88	239.45
757.20	239.21
757.53	239.01
757.86	238.84
758.19	238.72
758.51	238.52
758.84	238.31
759.17	238.15
759.49	238.01
759.82	237.88
760.15	237.76
760.47	237.62
760.80	237.41
761.13	237.27
761.45	237.13
761.78	236.97
762.11	236.85
762.43	236.69
762.76	236.56
763.08	236.46
763.41	236.27
763.74	236.17
764.06	236.05
764.39	235.94
764.71	235.73
765.04	235.61
765.37	235.46
765.69	235.32
766.02	235.17
766.34	235.05
766.67	234.89
767.00	234.77
767.32	234.67
767.65	234.60
767.97	234.47
768.30	234.36
768.62	234.24
768.95	234.09
769.27	233.96
769.60	233.87
769.92	233.72
770.25	233.60
770.57	233.45
770.90	233.34
771.22	233.23
771.55	233.18
771.87	233.09
772.20	233.01
772.52	233.06
772.85	233.10
773.17	233.03
773.50	232.94
773.82	232.82
774.15	232.69
774.47	232.56
774.80	232.48
775.12	232.41
775.45	232.32
775.77	232.22
776.09	232.18
776.42	232.10
776.74	232.05
777.07	231.97
777.39	231.89
777.72	231.82
778.04	231.76
778.36	231.68
778.69	231.60
779.01	231.56
779.33	231.35
779.66	231.18
779.98	231.06
780.31	231.02
780.63	231.01
780.95	230.99
781.28	230.93
781.60	230.83
781.92	230.74
782.25	230.67
782.57	230.62
782.89	230.53
783.22	230.44
783.54	230.38
783.86	230.33
784.19	230.30
784.51	230.26
784.83	230.21
785.16	230.15
785.48	230.08
785.80	230.02
786.12	229.97
786.45	229.92
786.77	229.90
787.09	229.82
