SpectraSuite Data File
++++++++++++++++++++++++++++++++++++
Date: Fri Feb 01 17:44:30 EST 2013
User: group
Dark Spectrum Present: No
Reference Spectrum Present: No
Number of Sampled Component Spectra: 1
Spectrometers: USB2E7196
Integration Time (usec): 35000 (USB2E7196)
Spectra Averaged: 100 (USB2E7196)
Boxcar Smoothing: 10 (USB2E7196)
Correct for Electrical Dark: No (USB2E7196)
Strobe/Lamp Enabled: No (USB2E7196)
Correct for Detector Non-linearity: No (USB2E7196)
Correct for Stray Light: No (USB2E7196)
Number of Pixels in Processed Spectrum: 2048
>>>>>Begin Processed Spectral Data<<<<<
339.09	0.00
339.48	212.74
339.86	213.90
340.24	215.38
340.63	217.00
341.01	219.70
341.39	219.53
341.78	220.74
342.16	221.86
342.54	222.72
342.93	211.14
343.31	221.82
343.69	222.36
344.07	222.85
344.46	223.29
344.84	223.67
345.22	223.90
345.60	224.16
345.99	224.37
346.37	224.53
346.75	224.62
347.13	224.72
347.52	224.80
347.90	224.85
348.28	224.92
348.66	224.98
349.05	224.97
349.43	225.00
349.81	225.06
350.19	225.09
350.57	225.12
350.96	225.17
351.34	225.24
351.72	225.35
352.10	225.42
352.48	225.47
352.87	225.51
353.25	225.57
353.63	225.65
354.01	225.68
354.39	225.74
354.77	225.86
355.15	225.89
355.54	225.92
355.92	225.95
356.30	225.97
356.68	226.11
357.06	226.16
357.44	226.22
357.82	226.26
358.20	226.31
358.58	226.39
358.97	226.48
359.35	226.59
359.73	226.64
360.11	226.70
360.49	226.74
360.87	226.79
361.25	226.84
361.63	226.88
362.01	226.95
362.39	226.97
362.77	226.99
363.15	227.06
363.53	227.10
363.91	227.15
364.29	227.16
364.67	227.06
365.05	227.07
365.43	227.08
365.81	227.13
366.19	227.20
366.57	227.23
366.95	227.20
367.33	227.13
367.71	227.14
368.09	227.14
368.47	227.18
368.85	227.14
369.23	227.17
369.61	227.13
369.99	227.11
370.37	227.11
370.75	227.12
371.13	227.08
371.51	227.03
371.89	227.02
372.27	227.01
372.65	227.01
373.03	226.96
373.41	226.92
373.78	226.84
374.16	226.73
374.54	226.66
374.92	226.64
375.30	226.59
375.68	226.52
376.06	226.45
376.44	226.39
376.82	226.37
377.19	226.29
377.57	226.24
377.95	226.18
378.33	226.15
378.71	226.03
379.09	225.99
379.47	225.95
379.84	225.85
380.22	225.80
380.60	225.73
380.98	225.68
381.36	225.62
381.73	225.55
382.11	225.50
382.49	225.44
382.87	225.36
383.25	225.33
383.62	225.39
384.00	225.34
384.38	225.27
384.76	225.24
385.13	225.24
385.51	225.19
385.89	225.13
386.27	225.05
386.64	225.01
387.02	224.95
387.40	224.90
387.78	224.87
388.15	224.85
388.53	224.80
388.91	224.75
389.29	224.73
389.66	224.75
390.04	224.71
390.42	224.71
390.79	224.71
391.17	224.68
391.55	224.54
391.92	224.53
392.30	224.55
392.68	224.50
393.05	224.51
393.43	224.47
393.81	224.44
394.18	224.45
394.56	224.44
394.94	224.46
395.31	224.48
395.69	224.52
396.06	224.55
396.44	224.57
396.82	224.61
397.19	224.68
397.57	224.70
397.95	224.75
398.32	224.73
398.70	224.77
399.07	224.83
399.45	224.87
399.82	224.89
400.20	224.89
400.58	224.97
400.95	224.99
401.33	225.09
401.70	225.24
402.08	225.33
402.45	225.43
402.83	225.55
403.20	225.67
403.58	225.75
403.95	225.85
404.33	225.98
404.71	226.14
405.08	226.32
405.46	226.44
405.83	226.58
406.21	226.74
406.58	226.93
406.96	227.09
407.33	227.30
407.70	227.54
408.08	227.87
408.45	228.10
408.83	228.35
409.20	228.59
409.58	228.79
409.95	229.07
410.33	229.38
410.70	229.68
411.08	229.97
411.45	230.36
411.82	230.75
412.20	231.18
412.57	231.64
412.95	232.02
413.32	232.51
413.69	233.03
414.07	233.57
414.44	234.15
414.82	234.75
415.19	235.40
415.56	236.08
415.94	236.77
416.31	237.55
416.68	238.31
417.06	239.23
417.43	240.08
417.81	240.99
418.18	241.97
418.55	243.00
418.93	244.08
419.30	245.18
419.67	246.28
420.04	247.47
420.42	248.67
420.79	250.08
421.16	251.55
421.54	253.02
421.91	254.51
422.28	256.09
422.66	257.70
423.03	259.30
423.40	260.94
423.77	262.69
424.15	264.47
424.52	266.33
424.89	268.32
425.26	270.25
425.64	272.09
426.01	274.09
426.38	276.18
426.75	278.28
427.13	280.44
427.50	282.73
427.87	285.07
428.24	287.40
428.61	289.60
428.99	291.95
429.36	294.54
429.73	297.11
430.10	299.58
430.47	302.14
430.85	304.81
431.22	307.60
431.59	310.49
431.96	313.28
432.33	316.32
432.70	319.23
433.08	322.72
433.45	325.99
433.82	329.15
434.19	332.67
434.56	336.12
434.93	339.41
435.30	342.59
435.68	346.13
436.05	349.64
436.42	353.07
436.79	356.21
437.16	359.48
437.53	363.00
437.90	366.47
438.27	369.85
438.64	373.28
439.01	376.48
439.38	379.26
439.75	381.88
440.13	385.05
440.50	387.93
440.87	390.24
441.24	392.59
441.61	395.29
441.98	397.15
442.35	399.42
442.72	401.71
443.09	403.98
443.46	405.21
443.83	405.95
444.20	406.59
444.57	407.62
444.94	408.07
445.31	408.49
445.68	408.91
446.05	409.06
446.42	408.66
446.79	408.17
447.16	407.64
447.53	407.32
447.90	405.84
448.27	404.47
448.64	402.49
449.01	401.15
449.37	398.72
449.74	396.37
450.11	393.57
450.48	390.54
450.85	387.45
451.22	384.83
451.59	382.34
451.96	379.97
452.33	376.75
452.70	373.85
453.07	370.37
453.43	366.81
453.80	363.38
454.17	360.09
454.54	356.92
454.91	353.59
455.28	350.24
455.65	347.20
456.02	344.11
456.38	341.44
456.75	338.14
457.12	335.36
457.49	332.62
457.86	329.93
458.23	327.59
458.59	325.06
458.96	322.44
459.33	320.13
459.70	317.79
460.07	315.94
460.43	313.80
460.80	311.79
461.17	309.99
461.54	308.10
461.91	306.29
462.27	304.52
462.64	302.94
463.01	301.27
463.38	299.64
463.74	298.00
464.11	296.54
464.48	295.25
464.85	293.87
465.21	292.76
465.58	291.61
465.95	290.25
466.32	289.11
466.68	288.00
467.05	286.91
467.42	285.82
467.78	284.68
468.15	283.57
468.52	282.72
468.88	281.69
469.25	280.73
469.62	279.96
469.98	279.11
470.35	278.29
470.72	277.53
471.08	276.71
471.45	276.00
471.82	275.33
472.18	274.56
472.55	274.01
472.92	273.37
473.28	272.78
473.65	272.24
474.02	271.66
474.38	271.20
474.75	270.78
475.11	270.31
475.48	269.91
475.85	269.65
476.21	269.32
476.58	269.06
476.94	268.84
477.31	268.58
477.67	268.30
478.04	268.14
478.41	268.04
478.77	268.00
479.14	267.87
479.50	267.84
479.87	267.88
480.23	267.92
480.60	267.93
480.96	268.00
481.33	268.17
481.69	268.34
482.06	268.48
482.42	268.64
482.79	268.89
483.15	269.20
483.52	269.52
483.88	269.89
484.25	270.22
484.61	270.64
484.98	271.07
485.34	271.69
485.71	272.30
486.07	272.91
486.44	273.49
486.80	274.21
487.17	274.92
487.53	275.74
487.90	276.59
488.26	277.54
488.62	278.53
488.99	279.51
489.35	280.60
489.72	281.82
490.08	283.05
490.44	284.28
490.81	285.63
491.17	286.98
491.54	288.46
491.90	290.02
492.26	291.69
492.63	293.49
492.99	295.29
493.36	297.24
493.72	299.34
494.08	301.48
494.45	303.83
494.81	306.28
495.17	308.79
495.54	311.44
495.90	314.18
496.26	317.05
496.63	320.08
496.99	323.24
497.35	326.57
497.72	330.06
498.08	333.69
498.44	337.48
498.80	341.58
499.17	345.76
499.53	350.08
499.89	354.59
500.26	359.20
500.62	364.00
500.98	369.11
501.34	374.30
501.71	379.84
502.07	385.40
502.43	391.19
502.79	397.21
503.16	403.46
503.52	409.96
503.88	416.58
504.24	423.43
504.60	430.54
504.97	437.87
505.33	445.40
505.69	453.39
506.05	461.43
506.41	469.52
506.78	477.92
507.14	486.72
507.50	495.77
507.86	505.11
508.22	514.67
508.59	524.21
508.95	534.13
509.31	544.30
509.67	554.85
510.03	565.46
510.39	576.47
510.75	587.67
511.12	599.05
511.48	610.80
511.84	622.74
512.20	634.74
512.56	647.11
512.92	659.76
513.28	672.64
513.64	685.56
514.00	698.83
514.37	712.33
514.73	725.82
515.09	739.34
515.45	753.28
515.81	767.43
516.17	782.01
516.53	796.69
516.89	811.56
517.25	826.35
517.61	841.42
517.97	856.49
518.33	871.56
518.69	887.06
519.05	902.68
519.41	918.51
519.77	934.77
520.13	951.07
520.49	967.28
520.85	983.38
521.21	999.87
521.57	1016.94
521.93	1033.48
522.29	1050.63
522.65	1067.76
523.01	1084.69
523.37	1101.66
523.73	1118.58
524.09	1135.64
524.45	1152.76
524.81	1170.21
525.17	1187.92
525.53	1205.59
525.89	1223.47
526.25	1241.23
526.61	1258.65
526.97	1276.42
527.33	1294.00
527.68	1311.58
528.04	1329.05
528.40	1346.53
528.76	1364.72
529.12	1382.42
529.48	1400.45
529.84	1417.66
530.20	1435.45
530.56	1453.56
530.91	1471.98
531.27	1490.07
531.63	1507.71
531.99	1525.34
532.35	1542.78
532.71	1559.91
533.07	1577.51
533.42	1594.60
533.78	1611.90
534.14	1629.29
534.50	1645.80
534.86	1662.90
535.21	1679.35
535.57	1696.57
535.93	1713.46
536.29	1729.50
536.65	1745.73
537.00	1761.73
537.36	1778.47
537.72	1794.34
538.08	1810.21
538.44	1825.38
538.79	1840.52
539.15	1855.49
539.51	1870.68
539.87	1886.31
540.22	1901.41
540.58	1916.47
540.94	1931.11
541.29	1945.39
541.65	1959.64
542.01	1974.34
542.37	1987.94
542.72	2001.80
543.08	2015.08
543.44	2029.13
543.79	2041.97
544.15	2054.39
544.51	2067.50
544.87	2079.73
545.22	2091.97
545.58	2103.53
545.94	2114.73
546.29	2126.22
546.65	2137.59
547.01	2148.35
547.36	2158.35
547.72	2168.36
548.07	2177.88
548.43	2187.58
548.79	2196.84
549.14	2205.85
549.50	2214.42
549.86	2223.60
550.21	2232.34
550.57	2240.87
550.92	2248.80
551.28	2257.12
551.64	2265.68
551.99	2273.50
552.35	2281.10
552.70	2288.51
553.06	2295.95
553.41	2303.66
553.77	2310.78
554.13	2317.98
554.48	2325.34
554.84	2332.28
555.19	2338.61
555.55	2344.95
555.90	2350.68
556.26	2357.00
556.61	2362.92
556.97	2368.65
557.32	2373.97
557.68	2379.24
558.03	2384.62
558.39	2389.25
558.74	2394.93
559.10	2399.94
559.45	2404.60
559.81	2409.92
560.16	2414.87
560.52	2419.09
560.87	2423.60
561.23	2427.34
561.58	2431.26
561.94	2434.93
562.29	2438.00
562.64	2442.08
563.00	2445.53
563.35	2450.06
563.71	2454.10
564.06	2457.97
564.42	2461.81
564.77	2465.40
565.12	2468.76
565.48	2471.67
565.83	2474.52
566.19	2476.99
566.54	2478.59
566.89	2480.82
567.25	2482.38
567.60	2484.32
567.96	2486.93
568.31	2488.38
568.66	2490.31
569.02	2491.64
569.37	2492.59
569.72	2494.35
570.08	2495.01
570.43	2495.76
570.78	2495.69
571.14	2494.75
571.49	2494.12
571.84	2494.18
572.20	2493.46
572.55	2492.69
572.90	2491.46
573.26	2490.49
573.61	2488.92
573.96	2487.65
574.31	2484.86
574.67	2482.13
575.02	2478.96
575.37	2475.72
575.72	2472.30
576.08	2468.95
576.43	2465.70
576.78	2462.29
577.13	2458.98
577.49	2455.74
577.84	2452.48
578.19	2448.82
578.54	2445.43
578.90	2441.40
579.25	2435.87
579.60	2430.98
579.95	2426.15
580.30	2420.95
580.66	2415.83
581.01	2410.77
581.36	2405.74
581.71	2401.62
582.06	2397.19
582.42	2392.66
582.77	2387.22
583.12	2382.66
583.47	2378.15
583.82	2373.30
584.17	2368.04
584.53	2362.55
584.88	2356.93
585.23	2350.84
585.58	2345.14
585.93	2339.23
586.28	2333.90
586.63	2328.71
586.98	2323.32
587.34	2318.20
587.69	2313.10
588.04	2307.67
588.39	2301.77
588.74	2294.84
589.09	2288.26
589.44	2281.10
589.79	2274.47
590.14	2268.51
590.49	2261.34
590.84	2254.22
591.19	2247.73
591.54	2240.64
591.89	2232.97
592.25	2225.86
592.60	2218.18
592.95	2210.17
593.30	2202.27
593.65	2194.23
594.00	2186.48
594.35	2178.64
594.70	2169.69
595.05	2162.16
595.40	2154.03
595.75	2146.03
596.10	2139.39
596.45	2132.10
596.80	2125.27
597.15	2118.23
597.50	2110.77
597.85	2103.76
598.19	2096.58
598.54	2089.23
598.89	2082.10
599.24	2075.60
599.59	2068.54
599.94	2061.74
600.29	2054.73
600.64	2047.43
600.99	2039.39
601.34	2031.99
601.69	2024.22
602.04	2017.02
602.39	2008.86
602.74	2001.51
603.08	1994.18
603.43	1986.70
603.78	1978.71
604.13	1970.75
604.48	1962.89
604.83	1955.34
605.18	1947.88
605.53	1939.19
605.87	1930.22
606.22	1922.20
606.57	1913.30
606.92	1904.68
607.27	1896.71
607.62	1889.08
607.96	1881.17
608.31	1874.01
608.66	1865.73
609.01	1857.49
609.36	1849.23
609.70	1840.39
610.05	1831.44
610.40	1822.86
610.75	1813.74
611.10	1805.31
611.44	1796.03
611.79	1787.01
612.14	1777.23
612.49	1766.95
612.83	1757.70
613.18	1748.44
613.53	1739.31
613.88	1729.89
614.22	1720.72
614.57	1711.13
614.92	1702.11
615.27	1693.92
615.61	1684.60
615.96	1675.51
616.31	1666.96
616.65	1658.51
617.00	1650.13
617.35	1641.51
617.70	1632.29
618.04	1622.87
618.39	1613.47
618.74	1605.06
619.08	1595.79
619.43	1587.42
619.78	1579.61
620.12	1571.68
620.47	1563.37
620.82	1554.13
621.16	1545.67
621.51	1537.11
621.85	1528.45
622.20	1519.10
622.55	1509.54
622.89	1500.83
623.24	1492.24
623.59	1483.86
623.93	1475.45
624.28	1467.30
624.62	1459.01
624.97	1450.88
625.32	1443.06
625.66	1435.19
626.01	1427.10
626.35	1419.00
626.70	1410.27
627.04	1401.66
627.39	1392.78
627.73	1384.45
628.08	1376.71
628.43	1368.69
628.77	1360.59
629.12	1352.28
629.46	1344.23
629.81	1335.74
630.15	1327.41
630.50	1319.19
630.84	1310.05
631.19	1301.06
631.53	1292.53
631.88	1283.97
632.22	1275.28
632.57	1267.09
632.91	1258.65
633.26	1250.39
633.60	1241.91
633.95	1233.79
634.29	1225.78
634.64	1218.25
634.98	1209.97
635.32	1202.06
635.67	1194.68
636.01	1187.26
636.36	1179.70
636.70	1172.30
637.05	1165.18
637.39	1157.98
637.73	1150.75
638.08	1144.23
638.42	1137.69
638.77	1130.56
639.11	1123.32
639.45	1116.30
639.80	1108.99
640.14	1101.95
640.49	1094.61
640.83	1087.65
641.17	1080.98
641.52	1074.02
641.86	1066.84
642.20	1060.48
642.55	1053.34
642.89	1046.18
643.23	1038.79
643.58	1032.34
643.92	1025.57
644.26	1018.90
644.61	1012.18
644.95	1005.45
645.29	998.23
645.64	990.83
645.98	983.82
646.32	977.19
646.66	970.56
647.01	964.19
647.35	957.89
647.69	951.34
648.04	945.25
648.38	938.78
648.72	932.26
649.06	925.69
649.41	919.08
649.75	912.62
650.09	906.03
650.43	899.70
650.78	892.92
651.12	886.22
651.46	879.82
651.80	873.63
652.14	867.66
652.49	861.78
652.83	855.99
653.17	849.80
653.51	843.64
653.85	837.61
654.20	831.37
654.54	824.74
654.88	818.47
655.22	811.90
655.56	805.52
655.90	799.42
656.25	793.58
656.59	787.74
656.93	782.04
657.27	776.39
657.61	770.39
657.95	764.76
658.29	759.21
658.64	753.39
658.98	747.45
659.32	741.44
659.66	735.66
660.00	729.88
660.34	724.37
660.68	718.85
661.02	713.28
661.36	708.11
661.70	703.16
662.05	698.43
662.39	693.72
662.73	688.82
663.07	683.98
663.41	679.11
663.75	674.14
664.09	669.11
664.43	664.19
664.77	659.68
665.11	655.04
665.45	650.47
665.79	646.04
666.13	641.55
666.47	637.05
666.81	632.45
667.15	627.86
667.49	623.51
667.83	619.28
668.17	614.96
668.51	610.48
668.85	606.04
669.19	601.62
669.53	597.41
669.87	593.18
670.21	589.07
670.55	585.01
670.89	581.19
671.23	577.46
671.57	573.62
671.91	569.74
672.25	565.79
672.58	561.92
672.92	558.10
673.26	554.58
673.60	551.08
673.94	547.69
674.28	544.48
674.62	541.26
674.96	537.88
675.30	534.69
675.64	531.48
675.97	528.41
676.31	525.32
676.65	522.05
676.99	518.97
677.33	515.82
677.67	512.75
678.01	509.39
678.34	506.13
678.68	502.90
679.02	499.80
679.36	496.79
679.70	493.78
680.04	490.75
680.37	487.55
680.71	484.47
681.05	481.48
681.39	478.46
681.73	475.45
682.06	472.67
682.40	469.88
682.74	467.05
683.08	464.18
683.42	461.35
683.75	458.65
684.09	455.86
684.43	453.11
684.77	450.35
685.10	447.74
685.44	445.14
685.78	442.63
686.12	440.09
686.45	437.52
686.79	435.03
687.13	432.55
687.46	430.14
687.80	427.76
688.14	425.27
688.48	423.01
688.81	420.65
689.15	418.25
689.49	415.80
689.82	413.47
690.16	411.17
690.50	408.94
690.83	406.75
691.17	404.55
691.51	402.43
691.84	400.38
692.18	398.31
692.52	396.17
692.85	393.96
693.19	391.93
693.52	389.89
693.86	387.79
694.20	385.83
694.53	383.86
694.87	381.80
695.21	379.86
695.54	377.83
695.88	375.91
696.21	374.01
696.55	372.19
696.88	370.34
697.22	368.45
697.56	366.61
697.89	364.73
698.23	362.99
698.56	361.19
698.90	359.46
699.23	357.64
699.57	355.92
699.90	354.25
700.24	352.53
700.58	350.83
700.91	349.20
701.25	347.56
701.58	346.05
701.92	344.57
702.25	343.09
702.59	341.55
702.92	340.04
703.26	338.55
703.59	337.11
703.93	335.82
704.26	334.50
704.60	333.10
704.93	331.73
705.26	330.31
705.60	328.98
705.93	327.67
706.27	326.47
706.60	325.27
706.94	324.02
707.27	322.74
707.61	321.58
707.94	320.46
708.27	319.19
708.61	317.97
708.94	316.81
709.28	315.66
709.61	314.61
709.94	313.53
710.28	312.40
710.61	311.31
710.95	310.05
711.28	308.99
711.61	307.93
711.95	306.89
712.28	305.85
712.61	304.81
712.95	303.75
713.28	302.72
713.61	301.72
713.95	300.80
714.28	299.88
714.61	298.91
714.95	297.98
715.28	297.13
715.61	296.18
715.95	295.23
716.28	294.32
716.61	293.41
716.95	292.49
717.28	291.65
717.61	290.81
717.94	290.04
718.28	289.16
718.61	288.36
718.94	287.58
719.27	286.83
719.61	286.09
719.94	285.34
720.27	284.58
720.60	283.84
720.94	283.13
721.27	282.45
721.60	281.80
721.93	281.11
722.27	280.47
722.60	279.86
722.93	279.24
723.26	278.59
723.59	277.96
723.93	277.37
724.26	276.74
724.59	276.09
724.92	275.50
725.25	274.97
725.59	274.37
725.92	273.84
726.25	273.26
726.58	272.72
726.91	272.16
727.24	271.63
727.57	271.08
727.91	270.48
728.24	269.94
728.57	269.40
728.90	268.89
729.23	268.32
729.56	267.80
729.89	267.26
730.22	266.77
730.55	266.25
730.89	265.76
731.22	265.29
731.55	264.84
731.88	264.34
732.21	263.81
732.54	263.33
732.87	262.81
733.20	262.39
733.53	261.97
733.86	261.55
734.19	261.13
734.52	260.74
734.85	260.40
735.18	259.92
735.51	259.50
735.84	259.10
736.17	258.73
736.50	258.30
736.83	258.03
737.16	257.66
737.49	257.28
737.82	256.91
738.15	256.55
738.48	256.17
738.81	255.83
739.14	255.48
739.47	255.15
739.80	254.82
740.13	254.48
740.46	254.10
740.79	253.76
741.12	253.40
741.45	253.03
741.78	252.66
742.11	252.39
742.44	252.04
742.77	251.75
743.10	251.41
743.43	251.10
743.75	250.69
744.08	250.50
744.41	250.17
744.74	249.90
745.07	249.59
745.40	249.33
745.73	249.01
746.06	248.70
746.39	248.39
746.71	248.08
747.04	247.78
747.37	247.48
747.70	247.20
748.03	246.94
748.36	246.75
748.68	246.52
749.01	246.20
749.34	245.97
749.67	245.67
750.00	245.42
750.33	245.23
750.65	244.97
750.98	244.59
751.31	244.36
751.64	244.08
751.97	243.87
752.29	243.60
752.62	243.38
752.95	243.17
753.28	242.94
753.60	242.73
753.93	242.55
754.26	242.37
754.59	242.17
754.91	241.96
755.24	241.68
755.57	241.46
755.90	241.29
756.22	241.06
756.55	240.87
756.88	240.62
757.20	240.35
757.53	240.16
757.86	239.99
758.19	239.81
758.51	239.63
758.84	239.37
759.17	239.19
759.49	238.99
759.82	238.81
760.15	238.62
760.47	238.48
760.80	238.25
761.13	238.05
761.45	237.84
761.78	237.65
762.11	237.50
762.43	237.29
762.76	237.14
763.08	237.03
763.41	236.87
763.74	236.74
764.06	236.59
764.39	236.40
764.71	236.26
765.04	236.12
765.37	235.97
765.69	235.87
766.02	235.73
766.34	235.60
766.67	235.49
767.00	235.42
767.32	235.31
767.65	235.26
767.97	235.14
768.30	235.07
768.62	234.95
768.95	234.80
769.27	234.65
769.60	234.52
769.92	234.34
770.25	234.24
770.57	234.10
770.90	234.02
771.22	233.94
771.55	233.82
771.87	233.69
772.20	233.56
772.52	233.53
772.85	233.53
773.17	233.42
773.50	233.31
773.82	233.21
774.15	233.08
774.47	232.89
774.80	232.76
775.12	232.64
775.45	232.56
775.77	232.49
776.09	232.46
776.42	232.35
776.74	232.27
777.07	232.19
777.39	232.13
777.72	232.04
778.04	231.94
778.36	231.84
778.69	231.78
779.01	231.75
779.33	231.59
779.66	231.43
779.98	231.39
780.31	231.30
780.63	231.24
780.95	231.19
781.28	231.14
781.60	231.10
781.92	231.03
782.25	230.96
782.57	230.87
782.89	230.80
783.22	230.73
783.54	230.69
783.86	230.59
784.19	230.53
784.51	230.50
784.83	230.45
785.16	230.41
785.48	230.36
785.80	230.30
786.12	230.23
786.45	230.16
786.77	230.11
