SpectraSuite Data File
++++++++++++++++++++++++++++++++++++
Date: Fri Feb 01 15:55:40 EST 2013
User: group
Dark Spectrum Present: No
Reference Spectrum Present: No
Number of Sampled Component Spectra: 1
Spectrometers: USB2E7196
Integration Time (usec): 35000 (USB2E7196)
Spectra Averaged: 100 (USB2E7196)
Boxcar Smoothing: 10 (USB2E7196)
Correct for Electrical Dark: No (USB2E7196)
Strobe/Lamp Enabled: No (USB2E7196)
Correct for Detector Non-linearity: No (USB2E7196)
Correct for Stray Light: No (USB2E7196)
Number of Pixels in Processed Spectrum: 2048
>>>>>Begin Processed Spectral Data<<<<<
339.09	0.00
339.48	214.10
339.86	215.45
340.24	218.07
340.63	219.06
341.01	222.00
341.39	221.62
341.78	223.46
342.16	224.50
342.54	224.23
342.93	213.04
343.31	223.79
343.69	224.34
344.07	224.82
344.46	225.22
344.84	225.61
345.22	225.83
345.60	226.10
345.99	226.27
346.37	226.41
346.75	226.55
347.13	226.63
347.52	226.69
347.90	226.72
348.28	226.76
348.66	226.84
349.05	226.84
349.43	226.89
349.81	226.95
350.19	227.01
350.57	227.06
350.96	227.16
351.34	227.25
351.72	227.35
352.10	227.46
352.48	227.53
352.87	227.57
353.25	227.63
353.63	227.64
354.01	227.71
354.39	227.76
354.77	227.81
355.15	227.89
355.54	227.94
355.92	227.95
356.30	228.03
356.68	228.15
357.06	228.25
357.44	228.31
357.82	228.38
358.20	228.44
358.58	228.50
358.97	228.58
359.35	228.65
359.73	228.75
360.11	228.81
360.49	228.85
360.87	228.88
361.25	228.92
361.63	229.01
362.01	229.02
362.39	229.07
362.77	229.11
363.15	229.12
363.53	229.15
363.91	229.21
364.29	229.18
364.67	229.06
365.05	229.07
365.43	229.09
365.81	229.12
366.19	229.16
366.57	229.16
366.95	229.17
367.33	229.12
367.71	229.10
368.09	229.09
368.47	229.10
368.85	229.08
369.23	229.11
369.61	229.05
369.99	229.07
370.37	229.05
370.75	229.05
371.13	228.99
371.51	228.94
371.89	228.89
372.27	228.84
372.65	228.79
373.03	228.73
373.41	228.67
373.78	228.59
374.16	228.46
374.54	228.38
374.92	228.26
375.30	228.20
375.68	228.11
376.06	228.05
376.44	227.98
376.82	227.96
377.19	227.87
377.57	227.80
377.95	227.70
378.33	227.59
378.71	227.48
379.09	227.44
379.47	227.40
379.84	227.34
380.22	227.30
380.60	227.28
380.98	227.19
381.36	227.09
381.73	227.04
382.11	227.00
382.49	226.98
382.87	226.94
383.25	226.87
383.62	226.92
384.00	226.84
384.38	226.80
384.76	226.73
385.13	226.75
385.51	226.72
385.89	226.67
386.27	226.66
386.64	226.63
387.02	226.58
387.40	226.51
387.78	226.46
388.15	226.41
388.53	226.36
388.91	226.37
389.29	226.36
389.66	226.34
390.04	226.31
390.42	226.29
390.79	226.26
391.17	226.26
391.55	226.13
391.92	226.12
392.30	226.09
392.68	226.06
393.05	226.02
393.43	226.02
393.81	226.03
394.18	226.01
394.56	226.03
394.94	226.04
395.31	226.09
395.69	226.14
396.06	226.23
396.44	226.25
396.82	226.25
397.19	226.34
397.57	226.35
397.95	226.43
398.32	226.47
398.70	226.52
399.07	226.64
399.45	226.69
399.82	226.79
400.20	226.84
400.58	226.94
400.95	226.97
401.33	227.05
401.70	227.19
402.08	227.29
402.45	227.37
402.83	227.51
403.20	227.58
403.58	227.68
403.95	227.79
404.33	227.93
404.71	228.06
405.08	228.22
405.46	228.40
405.83	228.53
406.21	228.71
406.58	228.84
406.96	229.00
407.33	229.22
407.70	229.39
408.08	229.69
408.45	229.92
408.83	230.18
409.20	230.39
409.58	230.57
409.95	230.85
410.33	231.12
410.70	231.33
411.08	231.65
411.45	231.97
411.82	232.27
412.20	232.65
412.57	233.10
412.95	233.38
413.32	233.75
413.69	234.18
414.07	234.58
414.44	235.09
414.82	235.55
415.19	236.10
415.56	236.66
415.94	237.19
416.31	237.81
416.68	238.44
417.06	239.19
417.43	239.91
417.81	240.64
418.18	241.42
418.55	242.31
418.93	243.17
419.30	244.06
419.67	244.97
420.04	245.93
420.42	246.85
420.79	248.06
421.16	249.23
421.54	250.42
421.91	251.64
422.28	252.88
422.66	254.22
423.03	255.49
423.40	256.79
423.77	258.22
424.15	259.63
424.52	261.13
424.89	262.73
425.26	264.24
425.64	265.70
426.01	267.27
426.38	268.91
426.75	270.60
427.13	272.28
427.50	274.07
427.87	275.96
428.24	277.84
428.61	279.57
428.99	281.48
429.36	283.57
429.73	285.61
430.10	287.62
430.47	289.68
430.85	291.82
431.22	294.09
431.59	296.50
431.96	298.76
432.33	301.24
432.70	303.62
433.08	306.47
433.45	309.10
433.82	311.71
434.19	314.61
434.56	317.39
434.93	320.11
435.30	322.78
435.68	325.65
436.05	328.47
436.42	331.29
436.79	333.81
437.16	336.52
437.53	339.37
437.90	342.21
438.27	344.95
438.64	347.77
439.01	350.35
439.38	352.57
439.75	354.77
440.13	357.22
440.50	359.57
440.87	361.41
441.24	363.37
441.61	365.53
441.98	367.01
442.35	368.80
442.72	370.60
443.09	372.39
443.46	373.36
443.83	373.94
444.20	374.43
444.57	375.28
444.94	375.53
445.31	375.87
445.68	376.21
446.05	376.26
446.42	375.86
446.79	375.45
447.16	374.97
447.53	374.63
447.90	373.50
448.27	372.33
448.64	370.74
449.01	369.56
449.37	367.59
449.74	365.68
450.11	363.46
450.48	361.00
450.85	358.50
451.22	356.42
451.59	354.44
451.96	352.51
452.33	349.93
452.70	347.59
453.07	344.77
453.43	341.88
453.80	339.13
454.17	336.45
454.54	333.91
454.91	331.17
455.28	328.47
455.65	325.97
456.02	323.53
456.38	321.37
456.75	318.75
457.12	316.51
457.49	314.28
457.86	312.09
458.23	310.24
458.59	308.17
458.96	306.05
459.33	304.15
459.70	302.24
460.07	300.74
460.43	299.03
460.80	297.42
461.17	295.96
461.54	294.44
461.91	292.97
462.27	291.54
462.64	290.28
463.01	288.93
463.38	287.61
463.74	286.24
464.11	285.07
464.48	284.04
464.85	282.92
465.21	282.07
465.58	281.15
465.95	280.07
466.32	279.15
466.68	278.28
467.05	277.37
467.42	276.53
467.78	275.60
468.15	274.71
468.52	274.05
468.88	273.17
469.25	272.43
469.62	271.84
469.98	271.18
470.35	270.57
470.72	269.96
471.08	269.32
471.45	268.79
471.82	268.25
472.18	267.65
472.55	267.22
472.92	266.73
473.28	266.26
473.65	265.78
474.02	265.36
474.38	264.99
474.75	264.71
475.11	264.34
475.48	264.05
475.85	263.78
476.21	263.54
476.58	263.38
476.94	263.26
477.31	263.08
477.67	262.92
478.04	262.81
478.41	262.77
478.77	262.78
479.14	262.70
479.50	262.71
479.87	262.76
480.23	262.84
480.60	262.87
480.96	262.97
481.33	263.20
481.69	263.35
482.06	263.52
482.42	263.70
482.79	263.96
483.15	264.27
483.52	264.69
483.88	265.00
484.25	265.40
484.61	265.81
484.98	266.31
485.34	266.88
485.71	267.46
486.07	268.06
486.44	268.67
486.80	269.42
487.17	270.14
487.53	270.97
487.90	271.85
488.26	272.81
488.62	273.81
488.99	274.76
489.35	275.85
489.72	276.99
490.08	278.22
490.44	279.49
490.81	280.83
491.17	282.16
491.54	283.68
491.90	285.21
492.26	286.86
492.63	288.58
492.99	290.32
493.36	292.27
493.72	294.32
494.08	296.47
494.45	298.69
494.81	301.06
495.17	303.51
495.54	306.08
495.90	308.79
496.26	311.62
496.63	314.62
496.99	317.73
497.35	321.01
497.72	324.43
498.08	327.88
498.44	331.56
498.80	335.52
499.17	339.52
499.53	343.73
499.89	348.10
500.26	352.59
500.62	357.27
500.98	362.22
501.34	367.30
501.71	372.56
502.07	377.99
502.43	383.62
502.79	389.54
503.16	395.60
503.52	401.80
503.88	408.21
504.24	414.89
504.60	421.77
504.97	428.81
505.33	436.13
505.69	443.92
506.05	451.70
506.41	459.57
506.78	467.80
507.14	476.22
507.50	484.94
507.86	494.03
508.22	503.26
508.59	512.46
508.95	522.00
509.31	531.85
509.67	541.97
510.03	552.22
510.39	562.69
510.75	573.51
511.12	584.52
511.48	595.77
511.84	607.16
512.20	618.69
512.56	630.68
512.92	642.79
513.28	655.09
513.64	667.53
514.00	680.25
514.37	693.08
514.73	706.15
515.09	719.11
515.45	732.37
515.81	745.92
516.17	759.92
516.53	773.99
516.89	788.13
517.25	802.32
517.61	816.73
517.97	831.12
518.33	845.44
518.69	860.27
519.05	875.28
519.41	890.37
519.77	905.95
520.13	921.38
520.49	936.79
520.85	952.18
521.21	968.01
521.57	984.24
521.93	1000.00
522.29	1016.36
522.65	1032.71
523.01	1048.86
523.37	1064.89
523.73	1081.02
524.09	1097.20
524.45	1113.50
524.81	1130.17
525.17	1146.97
525.53	1163.91
525.89	1180.86
526.25	1197.55
526.61	1213.85
526.97	1230.58
527.33	1246.97
527.68	1263.64
528.04	1280.15
528.40	1296.68
528.76	1313.64
529.12	1330.14
529.48	1346.96
529.84	1362.94
530.20	1379.50
530.56	1396.58
530.91	1413.91
531.27	1430.66
531.63	1447.12
531.99	1463.62
532.35	1479.45
532.71	1495.33
533.07	1511.56
533.42	1527.45
533.78	1543.40
534.14	1559.63
534.50	1574.98
534.86	1590.77
535.21	1605.75
535.57	1621.57
535.93	1637.05
536.29	1651.78
536.65	1666.91
537.00	1681.80
537.36	1697.07
537.72	1711.64
538.08	1725.95
538.44	1739.75
538.79	1753.57
539.15	1767.18
539.51	1780.91
539.87	1795.27
540.22	1809.00
540.58	1822.70
540.94	1835.97
541.29	1848.89
541.65	1861.45
542.01	1874.71
542.37	1887.00
542.72	1899.49
543.08	1911.35
543.44	1923.76
543.79	1934.87
544.15	1945.79
544.51	1957.26
544.87	1968.32
545.22	1979.08
545.58	1989.34
545.94	1999.01
546.29	2008.85
546.65	2018.55
547.01	2027.89
547.36	2036.52
547.72	2045.01
548.07	2052.82
548.43	2061.06
548.79	2069.15
549.14	2076.76
549.50	2084.06
549.86	2091.74
550.21	2098.96
550.57	2105.99
550.92	2112.53
551.28	2119.66
551.64	2126.64
551.99	2133.22
552.35	2139.32
552.70	2145.42
553.06	2151.23
553.41	2157.59
553.77	2163.69
554.13	2169.82
554.48	2175.98
554.84	2181.52
555.19	2186.74
555.55	2191.99
555.90	2196.33
556.26	2201.14
556.61	2205.84
556.97	2210.08
557.32	2214.23
557.68	2218.45
558.03	2222.78
558.39	2226.58
558.74	2231.23
559.10	2235.20
559.45	2238.76
559.81	2243.00
560.16	2246.81
560.52	2250.16
560.87	2253.51
561.23	2256.07
561.58	2259.02
561.94	2261.39
562.29	2263.75
562.64	2266.43
563.00	2268.91
563.35	2272.47
563.71	2275.52
564.06	2278.79
564.42	2281.70
564.77	2284.21
565.12	2286.47
565.48	2288.30
565.83	2290.03
566.19	2291.34
566.54	2292.21
566.89	2293.39
567.25	2293.98
567.60	2295.37
567.96	2297.10
568.31	2298.13
568.66	2299.16
569.02	2299.80
569.37	2300.12
569.72	2300.87
570.08	2301.00
570.43	2301.18
570.78	2300.48
571.14	2298.99
571.49	2297.79
571.84	2297.50
572.20	2296.32
572.55	2295.17
572.90	2293.68
573.26	2292.34
573.61	2290.63
573.96	2288.77
574.31	2285.75
574.67	2282.76
575.02	2279.19
575.37	2275.97
575.72	2272.18
576.08	2268.97
576.43	2265.61
576.78	2262.03
577.13	2258.84
577.49	2255.68
577.84	2252.05
578.19	2248.34
578.54	2244.77
578.90	2240.42
579.25	2234.84
579.60	2229.97
579.95	2225.05
580.30	2220.13
580.66	2215.01
581.01	2210.12
581.36	2205.32
581.71	2201.03
582.06	2196.49
582.42	2191.92
582.77	2186.49
583.12	2181.87
583.47	2177.11
583.82	2172.18
584.17	2166.89
584.53	2161.45
584.88	2155.89
585.23	2150.14
585.58	2144.71
585.93	2139.12
586.28	2134.28
586.63	2129.26
586.98	2124.15
587.34	2119.45
587.69	2114.50
588.04	2109.16
588.39	2103.35
588.74	2096.90
589.09	2090.97
589.44	2084.25
589.79	2078.35
590.14	2072.75
590.49	2066.09
590.84	2059.73
591.19	2053.58
591.54	2047.16
591.89	2039.79
592.25	2033.02
592.60	2025.71
592.95	2018.12
593.30	2010.86
593.65	2003.30
594.00	1996.30
594.35	1989.16
594.70	1981.15
595.05	1973.94
595.40	1966.71
595.75	1959.32
596.10	1953.07
596.45	1946.22
596.80	1940.05
597.15	1933.20
597.50	1926.00
597.85	1919.65
598.19	1913.02
598.54	1905.95
598.89	1899.25
599.24	1893.50
599.59	1886.74
599.94	1880.67
600.29	1874.40
600.64	1867.86
600.99	1860.43
601.34	1853.54
601.69	1846.49
602.04	1839.69
602.39	1832.41
602.74	1825.58
603.08	1818.89
603.43	1812.25
603.78	1804.89
604.13	1797.65
604.48	1790.32
604.83	1783.47
605.18	1776.55
605.53	1768.51
605.87	1760.51
606.22	1753.34
606.57	1745.25
606.92	1738.10
607.27	1730.89
607.62	1723.85
607.96	1716.51
608.31	1709.85
608.66	1702.27
609.01	1694.74
609.36	1687.11
609.70	1678.99
610.05	1670.96
610.40	1663.27
610.75	1654.86
611.10	1647.25
611.44	1638.87
611.79	1631.08
612.14	1622.41
612.49	1613.20
612.83	1604.87
613.18	1596.78
613.53	1588.70
613.88	1580.22
614.22	1571.74
614.57	1563.19
614.92	1555.20
615.27	1547.60
615.61	1539.25
615.96	1531.18
616.31	1523.52
616.65	1516.11
617.00	1508.57
617.35	1500.92
617.70	1492.46
618.04	1483.97
618.39	1475.74
618.74	1468.17
619.08	1459.74
619.43	1452.16
619.78	1445.21
620.12	1438.08
620.47	1430.52
620.82	1422.28
621.16	1414.86
621.51	1407.36
621.85	1399.73
622.20	1391.17
622.55	1382.91
622.89	1375.23
623.24	1367.58
623.59	1360.17
623.93	1352.66
624.28	1345.55
624.62	1337.93
624.97	1330.78
625.32	1324.08
625.66	1317.18
626.01	1309.95
626.35	1302.54
626.70	1294.94
627.04	1287.21
627.39	1279.40
627.73	1272.05
628.08	1265.14
628.43	1257.86
628.77	1250.38
629.12	1242.75
629.46	1235.68
629.81	1228.28
630.15	1220.97
630.50	1213.56
630.84	1205.40
631.19	1197.48
631.53	1189.95
631.88	1182.46
632.22	1174.91
632.57	1167.56
632.91	1159.95
633.26	1152.60
633.60	1145.19
633.95	1138.02
634.29	1131.08
634.64	1124.38
634.98	1117.05
635.32	1109.86
635.67	1103.26
636.01	1096.74
636.36	1089.96
636.70	1083.42
637.05	1076.89
637.39	1070.44
637.73	1063.92
638.08	1058.04
638.42	1052.05
638.77	1045.52
639.11	1038.90
639.45	1032.61
639.80	1025.93
640.14	1019.52
640.49	1012.95
640.83	1006.72
641.17	1000.54
641.52	994.10
641.86	987.67
642.20	981.85
642.55	975.57
642.89	969.12
643.23	962.57
643.58	956.87
643.92	950.67
644.26	944.60
644.61	938.64
644.95	932.61
645.29	926.08
645.64	919.30
645.98	912.98
646.32	907.09
646.66	900.92
647.01	895.11
647.35	889.46
647.69	883.63
648.04	878.06
648.38	872.22
648.72	866.24
649.06	860.12
649.41	854.20
649.75	848.23
650.09	842.26
650.43	836.42
650.78	830.20
651.12	824.27
651.46	818.47
651.80	812.62
652.14	807.21
652.49	801.77
652.83	796.60
653.17	790.92
653.51	785.23
653.85	779.88
654.20	774.20
654.54	768.12
654.88	762.35
655.22	756.43
655.56	750.73
655.90	745.26
656.25	740.04
656.59	734.61
656.93	729.58
657.27	724.41
657.61	719.02
657.95	713.95
658.29	708.77
658.64	703.51
658.98	698.24
659.32	692.80
659.66	687.58
660.00	682.32
660.34	677.32
660.68	672.43
661.02	667.40
661.36	662.74
661.70	658.30
662.05	654.01
662.39	649.70
662.73	645.23
663.07	640.87
663.41	636.43
663.75	631.94
664.09	627.40
664.43	623.01
664.77	618.93
665.11	614.61
665.45	610.54
665.79	606.46
666.13	602.36
666.47	598.29
666.81	594.17
667.15	590.05
667.49	586.22
667.83	582.41
668.17	578.50
668.51	574.41
668.85	570.38
669.19	566.49
669.53	562.70
669.87	558.79
670.21	555.12
670.55	551.41
670.89	548.05
671.23	544.59
671.57	541.05
671.91	537.51
672.25	534.08
672.58	530.56
672.92	527.16
673.26	523.99
673.60	520.80
673.94	517.66
674.28	514.76
674.62	511.80
674.96	508.65
675.30	505.72
675.64	502.81
675.97	500.05
676.31	497.20
676.65	494.26
676.99	491.62
677.33	488.75
677.67	485.96
678.01	482.89
678.34	479.88
678.68	477.03
679.02	474.17
679.36	471.40
679.70	468.71
680.04	466.02
680.37	463.16
680.71	460.35
681.05	457.76
681.39	455.03
681.73	452.37
682.06	449.88
682.40	447.40
682.74	444.80
683.08	442.20
683.42	439.61
683.75	437.07
684.09	434.47
684.43	431.97
684.77	429.54
685.10	427.25
685.44	424.99
685.78	422.70
686.12	420.44
686.45	418.18
686.79	415.85
687.13	413.66
687.46	411.51
687.80	409.42
688.14	407.22
688.48	405.17
688.81	402.94
689.15	400.80
689.49	398.59
689.82	396.54
690.16	394.47
690.50	392.56
690.83	390.64
691.17	388.71
691.51	386.83
691.84	384.97
692.18	383.02
692.52	381.02
692.85	379.09
693.19	377.21
693.52	375.37
693.86	373.58
694.20	371.77
694.53	369.95
694.87	368.07
695.21	366.27
695.54	364.38
695.88	362.64
696.21	360.94
696.55	359.25
696.88	357.55
697.22	355.88
697.56	354.20
697.89	352.54
698.23	350.89
698.56	349.28
698.90	347.70
699.23	346.02
699.57	344.50
699.90	342.93
700.24	341.39
700.58	339.88
700.91	338.39
701.25	336.96
701.58	335.59
701.92	334.25
702.25	332.87
702.59	331.51
702.92	330.20
703.26	328.87
703.59	327.60
703.93	326.43
704.26	325.19
704.60	323.91
704.93	322.65
705.26	321.43
705.60	320.23
705.93	319.04
706.27	318.02
706.60	316.96
706.94	315.92
707.27	314.76
707.61	313.68
707.94	312.66
708.27	311.57
708.61	310.49
708.94	309.47
709.28	308.49
709.61	307.61
709.94	306.67
710.28	305.63
710.61	304.65
710.95	303.58
711.28	302.62
711.61	301.65
711.95	300.74
712.28	299.79
712.61	298.81
712.95	297.90
713.28	297.02
713.61	296.12
713.95	295.21
714.28	294.40
714.61	293.54
714.95	292.68
715.28	291.82
715.61	290.93
715.95	290.08
716.28	289.19
716.61	288.35
716.95	287.52
717.28	286.79
717.61	286.01
717.94	285.27
718.28	284.53
718.61	283.80
718.94	283.09
719.27	282.44
719.61	281.80
719.94	281.15
720.27	280.42
720.60	279.73
720.94	279.10
721.27	278.49
721.60	277.88
721.93	277.24
722.27	276.68
722.60	276.13
722.93	275.54
723.26	275.04
723.59	274.45
723.93	273.89
724.26	273.34
724.59	272.77
724.92	272.26
725.25	271.75
725.59	271.23
725.92	270.70
726.25	270.16
726.58	269.69
726.91	269.16
727.24	268.70
727.57	268.26
727.91	267.79
728.24	267.36
728.57	266.89
728.90	266.45
729.23	265.95
729.56	265.52
729.89	265.08
730.22	264.58
730.55	264.11
730.89	263.67
731.22	263.21
731.55	262.78
731.88	262.35
732.21	261.93
732.54	261.53
732.87	261.15
733.20	260.76
733.53	260.37
733.86	259.98
734.19	259.60
734.52	259.22
734.85	258.88
735.18	258.43
735.51	258.08
735.84	257.70
736.17	257.37
736.50	256.95
736.83	256.76
737.16	256.45
737.49	256.12
737.82	255.77
738.15	255.46
738.48	255.11
738.81	254.76
739.14	254.47
739.47	254.19
739.80	253.85
740.13	253.58
740.46	253.28
740.79	252.97
741.12	252.67
741.45	252.32
741.78	251.97
742.11	251.71
742.44	251.39
742.77	251.12
743.10	250.82
743.43	250.53
743.75	250.09
744.08	249.92
744.41	249.62
744.74	249.36
745.07	249.08
745.40	248.86
745.73	248.65
746.06	248.36
746.39	248.05
746.71	247.81
747.04	247.56
747.37	247.28
747.70	247.05
748.03	246.78
748.36	246.57
748.68	246.35
749.01	246.10
749.34	245.90
749.67	245.67
750.00	245.46
750.33	245.34
750.65	245.16
750.98	244.82
751.31	244.63
751.64	244.45
751.97	244.30
752.29	244.09
752.62	243.83
752.95	243.66
753.28	243.43
753.60	243.22
753.93	243.04
754.26	242.82
754.59	242.61
754.91	242.40
755.24	242.23
755.57	242.04
755.90	241.85
756.22	241.67
756.55	241.48
756.88	241.31
757.20	241.05
757.53	240.85
757.86	240.74
758.19	240.56
758.51	240.36
758.84	240.15
759.17	239.96
759.49	239.80
759.82	239.65
760.15	239.52
760.47	239.36
760.80	239.17
761.13	239.07
761.45	238.89
761.78	238.74
762.11	238.59
762.43	238.45
762.76	238.31
763.08	238.15
763.41	237.99
763.74	237.81
764.06	237.68
764.39	237.53
764.71	237.34
765.04	237.19
765.37	237.04
765.69	236.87
766.02	236.75
766.34	236.62
766.67	236.45
767.00	236.33
767.32	236.27
767.65	236.20
767.97	236.08
768.30	235.94
768.62	235.85
768.95	235.67
769.27	235.53
769.60	235.43
769.92	235.29
770.25	235.17
770.57	235.03
770.90	234.88
771.22	234.76
771.55	234.64
771.87	234.57
772.20	234.45
772.52	234.45
772.85	234.46
773.17	234.39
773.50	234.30
773.82	234.16
774.15	233.98
774.47	233.81
774.80	233.69
775.12	233.62
775.45	233.47
775.77	233.43
776.09	233.37
776.42	233.28
776.74	233.23
777.07	233.16
777.39	233.10
777.72	233.05
778.04	232.98
778.36	232.92
778.69	232.86
779.01	232.81
779.33	232.65
779.66	232.47
779.98	232.39
780.31	232.30
780.63	232.29
780.95	232.29
781.28	232.23
781.60	232.20
781.92	232.18
782.25	232.17
782.57	232.10
782.89	232.05
783.22	232.00
783.54	231.91
783.86	231.88
784.19	231.84
784.51	231.82
784.83	231.77
785.16	231.69
785.48	231.65
785.80	231.62
786.12	231.61
786.45	231.58
786.77	231.56
787.09	231.53
