SpectraSuite Data File
++++++++++++++++++++++++++++++++++++
Date: Fri Feb 01 17:02:50 EST 2013
User: group
Dark Spectrum Present: No
Reference Spectrum Present: No
Number of Sampled Component Spectra: 1
Spectrometers: USB2E7196
Integration Time (usec): 35000 (USB2E7196)
Spectra Averaged: 100 (USB2E7196)
Boxcar Smoothing: 10 (USB2E7196)
Correct for Electrical Dark: No (USB2E7196)
Strobe/Lamp Enabled: No (USB2E7196)
Correct for Detector Non-linearity: No (USB2E7196)
Correct for Stray Light: No (USB2E7196)
Number of Pixels in Processed Spectrum: 2048
>>>>>Begin Processed Spectral Data<<<<<
339.09	0.00
339.48	212.89
339.86	214.27
340.24	216.49
340.63	217.61
341.01	220.65
341.39	220.08
341.78	221.38
342.16	222.73
342.54	223.42
342.93	211.69
343.31	222.38
343.69	222.92
344.07	223.40
344.46	223.83
344.84	224.21
345.22	224.44
345.60	224.72
345.99	224.90
346.37	225.01
346.75	225.09
347.13	225.17
347.52	225.24
347.90	225.29
348.28	225.28
348.66	225.33
349.05	225.36
349.43	225.40
349.81	225.45
350.19	225.49
350.57	225.51
350.96	225.57
351.34	225.65
351.72	225.75
352.10	225.88
352.48	225.94
352.87	225.99
353.25	226.06
353.63	226.11
354.01	226.19
354.39	226.29
354.77	226.36
355.15	226.49
355.54	226.56
355.92	226.62
356.30	226.72
356.68	226.86
357.06	226.92
357.44	226.98
357.82	227.08
358.20	227.15
358.58	227.24
358.97	227.26
359.35	227.36
359.73	227.42
360.11	227.45
360.49	227.51
360.87	227.54
361.25	227.60
361.63	227.69
362.01	227.75
362.39	227.77
362.77	227.84
363.15	227.86
363.53	227.88
363.91	227.93
364.29	227.95
364.67	227.90
365.05	227.93
365.43	227.98
365.81	227.97
366.19	228.04
366.57	228.06
366.95	228.09
367.33	228.06
367.71	228.07
368.09	228.10
368.47	228.09
368.85	228.08
369.23	228.07
369.61	227.99
369.99	228.02
370.37	228.02
370.75	228.03
371.13	227.98
371.51	227.92
371.89	227.86
372.27	227.84
372.65	227.78
373.03	227.71
373.41	227.66
373.78	227.60
374.16	227.46
374.54	227.42
374.92	227.37
375.30	227.34
375.68	227.25
376.06	227.18
376.44	227.07
376.82	227.02
377.19	226.93
377.57	226.88
377.95	226.75
378.33	226.67
378.71	226.54
379.09	226.49
379.47	226.43
379.84	226.34
380.22	226.25
380.60	226.17
380.98	226.13
381.36	226.08
381.73	225.97
382.11	225.97
382.49	225.87
382.87	225.78
383.25	225.68
383.62	225.77
384.00	225.70
384.38	225.68
384.76	225.66
385.13	225.66
385.51	225.61
385.89	225.55
386.27	225.49
386.64	225.48
387.02	225.42
387.40	225.37
387.78	225.34
388.15	225.32
388.53	225.27
388.91	225.23
389.29	225.18
389.66	225.19
390.04	225.15
390.42	225.18
390.79	225.16
391.17	225.15
391.55	225.03
391.92	225.02
392.30	225.01
392.68	224.98
393.05	224.97
393.43	224.97
393.81	224.97
394.18	224.97
394.56	224.98
394.94	225.02
395.31	225.03
395.69	225.08
396.06	225.08
396.44	225.13
396.82	225.13
397.19	225.19
397.57	225.19
397.95	225.22
398.32	225.21
398.70	225.27
399.07	225.34
399.45	225.37
399.82	225.42
400.20	225.48
400.58	225.51
400.95	225.50
401.33	225.60
401.70	225.75
402.08	225.82
402.45	225.89
402.83	225.99
403.20	226.13
403.58	226.21
403.95	226.34
404.33	226.46
404.71	226.61
405.08	226.77
405.46	226.92
405.83	227.05
406.21	227.19
406.58	227.34
406.96	227.48
407.33	227.65
407.70	227.81
408.08	228.07
408.45	228.31
408.83	228.58
409.20	228.75
409.58	228.95
409.95	229.22
410.33	229.48
410.70	229.71
411.08	230.00
411.45	230.27
411.82	230.59
412.20	230.92
412.57	231.30
412.95	231.59
413.32	232.00
413.69	232.40
414.07	232.84
414.44	233.30
414.82	233.77
415.19	234.31
415.56	234.87
415.94	235.40
416.31	236.05
416.68	236.62
417.06	237.34
417.43	237.98
417.81	238.74
418.18	239.49
418.55	240.33
418.93	241.16
419.30	242.09
419.67	243.00
420.04	243.94
420.42	244.91
420.79	246.10
421.16	247.26
421.54	248.48
421.91	249.67
422.28	250.91
422.66	252.24
423.03	253.56
423.40	254.88
423.77	256.29
424.15	257.68
424.52	259.16
424.89	260.77
425.26	262.32
425.64	263.77
426.01	265.38
426.38	267.06
426.75	268.72
427.13	270.44
427.50	272.25
427.87	274.15
428.24	276.02
428.61	277.76
428.99	279.72
429.36	281.78
429.73	283.89
430.10	285.90
430.47	287.95
430.85	290.05
431.22	292.26
431.59	294.60
431.96	296.82
432.33	299.35
432.70	301.72
433.08	304.50
433.45	307.13
433.82	309.70
434.19	312.56
434.56	315.36
434.93	317.98
435.30	320.55
435.68	323.40
436.05	326.20
436.42	328.95
436.79	331.37
437.16	334.04
437.53	336.82
437.90	339.63
438.27	342.36
438.64	345.17
439.01	347.73
439.38	349.91
439.75	352.08
440.13	354.48
440.50	356.76
440.87	358.60
441.24	360.53
441.61	362.66
441.98	364.11
442.35	365.91
442.72	367.74
443.09	369.52
443.46	370.51
443.83	371.12
444.20	371.65
444.57	372.51
444.94	372.84
445.31	373.18
445.68	373.57
446.05	373.63
446.42	373.22
446.79	372.83
447.16	372.43
447.53	372.14
447.90	371.07
448.27	369.98
448.64	368.42
449.01	367.33
449.37	365.40
449.74	363.55
450.11	361.33
450.48	358.91
450.85	356.45
451.22	354.34
451.59	352.31
451.96	350.39
452.33	347.82
452.70	345.45
453.07	342.64
453.43	339.75
453.80	337.05
454.17	334.43
454.54	331.92
454.91	329.20
455.28	326.51
455.65	324.05
456.02	321.57
456.38	319.45
456.75	316.77
457.12	314.56
457.49	312.36
457.86	310.20
458.23	308.34
458.59	306.30
458.96	304.21
459.33	302.39
459.70	300.53
460.07	299.06
460.43	297.36
460.80	295.78
461.17	294.32
461.54	292.80
461.91	291.34
462.27	289.88
462.64	288.68
463.01	287.35
463.38	286.06
463.74	284.75
464.11	283.62
464.48	282.61
464.85	281.46
465.21	280.60
465.58	279.71
465.95	278.65
466.32	277.77
466.68	276.91
467.05	276.03
467.42	275.16
467.78	274.21
468.15	273.37
468.52	272.70
468.88	271.87
469.25	271.13
469.62	270.56
469.98	269.94
470.35	269.33
470.72	268.75
471.08	268.07
471.45	267.54
471.82	267.00
472.18	266.42
472.55	266.00
472.92	265.49
473.28	265.02
473.65	264.58
474.02	264.14
474.38	263.78
474.75	263.47
475.11	263.14
475.48	262.90
475.85	262.68
476.21	262.49
476.58	262.28
476.94	262.12
477.31	261.97
477.67	261.85
478.04	261.73
478.41	261.66
478.77	261.70
479.14	261.60
479.50	261.62
479.87	261.69
480.23	261.79
480.60	261.86
480.96	262.00
481.33	262.25
481.69	262.42
482.06	262.64
482.42	262.85
482.79	263.10
483.15	263.45
483.52	263.83
483.88	264.18
484.25	264.58
484.61	265.00
484.98	265.47
485.34	266.08
485.71	266.69
486.07	267.31
486.44	267.90
486.80	268.63
487.17	269.37
487.53	270.18
487.90	271.03
488.26	271.97
488.62	272.92
488.99	273.88
489.35	274.96
489.72	276.09
490.08	277.26
490.44	278.49
490.81	279.82
491.17	281.16
491.54	282.64
491.90	284.17
492.26	285.84
492.63	287.54
492.99	289.25
493.36	291.12
493.72	293.15
494.08	295.21
494.45	297.43
494.81	299.76
495.17	302.19
495.54	304.75
495.90	307.45
496.26	310.26
496.63	313.23
496.99	316.36
497.35	319.57
497.72	323.01
498.08	326.57
498.44	330.19
498.80	334.10
499.17	338.12
499.53	342.26
499.89	346.63
500.26	351.17
500.62	355.86
500.98	360.79
501.34	365.86
501.71	371.22
502.07	376.68
502.43	382.25
502.79	388.05
503.16	394.09
503.52	400.28
503.88	406.66
504.24	413.20
504.60	419.97
504.97	427.03
505.33	434.21
505.69	441.81
506.05	449.57
506.41	457.38
506.78	465.45
507.14	473.83
507.50	482.45
507.86	491.35
508.22	500.44
508.59	509.56
508.95	519.01
509.31	528.70
509.67	538.69
510.03	548.93
510.39	559.37
510.75	569.96
511.12	580.80
511.48	591.97
511.84	603.26
512.20	614.61
512.56	626.44
512.92	638.47
513.28	650.62
513.64	662.85
514.00	675.40
514.37	688.18
514.73	701.10
515.09	713.89
515.45	727.00
515.81	740.33
516.17	754.11
516.53	768.03
516.89	782.06
517.25	795.98
517.61	810.08
517.97	824.24
518.33	838.50
518.69	853.05
519.05	867.71
519.41	882.59
519.77	897.93
520.13	913.08
520.49	928.20
520.85	943.26
521.21	958.75
521.57	974.67
521.93	990.09
522.29	1006.13
522.65	1022.19
523.01	1038.06
523.37	1053.91
523.73	1069.69
524.09	1085.56
524.45	1101.36
524.81	1117.67
525.17	1134.12
525.53	1150.60
525.89	1167.05
526.25	1183.54
526.61	1199.60
526.97	1216.01
527.33	1232.12
527.68	1248.19
528.04	1264.29
528.40	1280.64
528.76	1297.39
529.12	1313.58
529.48	1330.16
529.84	1345.78
530.20	1362.02
530.56	1378.61
530.91	1395.52
531.27	1411.92
531.63	1427.91
531.99	1444.28
532.35	1459.89
532.71	1475.33
533.07	1491.37
533.42	1507.01
533.78	1522.72
534.14	1538.62
534.50	1553.66
534.86	1569.24
535.21	1584.27
535.57	1599.83
535.93	1614.99
536.29	1629.39
536.65	1644.04
537.00	1658.30
537.36	1673.30
537.72	1687.34
538.08	1701.47
538.44	1714.97
538.79	1728.57
539.15	1741.99
539.51	1755.24
539.87	1769.20
540.22	1782.69
540.58	1796.06
540.94	1808.94
541.29	1821.29
541.65	1833.69
542.01	1846.59
542.37	1858.46
542.72	1870.64
543.08	1882.20
543.44	1894.26
543.79	1905.30
544.15	1916.19
544.51	1927.70
544.87	1938.41
545.22	1949.10
545.58	1959.18
545.94	1968.77
546.29	1978.42
546.65	1988.02
547.01	1997.37
547.36	2005.93
547.72	2014.40
548.07	2022.29
548.43	2030.38
548.79	2038.34
549.14	2045.91
549.50	2053.10
549.86	2060.59
550.21	2067.68
550.57	2074.78
550.92	2081.41
551.28	2088.32
551.64	2095.23
551.99	2101.59
552.35	2107.78
552.70	2114.00
553.06	2119.83
553.41	2126.17
553.77	2132.09
554.13	2138.02
554.48	2143.99
554.84	2149.71
555.19	2154.81
555.55	2159.93
555.90	2164.53
556.26	2169.62
556.61	2174.20
556.97	2178.67
557.32	2182.96
557.68	2187.11
558.03	2191.42
558.39	2194.89
558.74	2199.56
559.10	2203.53
559.45	2207.25
559.81	2211.43
560.16	2215.30
560.52	2218.62
560.87	2222.05
561.23	2224.86
561.58	2227.89
561.94	2230.55
562.29	2232.80
562.64	2235.83
563.00	2238.42
563.35	2242.08
563.71	2245.05
564.06	2248.34
564.42	2251.28
564.77	2254.09
565.12	2256.69
565.48	2258.76
565.83	2260.90
566.19	2262.32
566.54	2263.28
566.89	2264.63
567.25	2265.55
567.60	2266.83
567.96	2268.74
568.31	2269.62
568.66	2271.09
569.02	2271.90
569.37	2272.32
569.72	2273.48
570.08	2273.76
570.43	2273.92
570.78	2273.48
571.14	2272.25
571.49	2271.05
571.84	2270.78
572.20	2269.80
572.55	2268.86
572.90	2267.32
573.26	2266.16
573.61	2264.55
573.96	2263.13
574.31	2260.39
574.67	2257.65
575.02	2254.17
575.37	2250.95
575.72	2247.65
576.08	2244.32
576.43	2241.23
576.78	2237.89
577.13	2234.73
577.49	2231.64
577.84	2228.50
578.19	2224.94
578.54	2221.66
578.90	2217.75
579.25	2212.38
579.60	2207.64
579.95	2203.04
580.30	2198.33
580.66	2193.38
581.01	2188.72
581.36	2183.96
581.71	2180.00
582.06	2175.87
582.42	2171.81
582.77	2166.88
583.12	2162.41
583.47	2158.14
583.82	2153.40
584.17	2148.40
584.53	2143.19
584.88	2137.88
585.23	2132.27
585.58	2126.87
585.93	2121.48
586.28	2116.84
586.63	2112.07
586.98	2107.20
587.34	2102.54
587.69	2097.82
588.04	2092.88
588.39	2087.58
588.74	2081.25
589.09	2075.18
589.44	2068.44
589.79	2062.47
590.14	2056.96
590.49	2050.56
590.84	2044.13
591.19	2038.21
591.54	2031.95
591.89	2024.83
592.25	2018.19
592.60	2011.13
592.95	2003.91
593.30	1996.93
593.65	1989.52
594.00	1982.73
594.35	1975.59
594.70	1967.55
595.05	1960.67
595.40	1953.56
595.75	1946.01
596.10	1940.18
596.45	1933.82
596.80	1927.91
597.15	1921.54
597.50	1914.82
597.85	1908.40
598.19	1901.87
598.54	1895.05
598.89	1888.45
599.24	1882.54
599.59	1876.15
599.94	1870.06
600.29	1863.89
600.64	1857.25
600.99	1850.11
601.34	1843.37
601.69	1836.40
602.04	1829.90
602.39	1822.72
602.74	1815.92
603.08	1809.51
603.43	1802.79
603.78	1795.36
604.13	1788.16
604.48	1781.14
604.83	1774.31
605.18	1767.82
605.53	1760.13
605.87	1752.20
606.22	1745.09
606.57	1737.31
606.92	1729.85
607.27	1722.90
607.62	1716.12
607.96	1709.13
608.31	1702.63
608.66	1695.26
609.01	1688.07
609.36	1680.61
609.70	1672.58
610.05	1664.77
610.40	1657.19
610.75	1648.92
611.10	1641.56
611.44	1633.19
611.79	1625.13
612.14	1616.46
612.49	1607.17
612.83	1598.76
613.18	1590.64
613.53	1582.67
613.88	1574.16
614.22	1565.96
614.57	1557.35
614.92	1549.36
615.27	1541.85
615.61	1533.66
615.96	1525.56
616.31	1517.80
616.65	1510.48
617.00	1503.03
617.35	1495.33
617.70	1487.06
618.04	1478.73
618.39	1470.46
618.74	1462.92
619.08	1454.68
619.43	1447.08
619.78	1440.21
620.12	1433.16
620.47	1425.80
620.82	1417.63
621.16	1410.24
621.51	1402.68
621.85	1395.15
622.20	1386.63
622.55	1378.26
622.89	1370.27
623.24	1362.65
623.59	1355.30
623.93	1347.78
624.28	1340.63
624.62	1333.13
624.97	1325.88
625.32	1319.06
625.66	1312.12
626.01	1305.13
626.35	1297.75
626.70	1290.17
627.04	1282.48
627.39	1274.61
627.73	1267.14
628.08	1260.16
628.43	1253.07
628.77	1245.82
629.12	1238.28
629.46	1231.13
629.81	1223.75
630.15	1216.61
630.50	1209.26
630.84	1201.20
631.19	1193.25
631.53	1185.60
631.88	1177.97
632.22	1170.29
632.57	1162.97
632.91	1155.39
633.26	1147.95
633.60	1140.50
633.95	1133.28
634.29	1126.14
634.64	1119.57
634.98	1112.25
635.32	1105.18
635.67	1098.48
636.01	1091.89
636.36	1085.11
636.70	1078.58
637.05	1071.98
637.39	1065.45
637.73	1058.98
638.08	1053.01
638.42	1047.06
638.77	1040.70
639.11	1034.32
639.45	1028.04
639.80	1021.37
640.14	1015.05
640.49	1008.54
640.83	1002.30
641.17	996.21
641.52	989.98
641.86	983.42
642.20	977.60
642.55	971.28
642.89	964.90
643.23	958.24
643.58	952.54
643.92	946.39
644.26	940.45
644.61	934.46
644.95	928.48
645.29	922.03
645.64	915.25
645.98	908.97
646.32	902.99
646.66	897.09
647.01	891.35
647.35	885.63
647.69	879.81
648.04	874.31
648.38	868.53
648.72	862.64
649.06	856.72
649.41	850.86
649.75	844.96
650.09	839.03
650.43	833.40
650.78	827.21
651.12	821.30
651.46	815.59
651.80	809.99
652.14	804.59
652.49	799.19
652.83	794.10
653.17	788.46
653.51	782.84
653.85	777.36
654.20	771.82
654.54	765.86
654.88	760.05
655.22	754.20
655.56	748.50
655.90	742.98
656.25	737.74
656.59	732.43
656.93	727.35
657.27	722.31
657.61	716.91
657.95	711.94
658.29	706.83
658.64	701.51
658.98	696.12
659.32	690.72
659.66	685.57
660.00	680.29
660.34	675.35
660.68	670.44
661.02	665.45
661.36	660.80
661.70	656.33
662.05	652.09
662.39	647.80
662.73	643.34
663.07	638.97
663.41	634.62
663.75	630.16
664.09	625.68
664.43	621.23
664.77	617.13
665.11	612.85
665.45	608.76
665.79	604.73
666.13	600.70
666.47	596.53
666.81	592.41
667.15	588.35
667.49	584.45
667.83	580.68
668.17	576.68
668.51	572.57
668.85	568.52
669.19	564.62
669.53	560.82
669.87	557.02
670.21	553.41
670.55	549.74
670.89	546.30
671.23	542.87
671.57	539.39
671.91	535.89
672.25	532.35
672.58	528.89
672.92	525.48
673.26	522.25
673.60	519.16
673.94	516.05
674.28	513.09
674.62	510.14
674.96	507.06
675.30	504.23
675.64	501.33
675.97	498.61
676.31	495.80
676.65	492.90
676.99	490.20
677.33	487.34
677.67	484.53
678.01	481.52
678.34	478.55
678.68	475.66
679.02	472.85
679.36	470.17
679.70	467.40
680.04	464.67
680.37	461.83
680.71	459.05
681.05	456.43
681.39	453.74
681.73	451.12
682.06	448.60
682.40	446.07
682.74	443.49
683.08	440.88
683.42	438.32
683.75	435.79
684.09	433.16
684.43	430.66
684.77	428.19
685.10	425.83
685.44	423.52
685.78	421.25
686.12	419.02
686.45	416.69
686.79	414.43
687.13	412.25
687.46	410.08
687.80	407.93
688.14	405.69
688.48	403.63
688.81	401.38
689.15	399.20
689.49	397.04
689.82	395.03
690.16	392.99
690.50	391.00
690.83	389.08
691.17	387.12
691.51	385.21
691.84	383.38
692.18	381.45
692.52	379.50
692.85	377.52
693.19	375.60
693.52	373.77
693.86	371.93
694.20	370.18
694.53	368.43
694.87	366.56
695.21	364.81
695.54	362.98
695.88	361.25
696.21	359.55
696.55	357.89
696.88	356.19
697.22	354.48
697.56	352.85
697.89	351.18
698.23	349.62
698.56	348.04
698.90	346.46
699.23	344.83
699.57	343.27
699.90	341.75
700.24	340.23
700.58	338.72
700.91	337.25
701.25	335.77
701.58	334.38
701.92	333.05
702.25	331.67
702.59	330.35
702.92	329.03
703.26	327.73
703.59	326.43
703.93	325.22
704.26	324.01
704.60	322.74
704.93	321.49
705.26	320.22
705.60	319.01
705.93	317.83
706.27	316.79
706.60	315.72
706.94	314.66
707.27	313.51
707.61	312.43
707.94	311.40
708.27	310.32
708.61	309.24
708.94	308.24
709.28	307.26
709.61	306.26
709.94	305.33
710.28	304.31
710.61	303.31
710.95	302.27
711.28	301.30
711.61	300.34
711.95	299.41
712.28	298.49
712.61	297.52
712.95	296.61
713.28	295.72
713.61	294.81
713.95	293.92
714.28	293.11
714.61	292.22
714.95	291.37
715.28	290.53
715.61	289.67
715.95	288.82
716.28	287.96
716.61	287.15
716.95	286.29
717.28	285.54
717.61	284.77
717.94	284.04
718.28	283.27
718.61	282.51
718.94	281.82
719.27	281.14
719.61	280.51
719.94	279.89
720.27	279.20
720.60	278.56
720.94	277.90
721.27	277.30
721.60	276.75
721.93	276.17
722.27	275.62
722.60	275.06
722.93	274.48
723.26	273.95
723.59	273.38
723.93	272.87
724.26	272.27
724.59	271.73
724.92	271.14
725.25	270.68
725.59	270.16
725.92	269.68
726.25	269.21
726.58	268.68
726.91	268.12
727.24	267.63
727.57	267.13
727.91	266.65
728.24	266.16
728.57	265.63
728.90	265.13
729.23	264.63
729.56	264.20
729.89	263.69
730.22	263.19
730.55	262.73
730.89	262.27
731.22	261.86
731.55	261.45
731.88	261.02
732.21	260.55
732.54	260.11
732.87	259.66
733.20	259.22
733.53	258.84
733.86	258.48
734.19	258.08
734.52	257.69
734.85	257.38
735.18	256.95
735.51	256.61
735.84	256.27
736.17	255.90
736.50	255.46
736.83	255.24
737.16	254.95
737.49	254.61
737.82	254.25
738.15	253.92
738.48	253.58
738.81	253.28
739.14	252.96
739.47	252.70
739.80	252.41
740.13	252.13
740.46	251.81
740.79	251.46
741.12	251.19
741.45	250.93
741.78	250.57
742.11	250.34
742.44	250.01
742.77	249.74
743.10	249.46
743.43	249.21
743.75	248.84
744.08	248.64
744.41	248.38
744.74	248.13
745.07	247.84
745.40	247.56
745.73	247.34
746.06	247.10
746.39	246.83
746.71	246.52
747.04	246.23
747.37	245.96
747.70	245.75
748.03	245.48
748.36	245.23
748.68	245.00
749.01	244.71
749.34	244.49
749.67	244.25
750.00	243.99
750.33	243.80
750.65	243.58
750.98	243.26
751.31	243.04
751.64	242.80
751.97	242.64
752.29	242.46
752.62	242.21
752.95	241.94
753.28	241.72
753.60	241.54
753.93	241.35
754.26	241.15
754.59	240.89
754.91	240.70
755.24	240.47
755.57	240.30
755.90	240.11
756.22	239.92
756.55	239.72
756.88	239.54
757.20	239.34
757.53	239.13
757.86	238.96
758.19	238.80
758.51	238.68
758.84	238.49
759.17	238.28
759.49	238.11
759.82	238.02
760.15	237.86
760.47	237.71
760.80	237.57
761.13	237.44
761.45	237.30
761.78	237.16
762.11	237.03
762.43	236.86
762.76	236.73
763.08	236.61
763.41	236.45
763.74	236.34
764.06	236.16
764.39	236.08
764.71	235.91
765.04	235.76
765.37	235.60
765.69	235.46
766.02	235.35
766.34	235.24
766.67	235.10
767.00	235.01
767.32	234.93
767.65	234.83
767.97	234.72
768.30	234.61
768.62	234.49
768.95	234.38
769.27	234.29
769.60	234.18
769.92	234.07
770.25	233.97
770.57	233.85
770.90	233.76
771.22	233.65
771.55	233.58
771.87	233.49
772.20	233.41
772.52	233.37
772.85	233.44
773.17	233.32
773.50	233.23
773.82	233.13
774.15	233.02
774.47	232.90
774.80	232.80
775.12	232.73
775.45	232.63
775.77	232.56
776.09	232.45
776.42	232.40
776.74	232.34
777.07	232.24
777.39	232.19
777.72	232.11
778.04	232.03
778.36	231.93
778.69	231.85
779.01	231.79
779.33	231.66
779.66	231.43
779.98	231.36
780.31	231.25
780.63	231.24
780.95	231.17
781.28	231.11
781.60	231.04
781.92	230.98
782.25	230.91
782.57	230.83
782.89	230.78
783.22	230.69
783.54	230.63
783.86	230.62
784.19	230.55
784.51	230.53
784.83	230.45
785.16	230.40
785.48	230.35
785.80	230.32
786.12	230.28
786.45	230.29
786.77	230.25
787.09	230.23
