SpectraSuite Data File
++++++++++++++++++++++++++++++++++++
Date: Fri Feb 01 15:17:39 EST 2013
User: group
Dark Spectrum Present: No
Reference Spectrum Present: No
Number of Sampled Component Spectra: 1
Spectrometers: USB2E7196
Integration Time (usec): 35000 (USB2E7196)
Spectra Averaged: 100 (USB2E7196)
Boxcar Smoothing: 10 (USB2E7196)
Correct for Electrical Dark: No (USB2E7196)
Strobe/Lamp Enabled: No (USB2E7196)
Correct for Detector Non-linearity: No (USB2E7196)
Correct for Stray Light: No (USB2E7196)
Number of Pixels in Processed Spectrum: 2048
>>>>>Begin Processed Spectral Data<<<<<
339.09	0.00
339.48	214.93
339.86	216.77
340.24	217.82
340.63	219.32
341.01	221.49
341.39	222.03
341.78	223.27
342.16	224.65
342.54	224.77
342.93	213.38
343.31	224.17
343.69	224.73
344.07	225.20
344.46	225.64
344.84	226.00
345.22	226.25
345.60	226.51
345.99	226.67
346.37	226.80
346.75	226.89
347.13	226.97
347.52	227.00
347.90	227.03
348.28	227.09
348.66	227.11
349.05	227.10
349.43	227.13
349.81	227.17
350.19	227.24
350.57	227.27
350.96	227.34
351.34	227.40
351.72	227.50
352.10	227.58
352.48	227.65
352.87	227.73
353.25	227.82
353.63	227.87
354.01	227.96
354.39	228.04
354.77	228.12
355.15	228.24
355.54	228.29
355.92	228.35
356.30	228.39
356.68	228.55
357.06	228.66
357.44	228.73
357.82	228.75
358.20	228.82
358.58	228.88
358.97	228.97
359.35	229.08
359.73	229.13
360.11	229.21
360.49	229.27
360.87	229.31
361.25	229.37
361.63	229.45
362.01	229.51
362.39	229.52
362.77	229.60
363.15	229.61
363.53	229.66
363.91	229.68
364.29	229.70
364.67	229.66
365.05	229.67
365.43	229.70
365.81	229.75
366.19	229.80
366.57	229.84
366.95	229.81
367.33	229.73
367.71	229.74
368.09	229.73
368.47	229.69
368.85	229.68
369.23	229.69
369.61	229.64
369.99	229.63
370.37	229.61
370.75	229.62
371.13	229.54
371.51	229.49
371.89	229.46
372.27	229.44
372.65	229.37
373.03	229.31
373.41	229.23
373.78	229.15
374.16	229.05
374.54	228.95
374.92	228.88
375.30	228.83
375.68	228.71
376.06	228.63
376.44	228.57
376.82	228.52
377.19	228.42
377.57	228.35
377.95	228.23
378.33	228.15
378.71	228.01
379.09	228.00
379.47	227.94
379.84	227.82
380.22	227.71
380.60	227.61
380.98	227.50
381.36	227.41
381.73	227.34
382.11	227.29
382.49	227.23
382.87	227.16
383.25	227.10
383.62	227.16
384.00	227.05
384.38	226.97
384.76	226.91
385.13	226.87
385.51	226.80
385.89	226.74
386.27	226.67
386.64	226.63
387.02	226.55
387.40	226.52
387.78	226.51
388.15	226.52
388.53	226.52
388.91	226.49
389.29	226.46
389.66	226.43
390.04	226.37
390.42	226.38
390.79	226.36
391.17	226.33
391.55	226.21
391.92	226.22
392.30	226.23
392.68	226.20
393.05	226.22
393.43	226.24
393.81	226.25
394.18	226.27
394.56	226.30
394.94	226.36
395.31	226.34
395.69	226.38
396.06	226.41
396.44	226.42
396.82	226.50
397.19	226.57
397.57	226.61
397.95	226.68
398.32	226.66
398.70	226.71
399.07	226.78
399.45	226.85
399.82	226.91
400.20	226.96
400.58	227.02
400.95	227.05
401.33	227.15
401.70	227.31
402.08	227.42
402.45	227.48
402.83	227.59
403.20	227.69
403.58	227.81
403.95	227.93
404.33	228.03
404.71	228.18
405.08	228.39
405.46	228.52
405.83	228.68
406.21	228.87
406.58	229.06
406.96	229.25
407.33	229.45
407.70	229.64
408.08	229.95
408.45	230.19
408.83	230.44
409.20	230.66
409.58	230.81
409.95	231.11
410.33	231.42
410.70	231.66
411.08	231.99
411.45	232.32
411.82	232.66
412.20	233.04
412.57	233.44
412.95	233.73
413.32	234.16
413.69	234.58
414.07	235.02
414.44	235.53
414.82	236.02
415.19	236.54
415.56	237.11
415.94	237.67
416.31	238.33
416.68	238.97
417.06	239.68
417.43	240.44
417.81	241.20
418.18	242.01
418.55	242.85
418.93	243.72
419.30	244.60
419.67	245.53
420.04	246.49
420.42	247.47
420.79	248.66
421.16	249.80
421.54	250.98
421.91	252.23
422.28	253.47
422.66	254.78
423.03	256.11
423.40	257.45
423.77	258.87
424.15	260.27
424.52	261.77
424.89	263.35
425.26	264.87
425.64	266.31
426.01	267.89
426.38	269.52
426.75	271.19
427.13	272.93
427.50	274.71
427.87	276.61
428.24	278.48
428.61	280.21
428.99	282.16
429.36	284.28
429.73	286.34
430.10	288.34
430.47	290.43
430.85	292.52
431.22	294.77
431.59	297.12
431.96	299.38
432.33	301.85
432.70	304.27
433.08	307.10
433.45	309.73
433.82	312.30
434.19	315.23
434.56	318.02
434.93	320.66
435.30	323.28
435.68	326.14
436.05	329.02
436.42	331.80
436.79	334.32
437.16	337.02
437.53	339.83
437.90	342.64
438.27	345.35
438.64	348.20
439.01	350.79
439.38	353.03
439.75	355.21
440.13	357.72
440.50	360.03
440.87	361.86
441.24	363.83
441.61	365.97
441.98	367.47
442.35	369.31
442.72	371.19
443.09	373.03
443.46	374.06
443.83	374.64
444.20	375.16
444.57	376.01
444.94	376.29
445.31	376.63
445.68	377.00
446.05	377.11
446.42	376.72
446.79	376.31
447.16	375.85
447.53	375.52
447.90	374.29
448.27	373.16
448.64	371.54
449.01	370.38
449.37	368.44
449.74	366.54
450.11	364.28
450.48	361.82
450.85	359.28
451.22	357.08
451.59	355.02
451.96	353.05
452.33	350.43
452.70	348.06
453.07	345.24
453.43	342.33
453.80	339.54
454.17	336.89
454.54	334.31
454.91	331.63
455.28	329.00
455.65	326.52
456.02	324.06
456.38	321.94
456.75	319.24
457.12	317.01
457.49	314.78
457.86	312.60
458.23	310.72
458.59	308.68
458.96	306.63
459.33	304.77
459.70	302.96
460.07	301.47
460.43	299.77
460.80	298.16
461.17	296.73
461.54	295.21
461.91	293.77
462.27	292.32
462.64	291.04
463.01	289.62
463.38	288.32
463.74	286.91
464.11	285.74
464.48	284.73
464.85	283.60
465.21	282.70
465.58	281.80
465.95	280.70
466.32	279.76
466.68	278.81
467.05	277.90
467.42	276.99
467.78	276.05
468.15	275.15
468.52	274.46
468.88	273.60
469.25	272.85
469.62	272.22
469.98	271.56
470.35	270.92
470.72	270.35
471.08	269.71
471.45	269.19
471.82	268.64
472.18	268.07
472.55	267.63
472.92	267.09
473.28	266.60
473.65	266.16
474.02	265.72
474.38	265.39
474.75	265.10
475.11	264.76
475.48	264.48
475.85	264.27
476.21	264.03
476.58	263.83
476.94	263.67
477.31	263.48
477.67	263.29
478.04	263.19
478.41	263.10
478.77	263.15
479.14	263.06
479.50	263.08
479.87	263.13
480.23	263.18
480.60	263.29
480.96	263.38
481.33	263.55
481.69	263.76
482.06	263.95
482.42	264.14
482.79	264.37
483.15	264.70
483.52	265.08
483.88	265.40
484.25	265.75
484.61	266.18
484.98	266.64
485.34	267.24
485.71	267.79
486.07	268.40
486.44	268.98
486.80	269.69
487.17	270.42
487.53	271.22
487.90	272.11
488.26	272.99
488.62	274.00
488.99	274.98
489.35	276.00
489.72	277.09
490.08	278.29
490.44	279.51
490.81	280.81
491.17	282.14
491.54	283.59
491.90	285.19
492.26	286.85
492.63	288.59
492.99	290.38
493.36	292.28
493.72	294.34
494.08	296.43
494.45	298.68
494.81	301.06
495.17	303.47
495.54	306.02
495.90	308.72
496.26	311.48
496.63	314.44
496.99	317.61
497.35	320.88
497.72	324.25
498.08	327.78
498.44	331.43
498.80	335.28
499.17	339.37
499.53	343.52
499.89	347.86
500.26	352.35
500.62	357.01
500.98	361.96
501.34	367.02
501.71	372.33
502.07	377.75
502.43	383.36
502.79	389.21
503.16	395.27
503.52	401.59
503.88	407.99
504.24	414.63
504.60	421.50
504.97	428.67
505.33	435.99
505.69	443.65
506.05	451.42
506.41	459.41
506.78	467.58
507.14	476.03
507.50	484.79
507.86	493.77
508.22	502.96
508.59	512.18
508.95	521.78
509.31	531.57
509.67	541.67
510.03	551.99
510.39	562.52
510.75	573.32
511.12	584.16
511.48	595.45
511.84	606.87
512.20	618.32
512.56	630.22
512.92	642.41
513.28	654.75
513.64	667.26
514.00	679.94
514.37	692.81
514.73	705.86
515.09	718.90
515.45	732.24
515.81	745.85
516.17	759.76
516.53	773.88
516.89	788.08
517.25	802.25
517.61	816.64
517.97	831.13
518.33	845.59
518.69	860.42
519.05	875.43
519.41	890.63
519.77	906.17
520.13	921.69
520.49	937.15
520.85	952.66
521.21	968.48
521.57	984.86
521.93	1000.71
522.29	1017.20
522.65	1033.38
523.01	1049.64
523.37	1065.75
523.73	1082.08
524.09	1098.12
524.45	1114.55
524.81	1131.34
525.17	1148.23
525.53	1165.20
525.89	1182.07
526.25	1198.94
526.61	1215.37
526.97	1232.16
527.33	1248.76
527.68	1265.48
528.04	1281.99
528.40	1298.70
528.76	1315.79
529.12	1332.37
529.48	1349.30
529.84	1365.33
530.20	1382.09
530.56	1399.25
530.91	1416.72
531.27	1433.53
531.63	1450.13
531.99	1466.73
532.35	1482.68
532.71	1498.63
533.07	1514.87
533.42	1530.98
533.78	1547.10
534.14	1563.42
534.50	1578.91
534.86	1595.03
535.21	1610.18
535.57	1626.19
535.93	1641.65
536.29	1656.46
536.65	1671.64
537.00	1686.56
537.36	1701.98
537.72	1716.53
538.08	1730.93
538.44	1744.77
538.79	1758.70
539.15	1772.53
539.51	1786.41
539.87	1800.83
540.22	1814.65
540.58	1828.61
540.94	1841.94
541.29	1855.03
541.65	1867.91
542.01	1881.25
542.37	1893.35
542.72	1905.87
543.08	1917.68
543.44	1930.35
543.79	1941.63
544.15	1952.68
544.51	1964.31
544.87	1975.29
545.22	1986.31
545.58	1996.55
545.94	2006.43
546.29	2016.42
546.65	2026.17
547.01	2035.42
547.36	2044.30
547.72	2052.87
548.07	2060.66
548.43	2068.79
548.79	2076.78
549.14	2084.31
549.50	2091.68
549.86	2099.52
550.21	2106.82
550.57	2114.05
550.92	2120.48
551.28	2127.59
551.64	2134.60
551.99	2141.07
552.35	2147.22
552.70	2153.27
553.06	2159.29
553.41	2165.65
553.77	2171.47
554.13	2177.69
554.48	2183.71
554.84	2189.03
555.19	2194.43
555.55	2199.55
555.90	2204.09
556.26	2208.85
556.61	2213.50
556.97	2217.70
557.32	2221.74
557.68	2225.86
558.03	2230.20
558.39	2234.01
558.74	2238.61
559.10	2242.49
559.45	2245.97
559.81	2250.30
560.16	2254.09
560.52	2257.17
560.87	2260.55
561.23	2263.32
561.58	2266.21
561.94	2268.75
562.29	2271.05
562.64	2273.61
563.00	2276.27
563.35	2279.84
563.71	2283.01
564.06	2286.16
564.42	2289.01
564.77	2291.51
565.12	2293.79
565.48	2295.48
565.83	2297.16
566.19	2298.34
566.54	2299.23
566.89	2300.51
567.25	2300.92
567.60	2302.25
567.96	2303.94
568.31	2304.62
568.66	2305.62
569.02	2306.10
569.37	2306.40
569.72	2307.20
570.08	2307.12
570.43	2307.11
570.78	2306.25
571.14	2304.68
571.49	2303.30
571.84	2302.78
572.20	2301.46
572.55	2300.22
572.90	2298.77
573.26	2297.40
573.61	2295.68
573.96	2293.83
574.31	2290.81
574.67	2287.92
575.02	2284.13
575.37	2280.68
575.72	2276.85
576.08	2273.60
576.43	2270.25
576.78	2266.53
577.13	2263.42
577.49	2260.39
577.84	2256.90
578.19	2253.19
578.54	2249.27
578.90	2245.09
579.25	2239.49
579.60	2234.61
579.95	2229.71
580.30	2224.52
580.66	2219.12
581.01	2214.19
581.36	2209.23
581.71	2204.77
582.06	2200.12
582.42	2195.51
582.77	2190.16
583.12	2185.30
583.47	2180.40
583.82	2175.30
584.17	2169.91
584.53	2164.18
584.88	2158.22
585.23	2152.20
585.58	2146.61
585.93	2141.22
586.28	2136.34
586.63	2131.10
586.98	2125.90
587.34	2121.05
587.69	2115.99
588.04	2110.72
588.39	2104.93
588.74	2098.24
589.09	2092.22
589.44	2085.28
589.79	2079.31
590.14	2073.66
590.49	2067.08
590.84	2060.59
591.19	2054.59
591.54	2048.09
591.89	2040.60
592.25	2033.73
592.60	2026.49
592.95	2018.83
593.30	2011.39
593.65	2003.78
594.00	1996.76
594.35	1989.45
594.70	1981.25
595.05	1974.00
595.40	1966.62
595.75	1958.99
596.10	1952.75
596.45	1945.87
596.80	1939.70
597.15	1932.95
597.50	1925.78
597.85	1919.39
598.19	1912.62
598.54	1905.40
598.89	1898.66
599.24	1892.77
599.59	1886.11
599.94	1879.84
600.29	1873.52
600.64	1866.92
600.99	1859.25
601.34	1852.38
601.69	1845.33
602.04	1838.49
602.39	1831.24
602.74	1824.35
603.08	1817.53
603.43	1810.76
603.78	1803.41
604.13	1796.14
604.48	1788.85
604.83	1782.00
605.18	1774.95
605.53	1766.94
605.87	1758.86
606.22	1751.65
606.57	1743.67
606.92	1736.39
607.27	1729.14
607.62	1722.12
607.96	1714.71
608.31	1708.09
608.66	1700.40
609.01	1692.81
609.36	1685.23
609.70	1677.03
610.05	1668.98
610.40	1661.34
610.75	1652.98
611.10	1645.24
611.44	1636.97
611.79	1629.03
612.14	1620.34
612.49	1611.31
612.83	1603.04
613.18	1594.91
613.53	1586.86
613.88	1578.37
614.22	1570.03
614.57	1561.58
614.92	1553.62
615.27	1546.16
615.61	1537.87
615.96	1529.89
616.31	1522.29
616.65	1514.88
617.00	1507.49
617.35	1499.95
617.70	1491.57
618.04	1483.03
618.39	1474.79
618.74	1467.14
619.08	1458.76
619.43	1451.16
619.78	1444.23
620.12	1436.99
620.47	1429.42
620.82	1421.21
621.16	1413.79
621.51	1406.22
621.85	1398.47
622.20	1389.91
622.55	1381.49
622.89	1373.57
623.24	1366.03
623.59	1358.66
623.93	1351.10
624.28	1343.81
624.62	1336.23
624.97	1329.06
625.32	1322.46
625.66	1315.54
626.01	1308.25
626.35	1300.86
626.70	1293.12
627.04	1285.25
627.39	1277.46
627.73	1270.03
628.08	1263.10
628.43	1255.72
628.77	1248.32
629.12	1240.77
629.46	1233.56
629.81	1226.24
630.15	1219.11
630.50	1211.73
630.84	1203.53
631.19	1195.68
631.53	1188.15
631.88	1180.61
632.22	1173.03
632.57	1165.64
632.91	1158.08
633.26	1150.64
633.60	1143.31
633.95	1136.28
634.29	1129.38
634.64	1122.72
634.98	1115.42
635.32	1108.29
635.67	1101.84
636.01	1095.26
636.36	1088.52
636.70	1082.16
637.05	1075.63
637.39	1069.08
637.73	1062.47
638.08	1056.64
638.42	1050.67
638.77	1044.30
639.11	1037.67
639.45	1031.35
639.80	1024.75
640.14	1018.34
640.49	1011.78
640.83	1005.46
641.17	999.18
641.52	992.84
641.86	986.46
642.20	980.65
642.55	974.39
642.89	967.86
643.23	961.33
643.58	955.58
643.92	949.39
644.26	943.30
644.61	937.31
644.95	931.31
645.29	924.64
645.64	917.87
645.98	911.52
646.32	905.69
646.66	899.69
647.01	893.76
647.35	888.06
647.69	882.36
648.04	876.83
648.38	871.06
648.72	865.05
649.06	858.94
649.41	853.04
649.75	847.06
650.09	841.12
650.43	835.31
650.78	829.09
651.12	823.02
651.46	817.24
651.80	811.47
652.14	806.09
652.49	800.81
652.83	795.70
653.17	789.92
653.51	784.20
653.85	778.77
654.20	773.16
654.54	767.12
654.88	761.41
655.22	755.48
655.56	749.79
655.90	744.31
656.25	739.15
656.59	733.83
656.93	728.73
657.27	723.58
657.61	718.14
657.95	713.09
658.29	708.01
658.64	702.79
658.98	697.57
659.32	692.10
659.66	686.90
660.00	681.57
660.34	676.64
660.68	671.70
661.02	666.68
661.36	662.03
661.70	657.55
662.05	653.21
662.39	648.90
662.73	644.50
663.07	640.14
663.41	635.69
663.75	631.19
664.09	626.65
664.43	622.31
664.77	618.26
665.11	614.02
665.45	609.95
665.79	605.90
666.13	601.73
666.47	597.68
666.81	593.52
667.15	589.44
667.49	585.58
667.83	581.88
668.17	577.90
668.51	573.82
668.85	569.83
669.19	565.97
669.53	562.13
669.87	558.18
670.21	554.54
670.55	550.88
670.89	547.42
671.23	544.02
671.57	540.46
671.91	536.91
672.25	533.44
672.58	529.94
672.92	526.60
673.26	523.51
673.60	520.36
673.94	517.28
674.28	514.34
674.62	511.40
674.96	508.24
675.30	505.35
675.64	502.49
675.97	499.77
676.31	496.89
676.65	493.98
676.99	491.28
677.33	488.38
677.67	485.52
678.01	482.51
678.34	479.54
678.68	476.66
679.02	473.90
679.36	471.08
679.70	468.39
680.04	465.60
680.37	462.68
680.71	459.86
681.05	457.26
681.39	454.55
681.73	451.92
682.06	449.41
682.40	446.86
682.74	444.29
683.08	441.74
683.42	439.16
683.75	436.68
684.09	434.18
684.43	431.70
684.77	429.25
685.10	426.90
685.44	424.55
685.78	422.27
686.12	419.96
686.45	417.72
686.79	415.39
687.13	413.23
687.46	411.09
687.80	408.96
688.14	406.75
688.48	404.72
688.81	402.46
689.15	400.32
689.49	398.20
689.82	396.13
690.16	394.03
690.50	392.08
690.83	390.10
691.17	388.17
691.51	386.32
691.84	384.52
692.18	382.58
692.52	380.62
692.85	378.71
693.19	376.88
693.52	375.05
693.86	373.27
694.20	371.53
694.53	369.72
694.87	367.90
695.21	366.12
695.54	364.25
695.88	362.54
696.21	360.80
696.55	359.16
696.88	357.49
697.22	355.87
697.56	354.25
697.89	352.60
698.23	350.99
698.56	349.36
698.90	347.76
699.23	346.18
699.57	344.65
699.90	343.11
700.24	341.60
700.58	340.11
700.91	338.60
701.25	337.15
701.58	335.79
701.92	334.41
702.25	333.02
702.59	331.68
702.92	330.37
703.26	329.12
703.59	327.82
703.93	326.64
704.26	325.38
704.60	324.11
704.93	322.89
705.26	321.66
705.60	320.54
705.93	319.44
706.27	318.39
706.60	317.35
706.94	316.30
707.27	315.17
707.61	314.08
707.94	313.11
708.27	312.00
708.61	310.95
708.94	309.98
709.28	309.03
709.61	308.07
709.94	307.12
710.28	306.10
710.61	305.12
710.95	304.05
711.28	303.12
711.61	302.16
711.95	301.25
712.28	300.26
712.61	299.23
712.95	298.26
713.28	297.38
713.61	296.47
713.95	295.57
714.28	294.69
714.61	293.84
714.95	292.97
715.28	292.07
715.61	291.20
715.95	290.32
716.28	289.48
716.61	288.64
716.95	287.86
717.28	287.10
717.61	286.35
717.94	285.60
718.28	284.83
718.61	284.12
718.94	283.38
719.27	282.75
719.61	282.07
719.94	281.38
720.27	280.62
720.60	279.91
720.94	279.26
721.27	278.68
721.60	278.08
721.93	277.46
722.27	276.92
722.60	276.38
722.93	275.80
723.26	275.20
723.59	274.66
723.93	274.08
724.26	273.54
724.59	273.01
724.92	272.50
725.25	271.96
725.59	271.42
725.92	270.92
726.25	270.36
726.58	269.88
726.91	269.38
727.24	268.93
727.57	268.47
727.91	267.97
728.24	267.49
728.57	266.99
728.90	266.55
729.23	266.08
729.56	265.61
729.89	265.17
730.22	264.75
730.55	264.29
730.89	263.83
731.22	263.39
731.55	262.92
731.88	262.52
732.21	262.12
732.54	261.68
732.87	261.24
733.20	260.87
733.53	260.50
733.86	260.15
734.19	259.75
734.52	259.40
734.85	259.10
735.18	258.68
735.51	258.34
735.84	257.97
736.17	257.63
736.50	257.24
736.83	257.01
737.16	256.67
737.49	256.35
737.82	256.00
738.15	255.66
738.48	255.35
738.81	255.05
739.14	254.69
739.47	254.42
739.80	254.15
740.13	253.85
740.46	253.53
740.79	253.22
741.12	252.94
741.45	252.63
741.78	252.30
742.11	252.03
742.44	251.70
742.77	251.40
743.10	251.09
743.43	250.80
743.75	250.41
744.08	250.25
744.41	249.97
744.74	249.70
745.07	249.44
745.40	249.19
745.73	248.97
746.06	248.72
746.39	248.49
746.71	248.25
747.04	248.01
747.37	247.76
747.70	247.52
748.03	247.27
748.36	247.09
748.68	246.88
749.01	246.67
749.34	246.47
749.67	246.29
750.00	246.08
750.33	245.95
750.65	245.72
750.98	245.37
751.31	245.14
751.64	245.00
751.97	244.87
752.29	244.63
752.62	244.36
752.95	244.19
753.28	243.94
753.60	243.71
753.93	243.52
754.26	243.35
754.59	243.13
754.91	242.90
755.24	242.68
755.57	242.47
755.90	242.24
756.22	242.06
756.55	241.84
756.88	241.65
757.20	241.40
757.53	241.20
757.86	241.04
758.19	240.86
758.51	240.66
758.84	240.44
759.17	240.26
759.49	240.08
759.82	239.94
760.15	239.79
760.47	239.61
760.80	239.42
761.13	239.24
761.45	239.08
761.78	238.96
762.11	238.78
762.43	238.60
762.76	238.45
763.08	238.33
763.41	238.19
763.74	238.03
764.06	237.88
764.39	237.73
764.71	237.59
765.04	237.48
765.37	237.30
765.69	237.13
766.02	237.02
766.34	236.86
766.67	236.69
767.00	236.58
767.32	236.53
767.65	236.44
767.97	236.31
768.30	236.21
768.62	236.04
768.95	235.91
769.27	235.82
769.60	235.74
769.92	235.59
770.25	235.43
770.57	235.32
770.90	235.23
771.22	235.14
771.55	235.04
771.87	234.93
772.20	234.84
772.52	234.83
772.85	234.86
773.17	234.77
773.50	234.71
773.82	234.61
774.15	234.44
774.47	234.29
774.80	234.21
775.12	234.10
775.45	234.04
775.77	233.96
776.09	233.91
776.42	233.82
776.74	233.77
777.07	233.69
777.39	233.63
777.72	233.54
778.04	233.49
778.36	233.43
778.69	233.39
779.01	233.34
779.33	233.21
779.66	233.04
779.98	233.00
780.31	232.91
780.63	232.88
780.95	232.87
781.28	232.84
781.60	232.77
781.92	232.75
782.25	232.72
782.57	232.66
782.89	232.57
783.22	232.55
783.54	232.48
783.86	232.47
784.19	232.43
784.51	232.44
784.83	232.38
785.16	232.34
785.48	232.31
785.80	232.29
786.12	232.25
786.45	232.19
786.77	232.15
787.09	232.14
