SpectraSuite Data File
++++++++++++++++++++++++++++++++++++
Date: Fri Feb 01 15:35:41 EST 2013
User: group
Dark Spectrum Present: No
Reference Spectrum Present: No
Number of Sampled Component Spectra: 1
Spectrometers: USB2E7196
Integration Time (usec): 35000 (USB2E7196)
Spectra Averaged: 100 (USB2E7196)
Boxcar Smoothing: 10 (USB2E7196)
Correct for Electrical Dark: No (USB2E7196)
Strobe/Lamp Enabled: No (USB2E7196)
Correct for Detector Non-linearity: No (USB2E7196)
Correct for Stray Light: No (USB2E7196)
Number of Pixels in Processed Spectrum: 2048
>>>>>Begin Processed Spectral Data<<<<<
339.09	0.00
339.48	215.04
339.86	216.48
340.24	218.22
340.63	219.54
341.01	221.90
341.39	221.87
341.78	223.22
342.16	223.78
342.54	224.90
342.93	213.35
343.31	224.14
343.69	224.69
344.07	225.17
344.46	225.55
344.84	225.91
345.22	226.17
345.60	226.44
345.99	226.64
346.37	226.79
346.75	226.92
347.13	226.98
347.52	227.05
347.90	227.08
348.28	227.09
348.66	227.12
349.05	227.07
349.43	227.10
349.81	227.16
350.19	227.22
350.57	227.26
350.96	227.32
351.34	227.42
351.72	227.49
352.10	227.55
352.48	227.66
352.87	227.72
353.25	227.77
353.63	227.82
354.01	227.85
354.39	227.95
354.77	227.99
355.15	228.11
355.54	228.15
355.92	228.21
356.30	228.28
356.68	228.37
357.06	228.47
357.44	228.50
357.82	228.57
358.20	228.61
358.58	228.66
358.97	228.72
359.35	228.77
359.73	228.82
360.11	228.87
360.49	228.88
360.87	228.90
361.25	228.92
361.63	228.99
362.01	229.03
362.39	229.03
362.77	229.07
363.15	229.08
363.53	229.14
363.91	229.18
364.29	229.21
364.67	229.15
365.05	229.15
365.43	229.15
365.81	229.16
366.19	229.21
366.57	229.24
366.95	229.23
367.33	229.19
367.71	229.16
368.09	229.19
368.47	229.19
368.85	229.18
369.23	229.20
369.61	229.14
369.99	229.15
370.37	229.12
370.75	229.14
371.13	229.05
371.51	228.99
371.89	228.95
372.27	228.91
372.65	228.88
373.03	228.82
373.41	228.77
373.78	228.71
374.16	228.62
374.54	228.53
374.92	228.46
375.30	228.39
375.68	228.34
376.06	228.29
376.44	228.21
376.82	228.15
377.19	228.09
377.57	228.03
377.95	227.93
378.33	227.86
378.71	227.76
379.09	227.72
379.47	227.65
379.84	227.57
380.22	227.51
380.60	227.44
380.98	227.38
381.36	227.34
381.73	227.26
382.11	227.23
382.49	227.17
382.87	227.10
383.25	227.05
383.62	227.09
384.00	227.00
384.38	226.92
384.76	226.89
385.13	226.86
385.51	226.79
385.89	226.73
386.27	226.68
386.64	226.64
387.02	226.56
387.40	226.53
387.78	226.50
388.15	226.47
388.53	226.45
388.91	226.41
389.29	226.36
389.66	226.36
390.04	226.29
390.42	226.26
390.79	226.23
391.17	226.21
391.55	226.11
391.92	226.11
392.30	226.16
392.68	226.10
393.05	226.09
393.43	226.09
393.81	226.11
394.18	226.11
394.56	226.05
394.94	226.09
395.31	226.10
395.69	226.15
396.06	226.19
396.44	226.23
396.82	226.25
397.19	226.34
397.57	226.37
397.95	226.44
398.32	226.46
398.70	226.52
399.07	226.63
399.45	226.63
399.82	226.70
400.20	226.75
400.58	226.87
400.95	226.92
401.33	227.04
401.70	227.20
402.08	227.30
402.45	227.42
402.83	227.55
403.20	227.65
403.58	227.73
403.95	227.84
404.33	227.98
404.71	228.12
405.08	228.30
405.46	228.44
405.83	228.63
406.21	228.80
406.58	228.97
406.96	229.11
407.33	229.31
407.70	229.50
408.08	229.79
408.45	230.01
408.83	230.24
409.20	230.44
409.58	230.63
409.95	230.89
410.33	231.22
410.70	231.47
411.08	231.79
411.45	232.10
411.82	232.41
412.20	232.73
412.57	233.15
412.95	233.47
413.32	233.88
413.69	234.27
414.07	234.72
414.44	235.22
414.82	235.73
415.19	236.29
415.56	236.85
415.94	237.36
416.31	237.99
416.68	238.64
417.06	239.41
417.43	240.10
417.81	240.88
418.18	241.63
418.55	242.52
418.93	243.38
419.30	244.30
419.67	245.26
420.04	246.25
420.42	247.25
420.79	248.40
421.16	249.53
421.54	250.76
421.91	251.99
422.28	253.22
422.66	254.54
423.03	255.83
423.40	257.18
423.77	258.62
424.15	260.08
424.52	261.52
424.89	263.06
425.26	264.61
425.64	266.05
426.01	267.66
426.38	269.28
426.75	270.97
427.13	272.71
427.50	274.49
427.87	276.36
428.24	278.20
428.61	279.94
428.99	281.91
429.36	283.98
429.73	286.03
430.10	288.09
430.47	290.13
430.85	292.27
431.22	294.51
431.59	296.86
431.96	299.10
432.33	301.61
432.70	304.05
433.08	306.89
433.45	309.56
433.82	312.17
434.19	315.09
434.56	317.87
434.93	320.52
435.30	323.17
435.68	326.07
436.05	328.94
436.42	331.74
436.79	334.23
437.16	336.93
437.53	339.77
437.90	342.52
438.27	345.30
438.64	348.11
439.01	350.70
439.38	352.94
439.75	355.12
440.13	357.60
440.50	359.91
440.87	361.77
441.24	363.70
441.61	365.84
441.98	367.31
442.35	369.14
442.72	370.94
443.09	372.71
443.46	373.65
443.83	374.23
444.20	374.75
444.57	375.56
444.94	375.85
445.31	376.16
445.68	376.54
446.05	376.61
446.42	376.25
446.79	375.86
447.16	375.40
447.53	375.08
447.90	373.91
448.27	372.70
448.64	371.06
449.01	369.87
449.37	367.91
449.74	366.00
450.11	363.73
450.48	361.24
450.85	358.71
451.22	356.62
451.59	354.60
451.96	352.70
452.33	350.14
452.70	347.75
453.07	344.94
453.43	342.00
453.80	339.20
454.17	336.50
454.54	333.92
454.91	331.18
455.28	328.46
455.65	325.96
456.02	323.51
456.38	321.35
456.75	318.76
457.12	316.50
457.49	314.28
457.86	312.12
458.23	310.27
458.59	308.24
458.96	306.11
459.33	304.26
459.70	302.37
460.07	300.86
460.43	299.21
460.80	297.58
461.17	296.18
461.54	294.70
461.91	293.31
462.27	291.83
462.64	290.60
463.01	289.26
463.38	287.99
463.74	286.63
464.11	285.50
464.48	284.45
464.85	283.30
465.21	282.40
465.58	281.47
465.95	280.43
466.32	279.51
466.68	278.65
467.05	277.72
467.42	276.82
467.78	275.88
468.15	274.98
468.52	274.33
468.88	273.47
469.25	272.71
469.62	272.06
469.98	271.44
470.35	270.82
470.72	270.21
471.08	269.56
471.45	269.04
471.82	268.53
472.18	267.90
472.55	267.50
472.92	267.02
473.28	266.56
473.65	266.10
474.02	265.67
474.38	265.29
474.75	264.96
475.11	264.61
475.48	264.35
475.85	264.14
476.21	263.89
476.58	263.71
476.94	263.52
477.31	263.34
477.67	263.16
478.04	263.04
478.41	263.01
478.77	263.06
479.14	263.02
479.50	263.02
479.87	263.17
480.23	263.24
480.60	263.30
480.96	263.44
481.33	263.62
481.69	263.84
482.06	264.06
482.42	264.29
482.79	264.57
483.15	264.89
483.52	265.23
483.88	265.61
484.25	266.01
484.61	266.47
484.98	266.95
485.34	267.52
485.71	268.12
486.07	268.73
486.44	269.29
486.80	269.99
487.17	270.69
487.53	271.44
487.90	272.28
488.26	273.21
488.62	274.17
488.99	275.12
489.35	276.16
489.72	277.23
490.08	278.45
490.44	279.65
490.81	280.99
491.17	282.34
491.54	283.80
491.90	285.31
492.26	286.96
492.63	288.68
492.99	290.46
493.36	292.40
493.72	294.42
494.08	296.51
494.45	298.75
494.81	301.13
495.17	303.54
495.54	306.14
495.90	308.84
496.26	311.62
496.63	314.59
496.99	317.68
497.35	320.97
497.72	324.32
498.08	327.85
498.44	331.52
498.80	335.41
499.17	339.43
499.53	343.59
499.89	347.98
500.26	352.49
500.62	357.18
500.98	362.09
501.34	367.17
501.71	372.48
502.07	377.87
502.43	383.47
502.79	389.34
503.16	395.37
503.52	401.61
503.88	408.03
504.24	414.68
504.60	421.58
504.97	428.71
505.33	436.04
505.69	443.75
506.05	451.48
506.41	459.34
506.78	467.52
507.14	476.03
507.50	484.73
507.86	493.73
508.22	502.86
508.59	512.04
508.95	521.63
509.31	531.42
509.67	541.49
510.03	551.83
510.39	562.36
510.75	573.18
511.12	584.15
511.48	595.48
511.84	606.93
512.20	618.41
512.56	630.35
512.92	642.53
513.28	654.82
513.64	667.36
514.00	680.12
514.37	692.99
514.73	706.04
515.09	719.12
515.45	732.40
515.81	746.00
516.17	760.06
516.53	774.20
516.89	788.42
517.25	802.60
517.61	817.00
517.97	831.39
518.33	845.84
518.69	860.56
519.05	875.49
519.41	890.68
519.77	906.36
520.13	921.81
520.49	937.21
520.85	952.72
521.21	968.46
521.57	984.80
521.93	1000.72
522.29	1017.16
522.65	1033.43
523.01	1049.76
523.37	1065.82
523.73	1082.01
524.09	1098.10
524.45	1114.52
524.81	1131.28
525.17	1148.15
525.53	1165.20
525.89	1182.09
526.25	1198.96
526.61	1215.57
526.97	1232.38
527.33	1248.79
527.68	1265.44
528.04	1282.01
528.40	1298.62
528.76	1315.65
529.12	1332.27
529.48	1349.05
529.84	1365.04
530.20	1381.61
530.56	1398.69
530.91	1416.16
531.27	1433.00
531.63	1449.57
531.99	1466.16
532.35	1482.26
532.71	1498.20
533.07	1514.48
533.42	1530.46
533.78	1546.57
534.14	1562.81
534.50	1578.14
534.86	1593.88
535.21	1609.11
535.57	1625.09
535.93	1640.75
536.29	1655.60
536.65	1670.62
537.00	1685.56
537.36	1700.89
537.72	1715.54
538.08	1729.82
538.44	1743.56
538.79	1757.50
539.15	1771.26
539.51	1785.04
539.87	1799.34
540.22	1813.04
540.58	1826.77
540.94	1840.08
541.29	1853.06
541.65	1865.73
542.01	1879.10
542.37	1891.66
542.72	1904.14
543.08	1915.88
543.44	1928.15
543.79	1939.44
544.15	1950.44
544.51	1962.05
544.87	1973.13
545.22	1983.88
545.58	1994.12
545.94	2004.04
546.29	2013.83
546.65	2023.50
547.01	2032.74
547.36	2041.49
547.72	2049.92
548.07	2057.80
548.43	2066.04
548.79	2074.10
549.14	2081.77
549.50	2089.04
549.86	2096.75
550.21	2104.09
550.57	2111.27
550.92	2117.75
551.28	2124.91
551.64	2131.95
551.99	2138.34
552.35	2144.36
552.70	2150.63
553.06	2156.76
553.41	2162.99
553.77	2169.00
554.13	2175.23
554.48	2181.31
554.84	2186.62
555.19	2191.98
555.55	2197.02
555.90	2201.39
556.26	2206.18
556.61	2210.76
556.97	2214.96
557.32	2219.02
557.68	2223.10
558.03	2227.42
558.39	2231.37
558.74	2235.74
559.10	2239.60
559.45	2243.40
559.81	2247.74
560.16	2251.54
560.52	2254.77
560.87	2258.24
561.23	2260.96
561.58	2263.91
561.94	2266.56
562.29	2269.03
562.64	2271.78
563.00	2274.44
563.35	2278.09
563.71	2281.17
564.06	2284.35
564.42	2287.18
564.77	2289.69
565.12	2291.95
565.48	2293.72
565.83	2295.37
566.19	2296.74
566.54	2297.75
566.89	2298.77
567.25	2299.32
567.60	2300.69
567.96	2302.40
568.31	2303.20
568.66	2304.13
569.02	2304.64
569.37	2304.80
569.72	2305.59
570.08	2305.64
570.43	2305.73
570.78	2305.14
571.14	2303.65
571.49	2302.28
571.84	2301.98
572.20	2300.79
572.55	2299.65
572.90	2298.26
573.26	2296.99
573.61	2295.41
573.96	2293.59
574.31	2290.47
574.67	2287.44
575.02	2283.70
575.37	2280.11
575.72	2276.33
576.08	2272.97
576.43	2269.57
576.78	2265.81
577.13	2262.64
577.49	2259.62
577.84	2256.08
578.19	2252.29
578.54	2248.59
578.90	2244.39
579.25	2238.77
579.60	2233.75
579.95	2228.80
580.30	2223.75
580.66	2218.44
581.01	2213.27
581.36	2208.30
581.71	2204.29
582.06	2199.84
582.42	2195.44
582.77	2190.21
583.12	2185.43
583.47	2180.62
583.82	2175.61
584.17	2170.40
584.53	2164.82
584.88	2159.11
585.23	2153.23
585.58	2147.58
585.93	2141.98
586.28	2137.13
586.63	2132.02
586.98	2126.85
587.34	2122.10
587.69	2117.11
588.04	2111.93
588.39	2106.30
588.74	2099.70
589.09	2093.40
589.44	2086.54
589.79	2080.45
590.14	2074.87
590.49	2068.35
590.84	2062.02
591.19	2055.96
591.54	2049.37
591.89	2041.92
592.25	2035.05
592.60	2027.78
592.95	2020.15
593.30	2012.79
593.65	2005.17
594.00	1998.06
594.35	1990.83
594.70	1982.80
595.05	1975.37
595.40	1967.96
595.75	1960.31
596.10	1954.00
596.45	1947.19
596.80	1940.99
597.15	1934.20
597.50	1926.92
597.85	1920.48
598.19	1913.75
598.54	1906.55
598.89	1899.95
599.24	1894.02
599.59	1887.15
599.94	1880.93
600.29	1874.67
600.64	1868.24
600.99	1860.77
601.34	1853.91
601.69	1846.94
602.04	1839.91
602.39	1832.70
602.74	1825.71
603.08	1819.08
603.43	1812.45
603.78	1805.19
604.13	1797.96
604.48	1790.67
604.83	1783.84
605.18	1776.86
605.53	1768.87
605.87	1760.80
606.22	1753.54
606.57	1745.51
606.92	1738.17
607.27	1731.06
607.62	1723.99
607.96	1716.63
608.31	1709.96
608.66	1702.27
609.01	1694.59
609.36	1686.99
609.70	1678.85
610.05	1670.93
610.40	1663.13
610.75	1654.74
611.10	1647.20
611.44	1638.73
611.79	1630.77
612.14	1622.06
612.49	1612.89
612.83	1604.58
613.18	1596.50
613.53	1588.34
613.88	1579.95
614.22	1571.72
614.57	1563.03
614.92	1555.08
615.27	1547.33
615.61	1538.89
615.96	1530.95
616.31	1523.40
616.65	1516.02
617.00	1508.51
617.35	1500.84
617.70	1492.57
618.04	1484.00
618.39	1475.73
618.74	1468.14
619.08	1459.71
619.43	1452.18
619.78	1445.18
620.12	1437.92
620.47	1430.40
620.82	1422.31
621.16	1414.77
621.51	1407.30
621.85	1399.72
622.20	1391.10
622.55	1382.78
622.89	1374.98
623.24	1367.41
623.59	1360.07
623.93	1352.58
624.28	1345.36
624.62	1337.86
624.97	1330.62
625.32	1323.96
625.66	1316.92
626.01	1309.69
626.35	1302.20
626.70	1294.35
627.04	1286.70
627.39	1279.08
627.73	1271.62
628.08	1264.72
628.43	1257.39
628.77	1249.87
629.12	1242.28
629.46	1235.10
629.81	1227.80
630.15	1220.60
630.50	1213.18
630.84	1204.97
631.19	1197.10
631.53	1189.61
631.88	1181.95
632.22	1174.34
632.57	1166.98
632.91	1159.28
633.26	1152.04
633.60	1144.84
633.95	1137.82
634.29	1130.74
634.64	1123.89
634.98	1116.56
635.32	1109.44
635.67	1102.94
636.01	1096.28
636.36	1089.40
636.70	1082.98
637.05	1076.35
637.39	1069.99
637.73	1063.52
638.08	1057.62
638.42	1051.59
638.77	1045.19
639.11	1038.57
639.45	1032.28
639.80	1025.70
640.14	1019.29
640.49	1012.63
640.83	1006.31
641.17	1000.06
641.52	993.78
641.86	987.39
642.20	981.54
642.55	975.21
642.89	968.74
643.23	962.31
643.58	956.61
643.92	950.40
644.26	944.30
644.61	938.21
644.95	932.06
645.29	925.40
645.64	918.67
645.98	912.26
646.32	906.53
646.66	900.43
647.01	894.60
647.35	888.94
647.69	883.13
648.04	877.56
648.38	871.72
648.72	865.62
649.06	859.61
649.41	853.77
649.75	847.80
650.09	841.74
650.43	835.88
650.78	829.75
651.12	823.69
651.46	817.98
651.80	812.25
652.14	806.86
652.49	801.45
652.83	796.30
653.17	790.58
653.51	784.82
653.85	779.42
654.20	773.72
654.54	767.68
654.88	761.96
655.22	756.05
655.56	750.40
655.90	745.02
656.25	739.71
656.59	734.36
656.93	729.27
657.27	724.16
657.61	718.78
657.95	713.67
658.29	708.68
658.64	703.49
658.98	698.26
659.32	692.82
659.66	687.71
660.00	682.36
660.34	677.36
660.68	672.46
661.02	667.42
661.36	662.76
661.70	658.27
662.05	653.93
662.39	649.56
662.73	645.16
663.07	640.75
663.41	636.34
663.75	631.78
664.09	627.17
664.43	622.85
664.77	618.71
665.11	614.49
665.45	610.42
665.79	606.24
666.13	602.03
666.47	598.02
666.81	593.85
667.15	589.73
667.49	585.93
667.83	582.09
668.17	578.22
668.51	574.14
668.85	570.16
669.19	566.25
669.53	562.41
669.87	558.49
670.21	554.83
670.55	551.26
670.89	547.85
671.23	544.46
671.57	540.93
671.91	537.42
672.25	533.88
672.58	530.35
672.92	526.99
673.26	523.83
673.60	520.60
673.94	517.46
674.28	514.61
674.62	511.61
674.96	508.63
675.30	505.69
675.64	502.74
675.97	499.95
676.31	497.13
676.65	494.25
676.99	491.60
677.33	488.71
677.67	485.85
678.01	482.78
678.34	479.79
678.68	476.85
679.02	474.03
679.36	471.32
679.70	468.56
680.04	465.82
680.37	462.87
680.71	460.12
681.05	457.52
681.39	454.72
681.73	452.12
682.06	449.49
682.40	446.95
682.74	444.43
683.08	441.91
683.42	439.28
683.75	436.77
684.09	434.15
684.43	431.73
684.77	429.22
685.10	426.91
685.44	424.62
685.78	422.36
686.12	420.15
686.45	417.84
686.79	415.56
687.13	413.33
687.46	411.23
687.80	409.11
688.14	406.93
688.48	404.93
688.81	402.64
689.15	400.52
689.49	398.38
689.82	396.32
690.16	394.20
690.50	392.28
690.83	390.35
691.17	388.41
691.51	386.48
691.84	384.66
692.18	382.74
692.52	380.73
692.85	378.80
693.19	376.90
693.52	375.07
693.86	373.27
694.20	371.50
694.53	369.72
694.87	367.87
695.21	366.08
695.54	364.23
695.88	362.57
696.21	360.86
696.55	359.17
696.88	357.46
697.22	355.88
697.56	354.27
697.89	352.62
698.23	351.02
698.56	349.41
698.90	347.81
699.23	346.14
699.57	344.63
699.90	343.18
700.24	341.61
700.58	340.12
700.91	338.65
701.25	337.23
701.58	335.85
701.92	334.50
702.25	333.15
702.59	331.81
702.92	330.47
703.26	329.13
703.59	327.89
703.93	326.74
704.26	325.44
704.60	324.14
704.93	322.87
705.26	321.63
705.60	320.49
705.93	319.37
706.27	318.37
706.60	317.30
706.94	316.16
707.27	315.07
707.61	314.02
707.94	312.97
708.27	311.89
708.61	310.83
708.94	309.84
709.28	308.82
709.61	307.85
709.94	306.89
710.28	305.89
710.61	304.90
710.95	303.80
711.28	302.88
711.61	301.93
711.95	301.06
712.28	300.09
712.61	299.09
712.95	298.10
713.28	297.21
713.61	296.33
713.95	295.44
714.28	294.63
714.61	293.72
714.95	292.88
715.28	292.04
715.61	291.14
715.95	290.24
716.28	289.39
716.61	288.59
716.95	287.77
717.28	287.04
717.61	286.24
717.94	285.54
718.28	284.73
718.61	284.01
718.94	283.28
719.27	282.58
719.61	281.95
719.94	281.34
720.27	280.61
720.60	279.94
720.94	279.30
721.27	278.68
721.60	278.12
721.93	277.47
722.27	276.92
722.60	276.37
722.93	275.81
723.26	275.31
723.59	274.77
723.93	274.23
724.26	273.65
724.59	273.11
724.92	272.56
725.25	272.08
725.59	271.52
725.92	271.03
726.25	270.57
726.58	270.06
726.91	269.55
727.24	269.09
727.57	268.64
727.91	268.14
728.24	267.66
728.57	267.16
728.90	266.76
729.23	266.24
729.56	265.86
729.89	265.43
730.22	264.92
730.55	264.44
730.89	263.98
731.22	263.54
731.55	263.12
731.88	262.72
732.21	262.26
732.54	261.86
732.87	261.42
733.20	261.01
733.53	260.64
733.86	260.30
734.19	259.91
734.52	259.48
734.85	259.17
735.18	258.73
735.51	258.38
735.84	258.01
736.17	257.66
736.50	257.22
736.83	256.98
737.16	256.66
737.49	256.32
737.82	255.98
738.15	255.67
738.48	255.38
738.81	255.02
739.14	254.72
739.47	254.40
739.80	254.11
740.13	253.80
740.46	253.49
740.79	253.12
741.12	252.76
741.45	252.48
741.78	252.16
742.11	251.91
742.44	251.58
742.77	251.31
743.10	250.98
743.43	250.67
743.75	250.26
744.08	250.12
744.41	249.87
744.74	249.58
745.07	249.28
745.40	249.02
745.73	248.76
746.06	248.50
746.39	248.25
746.71	247.96
747.04	247.68
747.37	247.40
747.70	247.17
748.03	246.96
748.36	246.73
748.68	246.49
749.01	246.22
749.34	246.00
749.67	245.78
750.00	245.59
750.33	245.44
750.65	245.23
750.98	244.87
751.31	244.66
751.64	244.44
751.97	244.34
752.29	244.10
752.62	243.89
752.95	243.67
753.28	243.42
753.60	243.26
753.93	243.08
754.26	242.87
754.59	242.67
754.91	242.49
755.24	242.29
755.57	242.09
755.90	241.92
756.22	241.74
756.55	241.51
756.88	241.30
757.20	241.07
757.53	240.85
757.86	240.68
758.19	240.53
758.51	240.36
758.84	240.08
759.17	239.91
759.49	239.75
759.82	239.65
760.15	239.53
760.47	239.37
760.80	239.20
761.13	239.08
761.45	238.91
761.78	238.75
762.11	238.62
762.43	238.47
762.76	238.35
763.08	238.21
763.41	238.07
763.74	237.94
764.06	237.82
764.39	237.70
764.71	237.57
765.04	237.42
765.37	237.28
765.69	237.16
766.02	237.02
766.34	236.90
766.67	236.75
767.00	236.64
767.32	236.54
767.65	236.49
767.97	236.38
768.30	236.25
768.62	236.14
768.95	236.01
769.27	235.87
769.60	235.75
769.92	235.64
770.25	235.52
770.57	235.42
770.90	235.31
771.22	235.24
771.55	235.13
771.87	235.04
772.20	234.95
772.52	234.94
772.85	234.98
773.17	234.86
773.50	234.74
773.82	234.64
774.15	234.50
774.47	234.31
774.80	234.23
775.12	234.17
775.45	234.12
775.77	234.06
776.09	234.03
776.42	233.94
776.74	233.92
777.07	233.84
777.39	233.79
777.72	233.72
778.04	233.67
778.36	233.62
778.69	233.57
779.01	233.54
779.33	233.41
779.66	233.24
779.98	233.17
780.31	233.13
780.63	233.11
780.95	233.12
781.28	233.06
781.60	232.96
781.92	232.91
782.25	232.82
782.57	232.74
782.89	232.66
783.22	232.64
783.54	232.55
783.86	232.52
784.19	232.47
784.51	232.42
784.83	232.34
785.16	232.25
785.48	232.19
785.80	232.12
786.12	232.08
786.45	232.02
786.77	232.00
787.09	231.96
