SpectraSuite Data File
++++++++++++++++++++++++++++++++++++
Date: Fri Feb 01 17:52:47 EST 2013
User: group
Dark Spectrum Present: No
Reference Spectrum Present: No
Number of Sampled Component Spectra: 1
Spectrometers: USB2E7196
Integration Time (usec): 35000 (USB2E7196)
Spectra Averaged: 100 (USB2E7196)
Boxcar Smoothing: 10 (USB2E7196)
Correct for Electrical Dark: No (USB2E7196)
Strobe/Lamp Enabled: No (USB2E7196)
Correct for Detector Non-linearity: No (USB2E7196)
Correct for Stray Light: No (USB2E7196)
Number of Pixels in Processed Spectrum: 2048
>>>>>Begin Processed Spectral Data<<<<<
339.09	0.00
339.48	212.82
339.86	213.88
340.24	215.84
340.63	217.02
341.01	219.50
341.39	219.81
341.78	221.50
342.16	222.38
342.54	222.27
342.93	210.99
343.31	221.69
343.69	222.21
344.07	222.68
344.46	223.08
344.84	223.47
345.22	223.71
345.60	223.95
345.99	224.13
346.37	224.26
346.75	224.38
347.13	224.43
347.52	224.52
347.90	224.59
348.28	224.62
348.66	224.71
349.05	224.74
349.43	224.78
349.81	224.83
350.19	224.90
350.57	224.95
350.96	224.98
351.34	225.05
351.72	225.16
352.10	225.28
352.48	225.38
352.87	225.42
353.25	225.48
353.63	225.52
354.01	225.57
354.39	225.63
354.77	225.67
355.15	225.77
355.54	225.85
355.92	225.90
356.30	226.00
356.68	226.13
357.06	226.24
357.44	226.30
357.82	226.38
358.20	226.43
358.58	226.50
358.97	226.64
359.35	226.69
359.73	226.75
360.11	226.78
360.49	226.81
360.87	226.87
361.25	226.94
361.63	227.02
362.01	227.07
362.39	227.11
362.77	227.19
363.15	227.21
363.53	227.23
363.91	227.26
364.29	227.29
364.67	227.23
365.05	227.23
365.43	227.24
365.81	227.26
366.19	227.33
366.57	227.36
366.95	227.34
367.33	227.32
367.71	227.32
368.09	227.33
368.47	227.33
368.85	227.34
369.23	227.36
369.61	227.33
369.99	227.33
370.37	227.34
370.75	227.39
371.13	227.34
371.51	227.33
371.89	227.28
372.27	227.25
372.65	227.20
373.03	227.14
373.41	227.11
373.78	227.06
374.16	226.96
374.54	226.86
374.92	226.81
375.30	226.79
375.68	226.69
376.06	226.64
376.44	226.57
376.82	226.48
377.19	226.38
377.57	226.33
377.95	226.25
378.33	226.15
378.71	225.99
379.09	225.94
379.47	225.82
379.84	225.77
380.22	225.70
380.60	225.62
380.98	225.57
381.36	225.51
381.73	225.46
382.11	225.44
382.49	225.39
382.87	225.30
383.25	225.22
383.62	225.29
384.00	225.26
384.38	225.21
384.76	225.18
385.13	225.16
385.51	225.09
385.89	225.05
386.27	225.00
386.64	225.03
387.02	224.98
387.40	224.99
387.78	224.93
388.15	224.91
388.53	224.88
388.91	224.86
389.29	224.83
389.66	224.81
390.04	224.76
390.42	224.78
390.79	224.81
391.17	224.83
391.55	224.72
391.92	224.66
392.30	224.68
392.68	224.63
393.05	224.63
393.43	224.66
393.81	224.62
394.18	224.65
394.56	224.62
394.94	224.64
395.31	224.67
395.69	224.74
396.06	224.77
396.44	224.81
396.82	224.81
397.19	224.90
397.57	224.92
397.95	224.97
398.32	224.96
398.70	224.99
399.07	225.02
399.45	225.05
399.82	225.11
400.20	225.14
400.58	225.24
400.95	225.29
401.33	225.40
401.70	225.58
402.08	225.68
402.45	225.80
402.83	225.92
403.20	226.02
403.58	226.10
403.95	226.20
404.33	226.32
404.71	226.45
405.08	226.62
405.46	226.76
405.83	226.93
406.21	227.10
406.58	227.29
406.96	227.46
407.33	227.68
407.70	227.95
408.08	228.24
408.45	228.53
408.83	228.85
409.20	229.06
409.58	229.26
409.95	229.55
410.33	229.87
410.70	230.20
411.08	230.54
411.45	230.92
411.82	231.30
412.20	231.76
412.57	232.32
412.95	232.72
413.32	233.22
413.69	233.73
414.07	234.29
414.44	234.88
414.82	235.49
415.19	236.19
415.56	236.89
415.94	237.60
416.31	238.39
416.68	239.16
417.06	240.13
417.43	241.02
417.81	242.03
418.18	243.07
418.55	244.14
418.93	245.29
419.30	246.49
419.67	247.75
420.04	249.03
420.42	250.34
420.79	251.88
421.16	253.42
421.54	255.00
421.91	256.64
422.28	258.34
422.66	260.10
423.03	261.82
423.40	263.56
423.77	265.44
424.15	267.38
424.52	269.36
424.89	271.49
425.26	273.57
425.64	275.50
426.01	277.58
426.38	279.78
426.75	282.02
427.13	284.29
427.50	286.68
427.87	289.15
428.24	291.59
428.61	293.95
428.99	296.54
429.36	299.34
429.73	302.08
430.10	304.81
430.47	307.58
430.85	310.41
431.22	313.40
431.59	316.52
431.96	319.46
432.33	322.76
432.70	325.89
433.08	329.62
433.45	333.12
433.82	336.56
434.19	340.38
434.56	344.10
434.93	347.61
435.30	351.10
435.68	354.89
436.05	358.67
436.42	362.38
436.79	365.64
437.16	369.18
437.53	372.88
437.90	376.55
438.27	380.12
438.64	383.84
439.01	387.27
439.38	390.27
439.75	393.14
440.13	396.40
440.50	399.46
440.87	401.91
441.24	404.48
441.61	407.35
441.98	409.32
442.35	411.78
442.72	414.25
443.09	416.64
443.46	418.00
443.83	418.80
444.20	419.50
444.57	420.67
444.94	421.10
445.31	421.58
445.68	421.99
446.05	422.11
446.42	421.62
446.79	421.11
447.16	420.57
447.53	420.17
447.90	418.69
448.27	417.21
448.64	415.09
449.01	413.61
449.37	411.01
449.74	408.52
450.11	405.47
450.48	402.21
450.85	398.85
451.22	396.01
451.59	393.28
451.96	390.66
452.33	387.22
452.70	384.10
453.07	380.35
453.43	376.59
453.80	372.95
454.17	369.42
454.54	365.98
454.91	362.31
455.28	358.76
455.65	355.48
456.02	352.18
456.38	349.36
456.75	345.78
457.12	342.77
457.49	339.79
457.86	336.88
458.23	334.40
458.59	331.65
458.96	328.87
459.33	326.41
459.70	323.94
460.07	321.90
460.43	319.62
460.80	317.47
461.17	315.52
461.54	313.51
461.91	311.64
462.27	309.74
462.64	308.07
463.01	306.25
463.38	304.46
463.74	302.62
464.11	301.00
464.48	299.66
464.85	298.18
465.21	297.06
465.58	295.86
465.95	294.38
466.32	293.18
466.68	291.98
467.05	290.78
467.42	289.60
467.78	288.39
468.15	287.20
468.52	286.28
468.88	285.17
469.25	284.15
469.62	283.30
469.98	282.41
470.35	281.54
470.72	280.75
471.08	279.91
471.45	279.21
471.82	278.49
472.18	277.64
472.55	277.07
472.92	276.34
473.28	275.72
473.65	275.15
474.02	274.57
474.38	274.05
474.75	273.60
475.11	273.08
475.48	272.67
475.85	272.34
476.21	271.99
476.58	271.68
476.94	271.46
477.31	271.18
477.67	270.92
478.04	270.78
478.41	270.62
478.77	270.58
479.14	270.46
479.50	270.42
479.87	270.52
480.23	270.55
480.60	270.58
480.96	270.56
481.33	270.69
481.69	270.85
482.06	271.01
482.42	271.18
482.79	271.40
483.15	271.69
483.52	272.02
483.88	272.36
484.25	272.72
484.61	273.11
484.98	273.53
485.34	274.07
485.71	274.64
486.07	275.23
486.44	275.75
486.80	276.47
487.17	277.20
487.53	278.01
487.90	278.86
488.26	279.81
488.62	280.84
488.99	281.83
489.35	282.89
489.72	284.04
490.08	285.25
490.44	286.53
490.81	287.91
491.17	289.30
491.54	290.85
491.90	292.41
492.26	294.11
492.63	295.96
492.99	297.79
493.36	299.76
493.72	301.90
494.08	304.16
494.45	306.48
494.81	309.00
495.17	311.51
495.54	314.16
495.90	317.00
496.26	319.93
496.63	323.05
496.99	326.33
497.35	329.78
497.72	333.36
498.08	337.09
498.44	340.92
498.80	345.06
499.17	349.28
499.53	353.74
499.89	358.35
500.26	363.06
500.62	368.04
500.98	373.27
501.34	378.66
501.71	384.22
502.07	389.95
502.43	395.88
502.79	402.04
503.16	408.48
503.52	415.07
503.88	421.86
504.24	428.85
504.60	436.10
504.97	443.59
505.33	451.38
505.69	459.51
506.05	467.74
506.41	476.08
506.78	484.78
507.14	493.68
507.50	502.92
507.86	512.49
508.22	522.23
508.59	531.97
508.95	542.14
509.31	552.58
509.67	563.37
510.03	574.22
510.39	585.46
510.75	596.86
511.12	608.47
511.48	620.46
511.84	632.69
512.20	644.92
512.56	657.67
512.92	670.58
513.28	683.92
513.64	697.30
514.00	710.92
514.37	724.75
514.73	738.71
515.09	752.64
515.45	766.85
515.81	781.37
516.17	796.31
516.53	811.44
516.89	826.60
517.25	841.80
517.61	857.39
517.97	872.90
518.33	888.44
518.69	904.39
519.05	920.66
519.41	936.98
519.77	953.73
520.13	970.44
520.49	987.19
520.85	1003.57
521.21	1020.52
521.57	1038.01
521.93	1055.02
522.29	1072.75
522.65	1090.39
523.01	1107.99
523.37	1125.47
523.73	1143.19
524.09	1160.76
524.45	1178.64
524.81	1196.88
525.17	1215.16
525.53	1233.65
525.89	1252.20
526.25	1270.62
526.61	1288.54
526.97	1306.93
527.33	1325.14
527.68	1343.37
528.04	1361.48
528.40	1379.83
528.76	1398.62
529.12	1416.97
529.48	1435.79
529.84	1453.57
530.20	1472.04
530.56	1490.90
530.91	1510.08
531.27	1528.73
531.63	1546.96
531.99	1565.32
532.35	1583.11
532.71	1600.88
533.07	1619.06
533.42	1636.89
533.78	1654.95
534.14	1673.09
534.50	1690.34
534.86	1708.18
535.21	1725.32
535.57	1743.24
535.93	1760.64
536.29	1777.43
536.65	1794.45
537.00	1811.04
537.36	1828.53
537.72	1844.96
538.08	1861.41
538.44	1877.21
538.79	1892.95
539.15	1908.69
539.51	1924.37
539.87	1940.78
540.22	1956.54
540.58	1972.29
540.94	1987.47
541.29	2002.27
541.65	2016.98
542.01	2032.27
542.37	2046.50
542.72	2060.93
543.08	2074.83
543.44	2089.50
543.79	2102.84
544.15	2115.87
544.51	2129.47
544.87	2142.28
545.22	2155.34
545.58	2167.55
545.94	2179.34
546.29	2191.26
546.65	2203.14
547.01	2214.58
547.36	2225.26
547.72	2235.72
548.07	2245.76
548.43	2255.97
548.79	2265.79
549.14	2275.39
549.50	2284.51
549.86	2294.01
550.21	2303.26
550.57	2312.26
550.92	2320.64
551.28	2329.46
551.64	2338.54
551.99	2346.90
552.35	2355.01
552.70	2362.80
553.06	2370.52
553.41	2378.78
553.77	2386.50
554.13	2394.18
554.48	2401.76
554.84	2409.11
555.19	2415.85
555.55	2422.39
555.90	2428.52
556.26	2435.29
556.61	2441.50
556.97	2447.59
557.32	2453.45
557.68	2459.17
558.03	2464.89
558.39	2469.92
558.74	2476.21
559.10	2481.39
559.45	2486.57
559.81	2492.19
560.16	2497.43
560.52	2502.05
560.87	2506.66
561.23	2510.56
561.58	2514.83
561.94	2518.89
562.29	2522.18
562.64	2526.41
563.00	2530.28
563.35	2535.05
563.71	2539.34
564.06	2543.72
564.42	2547.90
564.77	2551.61
565.12	2555.19
565.48	2558.31
565.83	2561.41
566.19	2563.79
566.54	2565.62
566.89	2567.81
567.25	2569.47
567.60	2571.68
567.96	2574.54
568.31	2576.31
568.66	2578.54
569.02	2580.07
569.37	2581.27
569.72	2583.06
570.08	2583.97
570.43	2584.71
570.78	2584.89
571.14	2583.92
571.49	2583.02
571.84	2582.96
572.20	2582.41
572.55	2581.86
572.90	2580.55
573.26	2579.68
573.61	2578.23
573.96	2577.10
574.31	2574.40
574.67	2571.55
575.02	2568.06
575.37	2564.76
575.72	2561.34
576.08	2558.07
576.43	2554.52
576.78	2550.89
577.13	2547.77
577.49	2544.44
577.84	2541.21
578.19	2537.35
578.54	2533.81
578.90	2529.75
579.25	2524.13
579.60	2519.09
579.95	2513.74
580.30	2508.49
580.66	2503.09
581.01	2497.83
581.36	2492.41
581.71	2488.06
582.06	2483.43
582.42	2478.97
582.77	2473.40
583.12	2468.49
583.47	2463.58
583.82	2458.59
584.17	2453.04
584.53	2447.11
584.88	2441.22
585.23	2434.84
585.58	2428.99
585.93	2422.93
586.28	2417.64
586.63	2412.15
586.98	2406.47
587.34	2401.25
587.69	2395.91
588.04	2390.19
588.39	2384.08
588.74	2377.09
589.09	2370.21
589.44	2362.87
589.79	2355.99
590.14	2349.58
590.49	2342.12
590.84	2334.97
591.19	2328.20
591.54	2320.94
591.89	2312.94
592.25	2305.53
592.60	2297.39
592.95	2288.84
593.30	2280.65
593.65	2272.03
594.00	2264.16
594.35	2255.98
594.70	2246.83
595.05	2238.97
595.40	2230.56
595.75	2222.00
596.10	2215.04
596.45	2207.49
596.80	2200.50
597.15	2193.02
597.50	2185.31
597.85	2177.85
598.19	2170.29
598.54	2162.40
598.89	2155.03
599.24	2148.27
599.59	2140.73
599.94	2133.61
600.29	2126.48
600.64	2118.83
600.99	2110.50
601.34	2102.68
601.69	2094.63
602.04	2086.95
602.39	2078.42
602.74	2070.65
603.08	2063.09
603.43	2055.19
603.78	2046.84
604.13	2038.40
604.48	2030.19
604.83	2022.27
605.18	2014.68
605.53	2005.57
605.87	1996.34
606.22	1987.84
606.57	1978.53
606.92	1969.77
607.27	1961.72
607.62	1953.64
607.96	1945.37
608.31	1938.00
608.66	1929.33
609.01	1920.85
609.36	1912.23
609.70	1903.02
610.05	1893.77
610.40	1884.73
610.75	1875.32
611.10	1866.45
611.44	1856.68
611.79	1847.25
612.14	1837.19
612.49	1826.36
612.83	1816.51
613.18	1806.88
613.53	1797.38
613.88	1787.63
614.22	1778.06
614.57	1767.89
614.92	1758.61
615.27	1749.98
615.61	1740.13
615.96	1730.66
616.31	1721.59
616.65	1712.94
617.00	1704.15
617.35	1695.25
617.70	1685.65
618.04	1675.82
618.39	1666.17
618.74	1657.41
619.08	1647.75
619.43	1638.91
619.78	1630.85
620.12	1622.54
620.47	1613.80
620.82	1604.30
621.16	1595.38
621.51	1586.37
621.85	1577.49
622.20	1567.62
622.55	1557.77
622.89	1548.58
623.24	1539.65
623.59	1530.97
623.93	1522.09
624.28	1513.58
624.62	1504.84
624.97	1496.47
625.32	1488.36
625.66	1480.20
626.01	1471.79
626.35	1463.37
626.70	1454.23
627.04	1445.33
627.39	1436.26
627.73	1427.70
628.08	1419.66
628.43	1411.51
628.77	1403.26
629.12	1394.62
629.46	1386.28
629.81	1377.52
630.15	1369.05
630.50	1360.49
630.84	1350.95
631.19	1341.68
631.53	1332.91
631.88	1324.04
632.22	1315.21
632.57	1306.77
632.91	1297.96
633.26	1289.35
633.60	1280.54
633.95	1272.20
634.29	1263.89
634.64	1256.08
634.98	1247.61
635.32	1239.28
635.67	1231.40
636.01	1223.57
636.36	1215.74
636.70	1208.16
637.05	1200.58
637.39	1193.10
637.73	1185.67
638.08	1178.87
638.42	1171.97
638.77	1164.53
639.11	1157.02
639.45	1149.59
639.80	1141.86
640.14	1134.62
640.49	1127.18
640.83	1119.92
641.17	1112.87
641.52	1105.58
641.86	1098.08
642.20	1091.27
642.55	1083.90
642.89	1076.51
643.23	1068.83
643.58	1062.08
643.92	1054.96
644.26	1048.12
644.61	1041.10
644.95	1034.22
645.29	1026.77
645.64	1019.07
645.98	1011.78
646.32	1004.87
646.66	997.96
647.01	991.23
647.35	984.54
647.69	977.61
648.04	971.23
648.38	964.57
648.72	957.79
649.06	950.93
649.41	944.06
649.75	937.32
650.09	930.50
650.43	924.01
650.78	916.95
651.12	910.13
651.46	903.43
651.80	897.01
652.14	890.67
652.49	884.52
652.83	878.58
653.17	872.15
653.51	865.75
653.85	859.53
654.20	853.17
654.54	846.27
654.88	839.77
655.22	833.05
655.56	826.40
655.90	820.03
656.25	814.00
656.59	808.02
656.93	802.14
657.27	796.27
657.61	789.97
657.95	784.16
658.29	778.34
658.64	772.31
658.98	766.19
659.32	759.93
659.66	753.97
660.00	747.99
660.34	742.33
660.68	736.68
661.02	730.93
661.36	725.49
661.70	720.40
662.05	715.43
662.39	710.59
662.73	705.59
663.07	700.61
663.41	695.56
663.75	690.44
664.09	685.26
664.43	680.22
664.77	675.62
665.11	670.75
665.45	665.93
665.79	661.35
666.13	656.62
666.47	651.97
666.81	647.18
667.15	642.38
667.49	637.87
667.83	633.39
668.17	628.93
668.51	624.34
668.85	619.65
669.19	615.20
669.53	610.82
669.87	606.42
670.21	602.16
670.55	597.94
670.89	593.96
671.23	590.05
671.57	586.00
671.91	581.90
672.25	577.83
672.58	573.86
672.92	569.91
673.26	566.22
673.60	562.55
673.94	559.00
674.28	555.71
674.62	552.30
674.96	548.85
675.30	545.53
675.64	542.16
675.97	538.94
676.31	535.73
676.65	532.31
676.99	529.17
677.33	525.94
677.67	522.77
678.01	519.31
678.34	515.92
678.68	512.67
679.02	509.48
679.36	506.34
679.70	503.26
680.04	500.13
680.37	496.92
680.71	493.79
681.05	490.81
681.39	487.70
681.73	484.70
682.06	481.79
682.40	478.85
682.74	475.99
683.08	473.11
683.42	470.05
683.75	467.21
684.09	464.28
684.43	461.41
684.77	458.57
685.10	455.88
685.44	453.19
685.78	450.49
686.12	447.89
686.45	445.24
686.79	442.61
687.13	440.11
687.46	437.60
687.80	435.08
688.14	432.49
688.48	430.09
688.81	427.55
689.15	425.06
689.49	422.54
689.82	420.19
690.16	417.78
690.50	415.55
690.83	413.32
691.17	410.99
691.51	408.81
691.84	406.68
692.18	404.50
692.52	402.27
692.85	400.05
693.19	397.87
693.52	395.75
693.86	393.63
694.20	391.53
694.53	389.51
694.87	387.36
695.21	385.35
695.54	383.21
695.88	381.18
696.21	379.21
696.55	377.35
696.88	375.34
697.22	373.40
697.56	371.53
697.89	369.59
698.23	367.79
698.56	365.96
698.90	364.14
699.23	362.25
699.57	360.46
699.90	358.68
700.24	356.92
700.58	355.22
700.91	353.50
701.25	351.84
701.58	350.23
701.92	348.67
702.25	347.02
702.59	345.51
702.92	344.01
703.26	342.46
703.59	340.95
703.93	339.63
704.26	338.23
704.60	336.78
704.93	335.35
705.26	333.92
705.60	332.50
705.93	331.14
706.27	329.88
706.60	328.66
706.94	327.41
707.27	326.08
707.61	324.79
707.94	323.58
708.27	322.32
708.61	321.10
708.94	319.93
709.28	318.81
709.61	317.69
709.94	316.56
710.28	315.40
710.61	314.23
710.95	312.95
711.28	311.89
711.61	310.81
711.95	309.76
712.28	308.68
712.61	307.60
712.95	306.52
713.28	305.51
713.61	304.48
713.95	303.46
714.28	302.47
714.61	301.49
714.95	300.52
715.28	299.51
715.61	298.47
715.95	297.47
716.28	296.50
716.61	295.53
716.95	294.59
717.28	293.70
717.61	292.85
717.94	292.00
718.28	291.03
718.61	290.14
718.94	289.31
719.27	288.54
719.61	287.77
719.94	286.99
720.27	286.16
720.60	285.38
720.94	284.66
721.27	283.98
721.60	283.32
721.93	282.66
722.27	282.06
722.60	281.44
722.93	280.80
723.26	280.19
723.59	279.56
723.93	278.91
724.26	278.27
724.59	277.59
724.92	276.97
725.25	276.46
725.59	275.89
725.92	275.31
726.25	274.71
726.58	274.15
726.91	273.62
727.24	273.07
727.57	272.53
727.91	271.94
728.24	271.41
728.57	270.85
728.90	270.32
729.23	269.71
729.56	269.20
729.89	268.63
730.22	268.06
730.55	267.50
730.89	267.05
731.22	266.55
731.55	266.12
731.88	265.61
732.21	265.06
732.54	264.57
732.87	264.08
733.20	263.59
733.53	263.13
733.86	262.68
734.19	262.27
734.52	261.83
734.85	261.47
735.18	261.02
735.51	260.63
735.84	260.21
736.17	259.81
736.50	259.35
736.83	259.11
737.16	258.76
737.49	258.41
737.82	257.98
738.15	257.62
738.48	257.21
738.81	256.84
739.14	256.52
739.47	256.13
739.80	255.76
740.13	255.42
740.46	255.07
740.79	254.72
741.12	254.32
741.45	253.96
741.78	253.59
742.11	253.26
742.44	252.87
742.77	252.50
743.10	252.14
743.43	251.82
743.75	251.36
744.08	251.15
744.41	250.77
744.74	250.49
745.07	250.17
745.40	249.89
745.73	249.63
746.06	249.28
746.39	249.01
746.71	248.74
747.04	248.40
747.37	248.11
747.70	247.84
748.03	247.58
748.36	247.31
748.68	247.04
749.01	246.76
749.34	246.49
749.67	246.26
750.00	246.03
750.33	245.85
750.65	245.63
750.98	245.25
751.31	245.07
751.64	244.83
751.97	244.64
752.29	244.37
752.62	244.07
752.95	243.82
753.28	243.57
753.60	243.36
753.93	243.19
754.26	242.94
754.59	242.69
754.91	242.45
755.24	242.23
755.57	242.02
755.90	241.79
756.22	241.55
756.55	241.27
756.88	241.05
757.20	240.77
757.53	240.55
757.86	240.35
758.19	240.12
758.51	239.92
758.84	239.65
759.17	239.42
759.49	239.22
759.82	239.09
760.15	238.92
760.47	238.69
760.80	238.49
761.13	238.32
761.45	238.12
761.78	237.92
762.11	237.73
762.43	237.55
762.76	237.38
763.08	237.26
763.41	237.13
763.74	236.97
764.06	236.80
764.39	236.62
764.71	236.47
765.04	236.32
765.37	236.17
765.69	236.00
766.02	235.88
766.34	235.76
766.67	235.58
767.00	235.43
767.32	235.34
767.65	235.26
767.97	235.13
768.30	234.99
768.62	234.86
768.95	234.77
769.27	234.61
769.60	234.48
769.92	234.34
770.25	234.18
770.57	234.02
770.90	233.92
771.22	233.81
771.55	233.67
771.87	233.60
772.20	233.44
772.52	233.45
772.85	233.46
773.17	233.32
773.50	233.19
773.82	233.10
774.15	232.98
774.47	232.83
774.80	232.70
775.12	232.63
775.45	232.57
775.77	232.45
776.09	232.38
776.42	232.28
776.74	232.18
777.07	232.14
777.39	232.12
777.72	232.01
778.04	231.93
778.36	231.85
778.69	231.73
779.01	231.66
779.33	231.48
779.66	231.30
779.98	231.28
780.31	231.23
780.63	231.20
780.95	231.13
781.28	231.05
781.60	230.99
781.92	230.94
782.25	230.85
782.57	230.79
782.89	230.73
783.22	230.68
783.54	230.64
783.86	230.58
784.19	230.47
784.51	230.47
784.83	230.44
785.16	230.41
785.48	230.37
785.80	230.35
786.12	230.33
786.45	230.30
