SpectraSuite Data File
++++++++++++++++++++++++++++++++++++
Date: Fri Feb 01 15:26:53 EST 2013
User: group
Dark Spectrum Present: No
Reference Spectrum Present: No
Number of Sampled Component Spectra: 1
Spectrometers: USB2E7196
Integration Time (usec): 35000 (USB2E7196)
Spectra Averaged: 100 (USB2E7196)
Boxcar Smoothing: 10 (USB2E7196)
Correct for Electrical Dark: No (USB2E7196)
Strobe/Lamp Enabled: No (USB2E7196)
Correct for Detector Non-linearity: No (USB2E7196)
Correct for Stray Light: No (USB2E7196)
Number of Pixels in Processed Spectrum: 2048
>>>>>Begin Processed Spectral Data<<<<<
339.09	0.00
339.48	214.69
339.86	216.01
340.24	218.11
340.63	219.23
341.01	222.15
341.39	221.92
341.78	223.81
342.16	224.72
342.54	225.60
342.93	213.34
343.31	224.13
343.69	224.68
344.07	225.15
344.46	225.59
344.84	225.98
345.22	226.20
345.60	226.47
345.99	226.63
346.37	226.76
346.75	226.82
347.13	226.88
347.52	226.98
347.90	227.05
348.28	227.08
348.66	227.11
349.05	227.13
349.43	227.22
349.81	227.24
350.19	227.28
350.57	227.39
350.96	227.45
351.34	227.53
351.72	227.61
352.10	227.72
352.48	227.78
352.87	227.83
353.25	227.92
353.63	227.94
354.01	227.98
354.39	228.07
354.77	228.19
355.15	228.32
355.54	228.34
355.92	228.43
356.30	228.51
356.68	228.65
357.06	228.74
357.44	228.75
357.82	228.83
358.20	228.87
358.58	228.88
358.97	228.96
359.35	229.03
359.73	229.13
360.11	229.16
360.49	229.20
360.87	229.25
361.25	229.31
361.63	229.39
362.01	229.49
362.39	229.50
362.77	229.52
363.15	229.54
363.53	229.57
363.91	229.58
364.29	229.59
364.67	229.50
365.05	229.52
365.43	229.56
365.81	229.59
366.19	229.65
366.57	229.69
366.95	229.72
367.33	229.71
367.71	229.68
368.09	229.73
368.47	229.74
368.85	229.73
369.23	229.73
369.61	229.68
369.99	229.64
370.37	229.63
370.75	229.65
371.13	229.59
371.51	229.54
371.89	229.49
372.27	229.43
372.65	229.37
373.03	229.28
373.41	229.23
373.78	229.15
374.16	229.06
374.54	228.98
374.92	228.86
375.30	228.77
375.68	228.71
376.06	228.61
376.44	228.51
376.82	228.43
377.19	228.32
377.57	228.28
377.95	228.18
378.33	228.11
378.71	227.98
379.09	227.92
379.47	227.87
379.84	227.79
380.22	227.73
380.60	227.63
380.98	227.55
381.36	227.47
381.73	227.40
382.11	227.36
382.49	227.29
382.87	227.23
383.25	227.19
383.62	227.21
384.00	227.10
384.38	227.00
384.76	226.98
385.13	226.99
385.51	226.90
385.89	226.83
386.27	226.75
386.64	226.72
387.02	226.62
387.40	226.57
387.78	226.52
388.15	226.48
388.53	226.48
388.91	226.47
389.29	226.41
389.66	226.36
390.04	226.31
390.42	226.31
390.79	226.29
391.17	226.28
391.55	226.18
391.92	226.19
392.30	226.24
392.68	226.23
393.05	226.20
393.43	226.24
393.81	226.28
394.18	226.28
394.56	226.26
394.94	226.37
395.31	226.35
395.69	226.43
396.06	226.48
396.44	226.53
396.82	226.58
397.19	226.69
397.57	226.72
397.95	226.81
398.32	226.85
398.70	226.93
399.07	227.02
399.45	227.08
399.82	227.15
400.20	227.21
400.58	227.29
400.95	227.31
401.33	227.40
401.70	227.54
402.08	227.66
402.45	227.77
402.83	227.88
403.20	227.99
403.58	228.11
403.95	228.27
404.33	228.39
404.71	228.52
405.08	228.70
405.46	228.88
405.83	229.03
406.21	229.20
406.58	229.36
406.96	229.50
407.33	229.68
407.70	229.93
408.08	230.21
408.45	230.42
408.83	230.69
409.20	230.90
409.58	231.08
409.95	231.34
410.33	231.62
410.70	231.86
411.08	232.19
411.45	232.51
411.82	232.79
412.20	233.13
412.57	233.55
412.95	233.84
413.32	234.22
413.69	234.62
414.07	235.00
414.44	235.48
414.82	235.97
415.19	236.52
415.56	237.04
415.94	237.56
416.31	238.23
416.68	238.84
417.06	239.56
417.43	240.26
417.81	241.03
418.18	241.81
418.55	242.66
418.93	243.51
419.30	244.38
419.67	245.29
420.04	246.25
420.42	247.25
420.79	248.43
421.16	249.58
421.54	250.80
421.91	252.05
422.28	253.31
422.66	254.62
423.03	255.90
423.40	257.23
423.77	258.62
424.15	260.05
424.52	261.56
424.89	263.18
425.26	264.72
425.64	266.17
426.01	267.77
426.38	269.44
426.75	271.14
427.13	272.84
427.50	274.68
427.87	276.53
428.24	278.39
428.61	280.14
428.99	282.13
429.36	284.19
429.73	286.26
430.10	288.27
430.47	290.36
430.85	292.51
431.22	294.77
431.59	297.13
431.96	299.37
432.33	301.87
432.70	304.29
433.08	307.10
433.45	309.76
433.82	312.34
434.19	315.22
434.56	318.02
434.93	320.74
435.30	323.34
435.68	326.28
436.05	329.09
436.42	331.90
436.79	334.38
437.16	337.12
437.53	339.96
437.90	342.80
438.27	345.57
438.64	348.37
439.01	350.98
439.38	353.28
439.75	355.45
440.13	358.00
440.50	360.27
440.87	362.14
441.24	364.05
441.61	366.23
441.98	367.74
442.35	369.53
442.72	371.39
443.09	373.20
443.46	374.15
443.83	374.77
444.20	375.26
444.57	376.10
444.94	376.33
445.31	376.68
445.68	377.01
446.05	377.04
446.42	376.67
446.79	376.24
447.16	375.76
447.53	375.46
447.90	374.22
448.27	373.12
448.64	371.51
449.01	370.38
449.37	368.45
449.74	366.52
450.11	364.26
450.48	361.78
450.85	359.28
451.22	357.21
451.59	355.17
451.96	353.24
452.33	350.64
452.70	348.33
453.07	345.47
453.43	342.58
453.80	339.80
454.17	337.09
454.54	334.53
454.91	331.81
455.28	329.08
455.65	326.60
456.02	324.16
456.38	321.99
456.75	319.33
457.12	317.00
457.49	314.76
457.86	312.60
458.23	310.75
458.59	308.69
458.96	306.53
459.33	304.67
459.70	302.80
460.07	301.28
460.43	299.56
460.80	297.95
461.17	296.48
461.54	295.01
461.91	293.62
462.27	292.15
462.64	290.90
463.01	289.59
463.38	288.28
463.74	286.88
464.11	285.71
464.48	284.72
464.85	283.66
465.21	282.82
465.58	281.91
465.95	280.79
466.32	279.86
466.68	278.99
467.05	278.06
467.42	277.16
467.78	276.22
468.15	275.33
468.52	274.64
468.88	273.77
469.25	272.98
469.62	272.36
469.98	271.67
470.35	271.03
470.72	270.39
471.08	269.71
471.45	269.17
471.82	268.60
472.18	267.96
472.55	267.49
472.92	266.92
473.28	266.43
473.65	265.94
474.02	265.52
474.38	265.14
474.75	264.84
475.11	264.49
475.48	264.24
475.85	264.01
476.21	263.80
476.58	263.63
476.94	263.48
477.31	263.29
477.67	263.15
478.04	263.05
478.41	263.01
478.77	263.07
479.14	263.03
479.50	263.03
479.87	263.09
480.23	263.20
480.60	263.31
480.96	263.42
481.33	263.66
481.69	263.85
482.06	264.06
482.42	264.28
482.79	264.53
483.15	264.84
483.52	265.22
483.88	265.57
484.25	265.95
484.61	266.36
484.98	266.82
485.34	267.40
485.71	267.99
486.07	268.57
486.44	269.14
486.80	269.85
487.17	270.61
487.53	271.43
487.90	272.26
488.26	273.19
488.62	274.21
488.99	275.16
489.35	276.25
489.72	277.40
490.08	278.59
490.44	279.81
490.81	281.13
491.17	282.47
491.54	283.94
491.90	285.46
492.26	287.14
492.63	288.86
492.99	290.66
493.36	292.55
493.72	294.61
494.08	296.67
494.45	298.91
494.81	301.30
495.17	303.74
495.54	306.28
495.90	308.90
496.26	311.65
496.63	314.62
496.99	317.66
497.35	320.86
497.72	324.26
498.08	327.83
498.44	331.48
498.80	335.39
499.17	339.42
499.53	343.59
499.89	347.91
500.26	352.39
500.62	356.99
500.98	361.91
501.34	366.93
501.71	372.30
502.07	377.74
502.43	383.30
502.79	389.07
503.16	395.14
503.52	401.45
503.88	407.87
504.24	414.51
504.60	421.46
504.97	428.62
505.33	435.92
505.69	443.60
506.05	451.44
506.41	459.36
506.78	467.53
507.14	476.04
507.50	484.85
507.86	493.95
508.22	503.23
508.59	512.48
508.95	522.12
509.31	531.93
509.67	542.04
510.03	552.40
510.39	562.92
510.75	573.71
511.12	584.65
511.48	596.01
511.84	607.52
512.20	619.07
512.56	631.03
512.92	643.21
513.28	655.50
513.64	667.93
514.00	680.61
514.37	693.55
514.73	706.62
515.09	719.58
515.45	732.84
515.81	746.42
516.17	760.35
516.53	774.42
516.89	788.62
517.25	802.80
517.61	817.28
517.97	831.87
518.33	846.38
518.69	861.20
519.05	876.11
519.41	891.34
519.77	906.93
520.13	922.44
520.49	937.94
520.85	953.49
521.21	969.34
521.57	985.60
521.93	1001.42
522.29	1017.75
522.65	1034.11
523.01	1050.41
523.37	1066.46
523.73	1082.71
524.09	1098.84
524.45	1115.22
524.81	1131.87
525.17	1148.73
525.53	1165.66
525.89	1182.57
526.25	1199.35
526.61	1215.80
526.97	1232.45
527.33	1248.88
527.68	1265.51
528.04	1282.05
528.40	1298.62
528.76	1315.65
529.12	1332.38
529.48	1349.35
529.84	1365.62
530.20	1382.29
530.56	1399.41
530.91	1416.80
531.27	1433.62
531.63	1450.27
531.99	1466.87
532.35	1483.01
532.71	1498.91
533.07	1515.18
533.42	1531.13
533.78	1547.31
534.14	1563.61
534.50	1579.09
534.86	1595.08
535.21	1610.30
535.57	1626.33
535.93	1641.92
536.29	1656.81
536.65	1671.94
537.00	1686.68
537.36	1701.98
537.72	1716.50
538.08	1730.89
538.44	1744.80
538.79	1758.78
539.15	1772.54
539.51	1786.23
539.87	1800.51
540.22	1814.25
540.58	1828.13
540.94	1841.74
541.29	1854.76
541.65	1867.58
542.01	1880.82
542.37	1893.20
542.72	1905.68
543.08	1917.46
543.44	1929.91
543.79	1941.25
544.15	1952.18
544.51	1963.91
544.87	1974.92
545.22	1985.83
545.58	1996.08
545.94	2005.89
546.29	2015.82
546.65	2025.53
547.01	2035.00
547.36	2043.72
547.72	2052.35
548.07	2060.32
548.43	2068.40
548.79	2076.37
549.14	2083.86
549.50	2091.31
549.86	2099.06
550.21	2106.37
550.57	2113.46
550.92	2120.06
551.28	2127.03
551.64	2134.25
551.99	2140.83
552.35	2146.91
552.70	2153.10
553.06	2159.03
553.41	2165.45
553.77	2171.47
554.13	2177.71
554.48	2183.93
554.84	2189.46
555.19	2194.69
555.55	2199.65
555.90	2204.14
556.26	2209.00
556.61	2213.92
556.97	2217.98
557.32	2222.13
557.68	2226.32
558.03	2230.86
558.39	2234.65
558.74	2239.36
559.10	2243.06
559.45	2246.58
559.81	2251.00
560.16	2254.79
560.52	2258.22
560.87	2261.73
561.23	2264.36
561.58	2267.32
561.94	2269.63
562.29	2271.97
562.64	2274.65
563.00	2277.33
563.35	2280.89
563.71	2283.95
564.06	2287.07
564.42	2290.09
564.77	2292.49
565.12	2294.65
565.48	2296.33
565.83	2298.10
566.19	2299.37
566.54	2300.53
566.89	2301.76
567.25	2302.11
567.60	2303.46
567.96	2304.91
568.31	2305.69
568.66	2306.76
569.02	2307.16
569.37	2307.52
569.72	2308.28
570.08	2308.30
570.43	2308.29
570.78	2307.49
571.14	2306.00
571.49	2304.63
571.84	2304.23
572.20	2303.00
572.55	2302.01
572.90	2300.32
573.26	2298.73
573.61	2296.96
573.96	2294.82
574.31	2291.59
574.67	2288.46
575.02	2284.77
575.37	2281.47
575.72	2277.41
576.08	2274.04
576.43	2270.65
576.78	2266.86
577.13	2263.83
577.49	2260.76
577.84	2257.15
578.19	2253.52
578.54	2249.75
578.90	2245.31
579.25	2239.67
579.60	2234.72
579.95	2229.58
580.30	2224.60
580.66	2219.53
581.01	2214.42
581.36	2209.52
581.71	2205.35
582.06	2201.06
582.42	2196.38
582.77	2191.06
583.12	2186.47
583.47	2181.52
583.82	2176.40
584.17	2171.00
584.53	2165.31
584.88	2159.50
585.23	2153.62
585.58	2148.03
585.93	2142.51
586.28	2137.82
586.63	2132.71
586.98	2127.52
587.34	2122.72
587.69	2117.71
588.04	2112.29
588.39	2106.50
588.74	2100.01
589.09	2093.80
589.44	2086.86
589.79	2080.82
590.14	2075.17
590.49	2068.46
590.84	2062.16
591.19	2056.02
591.54	2049.57
591.89	2042.05
592.25	2035.07
592.60	2027.86
592.95	2020.09
593.30	2012.63
593.65	2004.98
594.00	1997.99
594.35	1990.60
594.70	1982.58
595.05	1975.28
595.40	1967.94
595.75	1960.54
596.10	1954.12
596.45	1947.18
596.80	1941.08
597.15	1934.43
597.50	1927.11
597.85	1920.76
598.19	1913.99
598.54	1906.96
598.89	1900.39
599.24	1894.58
599.59	1887.94
599.94	1881.74
600.29	1875.40
600.64	1868.83
600.99	1861.27
601.34	1854.08
601.69	1847.13
602.04	1840.08
602.39	1832.70
602.74	1825.81
603.08	1819.01
603.43	1812.30
603.78	1805.18
604.13	1797.89
604.48	1790.55
604.83	1783.53
605.18	1776.41
605.53	1768.40
605.87	1760.32
606.22	1753.00
606.57	1744.87
606.92	1737.60
607.27	1730.30
607.62	1723.38
607.96	1716.02
608.31	1709.21
608.66	1701.60
609.01	1693.89
609.36	1686.30
609.70	1678.29
610.05	1670.20
610.40	1662.46
610.75	1654.18
611.10	1646.40
611.44	1638.07
611.79	1630.03
612.14	1621.48
612.49	1612.56
612.83	1604.25
613.18	1596.07
613.53	1588.04
613.88	1579.55
614.22	1571.30
614.57	1562.78
614.92	1554.69
615.27	1547.07
615.61	1538.87
615.96	1531.00
616.31	1523.53
616.65	1516.16
617.00	1508.62
617.35	1501.03
617.70	1492.64
618.04	1484.01
618.39	1475.74
618.74	1468.00
619.08	1459.79
619.43	1452.22
619.78	1445.15
620.12	1437.90
620.47	1430.33
620.82	1422.06
621.16	1414.65
621.51	1407.02
621.85	1399.45
622.20	1390.91
622.55	1382.62
622.89	1374.76
623.24	1367.14
623.59	1359.73
623.93	1352.31
624.28	1345.02
624.62	1337.46
624.97	1330.29
625.32	1323.63
625.66	1316.63
626.01	1309.44
626.35	1301.82
626.70	1293.97
627.04	1286.12
627.39	1278.32
627.73	1270.93
628.08	1263.98
628.43	1256.71
628.77	1249.17
629.12	1241.55
629.46	1234.38
629.81	1227.18
630.15	1219.93
630.50	1212.56
630.84	1204.36
631.19	1196.44
631.53	1189.09
631.88	1181.53
632.22	1173.96
632.57	1166.61
632.91	1159.02
633.26	1151.61
633.60	1144.38
633.95	1137.45
634.29	1130.52
634.64	1123.77
634.98	1116.55
635.32	1109.43
635.67	1102.85
636.01	1096.32
636.36	1089.46
636.70	1082.92
637.05	1076.23
637.39	1069.80
637.73	1063.23
638.08	1057.33
638.42	1051.40
638.77	1044.76
639.11	1038.22
639.45	1031.80
639.80	1025.15
640.14	1018.76
640.49	1012.14
640.83	1005.83
641.17	999.47
641.52	993.10
641.86	986.84
642.20	981.00
642.55	974.81
642.89	968.29
643.23	961.76
643.58	956.03
643.92	949.85
644.26	943.65
644.61	937.61
644.95	931.60
645.29	925.05
645.64	918.21
645.98	911.94
646.32	906.06
646.66	900.05
647.01	894.25
647.35	888.53
647.69	882.75
648.04	877.27
648.38	871.49
648.72	865.48
649.06	859.35
649.41	853.43
649.75	847.32
650.09	841.37
650.43	835.50
650.78	829.28
651.12	823.32
651.46	817.67
651.80	811.88
652.14	806.50
652.49	801.09
652.83	795.91
653.17	790.18
653.51	784.37
653.85	779.03
654.20	773.35
654.54	767.34
654.88	761.68
655.22	755.74
655.56	750.11
655.90	744.70
656.25	739.41
656.59	734.04
656.93	728.98
657.27	723.76
657.61	718.43
657.95	713.35
658.29	708.27
658.64	703.04
658.98	697.78
659.32	692.29
659.66	687.08
660.00	681.70
660.34	676.77
660.68	671.99
661.02	666.95
661.36	662.30
661.70	657.85
662.05	653.49
662.39	649.19
662.73	644.76
663.07	640.39
663.41	636.00
663.75	631.48
664.09	626.99
664.43	622.71
664.77	618.58
665.11	614.41
665.45	610.32
665.79	606.28
666.13	602.18
666.47	598.13
666.81	594.02
667.15	590.01
667.49	586.18
667.83	582.33
668.17	578.35
668.51	574.33
668.85	570.28
669.19	566.43
669.53	562.56
669.87	558.68
670.21	555.02
670.55	551.31
670.89	547.91
671.23	544.45
671.57	540.96
671.91	537.41
672.25	533.93
672.58	530.39
672.92	526.99
673.26	523.84
673.60	520.70
673.94	517.60
674.28	514.76
674.62	511.76
674.96	508.69
675.30	505.83
675.64	502.90
675.97	500.19
676.31	497.33
676.65	494.42
676.99	491.67
677.33	488.79
677.67	486.04
678.01	483.00
678.34	479.97
678.68	477.11
679.02	474.32
679.36	471.52
679.70	468.84
680.04	466.07
680.37	463.17
680.71	460.34
681.05	457.65
681.39	454.91
681.73	452.26
682.06	449.73
682.40	447.17
682.74	444.64
683.08	442.09
683.42	439.52
683.75	437.05
684.09	434.54
684.43	432.06
684.77	429.58
685.10	427.26
685.44	425.02
685.78	422.67
686.12	420.43
686.45	418.19
686.79	415.87
687.13	413.69
687.46	411.54
687.80	409.45
688.14	407.29
688.48	405.22
688.81	402.97
689.15	400.81
689.49	398.63
689.82	396.55
690.16	394.45
690.50	392.51
690.83	390.54
691.17	388.57
691.51	386.67
691.84	384.87
692.18	382.93
692.52	380.92
692.85	379.06
693.19	377.18
693.52	375.38
693.86	373.59
694.20	371.81
694.53	370.02
694.87	368.20
695.21	366.45
695.54	364.62
695.88	362.96
696.21	361.24
696.55	359.58
696.88	357.90
697.22	356.25
697.56	354.59
697.89	352.93
698.23	351.30
698.56	349.68
698.90	348.02
699.23	346.37
699.57	344.81
699.90	343.25
700.24	341.72
700.58	340.15
700.91	338.63
701.25	337.17
701.58	335.77
701.92	334.36
702.25	332.92
702.59	331.59
702.92	330.22
703.26	328.95
703.59	327.68
703.93	326.51
704.26	325.32
704.60	324.02
704.93	322.77
705.26	321.56
705.60	320.42
705.93	319.30
706.27	318.28
706.60	317.24
706.94	316.16
707.27	315.02
707.61	313.96
707.94	312.94
708.27	311.88
708.61	310.86
708.94	309.86
709.28	308.92
709.61	307.94
709.94	307.01
710.28	305.99
710.61	305.02
710.95	303.95
711.28	303.00
711.61	302.07
711.95	301.12
712.28	300.19
712.61	299.20
712.95	298.26
713.28	297.38
713.61	296.50
713.95	295.60
714.28	294.79
714.61	293.96
714.95	293.12
715.28	292.28
715.61	291.36
715.95	290.52
716.28	289.66
716.61	288.84
716.95	288.02
717.28	287.27
717.61	286.53
717.94	285.75
718.28	284.96
718.61	284.23
718.94	283.52
719.27	282.82
719.61	282.17
719.94	281.49
720.27	280.79
720.60	280.16
720.94	279.55
721.27	278.89
721.60	278.26
721.93	277.64
722.27	277.09
722.60	276.56
722.93	275.95
723.26	275.42
723.59	274.86
723.93	274.30
724.26	273.72
724.59	273.16
724.92	272.67
725.25	272.20
725.59	271.69
725.92	271.17
726.25	270.70
726.58	270.23
726.91	269.78
727.24	269.29
727.57	268.80
727.91	268.31
728.24	267.89
728.57	267.41
728.90	266.94
729.23	266.42
729.56	265.96
729.89	265.54
730.22	265.03
730.55	264.58
730.89	264.11
731.22	263.64
731.55	263.17
731.88	262.70
732.21	262.23
732.54	261.78
732.87	261.39
733.20	261.00
733.53	260.59
733.86	260.20
734.19	259.79
734.52	259.38
734.85	259.06
735.18	258.60
735.51	258.23
735.84	257.86
736.17	257.52
736.50	257.12
736.83	256.87
737.16	256.55
737.49	256.22
737.82	255.87
738.15	255.58
738.48	255.25
738.81	254.92
739.14	254.61
739.47	254.31
739.80	254.01
740.13	253.64
740.46	253.32
740.79	252.97
741.12	252.64
741.45	252.37
741.78	252.01
742.11	251.76
742.44	251.45
742.77	251.19
743.10	250.88
743.43	250.58
743.75	250.21
744.08	250.07
744.41	249.79
744.74	249.53
745.07	249.27
745.40	249.05
745.73	248.85
746.06	248.60
746.39	248.33
746.71	248.05
747.04	247.80
747.37	247.54
747.70	247.30
748.03	247.08
748.36	246.85
748.68	246.61
749.01	246.39
749.34	246.15
749.67	245.90
750.00	245.68
750.33	245.57
750.65	245.37
750.98	245.03
751.31	244.86
751.64	244.67
751.97	244.51
752.29	244.29
752.62	244.04
752.95	243.83
753.28	243.64
753.60	243.42
753.93	243.27
754.26	243.09
754.59	242.89
754.91	242.70
755.24	242.48
755.57	242.33
755.90	242.15
756.22	242.02
756.55	241.82
756.88	241.63
757.20	241.41
757.53	241.21
757.86	241.04
758.19	240.86
758.51	240.67
758.84	240.50
759.17	240.31
759.49	240.18
759.82	240.07
760.15	239.92
760.47	239.79
760.80	239.60
761.13	239.49
761.45	239.33
761.78	239.19
762.11	239.05
762.43	238.90
762.76	238.72
763.08	238.58
763.41	238.46
763.74	238.33
764.06	238.16
764.39	238.01
764.71	237.89
765.04	237.73
765.37	237.60
765.69	237.40
766.02	237.31
766.34	237.12
766.67	236.94
767.00	236.82
767.32	236.75
767.65	236.71
767.97	236.55
768.30	236.44
768.62	236.32
768.95	236.22
769.27	236.09
769.60	236.00
769.92	235.88
770.25	235.79
770.57	235.65
770.90	235.56
771.22	235.46
771.55	235.37
771.87	235.27
772.20	235.16
772.52	235.19
772.85	235.20
773.17	235.11
773.50	235.03
773.82	234.94
774.15	234.81
774.47	234.63
774.80	234.57
775.12	234.47
775.45	234.34
775.77	234.23
776.09	234.14
776.42	234.03
776.74	233.97
777.07	233.87
777.39	233.84
777.72	233.74
778.04	233.66
778.36	233.58
778.69	233.51
779.01	233.47
779.33	233.26
779.66	233.07
779.98	233.03
780.31	232.94
780.63	232.90
780.95	232.84
781.28	232.79
781.60	232.70
781.92	232.63
782.25	232.59
782.57	232.55
782.89	232.49
783.22	232.44
783.54	232.34
783.86	232.26
784.19	232.18
784.51	232.17
784.83	232.10
785.16	232.04
785.48	231.99
785.80	231.93
786.12	231.89
786.45	231.82
786.77	231.77
787.09	231.72
