SpectraSuite Data File
++++++++++++++++++++++++++++++++++++
Date: Fri Feb 01 16:46:50 EST 2013
User: group
Dark Spectrum Present: No
Reference Spectrum Present: No
Number of Sampled Component Spectra: 1
Spectrometers: USB2E7196
Integration Time (usec): 35000 (USB2E7196)
Spectra Averaged: 100 (USB2E7196)
Boxcar Smoothing: 10 (USB2E7196)
Correct for Electrical Dark: No (USB2E7196)
Strobe/Lamp Enabled: No (USB2E7196)
Correct for Detector Non-linearity: No (USB2E7196)
Correct for Stray Light: No (USB2E7196)
Number of Pixels in Processed Spectrum: 2048
>>>>>Begin Processed Spectral Data<<<<<
339.09	0.00
339.48	213.30
339.86	215.59
340.24	216.40
340.63	217.73
341.01	220.96
341.39	220.61
341.78	221.40
342.16	222.76
342.54	223.14
342.93	211.89
343.31	222.61
343.69	223.15
344.07	223.59
344.46	224.03
344.84	224.40
345.22	224.61
345.60	224.84
345.99	225.02
346.37	225.18
346.75	225.27
347.13	225.31
347.52	225.31
347.90	225.38
348.28	225.42
348.66	225.46
349.05	225.50
349.43	225.51
349.81	225.51
350.19	225.53
350.57	225.58
350.96	225.64
351.34	225.70
351.72	225.78
352.10	225.86
352.48	225.91
352.87	225.94
353.25	225.99
353.63	226.01
354.01	226.12
354.39	226.18
354.77	226.26
355.15	226.40
355.54	226.47
355.92	226.51
356.30	226.55
356.68	226.66
357.06	226.74
357.44	226.80
357.82	226.89
358.20	226.97
358.58	227.07
358.97	227.15
359.35	227.25
359.73	227.33
360.11	227.40
360.49	227.45
360.87	227.53
361.25	227.61
361.63	227.73
362.01	227.74
362.39	227.75
362.77	227.80
363.15	227.83
363.53	227.89
363.91	227.89
364.29	227.92
364.67	227.83
365.05	227.81
365.43	227.86
365.81	227.90
366.19	227.94
366.57	227.97
366.95	227.96
367.33	227.91
367.71	227.90
368.09	227.90
368.47	227.89
368.85	227.89
369.23	227.91
369.61	227.85
369.99	227.89
370.37	227.88
370.75	227.90
371.13	227.82
371.51	227.76
371.89	227.80
372.27	227.78
372.65	227.78
373.03	227.77
373.41	227.73
373.78	227.68
374.16	227.60
374.54	227.50
374.92	227.42
375.30	227.39
375.68	227.31
376.06	227.24
376.44	227.16
376.82	227.11
377.19	227.01
377.57	226.94
377.95	226.84
378.33	226.74
378.71	226.63
379.09	226.61
379.47	226.55
379.84	226.44
380.22	226.36
380.60	226.28
380.98	226.21
381.36	226.12
381.73	226.03
382.11	225.99
382.49	225.93
382.87	225.87
383.25	225.82
383.62	225.86
384.00	225.79
384.38	225.78
384.76	225.74
385.13	225.75
385.51	225.71
385.89	225.66
386.27	225.63
386.64	225.61
387.02	225.54
387.40	225.49
387.78	225.45
388.15	225.43
388.53	225.38
388.91	225.32
389.29	225.27
389.66	225.29
390.04	225.22
390.42	225.20
390.79	225.20
391.17	225.17
391.55	225.06
391.92	225.02
392.30	225.00
392.68	224.94
393.05	224.91
393.43	224.89
393.81	224.90
394.18	224.88
394.56	224.86
394.94	224.88
395.31	224.92
395.69	224.97
396.06	225.01
396.44	225.07
396.82	225.09
397.19	225.18
397.57	225.13
397.95	225.23
398.32	225.27
398.70	225.29
399.07	225.36
399.45	225.39
399.82	225.46
400.20	225.44
400.58	225.53
400.95	225.57
401.33	225.64
401.70	225.79
402.08	225.87
402.45	225.99
402.83	226.10
403.20	226.14
403.58	226.23
403.95	226.32
404.33	226.38
404.71	226.52
405.08	226.67
405.46	226.80
405.83	226.90
406.21	227.02
406.58	227.21
406.96	227.36
407.33	227.53
407.70	227.73
408.08	228.07
408.45	228.26
408.83	228.44
409.20	228.67
409.58	228.84
409.95	229.12
410.33	229.38
410.70	229.61
411.08	229.92
411.45	230.21
411.82	230.53
412.20	230.93
412.57	231.33
412.95	231.64
413.32	232.08
413.69	232.47
414.07	232.92
414.44	233.40
414.82	233.84
415.19	234.42
415.56	234.99
415.94	235.50
416.31	236.14
416.68	236.79
417.06	237.49
417.43	238.14
417.81	238.91
418.18	239.65
418.55	240.51
418.93	241.41
419.30	242.29
419.67	243.25
420.04	244.17
420.42	245.14
420.79	246.32
421.16	247.50
421.54	248.71
421.91	249.91
422.28	251.16
422.66	252.53
423.03	253.83
423.40	255.12
423.77	256.54
424.15	257.96
424.52	259.48
424.89	261.09
425.26	262.65
425.64	264.08
426.01	265.69
426.38	267.33
426.75	269.00
427.13	270.74
427.50	272.52
427.87	274.41
428.24	276.28
428.61	277.96
428.99	279.86
429.36	281.95
429.73	284.02
430.10	286.00
430.47	288.02
430.85	290.11
431.22	292.31
431.59	294.67
431.96	296.88
432.33	299.32
432.70	301.66
433.08	304.43
433.45	307.03
433.82	309.61
434.19	312.47
434.56	315.24
434.93	317.82
435.30	320.42
435.68	323.28
436.05	326.12
436.42	328.94
436.79	331.42
437.16	334.14
437.53	336.92
437.90	339.68
438.27	342.41
438.64	345.21
439.01	347.81
439.38	350.08
439.75	352.22
440.13	354.67
440.50	356.98
440.87	358.82
441.24	360.76
441.61	362.89
441.98	364.36
442.35	366.10
442.72	367.96
443.09	369.71
443.46	370.67
443.83	371.22
444.20	371.68
444.57	372.52
444.94	372.73
445.31	373.09
445.68	373.48
446.05	373.55
446.42	373.18
446.79	372.74
447.16	372.24
447.53	371.97
447.90	370.85
448.27	369.67
448.64	368.08
449.01	366.96
449.37	365.02
449.74	363.17
450.11	361.02
450.48	358.61
450.85	356.13
451.22	354.00
451.59	352.00
451.96	350.06
452.33	347.48
452.70	345.19
453.07	342.36
453.43	339.48
453.80	336.76
454.17	334.13
454.54	331.63
454.91	328.97
455.28	326.28
455.65	323.84
456.02	321.47
456.38	319.38
456.75	316.77
457.12	314.57
457.49	312.32
457.86	310.17
458.23	308.31
458.59	306.32
458.96	304.31
459.33	302.51
459.70	300.71
460.07	299.25
460.43	297.55
460.80	295.99
461.17	294.57
461.54	293.06
461.91	291.63
462.27	290.19
462.64	288.93
463.01	287.64
463.38	286.38
463.74	285.05
464.11	283.94
464.48	282.93
464.85	281.82
465.21	280.97
465.58	280.09
465.95	278.98
466.32	278.09
466.68	277.21
467.05	276.32
467.42	275.41
467.78	274.52
468.15	273.63
468.52	272.92
468.88	272.12
469.25	271.37
469.62	270.76
469.98	270.16
470.35	269.56
470.72	268.93
471.08	268.25
471.45	267.72
471.82	267.15
472.18	266.52
472.55	266.11
472.92	265.61
473.28	265.15
473.65	264.73
474.02	264.29
474.38	263.88
474.75	263.54
475.11	263.23
475.48	262.95
475.85	262.78
476.21	262.61
476.58	262.43
476.94	262.29
477.31	262.12
477.67	261.92
478.04	261.80
478.41	261.75
478.77	261.81
479.14	261.76
479.50	261.78
479.87	261.86
480.23	261.93
480.60	262.03
480.96	262.11
481.33	262.36
481.69	262.55
482.06	262.75
482.42	262.98
482.79	263.20
483.15	263.52
483.52	263.89
483.88	264.23
484.25	264.57
484.61	264.98
484.98	265.43
485.34	265.97
485.71	266.55
486.07	267.15
486.44	267.69
486.80	268.36
487.17	269.07
487.53	269.90
487.90	270.76
488.26	271.66
488.62	272.64
488.99	273.58
489.35	274.62
489.72	275.72
490.08	276.91
490.44	278.16
490.81	279.47
491.17	280.78
491.54	282.24
491.90	283.82
492.26	285.47
492.63	287.21
492.99	289.01
493.36	290.89
493.72	292.94
494.08	295.04
494.45	297.29
494.81	299.69
495.17	302.11
495.54	304.68
495.90	307.35
496.26	310.10
496.63	313.06
496.99	316.16
497.35	319.44
497.72	322.86
498.08	326.37
498.44	330.05
498.80	334.01
499.17	338.08
499.53	342.19
499.89	346.59
500.26	351.07
500.62	355.75
500.98	360.70
501.34	365.77
501.71	371.09
502.07	376.52
502.43	382.12
502.79	387.96
503.16	394.02
503.52	400.29
503.88	406.74
504.24	413.39
504.60	420.27
504.97	427.37
505.33	434.65
505.69	442.37
506.05	450.21
506.41	458.07
506.78	466.18
507.14	474.63
507.50	483.29
507.86	492.36
508.22	501.54
508.59	510.76
508.95	520.27
509.31	530.06
509.67	540.13
510.03	550.34
510.39	560.85
510.75	571.58
511.12	582.51
511.48	593.74
511.84	605.17
512.20	616.68
512.56	628.63
512.92	640.82
513.28	653.13
513.64	665.46
514.00	678.11
514.37	691.02
514.73	704.06
515.09	717.09
515.45	730.26
515.81	743.79
516.17	757.65
516.53	771.76
516.89	785.85
517.25	799.91
517.61	814.24
517.97	828.63
518.33	843.02
518.69	857.69
519.05	872.60
519.41	887.69
519.77	903.08
520.13	918.37
520.49	933.58
520.85	948.89
521.21	964.48
521.57	980.56
521.93	996.17
522.29	1012.34
522.65	1028.50
523.01	1044.52
523.37	1060.36
523.73	1076.35
524.09	1092.18
524.45	1108.38
524.81	1124.96
525.17	1141.62
525.53	1158.31
525.89	1174.92
526.25	1191.53
526.61	1207.69
526.97	1224.13
527.33	1240.45
527.68	1256.83
528.04	1273.15
528.40	1289.41
528.76	1306.28
529.12	1322.72
529.48	1339.39
529.84	1355.22
530.20	1371.59
530.56	1388.43
530.91	1405.61
531.27	1422.28
531.63	1438.56
531.99	1454.82
532.35	1470.53
532.71	1486.28
533.07	1502.37
533.42	1518.15
533.78	1534.00
534.14	1550.06
534.50	1565.25
534.86	1580.89
535.21	1595.91
535.57	1611.67
535.93	1627.06
536.29	1641.59
536.65	1656.36
537.00	1671.01
537.36	1686.16
537.72	1700.50
538.08	1714.81
538.44	1728.39
538.79	1742.06
539.15	1755.64
539.51	1769.21
539.87	1783.48
540.22	1797.04
540.58	1810.57
540.94	1823.60
541.29	1836.18
541.65	1848.56
542.01	1861.62
542.37	1873.86
542.72	1886.09
543.08	1897.70
543.44	1909.93
543.79	1921.11
544.15	1932.07
544.51	1943.43
544.87	1954.31
545.22	1964.97
545.58	1975.02
545.94	1984.73
546.29	1994.38
546.65	2004.13
547.01	2013.43
547.36	2021.92
547.72	2030.25
548.07	2038.07
548.43	2046.13
548.79	2054.13
549.14	2061.82
549.50	2069.05
549.86	2076.51
550.21	2083.78
550.57	2090.92
550.92	2097.43
551.28	2104.38
551.64	2111.34
551.99	2117.79
552.35	2123.90
552.70	2129.97
553.06	2135.92
553.41	2142.23
553.77	2148.23
554.13	2154.19
554.48	2160.28
554.84	2165.88
555.19	2171.15
555.55	2176.33
555.90	2180.96
556.26	2186.02
556.61	2190.61
556.97	2194.97
557.32	2199.06
557.68	2203.25
558.03	2207.50
558.39	2211.19
558.74	2215.88
559.10	2219.68
559.45	2223.51
559.81	2227.79
560.16	2231.61
560.52	2234.82
560.87	2238.30
561.23	2240.99
561.58	2243.96
561.94	2246.44
562.29	2248.62
562.64	2251.40
563.00	2253.92
563.35	2257.29
563.71	2260.37
564.06	2263.73
564.42	2266.71
564.77	2269.27
565.12	2271.66
565.48	2273.73
565.83	2275.83
566.19	2277.19
566.54	2278.09
566.89	2279.20
567.25	2279.91
567.60	2281.32
567.96	2283.17
568.31	2284.02
568.66	2285.38
569.02	2286.07
569.37	2286.58
569.72	2287.63
570.08	2287.87
570.43	2288.00
570.78	2287.66
571.14	2286.14
571.49	2284.71
571.84	2284.39
572.20	2283.58
572.55	2282.63
572.90	2280.92
573.26	2279.59
573.61	2277.95
573.96	2276.42
574.31	2273.57
574.67	2270.55
575.02	2267.04
575.37	2263.65
575.72	2260.12
576.08	2256.71
576.43	2253.29
576.78	2249.76
577.13	2246.55
577.49	2243.24
577.84	2239.77
578.19	2236.10
578.54	2232.62
578.90	2228.63
579.25	2223.18
579.60	2218.28
579.95	2213.32
580.30	2208.46
580.66	2203.28
581.01	2198.40
581.36	2193.64
581.71	2189.66
582.06	2185.37
582.42	2181.03
582.77	2176.04
583.12	2171.46
583.47	2166.89
583.82	2162.16
584.17	2156.90
584.53	2151.61
584.88	2146.26
585.23	2140.75
585.58	2135.24
585.93	2129.90
586.28	2125.04
586.63	2120.08
586.98	2115.15
587.34	2110.39
587.69	2105.65
588.04	2100.54
588.39	2095.10
588.74	2088.67
589.09	2082.46
589.44	2075.73
589.79	2069.55
590.14	2063.88
590.49	2057.39
590.84	2051.04
591.19	2045.08
591.54	2038.65
591.89	2031.40
592.25	2024.89
592.60	2017.78
592.95	2010.60
593.30	2003.29
593.65	1995.90
594.00	1988.89
594.35	1981.65
594.70	1973.73
595.05	1966.61
595.40	1959.41
595.75	1951.88
596.10	1945.86
596.45	1939.31
596.80	1933.33
597.15	1927.05
597.50	1920.19
597.85	1913.68
598.19	1907.26
598.54	1900.44
598.89	1893.98
599.24	1888.22
599.59	1881.58
599.94	1875.37
600.29	1869.03
600.64	1862.61
600.99	1855.31
601.34	1848.58
601.69	1841.62
602.04	1835.00
602.39	1827.72
602.74	1821.04
603.08	1814.37
603.43	1807.62
603.78	1800.34
604.13	1793.33
604.48	1786.13
604.83	1779.21
605.18	1772.62
605.53	1764.73
605.87	1756.77
606.22	1749.64
606.57	1741.79
606.92	1734.41
607.27	1727.41
607.62	1720.53
607.96	1713.37
608.31	1707.02
608.66	1699.61
609.01	1692.15
609.36	1684.64
609.70	1676.68
610.05	1668.69
610.40	1661.28
610.75	1653.03
611.10	1645.48
611.44	1636.86
611.79	1628.88
612.14	1620.32
612.49	1611.07
612.83	1602.67
613.18	1594.56
613.53	1586.47
613.88	1577.90
614.22	1569.72
614.57	1561.02
614.92	1553.07
615.27	1545.53
615.61	1537.22
615.96	1529.07
616.31	1521.40
616.65	1514.09
617.00	1506.48
617.35	1498.79
617.70	1490.35
618.04	1481.86
618.39	1473.62
618.74	1466.08
619.08	1457.75
619.43	1450.20
619.78	1443.32
620.12	1436.14
620.47	1428.60
620.82	1420.36
621.16	1413.02
621.51	1405.35
621.85	1397.74
622.20	1389.29
622.55	1380.90
622.89	1372.92
623.24	1365.32
623.59	1358.02
623.93	1350.45
624.28	1343.31
624.62	1335.83
624.97	1328.72
625.32	1321.97
625.66	1314.93
626.01	1307.85
626.35	1300.55
626.70	1292.73
627.04	1285.04
627.39	1277.29
627.73	1269.86
628.08	1262.95
628.43	1255.61
628.77	1248.29
629.12	1240.79
629.46	1233.56
629.81	1226.10
630.15	1218.85
630.50	1211.52
630.84	1203.31
631.19	1195.36
631.53	1187.78
631.88	1180.15
632.22	1172.45
632.57	1165.17
632.91	1157.64
633.26	1150.28
633.60	1142.80
633.95	1135.65
634.29	1128.57
634.64	1121.87
634.98	1114.52
635.32	1107.41
635.67	1100.86
636.01	1094.19
636.36	1087.45
636.70	1080.84
637.05	1074.38
637.39	1067.97
637.73	1061.47
638.08	1055.63
638.42	1049.63
638.77	1043.28
639.11	1036.79
639.45	1030.47
639.80	1023.76
640.14	1017.39
640.49	1010.90
640.83	1004.69
641.17	998.59
641.52	992.35
641.86	985.97
642.20	980.18
642.55	973.83
642.89	967.40
643.23	960.91
643.58	955.16
643.92	949.06
644.26	943.09
644.61	937.10
644.95	931.15
645.29	924.72
645.64	918.05
645.98	911.71
646.32	905.85
646.66	899.87
647.01	894.13
647.35	888.47
647.69	882.55
648.04	877.01
648.38	871.21
648.72	865.20
649.06	859.13
649.41	853.27
649.75	847.33
650.09	841.36
650.43	835.61
650.78	829.45
651.12	823.49
651.46	817.63
651.80	811.92
652.14	806.55
652.49	801.12
652.83	795.93
653.17	790.27
653.51	784.60
653.85	779.08
654.20	773.40
654.54	767.37
654.88	761.72
655.22	755.76
655.56	750.07
655.90	744.59
656.25	739.33
656.59	733.94
656.93	728.94
657.27	723.77
657.61	718.33
657.95	713.19
658.29	708.14
658.64	702.88
658.98	697.54
659.32	692.01
659.66	686.84
660.00	681.54
660.34	676.58
660.68	671.73
661.02	666.78
661.36	662.12
661.70	657.61
662.05	653.22
662.39	648.93
662.73	644.43
663.07	640.08
663.41	635.59
663.75	631.10
664.09	626.52
664.43	622.15
664.77	618.02
665.11	613.79
665.45	609.60
665.79	605.58
666.13	601.43
666.47	597.33
666.81	593.10
667.15	588.96
667.49	585.05
667.83	581.18
668.17	577.24
668.51	573.17
668.85	569.11
669.19	565.20
669.53	561.35
669.87	557.52
670.21	553.79
670.55	550.16
670.89	546.74
671.23	543.35
671.57	539.84
671.91	536.36
672.25	532.80
672.58	529.31
672.92	525.82
673.26	522.65
673.60	519.56
673.94	516.48
674.28	513.55
674.62	510.61
674.96	507.47
675.30	504.53
675.64	501.64
675.97	498.91
676.31	496.09
676.65	493.20
676.99	490.51
677.33	487.66
677.67	484.89
678.01	481.85
678.34	478.88
678.68	475.96
679.02	473.11
679.36	470.39
679.70	467.70
680.04	465.02
680.37	462.20
680.71	459.34
681.05	456.73
681.39	454.01
681.73	451.34
682.06	448.83
682.40	446.31
682.74	443.73
683.08	441.18
683.42	438.54
683.75	436.04
684.09	433.49
684.43	431.01
684.77	428.55
685.10	426.17
685.44	423.81
685.78	421.52
686.12	419.28
686.45	417.00
686.79	414.68
687.13	412.53
687.46	410.31
687.80	408.18
688.14	406.00
688.48	403.99
688.81	401.81
689.15	399.63
689.49	397.48
689.82	395.45
690.16	393.39
690.50	391.47
690.83	389.51
691.17	387.50
691.51	385.60
691.84	383.78
692.18	381.91
692.52	379.97
692.85	378.05
693.19	376.16
693.52	374.30
693.86	372.49
694.20	370.66
694.53	368.89
694.87	367.05
695.21	365.21
695.54	363.33
695.88	361.57
696.21	359.82
696.55	358.13
696.88	356.44
697.22	354.74
697.56	353.08
697.89	351.41
698.23	349.78
698.56	348.20
698.90	346.58
699.23	344.95
699.57	343.38
699.90	341.87
700.24	340.32
700.58	338.77
700.91	337.29
701.25	335.86
701.58	334.46
701.92	333.07
702.25	331.67
702.59	330.32
702.92	329.01
703.26	327.72
703.59	326.43
703.93	325.24
704.26	324.00
704.60	322.75
704.93	321.51
705.26	320.34
705.60	319.12
705.93	317.94
706.27	316.87
706.60	315.84
706.94	314.74
707.27	313.65
707.61	312.60
707.94	311.57
708.27	310.45
708.61	309.36
708.94	308.33
709.28	307.38
709.61	306.45
709.94	305.54
710.28	304.51
710.61	303.56
710.95	302.43
711.28	301.51
711.61	300.53
711.95	299.58
712.28	298.59
712.61	297.62
712.95	296.67
713.28	295.76
713.61	294.84
713.95	293.92
714.28	293.06
714.61	292.18
714.95	291.35
715.28	290.50
715.61	289.61
715.95	288.77
716.28	287.92
716.61	287.08
716.95	286.23
717.28	285.52
717.61	284.70
717.94	283.98
718.28	283.19
718.61	282.47
718.94	281.81
719.27	281.17
719.61	280.48
719.94	279.87
720.27	279.16
720.60	278.50
720.94	277.89
721.27	277.30
721.60	276.77
721.93	276.19
722.27	275.61
722.60	275.07
722.93	274.50
723.26	273.95
723.59	273.41
723.93	272.87
724.26	272.26
724.59	271.71
724.92	271.18
725.25	270.68
725.59	270.17
725.92	269.61
726.25	269.07
726.58	268.60
726.91	268.09
727.24	267.62
727.57	267.15
727.91	266.61
728.24	266.12
728.57	265.57
728.90	265.14
729.23	264.71
729.56	264.31
729.89	263.85
730.22	263.37
730.55	262.88
730.89	262.43
731.22	262.00
731.55	261.57
731.88	261.16
732.21	260.74
732.54	260.28
732.87	259.89
733.20	259.48
733.53	259.09
733.86	258.70
734.19	258.33
734.52	257.92
734.85	257.66
735.18	257.26
735.51	256.94
735.84	256.51
736.17	256.15
736.50	255.70
736.83	255.49
737.16	255.15
737.49	254.80
737.82	254.43
738.15	254.11
738.48	253.80
738.81	253.47
739.14	253.16
739.47	252.85
739.80	252.57
740.13	252.29
740.46	251.98
740.79	251.65
741.12	251.35
741.45	251.06
741.78	250.70
742.11	250.41
742.44	250.09
742.77	249.85
743.10	249.50
743.43	249.24
743.75	248.81
744.08	248.70
744.41	248.45
744.74	248.19
745.07	247.94
745.40	247.69
745.73	247.50
746.06	247.21
746.39	246.96
746.71	246.66
747.04	246.36
747.37	246.11
747.70	245.89
748.03	245.61
748.36	245.38
748.68	245.16
749.01	244.94
749.34	244.70
749.67	244.47
750.00	244.28
750.33	244.12
750.65	243.96
750.98	243.58
751.31	243.37
751.64	243.16
751.97	242.98
752.29	242.75
752.62	242.46
752.95	242.28
753.28	242.05
753.60	241.88
753.93	241.72
754.26	241.51
754.59	241.30
754.91	241.08
755.24	240.89
755.57	240.71
755.90	240.50
756.22	240.29
756.55	240.09
756.88	239.91
757.20	239.68
757.53	239.44
757.86	239.27
758.19	239.14
758.51	238.97
758.84	238.76
759.17	238.58
759.49	238.44
759.82	238.31
760.15	238.17
760.47	238.02
760.80	237.84
761.13	237.71
761.45	237.54
761.78	237.41
762.11	237.26
762.43	237.08
762.76	236.92
763.08	236.80
763.41	236.65
763.74	236.48
764.06	236.31
764.39	236.20
764.71	236.08
765.04	235.89
765.37	235.73
765.69	235.61
766.02	235.50
766.34	235.35
766.67	235.20
767.00	235.09
767.32	235.01
767.65	234.94
767.97	234.80
768.30	234.69
768.62	234.56
768.95	234.41
769.27	234.30
769.60	234.22
769.92	234.09
770.25	233.97
770.57	233.82
770.90	233.76
771.22	233.61
771.55	233.49
771.87	233.40
772.20	233.29
772.52	233.27
772.85	233.31
773.17	233.18
773.50	233.07
773.82	232.97
774.15	232.80
774.47	232.66
774.80	232.60
775.12	232.54
775.45	232.46
775.77	232.39
776.09	232.29
776.42	232.21
776.74	232.17
777.07	232.08
777.39	232.05
777.72	231.98
778.04	231.95
778.36	231.88
778.69	231.79
779.01	231.77
779.33	231.61
779.66	231.40
779.98	231.35
780.31	231.29
780.63	231.26
780.95	231.26
781.28	231.18
781.60	231.11
781.92	231.06
782.25	230.99
782.57	230.98
782.89	230.93
783.22	230.89
783.54	230.83
783.86	230.81
784.19	230.74
784.51	230.71
784.83	230.65
785.16	230.60
785.48	230.58
785.80	230.54
786.12	230.54
786.45	230.50
786.77	230.48
787.09	230.43
