SpectraSuite Data File
++++++++++++++++++++++++++++++++++++
Date: Fri Feb 01 15:37:41 EST 2013
User: group
Dark Spectrum Present: No
Reference Spectrum Present: No
Number of Sampled Component Spectra: 1
Spectrometers: USB2E7196
Integration Time (usec): 35000 (USB2E7196)
Spectra Averaged: 100 (USB2E7196)
Boxcar Smoothing: 10 (USB2E7196)
Correct for Electrical Dark: No (USB2E7196)
Strobe/Lamp Enabled: No (USB2E7196)
Correct for Detector Non-linearity: No (USB2E7196)
Correct for Stray Light: No (USB2E7196)
Number of Pixels in Processed Spectrum: 2048
>>>>>Begin Processed Spectral Data<<<<<
339.09	0.00
339.48	214.54
339.86	217.16
340.24	217.46
340.63	218.69
341.01	222.04
341.39	221.63
341.78	223.02
342.16	224.26
342.54	224.74
342.93	213.07
343.31	223.87
343.69	224.45
344.07	224.87
344.46	225.32
344.84	225.72
345.22	225.94
345.60	226.21
345.99	226.40
346.37	226.53
346.75	226.63
347.13	226.70
347.52	226.80
347.90	226.88
348.28	226.89
348.66	226.96
349.05	226.93
349.43	226.98
349.81	227.02
350.19	227.06
350.57	227.13
350.96	227.22
351.34	227.28
351.72	227.33
352.10	227.42
352.48	227.48
352.87	227.55
353.25	227.62
353.63	227.67
354.01	227.74
354.39	227.85
354.77	227.94
355.15	228.08
355.54	228.10
355.92	228.15
356.30	228.27
356.68	228.39
357.06	228.50
357.44	228.58
357.82	228.64
358.20	228.74
358.58	228.79
358.97	228.83
359.35	228.89
359.73	228.97
360.11	229.00
360.49	229.04
360.87	229.08
361.25	229.15
361.63	229.22
362.01	229.27
362.39	229.25
362.77	229.29
363.15	229.29
363.53	229.35
363.91	229.38
364.29	229.38
364.67	229.31
365.05	229.32
365.43	229.34
365.81	229.36
366.19	229.37
366.57	229.40
366.95	229.39
367.33	229.37
367.71	229.36
368.09	229.38
368.47	229.37
368.85	229.35
369.23	229.32
369.61	229.26
369.99	229.25
370.37	229.24
370.75	229.24
371.13	229.15
371.51	229.08
371.89	229.03
372.27	228.98
372.65	228.93
373.03	228.85
373.41	228.76
373.78	228.67
374.16	228.58
374.54	228.48
374.92	228.43
375.30	228.35
375.68	228.25
376.06	228.17
376.44	228.12
376.82	228.04
377.19	228.01
377.57	227.92
377.95	227.81
378.33	227.71
378.71	227.57
379.09	227.55
379.47	227.51
379.84	227.44
380.22	227.35
380.60	227.28
380.98	227.21
381.36	227.15
381.73	227.09
382.11	227.02
382.49	226.97
382.87	226.89
383.25	226.84
383.62	226.87
384.00	226.79
384.38	226.72
384.76	226.69
385.13	226.62
385.51	226.59
385.89	226.51
386.27	226.48
386.64	226.44
387.02	226.41
387.40	226.34
387.78	226.27
388.15	226.28
388.53	226.21
388.91	226.18
389.29	226.14
389.66	226.13
390.04	226.13
390.42	226.14
390.79	226.13
391.17	226.12
391.55	226.03
391.92	226.05
392.30	226.09
392.68	226.08
393.05	226.07
393.43	226.06
393.81	226.09
394.18	226.08
394.56	226.07
394.94	226.08
395.31	226.11
395.69	226.20
396.06	226.20
396.44	226.28
396.82	226.34
397.19	226.45
397.57	226.49
397.95	226.53
398.32	226.54
398.70	226.60
399.07	226.66
399.45	226.70
399.82	226.76
400.20	226.79
400.58	226.83
400.95	226.90
401.33	227.01
401.70	227.18
402.08	227.34
402.45	227.46
402.83	227.59
403.20	227.71
403.58	227.78
403.95	227.90
404.33	228.02
404.71	228.11
405.08	228.30
405.46	228.45
405.83	228.64
406.21	228.79
406.58	228.98
406.96	229.16
407.33	229.38
407.70	229.58
408.08	229.83
408.45	230.08
408.83	230.34
409.20	230.60
409.58	230.81
409.95	231.03
410.33	231.32
410.70	231.53
411.08	231.81
411.45	232.15
411.82	232.45
412.20	232.82
412.57	233.23
412.95	233.51
413.32	233.91
413.69	234.26
414.07	234.73
414.44	235.19
414.82	235.65
415.19	236.19
415.56	236.75
415.94	237.33
416.31	237.95
416.68	238.54
417.06	239.21
417.43	239.86
417.81	240.63
418.18	241.39
418.55	242.24
418.93	243.10
419.30	243.99
419.67	244.94
420.04	245.89
420.42	246.88
420.79	248.04
421.16	249.19
421.54	250.40
421.91	251.57
422.28	252.84
422.66	254.19
423.03	255.50
423.40	256.81
423.77	258.23
424.15	259.66
424.52	261.14
424.89	262.78
425.26	264.37
425.64	265.82
426.01	267.42
426.38	269.11
426.75	270.80
427.13	272.50
427.50	274.32
427.87	276.18
428.24	278.05
428.61	279.83
428.99	281.77
429.36	283.90
429.73	285.99
430.10	287.99
430.47	290.02
430.85	292.13
431.22	294.34
431.59	296.71
431.96	298.90
432.33	301.41
432.70	303.74
433.08	306.53
433.45	309.16
433.82	311.79
434.19	314.66
434.56	317.49
434.93	320.16
435.30	322.78
435.68	325.67
436.05	328.47
436.42	331.26
436.79	333.79
437.16	336.43
437.53	339.24
437.90	342.09
438.27	344.88
438.64	347.74
439.01	350.40
439.38	352.60
439.75	354.81
440.13	357.32
440.50	359.69
440.87	361.54
441.24	363.49
441.61	365.61
441.98	367.13
442.35	368.91
442.72	370.78
443.09	372.61
443.46	373.63
443.83	374.26
444.20	374.78
444.57	375.62
444.94	375.91
445.31	376.22
445.68	376.55
446.05	376.56
446.42	376.16
446.79	375.74
447.16	375.32
447.53	375.02
447.90	373.88
448.27	372.66
448.64	371.04
449.01	369.89
449.37	367.93
449.74	366.01
450.11	363.75
450.48	361.27
450.85	358.73
451.22	356.58
451.59	354.56
451.96	352.58
452.33	349.98
452.70	347.70
453.07	344.91
453.43	342.02
453.80	339.33
454.17	336.66
454.54	334.12
454.91	331.41
455.28	328.74
455.65	326.20
456.02	323.74
456.38	321.58
456.75	318.95
457.12	316.67
457.49	314.47
457.86	312.30
458.23	310.47
458.59	308.38
458.96	306.27
459.33	304.42
459.70	302.58
460.07	301.04
460.43	299.28
460.80	297.65
461.17	296.19
461.54	294.68
461.91	293.24
462.27	291.76
462.64	290.48
463.01	289.10
463.38	287.82
463.74	286.49
464.11	285.36
464.48	284.32
464.85	283.23
465.21	282.34
465.58	281.40
465.95	280.26
466.32	279.39
466.68	278.46
467.05	277.57
467.42	276.66
467.78	275.75
468.15	274.86
468.52	274.22
468.88	273.33
469.25	272.56
469.62	271.96
469.98	271.31
470.35	270.68
470.72	270.10
471.08	269.45
471.45	268.89
471.82	268.36
472.18	267.76
472.55	267.35
472.92	266.82
473.28	266.39
473.65	265.96
474.02	265.50
474.38	265.18
474.75	264.84
475.11	264.51
475.48	264.22
475.85	264.00
476.21	263.76
476.58	263.62
476.94	263.46
477.31	263.29
477.67	263.11
478.04	263.01
478.41	262.94
478.77	263.02
479.14	262.99
479.50	262.97
479.87	263.06
480.23	263.17
480.60	263.26
480.96	263.37
481.33	263.56
481.69	263.75
482.06	263.92
482.42	264.14
482.79	264.39
483.15	264.71
483.52	265.11
483.88	265.41
484.25	265.77
484.61	266.21
484.98	266.62
485.34	267.19
485.71	267.75
486.07	268.35
486.44	268.88
486.80	269.57
487.17	270.32
487.53	271.14
487.90	271.94
488.26	272.86
488.62	273.85
488.99	274.84
489.35	275.91
489.72	277.07
490.08	278.27
490.44	279.55
490.81	280.86
491.17	282.21
491.54	283.69
491.90	285.25
492.26	286.91
492.63	288.67
492.99	290.49
493.36	292.40
493.72	294.46
494.08	296.57
494.45	298.82
494.81	301.19
495.17	303.60
495.54	306.17
495.90	308.87
496.26	311.67
496.63	314.61
496.99	317.69
497.35	320.93
497.72	324.34
498.08	327.85
498.44	331.55
498.80	335.42
499.17	339.54
499.53	343.71
499.89	348.07
500.26	352.57
500.62	357.23
500.98	362.19
501.34	367.27
501.71	372.59
502.07	378.05
502.43	383.65
502.79	389.48
503.16	395.57
503.52	401.86
503.88	408.23
504.24	414.85
504.60	421.77
504.97	428.86
505.33	436.18
505.69	443.86
506.05	451.68
506.41	459.63
506.78	467.74
507.14	476.16
507.50	484.88
507.86	493.93
508.22	503.07
508.59	512.31
508.95	521.92
509.31	531.72
509.67	541.74
510.03	552.01
510.39	562.52
510.75	573.25
511.12	584.20
511.48	595.51
511.84	607.02
512.20	618.50
512.56	630.46
512.92	642.55
513.28	654.99
513.64	667.44
514.00	680.14
514.37	693.11
514.73	706.21
515.09	719.25
515.45	732.53
515.81	746.12
516.17	760.04
516.53	774.13
516.89	788.35
517.25	802.54
517.61	817.05
517.97	831.55
518.33	846.07
518.69	860.80
519.05	875.76
519.41	890.95
519.77	906.51
520.13	922.01
520.49	937.45
520.85	952.82
521.21	968.50
521.57	984.68
521.93	1000.47
522.29	1016.88
522.65	1033.17
523.01	1049.40
523.37	1065.51
523.73	1081.73
524.09	1097.90
524.45	1114.20
524.81	1130.79
525.17	1147.55
525.53	1164.46
525.89	1181.31
526.25	1198.20
526.61	1214.57
526.97	1231.29
527.33	1247.78
527.68	1264.39
528.04	1280.89
528.40	1297.43
528.76	1314.53
529.12	1331.16
529.48	1348.04
529.84	1364.04
530.20	1380.65
530.56	1397.70
530.91	1415.16
531.27	1432.04
531.63	1448.53
531.99	1465.12
532.35	1481.24
532.71	1497.16
533.07	1513.42
533.42	1529.23
533.78	1545.23
534.14	1561.61
534.50	1576.97
534.86	1592.86
535.21	1607.93
535.57	1623.99
535.93	1639.61
536.29	1654.40
536.65	1669.52
537.00	1684.31
537.36	1699.52
537.72	1714.14
538.08	1728.58
538.44	1742.33
538.79	1756.21
539.15	1769.93
539.51	1783.72
539.87	1797.99
540.22	1811.78
540.58	1825.56
540.94	1839.10
541.29	1852.08
541.65	1864.76
542.01	1878.09
542.37	1890.40
542.72	1902.95
543.08	1914.71
543.44	1927.06
543.79	1938.32
544.15	1949.30
544.51	1960.95
544.87	1972.11
545.22	1982.87
545.58	1993.04
545.94	2002.92
546.29	2012.72
546.65	2022.59
547.01	2031.88
547.36	2040.69
547.72	2049.18
548.07	2057.05
548.43	2065.29
548.79	2073.38
549.14	2081.02
549.50	2088.27
549.86	2096.13
550.21	2103.40
550.57	2110.63
550.92	2117.16
551.28	2124.27
551.64	2131.41
551.99	2137.93
552.35	2144.05
552.70	2150.16
553.06	2156.25
553.41	2162.56
553.77	2168.53
554.13	2174.57
554.48	2180.65
554.84	2186.11
555.19	2191.43
555.55	2196.51
555.90	2200.87
556.26	2205.59
556.61	2210.25
556.97	2214.62
557.32	2218.62
557.68	2222.91
558.03	2227.30
558.39	2231.04
558.74	2235.67
559.10	2239.40
559.45	2242.94
559.81	2247.22
560.16	2251.04
560.52	2254.28
560.87	2257.67
561.23	2260.32
561.58	2263.27
561.94	2265.75
562.29	2268.10
562.64	2270.72
563.00	2273.35
563.35	2276.87
563.71	2279.95
564.06	2283.22
564.42	2285.94
564.77	2288.44
565.12	2290.45
565.48	2292.13
565.83	2293.96
566.19	2295.15
566.54	2296.06
566.89	2297.19
567.25	2297.70
567.60	2299.03
567.96	2300.47
568.31	2301.30
568.66	2302.45
569.02	2302.98
569.37	2303.34
569.72	2304.15
570.08	2304.31
570.43	2304.41
570.78	2303.76
571.14	2302.36
571.49	2300.95
571.84	2300.62
572.20	2299.42
572.55	2298.40
572.90	2296.82
573.26	2295.48
573.61	2293.89
573.96	2292.21
574.31	2289.30
574.67	2286.17
575.02	2282.48
575.37	2279.19
575.72	2275.31
576.08	2272.02
576.43	2268.66
576.78	2264.89
577.13	2261.62
577.49	2258.44
577.84	2254.90
578.19	2251.23
578.54	2247.47
578.90	2243.20
579.25	2237.56
579.60	2232.54
579.95	2227.70
580.30	2222.67
580.66	2217.44
581.01	2212.37
581.36	2207.29
581.71	2203.07
582.06	2198.67
582.42	2194.28
582.77	2188.91
583.12	2184.25
583.47	2179.35
583.82	2174.12
584.17	2168.90
584.53	2163.41
584.88	2157.67
585.23	2151.74
585.58	2146.12
585.93	2140.65
586.28	2135.86
586.63	2130.92
586.98	2125.82
587.34	2120.98
587.69	2116.08
588.04	2110.67
588.39	2105.00
588.74	2098.51
589.09	2092.27
589.44	2085.54
589.79	2079.42
590.14	2073.90
590.49	2067.44
590.84	2061.23
591.19	2055.27
591.54	2048.81
591.89	2041.37
592.25	2034.61
592.60	2027.46
592.95	2019.73
593.30	2012.37
593.65	2004.75
594.00	1997.70
594.35	1990.38
594.70	1982.30
595.05	1974.91
595.40	1967.73
595.75	1960.10
596.10	1953.83
596.45	1947.06
596.80	1940.74
597.15	1934.06
597.50	1926.79
597.85	1920.27
598.19	1913.37
598.54	1906.20
598.89	1899.41
599.24	1893.57
599.59	1886.79
599.94	1880.57
600.29	1874.39
600.64	1867.94
600.99	1860.37
601.34	1853.39
601.69	1846.64
602.04	1839.71
602.39	1832.35
602.74	1825.48
603.08	1818.72
603.43	1811.98
603.78	1804.64
604.13	1797.41
604.48	1790.03
604.83	1783.28
605.18	1776.19
605.53	1768.27
605.87	1760.31
606.22	1753.13
606.57	1745.03
606.92	1737.73
607.27	1730.54
607.62	1723.56
607.96	1716.07
608.31	1709.39
608.66	1701.77
609.01	1694.07
609.36	1686.47
609.70	1678.48
610.05	1670.33
610.40	1662.77
610.75	1654.46
611.10	1646.73
611.44	1638.44
611.79	1630.48
612.14	1621.73
612.49	1612.61
612.83	1604.17
613.18	1595.99
613.53	1587.95
613.88	1579.52
614.22	1571.23
614.57	1562.53
614.92	1554.43
615.27	1546.88
615.61	1538.63
615.96	1530.64
616.31	1522.95
616.65	1515.55
617.00	1508.04
617.35	1500.41
617.70	1491.94
618.04	1483.50
618.39	1475.29
618.74	1467.58
619.08	1459.27
619.43	1451.71
619.78	1444.83
620.12	1437.63
620.47	1430.18
620.82	1421.97
621.16	1414.54
621.51	1407.03
621.85	1399.50
622.20	1390.98
622.55	1382.64
622.89	1374.85
623.24	1367.25
623.59	1359.88
623.93	1352.39
624.28	1345.17
624.62	1337.58
624.97	1330.43
625.32	1323.58
625.66	1316.66
626.01	1309.51
626.35	1302.08
626.70	1294.39
627.04	1286.55
627.39	1278.80
627.73	1271.37
628.08	1264.51
628.43	1257.21
628.77	1249.78
629.12	1242.28
629.46	1235.17
629.81	1227.71
630.15	1220.46
630.50	1212.99
630.84	1204.81
631.19	1196.95
631.53	1189.43
631.88	1181.85
632.22	1174.25
632.57	1167.07
632.91	1159.45
633.26	1152.04
633.60	1144.63
633.95	1137.59
634.29	1130.61
634.64	1123.99
634.98	1116.62
635.32	1109.36
635.67	1102.79
636.01	1096.17
636.36	1089.28
636.70	1082.71
637.05	1076.10
637.39	1069.63
637.73	1063.15
638.08	1057.19
638.42	1051.18
638.77	1044.77
639.11	1038.19
639.45	1031.84
639.80	1025.05
640.14	1018.58
640.49	1012.09
640.83	1005.80
641.17	999.47
641.52	993.17
641.86	986.67
642.20	980.81
642.55	974.58
642.89	968.00
643.23	961.41
643.58	955.69
643.92	949.42
644.26	943.36
644.61	937.34
644.95	931.38
645.29	924.88
645.64	918.14
645.98	911.83
646.32	906.04
646.66	900.00
647.01	894.36
647.35	888.76
647.69	882.93
648.04	877.40
648.38	871.61
648.72	865.53
649.06	859.56
649.41	853.76
649.75	847.76
650.09	841.84
650.43	836.05
650.78	829.82
651.12	824.02
651.46	818.36
651.80	812.58
652.14	807.15
652.49	801.76
652.83	796.61
653.17	790.87
653.51	785.21
653.85	779.75
654.20	774.02
654.54	767.98
654.88	762.29
655.22	756.48
655.56	750.79
655.90	745.41
656.25	740.09
656.59	734.72
656.93	729.65
657.27	724.52
657.61	719.06
657.95	714.03
658.29	708.93
658.64	703.66
658.98	698.39
659.32	692.86
659.66	687.62
660.00	682.26
660.34	677.35
660.68	672.40
661.02	667.49
661.36	662.85
661.70	658.36
662.05	654.05
662.39	649.69
662.73	645.22
663.07	640.86
663.41	636.42
663.75	631.86
664.09	627.37
664.43	623.02
664.77	618.92
665.11	614.67
665.45	610.57
665.79	606.54
666.13	602.36
666.47	598.35
666.81	594.26
667.15	590.21
667.49	586.31
667.83	582.53
668.17	578.62
668.51	574.51
668.85	570.53
669.19	566.57
669.53	562.76
669.87	558.91
670.21	555.21
670.55	551.59
670.89	548.23
671.23	544.76
671.57	541.24
671.91	537.75
672.25	534.30
672.58	530.77
672.92	527.36
673.26	524.22
673.60	521.08
673.94	517.96
674.28	515.05
674.62	512.12
674.96	508.99
675.30	506.04
675.64	503.08
675.97	500.34
676.31	497.53
676.65	494.63
676.99	491.90
677.33	489.07
677.67	486.26
678.01	483.21
678.34	480.23
678.68	477.33
679.02	474.46
679.36	471.68
679.70	468.94
680.04	466.14
680.37	463.27
680.71	460.41
681.05	457.77
681.39	455.00
681.73	452.31
682.06	449.81
682.40	447.22
682.74	444.76
683.08	442.17
683.42	439.55
683.75	437.01
684.09	434.48
684.43	431.97
684.77	429.45
685.10	427.12
685.44	424.80
685.78	422.53
686.12	420.31
686.45	417.98
686.79	415.67
687.13	413.47
687.46	411.30
687.80	409.18
688.14	406.99
688.48	404.97
688.81	402.73
689.15	400.57
689.49	398.44
689.82	396.28
690.16	394.15
690.50	392.20
690.83	390.27
691.17	388.26
691.51	386.33
691.84	384.49
692.18	382.52
692.52	380.55
692.85	378.63
693.19	376.74
693.52	374.96
693.86	373.19
694.20	371.41
694.53	369.59
694.87	367.74
695.21	365.95
695.54	364.10
695.88	362.37
696.21	360.61
696.55	358.93
696.88	357.27
697.22	355.62
697.56	353.99
697.89	352.33
698.23	350.73
698.56	349.17
698.90	347.58
699.23	345.96
699.57	344.42
699.90	342.86
700.24	341.34
700.58	339.82
700.91	338.31
701.25	336.87
701.58	335.52
701.92	334.21
702.25	332.83
702.59	331.47
702.92	330.19
703.26	328.91
703.59	327.64
703.93	326.48
704.26	325.26
704.60	323.94
704.93	322.67
705.26	321.41
705.60	320.23
705.93	319.06
706.27	318.04
706.60	316.96
706.94	315.87
707.27	314.76
707.61	313.69
707.94	312.65
708.27	311.56
708.61	310.54
708.94	309.51
709.28	308.51
709.61	307.52
709.94	306.54
710.28	305.53
710.61	304.57
710.95	303.52
711.28	302.64
711.61	301.74
711.95	300.82
712.28	299.88
712.61	298.95
712.95	298.02
713.28	297.15
713.61	296.27
713.95	295.36
714.28	294.52
714.61	293.67
714.95	292.84
715.28	291.98
715.61	291.07
715.95	290.18
716.28	289.33
716.61	288.55
716.95	287.75
717.28	287.02
717.61	286.23
717.94	285.46
718.28	284.60
718.61	283.88
718.94	283.21
719.27	282.59
719.61	281.91
719.94	281.27
720.27	280.56
720.60	279.90
720.94	279.30
721.27	278.66
721.60	278.11
721.93	277.54
722.27	277.01
722.60	276.49
722.93	275.94
723.26	275.43
723.59	274.85
723.93	274.31
724.26	273.76
724.59	273.18
724.92	272.68
725.25	272.20
725.59	271.66
725.92	271.15
726.25	270.63
726.58	270.12
726.91	269.61
727.24	269.09
727.57	268.63
727.91	268.14
728.24	267.69
728.57	267.17
728.90	266.73
729.23	266.19
729.56	265.77
729.89	265.27
730.22	264.74
730.55	264.27
730.89	263.85
731.22	263.38
731.55	263.00
731.88	262.52
732.21	262.09
732.54	261.64
732.87	261.22
733.20	260.80
733.53	260.43
733.86	260.05
734.19	259.68
734.52	259.31
734.85	258.98
735.18	258.58
735.51	258.19
735.84	257.76
736.17	257.43
736.50	257.03
736.83	256.84
737.16	256.57
737.49	256.25
737.82	255.85
738.15	255.55
738.48	255.18
738.81	254.87
739.14	254.53
739.47	254.27
739.80	253.95
740.13	253.69
740.46	253.35
740.79	253.06
741.12	252.74
741.45	252.42
741.78	252.06
742.11	251.78
742.44	251.48
742.77	251.24
743.10	250.95
743.43	250.63
743.75	250.24
744.08	250.07
744.41	249.79
744.74	249.54
745.07	249.22
745.40	249.01
745.73	248.81
746.06	248.58
746.39	248.32
746.71	248.03
747.04	247.77
747.37	247.52
747.70	247.25
748.03	247.05
748.36	246.80
748.68	246.60
749.01	246.35
749.34	246.16
749.67	245.94
750.00	245.73
750.33	245.58
750.65	245.35
750.98	245.02
751.31	244.79
751.64	244.60
751.97	244.47
752.29	244.25
752.62	244.00
752.95	243.77
753.28	243.54
753.60	243.37
753.93	243.17
754.26	242.98
754.59	242.79
754.91	242.55
755.24	242.38
755.57	242.20
755.90	242.02
756.22	241.78
756.55	241.59
756.88	241.42
757.20	241.19
757.53	241.02
757.86	240.84
758.19	240.69
758.51	240.53
758.84	240.30
759.17	240.12
759.49	239.93
759.82	239.81
760.15	239.63
760.47	239.47
760.80	239.26
761.13	239.13
761.45	238.95
761.78	238.81
762.11	238.67
762.43	238.51
762.76	238.37
763.08	238.26
763.41	238.10
763.74	237.96
764.06	237.83
764.39	237.70
764.71	237.57
765.04	237.42
765.37	237.25
765.69	237.13
766.02	236.99
766.34	236.86
766.67	236.71
767.00	236.61
767.32	236.53
767.65	236.47
767.97	236.34
768.30	236.26
768.62	236.15
768.95	235.98
769.27	235.84
769.60	235.73
769.92	235.60
770.25	235.48
770.57	235.33
770.90	235.21
771.22	235.06
771.55	234.96
771.87	234.86
772.20	234.76
772.52	234.75
772.85	234.78
773.17	234.71
773.50	234.61
773.82	234.55
774.15	234.41
774.47	234.28
774.80	234.18
775.12	234.09
775.45	233.99
775.77	233.96
776.09	233.90
776.42	233.83
776.74	233.78
777.07	233.71
777.39	233.69
777.72	233.62
778.04	233.58
778.36	233.50
778.69	233.46
779.01	233.41
779.33	233.25
779.66	233.08
779.98	232.99
780.31	232.91
780.63	232.87
780.95	232.87
781.28	232.81
781.60	232.76
781.92	232.68
782.25	232.64
782.57	232.57
782.89	232.54
783.22	232.47
783.54	232.39
783.86	232.35
784.19	232.27
784.51	232.24
784.83	232.15
785.16	232.08
785.48	232.00
785.80	231.94
786.12	231.90
786.45	231.86
786.77	231.83
787.09	231.81
