SpectraSuite Data File
++++++++++++++++++++++++++++++++++++
Date: Fri Feb 01 15:01:52 EST 2013
User: group
Dark Spectrum Present: No
Reference Spectrum Present: No
Number of Sampled Component Spectra: 1
Spectrometers: USB2E7196
Integration Time (usec): 35000 (USB2E7196)
Spectra Averaged: 100 (USB2E7196)
Boxcar Smoothing: 10 (USB2E7196)
Correct for Electrical Dark: No (USB2E7196)
Strobe/Lamp Enabled: No (USB2E7196)
Correct for Detector Non-linearity: No (USB2E7196)
Correct for Stray Light: No (USB2E7196)
Number of Pixels in Processed Spectrum: 2048
>>>>>Begin Processed Spectral Data<<<<<
339.09	0.00
339.48	215.29
339.86	216.49
340.24	218.59
340.63	220.48
341.01	222.42
341.39	222.19
341.78	223.41
342.16	224.37
342.54	225.20
342.93	213.68
343.31	224.48
343.69	225.02
344.07	225.51
344.46	225.91
344.84	226.27
345.22	226.51
345.60	226.76
345.99	226.95
346.37	227.12
346.75	227.20
347.13	227.25
347.52	227.32
347.90	227.39
348.28	227.43
348.66	227.48
349.05	227.51
349.43	227.55
349.81	227.53
350.19	227.57
350.57	227.61
350.96	227.67
351.34	227.75
351.72	227.85
352.10	227.93
352.48	227.98
352.87	228.02
353.25	228.10
353.63	228.14
354.01	228.19
354.39	228.24
354.77	228.35
355.15	228.47
355.54	228.47
355.92	228.46
356.30	228.55
356.68	228.64
357.06	228.70
357.44	228.75
357.82	228.85
358.20	228.96
358.58	229.01
358.97	229.05
359.35	229.13
359.73	229.20
360.11	229.24
360.49	229.31
360.87	229.33
361.25	229.35
361.63	229.45
362.01	229.51
362.39	229.54
362.77	229.56
363.15	229.53
363.53	229.59
363.91	229.63
364.29	229.59
364.67	229.50
365.05	229.50
365.43	229.52
365.81	229.52
366.19	229.53
366.57	229.57
366.95	229.55
367.33	229.51
367.71	229.46
368.09	229.47
368.47	229.46
368.85	229.40
369.23	229.37
369.61	229.27
369.99	229.23
370.37	229.21
370.75	229.21
371.13	229.14
371.51	229.06
371.89	229.04
372.27	229.03
372.65	229.01
373.03	228.94
373.41	228.87
373.78	228.80
374.16	228.71
374.54	228.61
374.92	228.54
375.30	228.48
375.68	228.39
376.06	228.30
376.44	228.20
376.82	228.16
377.19	228.10
377.57	228.03
377.95	227.94
378.33	227.85
378.71	227.73
379.09	227.70
379.47	227.66
379.84	227.57
380.22	227.48
380.60	227.37
380.98	227.26
381.36	227.19
381.73	227.10
382.11	227.04
382.49	226.95
382.87	226.85
383.25	226.78
383.62	226.81
384.00	226.76
384.38	226.68
384.76	226.64
385.13	226.62
385.51	226.59
385.89	226.53
386.27	226.48
386.64	226.42
387.02	226.34
387.40	226.29
387.78	226.27
388.15	226.25
388.53	226.23
388.91	226.21
389.29	226.17
389.66	226.15
390.04	226.12
390.42	226.13
390.79	226.13
391.17	226.13
391.55	226.03
391.92	226.02
392.30	226.04
392.68	226.00
393.05	226.02
393.43	226.04
393.81	226.04
394.18	226.06
394.56	226.10
394.94	226.17
395.31	226.19
395.69	226.21
396.06	226.27
396.44	226.31
396.82	226.38
397.19	226.48
397.57	226.55
397.95	226.59
398.32	226.65
398.70	226.71
399.07	226.77
399.45	226.83
399.82	226.91
400.20	227.03
400.58	227.12
400.95	227.15
401.33	227.28
401.70	227.43
402.08	227.54
402.45	227.65
402.83	227.81
403.20	227.95
403.58	228.07
403.95	228.21
404.33	228.36
404.71	228.51
405.08	228.73
405.46	228.86
405.83	229.04
406.21	229.20
406.58	229.41
406.96	229.57
407.33	229.79
407.70	230.01
408.08	230.27
408.45	230.54
408.83	230.80
409.20	230.96
409.58	231.18
409.95	231.46
410.33	231.76
410.70	231.98
411.08	232.26
411.45	232.58
411.82	232.87
412.20	233.21
412.57	233.60
412.95	233.88
413.32	234.30
413.69	234.71
414.07	235.17
414.44	235.64
414.82	236.15
415.19	236.73
415.56	237.28
415.94	237.80
416.31	238.43
416.68	239.05
417.06	239.79
417.43	240.49
417.81	241.22
418.18	241.95
418.55	242.75
418.93	243.64
419.30	244.52
419.67	245.46
420.04	246.46
420.42	247.44
420.79	248.62
421.16	249.81
421.54	251.00
421.91	252.18
422.28	253.39
422.66	254.73
423.03	255.97
423.40	257.32
423.77	258.73
424.15	260.13
424.52	261.57
424.89	263.17
425.26	264.69
425.64	266.16
426.01	267.76
426.38	269.42
426.75	271.05
427.13	272.84
427.50	274.63
427.87	276.48
428.24	278.34
428.61	280.09
428.99	282.03
429.36	284.14
429.73	286.19
430.10	288.25
430.47	290.28
430.85	292.39
431.22	294.59
431.59	296.99
431.96	299.24
432.33	301.79
432.70	304.13
433.08	306.94
433.45	309.56
433.82	312.22
434.19	315.14
434.56	318.01
434.93	320.62
435.30	323.28
435.68	326.16
436.05	328.97
436.42	331.75
436.79	334.26
437.16	336.95
437.53	339.82
437.90	342.62
438.27	345.38
438.64	348.24
439.01	350.86
439.38	353.10
439.75	355.28
440.13	357.76
440.50	360.15
440.87	362.04
441.24	364.01
441.61	366.16
441.98	367.68
442.35	369.42
442.72	371.30
443.09	373.12
443.46	374.12
443.83	374.74
444.20	375.26
444.57	376.06
444.94	376.34
445.31	376.71
445.68	377.07
446.05	377.15
446.42	376.82
446.79	376.41
447.16	375.93
447.53	375.62
447.90	374.43
448.27	373.27
448.64	371.67
449.01	370.56
449.37	368.56
449.74	366.60
450.11	364.37
450.48	361.88
450.85	359.33
451.22	357.18
451.59	355.15
451.96	353.18
452.33	350.61
452.70	348.27
453.07	345.42
453.43	342.52
453.80	339.75
454.17	337.02
454.54	334.44
454.91	331.76
455.28	329.07
455.65	326.62
456.02	324.15
456.38	322.00
456.75	319.30
457.12	317.02
457.49	314.80
457.86	312.62
458.23	310.77
458.59	308.75
458.96	306.67
459.33	304.82
459.70	302.98
460.07	301.46
460.43	299.72
460.80	298.07
461.17	296.63
461.54	295.18
461.91	293.73
462.27	292.28
462.64	290.99
463.01	289.63
463.38	288.33
463.74	286.97
464.11	285.81
464.48	284.80
464.85	283.71
465.21	282.83
465.58	281.93
465.95	280.83
466.32	279.85
466.68	278.91
467.05	278.02
467.42	277.11
467.78	276.19
468.15	275.33
468.52	274.68
468.88	273.79
469.25	272.97
469.62	272.35
469.98	271.68
470.35	271.06
470.72	270.38
471.08	269.73
471.45	269.18
471.82	268.59
472.18	267.97
472.55	267.53
472.92	267.02
473.28	266.52
473.65	266.04
474.02	265.62
474.38	265.30
474.75	264.96
475.11	264.62
475.48	264.34
475.85	264.10
476.21	263.84
476.58	263.67
476.94	263.53
477.31	263.37
477.67	263.17
478.04	263.02
478.41	263.01
478.77	263.02
479.14	262.94
479.50	263.00
479.87	263.05
480.23	263.11
480.60	263.15
480.96	263.26
481.33	263.50
481.69	263.69
482.06	263.84
482.42	264.00
482.79	264.26
483.15	264.59
483.52	264.94
483.88	265.30
484.25	265.64
484.61	266.11
484.98	266.50
485.34	267.08
485.71	267.71
486.07	268.28
486.44	268.86
486.80	269.56
487.17	270.24
487.53	271.08
487.90	271.91
488.26	272.88
488.62	273.86
488.99	274.83
489.35	275.87
489.72	276.97
490.08	278.16
490.44	279.38
490.81	280.71
491.17	282.03
491.54	283.51
491.90	285.08
492.26	286.66
492.63	288.40
492.99	290.19
493.36	292.06
493.72	294.11
494.08	296.20
494.45	298.43
494.81	300.78
495.17	303.19
495.54	305.72
495.90	308.36
496.26	311.15
496.63	314.06
496.99	317.13
497.35	320.39
497.72	323.74
498.08	327.19
498.44	330.81
498.80	334.75
499.17	338.74
499.53	342.84
499.89	347.18
500.26	351.65
500.62	356.29
500.98	361.21
501.34	366.24
501.71	371.54
502.07	376.95
502.43	382.52
502.79	388.27
503.16	394.34
503.52	400.56
503.88	406.92
504.24	413.53
504.60	420.39
504.97	427.49
505.33	434.82
505.69	442.57
506.05	450.27
506.41	458.11
506.78	466.26
507.14	474.67
507.50	483.38
507.86	492.39
508.22	501.58
508.59	510.76
508.95	520.35
509.31	530.17
509.67	540.28
510.03	550.59
510.39	561.14
510.75	571.95
511.12	582.91
511.48	594.19
511.84	605.65
512.20	617.19
512.56	629.12
512.92	641.30
513.28	653.56
513.64	666.07
514.00	678.83
514.37	691.69
514.73	704.79
515.09	717.82
515.45	731.12
515.81	744.72
516.17	758.72
516.53	772.87
516.89	787.02
517.25	801.28
517.61	815.76
517.97	830.17
518.33	844.62
518.69	859.43
519.05	874.49
519.41	889.60
519.77	905.14
520.13	920.69
520.49	936.13
520.85	951.64
521.21	967.44
521.57	983.73
521.93	999.59
522.29	1016.06
522.65	1032.43
523.01	1048.71
523.37	1064.83
523.73	1081.09
524.09	1097.23
524.45	1113.54
524.81	1130.22
525.17	1147.12
525.53	1164.15
525.89	1181.18
526.25	1198.03
526.61	1214.44
526.97	1231.32
527.33	1247.87
527.68	1264.49
528.04	1280.96
528.40	1297.68
528.76	1314.82
529.12	1331.35
529.48	1348.40
529.84	1364.53
530.20	1381.17
530.56	1398.41
530.91	1415.82
531.27	1432.64
531.63	1449.13
531.99	1465.88
532.35	1481.82
532.71	1497.66
533.07	1514.10
533.42	1529.94
533.78	1546.06
534.14	1562.49
534.50	1577.81
534.86	1593.82
535.21	1609.10
535.57	1625.18
535.93	1640.75
536.29	1655.67
536.65	1671.09
537.00	1685.90
537.36	1701.33
537.72	1716.05
538.08	1730.42
538.44	1744.37
538.79	1758.43
539.15	1772.27
539.51	1786.08
539.87	1800.60
540.22	1814.55
540.58	1828.42
540.94	1841.99
541.29	1855.09
541.65	1867.87
542.01	1881.25
542.37	1893.65
542.72	1906.15
543.08	1917.99
543.44	1930.41
543.79	1941.57
544.15	1952.45
544.51	1963.95
544.87	1974.94
545.22	1985.69
545.58	1995.99
545.94	2005.86
546.29	2015.65
546.65	2025.44
547.01	2034.75
547.36	2043.54
547.72	2051.99
548.07	2059.73
548.43	2067.98
548.79	2076.02
549.14	2083.58
549.50	2091.09
549.86	2098.71
550.21	2105.94
550.57	2113.17
550.92	2119.71
551.28	2126.84
551.64	2133.90
551.99	2140.47
552.35	2146.58
552.70	2152.71
553.06	2158.62
553.41	2164.74
553.77	2170.78
554.13	2176.94
554.48	2182.95
554.84	2188.31
555.19	2193.56
555.55	2198.61
555.90	2202.95
556.26	2207.61
556.61	2212.18
556.97	2216.31
557.32	2220.45
557.68	2224.60
558.03	2228.82
558.39	2232.67
558.74	2237.32
559.10	2241.18
559.45	2244.69
559.81	2249.00
560.16	2252.77
560.52	2255.97
560.87	2259.50
561.23	2262.12
561.58	2265.05
561.94	2267.59
562.29	2269.99
562.64	2272.57
563.00	2275.22
563.35	2278.58
563.71	2281.83
564.06	2285.03
564.42	2287.75
564.77	2290.22
565.12	2292.23
565.48	2293.97
565.83	2295.58
566.19	2296.72
566.54	2297.71
566.89	2298.90
567.25	2299.32
567.60	2300.61
567.96	2302.16
568.31	2302.82
568.66	2303.77
569.02	2304.23
569.37	2304.41
569.72	2305.02
570.08	2305.03
570.43	2304.90
570.78	2304.15
571.14	2302.42
571.49	2301.07
571.84	2300.59
572.20	2299.25
572.55	2298.30
572.90	2296.69
573.26	2295.19
573.61	2293.27
573.96	2291.21
574.31	2288.06
574.67	2284.89
575.02	2281.21
575.37	2277.70
575.72	2273.75
576.08	2270.33
576.43	2266.91
576.78	2263.07
577.13	2259.82
577.49	2256.56
577.84	2252.94
578.19	2249.16
578.54	2245.33
578.90	2240.80
579.25	2235.17
579.60	2230.00
579.95	2224.88
580.30	2219.73
580.66	2214.42
581.01	2209.54
581.36	2204.52
581.71	2200.20
582.06	2195.72
582.42	2191.02
582.77	2185.69
583.12	2180.99
583.47	2176.11
583.82	2170.88
584.17	2165.45
584.53	2159.67
584.88	2153.99
585.23	2148.02
585.58	2142.43
585.93	2136.93
586.28	2132.11
586.63	2127.02
586.98	2121.80
587.34	2116.88
587.69	2111.93
588.04	2106.47
588.39	2100.50
588.74	2093.85
589.09	2087.55
589.44	2080.40
589.79	2074.20
590.14	2068.40
590.49	2061.74
590.84	2055.10
591.19	2048.87
591.54	2042.27
591.89	2034.92
592.25	2028.02
592.60	2020.75
592.95	2012.95
593.30	2005.49
593.65	1997.67
594.00	1990.46
594.35	1983.13
594.70	1974.97
595.05	1967.48
595.40	1960.28
595.75	1952.84
596.10	1946.54
596.45	1939.66
596.80	1933.57
597.15	1926.89
597.50	1919.57
597.85	1913.03
598.19	1906.43
598.54	1899.20
598.89	1892.73
599.24	1886.73
599.59	1879.92
599.94	1873.70
600.29	1867.32
600.64	1860.67
600.99	1853.15
601.34	1846.22
601.69	1839.32
602.04	1832.45
602.39	1825.14
602.74	1818.20
603.08	1811.33
603.43	1804.58
603.78	1797.41
604.13	1790.08
604.48	1782.69
604.83	1775.97
605.18	1768.90
605.53	1760.82
605.87	1752.89
606.22	1745.52
606.57	1737.55
606.92	1730.29
607.27	1723.14
607.62	1716.25
607.96	1708.91
608.31	1702.41
608.66	1694.84
609.01	1687.19
609.36	1679.61
609.70	1671.64
610.05	1663.58
610.40	1655.97
610.75	1647.65
611.10	1639.95
611.44	1631.79
611.79	1623.92
612.14	1615.33
612.49	1606.32
612.83	1598.03
613.18	1589.85
613.53	1581.88
613.88	1573.44
614.22	1565.14
614.57	1556.50
614.92	1548.47
615.27	1541.03
615.61	1532.64
615.96	1524.64
616.31	1517.09
616.65	1509.78
617.00	1502.18
617.35	1494.62
617.70	1486.15
618.04	1477.60
618.39	1469.47
618.74	1461.77
619.08	1453.48
619.43	1445.92
619.78	1439.09
620.12	1431.97
620.47	1424.56
620.82	1416.38
621.16	1409.00
621.51	1401.55
621.85	1394.10
622.20	1385.64
622.55	1377.32
622.89	1369.68
623.24	1362.10
623.59	1354.78
623.93	1347.31
624.28	1340.21
624.62	1332.70
624.97	1325.68
625.32	1318.98
625.66	1311.96
626.01	1304.78
626.35	1297.36
626.70	1289.50
627.04	1281.73
627.39	1273.95
627.73	1266.56
628.08	1259.65
628.43	1252.28
628.77	1244.82
629.12	1237.12
629.46	1229.93
629.81	1222.50
630.15	1215.22
630.50	1207.83
630.84	1199.70
631.19	1191.88
631.53	1184.31
631.88	1176.84
632.22	1169.30
632.57	1162.08
632.91	1154.56
633.26	1147.08
633.60	1139.77
633.95	1132.87
634.29	1125.86
634.64	1119.20
634.98	1111.77
635.32	1104.65
635.67	1098.18
636.01	1091.53
636.36	1084.85
636.70	1078.45
637.05	1071.99
637.39	1065.55
637.73	1059.09
638.08	1053.20
638.42	1047.17
638.77	1040.81
639.11	1034.12
639.45	1027.76
639.80	1021.07
640.14	1014.68
640.49	1008.18
640.83	1001.94
641.17	995.61
641.52	989.40
641.86	983.06
642.20	977.38
642.55	971.19
642.89	964.68
643.23	958.25
643.58	952.44
643.92	946.20
644.26	940.05
644.61	934.08
644.95	928.00
645.29	921.47
645.64	914.74
645.98	908.42
646.32	902.76
646.66	896.77
647.01	891.01
647.35	885.34
647.69	879.65
648.04	874.16
648.38	868.48
648.72	862.48
649.06	856.40
649.41	850.57
649.75	844.50
650.09	838.57
650.43	832.72
650.78	826.67
651.12	820.76
651.46	815.13
651.80	809.40
652.14	804.11
652.49	798.73
652.83	793.60
653.17	787.97
653.51	782.19
653.85	776.73
654.20	771.12
654.54	765.18
654.88	759.47
655.22	753.54
655.56	747.86
655.90	742.48
656.25	737.28
656.59	731.90
656.93	726.95
657.27	721.83
657.61	716.49
657.95	711.44
658.29	706.40
658.64	701.09
658.98	695.79
659.32	690.37
659.66	685.27
660.00	679.95
660.34	675.04
660.68	670.20
661.02	665.26
661.36	660.61
661.70	656.12
662.05	651.81
662.39	647.57
662.73	643.12
663.07	638.71
663.41	634.29
663.75	629.86
664.09	625.29
664.43	620.99
664.77	616.87
665.11	612.65
665.45	608.59
665.79	604.59
666.13	600.55
666.47	596.49
666.81	592.36
667.15	588.28
667.49	584.40
667.83	580.60
668.17	576.67
668.51	572.63
668.85	568.64
669.19	564.85
669.53	561.04
669.87	557.22
670.21	553.55
670.55	549.91
670.89	546.50
671.23	543.08
671.57	539.58
671.91	536.12
672.25	532.59
672.58	529.07
672.92	525.68
673.26	522.58
673.60	519.45
673.94	516.31
674.28	513.45
674.62	510.55
674.96	507.44
675.30	504.55
675.64	501.64
675.97	498.89
676.31	495.98
676.65	493.02
676.99	490.28
677.33	487.41
677.67	484.58
678.01	481.56
678.34	478.59
678.68	475.72
679.02	472.88
679.36	470.20
679.70	467.49
680.04	464.77
680.37	461.86
680.71	459.09
681.05	456.43
681.39	453.75
681.73	451.09
682.06	448.53
682.40	445.99
682.74	443.45
683.08	440.91
683.42	438.36
683.75	435.90
684.09	433.40
684.43	430.99
684.77	428.62
685.10	426.22
685.44	423.94
685.78	421.71
686.12	419.53
686.45	417.23
686.79	414.96
687.13	412.79
687.46	410.68
687.80	408.53
688.14	406.38
688.48	404.34
688.81	402.09
689.15	400.04
689.49	397.93
689.82	395.86
690.16	393.81
690.50	391.90
690.83	389.98
691.17	388.00
691.51	386.09
691.84	384.24
692.18	382.40
692.52	380.43
692.85	378.52
693.19	376.67
693.52	374.88
693.86	373.10
694.20	371.30
694.53	369.51
694.87	367.71
695.21	365.94
695.54	364.10
695.88	362.44
696.21	360.69
696.55	359.02
696.88	357.36
697.22	355.71
697.56	354.07
697.89	352.45
698.23	350.87
698.56	349.29
698.90	347.71
699.23	346.06
699.57	344.52
699.90	342.98
700.24	341.44
700.58	339.90
700.91	338.41
701.25	336.99
701.58	335.64
701.92	334.26
702.25	332.92
702.59	331.56
702.92	330.24
703.26	328.96
703.59	327.72
703.93	326.53
704.26	325.27
704.60	323.97
704.93	322.70
705.26	321.44
705.60	320.29
705.93	319.17
706.27	318.20
706.60	317.17
706.94	316.07
707.27	314.93
707.61	313.87
707.94	312.81
708.27	311.74
708.61	310.64
708.94	309.65
709.28	308.67
709.61	307.73
709.94	306.78
710.28	305.74
710.61	304.79
710.95	303.74
711.28	302.87
711.61	301.91
711.95	300.96
712.28	300.04
712.61	299.01
712.95	298.05
713.28	297.15
713.61	296.24
713.95	295.35
714.28	294.50
714.61	293.67
714.95	292.89
715.28	292.02
715.61	291.16
715.95	290.32
716.28	289.40
716.61	288.57
716.95	287.74
717.28	287.02
717.61	286.22
717.94	285.47
718.28	284.64
718.61	283.94
718.94	283.29
719.27	282.61
719.61	282.01
719.94	281.35
720.27	280.59
720.60	279.94
720.94	279.32
721.27	278.71
721.60	278.12
721.93	277.50
722.27	276.96
722.60	276.38
722.93	275.76
723.26	275.28
723.59	274.72
723.93	274.20
724.26	273.63
724.59	273.07
724.92	272.53
725.25	272.04
725.59	271.53
725.92	271.01
726.25	270.52
726.58	270.01
726.91	269.50
727.24	269.02
727.57	268.59
727.91	268.09
728.24	267.64
728.57	267.14
728.90	266.69
729.23	266.20
729.56	265.78
729.89	265.37
730.22	264.88
730.55	264.44
730.89	263.97
731.22	263.54
731.55	263.10
731.88	262.69
732.21	262.24
732.54	261.82
732.87	261.42
733.20	261.02
733.53	260.64
733.86	260.27
734.19	259.91
734.52	259.52
734.85	259.22
735.18	258.83
735.51	258.49
735.84	258.14
736.17	257.80
736.50	257.40
736.83	257.09
737.16	256.74
737.49	256.41
737.82	256.06
738.15	255.72
738.48	255.37
738.81	255.06
739.14	254.72
739.47	254.39
739.80	254.07
740.13	253.76
740.46	253.41
740.79	253.10
741.12	252.81
741.45	252.49
741.78	252.11
742.11	251.83
742.44	251.50
742.77	251.22
743.10	250.91
743.43	250.65
743.75	250.32
744.08	250.18
744.41	249.88
744.74	249.63
745.07	249.35
745.40	249.17
745.73	248.93
746.06	248.70
746.39	248.43
746.71	248.17
747.04	247.91
747.37	247.65
747.70	247.35
748.03	247.09
748.36	246.87
748.68	246.64
749.01	246.38
749.34	246.15
749.67	245.94
750.00	245.74
750.33	245.57
750.65	245.38
750.98	245.04
751.31	244.84
751.64	244.66
751.97	244.49
752.29	244.25
752.62	244.05
752.95	243.83
753.28	243.66
753.60	243.44
753.93	243.28
754.26	243.09
754.59	242.91
754.91	242.72
755.24	242.48
755.57	242.33
755.90	242.14
756.22	241.93
756.55	241.67
756.88	241.46
757.20	241.24
757.53	240.99
757.86	240.86
758.19	240.71
758.51	240.50
758.84	240.29
759.17	240.10
759.49	239.92
759.82	239.79
760.15	239.59
760.47	239.44
760.80	239.29
761.13	239.17
761.45	239.01
761.78	238.87
762.11	238.73
762.43	238.58
762.76	238.45
763.08	238.34
763.41	238.23
763.74	238.09
764.06	237.95
764.39	237.82
764.71	237.63
765.04	237.47
765.37	237.37
765.69	237.25
766.02	237.11
766.34	236.97
766.67	236.81
767.00	236.73
767.32	236.66
767.65	236.57
767.97	236.45
768.30	236.34
768.62	236.22
768.95	236.07
769.27	235.93
769.60	235.83
769.92	235.67
770.25	235.55
770.57	235.43
770.90	235.32
771.22	235.23
771.55	235.15
771.87	235.08
772.20	234.94
772.52	234.91
772.85	234.94
773.17	234.84
773.50	234.74
773.82	234.64
774.15	234.48
774.47	234.35
774.80	234.25
775.12	234.17
775.45	234.07
775.77	234.04
776.09	233.97
776.42	233.88
776.74	233.88
777.07	233.81
777.39	233.75
777.72	233.66
778.04	233.59
778.36	233.52
778.69	233.44
779.01	233.37
779.33	233.24
779.66	233.08
779.98	233.01
780.31	232.99
780.63	232.96
780.95	232.94
781.28	232.89
781.60	232.82
781.92	232.78
782.25	232.75
782.57	232.68
782.89	232.64
783.22	232.59
783.54	232.53
783.86	232.50
784.19	232.44
784.51	232.41
784.83	232.38
785.16	232.33
785.48	232.28
785.80	232.28
786.12	232.26
786.45	232.23
786.77	232.22
787.09	232.14
