SpectraSuite Data File
++++++++++++++++++++++++++++++++++++
Date: Fri Feb 01 15:22:02 EST 2013
User: group
Dark Spectrum Present: No
Reference Spectrum Present: No
Number of Sampled Component Spectra: 1
Spectrometers: USB2E7196
Integration Time (usec): 35000 (USB2E7196)
Spectra Averaged: 100 (USB2E7196)
Boxcar Smoothing: 10 (USB2E7196)
Correct for Electrical Dark: No (USB2E7196)
Strobe/Lamp Enabled: No (USB2E7196)
Correct for Detector Non-linearity: No (USB2E7196)
Correct for Stray Light: No (USB2E7196)
Number of Pixels in Processed Spectrum: 2048
>>>>>Begin Processed Spectral Data<<<<<
339.09	0.00
339.48	215.41
339.86	216.87
340.24	218.16
340.63	218.90
341.01	222.01
341.39	221.58
341.78	223.43
342.16	224.62
342.54	224.83
342.93	213.40
343.31	224.18
343.69	224.70
344.07	225.15
344.46	225.56
344.84	225.97
345.22	226.22
345.60	226.45
345.99	226.62
346.37	226.75
346.75	226.84
347.13	226.93
347.52	226.97
347.90	227.04
348.28	227.09
348.66	227.14
349.05	227.11
349.43	227.11
349.81	227.15
350.19	227.22
350.57	227.26
350.96	227.33
351.34	227.43
351.72	227.52
352.10	227.60
352.48	227.71
352.87	227.73
353.25	227.80
353.63	227.90
354.01	227.97
354.39	228.04
354.77	228.15
355.15	228.23
355.54	228.27
355.92	228.31
356.30	228.36
356.68	228.50
357.06	228.59
357.44	228.67
357.82	228.76
358.20	228.83
358.58	228.88
358.97	228.92
359.35	229.00
359.73	229.09
360.11	229.13
360.49	229.18
360.87	229.25
361.25	229.30
361.63	229.40
362.01	229.45
362.39	229.47
362.77	229.49
363.15	229.50
363.53	229.55
363.91	229.56
364.29	229.59
364.67	229.49
365.05	229.55
365.43	229.59
365.81	229.59
366.19	229.60
366.57	229.65
366.95	229.65
367.33	229.60
367.71	229.57
368.09	229.57
368.47	229.53
368.85	229.48
369.23	229.46
369.61	229.38
369.99	229.36
370.37	229.35
370.75	229.38
371.13	229.32
371.51	229.22
371.89	229.18
372.27	229.14
372.65	229.10
373.03	229.02
373.41	228.93
373.78	228.86
374.16	228.78
374.54	228.68
374.92	228.61
375.30	228.57
375.68	228.48
376.06	228.41
376.44	228.32
376.82	228.31
377.19	228.23
377.57	228.14
377.95	228.04
378.33	227.97
378.71	227.83
379.09	227.80
379.47	227.78
379.84	227.72
380.22	227.62
380.60	227.55
380.98	227.49
381.36	227.44
381.73	227.34
382.11	227.28
382.49	227.20
382.87	227.10
383.25	227.01
383.62	227.09
384.00	227.00
384.38	226.94
384.76	226.88
385.13	226.86
385.51	226.80
385.89	226.74
386.27	226.70
386.64	226.66
387.02	226.62
387.40	226.57
387.78	226.51
388.15	226.48
388.53	226.44
388.91	226.38
389.29	226.34
389.66	226.37
390.04	226.34
390.42	226.37
390.79	226.35
391.17	226.34
391.55	226.21
391.92	226.26
392.30	226.29
392.68	226.27
393.05	226.27
393.43	226.30
393.81	226.32
394.18	226.30
394.56	226.33
394.94	226.35
395.31	226.37
395.69	226.45
396.06	226.48
396.44	226.56
396.82	226.63
397.19	226.73
397.57	226.76
397.95	226.81
398.32	226.84
398.70	226.94
399.07	227.03
399.45	227.09
399.82	227.13
400.20	227.23
400.58	227.30
400.95	227.33
401.33	227.43
401.70	227.57
402.08	227.67
402.45	227.73
402.83	227.89
403.20	228.01
403.58	228.11
403.95	228.28
404.33	228.39
404.71	228.50
405.08	228.67
405.46	228.80
405.83	228.98
406.21	229.11
406.58	229.26
406.96	229.44
407.33	229.65
407.70	229.85
408.08	230.10
408.45	230.34
408.83	230.59
409.20	230.80
409.58	231.02
409.95	231.29
410.33	231.57
410.70	231.81
411.08	232.11
411.45	232.42
411.82	232.73
412.20	233.08
412.57	233.52
412.95	233.82
413.32	234.28
413.69	234.71
414.07	235.14
414.44	235.60
414.82	236.05
415.19	236.56
415.56	237.12
415.94	237.62
416.31	238.24
416.68	238.86
417.06	239.56
417.43	240.21
417.81	241.01
418.18	241.78
418.55	242.61
418.93	243.49
419.30	244.40
419.67	245.31
420.04	246.26
420.42	247.24
420.79	248.42
421.16	249.56
421.54	250.75
421.91	251.98
422.28	253.24
422.66	254.58
423.03	255.94
423.40	257.29
423.77	258.75
424.15	260.20
424.52	261.71
424.89	263.36
425.26	264.95
425.64	266.38
426.01	267.98
426.38	269.64
426.75	271.31
427.13	273.03
427.50	274.84
427.87	276.72
428.24	278.59
428.61	280.32
428.99	282.27
429.36	284.36
429.73	286.44
430.10	288.49
430.47	290.53
430.85	292.61
431.22	294.85
431.59	297.23
431.96	299.47
432.33	301.95
432.70	304.32
433.08	307.13
433.45	309.77
433.82	312.39
434.19	315.27
434.56	318.08
434.93	320.77
435.30	323.47
435.68	326.38
436.05	329.23
436.42	332.03
436.79	334.54
437.16	337.23
437.53	340.13
437.90	342.97
438.27	345.74
438.64	348.59
439.01	351.19
439.38	353.45
439.75	355.61
440.13	358.11
440.50	360.46
440.87	362.29
441.24	364.24
441.61	366.43
441.98	367.95
442.35	369.75
442.72	371.60
443.09	373.37
443.46	374.35
443.83	374.96
444.20	375.52
444.57	376.35
444.94	376.67
445.31	377.00
445.68	377.31
446.05	377.38
446.42	377.00
446.79	376.57
447.16	376.10
447.53	375.78
447.90	374.58
448.27	373.43
448.64	371.82
449.01	370.64
449.37	368.63
449.74	366.73
450.11	364.49
450.48	362.01
450.85	359.47
451.22	357.34
451.59	355.32
451.96	353.32
452.33	350.72
452.70	348.34
453.07	345.47
453.43	342.58
453.80	339.79
454.17	337.10
454.54	334.57
454.91	331.84
455.28	329.20
455.65	326.79
456.02	324.34
456.38	322.19
456.75	319.56
457.12	317.32
457.49	315.11
457.86	312.95
458.23	311.09
458.59	309.02
458.96	306.94
459.33	305.08
459.70	303.26
460.07	301.74
460.43	300.01
460.80	298.41
461.17	296.93
461.54	295.46
461.91	294.01
462.27	292.56
462.64	291.30
463.01	289.89
463.38	288.57
463.74	287.19
464.11	286.01
464.48	284.98
464.85	283.87
465.21	282.95
465.58	282.00
465.95	280.88
466.32	279.98
466.68	279.05
467.05	278.14
467.42	277.17
467.78	276.23
468.15	275.34
468.52	274.63
468.88	273.78
469.25	272.99
469.62	272.36
469.98	271.65
470.35	271.01
470.72	270.38
471.08	269.69
471.45	269.14
471.82	268.61
472.18	267.99
472.55	267.53
472.92	267.02
473.28	266.53
473.65	266.06
474.02	265.57
474.38	265.23
474.75	264.87
475.11	264.55
475.48	264.27
475.85	263.99
476.21	263.77
476.58	263.60
476.94	263.43
477.31	263.26
477.67	263.08
478.04	262.95
478.41	262.90
478.77	262.92
479.14	262.84
479.50	262.83
479.87	262.93
480.23	263.00
480.60	263.03
480.96	263.14
481.33	263.33
481.69	263.55
482.06	263.70
482.42	263.91
482.79	264.15
483.15	264.49
483.52	264.87
483.88	265.22
484.25	265.59
484.61	266.05
484.98	266.53
485.34	267.14
485.71	267.77
486.07	268.36
486.44	268.96
486.80	269.64
487.17	270.40
487.53	271.18
487.90	272.06
488.26	273.00
488.62	273.98
488.99	274.96
489.35	276.01
489.72	277.15
490.08	278.35
490.44	279.57
490.81	280.91
491.17	282.28
491.54	283.76
491.90	285.32
492.26	286.93
492.63	288.65
492.99	290.40
493.36	292.32
493.72	294.39
494.08	296.49
494.45	298.75
494.81	301.13
495.17	303.60
495.54	306.14
495.90	308.81
496.26	311.62
496.63	314.56
496.99	317.66
497.35	320.94
497.72	324.33
498.08	327.93
498.44	331.62
498.80	335.56
499.17	339.59
499.53	343.74
499.89	348.13
500.26	352.63
500.62	357.30
500.98	362.23
501.34	367.28
501.71	372.58
502.07	378.08
502.43	383.65
502.79	389.44
503.16	395.52
503.52	401.86
503.88	408.24
504.24	414.89
504.60	421.82
504.97	428.95
505.33	436.27
505.69	443.90
506.05	451.61
506.41	459.46
506.78	467.63
507.14	476.11
507.50	484.80
507.86	493.84
508.22	503.05
508.59	512.18
508.95	521.83
509.31	531.67
509.67	541.66
510.03	552.01
510.39	562.60
510.75	573.38
511.12	584.30
511.48	595.59
511.84	607.08
512.20	618.60
512.56	630.55
512.92	642.73
513.28	655.06
513.64	667.57
514.00	680.25
514.37	693.15
514.73	706.16
515.09	719.24
515.45	732.50
515.81	746.07
516.17	760.20
516.53	774.32
516.89	788.51
517.25	802.80
517.61	817.20
517.97	831.63
518.33	846.12
518.69	860.90
519.05	875.95
519.41	891.13
519.77	906.70
520.13	922.19
520.49	937.65
520.85	953.11
521.21	968.88
521.57	985.22
521.93	1001.09
522.29	1017.57
522.65	1033.91
523.01	1050.26
523.37	1066.48
523.73	1082.65
524.09	1098.71
524.45	1115.11
524.81	1131.85
525.17	1148.71
525.53	1165.76
525.89	1182.65
526.25	1199.48
526.61	1215.94
526.97	1232.73
527.33	1249.14
527.68	1265.79
528.04	1282.30
528.40	1298.97
528.76	1316.13
529.12	1332.72
529.48	1349.59
529.84	1365.70
530.20	1382.41
530.56	1399.38
530.91	1416.75
531.27	1433.52
531.63	1450.10
531.99	1466.65
532.35	1482.65
532.71	1498.68
533.07	1514.93
533.42	1530.87
533.78	1547.10
534.14	1563.46
534.50	1578.93
534.86	1594.99
535.21	1610.23
535.57	1626.25
535.93	1641.87
536.29	1656.74
536.65	1672.00
537.00	1686.87
537.36	1702.33
537.72	1716.90
538.08	1731.43
538.44	1745.39
538.79	1759.50
539.15	1773.32
539.51	1787.13
539.87	1801.47
540.22	1815.22
540.58	1829.16
540.94	1842.79
541.29	1855.78
541.65	1868.49
542.01	1881.74
542.37	1894.12
542.72	1906.56
543.08	1918.46
543.44	1930.99
543.79	1942.27
544.15	1953.20
544.51	1964.73
544.87	1975.57
545.22	1986.40
545.58	1996.69
545.94	2006.51
546.29	2016.29
546.65	2026.10
547.01	2035.44
547.36	2044.36
547.72	2052.83
548.07	2060.65
548.43	2068.74
548.79	2076.71
549.14	2084.34
549.50	2091.70
549.86	2099.43
550.21	2106.81
550.57	2113.86
550.92	2120.32
551.28	2127.39
551.64	2134.58
551.99	2141.22
552.35	2147.46
552.70	2153.62
553.06	2159.48
553.41	2165.70
553.77	2171.75
554.13	2177.89
554.48	2183.97
554.84	2189.27
555.19	2194.51
555.55	2199.66
555.90	2204.09
556.26	2208.88
556.61	2213.61
556.97	2217.86
557.32	2221.91
557.68	2225.97
558.03	2230.41
558.39	2234.23
558.74	2238.80
559.10	2242.62
559.45	2246.33
559.81	2250.62
560.16	2254.38
560.52	2257.73
560.87	2261.22
561.23	2263.96
561.58	2266.87
561.94	2269.41
562.29	2271.86
562.64	2274.60
563.00	2277.12
563.35	2280.67
563.71	2283.81
564.06	2286.87
564.42	2289.74
564.77	2292.17
565.12	2294.36
565.48	2296.06
565.83	2297.87
566.19	2299.19
566.54	2300.12
566.89	2301.19
567.25	2301.66
567.60	2303.11
567.96	2304.72
568.31	2305.54
568.66	2306.50
569.02	2307.09
569.37	2307.41
569.72	2308.11
570.08	2308.09
570.43	2308.05
570.78	2307.26
571.14	2305.61
571.49	2304.44
571.84	2304.13
572.20	2302.93
572.55	2301.88
572.90	2300.29
573.26	2298.68
573.61	2296.92
573.96	2294.98
574.31	2291.94
574.67	2288.94
575.02	2285.25
575.37	2281.85
575.72	2277.76
576.08	2274.40
576.43	2271.09
576.78	2267.28
577.13	2264.13
577.49	2261.06
577.84	2257.64
578.19	2253.95
578.54	2250.29
578.90	2245.97
579.25	2240.31
579.60	2235.28
579.95	2230.20
580.30	2225.19
580.66	2220.00
581.01	2214.95
581.36	2210.07
581.71	2205.81
582.06	2201.20
582.42	2196.60
582.77	2191.38
583.12	2186.83
583.47	2181.78
583.82	2176.59
584.17	2171.30
584.53	2165.62
584.88	2159.93
585.23	2153.93
585.58	2148.28
585.93	2142.78
586.28	2137.87
586.63	2132.75
586.98	2127.53
587.34	2122.90
587.69	2117.81
588.04	2112.47
588.39	2106.72
588.74	2100.19
589.09	2093.94
589.44	2087.10
589.79	2080.93
590.14	2075.18
590.49	2068.52
590.84	2062.29
591.19	2056.14
591.54	2049.53
591.89	2042.00
592.25	2034.97
592.60	2027.62
592.95	2020.04
593.30	2012.63
593.65	2004.88
594.00	1997.65
594.35	1990.52
594.70	1982.38
595.05	1974.99
595.40	1967.66
595.75	1960.09
596.10	1953.67
596.45	1946.76
596.80	1940.63
597.15	1933.78
597.50	1926.50
597.85	1920.13
598.19	1913.34
598.54	1906.11
598.89	1899.51
599.24	1893.62
599.59	1886.94
599.94	1880.84
600.29	1874.52
600.64	1867.84
600.99	1860.32
601.34	1853.44
601.69	1846.30
602.04	1839.25
602.39	1831.97
602.74	1825.08
603.08	1818.30
603.43	1811.49
603.78	1804.30
604.13	1796.93
604.48	1789.61
604.83	1782.85
605.18	1775.65
605.53	1767.64
605.87	1759.62
606.22	1752.34
606.57	1744.38
606.92	1737.03
607.27	1729.73
607.62	1722.55
607.96	1715.24
608.31	1708.54
608.66	1700.83
609.01	1693.30
609.36	1685.74
609.70	1677.83
610.05	1669.73
610.40	1661.91
610.75	1653.63
611.10	1645.91
611.44	1637.55
611.79	1629.61
612.14	1620.78
612.49	1611.64
612.83	1603.24
613.18	1595.20
613.53	1587.12
613.88	1578.60
614.22	1570.34
614.57	1561.88
614.92	1554.04
615.27	1546.41
615.61	1538.13
615.96	1530.28
616.31	1522.67
616.65	1515.28
617.00	1507.71
617.35	1500.11
617.70	1491.70
618.04	1483.21
618.39	1474.91
618.74	1467.37
619.08	1459.11
619.43	1451.64
619.78	1444.73
620.12	1437.56
620.47	1429.99
620.82	1421.88
621.16	1414.56
621.51	1407.01
621.85	1399.24
622.20	1390.67
622.55	1382.43
622.89	1374.61
623.24	1366.84
623.59	1359.48
623.93	1351.88
624.28	1344.62
624.62	1337.09
624.97	1330.04
625.32	1323.33
625.66	1316.40
626.01	1309.06
626.35	1301.58
626.70	1293.81
627.04	1286.10
627.39	1278.36
627.73	1270.97
628.08	1263.94
628.43	1256.61
628.77	1249.20
629.12	1241.69
629.46	1234.46
629.81	1227.08
630.15	1219.95
630.50	1212.57
630.84	1204.34
631.19	1196.53
631.53	1188.96
631.88	1181.44
632.22	1173.90
632.57	1166.51
632.91	1159.05
633.26	1151.72
633.60	1144.51
633.95	1137.44
634.29	1130.49
634.64	1123.83
634.98	1116.51
635.32	1109.44
635.67	1102.97
636.01	1096.29
636.36	1089.48
636.70	1083.09
637.05	1076.47
637.39	1070.01
637.73	1063.53
638.08	1057.72
638.42	1051.76
638.77	1045.35
639.11	1038.72
639.45	1032.32
639.80	1025.66
640.14	1019.16
640.49	1012.66
640.83	1006.35
641.17	1000.08
641.52	993.74
641.86	987.31
642.20	981.41
642.55	975.12
642.89	968.54
643.23	962.06
643.58	956.28
643.92	950.02
644.26	943.98
644.61	937.91
644.95	931.90
645.29	925.22
645.64	918.48
645.98	912.22
646.32	906.40
646.66	900.36
647.01	894.51
647.35	888.73
647.69	882.82
648.04	877.19
648.38	871.41
648.72	865.35
649.06	859.23
649.41	853.33
649.75	847.29
650.09	841.27
650.43	835.48
650.78	829.36
651.12	823.35
651.46	817.58
651.80	811.84
652.14	806.43
652.49	801.07
652.83	795.94
653.17	790.10
653.51	784.31
653.85	778.89
654.20	773.34
654.54	767.41
654.88	761.74
655.22	755.86
655.56	750.09
655.90	744.67
656.25	739.46
656.59	734.15
656.93	729.09
657.27	723.95
657.61	718.47
657.95	713.34
658.29	708.23
658.64	702.97
658.98	697.64
659.32	692.25
659.66	687.06
660.00	681.69
660.34	676.82
660.68	671.97
661.02	666.99
661.36	662.24
661.70	657.80
662.05	653.39
662.39	649.10
662.73	644.66
663.07	640.30
663.41	635.85
663.75	631.28
664.09	626.75
664.43	622.40
664.77	618.33
665.11	614.06
665.45	610.03
665.79	606.02
666.13	601.93
666.47	597.80
666.81	593.66
667.15	589.54
667.49	585.72
667.83	581.95
668.17	577.99
668.51	573.96
668.85	569.92
669.19	566.12
669.53	562.23
669.87	558.39
670.21	554.66
670.55	551.01
670.89	547.65
671.23	544.17
671.57	540.66
671.91	537.17
672.25	533.77
672.58	530.24
672.92	526.86
673.26	523.70
673.60	520.54
673.94	517.48
674.28	514.67
674.62	511.67
674.96	508.53
675.30	505.63
675.64	502.68
675.97	499.90
676.31	497.05
676.65	494.18
676.99	491.53
677.33	488.71
677.67	485.93
678.01	482.89
678.34	479.90
678.68	477.12
679.02	474.26
679.36	471.49
679.70	468.77
680.04	465.99
680.37	463.10
680.71	460.34
681.05	457.71
681.39	454.92
681.73	452.27
682.06	449.76
682.40	447.24
682.74	444.71
683.08	442.16
683.42	439.58
683.75	437.13
684.09	434.52
684.43	432.04
684.77	429.60
685.10	427.27
685.44	425.00
685.78	422.70
686.12	420.49
686.45	418.24
686.79	415.96
687.13	413.77
687.46	411.59
687.80	409.42
688.14	407.23
688.48	405.15
688.81	402.88
689.15	400.73
689.49	398.59
689.82	396.50
690.16	394.42
690.50	392.42
690.83	390.46
691.17	388.50
691.51	386.63
691.84	384.77
692.18	382.80
692.52	380.78
692.85	378.81
693.19	376.93
693.52	375.05
693.86	373.22
694.20	371.44
694.53	369.70
694.87	367.91
695.21	366.16
695.54	364.38
695.88	362.71
696.21	361.01
696.55	359.30
696.88	357.65
697.22	356.01
697.56	354.40
697.89	352.70
698.23	351.07
698.56	349.44
698.90	347.78
699.23	346.15
699.57	344.61
699.90	343.06
700.24	341.48
700.58	339.92
700.91	338.43
701.25	336.98
701.58	335.58
701.92	334.19
702.25	332.79
702.59	331.42
702.92	330.05
703.26	328.74
703.59	327.48
703.93	326.33
704.26	325.08
704.60	323.82
704.93	322.59
705.26	321.40
705.60	320.25
705.93	319.15
706.27	318.11
706.60	317.08
706.94	316.02
707.27	314.91
707.61	313.87
707.94	312.83
708.27	311.72
708.61	310.68
708.94	309.68
709.28	308.66
709.61	307.68
709.94	306.79
710.28	305.75
710.61	304.75
710.95	303.65
711.28	302.77
711.61	301.81
711.95	300.87
712.28	299.89
712.61	298.86
712.95	297.96
713.28	297.08
713.61	296.21
713.95	295.30
714.28	294.46
714.61	293.63
714.95	292.81
715.28	291.95
715.61	291.06
715.95	290.22
716.28	289.37
716.61	288.58
716.95	287.79
717.28	287.10
717.61	286.37
717.94	285.64
718.28	284.82
718.61	284.09
718.94	283.41
719.27	282.80
719.61	282.21
719.94	281.55
720.27	280.85
720.60	280.22
720.94	279.65
721.27	279.08
721.60	278.51
721.93	277.92
722.27	277.39
722.60	276.80
722.93	276.21
723.26	275.71
723.59	275.15
723.93	274.58
724.26	274.00
724.59	273.44
724.92	272.92
725.25	272.44
725.59	271.90
725.92	271.43
726.25	270.91
726.58	270.40
726.91	269.91
727.24	269.44
727.57	268.91
727.91	268.35
728.24	267.90
728.57	267.44
728.90	267.00
729.23	266.50
729.56	266.12
729.89	265.63
730.22	265.14
730.55	264.68
730.89	264.21
731.22	263.76
731.55	263.35
731.88	262.91
732.21	262.47
732.54	262.07
732.87	261.59
733.20	261.17
733.53	260.80
733.86	260.40
734.19	260.03
734.52	259.64
734.85	259.35
735.18	258.92
735.51	258.50
735.84	258.08
736.17	257.75
736.50	257.33
736.83	257.11
737.16	256.80
737.49	256.46
737.82	256.13
738.15	255.80
738.48	255.44
738.81	255.14
739.14	254.82
739.47	254.51
739.80	254.20
740.13	253.90
740.46	253.57
740.79	253.24
741.12	252.91
741.45	252.64
741.78	252.30
742.11	252.03
742.44	251.72
742.77	251.45
743.10	251.16
743.43	250.83
743.75	250.47
744.08	250.30
744.41	250.04
744.74	249.75
745.07	249.49
745.40	249.25
745.73	249.06
746.06	248.74
746.39	248.48
746.71	248.25
747.04	248.01
747.37	247.74
747.70	247.50
748.03	247.26
748.36	247.02
748.68	246.82
749.01	246.57
749.34	246.35
749.67	246.10
750.00	245.85
750.33	245.74
750.65	245.52
750.98	245.19
751.31	244.98
751.64	244.82
751.97	244.67
752.29	244.46
752.62	244.17
752.95	243.99
753.28	243.78
753.60	243.60
753.93	243.41
754.26	243.23
754.59	242.98
754.91	242.76
755.24	242.54
755.57	242.35
755.90	242.20
756.22	242.03
756.55	241.85
756.88	241.69
757.20	241.46
757.53	241.27
757.86	241.06
758.19	240.92
758.51	240.75
758.84	240.54
759.17	240.36
759.49	240.24
759.82	240.14
760.15	240.00
760.47	239.83
760.80	239.64
761.13	239.53
761.45	239.43
761.78	239.29
762.11	239.19
762.43	239.04
762.76	238.85
763.08	238.74
763.41	238.59
763.74	238.47
764.06	238.33
764.39	238.22
764.71	238.12
765.04	237.94
765.37	237.80
765.69	237.64
766.02	237.49
766.34	237.36
766.67	237.19
767.00	237.07
767.32	236.99
767.65	236.94
767.97	236.78
768.30	236.65
768.62	236.55
768.95	236.42
769.27	236.27
769.60	236.17
769.92	236.02
770.25	235.91
770.57	235.78
770.90	235.72
771.22	235.58
771.55	235.49
771.87	235.38
772.20	235.27
772.52	235.28
772.85	235.31
773.17	235.19
773.50	235.07
773.82	234.94
774.15	234.81
774.47	234.66
774.80	234.54
775.12	234.47
775.45	234.36
775.77	234.31
776.09	234.25
776.42	234.20
776.74	234.12
777.07	234.03
777.39	233.96
777.72	233.82
778.04	233.76
778.36	233.66
778.69	233.60
779.01	233.55
779.33	233.40
779.66	233.25
779.98	233.17
780.31	233.14
780.63	233.14
780.95	233.10
781.28	233.06
781.60	233.03
781.92	232.95
782.25	232.92
782.57	232.79
782.89	232.73
783.22	232.64
783.54	232.59
783.86	232.52
784.19	232.44
784.51	232.42
784.83	232.34
785.16	232.30
785.48	232.21
785.80	232.14
786.12	232.11
786.45	232.05
786.77	232.01
787.09	231.94
