SpectraSuite Data File
++++++++++++++++++++++++++++++++++++
Date: Fri Feb 01 15:02:51 EST 2013
User: group
Dark Spectrum Present: No
Reference Spectrum Present: No
Number of Sampled Component Spectra: 1
Spectrometers: USB2E7196
Integration Time (usec): 35000 (USB2E7196)
Spectra Averaged: 100 (USB2E7196)
Boxcar Smoothing: 10 (USB2E7196)
Correct for Electrical Dark: No (USB2E7196)
Strobe/Lamp Enabled: No (USB2E7196)
Correct for Detector Non-linearity: No (USB2E7196)
Correct for Stray Light: No (USB2E7196)
Number of Pixels in Processed Spectrum: 2048
>>>>>Begin Processed Spectral Data<<<<<
339.09	0.00
339.48	215.09
339.86	216.78
340.24	217.87
340.63	219.02
341.01	222.23
341.39	222.38
341.78	223.66
342.16	224.98
342.54	224.29
342.93	213.42
343.31	224.22
343.69	224.75
344.07	225.19
344.46	225.62
344.84	226.03
345.22	226.24
345.60	226.46
345.99	226.62
346.37	226.71
346.75	226.85
347.13	226.92
347.52	226.97
347.90	227.06
348.28	227.07
348.66	227.11
349.05	227.12
349.43	227.15
349.81	227.20
350.19	227.27
350.57	227.31
350.96	227.38
351.34	227.43
351.72	227.52
352.10	227.64
352.48	227.70
352.87	227.75
353.25	227.82
353.63	227.89
354.01	227.97
354.39	228.04
354.77	228.13
355.15	228.23
355.54	228.30
355.92	228.32
356.30	228.38
356.68	228.54
357.06	228.59
357.44	228.62
357.82	228.70
358.20	228.78
358.58	228.85
358.97	228.92
359.35	229.00
359.73	229.07
360.11	229.11
360.49	229.18
360.87	229.21
361.25	229.30
361.63	229.36
362.01	229.39
362.39	229.41
362.77	229.43
363.15	229.44
363.53	229.48
363.91	229.49
364.29	229.50
364.67	229.39
365.05	229.43
365.43	229.45
365.81	229.45
366.19	229.49
366.57	229.51
366.95	229.50
367.33	229.47
367.71	229.45
368.09	229.44
368.47	229.42
368.85	229.41
369.23	229.37
369.61	229.33
369.99	229.34
370.37	229.34
370.75	229.36
371.13	229.30
371.51	229.19
371.89	229.17
372.27	229.18
372.65	229.14
373.03	229.08
373.41	229.02
373.78	228.96
374.16	228.81
374.54	228.72
374.92	228.65
375.30	228.61
375.68	228.54
376.06	228.50
376.44	228.41
376.82	228.32
377.19	228.25
377.57	228.15
377.95	228.04
378.33	227.95
378.71	227.78
379.09	227.74
379.47	227.70
379.84	227.58
380.22	227.47
380.60	227.35
380.98	227.26
381.36	227.17
381.73	227.06
382.11	227.02
382.49	226.96
382.87	226.87
383.25	226.80
383.62	226.82
384.00	226.73
384.38	226.68
384.76	226.66
385.13	226.65
385.51	226.61
385.89	226.55
386.27	226.51
386.64	226.49
387.02	226.44
387.40	226.39
387.78	226.37
388.15	226.34
388.53	226.33
388.91	226.32
389.29	226.30
389.66	226.30
390.04	226.29
390.42	226.29
390.79	226.28
391.17	226.24
391.55	226.14
391.92	226.12
392.30	226.15
392.68	226.10
393.05	226.08
393.43	226.09
393.81	226.14
394.18	226.14
394.56	226.18
394.94	226.24
395.31	226.27
395.69	226.33
396.06	226.41
396.44	226.47
396.82	226.49
397.19	226.60
397.57	226.66
397.95	226.75
398.32	226.75
398.70	226.81
399.07	226.94
399.45	226.99
399.82	227.06
400.20	227.10
400.58	227.21
400.95	227.27
401.33	227.41
401.70	227.54
402.08	227.65
402.45	227.73
402.83	227.83
403.20	227.95
403.58	228.09
403.95	228.23
404.33	228.38
404.71	228.52
405.08	228.70
405.46	228.83
405.83	228.98
406.21	229.16
406.58	229.34
406.96	229.50
407.33	229.73
407.70	229.93
408.08	230.20
408.45	230.39
408.83	230.61
409.20	230.81
409.58	230.99
409.95	231.29
410.33	231.60
410.70	231.87
411.08	232.17
411.45	232.46
411.82	232.73
412.20	233.08
412.57	233.53
412.95	233.82
413.32	234.23
413.69	234.64
414.07	235.10
414.44	235.56
414.82	236.02
415.19	236.57
415.56	237.11
415.94	237.67
416.31	238.34
416.68	238.97
417.06	239.66
417.43	240.34
417.81	241.10
418.18	241.87
418.55	242.66
418.93	243.52
419.30	244.40
419.67	245.35
420.04	246.29
420.42	247.25
420.79	248.41
421.16	249.59
421.54	250.76
421.91	251.96
422.28	253.25
422.66	254.59
423.03	255.85
423.40	257.18
423.77	258.58
424.15	259.98
424.52	261.44
424.89	263.04
425.26	264.58
425.64	266.00
426.01	267.59
426.38	269.25
426.75	270.94
427.13	272.65
427.50	274.45
427.87	276.31
428.24	278.16
428.61	279.93
428.99	281.83
429.36	283.93
429.73	285.97
430.10	287.97
430.47	289.99
430.85	292.14
431.22	294.38
431.59	296.78
431.96	299.03
432.33	301.56
432.70	303.95
433.08	306.77
433.45	309.43
433.82	312.07
434.19	314.97
434.56	317.76
434.93	320.44
435.30	323.08
435.68	325.99
436.05	328.83
436.42	331.64
436.79	334.14
437.16	336.86
437.53	339.74
437.90	342.52
438.27	345.31
438.64	348.15
439.01	350.78
439.38	353.03
439.75	355.23
440.13	357.74
440.50	360.08
440.87	361.94
441.24	363.92
441.61	366.07
441.98	367.62
442.35	369.48
442.72	371.34
443.09	373.18
443.46	374.21
443.83	374.83
444.20	375.36
444.57	376.20
444.94	376.53
445.31	376.88
445.68	377.29
446.05	377.37
446.42	376.97
446.79	376.58
447.16	376.13
447.53	375.85
447.90	374.71
448.27	373.58
448.64	371.99
449.01	370.86
449.37	368.83
449.74	366.91
450.11	364.59
450.48	362.11
450.85	359.55
451.22	357.40
451.59	355.32
451.96	353.38
452.33	350.79
452.70	348.39
453.07	345.57
453.43	342.69
453.80	339.90
454.17	337.20
454.54	334.63
454.91	331.90
455.28	329.21
455.65	326.67
456.02	324.19
456.38	322.07
456.75	319.38
457.12	317.15
457.49	314.87
457.86	312.73
458.23	310.89
458.59	308.84
458.96	306.72
459.33	304.91
459.70	303.01
460.07	301.50
460.43	299.75
460.80	298.12
461.17	296.63
461.54	295.16
461.91	293.74
462.27	292.28
462.64	291.01
463.01	289.58
463.38	288.26
463.74	286.90
464.11	285.72
464.48	284.66
464.85	283.54
465.21	282.67
465.58	281.74
465.95	280.65
466.32	279.71
466.68	278.83
467.05	277.92
467.42	277.04
467.78	276.11
468.15	275.23
468.52	274.54
468.88	273.68
469.25	272.88
469.62	272.27
469.98	271.57
470.35	270.93
470.72	270.34
471.08	269.70
471.45	269.14
471.82	268.57
472.18	267.98
472.55	267.54
472.92	267.01
473.28	266.58
473.65	266.12
474.02	265.68
474.38	265.28
474.75	264.92
475.11	264.57
475.48	264.28
475.85	264.05
476.21	263.78
476.58	263.59
476.94	263.42
477.31	263.23
477.67	263.12
478.04	263.00
478.41	262.94
478.77	262.96
479.14	262.90
479.50	262.89
479.87	262.94
480.23	263.00
480.60	263.08
480.96	263.10
481.33	263.29
481.69	263.48
482.06	263.66
482.42	263.86
482.79	264.08
483.15	264.41
483.52	264.77
483.88	265.15
484.25	265.50
484.61	265.91
484.98	266.32
485.34	266.82
485.71	267.39
486.07	267.99
486.44	268.59
486.80	269.28
487.17	270.01
487.53	270.83
487.90	271.67
488.26	272.55
488.62	273.57
488.99	274.55
489.35	275.55
489.72	276.69
490.08	277.90
490.44	279.17
490.81	280.54
491.17	281.87
491.54	283.36
491.90	284.91
492.26	286.56
492.63	288.32
492.99	290.11
493.36	291.99
493.72	294.04
494.08	296.15
494.45	298.39
494.81	300.75
495.17	303.15
495.54	305.70
495.90	308.39
496.26	311.19
496.63	314.14
496.99	317.27
497.35	320.52
497.72	323.87
498.08	327.38
498.44	330.98
498.80	334.87
499.17	338.83
499.53	343.03
499.89	347.42
500.26	351.90
500.62	356.57
500.98	361.52
501.34	366.59
501.71	371.88
502.07	377.27
502.43	382.84
502.79	388.69
503.16	394.74
503.52	400.99
503.88	407.33
504.24	413.89
504.60	420.80
504.97	427.90
505.33	435.25
505.69	442.89
506.05	450.66
506.41	458.52
506.78	466.67
507.14	475.05
507.50	483.70
507.86	492.68
508.22	501.83
508.59	511.00
508.95	520.56
509.31	530.35
509.67	540.47
510.03	550.75
510.39	561.29
510.75	572.09
511.12	583.02
511.48	594.34
511.84	605.83
512.20	617.30
512.56	629.15
512.92	641.30
513.28	653.65
513.64	666.09
514.00	678.81
514.37	691.81
514.73	704.89
515.09	718.00
515.45	731.32
515.81	744.92
516.17	758.99
516.53	773.17
516.89	787.33
517.25	801.50
517.61	816.00
517.97	830.48
518.33	844.93
518.69	859.79
519.05	874.79
519.41	889.96
519.77	905.58
520.13	921.11
520.49	936.57
520.85	952.06
521.21	967.87
521.57	984.19
521.93	1000.08
522.29	1016.56
522.65	1032.81
523.01	1049.01
523.37	1065.04
523.73	1081.17
524.09	1097.27
524.45	1113.53
524.81	1130.27
525.17	1147.19
525.53	1164.15
525.89	1181.17
526.25	1198.05
526.61	1214.54
526.97	1231.39
527.33	1247.96
527.68	1264.74
528.04	1281.29
528.40	1297.97
528.76	1315.13
529.12	1331.76
529.48	1348.61
529.84	1364.63
530.20	1381.40
530.56	1398.61
530.91	1416.09
531.27	1432.94
531.63	1449.47
531.99	1466.38
532.35	1482.33
532.71	1498.16
533.07	1514.48
533.42	1530.41
533.78	1546.46
534.14	1562.92
534.50	1578.38
534.86	1594.32
535.21	1609.39
535.57	1625.51
535.93	1641.11
536.29	1656.03
536.65	1671.25
537.00	1686.22
537.36	1701.73
537.72	1716.31
538.08	1730.76
538.44	1744.71
538.79	1758.76
539.15	1772.64
539.51	1786.24
539.87	1800.71
540.22	1814.66
540.58	1828.63
540.94	1842.11
541.29	1855.16
541.65	1867.91
542.01	1881.29
542.37	1893.57
542.72	1906.14
543.08	1917.91
543.44	1930.34
543.79	1941.55
544.15	1952.48
544.51	1963.94
544.87	1974.96
545.22	1985.88
545.58	1996.11
545.94	2006.04
546.29	2016.06
546.65	2025.81
547.01	2035.15
547.36	2043.93
547.72	2052.39
548.07	2060.13
548.43	2068.25
548.79	2076.29
549.14	2083.78
549.50	2090.96
549.86	2098.93
550.21	2106.33
550.57	2113.49
550.92	2120.04
551.28	2127.12
551.64	2134.26
551.99	2140.96
552.35	2147.02
552.70	2153.03
553.06	2159.09
553.41	2165.19
553.77	2171.10
554.13	2177.25
554.48	2183.35
554.84	2188.58
555.19	2194.01
555.55	2199.14
555.90	2203.65
556.26	2208.47
556.61	2213.16
556.97	2217.42
557.32	2221.43
557.68	2225.38
558.03	2229.71
558.39	2233.43
558.74	2238.10
559.10	2241.79
559.45	2245.42
559.81	2249.77
560.16	2253.50
560.52	2256.64
560.87	2260.24
561.23	2262.70
561.58	2265.65
561.94	2268.19
562.29	2270.74
562.64	2273.30
563.00	2275.89
563.35	2279.28
563.71	2282.47
564.06	2285.68
564.42	2288.46
564.77	2290.73
565.12	2293.06
565.48	2294.72
565.83	2296.29
566.19	2297.38
566.54	2298.60
566.89	2299.43
567.25	2299.82
567.60	2301.23
567.96	2302.78
568.31	2303.59
568.66	2304.62
569.02	2304.92
569.37	2305.09
569.72	2305.69
570.08	2305.51
570.43	2305.42
570.78	2304.64
571.14	2302.88
571.49	2301.35
571.84	2301.00
572.20	2299.60
572.55	2298.30
572.90	2296.74
573.26	2295.40
573.61	2293.63
573.96	2291.48
574.31	2288.51
574.67	2285.38
575.02	2281.46
575.37	2277.84
575.72	2273.72
576.08	2270.33
576.43	2267.04
576.78	2263.29
577.13	2260.08
577.49	2257.04
577.84	2253.45
578.19	2249.76
578.54	2245.92
578.90	2241.53
579.25	2235.84
579.60	2230.85
579.95	2225.75
580.30	2220.72
580.66	2215.39
581.01	2210.26
581.36	2205.08
581.71	2200.60
582.06	2195.95
582.42	2191.36
582.77	2186.12
583.12	2181.37
583.47	2176.47
583.82	2171.27
584.17	2165.71
584.53	2160.08
584.88	2154.26
585.23	2148.23
585.58	2142.49
585.93	2137.02
586.28	2132.19
586.63	2126.93
586.98	2121.83
587.34	2116.95
587.69	2111.81
588.04	2106.45
588.39	2100.64
588.74	2094.19
589.09	2088.04
589.44	2081.22
589.79	2075.16
590.14	2069.41
590.49	2062.82
590.84	2056.28
591.19	2050.03
591.54	2043.70
591.89	2036.14
592.25	2029.09
592.60	2021.86
592.95	2014.11
593.30	2006.55
593.65	1998.88
594.00	1991.83
594.35	1984.47
594.70	1976.43
595.05	1968.98
595.40	1961.60
595.75	1954.06
596.10	1947.74
596.45	1940.86
596.80	1934.58
597.15	1927.83
597.50	1920.58
597.85	1913.95
598.19	1907.22
598.54	1900.03
598.89	1893.25
599.24	1887.36
599.59	1880.68
599.94	1874.33
600.29	1868.13
600.64	1861.62
600.99	1853.93
601.34	1846.94
601.69	1839.90
602.04	1832.88
602.39	1825.54
602.74	1818.66
603.08	1811.90
603.43	1805.15
603.78	1797.84
604.13	1790.56
604.48	1783.18
604.83	1776.36
605.18	1769.27
605.53	1761.29
605.87	1753.42
606.22	1746.21
606.57	1738.30
606.92	1730.94
607.27	1723.76
607.62	1716.81
607.96	1709.54
608.31	1703.00
608.66	1695.38
609.01	1687.83
609.36	1680.32
609.70	1672.37
610.05	1664.31
610.40	1656.68
610.75	1648.29
611.10	1640.60
611.44	1632.29
611.79	1624.45
612.14	1615.77
612.49	1606.85
612.83	1598.49
613.18	1590.34
613.53	1582.19
613.88	1573.73
614.22	1565.59
614.57	1557.04
614.92	1548.81
615.27	1541.12
615.61	1532.83
615.96	1524.88
616.31	1517.28
616.65	1509.95
617.00	1502.37
617.35	1494.68
617.70	1486.25
618.04	1477.72
618.39	1469.54
618.74	1462.01
619.08	1453.70
619.43	1446.20
619.78	1439.40
620.12	1432.21
620.47	1424.66
620.82	1416.59
621.16	1409.21
621.51	1401.58
621.85	1394.09
622.20	1385.77
622.55	1377.53
622.89	1369.70
623.24	1362.12
623.59	1354.77
623.93	1347.31
624.28	1340.09
624.62	1332.66
624.97	1325.59
625.32	1318.93
625.66	1311.98
626.01	1304.65
626.35	1297.14
626.70	1289.34
627.04	1281.38
627.39	1273.77
627.73	1266.52
628.08	1259.63
628.43	1252.36
628.77	1244.99
629.12	1237.36
629.46	1230.20
629.81	1222.88
630.15	1215.76
630.50	1208.42
630.84	1200.23
631.19	1192.45
631.53	1185.06
631.88	1177.63
632.22	1170.07
632.57	1162.80
632.91	1155.30
633.26	1148.01
633.60	1140.77
633.95	1133.86
634.29	1127.06
634.64	1120.31
634.98	1112.84
635.32	1105.74
635.67	1099.22
636.01	1092.67
636.36	1085.97
636.70	1079.45
637.05	1072.77
637.39	1066.37
637.73	1059.94
638.08	1054.18
638.42	1048.18
638.77	1041.68
639.11	1034.99
639.45	1028.64
639.80	1022.01
640.14	1015.55
640.49	1009.09
640.83	1002.83
641.17	996.53
641.52	990.15
641.86	983.89
642.20	978.17
642.55	971.96
642.89	965.35
643.23	958.75
643.58	952.95
643.92	946.77
644.26	940.76
644.61	934.74
644.95	928.61
645.29	922.02
645.64	915.25
645.98	909.00
646.32	903.33
646.66	897.37
647.01	891.66
647.35	886.01
647.69	880.18
648.04	874.70
648.38	868.92
648.72	862.92
649.06	856.76
649.41	850.91
649.75	844.87
650.09	838.98
650.43	833.26
650.78	827.11
651.12	821.19
651.46	815.56
651.80	809.74
652.14	804.36
652.49	799.00
652.83	793.90
653.17	788.18
653.51	782.38
653.85	776.88
654.20	771.16
654.54	765.26
654.88	759.63
655.22	753.75
655.56	748.10
655.90	742.77
656.25	737.59
656.59	732.26
656.93	727.18
657.27	722.09
657.61	716.69
657.95	711.62
658.29	706.56
658.64	701.38
658.98	696.23
659.32	690.77
659.66	685.57
660.00	680.20
660.34	675.26
660.68	670.41
661.02	665.43
661.36	660.81
661.70	656.29
662.05	651.89
662.39	647.50
662.73	643.11
663.07	638.66
663.41	634.20
663.75	629.69
664.09	625.10
664.43	620.73
664.77	616.64
665.11	612.51
665.45	608.47
665.79	604.41
666.13	600.24
666.47	596.24
666.81	592.10
667.15	588.10
667.49	584.28
667.83	580.49
668.17	576.56
668.51	572.51
668.85	568.54
669.19	564.72
669.53	560.89
669.87	557.01
670.21	553.40
670.55	549.80
670.89	546.41
671.23	543.08
671.57	539.58
671.91	536.10
672.25	532.56
672.58	529.02
672.92	525.59
673.26	522.40
673.60	519.27
673.94	516.22
674.28	513.29
674.62	510.33
674.96	507.25
675.30	504.41
675.64	501.55
675.97	498.80
676.31	495.94
676.65	493.06
676.99	490.37
677.33	487.54
677.67	484.72
678.01	481.69
678.34	478.71
678.68	475.84
679.02	473.03
679.36	470.30
679.70	467.63
680.04	464.90
680.37	462.10
680.71	459.35
681.05	456.76
681.39	454.06
681.73	451.45
682.06	448.87
682.40	446.34
682.74	443.80
683.08	441.24
683.42	438.69
683.75	436.28
684.09	433.75
684.43	431.30
684.77	428.88
685.10	426.56
685.44	424.31
685.78	422.03
686.12	419.78
686.45	417.49
686.79	415.22
687.13	413.04
687.46	410.87
687.80	408.68
688.14	406.47
688.48	404.48
688.81	402.26
689.15	400.22
689.49	398.06
689.82	395.99
690.16	393.90
690.50	391.89
690.83	389.92
691.17	387.96
691.51	386.01
691.84	384.13
692.18	382.15
692.52	380.10
692.85	378.21
693.19	376.33
693.52	374.56
693.86	372.73
694.20	370.97
694.53	369.20
694.87	367.38
695.21	365.64
695.54	363.79
695.88	362.04
696.21	360.32
696.55	358.67
696.88	357.00
697.22	355.38
697.56	353.80
697.89	352.14
698.23	350.55
698.56	349.02
698.90	347.45
699.23	345.84
699.57	344.36
699.90	342.84
700.24	341.34
700.58	339.80
700.91	338.33
701.25	336.86
701.58	335.50
701.92	334.14
702.25	332.77
702.59	331.38
702.92	330.08
703.26	328.74
703.59	327.48
703.93	326.31
704.26	325.05
704.60	323.78
704.93	322.53
705.26	321.29
705.60	320.11
705.93	319.00
706.27	318.00
706.60	316.96
706.94	315.88
707.27	314.72
707.61	313.64
707.94	312.63
708.27	311.57
708.61	310.50
708.94	309.50
709.28	308.47
709.61	307.54
709.94	306.61
710.28	305.60
710.61	304.67
710.95	303.58
711.28	302.70
711.61	301.75
711.95	300.88
712.28	299.92
712.61	298.90
712.95	297.96
713.28	297.05
713.61	296.16
713.95	295.27
714.28	294.46
714.61	293.65
714.95	292.80
715.28	291.94
715.61	291.04
715.95	290.21
716.28	289.39
716.61	288.59
716.95	287.74
717.28	286.97
717.61	286.18
717.94	285.45
718.28	284.64
718.61	283.93
718.94	283.20
719.27	282.56
719.61	281.95
719.94	281.27
720.27	280.57
720.60	279.92
720.94	279.28
721.27	278.66
721.60	278.10
721.93	277.51
722.27	276.94
722.60	276.45
722.93	275.86
723.26	275.34
723.59	274.78
723.93	274.30
724.26	273.76
724.59	273.24
724.92	272.72
725.25	272.22
725.59	271.67
725.92	271.15
726.25	270.64
726.58	270.15
726.91	269.65
727.24	269.16
727.57	268.69
727.91	268.21
728.24	267.74
728.57	267.23
728.90	266.79
729.23	266.32
729.56	265.88
729.89	265.41
730.22	264.92
730.55	264.45
730.89	263.97
731.22	263.52
731.55	263.07
731.88	262.64
732.21	262.24
732.54	261.81
732.87	261.42
733.20	261.03
733.53	260.62
733.86	260.29
734.19	259.93
734.52	259.51
734.85	259.19
735.18	258.80
735.51	258.45
735.84	258.01
736.17	257.66
736.50	257.25
736.83	257.01
737.16	256.69
737.49	256.32
737.82	255.98
738.15	255.62
738.48	255.26
738.81	254.97
739.14	254.63
739.47	254.34
739.80	254.01
740.13	253.73
740.46	253.40
740.79	253.07
741.12	252.71
741.45	252.43
741.78	252.08
742.11	251.77
742.44	251.41
742.77	251.17
743.10	250.88
743.43	250.60
743.75	250.24
744.08	250.10
744.41	249.83
744.74	249.57
745.07	249.32
745.40	249.08
745.73	248.82
746.06	248.53
746.39	248.28
746.71	248.03
747.04	247.75
747.37	247.51
747.70	247.25
748.03	247.01
748.36	246.78
748.68	246.58
749.01	246.35
749.34	246.15
749.67	245.90
750.00	245.68
750.33	245.48
750.65	245.27
750.98	244.89
751.31	244.70
751.64	244.49
751.97	244.34
752.29	244.14
752.62	243.89
752.95	243.68
753.28	243.47
753.60	243.24
753.93	243.05
754.26	242.85
754.59	242.64
754.91	242.42
755.24	242.23
755.57	242.00
755.90	241.81
756.22	241.60
756.55	241.41
756.88	241.22
757.20	241.03
757.53	240.82
757.86	240.66
758.19	240.50
758.51	240.33
758.84	240.13
759.17	239.95
759.49	239.81
759.82	239.74
760.15	239.56
760.47	239.45
760.80	239.26
761.13	239.13
761.45	238.96
761.78	238.80
762.11	238.63
762.43	238.50
762.76	238.33
763.08	238.22
763.41	238.06
763.74	237.92
764.06	237.74
764.39	237.60
764.71	237.47
765.04	237.31
765.37	237.15
765.69	237.01
766.02	236.88
766.34	236.75
766.67	236.55
767.00	236.49
767.32	236.39
767.65	236.35
767.97	236.24
768.30	236.15
768.62	236.08
768.95	235.98
769.27	235.89
769.60	235.83
769.92	235.70
770.25	235.61
770.57	235.50
770.90	235.40
771.22	235.31
771.55	235.22
771.87	235.17
772.20	235.07
772.52	235.08
772.85	235.09
773.17	235.01
773.50	234.93
773.82	234.81
774.15	234.66
774.47	234.54
774.80	234.47
775.12	234.40
775.45	234.28
775.77	234.20
776.09	234.12
776.42	234.05
776.74	234.02
777.07	233.93
777.39	233.86
777.72	233.81
778.04	233.72
778.36	233.63
778.69	233.54
779.01	233.50
779.33	233.34
779.66	233.19
779.98	233.07
780.31	233.01
780.63	233.01
780.95	233.01
781.28	232.94
781.60	232.84
781.92	232.77
782.25	232.72
782.57	232.69
782.89	232.60
783.22	232.54
783.54	232.45
783.86	232.43
784.19	232.33
784.51	232.29
784.83	232.23
785.16	232.18
785.48	232.12
785.80	232.06
786.12	232.01
786.45	231.96
786.77	231.95
787.09	231.90
