SpectraSuite Data File
++++++++++++++++++++++++++++++++++++
Date: Fri Feb 01 16:05:29 EST 2013
User: group
Dark Spectrum Present: No
Reference Spectrum Present: No
Number of Sampled Component Spectra: 1
Spectrometers: USB2E7196
Integration Time (usec): 35000 (USB2E7196)
Spectra Averaged: 100 (USB2E7196)
Boxcar Smoothing: 10 (USB2E7196)
Correct for Electrical Dark: No (USB2E7196)
Strobe/Lamp Enabled: No (USB2E7196)
Correct for Detector Non-linearity: No (USB2E7196)
Correct for Stray Light: No (USB2E7196)
Number of Pixels in Processed Spectrum: 2048
>>>>>Begin Processed Spectral Data<<<<<
339.09	0.00
339.48	214.89
339.86	216.04
340.24	217.31
340.63	219.16
341.01	221.81
341.39	221.56
341.78	223.40
342.16	223.85
342.54	224.69
342.93	213.08
343.31	223.85
343.69	224.39
344.07	224.85
344.46	225.28
344.84	225.64
345.22	225.86
345.60	226.12
345.99	226.29
346.37	226.43
346.75	226.56
347.13	226.59
347.52	226.61
347.90	226.69
348.28	226.73
348.66	226.78
349.05	226.79
349.43	226.81
349.81	226.84
350.19	226.88
350.57	226.95
350.96	227.03
351.34	227.07
351.72	227.14
352.10	227.24
352.48	227.31
352.87	227.38
353.25	227.45
353.63	227.52
354.01	227.60
354.39	227.67
354.77	227.72
355.15	227.83
355.54	227.89
355.92	227.92
356.30	227.97
356.68	228.07
357.06	228.12
357.44	228.19
357.82	228.26
358.20	228.32
358.58	228.38
358.97	228.43
359.35	228.52
359.73	228.58
360.11	228.63
360.49	228.69
360.87	228.73
361.25	228.77
361.63	228.84
362.01	228.88
362.39	228.93
362.77	228.96
363.15	228.98
363.53	229.06
363.91	229.07
364.29	229.09
364.67	229.02
365.05	229.03
365.43	229.05
365.81	229.08
366.19	229.11
366.57	229.13
366.95	229.12
367.33	229.10
367.71	229.10
368.09	229.11
368.47	229.10
368.85	229.05
369.23	229.07
369.61	229.01
369.99	228.99
370.37	228.95
370.75	228.97
371.13	228.90
371.51	228.82
371.89	228.81
372.27	228.81
372.65	228.78
373.03	228.73
373.41	228.67
373.78	228.61
374.16	228.53
374.54	228.46
374.92	228.40
375.30	228.35
375.68	228.26
376.06	228.20
376.44	228.14
376.82	228.12
377.19	228.02
377.57	227.93
377.95	227.84
378.33	227.78
378.71	227.63
379.09	227.59
379.47	227.54
379.84	227.47
380.22	227.35
380.60	227.26
380.98	227.20
381.36	227.15
381.73	227.05
382.11	227.00
382.49	226.93
382.87	226.85
383.25	226.78
383.62	226.86
384.00	226.77
384.38	226.68
384.76	226.63
385.13	226.62
385.51	226.56
385.89	226.50
386.27	226.44
386.64	226.42
387.02	226.34
387.40	226.28
387.78	226.23
388.15	226.19
388.53	226.15
388.91	226.11
389.29	226.09
389.66	226.06
390.04	226.01
390.42	225.98
390.79	226.00
391.17	225.97
391.55	225.82
391.92	225.82
392.30	225.83
392.68	225.82
393.05	225.82
393.43	225.82
393.81	225.86
394.18	225.85
394.56	225.86
394.94	225.88
395.31	225.88
395.69	225.92
396.06	225.98
396.44	226.03
396.82	226.10
397.19	226.16
397.57	226.22
397.95	226.27
398.32	226.28
398.70	226.32
399.07	226.43
399.45	226.50
399.82	226.54
400.20	226.60
400.58	226.66
400.95	226.70
401.33	226.81
401.70	226.94
402.08	227.05
402.45	227.15
402.83	227.34
403.20	227.44
403.58	227.55
403.95	227.69
404.33	227.86
404.71	227.93
405.08	228.12
405.46	228.27
405.83	228.45
406.21	228.64
406.58	228.84
406.96	229.00
407.33	229.20
407.70	229.42
408.08	229.68
408.45	229.90
408.83	230.13
409.20	230.33
409.58	230.51
409.95	230.79
410.33	231.07
410.70	231.25
411.08	231.55
411.45	231.87
411.82	232.18
412.20	232.51
412.57	232.96
412.95	233.25
413.32	233.68
413.69	234.09
414.07	234.55
414.44	234.98
414.82	235.44
415.19	236.00
415.56	236.55
415.94	237.11
416.31	237.74
416.68	238.40
417.06	239.16
417.43	239.88
417.81	240.67
418.18	241.48
418.55	242.34
418.93	243.21
419.30	244.11
419.67	245.02
420.04	245.97
420.42	246.93
420.79	248.06
421.16	249.19
421.54	250.36
421.91	251.59
422.28	252.87
422.66	254.19
423.03	255.47
423.40	256.81
423.77	258.24
424.15	259.66
424.52	261.15
424.89	262.71
425.26	264.26
425.64	265.67
426.01	267.21
426.38	268.89
426.75	270.57
427.13	272.32
427.50	274.12
427.87	275.98
428.24	277.85
428.61	279.64
428.99	281.58
429.36	283.69
429.73	285.71
430.10	287.73
430.47	289.82
430.85	291.95
431.22	294.18
431.59	296.50
431.96	298.77
432.33	301.22
432.70	303.59
433.08	306.39
433.45	309.02
433.82	311.63
434.19	314.51
434.56	317.28
434.93	319.95
435.30	322.58
435.68	325.47
436.05	328.29
436.42	331.08
436.79	333.61
437.16	336.28
437.53	339.14
437.90	341.90
438.27	344.62
438.64	347.40
439.01	349.95
439.38	352.16
439.75	354.29
440.13	356.80
440.50	359.18
440.87	360.96
441.24	362.91
441.61	365.09
441.98	366.56
442.35	368.38
442.72	370.21
443.09	372.00
443.46	372.99
443.83	373.57
444.20	374.06
444.57	374.85
444.94	375.13
445.31	375.42
445.68	375.80
446.05	375.88
446.42	375.53
446.79	375.13
447.16	374.73
447.53	374.42
447.90	373.20
448.27	371.97
448.64	370.44
449.01	369.28
449.37	367.29
449.74	365.40
450.11	363.14
450.48	360.68
450.85	358.12
451.22	355.96
451.59	353.95
451.96	351.99
452.33	349.40
452.70	347.08
453.07	344.29
453.43	341.41
453.80	338.64
454.17	335.96
454.54	333.47
454.91	330.73
455.28	328.08
455.65	325.68
456.02	323.27
456.38	321.13
456.75	318.52
457.12	316.30
457.49	314.06
457.86	311.94
458.23	310.06
458.59	308.08
458.96	305.98
459.33	304.15
459.70	302.33
460.07	300.86
460.43	299.13
460.80	297.49
461.17	296.04
461.54	294.56
461.91	293.14
462.27	291.69
462.64	290.48
463.01	289.10
463.38	287.76
463.74	286.41
464.11	285.22
464.48	284.18
464.85	283.05
465.21	282.22
465.58	281.31
465.95	280.23
466.32	279.32
466.68	278.44
467.05	277.54
467.42	276.65
467.78	275.75
468.15	274.91
468.52	274.27
468.88	273.45
469.25	272.66
469.62	272.07
469.98	271.39
470.35	270.72
470.72	270.14
471.08	269.48
471.45	268.92
471.82	268.41
472.18	267.82
472.55	267.37
472.92	266.83
473.28	266.34
473.65	265.86
474.02	265.39
474.38	265.02
474.75	264.69
475.11	264.33
475.48	264.06
475.85	263.79
476.21	263.53
476.58	263.35
476.94	263.21
477.31	263.00
477.67	262.86
478.04	262.75
478.41	262.67
478.77	262.73
479.14	262.69
479.50	262.64
479.87	262.71
480.23	262.81
480.60	262.92
480.96	263.02
481.33	263.25
481.69	263.45
482.06	263.65
482.42	263.85
482.79	264.11
483.15	264.42
483.52	264.83
483.88	265.19
484.25	265.55
484.61	265.98
484.98	266.44
485.34	267.02
485.71	267.63
486.07	268.28
486.44	268.83
486.80	269.52
487.17	270.24
487.53	271.08
487.90	271.88
488.26	272.73
488.62	273.72
488.99	274.73
489.35	275.77
489.72	276.90
490.08	278.09
490.44	279.33
490.81	280.63
491.17	281.97
491.54	283.48
491.90	285.02
492.26	286.68
492.63	288.44
492.99	290.19
493.36	292.07
493.72	294.07
494.08	296.20
494.45	298.47
494.81	300.88
495.17	303.28
495.54	305.89
495.90	308.61
496.26	311.41
496.63	314.36
496.99	317.50
497.35	320.77
497.72	324.22
498.08	327.78
498.44	331.41
498.80	335.33
499.17	339.35
499.53	343.52
499.89	347.93
500.26	352.43
500.62	357.18
500.98	362.22
501.34	367.30
501.71	372.62
502.07	378.06
502.43	383.67
502.79	389.49
503.16	395.55
503.52	401.84
503.88	408.31
504.24	414.92
504.60	421.86
504.97	429.05
505.33	436.36
505.69	444.12
506.05	451.97
506.41	459.82
506.78	468.07
507.14	476.50
507.50	485.21
507.86	494.20
508.22	503.40
508.59	512.62
508.95	522.23
509.31	532.06
509.67	542.21
510.03	552.61
510.39	563.26
510.75	574.05
511.12	584.98
511.48	596.33
511.84	607.79
512.20	619.27
512.56	631.12
512.92	643.30
513.28	655.59
513.64	668.12
514.00	680.91
514.37	693.80
514.73	706.90
515.09	719.92
515.45	733.31
515.81	746.81
516.17	760.73
516.53	774.93
516.89	789.17
517.25	803.30
517.61	817.68
517.97	832.08
518.33	846.61
518.69	861.36
519.05	876.28
519.41	891.49
519.77	907.07
520.13	922.55
520.49	937.99
520.85	953.36
521.21	968.92
521.57	985.09
521.93	1000.77
522.29	1017.01
522.65	1033.20
523.01	1049.33
523.37	1065.43
523.73	1081.62
524.09	1097.60
524.45	1113.83
524.81	1130.42
525.17	1147.17
525.53	1164.03
525.89	1180.90
526.25	1197.78
526.61	1214.07
526.97	1230.81
527.33	1247.18
527.68	1263.78
528.04	1280.17
528.40	1296.77
528.76	1313.91
529.12	1330.53
529.48	1347.46
529.84	1363.41
530.20	1379.99
530.56	1397.01
530.91	1414.40
531.27	1431.13
531.63	1447.56
531.99	1464.15
532.35	1480.12
532.71	1495.92
533.07	1512.13
533.42	1527.98
533.78	1543.93
534.14	1560.24
534.50	1575.48
534.86	1591.23
535.21	1606.27
535.57	1622.09
535.93	1637.44
536.29	1652.11
536.65	1667.08
537.00	1681.81
537.36	1697.18
537.72	1711.77
538.08	1726.14
538.44	1739.78
538.79	1753.52
539.15	1767.19
539.51	1780.86
539.87	1795.08
540.22	1808.77
540.58	1822.43
540.94	1835.67
541.29	1848.48
541.65	1861.13
542.01	1874.24
542.37	1886.59
542.72	1899.12
543.08	1910.98
543.44	1923.43
543.79	1934.70
544.15	1945.61
544.51	1957.07
544.87	1968.08
545.22	1978.88
545.58	1989.00
545.94	1998.94
546.29	2008.82
546.65	2018.64
547.01	2027.84
547.36	2036.48
547.72	2044.92
548.07	2052.77
548.43	2060.88
548.79	2068.86
549.14	2076.43
549.50	2083.84
549.86	2091.53
550.21	2098.76
550.57	2105.83
550.92	2112.37
551.28	2119.38
551.64	2126.44
551.99	2132.91
552.35	2139.07
552.70	2145.17
553.06	2151.08
553.41	2157.28
553.77	2163.30
554.13	2169.37
554.48	2175.47
554.84	2181.08
555.19	2186.41
555.55	2191.74
555.90	2196.24
556.26	2201.20
556.61	2205.73
556.97	2210.19
557.32	2214.19
557.68	2218.38
558.03	2222.71
558.39	2226.44
558.74	2231.08
559.10	2235.01
559.45	2238.84
559.81	2243.08
560.16	2246.86
560.52	2250.10
560.87	2253.51
561.23	2256.24
561.58	2259.15
561.94	2261.72
562.29	2264.03
562.64	2266.82
563.00	2269.31
563.35	2272.82
563.71	2275.89
564.06	2279.07
564.42	2281.82
564.77	2284.60
565.12	2286.87
565.48	2288.74
565.83	2290.54
566.19	2291.78
566.54	2292.66
566.89	2293.84
567.25	2294.52
567.60	2295.76
567.96	2297.59
568.31	2298.38
568.66	2299.36
569.02	2299.93
569.37	2300.30
569.72	2301.25
570.08	2301.41
570.43	2301.52
570.78	2300.86
571.14	2299.37
571.49	2298.16
571.84	2297.83
572.20	2296.55
572.55	2295.43
572.90	2293.85
573.26	2292.53
573.61	2290.84
573.96	2289.20
574.31	2286.11
574.67	2282.99
575.02	2279.35
575.37	2275.97
575.72	2272.27
576.08	2268.93
576.43	2265.68
576.78	2262.07
577.13	2258.87
577.49	2255.69
577.84	2252.16
578.19	2248.51
578.54	2245.03
578.90	2240.83
579.25	2235.21
579.60	2230.41
579.95	2225.46
580.30	2220.49
580.66	2215.26
581.01	2210.26
581.36	2205.36
581.71	2201.27
582.06	2196.97
582.42	2192.67
582.77	2187.45
583.12	2182.83
583.47	2178.17
583.82	2173.34
584.17	2168.08
584.53	2162.64
584.88	2157.00
585.23	2151.26
585.58	2145.65
585.93	2140.00
586.28	2135.27
586.63	2130.32
586.98	2125.26
587.34	2120.54
587.69	2115.66
588.04	2110.42
588.39	2104.95
588.74	2098.49
589.09	2092.29
589.44	2085.47
589.79	2079.31
590.14	2073.72
590.49	2067.19
590.84	2060.74
591.19	2054.51
591.54	2048.11
591.89	2040.73
592.25	2033.89
592.60	2026.74
592.95	2019.20
593.30	2011.78
593.65	2004.15
594.00	1997.09
594.35	1989.68
594.70	1981.65
595.05	1974.55
595.40	1967.48
595.75	1959.95
596.10	1953.68
596.45	1946.93
596.80	1940.74
597.15	1934.17
597.50	1927.02
597.85	1920.58
598.19	1914.06
598.54	1907.05
598.89	1900.23
599.24	1894.26
599.59	1887.56
599.94	1881.35
600.29	1875.10
600.64	1868.67
600.99	1861.19
601.34	1854.29
601.69	1847.45
602.04	1840.56
602.39	1833.11
602.74	1826.20
603.08	1819.47
603.43	1812.84
603.78	1805.72
604.13	1798.39
604.48	1791.25
604.83	1784.41
605.18	1777.55
605.53	1769.51
605.87	1761.46
606.22	1754.17
606.57	1746.17
606.92	1738.94
607.27	1731.73
607.62	1724.90
607.96	1717.64
608.31	1711.13
608.66	1703.57
609.01	1695.99
609.36	1688.64
609.70	1680.68
610.05	1672.68
610.40	1665.00
610.75	1656.53
611.10	1648.75
611.44	1640.53
611.79	1632.36
612.14	1623.74
612.49	1614.41
612.83	1606.14
613.18	1598.02
613.53	1590.11
613.88	1581.75
614.22	1573.51
614.57	1564.79
614.92	1556.73
615.27	1549.25
615.61	1540.86
615.96	1532.79
616.31	1525.07
616.65	1517.52
617.00	1510.02
617.35	1502.28
617.70	1493.96
618.04	1485.65
618.39	1477.40
618.74	1469.83
619.08	1461.61
619.43	1453.94
619.78	1447.15
620.12	1439.96
620.47	1432.51
620.82	1424.28
621.16	1416.84
621.51	1409.24
621.85	1401.74
622.20	1393.32
622.55	1384.89
622.89	1377.09
623.24	1369.48
623.59	1362.09
623.93	1354.65
624.28	1347.34
624.62	1339.83
624.97	1332.54
625.32	1325.57
625.66	1318.53
626.01	1311.38
626.35	1303.93
626.70	1296.12
627.04	1288.46
627.39	1280.63
627.73	1273.19
628.08	1266.35
628.43	1259.01
628.77	1251.63
629.12	1244.08
629.46	1236.81
629.81	1229.26
630.15	1222.10
630.50	1214.67
630.84	1206.54
631.19	1198.47
631.53	1191.01
631.88	1183.46
632.22	1175.95
632.57	1168.69
632.91	1161.07
633.26	1153.53
633.60	1146.07
633.95	1139.02
634.29	1131.82
634.64	1125.12
634.98	1117.77
635.32	1110.57
635.67	1103.92
636.01	1097.30
636.36	1090.52
636.70	1083.94
637.05	1077.45
637.39	1070.90
637.73	1064.50
638.08	1058.63
638.42	1052.70
638.77	1046.23
639.11	1039.65
639.45	1033.22
639.80	1026.53
640.14	1020.20
640.49	1013.76
640.83	1007.53
641.17	1001.38
641.52	995.07
641.86	988.60
642.20	982.65
642.55	976.27
642.89	969.89
643.23	963.31
643.58	957.55
643.92	951.40
644.26	945.36
644.61	939.28
644.95	933.22
645.29	926.57
645.64	919.82
645.98	913.46
646.32	907.60
646.66	901.56
647.01	895.83
647.35	890.07
647.69	884.16
648.04	878.60
648.38	872.73
648.72	866.80
649.06	860.83
649.41	854.93
649.75	848.96
650.09	842.94
650.43	837.12
650.78	830.90
651.12	824.82
651.46	819.11
651.80	813.41
652.14	807.93
652.49	802.56
652.83	797.37
653.17	791.67
653.51	785.87
653.85	780.45
654.20	774.72
654.54	768.71
654.88	762.96
655.22	757.08
655.56	751.41
655.90	745.87
656.25	740.63
656.59	735.31
656.93	730.24
657.27	725.14
657.61	719.69
657.95	714.52
658.29	709.54
658.64	704.24
658.98	698.92
659.32	693.53
659.66	688.36
660.00	683.08
660.34	678.14
660.68	673.25
661.02	668.23
661.36	663.53
661.70	659.05
662.05	654.67
662.39	650.36
662.73	645.90
663.07	641.55
663.41	637.02
663.75	632.51
664.09	627.93
664.43	623.48
664.77	619.41
665.11	615.18
665.45	611.02
665.79	606.94
666.13	602.76
666.47	598.64
666.81	594.47
667.15	590.30
667.49	586.43
667.83	582.53
668.17	578.58
668.51	574.56
668.85	570.55
669.19	566.70
669.53	562.90
669.87	559.00
670.21	555.30
670.55	551.65
670.89	548.28
671.23	544.84
671.57	541.32
671.91	537.78
672.25	534.34
672.58	530.83
672.92	527.48
673.26	524.37
673.60	521.16
673.94	518.06
674.28	515.22
674.62	512.20
674.96	509.18
675.30	506.30
675.64	503.32
675.97	500.58
676.31	497.70
676.65	494.69
676.99	491.92
677.33	489.01
677.67	486.23
678.01	483.14
678.34	480.23
678.68	477.37
679.02	474.57
679.36	471.76
679.70	469.05
680.04	466.25
680.37	463.38
680.71	460.57
681.05	457.90
681.39	455.18
681.73	452.53
682.06	450.00
682.40	447.40
682.74	444.86
683.08	442.24
683.42	439.62
683.75	437.15
684.09	434.67
684.43	432.21
684.77	429.75
685.10	427.39
685.44	425.04
685.78	422.71
686.12	420.40
686.45	418.11
686.79	415.78
687.13	413.58
687.46	411.38
687.80	409.27
688.14	407.07
688.48	404.98
688.81	402.76
689.15	400.65
689.49	398.49
689.82	396.46
690.16	394.43
690.50	392.49
690.83	390.51
691.17	388.51
691.51	386.57
691.84	384.69
692.18	382.79
692.52	380.82
692.85	378.86
693.19	377.05
693.52	375.20
693.86	373.40
694.20	371.61
694.53	369.86
694.87	368.01
695.21	366.23
695.54	364.38
695.88	362.65
696.21	360.91
696.55	359.24
696.88	357.53
697.22	355.83
697.56	354.19
697.89	352.58
698.23	350.96
698.56	349.35
698.90	347.78
699.23	346.15
699.57	344.62
699.90	343.13
700.24	341.55
700.58	340.04
700.91	338.57
701.25	337.12
701.58	335.74
701.92	334.38
702.25	333.01
702.59	331.64
702.92	330.35
703.26	329.04
703.59	327.79
703.93	326.58
704.26	325.33
704.60	324.06
704.93	322.77
705.26	321.56
705.60	320.41
705.93	319.23
706.27	318.19
706.60	317.11
706.94	315.99
707.27	314.85
707.61	313.77
707.94	312.75
708.27	311.62
708.61	310.50
708.94	309.47
709.28	308.47
709.61	307.50
709.94	306.55
710.28	305.50
710.61	304.50
710.95	303.45
711.28	302.56
711.61	301.64
711.95	300.75
712.28	299.83
712.61	298.85
712.95	297.94
713.28	297.02
713.61	296.14
713.95	295.24
714.28	294.39
714.61	293.53
714.95	292.63
715.28	291.82
715.61	290.94
715.95	290.12
716.28	289.26
716.61	288.43
716.95	287.60
717.28	286.89
717.61	286.07
717.94	285.35
718.28	284.51
718.61	283.77
718.94	283.08
719.27	282.41
719.61	281.77
719.94	281.07
720.27	280.39
720.60	279.74
720.94	279.14
721.27	278.56
721.60	278.00
721.93	277.41
722.27	276.90
722.60	276.34
722.93	275.73
723.26	275.22
723.59	274.68
723.93	274.11
724.26	273.57
724.59	273.05
724.92	272.50
725.25	272.04
725.59	271.52
725.92	271.03
726.25	270.50
726.58	269.98
726.91	269.50
727.24	269.03
727.57	268.52
727.91	268.01
728.24	267.55
728.57	267.07
728.90	266.63
729.23	266.08
729.56	265.70
729.89	265.23
730.22	264.75
730.55	264.29
730.89	263.88
731.22	263.38
731.55	262.95
731.88	262.54
732.21	262.09
732.54	261.66
732.87	261.20
733.20	260.82
733.53	260.44
733.86	260.08
734.19	259.69
734.52	259.30
734.85	258.94
735.18	258.50
735.51	258.11
735.84	257.74
736.17	257.41
736.50	256.97
736.83	256.75
737.16	256.40
737.49	256.09
737.82	255.73
738.15	255.42
738.48	255.09
738.81	254.78
739.14	254.45
739.47	254.15
739.80	253.82
740.13	253.51
740.46	253.19
740.79	252.86
741.12	252.56
741.45	252.27
741.78	251.98
742.11	251.73
742.44	251.39
742.77	251.10
743.10	250.80
743.43	250.54
743.75	250.18
744.08	250.04
744.41	249.75
744.74	249.49
745.07	249.20
745.40	248.94
745.73	248.70
746.06	248.45
746.39	248.16
746.71	247.91
747.04	247.61
747.37	247.36
747.70	247.11
748.03	246.86
748.36	246.60
748.68	246.32
749.01	246.07
749.34	245.88
749.67	245.62
750.00	245.38
750.33	245.22
750.65	244.99
750.98	244.65
751.31	244.44
751.64	244.20
751.97	244.06
752.29	243.85
752.62	243.60
752.95	243.39
753.28	243.16
753.60	242.95
753.93	242.79
754.26	242.60
754.59	242.37
754.91	242.16
755.24	241.96
755.57	241.77
755.90	241.57
756.22	241.37
756.55	241.20
756.88	241.03
757.20	240.77
757.53	240.57
757.86	240.40
758.19	240.25
758.51	240.09
758.84	239.91
759.17	239.74
759.49	239.58
759.82	239.48
760.15	239.34
760.47	239.19
760.80	239.04
761.13	238.88
761.45	238.73
761.78	238.56
762.11	238.44
762.43	238.32
762.76	238.18
763.08	238.05
763.41	237.90
763.74	237.78
764.06	237.65
764.39	237.53
764.71	237.38
765.04	237.24
765.37	237.13
765.69	236.93
766.02	236.78
766.34	236.63
766.67	236.48
767.00	236.37
767.32	236.33
767.65	236.30
767.97	236.18
768.30	236.09
768.62	236.02
768.95	235.90
769.27	235.77
769.60	235.67
769.92	235.57
770.25	235.47
770.57	235.37
770.90	235.27
771.22	235.17
771.55	235.07
771.87	234.98
772.20	234.85
772.52	234.85
772.85	234.90
773.17	234.83
773.50	234.70
773.82	234.61
774.15	234.43
774.47	234.24
774.80	234.16
775.12	234.10
775.45	234.02
775.77	233.94
776.09	233.88
776.42	233.82
776.74	233.76
777.07	233.69
777.39	233.59
777.72	233.51
778.04	233.45
778.36	233.36
778.69	233.29
779.01	233.28
779.33	233.13
779.66	232.94
779.98	232.88
780.31	232.81
780.63	232.80
780.95	232.78
781.28	232.72
781.60	232.67
781.92	232.53
782.25	232.46
782.57	232.39
782.89	232.30
783.22	232.22
783.54	232.14
783.86	232.10
784.19	232.03
784.51	231.99
784.83	231.91
785.16	231.85
785.48	231.82
785.80	231.72
786.12	231.70
786.45	231.67
786.77	231.61
787.09	231.56
