SpectraSuite Data File
++++++++++++++++++++++++++++++++++++
Date: Fri Feb 01 16:16:32 EST 2013
User: group
Dark Spectrum Present: No
Reference Spectrum Present: No
Number of Sampled Component Spectra: 1
Spectrometers: USB2E7196
Integration Time (usec): 35000 (USB2E7196)
Spectra Averaged: 100 (USB2E7196)
Boxcar Smoothing: 10 (USB2E7196)
Correct for Electrical Dark: No (USB2E7196)
Strobe/Lamp Enabled: No (USB2E7196)
Correct for Detector Non-linearity: No (USB2E7196)
Correct for Stray Light: No (USB2E7196)
Number of Pixels in Processed Spectrum: 2048
>>>>>Begin Processed Spectral Data<<<<<
339.09	0.00
339.48	213.63
339.86	215.28
340.24	217.27
340.63	218.63
341.01	220.84
341.39	220.38
341.78	222.07
342.16	223.59
342.54	223.91
342.93	212.30
343.31	223.04
343.69	223.59
344.07	224.05
344.46	224.47
344.84	224.82
345.22	225.08
345.60	225.37
345.99	225.56
346.37	225.70
346.75	225.79
347.13	225.84
347.52	225.91
347.90	225.98
348.28	226.03
348.66	226.04
349.05	226.07
349.43	226.09
349.81	226.15
350.19	226.21
350.57	226.24
350.96	226.30
351.34	226.39
351.72	226.47
352.10	226.58
352.48	226.62
352.87	226.68
353.25	226.75
353.63	226.77
354.01	226.87
354.39	226.92
354.77	227.00
355.15	227.10
355.54	227.16
355.92	227.20
356.30	227.27
356.68	227.41
357.06	227.48
357.44	227.53
357.82	227.60
358.20	227.67
358.58	227.80
358.97	227.87
359.35	227.95
359.73	228.04
360.11	228.09
360.49	228.15
360.87	228.20
361.25	228.24
361.63	228.36
362.01	228.38
362.39	228.42
362.77	228.48
363.15	228.50
363.53	228.52
363.91	228.52
364.29	228.55
364.67	228.49
365.05	228.51
365.43	228.55
365.81	228.58
366.19	228.64
366.57	228.65
366.95	228.60
367.33	228.57
367.71	228.56
368.09	228.56
368.47	228.56
368.85	228.54
369.23	228.54
369.61	228.47
369.99	228.47
370.37	228.44
370.75	228.45
371.13	228.43
371.51	228.36
371.89	228.37
372.27	228.31
372.65	228.30
373.03	228.22
373.41	228.15
373.78	228.06
374.16	227.93
374.54	227.85
374.92	227.83
375.30	227.77
375.68	227.69
376.06	227.64
376.44	227.57
376.82	227.49
377.19	227.40
377.57	227.33
377.95	227.24
378.33	227.16
378.71	227.04
379.09	226.99
379.47	226.92
379.84	226.80
380.22	226.75
380.60	226.66
380.98	226.60
381.36	226.54
381.73	226.48
382.11	226.45
382.49	226.37
382.87	226.28
383.25	226.25
383.62	226.29
384.00	226.20
384.38	226.15
384.76	226.10
385.13	226.08
385.51	226.03
385.89	225.95
386.27	225.92
386.64	225.87
387.02	225.79
387.40	225.77
387.78	225.77
388.15	225.70
388.53	225.65
388.91	225.61
389.29	225.57
389.66	225.57
390.04	225.53
390.42	225.56
390.79	225.56
391.17	225.52
391.55	225.38
391.92	225.40
392.30	225.41
392.68	225.38
393.05	225.36
393.43	225.36
393.81	225.37
394.18	225.36
394.56	225.38
394.94	225.45
395.31	225.45
395.69	225.46
396.06	225.53
396.44	225.61
396.82	225.66
397.19	225.76
397.57	225.75
397.95	225.80
398.32	225.81
398.70	225.84
399.07	225.91
399.45	226.01
399.82	226.06
400.20	226.10
400.58	226.18
400.95	226.24
401.33	226.35
401.70	226.51
402.08	226.64
402.45	226.75
402.83	226.83
403.20	226.92
403.58	227.05
403.95	227.16
404.33	227.26
404.71	227.37
405.08	227.55
405.46	227.69
405.83	227.86
406.21	228.05
406.58	228.27
406.96	228.44
407.33	228.60
407.70	228.80
408.08	229.07
408.45	229.30
408.83	229.53
409.20	229.73
409.58	229.92
409.95	230.15
410.33	230.41
410.70	230.66
411.08	231.00
411.45	231.27
411.82	231.60
412.20	231.96
412.57	232.38
412.95	232.67
413.32	233.07
413.69	233.45
414.07	233.81
414.44	234.25
414.82	234.71
415.19	235.26
415.56	235.80
415.94	236.37
416.31	237.04
416.68	237.65
417.06	238.37
417.43	239.06
417.81	239.85
418.18	240.64
418.55	241.49
418.93	242.31
419.30	243.21
419.67	244.12
420.04	245.05
420.42	246.00
420.79	247.17
421.16	248.31
421.54	249.51
421.91	250.77
422.28	252.03
422.66	253.38
423.03	254.68
423.40	256.01
423.77	257.40
424.15	258.79
424.52	260.28
424.89	261.90
425.26	263.41
425.64	264.80
426.01	266.36
426.38	267.98
426.75	269.67
427.13	271.41
427.50	273.20
427.87	275.09
428.24	276.97
428.61	278.72
428.99	280.67
429.36	282.76
429.73	284.80
430.10	286.82
430.47	288.86
430.85	290.93
431.22	293.15
431.59	295.53
431.96	297.77
432.33	300.22
432.70	302.57
433.08	305.38
433.45	308.12
433.82	310.72
434.19	313.61
434.56	316.46
434.93	319.12
435.30	321.76
435.68	324.65
436.05	327.48
436.42	330.28
436.79	332.81
437.16	335.51
437.53	338.34
437.90	341.13
438.27	343.86
438.64	346.72
439.01	349.31
439.38	351.54
439.75	353.71
440.13	356.26
440.50	358.56
440.87	360.41
441.24	362.31
441.61	364.45
441.98	365.92
442.35	367.68
442.72	369.52
443.09	371.31
443.46	372.26
443.83	372.86
444.20	373.32
444.57	374.12
444.94	374.41
445.31	374.77
445.68	375.15
446.05	375.22
446.42	374.85
446.79	374.49
447.16	374.05
447.53	373.75
447.90	372.57
448.27	371.44
448.64	369.86
449.01	368.69
449.37	366.75
449.74	364.87
450.11	362.67
450.48	360.19
450.85	357.69
451.22	355.58
451.59	353.53
451.96	351.61
452.33	349.03
452.70	346.66
453.07	343.83
453.43	340.93
453.80	338.12
454.17	335.44
454.54	332.86
454.91	330.16
455.28	327.46
455.65	324.97
456.02	322.53
456.38	320.39
456.75	317.76
457.12	315.51
457.49	313.28
457.86	311.08
458.23	309.21
458.59	307.17
458.96	305.10
459.33	303.28
459.70	301.44
460.07	299.95
460.43	298.26
460.80	296.67
461.17	295.22
461.54	293.79
461.91	292.39
462.27	290.95
462.64	289.69
463.01	288.40
463.38	287.13
463.74	285.77
464.11	284.62
464.48	283.63
464.85	282.55
465.21	281.72
465.58	280.79
465.95	279.72
466.32	278.80
466.68	277.91
467.05	277.01
467.42	276.12
467.78	275.18
468.15	274.31
468.52	273.65
468.88	272.79
469.25	271.99
469.62	271.34
469.98	270.67
470.35	270.05
470.72	269.40
471.08	268.70
471.45	268.17
471.82	267.64
472.18	267.02
472.55	266.55
472.92	266.04
473.28	265.60
473.65	265.17
474.02	264.75
474.38	264.37
474.75	264.04
475.11	263.69
475.48	263.44
475.85	263.18
476.21	262.90
476.58	262.71
476.94	262.59
477.31	262.43
477.67	262.31
478.04	262.20
478.41	262.14
478.77	262.24
479.14	262.17
479.50	262.16
479.87	262.26
480.23	262.36
480.60	262.39
480.96	262.49
481.33	262.67
481.69	262.87
482.06	263.08
482.42	263.29
482.79	263.58
483.15	263.92
483.52	264.33
483.88	264.75
484.25	265.13
484.61	265.58
484.98	266.06
485.34	266.59
485.71	267.14
486.07	267.77
486.44	268.29
486.80	269.00
487.17	269.75
487.53	270.54
487.90	271.42
488.26	272.37
488.62	273.33
488.99	274.33
489.35	275.38
489.72	276.50
490.08	277.66
490.44	278.83
490.81	280.15
491.17	281.49
491.54	282.95
491.90	284.54
492.26	286.16
492.63	287.87
492.99	289.68
493.36	291.64
493.72	293.66
494.08	295.81
494.45	298.09
494.81	300.43
495.17	302.85
495.54	305.34
495.90	308.06
496.26	310.87
496.63	313.83
496.99	316.91
497.35	320.15
497.72	323.61
498.08	327.16
498.44	330.86
498.80	334.78
499.17	338.85
499.53	342.99
499.89	347.47
500.26	352.01
500.62	356.68
500.98	361.60
501.34	366.72
501.71	372.07
502.07	377.52
502.43	383.19
502.79	389.08
503.16	395.18
503.52	401.48
503.88	408.00
504.24	414.63
504.60	421.54
504.97	428.68
505.33	436.01
505.69	443.76
506.05	451.54
506.41	459.47
506.78	467.59
507.14	476.08
507.50	484.73
507.86	493.79
508.22	503.00
508.59	512.28
508.95	521.90
509.31	531.76
509.67	541.91
510.03	552.16
510.39	562.68
510.75	573.54
511.12	584.46
511.48	595.72
511.84	607.19
512.20	618.69
512.56	630.71
512.92	642.94
513.28	655.29
513.64	667.77
514.00	680.47
514.37	693.46
514.73	706.59
515.09	719.64
515.45	732.91
515.81	746.49
516.17	760.47
516.53	774.47
516.89	788.63
517.25	802.73
517.61	817.21
517.97	831.79
518.33	846.21
518.69	860.96
519.05	875.96
519.41	891.10
519.77	906.69
520.13	922.13
520.49	937.40
520.85	952.79
521.21	968.52
521.57	984.74
521.93	1000.45
522.29	1016.71
522.65	1032.91
523.01	1049.02
523.37	1065.03
523.73	1081.15
524.09	1097.15
524.45	1113.35
524.81	1129.94
525.17	1146.62
525.53	1163.30
525.89	1180.09
526.25	1196.84
526.61	1213.11
526.97	1229.86
527.33	1246.26
527.68	1262.75
528.04	1279.21
528.40	1295.78
528.76	1312.72
529.12	1329.26
529.48	1346.06
529.84	1361.93
530.20	1378.49
530.56	1395.43
530.91	1412.76
531.27	1429.48
531.63	1446.00
531.99	1462.55
532.35	1478.40
532.71	1494.27
533.07	1510.57
533.42	1526.49
533.78	1542.53
534.14	1558.65
534.50	1573.88
534.86	1589.70
535.21	1604.85
535.57	1620.71
535.93	1636.07
536.29	1650.90
536.65	1665.78
537.00	1680.47
537.36	1695.72
537.72	1710.22
538.08	1724.66
538.44	1738.47
538.79	1752.34
539.15	1765.82
539.51	1779.39
539.87	1793.69
540.22	1807.46
540.58	1820.97
540.94	1834.13
541.29	1846.91
541.65	1859.67
542.01	1872.78
542.37	1884.90
542.72	1897.30
543.08	1908.93
543.44	1921.24
543.79	1932.38
544.15	1943.35
544.51	1954.82
544.87	1965.85
545.22	1976.53
545.58	1986.66
545.94	1996.31
546.29	2006.00
546.65	2016.04
547.01	2025.34
547.36	2034.10
547.72	2042.45
548.07	2050.32
548.43	2058.50
548.79	2066.42
549.14	2073.91
549.50	2081.28
549.86	2088.96
550.21	2096.27
550.57	2103.42
550.92	2109.96
551.28	2117.05
551.64	2124.07
551.99	2130.61
552.35	2136.86
552.70	2143.09
553.06	2149.08
553.41	2155.28
553.77	2161.23
554.13	2167.19
554.48	2173.49
554.84	2178.87
555.19	2184.10
555.55	2189.26
555.90	2193.72
556.26	2198.67
556.61	2203.27
556.97	2207.54
557.32	2211.69
557.68	2215.73
558.03	2220.19
558.39	2223.88
558.74	2228.45
559.10	2232.45
559.45	2236.15
559.81	2240.29
560.16	2244.10
560.52	2247.33
560.87	2250.80
561.23	2253.47
561.58	2256.42
561.94	2258.77
562.29	2261.24
562.64	2263.89
563.00	2266.58
563.35	2270.05
563.71	2273.12
564.06	2276.41
564.42	2279.29
564.77	2281.87
565.12	2284.15
565.48	2285.99
565.83	2287.91
566.19	2289.27
566.54	2290.09
566.89	2291.15
567.25	2291.83
567.60	2293.14
567.96	2294.74
568.31	2295.69
568.66	2296.98
569.02	2297.62
569.37	2298.05
569.72	2298.94
570.08	2299.27
570.43	2299.30
570.78	2298.80
571.14	2297.36
571.49	2296.07
571.84	2295.88
572.20	2294.80
572.55	2293.85
572.90	2292.36
573.26	2290.87
573.61	2289.13
573.96	2287.46
574.31	2284.72
574.67	2281.68
575.02	2278.07
575.37	2274.89
575.72	2271.09
576.08	2267.72
576.43	2264.30
576.78	2260.67
577.13	2257.48
577.49	2254.36
577.84	2250.97
578.19	2247.31
578.54	2243.64
578.90	2239.55
579.25	2233.88
579.60	2228.89
579.95	2223.85
580.30	2218.73
580.66	2213.75
581.01	2208.86
581.36	2204.05
581.71	2199.85
582.06	2195.52
582.42	2191.18
582.77	2185.98
583.12	2181.51
583.47	2176.84
583.82	2172.07
584.17	2166.74
584.53	2161.16
584.88	2155.61
585.23	2149.83
585.58	2144.38
585.93	2138.87
586.28	2134.00
586.63	2129.02
586.98	2123.98
587.34	2119.39
587.69	2114.53
588.04	2109.23
588.39	2103.56
588.74	2097.08
589.09	2090.96
589.44	2084.06
589.79	2077.95
590.14	2072.29
590.49	2065.67
590.84	2059.25
591.19	2053.19
591.54	2046.74
591.89	2039.47
592.25	2032.68
592.60	2025.51
592.95	2017.91
593.30	2010.87
593.65	2003.33
594.00	1996.28
594.35	1989.04
594.70	1980.81
595.05	1973.81
595.40	1966.67
595.75	1959.16
596.10	1952.98
596.45	1946.23
596.80	1940.26
597.15	1933.70
597.50	1926.65
597.85	1920.40
598.19	1913.89
598.54	1906.70
598.89	1900.19
599.24	1894.27
599.59	1887.62
599.94	1881.41
600.29	1875.05
600.64	1868.46
600.99	1861.03
601.34	1854.19
601.69	1847.32
602.04	1840.57
602.39	1833.23
602.74	1826.46
603.08	1819.79
603.43	1813.05
603.78	1805.71
604.13	1798.52
604.48	1791.25
604.83	1784.46
605.18	1777.45
605.53	1769.39
605.87	1761.47
606.22	1754.24
606.57	1746.39
606.92	1739.01
607.27	1731.76
607.62	1724.93
607.96	1717.61
608.31	1711.05
608.66	1703.64
609.01	1696.11
609.36	1688.62
609.70	1680.57
610.05	1672.47
610.40	1664.92
610.75	1656.55
611.10	1648.98
611.44	1640.52
611.79	1632.45
612.14	1623.72
612.49	1614.52
612.83	1606.17
613.18	1598.02
613.53	1589.91
613.88	1581.37
614.22	1573.00
614.57	1564.47
614.92	1556.45
615.27	1548.87
615.61	1540.58
615.96	1532.47
616.31	1524.82
616.65	1517.47
617.00	1509.85
617.35	1502.19
617.70	1493.75
618.04	1485.32
618.39	1477.04
618.74	1469.36
619.08	1461.07
619.43	1453.55
619.78	1446.71
620.12	1439.53
620.47	1432.09
620.82	1423.89
621.16	1416.44
621.51	1408.96
621.85	1401.25
622.20	1392.73
622.55	1384.35
622.89	1376.45
623.24	1368.75
623.59	1361.24
623.93	1353.74
624.28	1346.58
624.62	1339.10
624.97	1331.93
625.32	1325.16
625.66	1318.15
626.01	1311.06
626.35	1303.71
626.70	1295.83
627.04	1288.04
627.39	1280.11
627.73	1272.68
628.08	1265.82
628.43	1258.56
628.77	1251.16
629.12	1243.67
629.46	1236.51
629.81	1229.11
630.15	1221.83
630.50	1214.43
630.84	1206.39
631.19	1198.43
631.53	1190.86
631.88	1183.15
632.22	1175.54
632.57	1168.16
632.91	1160.60
633.26	1153.20
633.60	1145.76
633.95	1138.67
634.29	1131.57
634.64	1125.04
634.98	1117.66
635.32	1110.42
635.67	1103.76
636.01	1097.09
636.36	1090.26
636.70	1083.66
637.05	1077.07
637.39	1070.68
637.73	1064.12
638.08	1058.12
638.42	1052.07
638.77	1045.61
639.11	1039.13
639.45	1032.72
639.80	1026.04
640.14	1019.68
640.49	1013.13
640.83	1006.77
641.17	1000.63
641.52	994.27
641.86	987.77
642.20	981.90
642.55	975.66
642.89	969.21
643.23	962.65
643.58	956.90
643.92	950.68
644.26	944.62
644.61	938.53
644.95	932.53
645.29	925.96
645.64	919.20
645.98	912.86
646.32	906.96
646.66	900.90
647.01	895.11
647.35	889.28
647.69	883.43
648.04	877.90
648.38	872.07
648.72	866.14
649.06	860.07
649.41	854.24
649.75	848.22
650.09	842.27
650.43	836.54
650.78	830.35
651.12	824.44
651.46	818.70
651.80	812.95
652.14	807.62
652.49	802.34
652.83	797.17
653.17	791.42
653.51	785.76
653.85	780.34
654.20	774.74
654.54	768.79
654.88	763.05
655.22	757.21
655.56	751.50
655.90	746.04
656.25	740.82
656.59	735.40
656.93	730.30
657.27	725.16
657.61	719.67
657.95	714.58
658.29	709.52
658.64	704.26
658.98	698.93
659.32	693.44
659.66	688.16
660.00	682.82
660.34	677.97
660.68	672.98
661.02	667.97
661.36	663.23
661.70	658.69
662.05	654.27
662.39	649.89
662.73	645.40
663.07	640.99
663.41	636.41
663.75	631.89
664.09	627.28
664.43	622.86
664.77	618.83
665.11	614.63
665.45	610.42
665.79	606.36
666.13	602.27
666.47	598.16
666.81	593.99
667.15	589.91
667.49	585.98
667.83	582.22
668.17	578.27
668.51	574.19
668.85	570.19
669.19	566.33
669.53	562.53
669.87	558.69
670.21	554.97
670.55	551.41
670.89	548.02
671.23	544.66
671.57	541.12
671.91	537.46
672.25	533.86
672.58	530.33
672.92	526.88
673.26	523.67
673.60	520.50
673.94	517.39
674.28	514.46
674.62	511.49
674.96	508.36
675.30	505.46
675.64	502.51
675.97	499.73
676.31	496.85
676.65	493.86
676.99	491.09
677.33	488.25
677.67	485.39
678.01	482.28
678.34	479.26
678.68	476.42
679.02	473.63
679.36	470.94
679.70	468.27
680.04	465.51
680.37	462.67
680.71	459.86
681.05	457.23
681.39	454.50
681.73	451.86
682.06	449.32
682.40	446.76
682.74	444.23
683.08	441.67
683.42	439.06
683.75	436.56
684.09	434.03
684.43	431.56
684.77	429.15
685.10	426.86
685.44	424.55
685.78	422.20
686.12	419.95
686.45	417.63
686.79	415.31
687.13	413.14
687.46	410.97
687.80	408.86
688.14	406.63
688.48	404.58
688.81	402.30
689.15	400.13
689.49	397.98
689.82	395.91
690.16	393.86
690.50	391.94
690.83	390.06
691.17	388.11
691.51	386.17
691.84	384.28
692.18	382.31
692.52	380.30
692.85	378.38
693.19	376.48
693.52	374.65
693.86	372.83
694.20	371.03
694.53	369.25
694.87	367.39
695.21	365.66
695.54	363.86
695.88	362.20
696.21	360.48
696.55	358.82
696.88	357.13
697.22	355.42
697.56	353.78
697.89	352.07
698.23	350.45
698.56	348.86
698.90	347.31
699.23	345.71
699.57	344.24
699.90	342.66
700.24	341.16
700.58	339.63
700.91	338.13
701.25	336.67
701.58	335.28
701.92	333.88
702.25	332.48
702.59	331.12
702.92	329.74
703.26	328.43
703.59	327.14
703.93	325.95
704.26	324.75
704.60	323.44
704.93	322.19
705.26	320.94
705.60	319.76
705.93	318.57
706.27	317.49
706.60	316.39
706.94	315.34
707.27	314.19
707.61	313.14
707.94	312.11
708.27	311.05
708.61	310.00
708.94	309.03
709.28	308.06
709.61	307.07
709.94	306.14
710.28	305.10
710.61	304.12
710.95	303.05
711.28	302.12
711.61	301.23
711.95	300.33
712.28	299.38
712.61	298.39
712.95	297.43
713.28	296.54
713.61	295.67
713.95	294.79
714.28	293.94
714.61	293.05
714.95	292.19
715.28	291.33
715.61	290.40
715.95	289.55
716.28	288.66
716.61	287.83
716.95	286.98
717.28	286.28
717.61	285.49
717.94	284.76
718.28	283.93
718.61	283.18
718.94	282.48
719.27	281.82
719.61	281.18
719.94	280.53
720.27	279.84
720.60	279.19
720.94	278.58
721.27	278.00
721.60	277.43
721.93	276.83
722.27	276.30
722.60	275.79
722.93	275.20
723.26	274.66
723.59	274.12
723.93	273.57
724.26	272.96
724.59	272.40
724.92	271.83
725.25	271.35
725.59	270.84
725.92	270.31
726.25	269.84
726.58	269.32
726.91	268.87
727.24	268.43
727.57	267.97
727.91	267.44
728.24	266.96
728.57	266.45
728.90	265.99
729.23	265.46
729.56	265.02
729.89	264.57
730.22	264.10
730.55	263.62
730.89	263.21
731.22	262.83
731.55	262.40
731.88	261.97
732.21	261.54
732.54	261.08
732.87	260.68
733.20	260.28
733.53	259.92
733.86	259.51
734.19	259.09
734.52	258.70
734.85	258.42
735.18	258.05
735.51	257.74
735.84	257.38
736.17	257.05
736.50	256.63
736.83	256.41
737.16	256.10
737.49	255.79
737.82	255.45
738.15	255.10
738.48	254.82
738.81	254.52
739.14	254.23
739.47	253.92
739.80	253.62
740.13	253.29
740.46	252.94
740.79	252.62
741.12	252.29
741.45	251.98
741.78	251.62
742.11	251.33
742.44	251.00
742.77	250.73
743.10	250.43
743.43	250.16
743.75	249.76
744.08	249.60
744.41	249.33
744.74	249.05
745.07	248.77
745.40	248.48
745.73	248.23
746.06	247.91
746.39	247.66
746.71	247.38
747.04	247.07
747.37	246.81
747.70	246.50
748.03	246.28
748.36	246.04
748.68	245.79
749.01	245.50
749.34	245.26
749.67	244.98
750.00	244.77
750.33	244.60
750.65	244.35
750.98	243.99
751.31	243.73
751.64	243.48
751.97	243.32
752.29	243.13
752.62	242.89
752.95	242.72
753.28	242.51
753.60	242.30
753.93	242.15
754.26	241.95
754.59	241.78
754.91	241.57
755.24	241.36
755.57	241.17
755.90	240.99
756.22	240.79
756.55	240.60
756.88	240.41
757.20	240.16
757.53	239.96
757.86	239.79
758.19	239.62
758.51	239.48
758.84	239.24
759.17	239.04
759.49	238.88
759.82	238.75
760.15	238.57
760.47	238.43
760.80	238.23
761.13	238.10
761.45	237.94
761.78	237.80
762.11	237.64
762.43	237.49
762.76	237.35
763.08	237.27
763.41	237.15
763.74	236.97
764.06	236.87
764.39	236.74
764.71	236.60
765.04	236.47
765.37	236.32
765.69	236.20
766.02	236.11
766.34	235.97
766.67	235.83
767.00	235.75
767.32	235.68
767.65	235.62
767.97	235.53
768.30	235.44
768.62	235.34
768.95	235.21
769.27	235.11
769.60	235.01
769.92	234.85
770.25	234.74
770.57	234.64
770.90	234.53
771.22	234.43
771.55	234.35
771.87	234.28
772.20	234.21
772.52	234.22
772.85	234.23
773.17	234.11
773.50	234.01
773.82	233.91
774.15	233.77
774.47	233.63
774.80	233.55
775.12	233.43
775.45	233.32
775.77	233.27
776.09	233.21
776.42	233.13
776.74	233.11
777.07	233.03
777.39	232.97
777.72	232.89
778.04	232.86
778.36	232.79
778.69	232.70
779.01	232.64
779.33	232.46
779.66	232.28
779.98	232.22
780.31	232.17
780.63	232.14
780.95	232.11
781.28	232.05
781.60	231.97
781.92	231.91
782.25	231.86
782.57	231.79
782.89	231.75
783.22	231.67
783.54	231.59
783.86	231.56
784.19	231.50
784.51	231.48
784.83	231.45
785.16	231.37
785.48	231.35
785.80	231.28
786.12	231.26
786.45	231.21
786.77	231.18
787.09	231.13
