SpectraSuite Data File
++++++++++++++++++++++++++++++++++++
Date: Fri Feb 01 18:15:53 EST 2013
User: group
Dark Spectrum Present: No
Reference Spectrum Present: No
Number of Sampled Component Spectra: 1
Spectrometers: USB2E7196
Integration Time (usec): 35000 (USB2E7196)
Spectra Averaged: 100 (USB2E7196)
Boxcar Smoothing: 10 (USB2E7196)
Correct for Electrical Dark: No (USB2E7196)
Strobe/Lamp Enabled: No (USB2E7196)
Correct for Detector Non-linearity: No (USB2E7196)
Correct for Stray Light: No (USB2E7196)
Number of Pixels in Processed Spectrum: 2048
>>>>>Begin Processed Spectral Data<<<<<
339.09	0.00
339.48	212.49
339.86	214.55
340.24	216.11
340.63	217.57
341.01	220.02
341.39	219.43
341.78	221.68
342.16	222.40
342.54	222.73
342.93	211.35
343.31	222.04
343.69	222.61
344.07	223.04
344.46	223.46
344.84	223.85
345.22	224.06
345.60	224.37
345.99	224.53
346.37	224.67
346.75	224.76
347.13	224.88
347.52	224.90
347.90	224.99
348.28	224.99
348.66	225.02
349.05	224.99
349.43	225.05
349.81	225.04
350.19	225.13
350.57	225.21
350.96	225.31
351.34	225.38
351.72	225.47
352.10	225.57
352.48	225.64
352.87	225.67
353.25	225.76
353.63	225.76
354.01	225.83
354.39	225.90
354.77	226.01
355.15	226.08
355.54	226.15
355.92	226.16
356.30	226.27
356.68	226.44
357.06	226.56
357.44	226.59
357.82	226.69
358.20	226.76
358.58	226.84
358.97	226.91
359.35	227.01
359.73	227.08
360.11	227.15
360.49	227.19
360.87	227.26
361.25	227.30
361.63	227.41
362.01	227.47
362.39	227.52
362.77	227.54
363.15	227.57
363.53	227.64
363.91	227.72
364.29	227.71
364.67	227.63
365.05	227.66
365.43	227.74
365.81	227.77
366.19	227.82
366.57	227.84
366.95	227.84
367.33	227.81
367.71	227.81
368.09	227.86
368.47	227.86
368.85	227.83
369.23	227.88
369.61	227.82
369.99	227.86
370.37	227.84
370.75	227.90
371.13	227.86
371.51	227.84
371.89	227.80
372.27	227.79
372.65	227.77
373.03	227.74
373.41	227.66
373.78	227.61
374.16	227.54
374.54	227.48
374.92	227.42
375.30	227.42
375.68	227.35
376.06	227.28
376.44	227.23
376.82	227.23
377.19	227.14
377.57	227.09
377.95	226.99
378.33	226.94
378.71	226.86
379.09	226.83
379.47	226.75
379.84	226.71
380.22	226.63
380.60	226.54
380.98	226.46
381.36	226.41
381.73	226.31
382.11	226.27
382.49	226.25
382.87	226.19
383.25	226.13
383.62	226.24
384.00	226.18
384.38	226.10
384.76	226.04
385.13	226.05
385.51	225.99
385.89	225.94
386.27	225.88
386.64	225.79
387.02	225.71
387.40	225.64
387.78	225.59
388.15	225.55
388.53	225.53
388.91	225.50
389.29	225.45
389.66	225.44
390.04	225.37
390.42	225.32
390.79	225.31
391.17	225.24
391.55	225.04
391.92	225.00
392.30	225.01
392.68	224.97
393.05	224.93
393.43	224.90
393.81	224.92
394.18	224.89
394.56	224.95
394.94	224.96
395.31	224.98
395.69	225.01
396.06	225.06
396.44	225.09
396.82	225.09
397.19	225.14
397.57	225.20
397.95	225.26
398.32	225.28
398.70	225.30
399.07	225.40
399.45	225.45
399.82	225.52
400.20	225.57
400.58	225.64
400.95	225.71
401.33	225.81
401.70	225.94
402.08	226.04
402.45	226.11
402.83	226.25
403.20	226.33
403.58	226.43
403.95	226.55
404.33	226.68
404.71	226.83
405.08	227.05
405.46	227.18
405.83	227.35
406.21	227.51
406.58	227.71
406.96	227.89
407.33	228.11
407.70	228.34
408.08	228.70
408.45	228.96
408.83	229.22
409.20	229.48
409.58	229.73
409.95	230.08
410.33	230.45
410.70	230.76
411.08	231.16
411.45	231.59
411.82	231.97
412.20	232.44
412.57	232.99
412.95	233.44
413.32	233.99
413.69	234.56
414.07	235.20
414.44	235.88
414.82	236.57
415.19	237.32
415.56	238.09
415.94	238.86
416.31	239.72
416.68	240.61
417.06	241.65
417.43	242.57
417.81	243.63
418.18	244.69
418.55	245.88
418.93	247.12
419.30	248.36
419.67	249.73
420.04	251.09
420.42	252.50
420.79	254.09
421.16	255.75
421.54	257.40
421.91	259.09
422.28	260.86
422.66	262.72
423.03	264.52
423.40	266.40
423.77	268.38
424.15	270.43
424.52	272.55
424.89	274.80
425.26	277.00
425.64	279.09
426.01	281.36
426.38	283.71
426.75	286.07
427.13	288.50
427.50	291.03
427.87	293.64
428.24	296.26
428.61	298.76
428.99	301.50
429.36	304.54
429.73	307.45
430.10	310.27
430.47	313.17
430.85	316.19
431.22	319.36
431.59	322.66
431.96	325.81
432.33	329.29
432.70	332.66
433.08	336.65
433.45	340.30
433.82	343.98
434.19	348.09
434.56	352.03
434.93	355.76
435.30	359.45
435.68	363.55
436.05	367.58
436.42	371.53
436.79	375.11
437.16	378.85
437.53	382.83
437.90	386.79
438.27	390.66
438.64	394.65
439.01	398.36
439.38	401.57
439.75	404.64
440.13	408.21
440.50	411.49
440.87	414.06
441.24	416.85
441.61	419.93
441.98	421.94
442.35	424.49
442.72	427.13
443.09	429.71
443.46	431.15
443.83	431.96
444.20	432.66
444.57	433.81
444.94	434.22
445.31	434.68
445.68	435.11
446.05	435.20
446.42	434.64
446.79	433.98
447.16	433.33
447.53	432.88
447.90	431.22
448.27	429.59
448.64	427.37
449.01	425.76
449.37	422.98
449.74	420.36
450.11	417.14
450.48	413.68
450.85	410.08
451.22	407.03
451.59	404.10
451.96	401.37
452.33	397.68
452.70	394.34
453.07	390.40
453.43	386.34
453.80	382.49
454.17	378.77
454.54	375.17
454.91	371.33
455.28	367.57
455.65	364.00
456.02	360.48
456.38	357.42
456.75	353.59
457.12	350.33
457.49	347.14
457.86	344.10
458.23	341.40
458.59	338.50
458.96	335.54
459.33	332.94
459.70	330.26
460.07	328.08
460.43	325.66
460.80	323.29
461.17	321.27
461.54	319.11
461.91	317.01
462.27	314.93
462.64	313.12
463.01	311.18
463.38	309.33
463.74	307.41
464.11	305.76
464.48	304.35
464.85	302.78
465.21	301.59
465.58	300.26
465.95	298.72
466.32	297.42
466.68	296.12
467.05	294.88
467.42	293.61
467.78	292.30
468.15	291.03
468.52	290.12
468.88	288.91
469.25	287.83
469.62	286.93
469.98	286.00
470.35	285.08
470.72	284.23
471.08	283.31
471.45	282.54
471.82	281.75
472.18	280.86
472.55	280.22
472.92	279.41
473.28	278.76
473.65	278.10
474.02	277.46
474.38	276.90
474.75	276.38
475.11	275.89
475.48	275.50
475.85	275.11
476.21	274.76
476.58	274.42
476.94	274.15
477.31	273.89
477.67	273.63
478.04	273.44
478.41	273.28
478.77	273.21
479.14	273.06
479.50	272.98
479.87	273.03
480.23	273.03
480.60	273.05
480.96	273.04
481.33	273.21
481.69	273.38
482.06	273.56
482.42	273.68
482.79	273.88
483.15	274.18
483.52	274.54
483.88	274.83
484.25	275.20
484.61	275.64
484.98	276.05
485.34	276.60
485.71	277.20
486.07	277.83
486.44	278.45
486.80	279.18
487.17	279.95
487.53	280.75
487.90	281.64
488.26	282.63
488.62	283.69
488.99	284.71
489.35	285.77
489.72	286.97
490.08	288.25
490.44	289.56
490.81	290.93
491.17	292.38
491.54	293.92
491.90	295.54
492.26	297.24
492.63	299.11
492.99	301.02
493.36	303.04
493.72	305.22
494.08	307.45
494.45	309.88
494.81	312.41
495.17	315.01
495.54	317.79
495.90	320.61
496.26	323.59
496.63	326.76
496.99	330.10
497.35	333.53
497.72	337.22
498.08	340.97
498.44	344.95
498.80	349.16
499.17	353.55
499.53	358.04
499.89	362.72
500.26	367.55
500.62	372.57
500.98	377.91
501.34	383.31
501.71	389.04
502.07	394.87
502.43	400.87
502.79	407.16
503.16	413.65
503.52	420.44
503.88	427.31
504.24	434.51
504.60	441.92
504.97	449.62
505.33	457.48
505.69	465.77
506.05	474.13
506.41	482.62
506.78	491.39
507.14	500.55
507.50	509.94
507.86	519.74
508.22	529.68
508.59	539.60
508.95	549.94
509.31	560.62
509.67	571.58
510.03	582.76
510.39	594.20
510.75	605.87
511.12	617.78
511.48	630.09
511.84	642.53
512.20	655.02
512.56	667.95
512.92	681.22
513.28	694.69
513.64	708.40
514.00	722.25
514.37	736.43
514.73	750.66
515.09	765.02
515.45	779.48
515.81	794.36
516.17	809.63
516.53	825.15
516.89	840.75
517.25	856.28
517.61	872.16
517.97	888.13
518.33	904.07
518.69	920.37
519.05	936.91
519.41	953.66
519.77	970.85
520.13	987.99
520.49	1005.02
520.85	1022.11
521.21	1039.48
521.57	1057.49
521.93	1074.99
522.29	1093.31
522.65	1111.39
523.01	1129.53
523.37	1147.47
523.73	1165.60
524.09	1183.69
524.45	1201.78
524.81	1220.50
525.17	1239.22
525.53	1258.07
525.89	1277.08
526.25	1296.13
526.61	1314.60
526.97	1333.56
527.33	1352.23
527.68	1371.05
528.04	1389.75
528.40	1408.51
528.76	1427.84
529.12	1446.78
529.48	1466.08
529.84	1484.32
530.20	1503.28
530.56	1522.70
530.91	1542.57
531.27	1561.87
531.63	1580.70
531.99	1599.72
532.35	1618.05
532.71	1636.48
533.07	1655.21
533.42	1673.65
533.78	1692.19
534.14	1711.14
534.50	1728.88
534.86	1747.33
535.21	1765.02
535.57	1783.52
535.93	1801.70
536.29	1819.01
536.65	1836.54
537.00	1853.79
537.36	1871.69
537.72	1888.71
538.08	1905.68
538.44	1921.97
538.79	1938.37
539.15	1954.51
539.51	1970.94
539.87	1988.05
540.22	2004.44
540.58	2020.94
540.94	2036.77
541.29	2052.18
541.65	2067.39
542.01	2083.27
542.37	2098.10
542.72	2113.06
543.08	2127.48
543.44	2142.43
543.79	2156.33
544.15	2169.92
544.51	2184.09
544.87	2197.67
545.22	2211.13
545.58	2223.78
545.94	2236.02
546.29	2248.44
546.65	2260.94
547.01	2272.71
547.36	2283.86
547.72	2294.63
548.07	2304.79
548.43	2315.23
548.79	2325.55
549.14	2335.39
549.50	2345.09
549.86	2355.06
550.21	2364.73
550.57	2374.21
550.92	2383.12
551.28	2392.35
551.64	2401.74
551.99	2410.49
552.35	2418.82
552.70	2427.09
553.06	2435.37
553.41	2444.01
553.77	2452.01
554.13	2460.17
554.48	2468.47
554.84	2475.92
555.19	2483.34
555.55	2490.60
555.90	2497.26
556.26	2504.24
556.61	2510.92
556.97	2517.09
557.32	2523.13
557.68	2529.13
558.03	2535.17
558.39	2540.68
558.74	2547.33
559.10	2553.09
559.45	2558.52
559.81	2564.47
560.16	2570.10
560.52	2574.94
560.87	2579.94
561.23	2584.21
561.58	2588.71
561.94	2592.65
562.29	2596.47
562.64	2600.76
563.00	2604.78
563.35	2609.78
563.71	2614.34
564.06	2619.02
564.42	2623.39
564.77	2627.36
565.12	2631.00
565.48	2634.15
565.83	2637.39
566.19	2639.87
566.54	2641.99
566.89	2644.38
567.25	2646.27
567.60	2648.72
567.96	2651.69
568.31	2653.64
568.66	2655.90
569.02	2657.46
569.37	2658.71
569.72	2660.70
570.08	2661.59
570.43	2662.54
570.78	2662.76
571.14	2661.76
571.49	2660.95
571.84	2661.31
572.20	2660.98
572.55	2660.73
572.90	2659.79
573.26	2659.02
573.61	2657.66
573.96	2656.17
574.31	2653.34
574.67	2650.43
575.02	2646.93
575.37	2643.69
575.72	2639.89
576.08	2636.60
576.43	2633.39
576.78	2629.98
577.13	2626.80
577.49	2623.74
577.84	2620.23
578.19	2616.43
578.54	2612.83
578.90	2608.70
579.25	2602.75
579.60	2597.51
579.95	2591.98
580.30	2586.65
580.66	2580.90
581.01	2575.44
581.36	2570.15
581.71	2565.79
582.06	2561.05
582.42	2556.37
582.77	2550.61
583.12	2545.71
583.47	2540.64
583.82	2535.33
584.17	2529.43
584.53	2523.26
584.88	2517.21
585.23	2510.77
585.58	2504.67
585.93	2498.67
586.28	2493.17
586.63	2487.49
586.98	2481.65
587.34	2476.39
587.69	2470.85
588.04	2464.97
588.39	2458.79
588.74	2451.51
589.09	2444.35
589.44	2436.63
589.79	2429.36
590.14	2422.93
590.49	2415.40
590.84	2408.07
591.19	2401.07
591.54	2393.67
591.89	2385.32
592.25	2377.40
592.60	2369.07
592.95	2360.38
593.30	2351.81
593.65	2343.04
594.00	2334.83
594.35	2326.45
594.70	2317.07
595.05	2308.78
595.40	2300.28
595.75	2291.41
596.10	2284.22
596.45	2276.39
596.80	2269.13
597.15	2261.57
597.50	2253.44
597.85	2245.76
598.19	2237.91
598.54	2229.59
598.89	2221.80
599.24	2214.75
599.59	2206.88
599.94	2199.46
600.29	2191.80
600.64	2184.00
600.99	2175.34
601.34	2167.32
601.69	2159.02
602.04	2151.08
602.39	2142.30
602.74	2134.21
603.08	2126.23
603.43	2117.96
603.78	2109.31
604.13	2100.81
604.48	2092.13
604.83	2083.66
605.18	2075.54
605.53	2066.09
605.87	2056.41
606.22	2047.73
606.57	2038.17
606.92	2029.22
607.27	2020.82
607.62	2012.60
607.96	2003.94
608.31	1995.89
608.66	1986.82
609.01	1977.78
609.36	1968.61
609.70	1959.00
610.05	1949.34
610.40	1940.16
610.75	1930.26
611.10	1921.20
611.44	1911.01
611.79	1901.40
612.14	1891.08
612.49	1879.94
612.83	1869.83
613.18	1860.19
613.53	1850.43
613.88	1840.30
614.22	1830.42
614.57	1819.94
614.92	1810.34
615.27	1801.31
615.61	1791.35
615.96	1781.67
616.31	1772.52
616.65	1763.55
617.00	1754.48
617.35	1745.23
617.70	1735.29
618.04	1725.12
618.39	1715.06
618.74	1706.11
619.08	1696.11
619.43	1686.95
619.78	1678.65
620.12	1669.99
620.47	1660.94
620.82	1651.03
621.16	1641.91
621.51	1632.68
621.85	1623.38
622.20	1613.11
622.55	1602.87
622.89	1593.39
623.24	1584.09
623.59	1575.05
623.93	1565.97
624.28	1557.30
624.62	1548.18
624.97	1539.37
625.32	1531.15
625.66	1522.72
626.01	1514.00
626.35	1505.09
626.70	1495.78
627.04	1486.45
627.39	1476.98
627.73	1468.07
628.08	1459.79
628.43	1451.11
628.77	1442.31
629.12	1433.25
629.46	1424.66
629.81	1415.66
630.15	1407.01
630.50	1398.19
630.84	1388.42
631.19	1378.90
631.53	1369.83
631.88	1360.72
632.22	1351.54
632.57	1342.75
632.91	1333.63
633.26	1324.57
633.60	1315.67
633.95	1307.05
634.29	1298.51
634.64	1290.48
634.98	1281.59
635.32	1272.97
635.67	1265.02
636.01	1257.02
636.36	1248.95
636.70	1241.09
637.05	1233.31
637.39	1225.48
637.73	1217.64
638.08	1210.52
638.42	1203.31
638.77	1195.49
639.11	1187.68
639.45	1180.01
639.80	1171.99
640.14	1164.35
640.49	1156.58
640.83	1149.02
641.17	1141.61
641.52	1134.07
641.86	1126.36
642.20	1119.38
642.55	1111.78
642.89	1104.12
643.23	1096.27
643.58	1089.39
643.92	1081.90
644.26	1074.68
644.61	1067.44
644.95	1060.28
645.29	1052.48
645.64	1044.38
645.98	1036.84
646.32	1029.84
646.66	1022.81
647.01	1015.98
647.35	1009.16
647.69	1002.21
648.04	995.58
648.38	988.76
648.72	981.75
649.06	974.71
649.41	967.60
649.75	960.59
650.09	953.52
650.43	946.77
650.78	939.58
651.12	932.61
651.46	925.87
651.80	919.16
652.14	912.76
652.49	906.40
652.83	900.36
653.17	893.75
653.51	887.01
653.85	880.53
654.20	873.85
654.54	866.81
654.88	860.01
655.22	853.03
655.56	846.21
655.90	839.65
656.25	833.35
656.59	827.03
656.93	820.99
657.27	814.89
657.61	808.42
657.95	802.34
658.29	796.29
658.64	789.97
658.98	783.60
659.32	777.19
659.66	770.99
660.00	764.79
660.34	758.90
660.68	753.00
661.02	747.07
661.36	741.47
661.70	736.12
662.05	731.03
662.39	725.96
662.73	720.69
663.07	715.48
663.41	710.20
663.75	704.97
664.09	699.57
664.43	694.36
664.77	689.51
665.11	684.38
665.45	679.48
665.79	674.70
666.13	669.91
666.47	665.04
666.81	660.18
667.15	655.26
667.49	650.61
667.83	646.14
668.17	641.53
668.51	636.76
668.85	631.99
669.19	627.38
669.53	622.94
669.87	618.41
670.21	614.13
670.55	609.83
670.89	605.83
671.23	601.78
671.57	597.60
671.91	593.38
672.25	589.28
672.58	585.12
672.92	581.05
673.26	577.22
673.60	573.43
673.94	569.71
674.28	566.28
674.62	562.81
674.96	559.17
675.30	555.75
675.64	552.28
675.97	549.04
676.31	545.71
676.65	542.21
676.99	539.06
677.33	535.65
677.67	532.39
678.01	528.73
678.34	525.22
678.68	521.91
679.02	518.64
679.36	515.36
679.70	512.18
680.04	509.02
680.37	505.73
680.71	502.49
681.05	499.42
681.39	496.24
681.73	493.11
682.06	490.16
682.40	487.13
682.74	484.18
683.08	481.11
683.42	478.00
683.75	475.02
684.09	471.91
684.43	469.03
684.77	466.08
685.10	463.31
685.44	460.60
685.78	457.87
686.12	455.19
686.45	452.52
686.79	449.82
687.13	447.21
687.46	444.57
687.80	442.04
688.14	439.43
688.48	436.99
688.81	434.33
689.15	431.75
689.49	429.17
689.82	426.66
690.16	424.19
690.50	421.90
690.83	419.62
691.17	417.29
691.51	414.97
691.84	412.82
692.18	410.57
692.52	408.24
692.85	405.94
693.19	403.69
693.52	401.47
693.86	399.26
694.20	397.10
694.53	394.98
694.87	392.72
695.21	390.54
695.54	388.30
695.88	386.23
696.21	384.17
696.55	382.15
696.88	380.14
697.22	378.18
697.56	376.25
697.89	374.33
698.23	372.45
698.56	370.56
698.90	368.67
699.23	366.70
699.57	364.81
699.90	363.00
700.24	361.21
700.58	359.44
700.91	357.69
701.25	355.98
701.58	354.37
701.92	352.76
702.25	351.21
702.59	349.66
702.92	348.10
703.26	346.56
703.59	345.08
703.93	343.69
704.26	342.22
704.60	340.67
704.93	339.17
705.26	337.66
705.60	336.28
705.93	334.91
706.27	333.69
706.60	332.44
706.94	331.13
707.27	329.80
707.61	328.51
707.94	327.29
708.27	325.99
708.61	324.68
708.94	323.48
709.28	322.28
709.61	321.15
709.94	320.00
710.28	318.77
710.61	317.60
710.95	316.32
711.28	315.23
711.61	314.10
711.95	313.00
712.28	311.88
712.61	310.68
712.95	309.56
713.28	308.50
713.61	307.46
713.95	306.39
714.28	305.35
714.61	304.33
714.95	303.31
715.28	302.33
715.61	301.34
715.95	300.32
716.28	299.30
716.61	298.24
716.95	297.27
717.28	296.43
717.61	295.51
717.94	294.64
718.28	293.72
718.61	292.87
718.94	292.00
719.27	291.27
719.61	290.53
719.94	289.75
720.27	288.93
720.60	288.14
720.94	287.43
721.27	286.73
721.60	286.07
721.93	285.34
722.27	284.65
722.60	283.96
722.93	283.29
723.26	282.64
723.59	282.05
723.93	281.42
724.26	280.72
724.59	280.02
724.92	279.38
725.25	278.76
725.59	278.12
725.92	277.52
726.25	276.85
726.58	276.24
726.91	275.64
727.24	275.05
727.57	274.51
727.91	273.87
728.24	273.29
728.57	272.65
728.90	272.12
729.23	271.57
729.56	271.08
729.89	270.51
730.22	269.93
730.55	269.35
730.89	268.79
731.22	268.24
731.55	267.77
731.88	267.24
732.21	266.72
732.54	266.20
732.87	265.70
733.20	265.26
733.53	264.81
733.86	264.36
734.19	263.86
734.52	263.43
734.85	263.03
735.18	262.52
735.51	262.13
735.84	261.67
736.17	261.24
736.50	260.72
736.83	260.42
737.16	260.02
737.49	259.63
737.82	259.21
738.15	258.85
738.48	258.45
738.81	258.08
739.14	257.68
739.47	257.33
739.80	256.98
740.13	256.63
740.46	256.22
740.79	255.81
741.12	255.47
741.45	255.07
741.78	254.66
742.11	254.36
742.44	253.96
742.77	253.64
743.10	253.25
743.43	252.89
743.75	252.46
744.08	252.26
744.41	251.87
744.74	251.58
745.07	251.23
745.40	250.92
745.73	250.63
746.06	250.32
746.39	250.02
746.71	249.70
747.04	249.37
747.37	249.10
747.70	248.80
748.03	248.49
748.36	248.22
748.68	247.97
749.01	247.67
749.34	247.46
749.67	247.18
750.00	246.96
750.33	246.79
750.65	246.54
750.98	246.19
751.31	246.00
751.64	245.71
751.97	245.55
752.29	245.28
752.62	244.99
752.95	244.73
753.28	244.52
753.60	244.28
753.93	244.09
754.26	243.85
754.59	243.61
754.91	243.37
755.24	243.15
755.57	242.90
755.90	242.69
756.22	242.43
756.55	242.23
756.88	242.00
757.20	241.75
757.53	241.53
757.86	241.32
758.19	241.10
758.51	240.94
758.84	240.67
759.17	240.47
759.49	240.31
759.82	240.18
760.15	239.97
760.47	239.79
760.80	239.57
761.13	239.42
761.45	239.21
761.78	239.06
762.11	238.91
762.43	238.75
762.76	238.58
763.08	238.43
763.41	238.27
763.74	238.10
764.06	237.93
764.39	237.78
764.71	237.60
765.04	237.45
765.37	237.27
765.69	237.13
766.02	237.00
766.34	236.84
766.67	236.67
767.00	236.56
767.32	236.43
767.65	236.33
767.97	236.18
768.30	236.08
768.62	235.93
768.95	235.77
769.27	235.65
769.60	235.53
769.92	235.38
770.25	235.26
770.57	235.10
770.90	234.99
771.22	234.88
771.55	234.79
771.87	234.70
772.20	234.60
772.52	234.57
772.85	234.57
773.17	234.46
773.50	234.32
773.82	234.16
774.15	234.03
774.47	233.86
774.80	233.74
775.12	233.65
775.45	233.55
775.77	233.46
776.09	233.35
776.42	233.25
776.74	233.21
777.07	233.11
777.39	233.03
777.72	232.92
778.04	232.83
778.36	232.74
778.69	232.63
779.01	232.60
779.33	232.45
779.66	232.23
779.98	232.16
780.31	232.09
780.63	232.06
780.95	232.00
781.28	231.93
781.60	231.87
781.92	231.78
782.25	231.73
782.57	231.67
782.89	231.59
783.22	231.52
783.54	231.43
783.86	231.38
784.19	231.30
784.51	231.29
784.83	231.21
785.16	231.12
785.48	231.07
785.80	230.98
786.12	230.94
786.45	230.90
