SpectraSuite Data File
++++++++++++++++++++++++++++++++++++
Date: Fri Feb 01 15:47:55 EST 2013
User: group
Dark Spectrum Present: No
Reference Spectrum Present: No
Number of Sampled Component Spectra: 1
Spectrometers: USB2E7196
Integration Time (usec): 35000 (USB2E7196)
Spectra Averaged: 100 (USB2E7196)
Boxcar Smoothing: 10 (USB2E7196)
Correct for Electrical Dark: No (USB2E7196)
Strobe/Lamp Enabled: No (USB2E7196)
Correct for Detector Non-linearity: No (USB2E7196)
Correct for Stray Light: No (USB2E7196)
Number of Pixels in Processed Spectrum: 2048
>>>>>Begin Processed Spectral Data<<<<<
339.09	0.00
339.48	214.66
339.86	216.23
340.24	216.97
340.63	219.11
341.01	221.96
341.39	221.82
341.78	222.89
342.16	224.62
342.54	225.42
342.93	213.05
343.31	223.79
343.69	224.32
344.07	224.75
344.46	225.19
344.84	225.57
345.22	225.78
345.60	226.01
345.99	226.18
346.37	226.26
346.75	226.31
347.13	226.36
347.52	226.46
347.90	226.54
348.28	226.53
348.66	226.58
349.05	226.58
349.43	226.60
349.81	226.66
350.19	226.70
350.57	226.81
350.96	226.88
351.34	226.98
351.72	227.07
352.10	227.20
352.48	227.29
352.87	227.32
353.25	227.42
353.63	227.50
354.01	227.60
354.39	227.69
354.77	227.80
355.15	227.92
355.54	228.01
355.92	228.06
356.30	228.17
356.68	228.33
357.06	228.39
357.44	228.52
357.82	228.61
358.20	228.68
358.58	228.75
358.97	228.81
359.35	228.88
359.73	228.97
360.11	229.04
360.49	229.09
360.87	229.16
361.25	229.21
361.63	229.27
362.01	229.32
362.39	229.37
362.77	229.40
363.15	229.43
363.53	229.43
363.91	229.44
364.29	229.43
364.67	229.35
365.05	229.39
365.43	229.37
365.81	229.36
366.19	229.41
366.57	229.42
366.95	229.40
367.33	229.37
367.71	229.36
368.09	229.36
368.47	229.34
368.85	229.35
369.23	229.35
369.61	229.28
369.99	229.28
370.37	229.27
370.75	229.30
371.13	229.23
371.51	229.19
371.89	229.15
372.27	229.13
372.65	229.09
373.03	229.04
373.41	228.99
373.78	228.91
374.16	228.81
374.54	228.75
374.92	228.68
375.30	228.64
375.68	228.57
376.06	228.48
376.44	228.40
376.82	228.31
377.19	228.22
377.57	228.16
377.95	228.05
378.33	227.96
378.71	227.81
379.09	227.71
379.47	227.65
379.84	227.57
380.22	227.46
380.60	227.37
380.98	227.29
381.36	227.19
381.73	227.11
382.11	227.06
382.49	226.98
382.87	226.88
383.25	226.81
383.62	226.88
384.00	226.82
384.38	226.77
384.76	226.74
385.13	226.73
385.51	226.71
385.89	226.68
386.27	226.61
386.64	226.58
387.02	226.58
387.40	226.53
387.78	226.50
388.15	226.49
388.53	226.47
388.91	226.41
389.29	226.38
389.66	226.36
390.04	226.29
390.42	226.29
390.79	226.31
391.17	226.28
391.55	226.14
391.92	226.12
392.30	226.11
392.68	226.07
393.05	226.04
393.43	226.04
393.81	226.04
394.18	226.03
394.56	226.06
394.94	226.05
395.31	226.09
395.69	226.13
396.06	226.15
396.44	226.18
396.82	226.22
397.19	226.29
397.57	226.36
397.95	226.45
398.32	226.47
398.70	226.54
399.07	226.63
399.45	226.68
399.82	226.75
400.20	226.82
400.58	226.90
400.95	226.95
401.33	227.01
401.70	227.16
402.08	227.30
402.45	227.36
402.83	227.51
403.20	227.60
403.58	227.72
403.95	227.87
404.33	228.01
404.71	228.15
405.08	228.34
405.46	228.48
405.83	228.60
406.21	228.77
406.58	228.94
406.96	229.11
407.33	229.31
407.70	229.50
408.08	229.77
408.45	230.00
408.83	230.21
409.20	230.45
409.58	230.65
409.95	230.87
410.33	231.17
410.70	231.40
411.08	231.72
411.45	232.02
411.82	232.32
412.20	232.69
412.57	233.14
412.95	233.42
413.32	233.83
413.69	234.26
414.07	234.68
414.44	235.17
414.82	235.62
415.19	236.16
415.56	236.73
415.94	237.26
416.31	237.91
416.68	238.60
417.06	239.33
417.43	240.03
417.81	240.80
418.18	241.59
418.55	242.44
418.93	243.30
419.30	244.18
419.67	245.16
420.04	246.12
420.42	247.08
420.79	248.27
421.16	249.41
421.54	250.63
421.91	251.85
422.28	253.09
422.66	254.45
423.03	255.75
423.40	257.05
423.77	258.47
424.15	259.90
424.52	261.35
424.89	262.93
425.26	264.46
425.64	265.91
426.01	267.50
426.38	269.16
426.75	270.82
427.13	272.55
427.50	274.30
427.87	276.17
428.24	278.03
428.61	279.78
428.99	281.71
429.36	283.80
429.73	285.84
430.10	287.86
430.47	289.90
430.85	292.04
431.22	294.29
431.59	296.69
431.96	298.93
432.33	301.43
432.70	303.82
433.08	306.60
433.45	309.25
433.82	311.89
434.19	314.76
434.56	317.58
434.93	320.24
435.30	322.89
435.68	325.74
436.05	328.60
436.42	331.41
436.79	333.96
437.16	336.66
437.53	339.57
437.90	342.35
438.27	345.04
438.64	347.84
439.01	350.44
439.38	352.67
439.75	354.79
440.13	357.26
440.50	359.53
440.87	361.40
441.24	363.37
441.61	365.49
441.98	367.00
442.35	368.79
442.72	370.63
443.09	372.39
443.46	373.38
443.83	373.91
444.20	374.37
444.57	375.15
444.94	375.40
445.31	375.67
445.68	376.02
446.05	376.15
446.42	375.76
446.79	375.37
447.16	374.96
447.53	374.67
447.90	373.52
448.27	372.38
448.64	370.78
449.01	369.63
449.37	367.65
449.74	365.76
450.11	363.50
450.48	361.06
450.85	358.58
451.22	356.46
451.59	354.45
451.96	352.48
452.33	349.86
452.70	347.50
453.07	344.67
453.43	341.78
453.80	339.01
454.17	336.35
454.54	333.77
454.91	331.02
455.28	328.34
455.65	325.85
456.02	323.42
456.38	321.27
456.75	318.60
457.12	316.34
457.49	314.10
457.86	311.97
458.23	310.09
458.59	308.00
458.96	305.90
459.33	304.01
459.70	302.21
460.07	300.73
460.43	299.03
460.80	297.38
461.17	295.95
461.54	294.46
461.91	293.01
462.27	291.51
462.64	290.27
463.01	288.89
463.38	287.57
463.74	286.16
464.11	285.01
464.48	283.96
464.85	282.85
465.21	281.96
465.58	281.04
465.95	279.95
466.32	279.03
466.68	278.17
467.05	277.32
467.42	276.40
467.78	275.45
468.15	274.60
468.52	273.92
468.88	273.09
469.25	272.28
469.62	271.67
469.98	271.06
470.35	270.39
470.72	269.84
471.08	269.19
471.45	268.67
471.82	268.11
472.18	267.53
472.55	267.11
472.92	266.61
473.28	266.15
473.65	265.67
474.02	265.22
474.38	264.85
474.75	264.48
475.11	264.15
475.48	263.88
475.85	263.62
476.21	263.44
476.58	263.26
476.94	263.16
477.31	263.02
477.67	262.84
478.04	262.73
478.41	262.66
478.77	262.72
479.14	262.68
479.50	262.73
479.87	262.82
480.23	262.88
480.60	262.94
480.96	262.99
481.33	263.22
481.69	263.48
482.06	263.67
482.42	263.91
482.79	264.18
483.15	264.53
483.52	264.92
483.88	265.28
484.25	265.68
484.61	266.09
484.98	266.52
485.34	267.08
485.71	267.71
486.07	268.31
486.44	268.86
486.80	269.57
487.17	270.28
487.53	271.10
487.90	272.00
488.26	272.93
488.62	273.94
488.99	274.97
489.35	276.00
489.72	277.12
490.08	278.33
490.44	279.55
490.81	280.90
491.17	282.25
491.54	283.71
491.90	285.17
492.26	286.86
492.63	288.61
492.99	290.44
493.36	292.31
493.72	294.35
494.08	296.49
494.45	298.75
494.81	301.12
495.17	303.56
495.54	306.10
495.90	308.84
496.26	311.65
496.63	314.57
496.99	317.65
497.35	320.92
497.72	324.34
498.08	327.92
498.44	331.60
498.80	335.51
499.17	339.56
499.53	343.83
499.89	348.19
500.26	352.72
500.62	357.38
500.98	362.34
501.34	367.41
501.71	372.75
502.07	378.14
502.43	383.79
502.79	389.61
503.16	395.71
503.52	402.01
503.88	408.43
504.24	415.17
504.60	422.10
504.97	429.20
505.33	436.48
505.69	444.13
506.05	451.93
506.41	459.84
506.78	467.96
507.14	476.37
507.50	485.12
507.86	494.15
508.22	503.33
508.59	512.55
508.95	522.11
509.31	531.91
509.67	542.06
510.03	552.34
510.39	562.89
510.75	573.70
511.12	584.54
511.48	595.83
511.84	607.23
512.20	618.77
512.56	630.75
512.92	643.01
513.28	655.39
513.64	667.86
514.00	680.56
514.37	693.52
514.73	706.59
515.09	719.57
515.45	732.89
515.81	746.49
516.17	760.50
516.53	774.74
516.89	788.91
517.25	803.09
517.61	817.47
517.97	831.95
518.33	846.35
518.69	861.20
519.05	876.24
519.41	891.34
519.77	906.86
520.13	922.41
520.49	937.65
520.85	952.99
521.21	968.77
521.57	985.07
521.93	1000.82
522.29	1017.21
522.65	1033.48
523.01	1049.65
523.37	1065.65
523.73	1081.77
524.09	1097.74
524.45	1114.17
524.81	1130.76
525.17	1147.56
525.53	1164.42
525.89	1181.26
526.25	1198.06
526.61	1214.43
526.97	1231.28
527.33	1247.66
527.68	1264.18
528.04	1280.76
528.40	1297.46
528.76	1314.42
529.12	1330.96
529.48	1347.89
529.84	1363.96
530.20	1380.61
530.56	1397.66
530.91	1415.13
531.27	1431.90
531.63	1448.44
531.99	1464.86
532.35	1480.90
532.71	1496.83
533.07	1513.04
533.42	1528.96
533.78	1545.04
534.14	1561.28
534.50	1576.54
534.86	1592.51
535.21	1607.63
535.57	1623.56
535.93	1639.07
536.29	1653.85
536.65	1668.87
537.00	1683.67
537.36	1699.03
537.72	1713.57
538.08	1727.86
538.44	1741.60
538.79	1755.61
539.15	1769.30
539.51	1783.09
539.87	1797.40
540.22	1811.18
540.58	1824.97
540.94	1838.46
541.29	1851.43
541.65	1864.13
542.01	1877.38
542.37	1889.77
542.72	1902.23
543.08	1913.93
543.44	1926.30
543.79	1937.56
544.15	1948.54
544.51	1960.03
544.87	1970.95
545.22	1981.59
545.58	1992.08
545.94	2001.85
546.29	2011.67
546.65	2021.41
547.01	2030.66
547.36	2039.39
547.72	2047.82
548.07	2055.67
548.43	2063.66
548.79	2071.65
549.14	2079.09
549.50	2086.36
549.86	2093.94
550.21	2101.24
550.57	2108.53
550.92	2115.02
551.28	2122.01
551.64	2129.11
551.99	2135.73
552.35	2141.72
552.70	2148.08
553.06	2153.77
553.41	2160.15
553.77	2166.23
554.13	2172.48
554.48	2178.57
554.84	2184.09
555.19	2189.37
555.55	2194.56
555.90	2199.05
556.26	2203.92
556.61	2208.72
556.97	2212.90
557.32	2216.96
557.68	2221.12
558.03	2225.25
558.39	2228.93
558.74	2233.69
559.10	2237.52
559.45	2241.23
559.81	2245.72
560.16	2249.50
560.52	2252.79
560.87	2256.26
561.23	2258.89
561.58	2261.77
561.94	2264.27
562.29	2266.63
562.64	2269.30
563.00	2271.88
563.35	2275.43
563.71	2278.54
564.06	2281.77
564.42	2284.66
564.77	2287.25
565.12	2289.55
565.48	2291.48
565.83	2293.42
566.19	2294.56
566.54	2295.43
566.89	2296.45
567.25	2296.81
567.60	2298.05
567.96	2299.76
568.31	2300.50
568.66	2301.44
569.02	2301.89
569.37	2302.21
569.72	2303.05
570.08	2303.17
570.43	2303.25
570.78	2302.59
571.14	2300.95
571.49	2299.45
571.84	2299.25
572.20	2298.16
572.55	2297.05
572.90	2295.63
573.26	2294.32
573.61	2292.73
573.96	2291.06
574.31	2288.04
574.67	2285.09
575.02	2281.38
575.37	2277.98
575.72	2274.20
576.08	2270.88
576.43	2267.52
576.78	2263.84
577.13	2260.69
577.49	2257.63
577.84	2254.14
578.19	2250.41
578.54	2246.73
578.90	2242.61
579.25	2236.93
579.60	2231.84
579.95	2226.80
580.30	2221.84
580.66	2216.51
581.01	2211.56
581.36	2206.49
581.71	2202.32
582.06	2197.88
582.42	2193.53
582.77	2188.28
583.12	2183.73
583.47	2178.93
583.82	2173.94
584.17	2168.60
584.53	2163.03
584.88	2157.40
585.23	2151.54
585.58	2146.01
585.93	2140.54
586.28	2135.84
586.63	2130.80
586.98	2125.73
587.34	2120.95
587.69	2115.96
588.04	2110.69
588.39	2104.97
588.74	2098.56
589.09	2092.39
589.44	2085.65
589.79	2079.69
590.14	2074.14
590.49	2067.56
590.84	2061.35
591.19	2055.40
591.54	2048.99
591.89	2041.54
592.25	2034.68
592.60	2027.47
592.95	2020.04
593.30	2012.75
593.65	2005.09
594.00	1997.95
594.35	1990.72
594.70	1982.77
595.05	1975.50
595.40	1968.28
595.75	1960.71
596.10	1954.53
596.45	1947.77
596.80	1941.57
597.15	1934.68
597.50	1927.49
597.85	1921.01
598.19	1914.20
598.54	1907.06
598.89	1900.46
599.24	1894.49
599.59	1887.66
599.94	1881.47
600.29	1875.03
600.64	1868.44
600.99	1861.03
601.34	1854.31
601.69	1847.39
602.04	1840.46
602.39	1833.09
602.74	1826.22
603.08	1819.53
603.43	1812.66
603.78	1805.33
604.13	1798.12
604.48	1790.94
604.83	1783.98
605.18	1776.96
605.53	1769.06
605.87	1760.98
606.22	1753.74
606.57	1745.87
606.92	1738.71
607.27	1731.50
607.62	1724.51
607.96	1717.25
608.31	1710.55
608.66	1703.00
609.01	1695.41
609.36	1687.82
609.70	1679.70
610.05	1671.50
610.40	1663.79
610.75	1655.55
611.10	1647.86
611.44	1639.50
611.79	1631.44
612.14	1622.83
612.49	1613.76
612.83	1605.38
613.18	1597.35
613.53	1589.22
613.88	1580.66
614.22	1572.34
614.57	1563.77
614.92	1555.73
615.27	1548.19
615.61	1539.96
615.96	1531.92
616.31	1524.31
616.65	1517.04
617.00	1509.53
617.35	1501.97
617.70	1493.67
618.04	1485.15
618.39	1476.95
618.74	1469.29
619.08	1461.13
619.43	1453.49
619.78	1446.58
620.12	1439.21
620.47	1431.56
620.82	1423.40
621.16	1416.04
621.51	1408.44
621.85	1400.80
622.20	1392.38
622.55	1383.96
622.89	1376.01
623.24	1368.32
623.59	1360.83
623.93	1353.23
624.28	1345.98
624.62	1338.45
624.97	1331.23
625.32	1324.56
625.66	1317.50
626.01	1310.30
626.35	1302.76
626.70	1295.08
627.04	1287.33
627.39	1279.66
627.73	1272.32
628.08	1265.41
628.43	1258.01
628.77	1250.62
629.12	1243.03
629.46	1235.80
629.81	1228.52
630.15	1221.26
630.50	1213.95
630.84	1205.84
631.19	1197.94
631.53	1190.46
631.88	1182.92
632.22	1175.25
632.57	1167.92
632.91	1160.37
633.26	1152.95
633.60	1145.67
633.95	1138.58
634.29	1131.51
634.64	1124.88
634.98	1117.44
635.32	1110.28
635.67	1103.74
636.01	1097.02
636.36	1090.20
636.70	1083.62
637.05	1076.92
637.39	1070.45
637.73	1063.82
638.08	1057.89
638.42	1051.93
638.77	1045.56
639.11	1038.93
639.45	1032.54
639.80	1025.88
640.14	1019.51
640.49	1013.02
640.83	1006.67
641.17	1000.38
641.52	994.02
641.86	987.53
642.20	981.76
642.55	975.44
642.89	968.98
643.23	962.49
643.58	956.70
643.92	950.51
644.26	944.42
644.61	938.43
644.95	932.47
645.29	925.86
645.64	919.04
645.98	912.67
646.32	906.81
646.66	900.82
647.01	894.94
647.35	889.15
647.69	883.23
648.04	877.66
648.38	871.86
648.72	865.76
649.06	859.65
649.41	853.72
649.75	847.76
650.09	841.78
650.43	835.95
650.78	829.80
651.12	823.91
651.46	818.17
651.80	812.37
652.14	806.88
652.49	801.56
652.83	796.44
653.17	790.71
653.51	784.97
653.85	779.54
654.20	773.92
654.54	767.98
654.88	762.33
655.22	756.47
655.56	750.81
655.90	745.45
656.25	740.24
656.59	734.88
656.93	729.80
657.27	724.62
657.61	719.27
657.95	714.22
658.29	709.11
658.64	703.88
658.98	698.62
659.32	693.21
659.66	688.01
660.00	682.64
660.34	677.69
660.68	672.84
661.02	667.88
661.36	663.13
661.70	658.69
662.05	654.28
662.39	649.96
662.73	645.51
663.07	641.10
663.41	636.68
663.75	632.21
664.09	627.65
664.43	623.28
664.77	619.12
665.11	614.86
665.45	610.76
665.79	606.66
666.13	602.53
666.47	598.39
666.81	594.20
667.15	590.08
667.49	586.18
667.83	582.41
668.17	578.46
668.51	574.42
668.85	570.33
669.19	566.53
669.53	562.62
669.87	558.74
670.21	555.04
670.55	551.39
670.89	547.99
671.23	544.56
671.57	541.10
671.91	537.55
672.25	534.05
672.58	530.51
672.92	527.14
673.26	523.99
673.60	520.87
673.94	517.75
674.28	514.91
674.62	511.94
674.96	508.80
675.30	505.88
675.64	502.96
675.97	500.22
676.31	497.33
676.65	494.49
676.99	491.80
677.33	488.94
677.67	486.11
678.01	483.08
678.34	480.11
678.68	477.25
679.02	474.45
679.36	471.69
679.70	469.00
680.04	466.21
680.37	463.35
680.71	460.55
681.05	457.98
681.39	455.23
681.73	452.62
682.06	450.06
682.40	447.48
682.74	444.95
683.08	442.43
683.42	439.80
683.75	437.28
684.09	434.70
684.43	432.24
684.77	429.81
685.10	427.44
685.44	425.11
685.78	422.80
686.12	420.60
686.45	418.34
686.79	415.95
687.13	413.75
687.46	411.62
687.80	409.43
688.14	407.16
688.48	405.05
688.81	402.79
689.15	400.67
689.49	398.53
689.82	396.42
690.16	394.32
690.50	392.38
690.83	390.40
691.17	388.41
691.51	386.48
691.84	384.65
692.18	382.68
692.52	380.69
692.85	378.76
693.19	376.79
693.52	374.93
693.86	373.19
694.20	371.38
694.53	369.55
694.87	367.72
695.21	365.97
695.54	364.20
695.88	362.47
696.21	360.73
696.55	359.08
696.88	357.43
697.22	355.78
697.56	354.18
697.89	352.50
698.23	350.93
698.56	349.34
698.90	347.73
699.23	346.09
699.57	344.57
699.90	343.00
700.24	341.52
700.58	339.95
700.91	338.43
701.25	336.98
701.58	335.61
701.92	334.29
702.25	332.90
702.59	331.50
702.92	330.18
703.26	328.92
703.59	327.64
703.93	326.43
704.26	325.19
704.60	323.87
704.93	322.65
705.26	321.41
705.60	320.23
705.93	319.07
706.27	318.06
706.60	317.01
706.94	315.95
707.27	314.83
707.61	313.81
707.94	312.84
708.27	311.78
708.61	310.69
708.94	309.69
709.28	308.74
709.61	307.80
709.94	306.86
710.28	305.83
710.61	304.84
710.95	303.79
711.28	302.87
711.61	301.95
711.95	301.00
712.28	300.06
712.61	299.06
712.95	298.13
713.28	297.25
713.61	296.35
713.95	295.44
714.28	294.60
714.61	293.75
714.95	292.89
715.28	292.04
715.61	291.16
715.95	290.30
716.28	289.45
716.61	288.64
716.95	287.79
717.28	287.02
717.61	286.25
717.94	285.51
718.28	284.70
718.61	283.99
718.94	283.26
719.27	282.64
719.61	281.98
719.94	281.33
720.27	280.62
720.60	279.96
720.94	279.32
721.27	278.70
721.60	278.12
721.93	277.55
722.27	277.02
722.60	276.46
722.93	275.88
723.26	275.33
723.59	274.74
723.93	274.23
724.26	273.69
724.59	273.13
724.92	272.63
725.25	272.15
725.59	271.62
725.92	271.14
726.25	270.58
726.58	270.11
726.91	269.59
727.24	269.13
727.57	268.63
727.91	268.15
728.24	267.69
728.57	267.18
728.90	266.67
729.23	266.16
729.56	265.75
729.89	265.30
730.22	264.82
730.55	264.36
730.89	263.90
731.22	263.44
731.55	262.99
731.88	262.53
732.21	262.10
732.54	261.68
732.87	261.28
733.20	260.86
733.53	260.48
733.86	260.15
734.19	259.76
734.52	259.40
734.85	259.07
735.18	258.66
735.51	258.31
735.84	257.96
736.17	257.63
736.50	257.21
736.83	256.95
737.16	256.61
737.49	256.27
737.82	255.93
738.15	255.61
738.48	255.30
738.81	255.01
739.14	254.66
739.47	254.35
739.80	254.03
740.13	253.75
740.46	253.41
740.79	253.06
741.12	252.76
741.45	252.44
741.78	252.11
742.11	251.80
742.44	251.52
742.77	251.19
743.10	250.89
743.43	250.63
743.75	250.23
744.08	250.09
744.41	249.81
744.74	249.56
745.07	249.30
745.40	249.04
745.73	248.78
746.06	248.54
746.39	248.25
746.71	247.96
747.04	247.69
747.37	247.45
747.70	247.23
748.03	246.96
748.36	246.73
748.68	246.52
749.01	246.27
749.34	246.03
749.67	245.85
750.00	245.63
750.33	245.45
750.65	245.27
750.98	244.94
751.31	244.69
751.64	244.51
751.97	244.33
752.29	244.14
752.62	243.90
752.95	243.68
753.28	243.48
753.60	243.35
753.93	243.19
754.26	242.99
754.59	242.77
754.91	242.57
755.24	242.37
755.57	242.20
755.90	242.04
756.22	241.85
756.55	241.61
756.88	241.41
757.20	241.20
757.53	241.00
757.86	240.82
758.19	240.71
758.51	240.53
758.84	240.34
759.17	240.17
759.49	240.03
759.82	239.90
760.15	239.75
760.47	239.57
760.80	239.39
761.13	239.25
761.45	239.11
761.78	238.97
762.11	238.84
762.43	238.67
762.76	238.55
763.08	238.41
763.41	238.30
763.74	238.16
764.06	237.99
764.39	237.86
764.71	237.71
765.04	237.57
765.37	237.43
765.69	237.28
766.02	237.12
766.34	236.96
766.67	236.81
767.00	236.67
767.32	236.59
767.65	236.52
767.97	236.38
768.30	236.27
768.62	236.15
768.95	235.99
769.27	235.87
769.60	235.74
769.92	235.63
770.25	235.50
770.57	235.38
770.90	235.27
771.22	235.13
771.55	235.03
771.87	234.93
772.20	234.82
772.52	234.79
772.85	234.80
773.17	234.69
773.50	234.57
773.82	234.48
774.15	234.35
774.47	234.18
774.80	234.09
775.12	233.98
775.45	233.91
775.77	233.82
776.09	233.71
776.42	233.65
776.74	233.59
777.07	233.48
777.39	233.44
777.72	233.36
778.04	233.29
778.36	233.21
778.69	233.13
779.01	233.05
779.33	232.89
779.66	232.71
779.98	232.64
780.31	232.56
780.63	232.52
780.95	232.46
781.28	232.43
781.60	232.37
781.92	232.31
782.25	232.24
782.57	232.22
782.89	232.14
783.22	232.06
783.54	231.96
783.86	231.92
784.19	231.82
784.51	231.81
784.83	231.78
785.16	231.70
785.48	231.67
785.80	231.66
786.12	231.62
786.45	231.57
786.77	231.54
787.09	231.53
