SpectraSuite Data File
++++++++++++++++++++++++++++++++++++
Date: Fri Feb 01 15:48:27 EST 2013
User: group
Dark Spectrum Present: No
Reference Spectrum Present: No
Number of Sampled Component Spectra: 1
Spectrometers: USB2E7196
Integration Time (usec): 35000 (USB2E7196)
Spectra Averaged: 100 (USB2E7196)
Boxcar Smoothing: 10 (USB2E7196)
Correct for Electrical Dark: No (USB2E7196)
Strobe/Lamp Enabled: No (USB2E7196)
Correct for Detector Non-linearity: No (USB2E7196)
Correct for Stray Light: No (USB2E7196)
Number of Pixels in Processed Spectrum: 2048
>>>>>Begin Processed Spectral Data<<<<<
339.09	0.00
339.48	214.31
339.86	216.57
340.24	217.93
340.63	219.34
341.01	222.33
341.39	221.96
341.78	223.07
342.16	224.14
342.54	224.79
342.93	213.20
343.31	224.01
343.69	224.58
344.07	225.05
344.46	225.47
344.84	225.86
345.22	226.07
345.60	226.32
345.99	226.53
346.37	226.68
346.75	226.79
347.13	226.86
347.52	226.90
347.90	226.94
348.28	226.97
348.66	227.02
349.05	227.03
349.43	227.06
349.81	227.08
350.19	227.17
350.57	227.25
350.96	227.31
351.34	227.35
351.72	227.43
352.10	227.51
352.48	227.57
352.87	227.62
353.25	227.69
353.63	227.72
354.01	227.78
354.39	227.85
354.77	227.92
355.15	228.02
355.54	228.09
355.92	228.14
356.30	228.21
356.68	228.33
357.06	228.42
357.44	228.47
357.82	228.52
358.20	228.58
358.58	228.62
358.97	228.69
359.35	228.79
359.73	228.87
360.11	228.93
360.49	228.94
360.87	228.97
361.25	229.02
361.63	229.12
362.01	229.12
362.39	229.17
362.77	229.20
363.15	229.21
363.53	229.24
363.91	229.26
364.29	229.29
364.67	229.19
365.05	229.18
365.43	229.23
365.81	229.25
366.19	229.29
366.57	229.31
366.95	229.31
367.33	229.25
367.71	229.23
368.09	229.23
368.47	229.21
368.85	229.17
369.23	229.17
369.61	229.12
369.99	229.14
370.37	229.11
370.75	229.11
371.13	229.06
371.51	229.01
371.89	229.02
372.27	228.96
372.65	228.95
373.03	228.90
373.41	228.82
373.78	228.74
374.16	228.64
374.54	228.56
374.92	228.51
375.30	228.46
375.68	228.38
376.06	228.32
376.44	228.28
376.82	228.24
377.19	228.13
377.57	228.04
377.95	227.91
378.33	227.84
378.71	227.76
379.09	227.68
379.47	227.64
379.84	227.54
380.22	227.44
380.60	227.35
380.98	227.29
381.36	227.21
381.73	227.17
382.11	227.10
382.49	227.06
382.87	226.98
383.25	226.93
383.62	227.00
384.00	226.90
384.38	226.86
384.76	226.86
385.13	226.89
385.51	226.82
385.89	226.80
386.27	226.73
386.64	226.69
387.02	226.67
387.40	226.60
387.78	226.55
388.15	226.52
388.53	226.50
388.91	226.46
389.29	226.43
389.66	226.44
390.04	226.42
390.42	226.41
390.79	226.41
391.17	226.40
391.55	226.28
391.92	226.29
392.30	226.30
392.68	226.26
393.05	226.27
393.43	226.29
393.81	226.27
394.18	226.27
394.56	226.30
394.94	226.34
395.31	226.37
395.69	226.48
396.06	226.56
396.44	226.59
396.82	226.61
397.19	226.71
397.57	226.74
397.95	226.81
398.32	226.84
398.70	226.90
399.07	226.96
399.45	227.02
399.82	227.06
400.20	227.10
400.58	227.18
400.95	227.20
401.33	227.30
401.70	227.46
402.08	227.52
402.45	227.58
402.83	227.70
403.20	227.80
403.58	227.83
403.95	227.93
404.33	228.08
404.71	228.21
405.08	228.36
405.46	228.48
405.83	228.60
406.21	228.71
406.58	228.83
406.96	228.99
407.33	229.15
407.70	229.36
408.08	229.64
408.45	229.83
408.83	230.09
409.20	230.30
409.58	230.48
409.95	230.77
410.33	231.05
410.70	231.26
411.08	231.56
411.45	231.88
411.82	232.18
412.20	232.55
412.57	232.94
412.95	233.27
413.32	233.69
413.69	234.10
414.07	234.53
414.44	235.02
414.82	235.48
415.19	236.01
415.56	236.53
415.94	237.07
416.31	237.71
416.68	238.30
417.06	239.03
417.43	239.72
417.81	240.49
418.18	241.26
418.55	242.13
418.93	242.98
419.30	243.87
419.67	244.81
420.04	245.71
420.42	246.73
420.79	247.90
421.16	249.01
421.54	250.21
421.91	251.46
422.28	252.71
422.66	254.06
423.03	255.37
423.40	256.74
423.77	258.16
424.15	259.60
424.52	261.10
424.89	262.67
425.26	264.21
425.64	265.66
426.01	267.24
426.38	268.89
426.75	270.57
427.13	272.29
427.50	274.06
427.87	275.94
428.24	277.81
428.61	279.55
428.99	281.51
429.36	283.63
429.73	285.71
430.10	287.76
430.47	289.82
430.85	291.95
431.22	294.18
431.59	296.56
431.96	298.82
432.33	301.34
432.70	303.76
433.08	306.56
433.45	309.22
433.82	311.83
434.19	314.70
434.56	317.53
434.93	320.19
435.30	322.87
435.68	325.78
436.05	328.64
436.42	331.44
436.79	333.99
437.16	336.70
437.53	339.54
437.90	342.36
438.27	345.13
438.64	348.01
439.01	350.63
439.38	352.89
439.75	355.09
440.13	357.54
440.50	359.85
440.87	361.67
441.24	363.63
441.61	365.81
441.98	367.31
442.35	369.12
442.72	371.02
443.09	372.80
443.46	373.79
443.83	374.32
444.20	374.83
444.57	375.65
444.94	375.92
445.31	376.25
445.68	376.59
446.05	376.64
446.42	376.22
446.79	375.77
447.16	375.26
447.53	374.92
447.90	373.77
448.27	372.60
448.64	371.02
449.01	369.82
449.37	367.85
449.74	365.95
450.11	363.69
450.48	361.19
450.85	358.68
451.22	356.54
451.59	354.52
451.96	352.60
452.33	350.00
452.70	347.64
453.07	344.79
453.43	341.85
453.80	339.08
454.17	336.40
454.54	333.82
454.91	331.14
455.28	328.41
455.65	325.90
456.02	323.42
456.38	321.29
456.75	318.66
457.12	316.41
457.49	314.17
457.86	311.99
458.23	310.16
458.59	308.06
458.96	305.96
459.33	304.10
459.70	302.20
460.07	300.66
460.43	298.92
460.80	297.26
461.17	295.81
461.54	294.31
461.91	292.85
462.27	291.40
462.64	290.12
463.01	288.81
463.38	287.50
463.74	286.16
464.11	285.04
464.48	284.00
464.85	282.89
465.21	282.03
465.58	281.09
465.95	279.95
466.32	279.08
466.68	278.21
467.05	277.32
467.42	276.43
467.78	275.50
468.15	274.64
468.52	274.01
468.88	273.16
469.25	272.40
469.62	271.79
469.98	271.12
470.35	270.48
470.72	269.88
471.08	269.23
471.45	268.67
471.82	268.11
472.18	267.50
472.55	267.04
472.92	266.52
473.28	266.07
473.65	265.62
474.02	265.18
474.38	264.79
474.75	264.50
475.11	264.17
475.48	263.92
475.85	263.70
476.21	263.48
476.58	263.32
476.94	263.19
477.31	263.04
477.67	262.94
478.04	262.87
478.41	262.78
478.77	262.84
479.14	262.79
479.50	262.82
479.87	262.93
480.23	263.04
480.60	263.10
480.96	263.18
481.33	263.38
481.69	263.64
482.06	263.82
482.42	263.99
482.79	264.23
483.15	264.57
483.52	264.98
483.88	265.31
484.25	265.69
484.61	266.06
484.98	266.54
485.34	267.09
485.71	267.65
486.07	268.27
486.44	268.82
486.80	269.56
487.17	270.30
487.53	271.07
487.90	271.93
488.26	272.88
488.62	273.90
488.99	274.92
489.35	275.94
489.72	277.15
490.08	278.35
490.44	279.62
490.81	280.96
491.17	282.31
491.54	283.78
491.90	285.33
492.26	287.00
492.63	288.75
492.99	290.54
493.36	292.44
493.72	294.45
494.08	296.60
494.45	298.86
494.81	301.22
495.17	303.69
495.54	306.24
495.90	308.94
496.26	311.71
496.63	314.69
496.99	317.80
497.35	321.02
497.72	324.44
498.08	327.90
498.44	331.58
498.80	335.52
499.17	339.60
499.53	343.82
499.89	348.23
500.26	352.75
500.62	357.44
500.98	362.44
501.34	367.56
501.71	372.84
502.07	378.25
502.43	383.89
502.79	389.75
503.16	395.86
503.52	402.12
503.88	408.55
504.24	415.17
504.60	422.04
504.97	429.20
505.33	436.51
505.69	444.28
506.05	452.06
506.41	459.89
506.78	468.05
507.14	476.46
507.50	485.21
507.86	494.22
508.22	503.41
508.59	512.62
508.95	522.25
509.31	532.10
509.67	542.28
510.03	552.54
510.39	563.06
510.75	573.81
511.12	584.82
511.48	596.12
511.84	607.62
512.20	619.11
512.56	631.02
512.92	643.20
513.28	655.57
513.64	668.06
514.00	680.79
514.37	693.72
514.73	706.79
515.09	719.85
515.45	733.13
515.81	746.68
516.17	760.66
516.53	774.76
516.89	788.90
517.25	803.08
517.61	817.45
517.97	831.96
518.33	846.37
518.69	861.12
519.05	876.07
519.41	891.16
519.77	906.76
520.13	922.19
520.49	937.59
520.85	953.06
521.21	968.82
521.57	985.01
521.93	1000.80
522.29	1017.19
522.65	1033.35
523.01	1049.58
523.37	1065.53
523.73	1081.64
524.09	1097.73
524.45	1114.06
524.81	1130.65
525.17	1147.48
525.53	1164.31
525.89	1181.15
526.25	1197.97
526.61	1214.36
526.97	1231.10
527.33	1247.52
527.68	1264.16
528.04	1280.70
528.40	1297.19
528.76	1314.15
529.12	1330.83
529.48	1347.66
529.84	1363.73
530.20	1380.39
530.56	1397.45
530.91	1414.99
531.27	1431.83
531.63	1448.27
531.99	1464.91
532.35	1480.92
532.71	1496.79
533.07	1513.01
533.42	1529.02
533.78	1545.10
534.14	1561.37
534.50	1576.72
534.86	1592.71
535.21	1607.75
535.57	1623.57
535.93	1639.09
536.29	1653.90
536.65	1668.87
537.00	1683.73
537.36	1698.96
537.72	1713.52
538.08	1727.89
538.44	1741.57
538.79	1755.47
539.15	1769.17
539.51	1782.83
539.87	1797.01
540.22	1810.83
540.58	1824.57
540.94	1837.90
541.29	1850.75
541.65	1863.44
542.01	1876.63
542.37	1888.86
542.72	1901.38
543.08	1913.14
543.44	1925.51
543.79	1936.78
544.15	1947.75
544.51	1959.28
544.87	1970.29
545.22	1980.97
545.58	1991.08
545.94	2000.88
546.29	2010.70
546.65	2020.51
547.01	2029.75
547.36	2038.57
547.72	2047.01
548.07	2054.85
548.43	2062.97
548.79	2070.99
549.14	2078.52
549.50	2085.87
549.86	2093.61
550.21	2100.95
550.57	2108.15
550.92	2114.72
551.28	2121.64
551.64	2128.71
551.99	2135.09
552.35	2141.29
552.70	2147.49
553.06	2153.56
553.41	2159.92
553.77	2165.93
554.13	2172.13
554.48	2178.32
554.84	2183.67
555.19	2188.98
555.55	2194.16
555.90	2198.73
556.26	2203.60
556.61	2208.31
556.97	2212.58
557.32	2216.68
557.68	2220.69
558.03	2224.89
558.39	2228.59
558.74	2233.28
559.10	2237.10
559.45	2240.85
559.81	2245.16
560.16	2249.00
560.52	2252.27
560.87	2255.64
561.23	2258.35
561.58	2261.17
561.94	2263.66
562.29	2266.11
562.64	2268.66
563.00	2271.35
563.35	2274.75
563.71	2277.90
564.06	2281.20
564.42	2284.13
564.77	2286.63
565.12	2288.82
565.48	2290.84
565.83	2292.74
566.19	2294.11
566.54	2295.15
566.89	2296.23
567.25	2296.65
567.60	2297.92
567.96	2299.55
568.31	2300.49
568.66	2301.52
569.02	2302.16
569.37	2302.46
569.72	2303.29
570.08	2303.60
570.43	2303.52
570.78	2302.72
571.14	2301.04
571.49	2299.70
571.84	2299.20
572.20	2297.98
572.55	2297.09
572.90	2295.52
573.26	2294.04
573.61	2292.37
573.96	2290.50
574.31	2287.60
574.67	2284.67
575.02	2280.97
575.37	2277.55
575.72	2273.72
576.08	2270.49
576.43	2267.08
576.78	2263.37
577.13	2260.27
577.49	2257.12
577.84	2253.72
578.19	2250.25
578.54	2246.65
578.90	2242.32
579.25	2236.81
579.60	2231.84
579.95	2226.88
580.30	2221.86
580.66	2216.81
581.01	2211.67
581.36	2206.63
581.71	2202.31
582.06	2197.80
582.42	2193.34
582.77	2188.11
583.12	2183.35
583.47	2178.52
583.82	2173.48
584.17	2168.33
584.53	2162.76
584.88	2157.19
585.23	2151.35
585.58	2145.88
585.93	2140.54
586.28	2135.83
586.63	2130.74
586.98	2125.77
587.34	2120.96
587.69	2115.97
588.04	2110.46
588.39	2104.83
588.74	2098.46
589.09	2092.45
589.44	2085.63
589.79	2079.74
590.14	2074.04
590.49	2067.62
590.84	2061.27
591.19	2055.33
591.54	2048.79
591.89	2041.40
592.25	2034.47
592.60	2027.10
592.95	2019.36
593.30	2011.81
593.65	2004.22
594.00	1997.23
594.35	1990.00
594.70	1982.14
595.05	1974.91
595.40	1967.80
595.75	1960.31
596.10	1954.15
596.45	1947.29
596.80	1941.21
597.15	1934.51
597.50	1927.47
597.85	1921.09
598.19	1914.34
598.54	1907.13
598.89	1900.40
599.24	1894.48
599.59	1887.75
599.94	1881.73
600.29	1875.42
600.64	1868.95
600.99	1861.41
601.34	1854.61
601.69	1847.66
602.04	1840.52
602.39	1833.13
602.74	1826.18
603.08	1819.49
603.43	1812.66
603.78	1805.48
604.13	1798.12
604.48	1790.84
604.83	1784.03
605.18	1776.90
605.53	1768.94
605.87	1760.87
606.22	1753.73
606.57	1745.77
606.92	1738.54
607.27	1731.19
607.62	1724.38
607.96	1716.97
608.31	1710.33
608.66	1702.70
609.01	1695.03
609.36	1687.53
609.70	1679.71
610.05	1671.71
610.40	1663.98
610.75	1655.69
611.10	1647.91
611.44	1639.64
611.79	1631.66
612.14	1622.91
612.49	1613.79
612.83	1605.48
613.18	1597.47
613.53	1589.32
613.88	1580.84
614.22	1572.40
614.57	1563.87
614.92	1555.71
615.27	1548.17
615.61	1539.93
615.96	1531.80
616.31	1524.19
616.65	1516.78
617.00	1509.22
617.35	1501.65
617.70	1493.33
618.04	1484.79
618.39	1476.56
618.74	1468.92
619.08	1460.59
619.43	1453.14
619.78	1446.28
620.12	1439.06
620.47	1431.48
620.82	1423.34
621.16	1415.95
621.51	1408.46
621.85	1400.87
622.20	1392.31
622.55	1384.03
622.89	1376.11
623.24	1368.55
623.59	1361.19
623.93	1353.70
624.28	1346.43
624.62	1338.77
624.97	1331.62
625.32	1324.91
625.66	1317.96
626.01	1310.76
626.35	1303.24
626.70	1295.44
627.04	1287.68
627.39	1279.89
627.73	1272.54
628.08	1265.60
628.43	1258.15
628.77	1250.66
629.12	1243.10
629.46	1236.05
629.81	1228.61
630.15	1221.37
630.50	1213.89
630.84	1205.64
631.19	1197.66
631.53	1190.17
631.88	1182.63
632.22	1174.98
632.57	1167.63
632.91	1160.01
633.26	1152.60
633.60	1145.29
633.95	1138.11
634.29	1131.12
634.64	1124.42
634.98	1117.03
635.32	1109.94
635.67	1103.45
636.01	1096.92
636.36	1090.10
636.70	1083.55
637.05	1077.06
637.39	1070.63
637.73	1064.04
638.08	1058.19
638.42	1052.24
638.77	1045.82
639.11	1039.18
639.45	1032.86
639.80	1026.16
640.14	1019.81
640.49	1013.30
640.83	1007.06
641.17	1000.81
641.52	994.37
641.86	988.00
642.20	982.11
642.55	975.81
642.89	969.22
643.23	962.68
643.58	956.91
643.92	950.66
644.26	944.40
644.61	938.41
644.95	932.53
645.29	925.90
645.64	919.19
645.98	912.76
646.32	906.98
646.66	900.98
647.01	895.27
647.35	889.50
647.69	883.59
648.04	877.96
648.38	872.12
648.72	866.12
649.06	859.96
649.41	854.11
649.75	848.02
650.09	842.11
650.43	836.31
650.78	830.16
651.12	824.28
651.46	818.64
651.80	812.85
652.14	807.43
652.49	802.05
652.83	796.82
653.17	791.10
653.51	785.38
653.85	779.93
654.20	774.27
654.54	768.33
654.88	762.60
655.22	756.71
655.56	751.07
655.90	745.70
656.25	740.45
656.59	735.07
656.93	730.03
657.27	724.96
657.61	719.54
657.95	714.50
658.29	709.41
658.64	704.12
658.98	698.84
659.32	693.40
659.66	688.12
660.00	682.81
660.34	677.94
660.68	672.99
661.02	667.88
661.36	663.12
661.70	658.58
662.05	654.26
662.39	649.95
662.73	645.50
663.07	641.07
663.41	636.65
663.75	632.19
664.09	627.67
664.43	623.25
664.77	619.09
665.11	614.79
665.45	610.64
665.79	606.64
666.13	602.45
666.47	598.38
666.81	594.30
667.15	590.21
667.49	586.37
667.83	582.58
668.17	578.70
668.51	574.67
668.85	570.70
669.19	566.88
669.53	563.05
669.87	559.14
670.21	555.46
670.55	551.78
670.89	548.29
671.23	544.83
671.57	541.28
671.91	537.77
672.25	534.28
672.58	530.76
672.92	527.34
673.26	524.19
673.60	521.06
673.94	517.97
674.28	515.10
674.62	512.11
674.96	509.05
675.30	506.12
675.64	503.16
675.97	500.35
676.31	497.49
676.65	494.55
676.99	491.86
677.33	488.98
677.67	486.18
678.01	483.17
678.34	480.21
678.68	477.33
679.02	474.49
679.36	471.70
679.70	469.00
680.04	466.23
680.37	463.32
680.71	460.51
681.05	457.87
681.39	455.10
681.73	452.41
682.06	449.88
682.40	447.34
682.74	444.90
683.08	442.37
683.42	439.74
683.75	437.21
684.09	434.64
684.43	432.17
684.77	429.75
685.10	427.42
685.44	425.14
685.78	422.84
686.12	420.59
686.45	418.38
686.79	416.02
687.13	413.84
687.46	411.71
687.80	409.54
688.14	407.34
688.48	405.24
688.81	403.00
689.15	400.79
689.49	398.65
689.82	396.51
690.16	394.41
690.50	392.47
690.83	390.55
691.17	388.63
691.51	386.75
691.84	384.87
692.18	382.88
692.52	380.89
692.85	378.94
693.19	377.06
693.52	375.17
693.86	373.41
694.20	371.66
694.53	369.87
694.87	368.05
695.21	366.31
695.54	364.55
695.88	362.79
696.21	361.11
696.55	359.42
696.88	357.74
697.22	356.07
697.56	354.46
697.89	352.79
698.23	351.16
698.56	349.55
698.90	347.94
699.23	346.33
699.57	344.78
699.90	343.29
700.24	341.75
700.58	340.28
700.91	338.76
701.25	337.24
701.58	335.87
701.92	334.49
702.25	333.08
702.59	331.66
702.92	330.34
703.26	329.01
703.59	327.75
703.93	326.55
704.26	325.37
704.60	324.03
704.93	322.79
705.26	321.51
705.60	320.34
705.93	319.23
706.27	318.17
706.60	317.10
706.94	316.03
707.27	314.93
707.61	313.80
707.94	312.80
708.27	311.74
708.61	310.67
708.94	309.67
709.28	308.70
709.61	307.76
709.94	306.82
710.28	305.79
710.61	304.74
710.95	303.66
711.28	302.69
711.61	301.80
711.95	300.87
712.28	299.95
712.61	298.99
712.95	298.04
713.28	297.17
713.61	296.30
713.95	295.39
714.28	294.52
714.61	293.66
714.95	292.78
715.28	291.92
715.61	291.02
715.95	290.15
716.28	289.31
716.61	288.51
716.95	287.68
717.28	286.98
717.61	286.27
717.94	285.52
718.28	284.72
718.61	283.95
718.94	283.26
719.27	282.59
719.61	281.90
719.94	281.20
720.27	280.49
720.60	279.82
720.94	279.19
721.27	278.55
721.60	277.98
721.93	277.34
722.27	276.79
722.60	276.26
722.93	275.69
723.26	275.11
723.59	274.53
723.93	274.00
724.26	273.39
724.59	272.79
724.92	272.29
725.25	271.83
725.59	271.28
725.92	270.76
726.25	270.23
726.58	269.77
726.91	269.29
727.24	268.82
727.57	268.36
727.91	267.87
728.24	267.43
728.57	266.95
728.90	266.55
729.23	266.03
729.56	265.62
729.89	265.16
730.22	264.69
730.55	264.21
730.89	263.77
731.22	263.36
731.55	262.97
731.88	262.55
732.21	262.07
732.54	261.67
732.87	261.25
733.20	260.84
733.53	260.45
733.86	260.08
734.19	259.68
734.52	259.27
734.85	258.94
735.18	258.53
735.51	258.17
735.84	257.78
736.17	257.47
736.50	257.05
736.83	256.83
737.16	256.49
737.49	256.20
737.82	255.84
738.15	255.51
738.48	255.13
738.81	254.80
739.14	254.51
739.47	254.22
739.80	253.92
740.13	253.61
740.46	253.26
740.79	252.95
741.12	252.64
741.45	252.34
741.78	252.00
742.11	251.70
742.44	251.39
742.77	251.13
743.10	250.84
743.43	250.54
743.75	250.15
744.08	250.02
744.41	249.76
744.74	249.50
745.07	249.19
745.40	249.00
745.73	248.77
746.06	248.47
746.39	248.19
746.71	247.91
747.04	247.63
747.37	247.39
747.70	247.15
748.03	246.92
748.36	246.69
748.68	246.46
749.01	246.22
749.34	246.01
749.67	245.79
750.00	245.54
750.33	245.41
750.65	245.20
750.98	244.91
751.31	244.68
751.64	244.46
751.97	244.32
752.29	244.10
752.62	243.84
752.95	243.65
753.28	243.43
753.60	243.27
753.93	243.10
754.26	242.91
754.59	242.66
754.91	242.45
755.24	242.25
755.57	242.04
755.90	241.85
756.22	241.64
756.55	241.43
756.88	241.26
757.20	241.02
757.53	240.81
757.86	240.62
758.19	240.48
758.51	240.34
758.84	240.12
759.17	239.95
759.49	239.80
759.82	239.70
760.15	239.58
760.47	239.44
760.80	239.28
761.13	239.16
761.45	239.04
761.78	238.92
762.11	238.78
762.43	238.66
762.76	238.54
763.08	238.43
763.41	238.32
763.74	238.17
764.06	238.06
764.39	237.95
764.71	237.77
765.04	237.61
765.37	237.48
765.69	237.34
766.02	237.20
766.34	237.04
766.67	236.89
767.00	236.76
767.32	236.68
767.65	236.63
767.97	236.48
768.30	236.36
768.62	236.26
768.95	236.13
769.27	236.02
769.60	235.93
769.92	235.83
770.25	235.67
770.57	235.55
770.90	235.44
771.22	235.31
771.55	235.26
771.87	235.17
772.20	235.03
772.52	235.01
772.85	235.05
773.17	234.99
773.50	234.90
773.82	234.81
774.15	234.69
774.47	234.54
774.80	234.44
775.12	234.38
775.45	234.25
775.77	234.18
776.09	234.10
776.42	234.00
776.74	233.91
777.07	233.85
777.39	233.80
777.72	233.70
778.04	233.66
778.36	233.56
778.69	233.49
779.01	233.48
779.33	233.33
779.66	233.13
779.98	233.06
780.31	232.99
780.63	232.96
780.95	232.93
781.28	232.84
781.60	232.80
781.92	232.73
782.25	232.68
782.57	232.60
782.89	232.51
783.22	232.45
783.54	232.37
783.86	232.34
784.19	232.25
784.51	232.22
784.83	232.13
785.16	232.08
785.48	232.04
785.80	231.95
786.12	231.95
786.45	231.94
786.77	231.89
787.09	231.81
