SpectraSuite Data File
++++++++++++++++++++++++++++++++++++
Date: Fri Feb 01 17:19:24 EST 2013
User: group
Dark Spectrum Present: No
Reference Spectrum Present: No
Number of Sampled Component Spectra: 1
Spectrometers: USB2E7196
Integration Time (usec): 35000 (USB2E7196)
Spectra Averaged: 100 (USB2E7196)
Boxcar Smoothing: 10 (USB2E7196)
Correct for Electrical Dark: No (USB2E7196)
Strobe/Lamp Enabled: No (USB2E7196)
Correct for Detector Non-linearity: No (USB2E7196)
Correct for Stray Light: No (USB2E7196)
Number of Pixels in Processed Spectrum: 2048
>>>>>Begin Processed Spectral Data<<<<<
339.09	0.00
339.48	212.52
339.86	213.92
340.24	216.06
340.63	216.72
341.01	220.24
341.39	219.20
341.78	220.69
342.16	222.68
342.54	222.44
342.93	211.21
343.31	221.86
343.69	222.40
344.07	222.89
344.46	223.30
344.84	223.67
345.22	223.91
345.60	224.18
345.99	224.38
346.37	224.49
346.75	224.60
347.13	224.67
347.52	224.71
347.90	224.81
348.28	224.83
348.66	224.86
349.05	224.87
349.43	224.90
349.81	224.93
350.19	224.96
350.57	225.00
350.96	225.09
351.34	225.18
351.72	225.29
352.10	225.38
352.48	225.45
352.87	225.55
353.25	225.62
353.63	225.69
354.01	225.75
354.39	225.86
354.77	225.94
355.15	226.08
355.54	226.14
355.92	226.15
356.30	226.23
356.68	226.34
357.06	226.44
357.44	226.55
357.82	226.65
358.20	226.76
358.58	226.81
358.97	226.84
359.35	226.94
359.73	227.01
360.11	227.07
360.49	227.14
360.87	227.16
361.25	227.21
361.63	227.31
362.01	227.38
362.39	227.42
362.77	227.48
363.15	227.54
363.53	227.60
363.91	227.63
364.29	227.69
364.67	227.66
365.05	227.66
365.43	227.66
365.81	227.69
366.19	227.75
366.57	227.79
366.95	227.83
367.33	227.78
367.71	227.80
368.09	227.82
368.47	227.80
368.85	227.81
369.23	227.80
369.61	227.73
369.99	227.72
370.37	227.68
370.75	227.69
371.13	227.61
371.51	227.57
371.89	227.55
372.27	227.43
372.65	227.40
373.03	227.37
373.41	227.32
373.78	227.24
374.16	227.13
374.54	227.05
374.92	226.97
375.30	226.92
375.68	226.83
376.06	226.76
376.44	226.68
376.82	226.61
377.19	226.54
377.57	226.47
377.95	226.40
378.33	226.34
378.71	226.21
379.09	226.17
379.47	226.09
379.84	226.01
380.22	225.96
380.60	225.86
380.98	225.74
381.36	225.65
381.73	225.56
382.11	225.53
382.49	225.44
382.87	225.36
383.25	225.28
383.62	225.34
384.00	225.26
384.38	225.23
384.76	225.18
385.13	225.12
385.51	225.07
385.89	224.97
386.27	224.93
386.64	224.90
387.02	224.84
387.40	224.81
387.78	224.76
388.15	224.73
388.53	224.70
388.91	224.68
389.29	224.66
389.66	224.66
390.04	224.60
390.42	224.57
390.79	224.57
391.17	224.57
391.55	224.44
391.92	224.43
392.30	224.38
392.68	224.37
393.05	224.39
393.43	224.43
393.81	224.44
394.18	224.43
394.56	224.40
394.94	224.42
395.31	224.42
395.69	224.47
396.06	224.51
396.44	224.51
396.82	224.56
397.19	224.63
397.57	224.66
397.95	224.73
398.32	224.77
398.70	224.83
399.07	224.90
399.45	224.93
399.82	224.98
400.20	225.04
400.58	225.09
400.95	225.12
401.33	225.20
401.70	225.32
402.08	225.37
402.45	225.46
402.83	225.60
403.20	225.72
403.58	225.78
403.95	225.93
404.33	226.07
404.71	226.17
405.08	226.37
405.46	226.49
405.83	226.66
406.21	226.81
406.58	226.97
406.96	227.10
407.33	227.30
407.70	227.55
408.08	227.84
408.45	228.09
408.83	228.33
409.20	228.52
409.58	228.71
409.95	229.01
410.33	229.32
410.70	229.54
411.08	229.89
411.45	230.24
411.82	230.54
412.20	230.92
412.57	231.37
412.95	231.65
413.32	232.11
413.69	232.51
414.07	232.97
414.44	233.46
414.82	233.97
415.19	234.57
415.56	235.08
415.94	235.65
416.31	236.28
416.68	236.93
417.06	237.70
417.43	238.45
417.81	239.25
418.18	240.04
418.55	240.92
418.93	241.80
419.30	242.72
419.67	243.69
420.04	244.68
420.42	245.68
420.79	246.92
421.16	248.08
421.54	249.30
421.91	250.57
422.28	251.89
422.66	253.24
423.03	254.55
423.40	255.96
423.77	257.41
424.15	258.87
424.52	260.43
424.89	262.07
425.26	263.62
425.64	265.10
426.01	266.75
426.38	268.46
426.75	270.16
427.13	271.95
427.50	273.81
427.87	275.75
428.24	277.66
428.61	279.46
428.99	281.47
429.36	283.65
429.73	285.79
430.10	287.82
430.47	289.96
430.85	292.13
431.22	294.42
431.59	296.86
431.96	299.17
432.33	301.68
432.70	304.16
433.08	307.03
433.45	309.77
433.82	312.48
434.19	315.41
434.56	318.32
434.93	321.07
435.30	323.75
435.68	326.71
436.05	329.57
436.42	332.37
436.79	334.94
437.16	337.68
437.53	340.57
437.90	343.42
438.27	346.28
438.64	349.18
439.01	351.87
439.38	354.19
439.75	356.42
440.13	358.99
440.50	361.38
440.87	363.32
441.24	365.25
441.61	367.51
441.98	369.08
442.35	370.90
442.72	372.80
443.09	374.71
443.46	375.78
443.83	376.46
444.20	377.06
444.57	377.94
444.94	378.28
445.31	378.62
445.68	379.04
446.05	379.12
446.42	378.78
446.79	378.35
447.16	377.90
447.53	377.62
447.90	376.46
448.27	375.27
448.64	373.71
449.01	372.57
449.37	370.49
449.74	368.49
450.11	366.23
450.48	363.68
450.85	361.06
451.22	358.82
451.59	356.73
451.96	354.71
452.33	352.03
452.70	349.61
453.07	346.72
453.43	343.76
453.80	340.91
454.17	338.14
454.54	335.50
454.91	332.70
455.28	329.91
455.65	327.37
456.02	324.85
456.38	322.58
456.75	319.84
457.12	317.54
457.49	315.29
457.86	313.05
458.23	311.18
458.59	309.07
458.96	306.92
459.33	305.01
459.70	303.12
460.07	301.53
460.43	299.75
460.80	298.08
461.17	296.61
461.54	295.05
461.91	293.59
462.27	292.12
462.64	290.84
463.01	289.46
463.38	288.14
463.74	286.73
464.11	285.52
464.48	284.51
464.85	283.38
465.21	282.49
465.58	281.56
465.95	280.41
466.32	279.50
466.68	278.61
467.05	277.72
467.42	276.79
467.78	275.89
468.15	274.98
468.52	274.36
468.88	273.47
469.25	272.69
469.62	272.03
469.98	271.36
470.35	270.70
470.72	270.10
471.08	269.38
471.45	268.87
471.82	268.35
472.18	267.72
472.55	267.27
472.92	266.75
473.28	266.29
473.65	265.87
474.02	265.38
474.38	264.95
474.75	264.59
475.11	264.23
475.48	263.95
475.85	263.73
476.21	263.46
476.58	263.26
476.94	263.15
477.31	262.97
477.67	262.80
478.04	262.71
478.41	262.66
478.77	262.74
479.14	262.63
479.50	262.67
479.87	262.74
480.23	262.81
480.60	262.89
480.96	262.95
481.33	263.10
481.69	263.29
482.06	263.50
482.42	263.68
482.79	263.95
483.15	264.28
483.52	264.65
483.88	264.97
484.25	265.38
484.61	265.78
484.98	266.23
485.34	266.79
485.71	267.35
486.07	267.92
486.44	268.45
486.80	269.13
487.17	269.81
487.53	270.60
487.90	271.44
488.26	272.37
488.62	273.31
488.99	274.29
489.35	275.36
489.72	276.46
490.08	277.68
490.44	278.88
490.81	280.18
491.17	281.55
491.54	283.02
491.90	284.49
492.26	286.11
492.63	287.83
492.99	289.61
493.36	291.49
493.72	293.52
494.08	295.59
494.45	297.88
494.81	300.22
495.17	302.65
495.54	305.22
495.90	307.85
496.26	310.68
496.63	313.58
496.99	316.65
497.35	319.89
497.72	323.26
498.08	326.73
498.44	330.36
498.80	334.23
499.17	338.27
499.53	342.44
499.89	346.78
500.26	351.25
500.62	355.83
500.98	360.77
501.34	365.84
501.71	371.13
502.07	376.51
502.43	382.04
502.79	387.83
503.16	393.84
503.52	400.04
503.88	406.35
504.24	412.95
504.60	419.80
504.97	426.87
505.33	434.10
505.69	441.74
506.05	449.50
506.41	457.28
506.78	465.32
507.14	473.69
507.50	482.29
507.86	491.17
508.22	500.28
508.59	509.42
508.95	518.83
509.31	528.62
509.67	538.56
510.03	548.67
510.39	559.05
510.75	569.69
511.12	580.45
511.48	591.58
511.84	602.90
512.20	614.17
512.56	625.96
512.92	637.93
513.28	650.14
513.64	662.42
514.00	674.89
514.37	687.62
514.73	700.43
515.09	713.21
515.45	726.28
515.81	739.61
516.17	753.19
516.53	767.04
516.89	780.90
517.25	794.81
517.61	809.09
517.97	823.23
518.33	837.38
518.69	851.85
519.05	866.43
519.41	881.21
519.77	896.48
520.13	911.57
520.49	926.65
520.85	941.56
521.21	956.79
521.57	972.67
521.93	988.09
522.29	1004.12
522.65	1020.07
523.01	1035.87
523.37	1051.63
523.73	1067.52
524.09	1083.22
524.45	1099.09
524.81	1115.32
525.17	1131.64
525.53	1148.18
525.89	1164.62
526.25	1181.15
526.61	1197.25
526.97	1213.69
527.33	1229.75
527.68	1245.88
528.04	1261.95
528.40	1278.24
528.76	1295.00
529.12	1311.20
529.48	1327.79
529.84	1343.43
530.20	1359.70
530.56	1376.34
530.91	1393.35
531.27	1409.78
531.63	1425.98
531.99	1442.24
532.35	1458.04
532.71	1473.61
533.07	1489.55
533.42	1505.17
533.78	1520.85
534.14	1536.98
534.50	1552.03
534.86	1567.59
535.21	1582.63
535.57	1598.33
535.93	1613.59
536.29	1628.11
536.65	1643.01
537.00	1657.42
537.36	1672.53
537.72	1686.80
538.08	1701.04
538.44	1714.58
538.79	1728.24
539.15	1741.61
539.51	1755.10
539.87	1769.12
540.22	1782.71
540.58	1796.14
540.94	1809.27
541.29	1822.06
541.65	1834.44
542.01	1847.50
542.37	1859.83
542.72	1872.02
543.08	1883.74
543.44	1896.00
543.79	1907.25
544.15	1918.19
544.51	1929.81
544.87	1940.75
545.22	1951.54
545.58	1961.84
545.94	1971.66
546.29	1981.60
546.65	1991.68
547.01	2001.17
547.36	2010.05
547.72	2018.58
548.07	2026.85
548.43	2035.08
548.79	2043.08
549.14	2050.82
549.50	2058.39
549.86	2066.14
550.21	2073.65
550.57	2080.98
550.92	2087.81
551.28	2094.98
551.64	2102.28
551.99	2108.89
552.35	2115.13
552.70	2121.49
553.06	2127.72
553.41	2134.34
553.77	2140.45
554.13	2146.64
554.48	2152.82
554.84	2158.67
555.19	2164.15
555.55	2169.48
555.90	2174.35
556.26	2179.66
556.61	2184.64
556.97	2189.34
557.32	2193.76
557.68	2198.30
558.03	2202.81
558.39	2206.84
558.74	2211.71
559.10	2215.78
559.45	2219.64
559.81	2224.15
560.16	2228.23
560.52	2231.69
560.87	2235.28
561.23	2238.26
561.58	2241.24
561.94	2244.03
562.29	2246.42
562.64	2249.58
563.00	2252.40
563.35	2256.14
563.71	2259.47
564.06	2262.84
564.42	2265.94
564.77	2268.84
565.12	2271.45
565.48	2273.77
565.83	2276.02
566.19	2277.80
566.54	2278.98
566.89	2280.73
567.25	2281.97
567.60	2283.57
567.96	2285.71
568.31	2286.81
568.66	2288.33
569.02	2289.41
569.37	2290.14
569.72	2291.47
570.08	2292.10
570.43	2292.36
570.78	2292.21
571.14	2291.03
571.49	2290.00
571.84	2289.84
572.20	2288.98
572.55	2288.33
572.90	2287.05
573.26	2285.97
573.61	2284.45
573.96	2283.12
574.31	2280.37
574.67	2277.58
575.02	2274.40
575.37	2271.18
575.72	2267.88
576.08	2264.64
576.43	2261.57
576.78	2258.39
577.13	2255.46
577.49	2252.34
577.84	2249.40
578.19	2245.69
578.54	2242.48
578.90	2238.79
579.25	2233.71
579.60	2229.22
579.95	2224.42
580.30	2219.61
580.66	2214.70
581.01	2210.09
581.36	2205.42
581.71	2201.61
582.06	2197.56
582.42	2193.45
582.77	2188.64
583.12	2184.32
583.47	2180.27
583.82	2175.76
584.17	2170.81
584.53	2165.48
584.88	2160.17
585.23	2154.62
585.58	2149.49
585.93	2144.24
586.28	2139.60
586.63	2134.70
586.98	2129.74
587.34	2125.20
587.69	2120.67
588.04	2115.81
588.39	2110.40
588.74	2104.01
589.09	2098.06
589.44	2091.46
589.79	2085.39
590.14	2079.85
590.49	2073.55
590.84	2067.20
591.19	2061.22
591.54	2054.74
591.89	2047.72
592.25	2041.22
592.60	2034.22
592.95	2027.00
593.30	2019.89
593.65	2012.39
594.00	2005.45
594.35	1998.33
594.70	1990.32
595.05	1983.33
595.40	1975.94
595.75	1968.59
596.10	1962.68
596.45	1956.06
596.80	1950.09
597.15	1943.66
597.50	1936.77
597.85	1930.24
598.19	1923.71
598.54	1916.98
598.89	1910.50
599.24	1904.72
599.59	1898.37
599.94	1892.09
600.29	1885.81
600.64	1879.20
600.99	1871.93
601.34	1865.21
601.69	1858.24
602.04	1851.63
602.39	1844.16
602.74	1837.56
603.08	1830.92
603.43	1824.19
603.78	1816.96
604.13	1809.59
604.48	1802.51
604.83	1795.64
605.18	1789.02
605.53	1780.97
605.87	1772.94
606.22	1765.70
606.57	1757.75
606.92	1749.98
607.27	1743.01
607.62	1736.17
607.96	1729.03
608.31	1722.55
608.66	1714.99
609.01	1707.67
609.36	1700.17
609.70	1692.15
610.05	1684.05
610.40	1676.28
610.75	1667.93
611.10	1660.20
611.44	1651.76
611.79	1643.65
612.14	1635.01
612.49	1625.70
612.83	1617.30
613.18	1608.98
613.53	1600.81
613.88	1592.22
614.22	1584.11
614.57	1575.36
614.92	1567.21
615.27	1559.62
615.61	1551.27
615.96	1543.06
616.31	1535.16
616.65	1527.67
617.00	1520.12
617.35	1512.36
617.70	1504.04
618.04	1495.54
618.39	1487.17
618.74	1479.61
619.08	1471.13
619.43	1463.37
619.78	1456.30
620.12	1449.14
620.47	1441.60
620.82	1433.35
621.16	1425.82
621.51	1418.05
621.85	1410.25
622.20	1401.56
622.55	1392.98
622.89	1384.93
623.24	1377.29
623.59	1369.79
623.93	1362.07
624.28	1354.78
624.62	1347.21
624.97	1339.75
625.32	1332.80
625.66	1325.67
626.01	1318.43
626.35	1311.15
626.70	1303.36
627.04	1295.55
627.39	1287.60
627.73	1280.08
628.08	1273.14
628.43	1265.79
628.77	1258.48
629.12	1250.94
629.46	1243.84
629.81	1236.32
630.15	1228.89
630.50	1221.38
630.84	1213.11
631.19	1205.08
631.53	1197.36
631.88	1189.61
632.22	1182.09
632.57	1174.73
632.91	1167.16
633.26	1159.69
633.60	1152.03
633.95	1144.81
634.29	1137.70
634.64	1131.00
634.98	1123.60
635.32	1116.44
635.67	1109.65
636.01	1102.85
636.36	1096.07
636.70	1089.41
637.05	1082.71
637.39	1076.29
637.73	1069.69
638.08	1063.71
638.42	1057.75
638.77	1051.31
639.11	1044.76
639.45	1038.30
639.80	1031.65
640.14	1025.23
640.49	1018.59
640.83	1012.31
641.17	1006.13
641.52	999.82
641.86	993.14
642.20	987.19
642.55	980.68
642.89	974.23
643.23	967.56
643.58	961.65
643.92	955.40
644.26	949.42
644.61	943.28
644.95	937.31
645.29	930.77
645.64	923.94
645.98	917.57
646.32	911.59
646.66	905.49
647.01	899.64
647.35	893.79
647.69	887.87
648.04	882.22
648.38	876.32
648.72	870.34
649.06	864.38
649.41	858.45
649.75	852.53
650.09	846.55
650.43	840.77
650.78	834.60
651.12	828.63
651.46	822.87
651.80	817.20
652.14	811.74
652.49	806.36
652.83	801.22
653.17	795.57
653.51	789.91
653.85	784.52
654.20	778.91
654.54	772.96
654.88	767.14
655.22	761.20
655.56	755.43
655.90	749.84
656.25	744.60
656.59	739.24
656.93	734.13
657.27	728.99
657.61	723.54
657.95	718.33
658.29	713.22
658.64	707.89
658.98	702.42
659.32	696.87
659.66	691.63
660.00	686.28
660.34	681.20
660.68	676.19
661.02	671.04
661.36	666.26
661.70	661.74
662.05	657.39
662.39	653.10
662.73	648.62
663.07	644.19
663.41	639.70
663.75	635.21
664.09	630.57
664.43	626.10
664.77	621.97
665.11	617.72
665.45	613.46
665.79	609.36
666.13	605.25
666.47	601.16
666.81	596.94
667.15	592.74
667.49	588.77
667.83	584.86
668.17	580.91
668.51	576.82
668.85	572.73
669.19	568.83
669.53	564.97
669.87	561.08
670.21	557.39
670.55	553.69
670.89	550.19
671.23	546.78
671.57	543.19
671.91	539.73
672.25	536.14
672.58	532.62
672.92	529.19
673.26	526.01
673.60	522.78
673.94	519.69
674.28	516.69
674.62	513.83
674.96	510.86
675.30	507.99
675.64	505.04
675.97	502.17
676.31	499.32
676.65	496.35
676.99	493.62
677.33	490.68
677.67	487.86
678.01	484.80
678.34	481.82
678.68	478.96
679.02	476.00
679.36	473.24
679.70	470.56
680.04	467.81
680.37	464.96
680.71	462.12
681.05	459.46
681.39	456.80
681.73	454.07
682.06	451.52
682.40	448.93
682.74	446.32
683.08	443.75
683.42	441.08
683.75	438.62
684.09	436.04
684.43	433.58
684.77	431.14
685.10	428.75
685.44	426.40
685.78	424.09
686.12	421.86
686.45	419.56
686.79	417.22
687.13	414.96
687.46	412.76
687.80	410.64
688.14	408.37
688.48	406.29
688.81	404.05
689.15	401.80
689.49	399.63
689.82	397.55
690.16	395.47
690.50	393.51
690.83	391.50
691.17	389.50
691.51	387.58
691.84	385.70
692.18	383.81
692.52	381.87
692.85	379.94
693.19	378.02
693.52	376.14
693.86	374.31
694.20	372.50
694.53	370.66
694.87	368.78
695.21	367.01
695.54	365.11
695.88	363.35
696.21	361.62
696.55	359.87
696.88	358.14
697.22	356.46
697.56	354.81
697.89	353.19
698.23	351.59
698.56	349.96
698.90	348.35
699.23	346.69
699.57	345.11
699.90	343.50
700.24	341.95
700.58	340.42
700.91	338.91
701.25	337.43
701.58	336.08
701.92	334.65
702.25	333.24
702.59	331.90
702.92	330.56
703.26	329.20
703.59	327.94
703.93	326.71
704.26	325.45
704.60	324.14
704.93	322.79
705.26	321.52
705.60	320.28
705.93	319.10
706.27	317.98
706.60	316.89
706.94	315.78
707.27	314.61
707.61	313.50
707.94	312.46
708.27	311.36
708.61	310.20
708.94	309.23
709.28	308.20
709.61	307.21
709.94	306.17
710.28	305.17
710.61	304.16
710.95	303.08
711.28	302.12
711.61	301.15
711.95	300.24
712.28	299.24
712.61	298.26
712.95	297.27
713.28	296.37
713.61	295.45
713.95	294.54
714.28	293.71
714.61	292.87
714.95	291.97
715.28	291.09
715.61	290.20
715.95	289.32
716.28	288.48
716.61	287.65
716.95	286.85
717.28	286.07
717.61	285.29
717.94	284.56
718.28	283.79
718.61	283.05
718.94	282.35
719.27	281.69
719.61	281.04
719.94	280.38
720.27	279.66
720.60	278.96
720.94	278.34
721.27	277.69
721.60	277.09
721.93	276.51
722.27	275.95
722.60	275.45
722.93	274.85
723.26	274.27
723.59	273.69
723.93	273.13
724.26	272.55
724.59	271.98
724.92	271.44
725.25	270.92
725.59	270.38
725.92	269.88
726.25	269.36
726.58	268.86
726.91	268.37
727.24	267.92
727.57	267.49
727.91	266.95
728.24	266.47
728.57	265.96
728.90	265.51
729.23	265.01
729.56	264.53
729.89	264.06
730.22	263.60
730.55	263.13
730.89	262.70
731.22	262.29
731.55	261.87
731.88	261.42
732.21	261.00
732.54	260.59
732.87	260.12
733.20	259.70
733.53	259.29
733.86	258.90
734.19	258.47
734.52	258.06
734.85	257.76
735.18	257.37
735.51	257.02
735.84	256.65
736.17	256.29
736.50	255.90
736.83	255.67
737.16	255.33
737.49	255.00
737.82	254.63
738.15	254.29
738.48	253.95
738.81	253.64
739.14	253.28
739.47	252.94
739.80	252.69
740.13	252.41
740.46	252.08
740.79	251.77
741.12	251.48
741.45	251.16
741.78	250.83
742.11	250.55
742.44	250.21
742.77	249.88
743.10	249.58
743.43	249.28
743.75	248.87
744.08	248.74
744.41	248.47
744.74	248.18
745.07	247.88
745.40	247.64
745.73	247.42
746.06	247.16
746.39	246.91
746.71	246.57
747.04	246.29
747.37	246.00
747.70	245.74
748.03	245.49
748.36	245.25
748.68	244.99
749.01	244.71
749.34	244.52
749.67	244.30
750.00	244.08
750.33	243.93
750.65	243.70
750.98	243.32
751.31	243.07
751.64	242.89
751.97	242.70
752.29	242.48
752.62	242.16
752.95	241.94
753.28	241.71
753.60	241.51
753.93	241.31
754.26	241.13
754.59	240.90
754.91	240.67
755.24	240.46
755.57	240.27
755.90	240.06
756.22	239.82
756.55	239.59
756.88	239.38
757.20	239.13
757.53	238.95
757.86	238.80
758.19	238.63
758.51	238.45
758.84	238.24
759.17	238.02
759.49	237.92
759.82	237.81
760.15	237.65
760.47	237.51
760.80	237.33
761.13	237.18
761.45	237.02
761.78	236.87
762.11	236.72
762.43	236.56
762.76	236.42
763.08	236.31
763.41	236.18
763.74	236.02
764.06	235.86
764.39	235.73
764.71	235.61
765.04	235.48
765.37	235.36
765.69	235.25
766.02	235.15
766.34	235.00
766.67	234.84
767.00	234.76
767.32	234.68
767.65	234.61
767.97	234.50
768.30	234.36
768.62	234.24
768.95	234.09
769.27	233.98
769.60	233.88
769.92	233.74
770.25	233.62
770.57	233.54
770.90	233.48
771.22	233.36
771.55	233.21
771.87	233.10
772.20	232.97
772.52	232.91
772.85	232.92
773.17	232.82
773.50	232.70
773.82	232.55
774.15	232.38
774.47	232.26
774.80	232.15
775.12	232.09
775.45	232.02
775.77	231.97
776.09	231.91
776.42	231.83
776.74	231.80
777.07	231.77
777.39	231.70
777.72	231.60
778.04	231.55
778.36	231.51
778.69	231.47
779.01	231.41
779.33	231.29
779.66	231.10
779.98	231.03
780.31	230.98
780.63	231.00
780.95	230.99
781.28	230.95
781.60	230.88
781.92	230.80
782.25	230.73
782.57	230.68
782.89	230.60
783.22	230.55
783.54	230.45
783.86	230.37
784.19	230.34
784.51	230.30
784.83	230.23
785.16	230.15
785.48	230.06
785.80	230.01
786.12	229.97
786.45	229.90
786.77	229.90
787.09	229.87
