SpectraSuite Data File
++++++++++++++++++++++++++++++++++++
Date: Fri Feb 01 15:39:45 EST 2013
User: group
Dark Spectrum Present: No
Reference Spectrum Present: No
Number of Sampled Component Spectra: 1
Spectrometers: USB2E7196
Integration Time (usec): 35000 (USB2E7196)
Spectra Averaged: 100 (USB2E7196)
Boxcar Smoothing: 10 (USB2E7196)
Correct for Electrical Dark: No (USB2E7196)
Strobe/Lamp Enabled: No (USB2E7196)
Correct for Detector Non-linearity: No (USB2E7196)
Correct for Stray Light: No (USB2E7196)
Number of Pixels in Processed Spectrum: 2048
>>>>>Begin Processed Spectral Data<<<<<
339.09	0.00
339.48	214.39
339.86	216.61
340.24	217.46
340.63	219.57
341.01	221.87
341.39	221.66
341.78	222.77
342.16	224.10
342.54	225.47
342.93	213.20
343.31	223.96
343.69	224.52
344.07	224.97
344.46	225.41
344.84	225.76
345.22	226.00
345.60	226.28
345.99	226.50
346.37	226.64
346.75	226.71
347.13	226.76
347.52	226.86
347.90	226.95
348.28	226.96
348.66	227.01
349.05	227.05
349.43	227.09
349.81	227.13
350.19	227.20
350.57	227.27
350.96	227.37
351.34	227.46
351.72	227.57
352.10	227.64
352.48	227.69
352.87	227.77
353.25	227.83
353.63	227.88
354.01	227.94
354.39	228.04
354.77	228.11
355.15	228.22
355.54	228.25
355.92	228.26
356.30	228.34
356.68	228.46
357.06	228.51
357.44	228.56
357.82	228.62
358.20	228.68
358.58	228.69
358.97	228.75
359.35	228.84
359.73	228.89
360.11	228.98
360.49	229.04
360.87	229.06
361.25	229.10
361.63	229.17
362.01	229.20
362.39	229.18
362.77	229.23
363.15	229.24
363.53	229.25
363.91	229.30
364.29	229.31
364.67	229.27
365.05	229.29
365.43	229.33
365.81	229.34
366.19	229.36
366.57	229.39
366.95	229.36
367.33	229.31
367.71	229.26
368.09	229.24
368.47	229.21
368.85	229.21
369.23	229.21
369.61	229.14
369.99	229.15
370.37	229.14
370.75	229.14
371.13	229.08
371.51	229.02
371.89	228.97
372.27	228.93
372.65	228.87
373.03	228.81
373.41	228.68
373.78	228.60
374.16	228.50
374.54	228.43
374.92	228.39
375.30	228.34
375.68	228.25
376.06	228.18
376.44	228.10
376.82	228.02
377.19	227.94
377.57	227.86
377.95	227.72
378.33	227.64
378.71	227.49
379.09	227.44
379.47	227.37
379.84	227.29
380.22	227.19
380.60	227.08
380.98	227.03
381.36	226.98
381.73	226.90
382.11	226.81
382.49	226.76
382.87	226.65
383.25	226.57
383.62	226.66
384.00	226.60
384.38	226.56
384.76	226.52
385.13	226.50
385.51	226.43
385.89	226.41
386.27	226.37
386.64	226.35
387.02	226.30
387.40	226.27
387.78	226.27
388.15	226.27
388.53	226.27
388.91	226.24
389.29	226.25
389.66	226.29
390.04	226.29
390.42	226.29
390.79	226.28
391.17	226.30
391.55	226.21
391.92	226.19
392.30	226.22
392.68	226.18
393.05	226.17
393.43	226.21
393.81	226.21
394.18	226.21
394.56	226.21
394.94	226.26
395.31	226.26
395.69	226.31
396.06	226.34
396.44	226.37
396.82	226.40
397.19	226.49
397.57	226.50
397.95	226.59
398.32	226.60
398.70	226.68
399.07	226.77
399.45	226.80
399.82	226.89
400.20	226.93
400.58	227.04
400.95	227.10
401.33	227.16
401.70	227.33
402.08	227.42
402.45	227.54
402.83	227.66
403.20	227.79
403.58	227.90
403.95	228.03
404.33	228.14
404.71	228.29
405.08	228.47
405.46	228.60
405.83	228.74
406.21	228.89
406.58	229.06
406.96	229.23
407.33	229.41
407.70	229.62
408.08	229.92
408.45	230.13
408.83	230.36
409.20	230.60
409.58	230.78
409.95	231.04
410.33	231.29
410.70	231.53
411.08	231.84
411.45	232.13
411.82	232.43
412.20	232.78
412.57	233.19
412.95	233.47
413.32	233.85
413.69	234.26
414.07	234.71
414.44	235.15
414.82	235.60
415.19	236.16
415.56	236.64
415.94	237.16
416.31	237.80
416.68	238.40
417.06	239.12
417.43	239.79
417.81	240.55
418.18	241.33
418.55	242.17
418.93	243.02
419.30	243.91
419.67	244.84
420.04	245.81
420.42	246.80
420.79	247.95
421.16	249.11
421.54	250.30
421.91	251.51
422.28	252.76
422.66	254.09
423.03	255.39
423.40	256.75
423.77	258.18
424.15	259.63
424.52	261.14
424.89	262.74
425.26	264.30
425.64	265.76
426.01	267.37
426.38	269.00
426.75	270.69
427.13	272.38
427.50	274.18
427.87	276.03
428.24	277.87
428.61	279.65
428.99	281.59
429.36	283.69
429.73	285.74
430.10	287.76
430.47	289.85
430.85	291.97
431.22	294.23
431.59	296.60
431.96	298.83
432.33	301.30
432.70	303.70
433.08	306.54
433.45	309.16
433.82	311.81
434.19	314.70
434.56	317.53
434.93	320.24
435.30	322.87
435.68	325.81
436.05	328.66
436.42	331.45
436.79	333.92
437.16	336.62
437.53	339.52
437.90	342.33
438.27	345.05
438.64	347.91
439.01	350.51
439.38	352.76
439.75	354.91
440.13	357.45
440.50	359.79
440.87	361.66
441.24	363.65
441.61	365.82
441.98	367.35
442.35	369.14
442.72	371.02
443.09	372.80
443.46	373.76
443.83	374.38
444.20	374.91
444.57	375.80
444.94	376.12
445.31	376.45
445.68	376.82
446.05	376.91
446.42	376.52
446.79	376.09
447.16	375.64
447.53	375.33
447.90	374.15
448.27	373.00
448.64	371.39
449.01	370.23
449.37	368.23
449.74	366.27
450.11	364.05
450.48	361.54
450.85	359.01
451.22	356.84
451.59	354.79
451.96	352.83
452.33	350.21
452.70	347.85
453.07	344.97
453.43	342.05
453.80	339.26
454.17	336.60
454.54	334.08
454.91	331.35
455.28	328.64
455.65	326.16
456.02	323.66
456.38	321.49
456.75	318.84
457.12	316.58
457.49	314.41
457.86	312.22
458.23	310.37
458.59	308.36
458.96	306.30
459.33	304.46
459.70	302.60
460.07	301.11
460.43	299.36
460.80	297.76
461.17	296.33
461.54	294.87
461.91	293.41
462.27	291.92
462.64	290.69
463.01	289.39
463.38	288.09
463.74	286.71
464.11	285.59
464.48	284.56
464.85	283.45
465.21	282.57
465.58	281.61
465.95	280.50
466.32	279.59
466.68	278.67
467.05	277.78
467.42	276.89
467.78	275.95
468.15	275.08
468.52	274.38
468.88	273.53
469.25	272.71
469.62	272.07
469.98	271.41
470.35	270.73
470.72	270.11
471.08	269.47
471.45	268.96
471.82	268.38
472.18	267.80
472.55	267.34
472.92	266.84
473.28	266.40
473.65	265.97
474.02	265.51
474.38	265.15
474.75	264.78
475.11	264.44
475.48	264.15
475.85	263.92
476.21	263.70
476.58	263.51
476.94	263.37
477.31	263.19
477.67	263.00
478.04	262.90
478.41	262.82
478.77	262.84
479.14	262.77
479.50	262.81
479.87	262.88
480.23	262.99
480.60	263.06
480.96	263.13
481.33	263.32
481.69	263.53
482.06	263.77
482.42	263.98
482.79	264.23
483.15	264.59
483.52	264.97
483.88	265.33
484.25	265.69
484.61	266.15
484.98	266.62
485.34	267.21
485.71	267.78
486.07	268.43
486.44	269.01
486.80	269.73
487.17	270.43
487.53	271.24
487.90	272.06
488.26	272.99
488.62	273.96
488.99	274.96
489.35	275.99
489.72	277.12
490.08	278.32
490.44	279.56
490.81	280.88
491.17	282.23
491.54	283.70
491.90	285.30
492.26	286.92
492.63	288.67
492.99	290.48
493.36	292.40
493.72	294.41
494.08	296.54
494.45	298.74
494.81	301.06
495.17	303.47
495.54	306.05
495.90	308.73
496.26	311.57
496.63	314.54
496.99	317.67
497.35	320.92
497.72	324.27
498.08	327.81
498.44	331.49
498.80	335.41
499.17	339.47
499.53	343.61
499.89	348.03
500.26	352.53
500.62	357.17
500.98	362.14
501.34	367.23
501.71	372.53
502.07	378.00
502.43	383.68
502.79	389.50
503.16	395.56
503.52	401.85
503.88	408.29
504.24	414.94
504.60	421.84
504.97	428.99
505.33	436.38
505.69	444.04
506.05	451.79
506.41	459.64
506.78	467.74
507.14	476.20
507.50	484.89
507.86	493.89
508.22	503.13
508.59	512.35
508.95	521.89
509.31	531.66
509.67	541.79
510.03	552.06
510.39	562.62
510.75	573.37
511.12	584.28
511.48	595.52
511.84	606.92
512.20	618.39
512.56	630.27
512.92	642.41
513.28	654.72
513.64	667.18
514.00	679.89
514.37	692.88
514.73	705.94
515.09	718.96
515.45	732.32
515.81	745.76
516.17	759.82
516.53	773.96
516.89	788.15
517.25	802.25
517.61	816.66
517.97	831.14
518.33	845.60
518.69	860.38
519.05	875.36
519.41	890.56
519.77	906.14
520.13	921.58
520.49	936.97
520.85	952.45
521.21	968.25
521.57	984.48
521.93	1000.21
522.29	1016.68
522.65	1032.91
523.01	1049.07
523.37	1065.22
523.73	1081.26
524.09	1097.30
524.45	1113.71
524.81	1130.49
525.17	1147.40
525.53	1164.24
525.89	1181.24
526.25	1198.01
526.61	1214.46
526.97	1231.18
527.33	1247.71
527.68	1264.36
528.04	1280.91
528.40	1297.50
528.76	1314.58
529.12	1331.31
529.48	1348.28
529.84	1364.21
530.20	1380.94
530.56	1398.03
530.91	1415.45
531.27	1432.28
531.63	1448.88
531.99	1465.39
532.35	1481.25
532.71	1497.12
533.07	1513.48
533.42	1529.40
533.78	1545.57
534.14	1561.90
534.50	1577.30
534.86	1593.18
535.21	1608.57
535.57	1624.57
535.93	1640.19
536.29	1654.91
536.65	1669.95
537.00	1684.62
537.36	1699.99
537.72	1714.49
538.08	1728.86
538.44	1742.54
538.79	1756.51
539.15	1770.15
539.51	1783.98
539.87	1798.38
540.22	1812.05
540.58	1825.89
540.94	1839.19
541.29	1852.09
541.65	1864.66
542.01	1877.96
542.37	1890.25
542.72	1902.50
543.08	1914.17
543.44	1926.54
543.79	1937.89
544.15	1948.91
544.51	1960.55
544.87	1971.45
545.22	1982.22
545.58	1992.44
545.94	2002.39
546.29	2012.32
546.65	2022.15
547.01	2031.29
547.36	2040.17
547.72	2048.83
548.07	2056.66
548.43	2064.83
548.79	2072.88
549.14	2080.46
549.50	2087.80
549.86	2095.52
550.21	2102.89
550.57	2110.06
550.92	2116.63
551.28	2123.65
551.64	2130.79
551.99	2137.33
552.35	2143.46
552.70	2149.62
553.06	2155.67
553.41	2161.97
553.77	2167.87
554.13	2174.08
554.48	2180.36
554.84	2185.68
555.19	2190.85
555.55	2195.82
555.90	2200.17
556.26	2204.98
556.61	2209.78
556.97	2213.79
557.32	2217.86
557.68	2222.01
558.03	2226.42
558.39	2230.11
558.74	2234.85
559.10	2238.51
559.45	2242.16
559.81	2246.62
560.16	2250.47
560.52	2253.56
560.87	2257.04
561.23	2259.66
561.58	2262.62
561.94	2265.05
562.29	2267.44
562.64	2270.04
563.00	2272.79
563.35	2276.36
563.71	2279.61
564.06	2282.80
564.42	2285.73
564.77	2288.26
565.12	2290.35
565.48	2292.15
565.83	2294.05
566.19	2295.13
566.54	2296.12
566.89	2297.14
567.25	2297.64
567.60	2298.92
567.96	2300.69
568.31	2301.47
568.66	2302.59
569.02	2303.06
569.37	2303.34
569.72	2304.08
570.08	2304.23
570.43	2304.29
570.78	2303.66
571.14	2302.05
571.49	2300.59
571.84	2300.43
572.20	2299.22
572.55	2298.22
572.90	2296.56
573.26	2295.23
573.61	2293.58
573.96	2291.84
574.31	2288.87
574.67	2285.81
575.02	2282.32
575.37	2278.82
575.72	2274.98
576.08	2271.66
576.43	2268.11
576.78	2264.43
577.13	2261.29
577.49	2258.27
577.84	2254.62
578.19	2250.84
578.54	2247.21
578.90	2242.93
579.25	2237.34
579.60	2232.37
579.95	2227.49
580.30	2222.54
580.66	2217.18
581.01	2212.27
581.36	2207.29
581.71	2203.23
582.06	2198.68
582.42	2194.06
582.77	2188.86
583.12	2184.21
583.47	2179.41
583.82	2174.40
584.17	2169.20
584.53	2163.63
584.88	2157.92
585.23	2152.25
585.58	2146.93
585.93	2141.40
586.28	2136.75
586.63	2131.62
586.98	2126.47
587.34	2121.65
587.69	2116.68
588.04	2111.33
588.39	2105.59
588.74	2099.10
589.09	2092.82
589.44	2086.03
589.79	2080.02
590.14	2074.44
590.49	2067.92
590.84	2061.57
591.19	2055.69
591.54	2049.21
591.89	2041.71
592.25	2034.83
592.60	2027.53
592.95	2019.78
593.30	2012.35
593.65	2004.73
594.00	1997.71
594.35	1990.56
594.70	1982.57
595.05	1975.33
595.40	1968.08
595.75	1960.54
596.10	1954.29
596.45	1947.54
596.80	1941.40
597.15	1934.67
597.50	1927.47
597.85	1920.98
598.19	1914.09
598.54	1906.85
598.89	1900.18
599.24	1894.45
599.59	1887.74
599.94	1881.53
600.29	1875.10
600.64	1868.53
600.99	1860.92
601.34	1853.98
601.69	1847.02
602.04	1839.99
602.39	1832.66
602.74	1825.79
603.08	1819.02
603.43	1812.29
603.78	1804.91
604.13	1797.60
604.48	1790.21
604.83	1783.43
605.18	1776.38
605.53	1768.55
605.87	1760.54
606.22	1753.26
606.57	1745.25
606.92	1737.94
607.27	1730.74
607.62	1723.88
607.96	1716.57
608.31	1710.03
608.66	1702.34
609.01	1694.60
609.36	1687.02
609.70	1678.94
610.05	1670.80
610.40	1663.06
610.75	1654.61
611.10	1646.92
611.44	1638.61
611.79	1630.73
612.14	1621.92
612.49	1612.81
612.83	1604.42
613.18	1596.42
613.53	1588.36
613.88	1579.79
614.22	1571.46
614.57	1562.70
614.92	1554.68
615.27	1547.04
615.61	1538.68
615.96	1530.69
616.31	1523.19
616.65	1515.85
617.00	1508.43
617.35	1500.87
617.70	1492.53
618.04	1484.11
618.39	1475.94
618.74	1468.28
619.08	1459.96
619.43	1452.49
619.78	1445.56
620.12	1438.33
620.47	1430.72
620.82	1422.51
621.16	1415.19
621.51	1407.64
621.85	1400.10
622.20	1391.58
622.55	1383.29
622.89	1375.47
623.24	1367.96
623.59	1360.61
623.93	1353.09
624.28	1345.73
624.62	1338.25
624.97	1331.10
625.32	1324.47
625.66	1317.54
626.01	1310.41
626.35	1302.93
626.70	1295.14
627.04	1287.41
627.39	1279.67
627.73	1272.29
628.08	1265.33
628.43	1257.98
628.77	1250.58
629.12	1243.03
629.46	1235.78
629.81	1228.40
630.15	1221.15
630.50	1213.64
630.84	1205.36
631.19	1197.39
631.53	1190.01
631.88	1182.36
632.22	1174.74
632.57	1167.28
632.91	1159.61
633.26	1152.19
633.60	1144.89
633.95	1137.83
634.29	1130.83
634.64	1124.20
634.98	1116.84
635.32	1109.82
635.67	1103.20
636.01	1096.64
636.36	1089.84
636.70	1083.47
637.05	1076.91
637.39	1070.45
637.73	1063.94
638.08	1058.05
638.42	1052.14
638.77	1045.63
639.11	1039.12
639.45	1032.78
639.80	1026.19
640.14	1019.81
640.49	1013.26
640.83	1006.92
641.17	1000.60
641.52	994.21
641.86	987.75
642.20	981.83
642.55	975.45
642.89	968.96
643.23	962.38
643.58	956.58
643.92	950.32
644.26	944.14
644.61	938.15
644.95	932.16
645.29	925.60
645.64	918.82
645.98	912.41
646.32	906.53
646.66	900.46
647.01	894.55
647.35	888.83
647.69	882.99
648.04	877.47
648.38	871.70
648.72	865.69
649.06	859.55
649.41	853.69
649.75	847.66
650.09	841.66
650.43	835.88
650.78	829.74
651.12	823.77
651.46	818.08
651.80	812.23
652.14	806.79
652.49	801.39
652.83	796.22
653.17	790.54
653.51	784.69
653.85	779.33
654.20	773.69
654.54	767.64
654.88	761.93
655.22	756.08
655.56	750.40
655.90	745.01
656.25	739.84
656.59	734.48
656.93	729.42
657.27	724.30
657.61	718.82
657.95	713.79
658.29	708.75
658.64	703.48
658.98	698.25
659.32	692.85
659.66	687.62
660.00	682.28
660.34	677.37
660.68	672.55
661.02	667.54
661.36	662.91
661.70	658.50
662.05	654.15
662.39	649.78
662.73	645.32
663.07	640.94
663.41	636.48
663.75	631.96
664.09	627.42
664.43	623.08
664.77	619.00
665.11	614.63
665.45	610.48
665.79	606.47
666.13	602.36
666.47	598.29
666.81	594.24
667.15	590.20
667.49	586.32
667.83	582.54
668.17	578.53
668.51	574.45
668.85	570.36
669.19	566.50
669.53	562.69
669.87	558.84
670.21	555.10
670.55	551.47
670.89	548.10
671.23	544.71
671.57	541.18
671.91	537.66
672.25	534.24
672.58	530.80
672.92	527.42
673.26	524.20
673.60	521.01
673.94	517.87
674.28	514.94
674.62	511.97
674.96	508.88
675.30	505.95
675.64	503.09
675.97	500.32
676.31	497.47
676.65	494.55
676.99	491.82
677.33	489.02
677.67	486.21
678.01	483.18
678.34	480.15
678.68	477.26
679.02	474.37
679.36	471.62
679.70	468.88
680.04	466.11
680.37	463.24
680.71	460.44
681.05	457.89
681.39	455.18
681.73	452.55
682.06	450.00
682.40	447.55
682.74	444.97
683.08	442.43
683.42	439.82
683.75	437.30
684.09	434.79
684.43	432.25
684.77	429.74
685.10	427.39
685.44	425.11
685.78	422.84
686.12	420.65
686.45	418.34
686.79	415.97
687.13	413.75
687.46	411.56
687.80	409.41
688.14	407.11
688.48	405.06
688.81	402.81
689.15	400.68
689.49	398.48
689.82	396.39
690.16	394.34
690.50	392.37
690.83	390.43
691.17	388.45
691.51	386.54
691.84	384.70
692.18	382.74
692.52	380.76
692.85	378.81
693.19	376.90
693.52	375.11
693.86	373.34
694.20	371.58
694.53	369.85
694.87	367.99
695.21	366.24
695.54	364.37
695.88	362.67
696.21	360.93
696.55	359.29
696.88	357.62
697.22	355.97
697.56	354.37
697.89	352.70
698.23	351.07
698.56	349.48
698.90	347.90
699.23	346.23
699.57	344.69
699.90	343.17
700.24	341.63
700.58	340.07
700.91	338.60
701.25	337.14
701.58	335.75
701.92	334.40
702.25	333.03
702.59	331.67
702.92	330.29
703.26	329.02
703.59	327.71
703.93	326.50
704.26	325.28
704.60	323.96
704.93	322.75
705.26	321.50
705.60	320.34
705.93	319.21
706.27	318.21
706.60	317.12
706.94	316.05
707.27	314.93
707.61	313.87
707.94	312.80
708.27	311.71
708.61	310.64
708.94	309.61
709.28	308.62
709.61	307.65
709.94	306.74
710.28	305.68
710.61	304.71
710.95	303.65
711.28	302.66
711.61	301.74
711.95	300.80
712.28	299.87
712.61	298.89
712.95	297.96
713.28	297.09
713.61	296.22
713.95	295.31
714.28	294.52
714.61	293.68
714.95	292.85
715.28	292.00
715.61	291.14
715.95	290.31
716.28	289.43
716.61	288.62
716.95	287.84
717.28	287.09
717.61	286.34
717.94	285.60
718.28	284.86
718.61	284.12
718.94	283.41
719.27	282.74
719.61	282.09
719.94	281.38
720.27	280.66
720.60	280.00
720.94	279.40
721.27	278.79
721.60	278.24
721.93	277.64
722.27	277.11
722.60	276.55
722.93	275.97
723.26	275.45
723.59	274.89
723.93	274.32
724.26	273.77
724.59	273.21
724.92	272.68
725.25	272.17
725.59	271.66
725.92	271.16
726.25	270.63
726.58	270.11
726.91	269.63
727.24	269.19
727.57	268.74
727.91	268.24
728.24	267.76
728.57	267.25
728.90	266.81
729.23	266.27
729.56	265.81
729.89	265.35
730.22	264.85
730.55	264.39
730.89	263.94
731.22	263.49
731.55	263.04
731.88	262.61
732.21	262.18
732.54	261.73
732.87	261.31
733.20	260.88
733.53	260.50
733.86	260.14
734.19	259.73
734.52	259.31
734.85	258.99
735.18	258.55
735.51	258.19
735.84	257.80
736.17	257.49
736.50	257.09
736.83	256.86
737.16	256.52
737.49	256.18
737.82	255.80
738.15	255.47
738.48	255.16
738.81	254.85
739.14	254.53
739.47	254.23
739.80	253.90
740.13	253.62
740.46	253.30
740.79	252.96
741.12	252.62
741.45	252.32
741.78	251.96
742.11	251.68
742.44	251.31
742.77	251.05
743.10	250.72
743.43	250.42
743.75	250.05
744.08	249.93
744.41	249.66
744.74	249.42
745.07	249.09
745.40	248.82
745.73	248.56
746.06	248.28
746.39	248.01
746.71	247.76
747.04	247.50
747.37	247.28
747.70	247.02
748.03	246.78
748.36	246.54
748.68	246.32
749.01	246.10
749.34	245.91
749.67	245.63
750.00	245.44
750.33	245.33
750.65	245.09
750.98	244.75
751.31	244.50
751.64	244.28
751.97	244.16
752.29	243.95
752.62	243.71
752.95	243.52
753.28	243.30
753.60	243.09
753.93	242.91
754.26	242.69
754.59	242.47
754.91	242.27
755.24	242.06
755.57	241.88
755.90	241.68
756.22	241.50
756.55	241.31
756.88	241.11
757.20	240.83
757.53	240.65
757.86	240.48
758.19	240.32
758.51	240.15
758.84	239.94
759.17	239.73
759.49	239.59
759.82	239.47
760.15	239.33
760.47	239.18
760.80	239.01
761.13	238.87
761.45	238.75
761.78	238.62
762.11	238.50
762.43	238.30
762.76	238.15
763.08	237.99
763.41	237.85
763.74	237.73
764.06	237.61
764.39	237.46
764.71	237.34
765.04	237.23
765.37	237.12
765.69	237.00
766.02	236.91
766.34	236.79
766.67	236.64
767.00	236.55
767.32	236.48
767.65	236.44
767.97	236.32
768.30	236.19
768.62	236.07
768.95	235.98
769.27	235.88
769.60	235.80
769.92	235.69
770.25	235.59
770.57	235.48
770.90	235.36
771.22	235.27
771.55	235.12
771.87	235.02
772.20	234.96
772.52	234.94
772.85	234.95
773.17	234.83
773.50	234.76
773.82	234.63
774.15	234.50
774.47	234.34
774.80	234.26
775.12	234.19
775.45	234.10
775.77	234.00
776.09	233.99
776.42	233.90
776.74	233.84
777.07	233.73
777.39	233.65
777.72	233.59
778.04	233.53
778.36	233.48
778.69	233.39
779.01	233.28
779.33	233.13
779.66	232.95
779.98	232.88
780.31	232.80
780.63	232.76
780.95	232.72
781.28	232.63
781.60	232.57
781.92	232.49
782.25	232.45
782.57	232.36
782.89	232.28
783.22	232.21
783.54	232.19
783.86	232.17
784.19	232.09
784.51	232.04
784.83	231.98
785.16	231.95
785.48	231.92
785.80	231.88
786.12	231.85
786.45	231.81
786.77	231.81
787.09	231.70
