SpectraSuite Data File
++++++++++++++++++++++++++++++++++++
Date: Fri Feb 01 15:59:25 EST 2013
User: group
Dark Spectrum Present: No
Reference Spectrum Present: No
Number of Sampled Component Spectra: 1
Spectrometers: USB2E7196
Integration Time (usec): 35000 (USB2E7196)
Spectra Averaged: 100 (USB2E7196)
Boxcar Smoothing: 10 (USB2E7196)
Correct for Electrical Dark: No (USB2E7196)
Strobe/Lamp Enabled: No (USB2E7196)
Correct for Detector Non-linearity: No (USB2E7196)
Correct for Stray Light: No (USB2E7196)
Number of Pixels in Processed Spectrum: 2048
>>>>>Begin Processed Spectral Data<<<<<
339.09	0.00
339.48	215.12
339.86	216.16
340.24	217.30
340.63	218.87
341.01	222.28
341.39	221.99
341.78	222.99
342.16	224.28
342.54	224.65
342.93	213.20
343.31	223.97
343.69	224.48
344.07	224.93
344.46	225.38
344.84	225.73
345.22	225.95
345.60	226.18
345.99	226.37
346.37	226.48
346.75	226.58
347.13	226.65
347.52	226.68
347.90	226.73
348.28	226.72
348.66	226.75
349.05	226.76
349.43	226.81
349.81	226.88
350.19	226.95
350.57	226.98
350.96	227.07
351.34	227.13
351.72	227.23
352.10	227.34
352.48	227.43
352.87	227.50
353.25	227.58
353.63	227.64
354.01	227.69
354.39	227.76
354.77	227.82
355.15	227.94
355.54	228.00
355.92	228.03
356.30	228.11
356.68	228.22
357.06	228.28
357.44	228.33
357.82	228.37
358.20	228.41
358.58	228.48
358.97	228.53
359.35	228.63
359.73	228.72
360.11	228.78
360.49	228.79
360.87	228.86
361.25	228.89
361.63	228.98
362.01	229.02
362.39	229.06
362.77	229.14
363.15	229.14
363.53	229.17
363.91	229.22
364.29	229.23
364.67	229.16
365.05	229.16
365.43	229.21
365.81	229.25
366.19	229.31
366.57	229.33
366.95	229.32
367.33	229.29
367.71	229.25
368.09	229.25
368.47	229.26
368.85	229.23
369.23	229.23
369.61	229.15
369.99	229.14
370.37	229.13
370.75	229.11
371.13	229.10
371.51	229.02
371.89	228.97
372.27	228.93
372.65	228.91
373.03	228.85
373.41	228.78
373.78	228.70
374.16	228.60
374.54	228.54
374.92	228.48
375.30	228.40
375.68	228.30
376.06	228.27
376.44	228.18
376.82	228.14
377.19	228.07
377.57	228.03
377.95	227.95
378.33	227.90
378.71	227.79
379.09	227.68
379.47	227.67
379.84	227.60
380.22	227.54
380.60	227.44
380.98	227.39
381.36	227.33
381.73	227.27
382.11	227.21
382.49	227.16
382.87	227.06
383.25	227.06
383.62	227.15
384.00	227.05
384.38	227.01
384.76	226.94
385.13	226.89
385.51	226.85
385.89	226.81
386.27	226.79
386.64	226.75
387.02	226.74
387.40	226.69
387.78	226.63
388.15	226.59
388.53	226.57
388.91	226.54
389.29	226.49
389.66	226.45
390.04	226.42
390.42	226.43
390.79	226.42
391.17	226.35
391.55	226.21
391.92	226.20
392.30	226.18
392.68	226.20
393.05	226.22
393.43	226.21
393.81	226.22
394.18	226.19
394.56	226.23
394.94	226.27
395.31	226.24
395.69	226.34
396.06	226.37
396.44	226.41
396.82	226.41
397.19	226.51
397.57	226.56
397.95	226.64
398.32	226.63
398.70	226.68
399.07	226.76
399.45	226.84
399.82	226.89
400.20	226.97
400.58	227.06
400.95	227.08
401.33	227.15
401.70	227.30
402.08	227.39
402.45	227.47
402.83	227.58
403.20	227.70
403.58	227.78
403.95	227.90
404.33	228.02
404.71	228.17
405.08	228.35
405.46	228.47
405.83	228.58
406.21	228.73
406.58	228.89
406.96	229.07
407.33	229.24
407.70	229.43
408.08	229.69
408.45	229.90
408.83	230.17
409.20	230.38
409.58	230.54
409.95	230.79
410.33	231.08
410.70	231.31
411.08	231.60
411.45	231.92
411.82	232.24
412.20	232.62
412.57	233.03
412.95	233.31
413.32	233.74
413.69	234.16
414.07	234.63
414.44	235.11
414.82	235.59
415.19	236.16
415.56	236.71
415.94	237.28
416.31	237.85
416.68	238.47
417.06	239.20
417.43	239.90
417.81	240.68
418.18	241.41
418.55	242.27
418.93	243.19
419.30	244.08
419.67	244.99
420.04	245.95
420.42	246.93
420.79	248.14
421.16	249.29
421.54	250.49
421.91	251.68
422.28	252.95
422.66	254.27
423.03	255.58
423.40	256.92
423.77	258.29
424.15	259.72
424.52	261.19
424.89	262.82
425.26	264.34
425.64	265.82
426.01	267.46
426.38	269.10
426.75	270.72
427.13	272.45
427.50	274.25
427.87	276.12
428.24	277.98
428.61	279.69
428.99	281.63
429.36	283.75
429.73	285.81
430.10	287.82
430.47	289.89
430.85	291.99
431.22	294.25
431.59	296.60
431.96	298.86
432.33	301.31
432.70	303.63
433.08	306.48
433.45	309.10
433.82	311.68
434.19	314.58
434.56	317.36
434.93	319.98
435.30	322.60
435.68	325.46
436.05	328.30
436.42	331.10
436.79	333.58
437.16	336.23
437.53	339.07
437.90	341.84
438.27	344.59
438.64	347.39
439.01	349.92
439.38	352.18
439.75	354.34
440.13	356.87
440.50	359.20
440.87	361.02
441.24	362.94
441.61	365.12
441.98	366.56
442.35	368.36
442.72	370.27
443.09	372.08
443.46	373.08
443.83	373.65
444.20	374.13
444.57	374.97
444.94	375.24
445.31	375.55
445.68	375.91
446.05	375.97
446.42	375.57
446.79	375.17
447.16	374.71
447.53	374.38
447.90	373.21
448.27	372.04
448.64	370.46
449.01	369.32
449.37	367.30
449.74	365.46
450.11	363.19
450.48	360.63
450.85	358.08
451.22	355.96
451.59	353.92
451.96	352.00
452.33	349.37
452.70	347.03
453.07	344.20
453.43	341.34
453.80	338.61
454.17	335.99
454.54	333.45
454.91	330.78
455.28	328.11
455.65	325.65
456.02	323.23
456.38	321.08
456.75	318.42
457.12	316.18
457.49	313.93
457.86	311.76
458.23	310.00
458.59	307.97
458.96	305.86
459.33	304.02
459.70	302.16
460.07	300.75
460.43	299.02
460.80	297.43
461.17	295.96
461.54	294.44
461.91	293.06
462.27	291.63
462.64	290.39
463.01	289.07
463.38	287.77
463.74	286.42
464.11	285.23
464.48	284.21
464.85	283.11
465.21	282.27
465.58	281.41
465.95	280.31
466.32	279.40
466.68	278.53
467.05	277.66
467.42	276.80
467.78	275.84
468.15	274.99
468.52	274.33
468.88	273.51
469.25	272.76
469.62	272.12
469.98	271.48
470.35	270.80
470.72	270.21
471.08	269.54
471.45	268.99
471.82	268.50
472.18	267.94
472.55	267.52
472.92	266.99
473.28	266.54
473.65	266.10
474.02	265.66
474.38	265.29
474.75	265.00
475.11	264.64
475.48	264.39
475.85	264.19
476.21	263.96
476.58	263.78
476.94	263.62
477.31	263.43
477.67	263.22
478.04	263.13
478.41	263.09
478.77	263.15
479.14	263.07
479.50	263.09
479.87	263.13
480.23	263.20
480.60	263.27
480.96	263.37
481.33	263.58
481.69	263.76
482.06	263.97
482.42	264.12
482.79	264.36
483.15	264.66
483.52	264.99
483.88	265.36
484.25	265.71
484.61	266.14
484.98	266.58
485.34	267.19
485.71	267.78
486.07	268.35
486.44	268.91
486.80	269.60
487.17	270.32
487.53	271.13
487.90	271.98
488.26	272.93
488.62	273.89
488.99	274.84
489.35	275.88
489.72	276.95
490.08	278.16
490.44	279.38
490.81	280.71
491.17	282.05
491.54	283.48
491.90	285.02
492.26	286.65
492.63	288.39
492.99	290.16
493.36	292.05
493.72	294.14
494.08	296.22
494.45	298.47
494.81	300.81
495.17	303.29
495.54	305.87
495.90	308.53
496.26	311.33
496.63	314.30
496.99	317.42
497.35	320.69
497.72	324.08
498.08	327.63
498.44	331.29
498.80	335.26
499.17	339.30
499.53	343.48
499.89	347.86
500.26	352.34
500.62	357.02
500.98	361.96
501.34	367.00
501.71	372.39
502.07	377.85
502.43	383.49
502.79	389.36
503.16	395.41
503.52	401.68
503.88	408.09
504.24	414.75
504.60	421.67
504.97	428.84
505.33	436.14
505.69	443.86
506.05	451.65
506.41	459.56
506.78	467.74
507.14	476.23
507.50	484.98
507.86	494.04
508.22	503.19
508.59	512.43
508.95	522.03
509.31	531.85
509.67	541.90
510.03	552.18
510.39	562.66
510.75	573.44
511.12	584.42
511.48	595.74
511.84	607.17
512.20	618.73
512.56	630.66
512.92	642.88
513.28	655.25
513.64	667.74
514.00	680.43
514.37	693.45
514.73	706.57
515.09	719.61
515.45	732.90
515.81	746.57
516.17	760.56
516.53	774.66
516.89	788.79
517.25	803.05
517.61	817.45
517.97	832.00
518.33	846.44
518.69	861.17
519.05	876.08
519.41	891.23
519.77	906.69
520.13	922.15
520.49	937.62
520.85	953.00
521.21	968.71
521.57	984.90
521.93	1000.53
522.29	1016.83
522.65	1033.07
523.01	1049.24
523.37	1065.19
523.73	1081.40
524.09	1097.47
524.45	1113.82
524.81	1130.36
525.17	1147.18
525.53	1163.98
525.89	1180.81
526.25	1197.68
526.61	1214.11
526.97	1230.88
527.33	1247.37
527.68	1263.97
528.04	1280.33
528.40	1296.92
528.76	1313.92
529.12	1330.44
529.48	1347.29
529.84	1363.27
530.20	1379.94
530.56	1397.04
530.91	1414.38
531.27	1431.00
531.63	1447.44
531.99	1463.93
532.35	1479.81
532.71	1495.69
533.07	1511.87
533.42	1527.77
533.78	1543.73
534.14	1559.94
534.50	1575.23
534.86	1591.03
535.21	1606.19
535.57	1622.10
535.93	1637.59
536.29	1652.33
536.65	1667.42
537.00	1682.19
537.36	1697.52
537.72	1712.01
538.08	1726.30
538.44	1739.96
538.79	1753.86
539.15	1767.56
539.51	1781.24
539.87	1795.57
540.22	1809.23
540.58	1823.04
540.94	1836.52
541.29	1849.29
541.65	1861.99
542.01	1875.10
542.37	1887.42
542.72	1899.73
543.08	1911.46
543.44	1923.70
543.79	1934.83
544.15	1945.78
544.51	1957.25
544.87	1968.14
545.22	1978.71
545.58	1988.81
545.94	1998.65
546.29	2008.46
546.65	2018.15
547.01	2027.32
547.36	2035.96
547.72	2044.42
548.07	2052.12
548.43	2060.12
548.79	2068.26
549.14	2075.71
549.50	2083.02
549.86	2090.61
550.21	2097.84
550.57	2104.98
550.92	2111.62
551.28	2118.61
551.64	2125.68
551.99	2132.15
552.35	2138.25
552.70	2144.58
553.06	2150.57
553.41	2156.92
553.77	2163.02
554.13	2169.29
554.48	2175.44
554.84	2180.97
555.19	2186.24
555.55	2191.46
555.90	2195.89
556.26	2200.77
556.61	2205.55
556.97	2209.84
557.32	2213.95
557.68	2218.27
558.03	2222.57
558.39	2226.22
558.74	2231.15
559.10	2234.92
559.45	2238.68
559.81	2242.97
560.16	2246.64
560.52	2249.98
560.87	2253.37
561.23	2255.95
561.58	2258.84
561.94	2261.42
562.29	2263.94
562.64	2266.52
563.00	2269.16
563.35	2272.78
563.71	2275.73
564.06	2279.05
564.42	2281.83
564.77	2284.32
565.12	2286.41
565.48	2288.31
565.83	2290.25
566.19	2291.40
566.54	2292.40
566.89	2293.64
567.25	2294.19
567.60	2295.46
567.96	2297.09
568.31	2297.92
568.66	2299.02
569.02	2299.56
569.37	2299.86
569.72	2300.60
570.08	2300.83
570.43	2300.84
570.78	2300.24
571.14	2298.89
571.49	2297.41
571.84	2297.21
572.20	2296.20
572.55	2295.21
572.90	2293.62
573.26	2292.30
573.61	2290.74
573.96	2289.03
574.31	2285.96
574.67	2282.92
575.02	2279.52
575.37	2276.13
575.72	2272.36
576.08	2269.00
576.43	2265.68
576.78	2261.98
577.13	2258.80
577.49	2255.72
577.84	2252.14
578.19	2248.40
578.54	2244.81
578.90	2240.68
579.25	2235.11
579.60	2230.12
579.95	2225.09
580.30	2220.12
580.66	2214.78
581.01	2209.71
581.36	2204.79
581.71	2200.58
582.06	2196.23
582.42	2191.64
582.77	2186.41
583.12	2181.93
583.47	2177.33
583.82	2172.35
584.17	2167.21
584.53	2161.70
584.88	2156.00
585.23	2150.17
585.58	2144.58
585.93	2139.11
586.28	2134.22
586.63	2129.16
586.98	2124.06
587.34	2119.37
587.69	2114.56
588.04	2109.31
588.39	2103.63
588.74	2097.14
589.09	2091.10
589.44	2084.29
589.79	2078.44
590.14	2072.93
590.49	2066.27
590.84	2059.74
591.19	2053.69
591.54	2047.18
591.89	2039.89
592.25	2033.24
592.60	2026.14
592.95	2018.61
593.30	2011.25
593.65	2003.74
594.00	1996.74
594.35	1989.56
594.70	1981.55
595.05	1974.16
595.40	1967.00
595.75	1959.46
596.10	1953.26
596.45	1946.51
596.80	1940.41
597.15	1933.72
597.50	1926.51
597.85	1920.13
598.19	1913.48
598.54	1906.29
598.89	1899.71
599.24	1893.79
599.59	1886.97
599.94	1880.90
600.29	1874.58
600.64	1867.90
600.99	1860.43
601.34	1853.56
601.69	1846.63
602.04	1839.77
602.39	1832.50
602.74	1825.66
603.08	1819.06
603.43	1812.35
603.78	1804.95
604.13	1797.73
604.48	1790.35
604.83	1783.54
605.18	1776.51
605.53	1768.62
605.87	1760.69
606.22	1753.41
606.57	1745.59
606.92	1738.45
607.27	1731.27
607.62	1724.31
607.96	1717.11
608.31	1710.54
608.66	1702.96
609.01	1695.33
609.36	1687.79
609.70	1679.83
610.05	1671.84
610.40	1664.11
610.75	1655.68
611.10	1648.02
611.44	1639.67
611.79	1631.80
612.14	1623.10
612.49	1613.94
612.83	1605.53
613.18	1597.52
613.53	1589.38
613.88	1580.70
614.22	1572.37
614.57	1563.67
614.92	1555.59
615.27	1547.96
615.61	1539.63
615.96	1531.61
616.31	1524.05
616.65	1516.52
617.00	1509.01
617.35	1501.35
617.70	1492.94
618.04	1484.52
618.39	1476.37
618.74	1468.63
619.08	1460.26
619.43	1452.69
619.78	1445.89
620.12	1438.65
620.47	1431.00
620.82	1422.95
621.16	1415.58
621.51	1407.89
621.85	1400.32
622.20	1391.82
622.55	1383.50
622.89	1375.64
623.24	1368.03
623.59	1360.58
623.93	1353.25
624.28	1345.94
624.62	1338.40
624.97	1331.30
625.32	1324.60
625.66	1317.53
626.01	1310.48
626.35	1303.02
626.70	1295.33
627.04	1287.49
627.39	1279.78
627.73	1272.47
628.08	1265.47
628.43	1258.08
628.77	1250.76
629.12	1243.20
629.46	1236.10
629.81	1228.70
630.15	1221.49
630.50	1214.09
630.84	1205.89
631.19	1197.97
631.53	1190.52
631.88	1182.92
632.22	1175.28
632.57	1167.88
632.91	1160.40
633.26	1153.02
633.60	1145.65
633.95	1138.54
634.29	1131.60
634.64	1124.98
634.98	1117.62
635.32	1110.43
635.67	1103.96
636.01	1097.36
636.36	1090.45
636.70	1083.95
637.05	1077.39
637.39	1070.88
637.73	1064.28
638.08	1058.35
638.42	1052.37
638.77	1045.90
639.11	1039.21
639.45	1032.81
639.80	1026.09
640.14	1019.58
640.49	1012.91
640.83	1006.58
641.17	1000.27
641.52	993.86
641.86	987.44
642.20	981.50
642.55	975.31
642.89	968.71
643.23	962.19
643.58	956.51
643.92	950.31
644.26	944.23
644.61	938.20
644.95	932.19
645.29	925.61
645.64	918.83
645.98	912.53
646.32	906.75
646.66	900.68
647.01	894.92
647.35	889.26
647.69	883.44
648.04	877.92
648.38	872.13
648.72	866.08
649.06	859.92
649.41	854.07
649.75	847.97
650.09	842.10
650.43	836.24
650.78	830.04
651.12	824.00
651.46	818.32
651.80	812.57
652.14	807.21
652.49	801.91
652.83	796.72
653.17	790.99
653.51	785.24
653.85	779.86
654.20	774.22
654.54	768.19
654.88	762.51
655.22	756.60
655.56	750.95
655.90	745.63
656.25	740.46
656.59	735.15
656.93	730.08
657.27	724.91
657.61	719.50
657.95	714.42
658.29	709.42
658.64	704.11
658.98	698.82
659.32	693.36
659.66	688.15
660.00	682.90
660.34	677.96
660.68	673.04
661.02	667.99
661.36	663.31
661.70	658.79
662.05	654.37
662.39	650.05
662.73	645.60
663.07	641.19
663.41	636.73
663.75	632.19
664.09	627.70
664.43	623.29
664.77	619.16
665.11	614.86
665.45	610.75
665.79	606.66
666.13	602.50
666.47	598.44
666.81	594.30
667.15	590.13
667.49	586.20
667.83	582.47
668.17	578.51
668.51	574.45
668.85	570.46
669.19	566.71
669.53	562.91
669.87	559.01
670.21	555.28
670.55	551.63
670.89	548.23
671.23	544.83
671.57	541.33
671.91	537.77
672.25	534.28
672.58	530.70
672.92	527.34
673.26	524.20
673.60	521.05
673.94	517.87
674.28	514.99
674.62	512.01
674.96	508.82
675.30	505.98
675.64	503.06
675.97	500.33
676.31	497.39
676.65	494.42
676.99	491.74
677.33	488.89
677.67	486.08
678.01	482.99
678.34	479.95
678.68	477.09
679.02	474.25
679.36	471.55
679.70	468.90
680.04	466.13
680.37	463.16
680.71	460.34
681.05	457.77
681.39	455.00
681.73	452.40
682.06	449.92
682.40	447.32
682.74	444.78
683.08	442.16
683.42	439.60
683.75	437.13
684.09	434.56
684.43	432.07
684.77	429.58
685.10	427.22
685.44	424.96
685.78	422.66
686.12	420.43
686.45	418.08
686.79	415.77
687.13	413.54
687.46	411.46
687.80	409.31
688.14	407.09
688.48	405.04
688.81	402.78
689.15	400.65
689.49	398.54
689.82	396.44
690.16	394.40
690.50	392.46
690.83	390.54
691.17	388.54
691.51	386.64
691.84	384.82
692.18	382.92
692.52	380.93
692.85	378.96
693.19	377.10
693.52	375.29
693.86	373.53
694.20	371.75
694.53	369.97
694.87	368.16
695.21	366.45
695.54	364.69
695.88	362.92
696.21	361.19
696.55	359.52
696.88	357.87
697.22	356.25
697.56	354.59
697.89	352.92
698.23	351.33
698.56	349.74
698.90	348.11
699.23	346.48
699.57	344.93
699.90	343.44
700.24	341.90
700.58	340.36
700.91	338.78
701.25	337.38
701.58	336.00
701.92	334.63
702.25	333.17
702.59	331.77
702.92	330.45
703.26	329.16
703.59	327.86
703.93	326.69
704.26	325.46
704.60	324.14
704.93	322.85
705.26	321.60
705.60	320.41
705.93	319.26
706.27	318.21
706.60	317.15
706.94	316.06
707.27	314.95
707.61	313.90
707.94	312.90
708.27	311.77
708.61	310.69
708.94	309.68
709.28	308.71
709.61	307.73
709.94	306.76
710.28	305.74
710.61	304.75
710.95	303.64
711.28	302.67
711.61	301.75
711.95	300.84
712.28	299.90
712.61	298.89
712.95	297.96
713.28	297.09
713.61	296.22
713.95	295.31
714.28	294.45
714.61	293.57
714.95	292.71
715.28	291.87
715.61	290.98
715.95	290.10
716.28	289.23
716.61	288.41
716.95	287.64
717.28	286.87
717.61	286.11
717.94	285.38
718.28	284.61
718.61	283.89
718.94	283.19
719.27	282.54
719.61	281.90
719.94	281.23
720.27	280.48
720.60	279.79
720.94	279.21
721.27	278.60
721.60	278.06
721.93	277.46
722.27	276.86
722.60	276.32
722.93	275.75
723.26	275.24
723.59	274.71
723.93	274.15
724.26	273.59
724.59	273.02
724.92	272.51
725.25	272.00
725.59	271.49
725.92	270.99
726.25	270.43
726.58	269.95
726.91	269.44
727.24	268.99
727.57	268.51
727.91	267.95
728.24	267.53
728.57	267.01
728.90	266.55
729.23	266.10
729.56	265.72
729.89	265.25
730.22	264.77
730.55	264.30
730.89	263.86
731.22	263.43
731.55	263.02
731.88	262.57
732.21	262.15
732.54	261.71
732.87	261.29
733.20	260.96
733.53	260.58
733.86	260.23
734.19	259.82
734.52	259.46
734.85	259.18
735.18	258.75
735.51	258.35
735.84	257.98
736.17	257.64
736.50	257.19
736.83	256.98
737.16	256.62
737.49	256.27
737.82	255.91
738.15	255.59
738.48	255.25
738.81	254.93
739.14	254.61
739.47	254.29
739.80	253.99
740.13	253.64
740.46	253.29
740.79	252.94
741.12	252.64
741.45	252.30
741.78	251.92
742.11	251.63
742.44	251.36
742.77	251.10
743.10	250.78
743.43	250.47
743.75	250.05
744.08	249.92
744.41	249.66
744.74	249.38
745.07	249.09
745.40	248.86
745.73	248.65
746.06	248.37
746.39	248.12
746.71	247.84
747.04	247.56
747.37	247.35
747.70	247.14
748.03	246.89
748.36	246.69
748.68	246.48
749.01	246.27
749.34	246.05
749.67	245.78
750.00	245.59
750.33	245.48
750.65	245.30
750.98	244.96
751.31	244.73
751.64	244.56
751.97	244.39
752.29	244.17
752.62	243.92
752.95	243.71
753.28	243.47
753.60	243.26
753.93	243.11
754.26	242.90
754.59	242.66
754.91	242.47
755.24	242.28
755.57	242.07
755.90	241.82
756.22	241.63
756.55	241.45
756.88	241.25
757.20	240.98
757.53	240.79
757.86	240.61
758.19	240.45
758.51	240.29
758.84	240.08
759.17	239.91
759.49	239.73
759.82	239.59
760.15	239.48
760.47	239.34
760.80	239.19
761.13	239.06
761.45	238.89
761.78	238.74
762.11	238.62
762.43	238.45
762.76	238.34
763.08	238.24
763.41	238.12
763.74	237.95
764.06	237.81
764.39	237.68
764.71	237.55
765.04	237.39
765.37	237.23
765.69	237.12
766.02	236.98
766.34	236.83
766.67	236.66
767.00	236.53
767.32	236.43
767.65	236.36
767.97	236.21
768.30	236.10
768.62	235.98
768.95	235.81
769.27	235.74
769.60	235.64
769.92	235.48
770.25	235.38
770.57	235.28
770.90	235.17
771.22	235.02
771.55	234.92
771.87	234.89
772.20	234.81
772.52	234.82
772.85	234.86
773.17	234.79
773.50	234.72
773.82	234.62
774.15	234.47
774.47	234.33
774.80	234.25
775.12	234.18
775.45	234.07
775.77	234.02
776.09	233.92
776.42	233.86
776.74	233.82
777.07	233.72
777.39	233.63
777.72	233.56
778.04	233.50
778.36	233.44
778.69	233.36
779.01	233.27
779.33	233.11
779.66	232.96
779.98	232.87
780.31	232.79
780.63	232.78
780.95	232.80
781.28	232.73
781.60	232.67
781.92	232.57
782.25	232.55
782.57	232.48
782.89	232.41
783.22	232.34
783.54	232.24
783.86	232.17
784.19	232.11
784.51	232.09
784.83	232.02
785.16	231.95
785.48	231.88
785.80	231.86
786.12	231.80
786.45	231.72
786.77	231.69
787.09	231.67
