SpectraSuite Data File
++++++++++++++++++++++++++++++++++++
Date: Fri Feb 01 16:26:46 EST 2013
User: group
Dark Spectrum Present: No
Reference Spectrum Present: No
Number of Sampled Component Spectra: 1
Spectrometers: USB2E7196
Integration Time (usec): 35000 (USB2E7196)
Spectra Averaged: 100 (USB2E7196)
Boxcar Smoothing: 10 (USB2E7196)
Correct for Electrical Dark: No (USB2E7196)
Strobe/Lamp Enabled: No (USB2E7196)
Correct for Detector Non-linearity: No (USB2E7196)
Correct for Stray Light: No (USB2E7196)
Number of Pixels in Processed Spectrum: 2048
>>>>>Begin Processed Spectral Data<<<<<
339.09	0.00
339.48	214.10
339.86	215.12
340.24	217.21
340.63	218.91
341.01	221.60
341.39	220.77
341.78	222.80
342.16	224.09
342.54	223.91
342.93	212.62
343.31	223.37
343.69	223.93
344.07	224.41
344.46	224.85
344.84	225.20
345.22	225.43
345.60	225.70
345.99	225.86
346.37	225.97
346.75	226.08
347.13	226.14
347.52	226.17
347.90	226.26
348.28	226.28
348.66	226.32
349.05	226.33
349.43	226.40
349.81	226.44
350.19	226.46
350.57	226.49
350.96	226.56
351.34	226.63
351.72	226.70
352.10	226.80
352.48	226.82
352.87	226.86
353.25	226.92
353.63	226.96
354.01	227.01
354.39	227.06
354.77	227.13
355.15	227.23
355.54	227.28
355.92	227.25
356.30	227.32
356.68	227.43
357.06	227.50
357.44	227.50
357.82	227.57
358.20	227.66
358.58	227.76
358.97	227.81
359.35	227.90
359.73	227.96
360.11	228.02
360.49	228.09
360.87	228.17
361.25	228.20
361.63	228.27
362.01	228.33
362.39	228.35
362.77	228.36
363.15	228.39
363.53	228.43
363.91	228.47
364.29	228.48
364.67	228.40
365.05	228.40
365.43	228.43
365.81	228.46
366.19	228.49
366.57	228.53
366.95	228.48
367.33	228.43
367.71	228.42
368.09	228.41
368.47	228.41
368.85	228.35
369.23	228.36
369.61	228.31
369.99	228.31
370.37	228.32
370.75	228.36
371.13	228.33
371.51	228.28
371.89	228.26
372.27	228.22
372.65	228.20
373.03	228.14
373.41	228.10
373.78	228.04
374.16	227.93
374.54	227.85
374.92	227.81
375.30	227.75
375.68	227.67
376.06	227.63
376.44	227.54
376.82	227.50
377.19	227.41
377.57	227.35
377.95	227.24
378.33	227.19
378.71	227.05
379.09	226.95
379.47	226.91
379.84	226.82
380.22	226.73
380.60	226.63
380.98	226.59
381.36	226.52
381.73	226.44
382.11	226.40
382.49	226.30
382.87	226.22
383.25	226.20
383.62	226.26
384.00	226.17
384.38	226.12
384.76	226.06
385.13	226.06
385.51	225.98
385.89	225.96
386.27	225.90
386.64	225.89
387.02	225.83
387.40	225.78
387.78	225.75
388.15	225.73
388.53	225.70
388.91	225.66
389.29	225.62
389.66	225.59
390.04	225.56
390.42	225.61
390.79	225.60
391.17	225.57
391.55	225.47
391.92	225.45
392.30	225.48
392.68	225.44
393.05	225.44
393.43	225.46
393.81	225.44
394.18	225.46
394.56	225.48
394.94	225.56
395.31	225.58
395.69	225.64
396.06	225.68
396.44	225.75
396.82	225.76
397.19	225.87
397.57	225.91
397.95	225.95
398.32	225.95
398.70	226.03
399.07	226.08
399.45	226.11
399.82	226.18
400.20	226.21
400.58	226.32
400.95	226.37
401.33	226.43
401.70	226.58
402.08	226.65
402.45	226.72
402.83	226.79
403.20	226.85
403.58	226.94
403.95	227.07
404.33	227.17
404.71	227.29
405.08	227.45
405.46	227.56
405.83	227.72
406.21	227.85
406.58	227.97
406.96	228.15
407.33	228.34
407.70	228.52
408.08	228.79
408.45	229.00
408.83	229.22
409.20	229.48
409.58	229.65
409.95	229.90
410.33	230.18
410.70	230.42
411.08	230.74
411.45	231.04
411.82	231.32
412.20	231.69
412.57	232.11
412.95	232.37
413.32	232.82
413.69	233.21
414.07	233.65
414.44	234.14
414.82	234.61
415.19	235.11
415.56	235.66
415.94	236.20
416.31	236.82
416.68	237.45
417.06	238.13
417.43	238.82
417.81	239.60
418.18	240.35
418.55	241.19
418.93	242.05
419.30	242.93
419.67	243.87
420.04	244.82
420.42	245.77
420.79	246.99
421.16	248.09
421.54	249.30
421.91	250.50
422.28	251.77
422.66	253.07
423.03	254.44
423.40	255.74
423.77	257.12
424.15	258.51
424.52	260.02
424.89	261.62
425.26	263.17
425.64	264.60
426.01	266.20
426.38	267.87
426.75	269.54
427.13	271.30
427.50	273.06
427.87	274.91
428.24	276.77
428.61	278.52
428.99	280.51
429.36	282.57
429.73	284.68
430.10	286.62
430.47	288.68
430.85	290.74
431.22	293.01
431.59	295.35
431.96	297.62
432.33	300.10
432.70	302.50
433.08	305.29
433.45	307.91
433.82	310.55
434.19	313.37
434.56	316.19
434.93	318.82
435.30	321.45
435.68	324.34
436.05	327.18
436.42	329.98
436.79	332.45
437.16	335.10
437.53	337.86
437.90	340.71
438.27	343.47
438.64	346.31
439.01	348.86
439.38	351.13
439.75	353.29
440.13	355.74
440.50	358.05
440.87	359.92
441.24	361.86
441.61	363.95
441.98	365.48
442.35	367.25
442.72	369.11
443.09	370.95
443.46	371.92
443.83	372.49
444.20	372.97
444.57	373.84
444.94	374.14
445.31	374.51
445.68	374.87
446.05	374.92
446.42	374.59
446.79	374.20
447.16	373.79
447.53	373.45
447.90	372.29
448.27	371.11
448.64	369.49
449.01	368.39
449.37	366.47
449.74	364.59
450.11	362.37
450.48	359.91
450.85	357.39
451.22	355.31
451.59	353.31
451.96	351.36
452.33	348.76
452.70	346.44
453.07	343.59
453.43	340.70
453.80	337.96
454.17	335.29
454.54	332.76
454.91	330.03
455.28	327.40
455.65	324.97
456.02	322.56
456.38	320.45
456.75	317.76
457.12	315.50
457.49	313.30
457.86	311.11
458.23	309.25
458.59	307.15
458.96	305.04
459.33	303.20
459.70	301.39
460.07	299.90
460.43	298.17
460.80	296.56
461.17	295.13
461.54	293.64
461.91	292.16
462.27	290.71
462.64	289.47
463.01	288.12
463.38	286.82
463.74	285.44
464.11	284.28
464.48	283.27
464.85	282.19
465.21	281.31
465.58	280.40
465.95	279.27
466.32	278.37
466.68	277.48
467.05	276.59
467.42	275.65
467.78	274.70
468.15	273.85
468.52	273.23
468.88	272.38
469.25	271.59
469.62	270.99
469.98	270.30
470.35	269.66
470.72	269.08
471.08	268.40
471.45	267.87
471.82	267.36
472.18	266.75
472.55	266.29
472.92	265.76
473.28	265.33
473.65	264.92
474.02	264.56
474.38	264.18
474.75	263.85
475.11	263.51
475.48	263.24
475.85	263.02
476.21	262.78
476.58	262.61
476.94	262.47
477.31	262.32
477.67	262.19
478.04	262.07
478.41	262.00
478.77	262.05
479.14	262.00
479.50	262.00
479.87	262.09
480.23	262.20
480.60	262.27
480.96	262.38
481.33	262.64
481.69	262.84
482.06	263.05
482.42	263.28
482.79	263.56
483.15	263.90
483.52	264.30
483.88	264.66
484.25	265.07
484.61	265.53
484.98	265.99
485.34	266.57
485.71	267.16
486.07	267.77
486.44	268.34
486.80	269.03
487.17	269.80
487.53	270.62
487.90	271.46
488.26	272.45
488.62	273.46
488.99	274.42
489.35	275.45
489.72	276.58
490.08	277.77
490.44	279.03
490.81	280.39
491.17	281.75
491.54	283.26
491.90	284.79
492.26	286.44
492.63	288.21
492.99	289.99
493.36	291.95
493.72	293.98
494.08	296.13
494.45	298.43
494.81	300.75
495.17	303.17
495.54	305.79
495.90	308.46
496.26	311.26
496.63	314.25
496.99	317.35
497.35	320.62
497.72	324.06
498.08	327.62
498.44	331.26
498.80	335.21
499.17	339.21
499.53	343.37
499.89	347.74
500.26	352.26
500.62	356.97
500.98	361.91
501.34	367.00
501.71	372.34
502.07	377.78
502.43	383.46
502.79	389.29
503.16	395.33
503.52	401.65
503.88	408.05
504.24	414.68
504.60	421.61
504.97	428.79
505.33	436.07
505.69	443.77
506.05	451.56
506.41	459.42
506.78	467.55
507.14	476.03
507.50	484.76
507.86	493.76
508.22	503.00
508.59	512.18
508.95	521.83
509.31	531.65
509.67	541.72
510.03	552.02
510.39	562.65
510.75	573.44
511.12	584.30
511.48	595.53
511.84	606.92
512.20	618.41
512.56	630.32
512.92	642.48
513.28	654.78
513.64	667.24
514.00	679.91
514.37	692.86
514.73	705.90
515.09	718.91
515.45	732.16
515.81	745.72
516.17	759.65
516.53	773.64
516.89	787.75
517.25	801.90
517.61	816.28
517.97	830.60
518.33	844.99
518.69	859.76
519.05	874.70
519.41	889.91
519.77	905.37
520.13	920.80
520.49	936.12
520.85	951.50
521.21	967.23
521.57	983.33
521.93	999.05
522.29	1015.31
522.65	1031.47
523.01	1047.60
523.37	1063.44
523.73	1079.54
524.09	1095.60
524.45	1111.82
524.81	1128.40
525.17	1145.05
525.53	1161.92
525.89	1178.75
526.25	1195.52
526.61	1211.86
526.97	1228.43
527.33	1244.82
527.68	1261.30
528.04	1277.76
528.40	1294.27
528.76	1311.31
529.12	1327.88
529.48	1344.69
529.84	1360.68
530.20	1377.22
530.56	1394.16
530.91	1411.53
531.27	1428.24
531.63	1444.70
531.99	1461.22
532.35	1477.11
532.71	1493.01
533.07	1509.11
533.42	1524.90
533.78	1540.90
534.14	1557.02
534.50	1572.28
534.86	1588.05
535.21	1603.22
535.57	1619.06
535.93	1634.45
536.29	1649.03
536.65	1664.00
537.00	1678.65
537.36	1693.88
537.72	1708.29
538.08	1722.61
538.44	1736.43
538.79	1750.32
539.15	1763.84
539.51	1777.39
539.87	1791.60
540.22	1805.07
540.58	1818.81
540.94	1832.09
541.29	1844.74
541.65	1857.40
542.01	1870.54
542.37	1882.88
542.72	1895.08
543.08	1906.77
543.44	1919.10
543.79	1930.25
544.15	1941.24
544.51	1952.80
544.87	1963.66
545.22	1974.39
545.58	1984.55
545.94	1994.18
546.29	2003.87
546.65	2013.64
547.01	2022.84
547.36	2031.46
547.72	2040.02
548.07	2047.86
548.43	2055.88
548.79	2063.99
549.14	2071.53
549.50	2078.93
549.86	2086.53
550.21	2093.78
550.57	2100.79
550.92	2107.30
551.28	2114.19
551.64	2121.26
551.99	2127.62
552.35	2133.73
552.70	2139.96
553.06	2145.94
553.41	2152.30
553.77	2158.23
554.13	2164.31
554.48	2170.45
554.84	2175.99
555.19	2181.23
555.55	2186.28
555.90	2190.77
556.26	2195.53
556.61	2200.14
556.97	2204.35
557.32	2208.41
557.68	2212.74
558.03	2217.03
558.39	2220.70
558.74	2225.40
559.10	2229.19
559.45	2232.82
559.81	2237.01
560.16	2240.82
560.52	2244.13
560.87	2247.44
561.23	2250.18
561.58	2253.11
561.94	2255.66
562.29	2257.89
562.64	2260.43
563.00	2262.94
563.35	2266.39
563.71	2269.61
564.06	2272.88
564.42	2275.73
564.77	2278.26
565.12	2280.51
565.48	2282.51
565.83	2284.54
566.19	2285.99
566.54	2286.82
566.89	2288.00
567.25	2288.68
567.60	2289.91
567.96	2291.48
568.31	2292.34
568.66	2293.47
569.02	2294.06
569.37	2294.40
569.72	2295.42
570.08	2295.81
570.43	2296.02
570.78	2295.60
571.14	2294.05
571.49	2292.73
571.84	2292.47
572.20	2291.41
572.55	2290.21
572.90	2288.68
573.26	2287.29
573.61	2285.61
573.96	2283.99
574.31	2281.21
574.67	2278.42
575.02	2274.98
575.37	2271.70
575.72	2268.06
576.08	2264.73
576.43	2261.39
576.78	2257.78
577.13	2254.58
577.49	2251.59
577.84	2248.21
578.19	2244.53
578.54	2240.97
578.90	2236.95
579.25	2231.28
579.60	2226.49
579.95	2221.59
580.30	2216.86
580.66	2211.69
581.01	2206.79
581.36	2201.94
581.71	2197.84
582.06	2193.45
582.42	2189.00
582.77	2183.84
583.12	2179.37
583.47	2174.76
583.82	2170.02
584.17	2164.86
584.53	2159.58
584.88	2153.92
585.23	2148.08
585.58	2142.63
585.93	2137.31
586.28	2132.50
586.63	2127.70
586.98	2122.55
587.34	2118.05
587.69	2113.17
588.04	2107.91
588.39	2102.31
588.74	2095.90
589.09	2089.88
589.44	2083.10
589.79	2077.21
590.14	2071.75
590.49	2065.08
590.84	2058.74
591.19	2052.68
591.54	2046.27
591.89	2038.91
592.25	2032.08
592.60	2024.98
592.95	2017.46
593.30	2010.11
593.65	2002.62
594.00	1995.65
594.35	1988.42
594.70	1980.44
595.05	1973.12
595.40	1965.98
595.75	1958.59
596.10	1952.46
596.45	1945.67
596.80	1939.47
597.15	1932.89
597.50	1925.80
597.85	1919.53
598.19	1912.93
598.54	1905.75
598.89	1899.19
599.24	1893.29
599.59	1886.66
599.94	1880.54
600.29	1874.28
600.64	1867.65
600.99	1860.24
601.34	1853.39
601.69	1846.54
602.04	1839.61
602.39	1832.35
602.74	1825.57
603.08	1818.70
603.43	1811.91
603.78	1804.65
604.13	1797.54
604.48	1790.14
604.83	1783.27
605.18	1776.30
605.53	1768.43
605.87	1760.66
606.22	1753.43
606.57	1745.48
606.92	1738.18
607.27	1731.04
607.62	1724.14
607.96	1716.95
608.31	1710.36
608.66	1702.80
609.01	1695.28
609.36	1687.80
609.70	1679.74
610.05	1671.73
610.40	1664.12
610.75	1655.85
611.10	1648.20
611.44	1639.74
611.79	1631.86
612.14	1623.24
612.49	1614.12
612.83	1605.69
613.18	1597.45
613.53	1589.31
613.88	1580.83
614.22	1572.50
614.57	1563.81
614.92	1555.80
615.27	1548.17
615.61	1539.83
615.96	1531.75
616.31	1524.08
616.65	1516.68
617.00	1509.24
617.35	1501.56
617.70	1493.32
618.04	1484.77
618.39	1476.51
618.74	1469.00
619.08	1460.62
619.43	1452.93
619.78	1445.96
620.12	1438.81
620.47	1431.33
620.82	1423.17
621.16	1415.71
621.51	1408.22
621.85	1400.55
622.20	1392.00
622.55	1383.81
622.89	1375.95
623.24	1368.32
623.59	1360.98
623.93	1353.46
624.28	1346.12
624.62	1338.60
624.97	1331.42
625.32	1324.74
625.66	1317.72
626.01	1310.46
626.35	1303.06
626.70	1295.35
627.04	1287.52
627.39	1279.78
627.73	1272.31
628.08	1265.43
628.43	1258.22
628.77	1250.85
629.12	1243.36
629.46	1236.23
629.81	1228.74
630.15	1221.54
630.50	1214.17
630.84	1205.95
631.19	1198.06
631.53	1190.58
631.88	1183.02
632.22	1175.30
632.57	1168.00
632.91	1160.45
633.26	1152.96
633.60	1145.59
633.95	1138.49
634.29	1131.53
634.64	1124.76
634.98	1117.49
635.32	1110.31
635.67	1103.65
636.01	1096.97
636.36	1090.24
636.70	1083.65
637.05	1077.04
637.39	1070.54
637.73	1063.99
638.08	1058.03
638.42	1051.99
638.77	1045.55
639.11	1038.93
639.45	1032.58
639.80	1025.91
640.14	1019.54
640.49	1013.05
640.83	1006.71
641.17	1000.46
641.52	994.19
641.86	987.74
642.20	981.75
642.55	975.36
642.89	968.74
643.23	962.25
643.58	956.40
643.92	950.22
644.26	944.20
644.61	938.21
644.95	932.23
645.29	925.67
645.64	918.91
645.98	912.57
646.32	906.72
646.66	900.66
647.01	894.86
647.35	889.08
647.69	883.27
648.04	877.78
648.38	871.94
648.72	865.85
649.06	859.74
649.41	853.93
649.75	848.08
650.09	842.27
650.43	836.45
650.78	830.31
651.12	824.30
651.46	818.45
651.80	812.75
652.14	807.37
652.49	801.98
652.83	796.81
653.17	791.11
653.51	785.42
653.85	780.03
654.20	774.39
654.54	768.39
654.88	762.62
655.22	756.66
655.56	750.97
655.90	745.53
656.25	740.36
656.59	734.98
656.93	729.88
657.27	724.72
657.61	719.31
657.95	714.20
658.29	709.21
658.64	704.05
658.98	698.68
659.32	693.20
659.66	688.02
660.00	682.69
660.34	677.72
660.68	672.73
661.02	667.74
661.36	663.02
661.70	658.49
662.05	654.17
662.39	649.83
662.73	645.39
663.07	641.08
663.41	636.64
663.75	632.20
664.09	627.68
664.43	623.26
664.77	619.12
665.11	614.91
665.45	610.72
665.79	606.56
666.13	602.39
666.47	598.28
666.81	594.13
667.15	590.04
667.49	586.13
667.83	582.34
668.17	578.36
668.51	574.27
668.85	570.22
669.19	566.38
669.53	562.58
669.87	558.71
670.21	554.91
670.55	551.23
670.89	547.79
671.23	544.38
671.57	540.87
671.91	537.32
672.25	533.80
672.58	530.23
672.92	526.87
673.26	523.69
673.60	520.51
673.94	517.40
674.28	514.44
674.62	511.55
674.96	508.47
675.30	505.55
675.64	502.60
675.97	499.81
676.31	496.94
676.65	494.03
676.99	491.32
677.33	488.48
677.67	485.64
678.01	482.61
678.34	479.55
678.68	476.68
679.02	473.82
679.36	470.99
679.70	468.30
680.04	465.58
680.37	462.73
680.71	459.92
681.05	457.25
681.39	454.47
681.73	451.73
682.06	449.16
682.40	446.63
682.74	444.12
683.08	441.61
683.42	438.98
683.75	436.42
684.09	433.89
684.43	431.43
684.77	429.01
685.10	426.63
685.44	424.33
685.78	422.03
686.12	419.73
686.45	417.47
686.79	415.17
687.13	412.96
687.46	410.75
687.80	408.64
688.14	406.47
688.48	404.42
688.81	402.21
689.15	400.12
689.49	397.95
689.82	395.83
690.16	393.76
690.50	391.79
690.83	389.88
691.17	387.90
691.51	385.99
691.84	384.13
692.18	382.14
692.52	380.11
692.85	378.18
693.19	376.36
693.52	374.53
693.86	372.70
694.20	370.90
694.53	369.13
694.87	367.26
695.21	365.48
695.54	363.70
695.88	361.96
696.21	360.17
696.55	358.45
696.88	356.74
697.22	355.05
697.56	353.47
697.89	351.81
698.23	350.16
698.56	348.56
698.90	346.99
699.23	345.38
699.57	343.84
699.90	342.31
700.24	340.78
700.58	339.27
700.91	337.76
701.25	336.36
701.58	335.00
701.92	333.65
702.25	332.26
702.59	330.85
702.92	329.49
703.26	328.22
703.59	326.93
703.93	325.80
704.26	324.58
704.60	323.23
704.93	321.98
705.26	320.79
705.60	319.60
705.93	318.41
706.27	317.38
706.60	316.36
706.94	315.28
707.27	314.14
707.61	313.06
707.94	312.11
708.27	311.01
708.61	309.90
708.94	308.85
709.28	307.86
709.61	306.90
709.94	306.00
710.28	304.97
710.61	304.05
710.95	302.97
711.28	302.08
711.61	301.16
711.95	300.23
712.28	299.25
712.61	298.26
712.95	297.34
713.28	296.45
713.61	295.54
713.95	294.65
714.28	293.79
714.61	292.93
714.95	292.07
715.28	291.23
715.61	290.37
715.95	289.56
716.28	288.70
716.61	287.89
716.95	287.06
717.28	286.33
717.61	285.55
717.94	284.79
718.28	283.98
718.61	283.28
718.94	282.59
719.27	281.97
719.61	281.34
719.94	280.65
720.27	279.93
720.60	279.25
720.94	278.63
721.27	278.06
721.60	277.44
721.93	276.78
722.27	276.19
722.60	275.65
722.93	275.05
723.26	274.51
723.59	273.98
723.93	273.45
724.26	272.88
724.59	272.32
724.92	271.81
725.25	271.26
725.59	270.73
725.92	270.20
726.25	269.67
726.58	269.14
726.91	268.66
727.24	268.22
727.57	267.77
727.91	267.27
728.24	266.85
728.57	266.37
728.90	265.94
729.23	265.42
729.56	264.95
729.89	264.48
730.22	264.01
730.55	263.54
730.89	263.05
731.22	262.60
731.55	262.15
731.88	261.70
732.21	261.28
732.54	260.86
732.87	260.46
733.20	260.06
733.53	259.73
733.86	259.33
734.19	258.91
734.52	258.50
734.85	258.20
735.18	257.72
735.51	257.41
735.84	257.04
736.17	256.73
736.50	256.38
736.83	256.18
737.16	255.85
737.49	255.51
737.82	255.19
738.15	254.88
738.48	254.58
738.81	254.27
739.14	253.93
739.47	253.60
739.80	253.30
740.13	252.96
740.46	252.60
740.79	252.29
741.12	252.00
741.45	251.65
741.78	251.29
742.11	251.02
742.44	250.69
742.77	250.43
743.10	250.10
743.43	249.80
743.75	249.42
744.08	249.27
744.41	248.98
744.74	248.69
745.07	248.39
745.40	248.11
745.73	247.88
746.06	247.64
746.39	247.39
746.71	247.12
747.04	246.83
747.37	246.58
747.70	246.36
748.03	246.09
748.36	245.93
748.68	245.72
749.01	245.47
749.34	245.25
749.67	245.00
750.00	244.79
750.33	244.65
750.65	244.42
750.98	244.09
751.31	243.91
751.64	243.74
751.97	243.58
752.29	243.39
752.62	243.16
752.95	242.98
753.28	242.77
753.60	242.54
753.93	242.40
754.26	242.20
754.59	241.94
754.91	241.72
755.24	241.54
755.57	241.33
755.90	241.14
756.22	240.91
756.55	240.70
756.88	240.49
757.20	240.20
757.53	240.02
757.86	239.85
758.19	239.65
758.51	239.46
758.84	239.29
759.17	239.04
759.49	238.84
759.82	238.72
760.15	238.59
760.47	238.48
760.80	238.28
761.13	238.14
761.45	238.02
761.78	237.88
762.11	237.71
762.43	237.54
762.76	237.38
763.08	237.27
763.41	237.13
763.74	237.00
764.06	236.89
764.39	236.72
764.71	236.54
765.04	236.44
765.37	236.29
765.69	236.09
766.02	235.99
766.34	235.88
766.67	235.70
767.00	235.59
767.32	235.49
767.65	235.44
767.97	235.31
768.30	235.18
768.62	235.06
768.95	234.94
769.27	234.84
769.60	234.78
769.92	234.69
770.25	234.57
770.57	234.43
770.90	234.35
771.22	234.27
771.55	234.20
771.87	234.10
772.20	234.00
772.52	234.02
772.85	234.04
773.17	233.91
773.50	233.80
773.82	233.69
774.15	233.56
774.47	233.41
774.80	233.31
775.12	233.21
775.45	233.15
775.77	233.10
776.09	233.04
776.42	232.94
776.74	232.90
777.07	232.82
777.39	232.74
777.72	232.66
778.04	232.61
778.36	232.54
778.69	232.48
779.01	232.42
779.33	232.30
779.66	232.16
779.98	232.13
780.31	232.08
780.63	232.06
780.95	232.02
781.28	231.97
781.60	231.92
781.92	231.90
782.25	231.84
782.57	231.78
782.89	231.69
783.22	231.63
783.54	231.54
783.86	231.51
784.19	231.50
784.51	231.47
784.83	231.39
785.16	231.34
785.48	231.28
785.80	231.26
786.12	231.23
786.45	231.18
786.77	231.13
787.09	231.09
