SpectraSuite Data File
++++++++++++++++++++++++++++++++++++
Date: Fri Feb 01 17:05:45 EST 2013
User: group
Dark Spectrum Present: No
Reference Spectrum Present: No
Number of Sampled Component Spectra: 1
Spectrometers: USB2E7196
Integration Time (usec): 35000 (USB2E7196)
Spectra Averaged: 100 (USB2E7196)
Boxcar Smoothing: 10 (USB2E7196)
Correct for Electrical Dark: No (USB2E7196)
Strobe/Lamp Enabled: No (USB2E7196)
Correct for Detector Non-linearity: No (USB2E7196)
Correct for Stray Light: No (USB2E7196)
Number of Pixels in Processed Spectrum: 2048
>>>>>Begin Processed Spectral Data<<<<<
339.09	0.00
339.48	213.53
339.86	214.86
340.24	216.00
340.63	217.44
341.01	220.40
341.39	220.37
341.78	221.89
342.16	222.31
342.54	223.06
342.93	211.60
343.31	222.29
343.69	222.81
344.07	223.24
344.46	223.64
344.84	224.01
345.22	224.21
345.60	224.44
345.99	224.59
346.37	224.71
346.75	224.79
347.13	224.86
347.52	224.90
347.90	224.97
348.28	224.95
348.66	225.00
349.05	225.00
349.43	225.05
349.81	225.10
350.19	225.18
350.57	225.20
350.96	225.25
351.34	225.30
351.72	225.39
352.10	225.49
352.48	225.57
352.87	225.64
353.25	225.72
353.63	225.77
354.01	225.85
354.39	225.95
354.77	226.05
355.15	226.18
355.54	226.24
355.92	226.28
356.30	226.38
356.68	226.50
357.06	226.57
357.44	226.60
357.82	226.67
358.20	226.74
358.58	226.84
358.97	226.92
359.35	227.01
359.73	227.10
360.11	227.17
360.49	227.23
360.87	227.25
361.25	227.32
361.63	227.43
362.01	227.47
362.39	227.52
362.77	227.54
363.15	227.50
363.53	227.55
363.91	227.59
364.29	227.63
364.67	227.58
365.05	227.59
365.43	227.64
365.81	227.69
366.19	227.71
366.57	227.76
366.95	227.80
367.33	227.80
367.71	227.81
368.09	227.83
368.47	227.83
368.85	227.83
369.23	227.83
369.61	227.76
369.99	227.77
370.37	227.76
370.75	227.78
371.13	227.76
371.51	227.74
371.89	227.75
372.27	227.75
372.65	227.72
373.03	227.67
373.41	227.60
373.78	227.53
374.16	227.43
374.54	227.37
374.92	227.32
375.30	227.28
375.68	227.19
376.06	227.14
376.44	227.08
376.82	227.05
377.19	227.00
377.57	226.95
377.95	226.89
378.33	226.82
378.71	226.71
379.09	226.67
379.47	226.62
379.84	226.49
380.22	226.42
380.60	226.36
380.98	226.31
381.36	226.27
381.73	226.23
382.11	226.20
382.49	226.14
382.87	226.05
383.25	225.95
383.62	226.01
384.00	225.92
384.38	225.85
384.76	225.81
385.13	225.81
385.51	225.75
385.89	225.69
386.27	225.64
386.64	225.60
387.02	225.52
387.40	225.46
387.78	225.43
388.15	225.38
388.53	225.33
388.91	225.30
389.29	225.24
389.66	225.19
390.04	225.13
390.42	225.07
390.79	225.05
391.17	225.06
391.55	224.90
391.92	224.91
392.30	224.92
392.68	224.87
393.05	224.84
393.43	224.82
393.81	224.80
394.18	224.82
394.56	224.85
394.94	224.87
395.31	224.90
395.69	224.96
396.06	224.96
396.44	224.98
396.82	225.00
397.19	225.05
397.57	225.07
397.95	225.12
398.32	225.15
398.70	225.19
399.07	225.25
399.45	225.31
399.82	225.33
400.20	225.37
400.58	225.44
400.95	225.44
401.33	225.55
401.70	225.67
402.08	225.71
402.45	225.78
402.83	225.89
403.20	225.95
403.58	226.02
403.95	226.17
404.33	226.27
404.71	226.40
405.08	226.56
405.46	226.69
405.83	226.82
406.21	226.97
406.58	227.11
406.96	227.26
407.33	227.43
407.70	227.61
408.08	227.88
408.45	228.10
408.83	228.36
409.20	228.53
409.58	228.70
409.95	228.98
410.33	229.27
410.70	229.51
411.08	229.84
411.45	230.16
411.82	230.45
412.20	230.80
412.57	231.19
412.95	231.52
413.32	231.95
413.69	232.35
414.07	232.82
414.44	233.30
414.82	233.77
415.19	234.30
415.56	234.83
415.94	235.36
416.31	236.01
416.68	236.63
417.06	237.39
417.43	238.09
417.81	238.86
418.18	239.62
418.55	240.45
418.93	241.29
419.30	242.17
419.67	243.12
420.04	244.11
420.42	245.12
420.79	246.31
421.16	247.45
421.54	248.69
421.91	249.88
422.28	251.18
422.66	252.50
423.03	253.83
423.40	255.20
423.77	256.62
424.15	258.04
424.52	259.54
424.89	261.13
425.26	262.68
425.64	264.11
426.01	265.69
426.38	267.37
426.75	269.05
427.13	270.76
427.50	272.54
427.87	274.41
428.24	276.24
428.61	277.97
428.99	279.87
429.36	281.90
429.73	283.92
430.10	285.92
430.47	287.98
430.85	290.09
431.22	292.30
431.59	294.64
431.96	296.87
432.33	299.27
432.70	301.60
433.08	304.39
433.45	307.01
433.82	309.61
434.19	312.43
434.56	315.24
434.93	317.85
435.30	320.43
435.68	323.28
436.05	326.06
436.42	328.85
436.79	331.37
437.16	334.06
437.53	336.87
437.90	339.62
438.27	342.40
438.64	345.16
439.01	347.70
439.38	349.91
439.75	352.04
440.13	354.53
440.50	356.85
440.87	358.64
441.24	360.60
441.61	362.69
441.98	364.15
442.35	365.91
442.72	367.76
443.09	369.56
443.46	370.50
443.83	371.08
444.20	371.55
444.57	372.36
444.94	372.64
445.31	372.97
445.68	373.32
446.05	373.33
446.42	372.97
446.79	372.60
447.16	372.21
447.53	371.94
447.90	370.78
448.27	369.65
448.64	368.09
449.01	366.96
449.37	365.07
449.74	363.21
450.11	360.99
450.48	358.54
450.85	356.03
451.22	353.93
451.59	351.98
451.96	350.05
452.33	347.47
452.70	345.18
453.07	342.37
453.43	339.53
453.80	336.79
454.17	334.13
454.54	331.61
454.91	328.85
455.28	326.17
455.65	323.71
456.02	321.29
456.38	319.18
456.75	316.53
457.12	314.27
457.49	312.07
457.86	309.92
458.23	308.12
458.59	306.06
458.96	304.04
459.33	302.22
459.70	300.36
460.07	298.88
460.43	297.15
460.80	295.56
461.17	294.15
461.54	292.68
461.91	291.28
462.27	289.85
462.64	288.61
463.01	287.30
463.38	286.04
463.74	284.71
464.11	283.56
464.48	282.55
464.85	281.48
465.21	280.63
465.58	279.69
465.95	278.57
466.32	277.70
466.68	276.81
467.05	275.90
467.42	275.01
467.78	274.10
468.15	273.26
468.52	272.63
468.88	271.76
469.25	271.01
469.62	270.42
469.98	269.79
470.35	269.20
470.72	268.63
471.08	268.01
471.45	267.44
471.82	266.88
472.18	266.31
472.55	265.86
472.92	265.38
473.28	264.96
473.65	264.54
474.02	264.14
474.38	263.76
474.75	263.44
475.11	263.15
475.48	262.92
475.85	262.70
476.21	262.45
476.58	262.29
476.94	262.17
477.31	262.02
477.67	261.86
478.04	261.75
478.41	261.65
478.77	261.69
479.14	261.67
479.50	261.72
479.87	261.77
480.23	261.88
480.60	261.94
480.96	262.04
481.33	262.24
481.69	262.42
482.06	262.63
482.42	262.87
482.79	263.12
483.15	263.39
483.52	263.77
483.88	264.14
484.25	264.51
484.61	264.93
484.98	265.36
485.34	265.92
485.71	266.51
486.07	267.10
486.44	267.68
486.80	268.35
487.17	269.09
487.53	269.94
487.90	270.78
488.26	271.69
488.62	272.67
488.99	273.64
489.35	274.67
489.72	275.77
490.08	276.94
490.44	278.15
490.81	279.50
491.17	280.85
491.54	282.34
491.90	283.87
492.26	285.50
492.63	287.22
492.99	288.96
493.36	290.84
493.72	292.92
494.08	295.03
494.45	297.30
494.81	299.64
495.17	302.03
495.54	304.57
495.90	307.24
496.26	310.05
496.63	313.00
496.99	316.16
497.35	319.45
497.72	322.88
498.08	326.35
498.44	330.01
498.80	333.90
499.17	337.88
499.53	342.05
499.89	346.40
500.26	350.92
500.62	355.61
500.98	360.50
501.34	365.56
501.71	370.83
502.07	376.20
502.43	381.77
502.79	387.54
503.16	393.60
503.52	399.82
503.88	406.17
504.24	412.77
504.60	419.54
504.97	426.56
505.33	433.77
505.69	441.49
506.05	449.18
506.41	456.96
506.78	465.01
507.14	473.35
507.50	481.96
507.86	490.85
508.22	499.92
508.59	509.05
508.95	518.46
509.31	528.17
509.67	538.16
510.03	548.33
510.39	558.75
510.75	569.39
511.12	580.17
511.48	591.26
511.84	602.55
512.20	613.91
512.56	625.63
512.92	637.59
513.28	649.69
513.64	661.97
514.00	674.50
514.37	687.22
514.73	700.11
515.09	712.97
515.45	726.01
515.81	739.36
516.17	753.16
516.53	767.02
516.89	780.90
517.25	794.77
517.61	808.92
517.97	823.06
518.33	837.17
518.69	851.72
519.05	866.37
519.41	881.26
519.77	896.49
520.13	911.61
520.49	926.78
520.85	941.90
521.21	957.27
521.57	973.10
521.93	988.53
522.29	1004.53
522.65	1020.49
523.01	1036.30
523.37	1051.98
523.73	1067.70
524.09	1083.48
524.45	1099.42
524.81	1115.72
525.17	1132.07
525.53	1148.67
525.89	1165.26
526.25	1181.66
526.61	1197.77
526.97	1214.00
527.33	1230.12
527.68	1246.34
528.04	1262.42
528.40	1278.57
528.76	1295.25
529.12	1311.48
529.48	1327.99
529.84	1343.60
530.20	1359.70
530.56	1376.28
530.91	1393.23
531.27	1409.66
531.63	1425.83
531.99	1441.98
532.35	1457.55
532.71	1473.10
533.07	1489.03
533.42	1504.55
533.78	1520.28
534.14	1536.17
534.50	1551.24
534.86	1566.79
535.21	1581.63
535.57	1597.10
535.93	1612.18
536.29	1626.73
536.65	1641.34
537.00	1655.75
537.36	1670.67
537.72	1684.94
538.08	1699.04
538.44	1712.67
538.79	1726.17
539.15	1739.36
539.51	1752.64
539.87	1766.69
540.22	1780.04
540.58	1793.34
540.94	1806.22
541.29	1818.66
541.65	1830.99
542.01	1843.84
542.37	1855.88
542.72	1868.03
543.08	1879.57
543.44	1891.64
543.79	1902.52
544.15	1913.37
544.51	1924.62
544.87	1935.31
545.22	1945.85
545.58	1955.91
545.94	1965.37
546.29	1974.98
546.65	1984.70
547.01	1994.00
547.36	2002.45
547.72	2010.82
548.07	2018.52
548.43	2026.58
548.79	2034.46
549.14	2041.82
549.50	2049.10
549.86	2056.58
550.21	2063.90
550.57	2070.98
550.92	2077.54
551.28	2084.50
551.64	2091.48
551.99	2098.08
552.35	2104.22
552.70	2110.38
553.06	2116.38
553.41	2122.55
553.77	2128.59
554.13	2134.53
554.48	2140.55
554.84	2146.17
555.19	2151.41
555.55	2156.56
555.90	2161.13
556.26	2166.16
556.61	2171.08
556.97	2175.52
557.32	2179.59
557.68	2183.61
558.03	2187.88
558.39	2191.62
558.74	2196.30
559.10	2200.17
559.45	2203.82
559.81	2208.12
560.16	2212.10
560.52	2215.36
560.87	2218.92
561.23	2221.62
561.58	2224.74
561.94	2227.43
562.29	2229.79
562.64	2232.65
563.00	2235.30
563.35	2238.91
563.71	2242.08
564.06	2245.14
564.42	2248.12
564.77	2250.85
565.12	2253.42
565.48	2255.59
565.83	2257.72
566.19	2259.29
566.54	2260.31
566.89	2261.70
567.25	2262.48
567.60	2263.75
567.96	2265.59
568.31	2266.69
568.66	2268.06
569.02	2268.75
569.37	2269.24
569.72	2270.46
570.08	2270.90
570.43	2271.26
570.78	2270.86
571.14	2269.52
571.49	2268.54
571.84	2268.26
572.20	2267.39
572.55	2266.44
572.90	2264.95
573.26	2263.76
573.61	2262.11
573.96	2260.78
574.31	2258.10
574.67	2255.39
575.02	2252.04
575.37	2248.93
575.72	2245.29
576.08	2242.01
576.43	2238.76
576.78	2235.32
577.13	2232.02
577.49	2228.90
577.84	2225.58
578.19	2222.03
578.54	2218.77
578.90	2214.81
579.25	2209.57
579.60	2204.95
579.95	2200.18
580.30	2195.45
580.66	2190.44
581.01	2185.75
581.36	2180.88
581.71	2176.93
582.06	2172.69
582.42	2168.59
582.77	2163.59
583.12	2159.38
583.47	2155.17
583.82	2150.59
584.17	2145.65
584.53	2140.56
584.88	2135.19
585.23	2129.68
585.58	2124.25
585.93	2118.77
586.28	2114.21
586.63	2109.48
586.98	2104.43
587.34	2099.91
587.69	2095.09
588.04	2090.08
588.39	2084.72
588.74	2078.47
589.09	2072.48
589.44	2065.99
589.79	2059.94
590.14	2054.41
590.49	2047.90
590.84	2041.50
591.19	2035.71
591.54	2029.40
591.89	2022.39
592.25	2015.99
592.60	2009.01
592.95	2001.90
593.30	1995.04
593.65	1987.57
594.00	1980.49
594.35	1973.55
594.70	1965.71
595.05	1958.98
595.40	1951.84
595.75	1944.48
596.10	1938.56
596.45	1932.04
596.80	1926.10
597.15	1919.70
597.50	1912.89
597.85	1906.56
598.19	1900.16
598.54	1893.29
598.89	1886.76
599.24	1880.96
599.59	1874.46
599.94	1868.21
600.29	1862.03
600.64	1855.41
600.99	1848.26
601.34	1841.66
601.69	1834.65
602.04	1828.02
602.39	1820.63
602.74	1814.03
603.08	1807.37
603.43	1800.74
603.78	1793.45
604.13	1786.31
604.48	1779.21
604.83	1772.46
605.18	1765.81
605.53	1757.97
605.87	1750.07
606.22	1743.08
606.57	1735.26
606.92	1727.92
607.27	1721.07
607.62	1714.28
607.96	1707.25
608.31	1700.82
608.66	1693.36
609.01	1686.16
609.36	1678.73
609.70	1670.91
610.05	1662.95
610.40	1655.37
610.75	1647.18
611.10	1639.74
611.44	1631.36
611.79	1623.41
612.14	1614.90
612.49	1605.82
612.83	1597.47
613.18	1589.43
613.53	1581.30
613.88	1572.73
614.22	1564.54
614.57	1555.85
614.92	1547.78
615.27	1540.37
615.61	1532.01
615.96	1524.03
616.31	1516.33
616.65	1508.92
617.00	1501.48
617.35	1493.83
617.70	1485.65
618.04	1477.29
618.39	1469.03
618.74	1461.51
619.08	1453.29
619.43	1445.59
619.78	1438.65
620.12	1431.70
620.47	1424.20
620.82	1416.05
621.16	1408.63
621.51	1401.11
621.85	1393.61
622.20	1385.22
622.55	1376.74
622.89	1368.90
623.24	1361.25
623.59	1353.88
623.93	1346.39
624.28	1339.18
624.62	1331.72
624.97	1324.53
625.32	1317.60
625.66	1310.63
626.01	1303.58
626.35	1296.26
626.70	1288.51
627.04	1280.89
627.39	1273.02
627.73	1265.58
628.08	1258.75
628.43	1251.67
628.77	1244.29
629.12	1236.81
629.46	1229.69
629.81	1222.27
630.15	1215.00
630.50	1207.76
630.84	1199.64
631.19	1191.72
631.53	1184.15
631.88	1176.63
632.22	1169.05
632.57	1161.89
632.91	1154.36
633.26	1146.97
633.60	1139.56
633.95	1132.52
634.29	1125.46
634.64	1118.85
634.98	1111.66
635.32	1104.58
635.67	1097.92
636.01	1091.34
636.36	1084.55
636.70	1078.00
637.05	1071.40
637.39	1065.04
637.73	1058.55
638.08	1052.65
638.42	1046.74
638.77	1040.31
639.11	1033.78
639.45	1027.47
639.80	1020.78
640.14	1014.43
640.49	1007.89
640.83	1001.58
641.17	995.50
641.52	989.15
641.86	982.68
642.20	976.78
642.55	970.37
642.89	963.97
643.23	957.40
643.58	951.72
643.92	945.64
644.26	939.76
644.61	933.69
644.95	927.71
645.29	921.23
645.64	914.52
645.98	908.30
646.32	902.39
646.66	896.36
647.01	890.70
647.35	885.04
647.69	879.25
648.04	873.76
648.38	868.01
648.72	862.10
649.06	856.11
649.41	850.27
649.75	844.47
650.09	838.53
650.43	832.89
650.78	826.80
651.12	820.90
651.46	815.14
651.80	809.54
652.14	804.14
652.49	798.85
652.83	793.73
653.17	788.19
653.51	782.59
653.85	777.27
654.20	771.68
654.54	765.68
654.88	759.94
655.22	754.08
655.56	748.36
655.90	742.95
656.25	737.79
656.59	732.54
656.93	727.45
657.27	722.40
657.61	716.94
657.95	711.79
658.29	706.70
658.64	701.52
658.98	696.19
659.32	690.80
659.66	685.60
660.00	680.30
660.34	675.26
660.68	670.43
661.02	665.37
661.36	660.61
661.70	656.18
662.05	651.93
662.39	647.70
662.73	643.25
663.07	638.88
663.41	634.41
663.75	629.95
664.09	625.43
664.43	621.01
664.77	616.97
665.11	612.85
665.45	608.68
665.79	604.66
666.13	600.55
666.47	596.49
666.81	592.41
667.15	588.32
667.49	584.45
667.83	580.59
668.17	576.72
668.51	572.72
668.85	568.66
669.19	564.78
669.53	560.92
669.87	557.18
670.21	553.44
670.55	549.84
670.89	546.36
671.23	542.90
671.57	539.39
671.91	535.84
672.25	532.26
672.58	528.71
672.92	525.22
673.26	522.07
673.60	518.89
673.94	515.79
674.28	512.87
674.62	510.01
674.96	506.92
675.30	504.06
675.64	501.19
675.97	498.40
676.31	495.52
676.65	492.59
676.99	489.87
677.33	487.06
677.67	484.26
678.01	481.20
678.34	478.28
678.68	475.38
679.02	472.58
679.36	469.78
679.70	467.12
680.04	464.39
680.37	461.53
680.71	458.74
681.05	456.09
681.39	453.37
681.73	450.68
682.06	448.15
682.40	445.57
682.74	442.96
683.08	440.43
683.42	437.80
683.75	435.33
684.09	432.73
684.43	430.27
684.77	427.79
685.10	425.49
685.44	423.19
685.78	420.91
686.12	418.68
686.45	416.44
686.79	414.16
687.13	411.95
687.46	409.82
687.80	407.68
688.14	405.44
688.48	403.43
688.81	401.19
689.15	399.02
689.49	396.87
689.82	394.80
690.16	392.75
690.50	390.82
690.83	388.88
691.17	386.90
691.51	385.01
691.84	383.13
692.18	381.21
692.52	379.24
692.85	377.34
693.19	375.46
693.52	373.63
693.86	371.80
694.20	370.05
694.53	368.24
694.87	366.40
695.21	364.60
695.54	362.73
695.88	361.02
696.21	359.31
696.55	357.62
696.88	355.97
697.22	354.22
697.56	352.60
697.89	350.97
698.23	349.36
698.56	347.75
698.90	346.22
699.23	344.61
699.57	343.05
699.90	341.50
700.24	339.94
700.58	338.43
700.91	336.98
701.25	335.55
701.58	334.21
701.92	332.86
702.25	331.51
702.59	330.21
702.92	328.91
703.26	327.62
703.59	326.37
703.93	325.19
704.26	324.01
704.60	322.70
704.93	321.42
705.26	320.19
705.60	318.98
705.93	317.80
706.27	316.70
706.60	315.67
706.94	314.60
707.27	313.45
707.61	312.38
707.94	311.36
708.27	310.27
708.61	309.18
708.94	308.12
709.28	307.14
709.61	306.18
709.94	305.21
710.28	304.19
710.61	303.17
710.95	302.06
711.28	301.16
711.61	300.25
711.95	299.35
712.28	298.43
712.61	297.49
712.95	296.56
713.28	295.71
713.61	294.79
713.95	293.91
714.28	293.08
714.61	292.21
714.95	291.35
715.28	290.50
715.61	289.64
715.95	288.81
716.28	287.97
716.61	287.12
716.95	286.26
717.28	285.54
717.61	284.81
717.94	284.13
718.28	283.34
718.61	282.61
718.94	281.89
719.27	281.23
719.61	280.56
719.94	279.90
720.27	279.16
720.60	278.50
720.94	277.89
721.27	277.32
721.60	276.76
721.93	276.14
722.27	275.58
722.60	275.02
722.93	274.47
723.26	273.94
723.59	273.34
723.93	272.82
724.26	272.24
724.59	271.67
724.92	271.11
725.25	270.58
725.59	270.05
725.92	269.56
726.25	269.05
726.58	268.56
726.91	268.09
727.24	267.60
727.57	267.14
727.91	266.62
728.24	266.13
728.57	265.62
728.90	265.18
729.23	264.65
729.56	264.23
729.89	263.74
730.22	263.22
730.55	262.78
730.89	262.32
731.22	261.85
731.55	261.43
731.88	260.99
732.21	260.55
732.54	260.14
732.87	259.73
733.20	259.32
733.53	258.92
733.86	258.48
734.19	258.10
734.52	257.71
734.85	257.39
735.18	257.00
735.51	256.66
735.84	256.27
736.17	255.97
736.50	255.56
736.83	255.33
737.16	254.99
737.49	254.68
737.82	254.32
738.15	254.01
738.48	253.66
738.81	253.34
739.14	253.03
739.47	252.68
739.80	252.38
740.13	252.04
740.46	251.74
740.79	251.48
741.12	251.16
741.45	250.84
741.78	250.50
742.11	250.26
742.44	249.92
742.77	249.67
743.10	249.35
743.43	249.04
743.75	248.66
744.08	248.52
744.41	248.24
744.74	247.96
745.07	247.69
745.40	247.44
745.73	247.20
746.06	246.92
746.39	246.69
746.71	246.41
747.04	246.16
747.37	245.90
747.70	245.66
748.03	245.42
748.36	245.21
748.68	244.97
749.01	244.69
749.34	244.47
749.67	244.23
750.00	243.99
750.33	243.84
750.65	243.60
750.98	243.25
751.31	243.02
751.64	242.84
751.97	242.69
752.29	242.48
752.62	242.23
752.95	242.03
753.28	241.79
753.60	241.58
753.93	241.41
754.26	241.19
754.59	240.98
754.91	240.80
755.24	240.60
755.57	240.39
755.90	240.21
756.22	240.01
756.55	239.79
756.88	239.63
757.20	239.41
757.53	239.22
757.86	239.10
758.19	238.97
758.51	238.78
758.84	238.57
759.17	238.39
759.49	238.24
759.82	238.14
760.15	238.03
760.47	237.89
760.80	237.70
761.13	237.63
761.45	237.44
761.78	237.25
762.11	237.11
762.43	237.01
762.76	236.86
763.08	236.72
763.41	236.64
763.74	236.49
764.06	236.32
764.39	236.18
764.71	236.03
765.04	235.86
765.37	235.73
765.69	235.62
766.02	235.51
766.34	235.39
766.67	235.21
767.00	235.08
767.32	235.01
767.65	234.95
767.97	234.81
768.30	234.73
768.62	234.61
768.95	234.50
769.27	234.36
769.60	234.25
769.92	234.13
770.25	233.98
770.57	233.84
770.90	233.76
771.22	233.63
771.55	233.50
771.87	233.42
772.20	233.33
772.52	233.31
772.85	233.32
773.17	233.21
773.50	233.09
773.82	232.97
774.15	232.80
774.47	232.66
774.80	232.54
775.12	232.43
775.45	232.37
775.77	232.28
776.09	232.21
776.42	232.13
776.74	232.10
777.07	232.04
777.39	231.99
777.72	231.90
778.04	231.86
778.36	231.82
778.69	231.73
779.01	231.64
779.33	231.47
779.66	231.30
779.98	231.23
780.31	231.18
780.63	231.17
780.95	231.15
781.28	231.07
781.60	231.02
781.92	230.97
782.25	230.87
782.57	230.79
782.89	230.73
783.22	230.67
783.54	230.55
783.86	230.48
784.19	230.40
784.51	230.40
784.83	230.31
785.16	230.24
785.48	230.19
785.80	230.16
786.12	230.14
786.45	230.06
786.77	230.01
787.09	230.00
