SpectraSuite Data File
++++++++++++++++++++++++++++++++++++
Date: Fri Feb 01 15:43:26 EST 2013
User: group
Dark Spectrum Present: No
Reference Spectrum Present: No
Number of Sampled Component Spectra: 1
Spectrometers: USB2E7196
Integration Time (usec): 35000 (USB2E7196)
Spectra Averaged: 100 (USB2E7196)
Boxcar Smoothing: 10 (USB2E7196)
Correct for Electrical Dark: No (USB2E7196)
Strobe/Lamp Enabled: No (USB2E7196)
Correct for Detector Non-linearity: No (USB2E7196)
Correct for Stray Light: No (USB2E7196)
Number of Pixels in Processed Spectrum: 2048
>>>>>Begin Processed Spectral Data<<<<<
339.09	0.00
339.48	214.23
339.86	216.71
340.24	217.45
340.63	219.69
341.01	221.36
341.39	222.08
341.78	223.11
342.16	224.18
342.54	224.01
342.93	213.15
343.31	223.90
343.69	224.47
344.07	224.89
344.46	225.32
344.84	225.66
345.22	225.92
345.60	226.12
345.99	226.34
346.37	226.46
346.75	226.57
347.13	226.62
347.52	226.67
347.90	226.74
348.28	226.78
348.66	226.83
349.05	226.85
349.43	226.88
349.81	226.88
350.19	226.90
350.57	226.99
350.96	227.04
351.34	227.13
351.72	227.22
352.10	227.32
352.48	227.35
352.87	227.41
353.25	227.46
353.63	227.55
354.01	227.57
354.39	227.64
354.77	227.76
355.15	227.85
355.54	227.91
355.92	227.93
356.30	228.03
356.68	228.12
357.06	228.19
357.44	228.23
357.82	228.31
358.20	228.43
358.58	228.49
358.97	228.56
359.35	228.66
359.73	228.72
360.11	228.80
360.49	228.91
360.87	229.00
361.25	229.06
361.63	229.13
362.01	229.20
362.39	229.27
362.77	229.30
363.15	229.33
363.53	229.37
363.91	229.40
364.29	229.41
364.67	229.38
365.05	229.41
365.43	229.44
365.81	229.47
366.19	229.50
366.57	229.54
366.95	229.52
367.33	229.49
367.71	229.47
368.09	229.48
368.47	229.45
368.85	229.43
369.23	229.44
369.61	229.43
369.99	229.41
370.37	229.37
370.75	229.40
371.13	229.36
371.51	229.32
371.89	229.33
372.27	229.27
372.65	229.23
373.03	229.16
373.41	229.11
373.78	229.05
374.16	228.95
374.54	228.84
374.92	228.79
375.30	228.73
375.68	228.67
376.06	228.60
376.44	228.53
376.82	228.44
377.19	228.36
377.57	228.25
377.95	228.17
378.33	228.09
378.71	227.93
379.09	227.85
379.47	227.83
379.84	227.74
380.22	227.66
380.60	227.57
380.98	227.52
381.36	227.46
381.73	227.40
382.11	227.32
382.49	227.28
382.87	227.21
383.25	227.13
383.62	227.20
384.00	227.11
384.38	227.05
384.76	227.01
385.13	226.99
385.51	226.92
385.89	226.84
386.27	226.84
386.64	226.82
387.02	226.77
387.40	226.71
387.78	226.66
388.15	226.66
388.53	226.60
388.91	226.56
389.29	226.51
389.66	226.45
390.04	226.44
390.42	226.44
390.79	226.44
391.17	226.45
391.55	226.34
391.92	226.36
392.30	226.35
392.68	226.32
393.05	226.31
393.43	226.36
393.81	226.40
394.18	226.35
394.56	226.38
394.94	226.43
395.31	226.41
395.69	226.47
396.06	226.51
396.44	226.55
396.82	226.59
397.19	226.69
397.57	226.76
397.95	226.84
398.32	226.88
398.70	226.92
399.07	226.96
399.45	227.01
399.82	227.08
400.20	227.14
400.58	227.24
400.95	227.27
401.33	227.35
401.70	227.50
402.08	227.60
402.45	227.72
402.83	227.84
403.20	227.97
403.58	228.08
403.95	228.22
404.33	228.38
404.71	228.51
405.08	228.70
405.46	228.83
405.83	228.99
406.21	229.13
406.58	229.30
406.96	229.52
407.33	229.70
407.70	229.92
408.08	230.23
408.45	230.45
408.83	230.70
409.20	230.94
409.58	231.11
409.95	231.38
410.33	231.64
410.70	231.86
411.08	232.16
411.45	232.47
411.82	232.77
412.20	233.11
412.57	233.54
412.95	233.83
413.32	234.23
413.69	234.66
414.07	235.10
414.44	235.60
414.82	236.05
415.19	236.61
415.56	237.09
415.94	237.62
416.31	238.28
416.68	238.91
417.06	239.61
417.43	240.28
417.81	241.06
418.18	241.82
418.55	242.66
418.93	243.52
419.30	244.42
419.67	245.35
420.04	246.28
420.42	247.23
420.79	248.42
421.16	249.58
421.54	250.73
421.91	251.93
422.28	253.18
422.66	254.51
423.03	255.77
423.40	257.10
423.77	258.52
424.15	259.92
424.52	261.38
424.89	262.98
425.26	264.54
425.64	265.97
426.01	267.58
426.38	269.24
426.75	270.91
427.13	272.59
427.50	274.37
427.87	276.27
428.24	278.12
428.61	279.86
428.99	281.77
429.36	283.88
429.73	285.95
430.10	287.97
430.47	290.04
430.85	292.18
431.22	294.49
431.59	296.87
431.96	299.15
432.33	301.65
432.70	304.07
433.08	306.89
433.45	309.52
433.82	312.15
434.19	315.04
434.56	317.87
434.93	320.53
435.30	323.16
435.68	326.04
436.05	328.87
436.42	331.66
436.79	334.17
437.16	336.89
437.53	339.71
437.90	342.46
438.27	345.17
438.64	348.00
439.01	350.57
439.38	352.76
439.75	354.91
440.13	357.43
440.50	359.76
440.87	361.59
441.24	363.59
441.61	365.71
441.98	367.19
442.35	369.02
442.72	370.91
443.09	372.75
443.46	373.76
443.83	374.35
444.20	374.86
444.57	375.72
444.94	375.99
445.31	376.34
445.68	376.70
446.05	376.80
446.42	376.40
446.79	375.95
447.16	375.53
447.53	375.23
447.90	374.06
448.27	372.88
448.64	371.31
449.01	370.17
449.37	368.19
449.74	366.31
450.11	364.04
450.48	361.59
450.85	359.04
451.22	356.90
451.59	354.90
451.96	352.94
452.33	350.29
452.70	347.90
453.07	345.08
453.43	342.23
453.80	339.43
454.17	336.75
454.54	334.21
454.91	331.50
455.28	328.80
455.65	326.31
456.02	323.89
456.38	321.72
456.75	319.02
457.12	316.75
457.49	314.52
457.86	312.33
458.23	310.44
458.59	308.39
458.96	306.27
459.33	304.44
459.70	302.61
460.07	301.18
460.43	299.45
460.80	297.82
461.17	296.36
461.54	294.89
461.91	293.46
462.27	292.02
462.64	290.75
463.01	289.39
463.38	288.06
463.74	286.68
464.11	285.52
464.48	284.51
464.85	283.44
465.21	282.55
465.58	281.61
465.95	280.48
466.32	279.58
466.68	278.67
467.05	277.76
467.42	276.82
467.78	275.86
468.15	275.01
468.52	274.33
468.88	273.45
469.25	272.65
469.62	272.08
469.98	271.39
470.35	270.76
470.72	270.14
471.08	269.49
471.45	268.89
471.82	268.33
472.18	267.72
472.55	267.24
472.92	266.72
473.28	266.26
473.65	265.79
474.02	265.33
474.38	264.95
474.75	264.59
475.11	264.25
475.48	263.96
475.85	263.70
476.21	263.46
476.58	263.29
476.94	263.16
477.31	262.92
477.67	262.76
478.04	262.65
478.41	262.61
478.77	262.65
479.14	262.63
479.50	262.65
479.87	262.68
480.23	262.76
480.60	262.86
480.96	262.95
481.33	263.19
481.69	263.40
482.06	263.63
482.42	263.85
482.79	264.13
483.15	264.48
483.52	264.86
483.88	265.21
484.25	265.62
484.61	266.05
484.98	266.55
485.34	267.16
485.71	267.78
486.07	268.39
486.44	268.98
486.80	269.67
487.17	270.38
487.53	271.22
487.90	272.08
488.26	273.03
488.62	273.98
488.99	274.93
489.35	275.95
489.72	277.05
490.08	278.27
490.44	279.52
490.81	280.87
491.17	282.22
491.54	283.74
491.90	285.25
492.26	286.90
492.63	288.66
492.99	290.40
493.36	292.25
493.72	294.27
494.08	296.36
494.45	298.64
494.81	301.03
495.17	303.48
495.54	306.03
495.90	308.68
496.26	311.53
496.63	314.51
496.99	317.64
497.35	320.91
497.72	324.27
498.08	327.83
498.44	331.50
498.80	335.47
499.17	339.48
499.53	343.66
499.89	348.00
500.26	352.51
500.62	357.18
500.98	362.17
501.34	367.23
501.71	372.56
502.07	377.98
502.43	383.65
502.79	389.50
503.16	395.63
503.52	401.90
503.88	408.28
504.24	414.92
504.60	421.84
504.97	429.00
505.33	436.37
505.69	443.99
506.05	451.81
506.41	459.65
506.78	467.81
507.14	476.30
507.50	485.04
507.86	494.06
508.22	503.24
508.59	512.48
508.95	522.11
509.31	531.90
509.67	541.99
510.03	552.16
510.39	562.72
510.75	573.47
511.12	584.42
511.48	595.77
511.84	607.22
512.20	618.74
512.56	630.62
512.92	642.80
513.28	655.17
513.64	667.59
514.00	680.30
514.37	693.27
514.73	706.28
515.09	719.29
515.45	732.53
515.81	746.16
516.17	760.16
516.53	774.28
516.89	788.49
517.25	802.62
517.61	817.15
517.97	831.58
518.33	846.08
518.69	860.87
519.05	875.87
519.41	891.02
519.77	906.56
520.13	921.99
520.49	937.43
520.85	952.91
521.21	968.67
521.57	984.95
521.93	1000.70
522.29	1017.08
522.65	1033.37
523.01	1049.65
523.37	1065.71
523.73	1081.81
524.09	1097.84
524.45	1114.15
524.81	1130.85
525.17	1147.62
525.53	1164.54
525.89	1181.46
526.25	1198.32
526.61	1214.71
526.97	1231.36
527.33	1247.74
527.68	1264.54
528.04	1280.96
528.40	1297.47
528.76	1314.53
529.12	1331.18
529.48	1348.08
529.84	1364.08
530.20	1380.75
530.56	1397.76
530.91	1415.14
531.27	1431.86
531.63	1448.38
531.99	1465.07
532.35	1480.98
532.71	1496.86
533.07	1513.12
533.42	1528.97
533.78	1544.92
534.14	1561.09
534.50	1576.47
534.86	1592.48
535.21	1607.50
535.57	1623.43
535.93	1639.06
536.29	1653.93
536.65	1668.91
537.00	1683.71
537.36	1699.18
537.72	1713.68
538.08	1728.11
538.44	1741.95
538.79	1756.02
539.15	1769.78
539.51	1783.42
539.87	1797.71
540.22	1811.49
540.58	1825.36
540.94	1838.78
541.29	1851.80
541.65	1864.72
542.01	1878.11
542.37	1890.28
542.72	1902.80
543.08	1914.63
543.44	1926.90
543.79	1937.96
544.15	1948.91
544.51	1960.48
544.87	1971.39
545.22	1982.33
545.58	1992.61
545.94	2002.33
546.29	2012.11
546.65	2021.92
547.01	2031.17
547.36	2040.05
547.72	2048.45
548.07	2056.18
548.43	2064.18
548.79	2072.09
549.14	2079.46
549.50	2086.73
549.86	2094.54
550.21	2101.75
550.57	2108.89
550.92	2115.54
551.28	2122.60
551.64	2129.69
551.99	2136.21
552.35	2142.30
552.70	2148.46
553.06	2154.34
553.41	2160.71
553.77	2166.76
554.13	2172.84
554.48	2179.04
554.84	2184.41
555.19	2189.77
555.55	2194.94
555.90	2199.47
556.26	2204.48
556.61	2209.27
556.97	2213.48
557.32	2217.43
557.68	2221.64
558.03	2225.90
558.39	2229.57
558.74	2234.31
559.10	2238.18
559.45	2241.84
559.81	2246.14
560.16	2249.88
560.52	2253.16
560.87	2256.49
561.23	2259.25
561.58	2262.15
561.94	2264.56
562.29	2266.91
562.64	2269.60
563.00	2272.14
563.35	2275.80
563.71	2278.81
564.06	2281.99
564.42	2284.99
564.77	2287.78
565.12	2289.91
565.48	2291.86
565.83	2293.70
566.19	2294.83
566.54	2295.90
566.89	2296.93
567.25	2297.37
567.60	2298.69
567.96	2300.26
568.31	2301.25
568.66	2302.24
569.02	2302.85
569.37	2303.19
569.72	2304.04
570.08	2304.13
570.43	2304.23
570.78	2303.39
571.14	2301.80
571.49	2300.32
571.84	2299.88
572.20	2298.61
572.55	2297.62
572.90	2296.10
573.26	2294.78
573.61	2293.31
573.96	2291.22
574.31	2288.33
574.67	2285.45
575.02	2281.79
575.37	2278.50
575.72	2274.57
576.08	2271.29
576.43	2267.86
576.78	2264.25
577.13	2261.03
577.49	2257.92
577.84	2254.34
578.19	2250.73
578.54	2247.16
578.90	2243.04
579.25	2237.48
579.60	2232.43
579.95	2227.50
580.30	2222.43
580.66	2217.26
581.01	2212.24
581.36	2207.38
581.71	2203.17
582.06	2198.77
582.42	2194.25
582.77	2188.94
583.12	2184.31
583.47	2179.47
583.82	2174.53
584.17	2169.23
584.53	2163.73
584.88	2157.96
585.23	2152.18
585.58	2146.54
585.93	2141.04
586.28	2136.37
586.63	2131.20
586.98	2126.22
587.34	2121.46
587.69	2116.53
588.04	2111.12
588.39	2105.39
588.74	2099.07
589.09	2092.90
589.44	2086.02
589.79	2080.06
590.14	2074.43
590.49	2067.86
590.84	2061.45
591.19	2055.32
591.54	2048.94
591.89	2041.48
592.25	2034.68
592.60	2027.41
592.95	2019.88
593.30	2012.50
593.65	2004.73
594.00	1997.84
594.35	1990.55
594.70	1982.44
595.05	1975.26
595.40	1968.03
595.75	1960.46
596.10	1954.15
596.45	1947.36
596.80	1941.20
597.15	1934.42
597.50	1927.30
597.85	1920.86
598.19	1914.24
598.54	1907.05
598.89	1900.31
599.24	1894.60
599.59	1888.02
599.94	1881.90
600.29	1875.50
600.64	1868.90
600.99	1861.45
601.34	1854.52
601.69	1847.52
602.04	1840.57
602.39	1833.20
602.74	1826.18
603.08	1819.43
603.43	1812.59
603.78	1805.26
604.13	1797.95
604.48	1790.59
604.83	1783.64
605.18	1776.54
605.53	1768.43
605.87	1760.54
606.22	1753.23
606.57	1745.19
606.92	1737.77
607.27	1730.60
607.62	1723.70
607.96	1716.35
608.31	1709.71
608.66	1702.01
609.01	1694.44
609.36	1686.86
609.70	1678.88
610.05	1670.94
610.40	1663.24
610.75	1655.00
611.10	1647.27
611.44	1638.97
611.79	1630.95
612.14	1622.21
612.49	1613.08
612.83	1604.86
613.18	1596.74
613.53	1588.71
613.88	1580.10
614.22	1571.77
614.57	1563.07
614.92	1555.00
615.27	1547.52
615.61	1539.16
615.96	1531.19
616.31	1523.59
616.65	1516.34
617.00	1508.71
617.35	1501.03
617.70	1492.62
618.04	1484.07
618.39	1475.90
618.74	1468.28
619.08	1460.11
619.43	1452.72
619.78	1445.85
620.12	1438.55
620.47	1431.02
620.82	1422.83
621.16	1415.49
621.51	1408.08
621.85	1400.56
622.20	1392.04
622.55	1383.68
622.89	1375.92
623.24	1368.39
623.59	1360.99
623.93	1353.35
624.28	1346.18
624.62	1338.66
624.97	1331.56
625.32	1324.90
625.66	1317.98
626.01	1310.69
626.35	1303.21
626.70	1295.38
627.04	1287.69
627.39	1279.90
627.73	1272.47
628.08	1265.46
628.43	1258.11
628.77	1250.69
629.12	1243.17
629.46	1236.14
629.81	1228.81
630.15	1221.55
630.50	1214.10
630.84	1205.85
631.19	1198.01
631.53	1190.41
631.88	1182.90
632.22	1175.29
632.57	1167.98
632.91	1160.35
633.26	1152.99
633.60	1145.64
633.95	1138.61
634.29	1131.66
634.64	1125.03
634.98	1117.68
635.32	1110.62
635.67	1104.12
636.01	1097.37
636.36	1090.49
636.70	1083.85
637.05	1077.21
637.39	1070.77
637.73	1064.15
638.08	1058.32
638.42	1052.31
638.77	1045.93
639.11	1039.29
639.45	1032.85
639.80	1026.13
640.14	1019.73
640.49	1013.24
640.83	1006.89
641.17	1000.60
641.52	994.19
641.86	987.70
642.20	981.87
642.55	975.60
642.89	969.05
643.23	962.58
643.58	956.84
643.92	950.67
644.26	944.51
644.61	938.47
644.95	932.52
645.29	925.87
645.64	919.04
645.98	912.64
646.32	906.79
646.66	900.79
647.01	894.93
647.35	889.19
647.69	883.30
648.04	877.79
648.38	871.95
648.72	865.92
649.06	859.83
649.41	853.93
649.75	847.88
650.09	841.96
650.43	836.12
650.78	829.84
651.12	823.86
651.46	818.20
651.80	812.38
652.14	807.06
652.49	801.74
652.83	796.62
653.17	790.89
653.51	785.21
653.85	779.81
654.20	774.15
654.54	768.15
654.88	762.45
655.22	756.54
655.56	750.92
655.90	745.50
656.25	740.32
656.59	734.96
656.93	729.91
657.27	724.75
657.61	719.41
657.95	714.37
658.29	709.29
658.64	704.07
658.98	698.82
659.32	693.34
659.66	688.11
660.00	682.82
660.34	677.92
660.68	673.01
661.02	668.01
661.36	663.34
661.70	658.87
662.05	654.47
662.39	650.12
662.73	645.65
663.07	641.28
663.41	636.81
663.75	632.28
664.09	627.68
664.43	623.30
664.77	619.10
665.11	614.84
665.45	610.75
665.79	606.67
666.13	602.50
666.47	598.35
666.81	594.19
667.15	590.10
667.49	586.21
667.83	582.36
668.17	578.39
668.51	574.38
668.85	570.30
669.19	566.48
669.53	562.66
669.87	558.67
670.21	554.93
670.55	551.30
670.89	547.88
671.23	544.46
671.57	540.91
671.91	537.41
672.25	533.94
672.58	530.40
672.92	526.96
673.26	523.79
673.60	520.71
673.94	517.63
674.28	514.71
674.62	511.73
674.96	508.66
675.30	505.80
675.64	502.82
675.97	500.09
676.31	497.22
676.65	494.31
676.99	491.73
677.33	488.87
677.67	486.07
678.01	483.03
678.34	480.01
678.68	477.17
679.02	474.38
679.36	471.61
679.70	468.93
680.04	466.19
680.37	463.35
680.71	460.53
681.05	457.91
681.39	455.17
681.73	452.54
682.06	449.99
682.40	447.37
682.74	444.91
683.08	442.31
683.42	439.69
683.75	437.16
684.09	434.56
684.43	432.13
684.77	429.64
685.10	427.31
685.44	425.02
685.78	422.73
686.12	420.45
686.45	418.14
686.79	415.79
687.13	413.64
687.46	411.45
687.80	409.29
688.14	407.05
688.48	404.98
688.81	402.69
689.15	400.53
689.49	398.40
689.82	396.26
690.16	394.20
690.50	392.29
690.83	390.37
691.17	388.44
691.51	386.50
691.84	384.65
692.18	382.72
692.52	380.72
692.85	378.77
693.19	376.86
693.52	375.08
693.86	373.24
694.20	371.43
694.53	369.59
694.87	367.75
695.21	365.94
695.54	364.10
695.88	362.44
696.21	360.67
696.55	359.03
696.88	357.35
697.22	355.71
697.56	354.06
697.89	352.39
698.23	350.74
698.56	349.15
698.90	347.51
699.23	345.90
699.57	344.36
699.90	342.85
700.24	341.34
700.58	339.77
700.91	338.31
701.25	336.89
701.58	335.53
701.92	334.16
702.25	332.82
702.59	331.43
702.92	330.08
703.26	328.82
703.59	327.53
703.93	326.32
704.26	325.09
704.60	323.78
704.93	322.54
705.26	321.31
705.60	320.08
705.93	318.94
706.27	317.88
706.60	316.83
706.94	315.75
707.27	314.61
707.61	313.58
707.94	312.55
708.27	311.44
708.61	310.37
708.94	309.35
709.28	308.37
709.61	307.43
709.94	306.50
710.28	305.47
710.61	304.50
710.95	303.46
711.28	302.56
711.61	301.63
711.95	300.70
712.28	299.75
712.61	298.81
712.95	297.92
713.28	297.05
713.61	296.14
713.95	295.29
714.28	294.44
714.61	293.59
714.95	292.76
715.28	291.88
715.61	290.97
715.95	290.14
716.28	289.27
716.61	288.46
716.95	287.64
717.28	286.93
717.61	286.15
717.94	285.43
718.28	284.62
718.61	283.92
718.94	283.26
719.27	282.61
719.61	281.97
719.94	281.33
720.27	280.58
720.60	279.94
720.94	279.33
721.27	278.73
721.60	278.14
721.93	277.54
722.27	277.04
722.60	276.55
722.93	275.97
723.26	275.47
723.59	274.93
723.93	274.40
724.26	273.84
724.59	273.29
724.92	272.79
725.25	272.32
725.59	271.80
725.92	271.29
726.25	270.78
726.58	270.27
726.91	269.75
727.24	269.30
727.57	268.84
727.91	268.27
728.24	267.80
728.57	267.34
728.90	266.91
729.23	266.39
729.56	265.94
729.89	265.49
730.22	264.97
730.55	264.51
730.89	264.04
731.22	263.60
731.55	263.19
731.88	262.73
732.21	262.25
732.54	261.80
732.87	261.37
733.20	260.99
733.53	260.62
733.86	260.24
734.19	259.87
734.52	259.52
734.85	259.19
735.18	258.80
735.51	258.43
735.84	258.01
736.17	257.62
736.50	257.23
736.83	256.99
737.16	256.67
737.49	256.33
737.82	255.95
738.15	255.60
738.48	255.24
738.81	254.92
739.14	254.61
739.47	254.34
739.80	254.03
740.13	253.73
740.46	253.40
740.79	253.07
741.12	252.72
741.45	252.37
741.78	252.08
742.11	251.78
742.44	251.42
742.77	251.15
743.10	250.89
743.43	250.59
743.75	250.20
744.08	250.03
744.41	249.75
744.74	249.51
745.07	249.23
745.40	248.96
745.73	248.72
746.06	248.44
746.39	248.16
746.71	247.84
747.04	247.52
747.37	247.28
747.70	247.03
748.03	246.74
748.36	246.48
748.68	246.19
749.01	245.90
749.34	245.70
749.67	245.43
750.00	245.19
750.33	245.01
750.65	244.79
750.98	244.47
751.31	244.24
751.64	244.02
751.97	243.86
752.29	243.63
752.62	243.38
752.95	243.16
753.28	242.93
753.60	242.73
753.93	242.57
754.26	242.32
754.59	242.10
754.91	241.96
755.24	241.83
755.57	241.63
755.90	241.47
756.22	241.30
756.55	241.15
756.88	240.98
757.20	240.78
757.53	240.57
757.86	240.40
758.19	240.26
758.51	240.09
758.84	239.88
759.17	239.71
759.49	239.57
759.82	239.47
760.15	239.31
760.47	239.19
760.80	239.00
761.13	238.91
761.45	238.76
761.78	238.61
762.11	238.44
762.43	238.31
762.76	238.18
763.08	238.06
763.41	237.95
763.74	237.83
764.06	237.70
764.39	237.60
764.71	237.45
765.04	237.29
765.37	237.17
765.69	237.06
766.02	236.96
766.34	236.84
766.67	236.70
767.00	236.61
767.32	236.59
767.65	236.56
767.97	236.44
768.30	236.35
768.62	236.25
768.95	236.12
769.27	236.02
769.60	235.93
769.92	235.82
770.25	235.68
770.57	235.53
770.90	235.42
771.22	235.33
771.55	235.26
771.87	235.19
772.20	235.09
772.52	235.07
772.85	235.11
773.17	235.04
773.50	234.93
773.82	234.84
774.15	234.66
774.47	234.52
774.80	234.44
775.12	234.34
775.45	234.26
775.77	234.20
776.09	234.11
776.42	234.05
776.74	233.99
777.07	233.91
777.39	233.86
777.72	233.78
778.04	233.72
778.36	233.63
778.69	233.57
779.01	233.49
779.33	233.34
779.66	233.16
779.98	233.07
780.31	233.00
780.63	232.97
780.95	232.95
781.28	232.87
781.60	232.81
781.92	232.75
782.25	232.68
782.57	232.63
782.89	232.58
783.22	232.49
783.54	232.40
783.86	232.35
784.19	232.27
784.51	232.26
784.83	232.17
785.16	232.10
785.48	232.06
785.80	232.01
786.12	231.93
786.45	231.87
786.77	231.83
787.09	231.77
