SpectraSuite Data File
++++++++++++++++++++++++++++++++++++
Date: Fri Feb 01 15:15:13 EST 2013
User: group
Dark Spectrum Present: No
Reference Spectrum Present: No
Number of Sampled Component Spectra: 1
Spectrometers: USB2E7196
Integration Time (usec): 35000 (USB2E7196)
Spectra Averaged: 100 (USB2E7196)
Boxcar Smoothing: 10 (USB2E7196)
Correct for Electrical Dark: No (USB2E7196)
Strobe/Lamp Enabled: No (USB2E7196)
Correct for Detector Non-linearity: No (USB2E7196)
Correct for Stray Light: No (USB2E7196)
Number of Pixels in Processed Spectrum: 2048
>>>>>Begin Processed Spectral Data<<<<<
339.09	0.00
339.48	214.66
339.86	216.28
340.24	217.74
340.63	219.21
341.01	221.33
341.39	222.23
341.78	223.29
342.16	224.51
342.54	225.10
342.93	213.31
343.31	224.09
343.69	224.65
344.07	225.11
344.46	225.54
344.84	225.94
345.22	226.21
345.60	226.46
345.99	226.66
346.37	226.80
346.75	226.88
347.13	226.93
347.52	227.01
347.90	227.10
348.28	227.12
348.66	227.17
349.05	227.16
349.43	227.20
349.81	227.23
350.19	227.28
350.57	227.34
350.96	227.42
351.34	227.50
351.72	227.59
352.10	227.70
352.48	227.79
352.87	227.85
353.25	227.92
353.63	227.98
354.01	228.06
354.39	228.14
354.77	228.23
355.15	228.33
355.54	228.41
355.92	228.49
356.30	228.59
356.68	228.73
357.06	228.83
357.44	228.95
357.82	229.04
358.20	229.12
358.58	229.19
358.97	229.26
359.35	229.36
359.73	229.44
360.11	229.48
360.49	229.54
360.87	229.58
361.25	229.67
361.63	229.73
362.01	229.75
362.39	229.78
362.77	229.84
363.15	229.87
363.53	229.86
363.91	229.87
364.29	229.88
364.67	229.79
365.05	229.79
365.43	229.76
365.81	229.74
366.19	229.76
366.57	229.78
366.95	229.79
367.33	229.72
367.71	229.69
368.09	229.71
368.47	229.68
368.85	229.65
369.23	229.63
369.61	229.55
369.99	229.56
370.37	229.55
370.75	229.53
371.13	229.47
371.51	229.44
371.89	229.41
372.27	229.35
372.65	229.28
373.03	229.22
373.41	229.17
373.78	229.11
374.16	229.02
374.54	228.93
374.92	228.81
375.30	228.77
375.68	228.70
376.06	228.62
376.44	228.55
376.82	228.47
377.19	228.36
377.57	228.29
377.95	228.17
378.33	228.06
378.71	227.93
379.09	227.87
379.47	227.81
379.84	227.72
380.22	227.67
380.60	227.61
380.98	227.55
381.36	227.48
381.73	227.39
382.11	227.32
382.49	227.24
382.87	227.16
383.25	227.09
383.62	227.14
384.00	227.08
384.38	227.01
384.76	226.98
385.13	226.95
385.51	226.91
385.89	226.89
386.27	226.86
386.64	226.82
387.02	226.77
387.40	226.68
387.78	226.62
388.15	226.57
388.53	226.53
388.91	226.48
389.29	226.43
389.66	226.43
390.04	226.42
390.42	226.42
390.79	226.42
391.17	226.39
391.55	226.27
391.92	226.26
392.30	226.26
392.68	226.22
393.05	226.23
393.43	226.24
393.81	226.22
394.18	226.22
394.56	226.24
394.94	226.28
395.31	226.30
395.69	226.40
396.06	226.44
396.44	226.46
396.82	226.50
397.19	226.59
397.57	226.62
397.95	226.65
398.32	226.69
398.70	226.76
399.07	226.86
399.45	226.91
399.82	226.99
400.20	227.06
400.58	227.16
400.95	227.20
401.33	227.31
401.70	227.45
402.08	227.56
402.45	227.65
402.83	227.77
403.20	227.91
403.58	227.97
403.95	228.13
404.33	228.28
404.71	228.42
405.08	228.63
405.46	228.76
405.83	228.93
406.21	229.07
406.58	229.26
406.96	229.45
407.33	229.65
407.70	229.86
408.08	230.15
408.45	230.37
408.83	230.63
409.20	230.85
409.58	231.05
409.95	231.28
410.33	231.56
410.70	231.80
411.08	232.10
411.45	232.41
411.82	232.70
412.20	233.09
412.57	233.51
412.95	233.79
413.32	234.23
413.69	234.64
414.07	235.08
414.44	235.56
414.82	236.01
415.19	236.54
415.56	237.06
415.94	237.60
416.31	238.24
416.68	238.89
417.06	239.59
417.43	240.27
417.81	241.05
418.18	241.85
418.55	242.71
418.93	243.56
419.30	244.47
419.67	245.41
420.04	246.36
420.42	247.33
420.79	248.47
421.16	249.59
421.54	250.79
421.91	252.02
422.28	253.26
422.66	254.59
423.03	255.90
423.40	257.26
423.77	258.70
424.15	260.09
424.52	261.55
424.89	263.16
425.26	264.73
425.64	266.17
426.01	267.76
426.38	269.43
426.75	271.11
427.13	272.82
427.50	274.59
427.87	276.43
428.24	278.30
428.61	280.07
428.99	282.03
429.36	284.11
429.73	286.16
430.10	288.17
430.47	290.20
430.85	292.32
431.22	294.52
431.59	296.90
431.96	299.14
432.33	301.64
432.70	304.03
433.08	306.85
433.45	309.51
433.82	312.12
434.19	314.99
434.56	317.81
434.93	320.49
435.30	323.13
435.68	326.06
436.05	328.98
436.42	331.81
436.79	334.32
437.16	337.04
437.53	339.88
437.90	342.70
438.27	345.51
438.64	348.37
439.01	351.01
439.38	353.23
439.75	355.43
440.13	357.89
440.50	360.24
440.87	362.05
441.24	364.01
441.61	366.20
441.98	367.68
442.35	369.48
442.72	371.31
443.09	373.19
443.46	374.16
443.83	374.65
444.20	375.12
444.57	375.97
444.94	376.26
445.31	376.57
445.68	376.91
446.05	376.99
446.42	376.63
446.79	376.17
447.16	375.73
447.53	375.44
447.90	374.33
448.27	373.15
448.64	371.63
449.01	370.53
449.37	368.55
449.74	366.64
450.11	364.41
450.48	361.94
450.85	359.36
451.22	357.20
451.59	355.25
451.96	353.33
452.33	350.76
452.70	348.40
453.07	345.60
453.43	342.71
453.80	339.92
454.17	337.26
454.54	334.72
454.91	332.00
455.28	329.30
455.65	326.83
456.02	324.38
456.38	322.20
456.75	319.48
457.12	317.26
457.49	315.05
457.86	312.86
458.23	311.03
458.59	308.99
458.96	306.94
459.33	305.03
459.70	303.16
460.07	301.65
460.43	299.95
460.80	298.34
461.17	296.93
461.54	295.44
461.91	293.96
462.27	292.53
462.64	291.26
463.01	289.91
463.38	288.61
463.74	287.22
464.11	286.03
464.48	285.01
464.85	283.87
465.21	283.00
465.58	282.08
465.95	280.94
466.32	280.02
466.68	279.13
467.05	278.23
467.42	277.33
467.78	276.35
468.15	275.46
468.52	274.78
468.88	273.88
469.25	273.08
469.62	272.40
469.98	271.72
470.35	271.08
470.72	270.46
471.08	269.77
471.45	269.23
471.82	268.70
472.18	268.08
472.55	267.62
472.92	267.11
473.28	266.63
473.65	266.18
474.02	265.71
474.38	265.27
474.75	264.94
475.11	264.61
475.48	264.33
475.85	264.08
476.21	263.80
476.58	263.62
476.94	263.49
477.31	263.32
477.67	263.16
478.04	263.03
478.41	262.90
478.77	262.91
479.14	262.85
479.50	262.83
479.87	262.90
480.23	262.93
480.60	262.96
480.96	263.02
481.33	263.22
481.69	263.41
482.06	263.62
482.42	263.79
482.79	264.01
483.15	264.30
483.52	264.64
483.88	264.98
484.25	265.35
484.61	265.73
484.98	266.20
485.34	266.71
485.71	267.27
486.07	267.91
486.44	268.48
486.80	269.18
487.17	269.92
487.53	270.70
487.90	271.58
488.26	272.48
488.62	273.43
488.99	274.38
489.35	275.42
489.72	276.54
490.08	277.76
490.44	279.00
490.81	280.35
491.17	281.75
491.54	283.26
491.90	284.76
492.26	286.43
492.63	288.15
492.99	289.94
493.36	291.90
493.72	293.94
494.08	296.07
494.45	298.35
494.81	300.71
495.17	303.16
495.54	305.75
495.90	308.44
496.26	311.30
496.63	314.27
496.99	317.40
497.35	320.67
497.72	324.07
498.08	327.58
498.44	331.28
498.80	335.17
499.17	339.21
499.53	343.41
499.89	347.74
500.26	352.26
500.62	356.97
500.98	361.89
501.34	366.99
501.71	372.32
502.07	377.74
502.43	383.38
502.79	389.20
503.16	395.21
503.52	401.50
503.88	407.88
504.24	414.58
504.60	421.50
504.97	428.63
505.33	435.94
505.69	443.70
506.05	451.44
506.41	459.32
506.78	467.44
507.14	475.91
507.50	484.68
507.86	493.67
508.22	502.84
508.59	512.03
508.95	521.61
509.31	531.34
509.67	541.40
510.03	551.67
510.39	562.24
510.75	573.13
511.12	584.08
511.48	595.39
511.84	606.80
512.20	618.29
512.56	630.23
512.92	642.45
513.28	654.72
513.64	667.26
514.00	679.96
514.37	692.96
514.73	706.06
515.09	719.04
515.45	732.34
515.81	745.95
516.17	759.98
516.53	773.97
516.89	788.21
517.25	802.47
517.61	816.83
517.97	831.29
518.33	845.68
518.69	860.49
519.05	875.57
519.41	890.80
519.77	906.38
520.13	921.82
520.49	937.20
520.85	952.67
521.21	968.39
521.57	984.63
521.93	1000.41
522.29	1016.77
522.65	1033.07
523.01	1049.30
523.37	1065.34
523.73	1081.52
524.09	1097.74
524.45	1114.23
524.81	1130.87
525.17	1147.77
525.53	1164.78
525.89	1181.66
526.25	1198.59
526.61	1214.97
526.97	1231.75
527.33	1248.26
527.68	1265.01
528.04	1281.51
528.40	1298.09
528.76	1315.25
529.12	1331.92
529.48	1348.86
529.84	1364.98
530.20	1381.73
530.56	1398.95
530.91	1416.40
531.27	1433.21
531.63	1449.70
531.99	1466.23
532.35	1482.28
532.71	1498.15
533.07	1514.35
533.42	1530.32
533.78	1546.32
534.14	1562.71
534.50	1578.11
534.86	1594.03
535.21	1609.16
535.57	1625.26
535.93	1640.89
536.29	1655.67
536.65	1670.97
537.00	1685.93
537.36	1701.37
537.72	1715.85
538.08	1730.34
538.44	1744.25
538.79	1758.21
539.15	1772.12
539.51	1785.89
539.87	1800.28
540.22	1814.07
540.58	1828.08
540.94	1841.59
541.29	1854.65
541.65	1867.48
542.01	1880.76
542.37	1893.11
542.72	1905.72
543.08	1917.55
543.44	1930.06
543.79	1941.37
544.15	1952.23
544.51	1963.72
544.87	1974.87
545.22	1985.84
545.58	1996.03
545.94	2005.79
546.29	2015.71
546.65	2025.52
547.01	2034.84
547.36	2043.75
547.72	2052.42
548.07	2060.11
548.43	2068.33
548.79	2076.37
549.14	2083.89
549.50	2091.38
549.86	2099.36
550.21	2106.66
550.57	2113.79
550.92	2120.39
551.28	2127.54
551.64	2134.67
551.99	2141.29
552.35	2147.26
552.70	2153.38
553.06	2159.40
553.41	2165.88
553.77	2171.95
554.13	2178.13
554.48	2184.19
554.84	2189.53
555.19	2194.89
555.55	2200.05
555.90	2204.51
556.26	2209.35
556.61	2214.05
556.97	2218.08
557.32	2222.02
557.68	2226.09
558.03	2230.37
558.39	2234.11
558.74	2238.68
559.10	2242.53
559.45	2246.07
559.81	2250.53
560.16	2254.35
560.52	2257.50
560.87	2260.78
561.23	2263.34
561.58	2266.21
561.94	2268.79
562.29	2271.30
562.64	2273.74
563.00	2276.49
563.35	2279.92
563.71	2283.06
564.06	2286.21
564.42	2289.20
564.77	2291.52
565.12	2293.72
565.48	2295.60
565.83	2297.28
566.19	2298.49
566.54	2299.48
566.89	2300.61
567.25	2300.88
567.60	2302.04
567.96	2303.57
568.31	2304.42
568.66	2305.43
569.02	2305.86
569.37	2306.28
569.72	2306.80
570.08	2306.98
570.43	2306.80
570.78	2306.09
571.14	2304.47
571.49	2302.97
571.84	2302.63
572.20	2301.52
572.55	2300.50
572.90	2298.84
573.26	2297.41
573.61	2295.62
573.96	2293.73
574.31	2290.62
574.67	2287.49
575.02	2283.71
575.37	2280.23
575.72	2276.17
576.08	2272.78
576.43	2269.47
576.78	2265.47
577.13	2262.32
577.49	2259.26
577.84	2255.74
578.19	2251.98
578.54	2248.06
578.90	2243.86
579.25	2238.08
579.60	2232.79
579.95	2227.65
580.30	2222.54
580.66	2217.19
581.01	2212.23
581.36	2207.08
581.71	2202.86
582.06	2198.40
582.42	2194.03
582.77	2188.89
583.12	2184.30
583.47	2179.48
583.82	2174.23
584.17	2168.90
584.53	2163.29
584.88	2157.35
585.23	2151.42
585.58	2145.87
585.93	2140.49
586.28	2135.55
586.63	2130.44
586.98	2125.33
587.34	2120.59
587.69	2115.67
588.04	2110.42
588.39	2104.50
588.74	2097.89
589.09	2091.65
589.44	2084.80
589.79	2078.78
590.14	2072.94
590.49	2066.40
590.84	2059.98
591.19	2053.96
591.54	2047.42
591.89	2039.90
592.25	2033.08
592.60	2025.78
592.95	2017.99
593.30	2010.67
593.65	2003.07
594.00	1995.94
594.35	1988.88
594.70	1980.81
595.05	1973.40
595.40	1966.04
595.75	1958.57
596.10	1952.39
596.45	1945.50
596.80	1939.31
597.15	1932.50
597.50	1925.37
597.85	1918.85
598.19	1912.14
598.54	1905.08
598.89	1898.54
599.24	1892.62
599.59	1885.93
599.94	1879.71
600.29	1873.39
600.64	1866.67
600.99	1859.02
601.34	1852.08
601.69	1844.93
602.04	1837.79
602.39	1830.40
602.74	1823.56
603.08	1816.87
603.43	1810.20
603.78	1802.95
604.13	1795.67
604.48	1788.28
604.83	1781.48
605.18	1774.30
605.53	1766.27
605.87	1758.29
606.22	1751.09
606.57	1743.18
606.92	1735.83
607.27	1728.64
607.62	1721.70
607.96	1714.37
608.31	1707.75
608.66	1700.17
609.01	1692.62
609.36	1685.09
609.70	1677.06
610.05	1669.01
610.40	1661.24
610.75	1652.72
611.10	1644.99
611.44	1636.63
611.79	1628.68
612.14	1619.91
612.49	1610.99
612.83	1602.61
613.18	1594.32
613.53	1585.96
613.88	1577.32
614.22	1569.05
614.57	1560.50
614.92	1552.40
615.27	1544.85
615.61	1536.59
615.96	1528.58
616.31	1521.06
616.65	1513.70
617.00	1506.17
617.35	1498.54
617.70	1490.04
618.04	1481.55
618.39	1473.41
618.74	1465.79
619.08	1457.50
619.43	1449.96
619.78	1442.92
620.12	1435.76
620.47	1428.30
620.82	1420.18
621.16	1413.01
621.51	1405.32
621.85	1397.66
622.20	1389.24
622.55	1380.87
622.89	1373.02
623.24	1365.48
623.59	1358.12
623.93	1350.62
624.28	1343.41
624.62	1335.84
624.97	1328.69
625.32	1322.09
625.66	1314.98
626.01	1307.82
626.35	1300.38
626.70	1292.62
627.04	1284.85
627.39	1277.10
627.73	1269.68
628.08	1262.77
628.43	1255.19
628.77	1247.80
629.12	1240.14
629.46	1232.93
629.81	1225.51
630.15	1218.23
630.50	1210.71
630.84	1202.47
631.19	1194.65
631.53	1187.23
631.88	1179.67
632.22	1172.16
632.57	1164.80
632.91	1157.31
633.26	1149.89
633.60	1142.48
633.95	1135.49
634.29	1128.59
634.64	1121.89
634.98	1114.53
635.32	1107.44
635.67	1101.04
636.01	1094.46
636.36	1087.78
636.70	1081.42
637.05	1074.97
637.39	1068.50
637.73	1062.00
638.08	1056.11
638.42	1050.15
638.77	1043.70
639.11	1037.09
639.45	1030.76
639.80	1024.06
640.14	1017.60
640.49	1011.09
640.83	1004.90
641.17	998.60
641.52	992.27
641.86	985.91
642.20	980.14
642.55	973.86
642.89	967.31
643.23	960.88
643.58	955.09
643.92	948.79
644.26	942.74
644.61	936.83
644.95	930.88
645.29	924.30
645.64	917.47
645.98	911.08
646.32	905.39
646.66	899.35
647.01	893.59
647.35	887.97
647.69	882.12
648.04	876.57
648.38	870.76
648.72	864.70
649.06	858.59
649.41	852.67
649.75	846.68
650.09	840.68
650.43	834.79
650.78	828.65
651.12	822.71
651.46	816.98
651.80	811.14
652.14	805.65
652.49	800.26
652.83	795.15
653.17	789.51
653.51	783.70
653.85	778.28
654.20	772.69
654.54	766.66
654.88	760.99
655.22	755.14
655.56	749.48
655.90	744.04
656.25	738.77
656.59	733.43
656.93	728.34
657.27	723.27
657.61	717.88
657.95	712.80
658.29	707.65
658.64	702.37
658.98	697.12
659.32	691.72
659.66	686.54
660.00	681.19
660.34	676.21
660.68	671.37
661.02	666.35
661.36	661.58
661.70	657.14
662.05	652.79
662.39	648.40
662.73	643.95
663.07	639.64
663.41	635.19
663.75	630.69
664.09	626.22
664.43	621.82
664.77	617.71
665.11	613.40
665.45	609.41
665.79	605.35
666.13	601.26
666.47	597.21
666.81	593.01
667.15	588.90
667.49	585.08
667.83	581.31
668.17	577.37
668.51	573.36
668.85	569.35
669.19	565.47
669.53	561.66
669.87	557.79
670.21	554.12
670.55	550.52
670.89	547.13
671.23	543.69
671.57	540.22
671.91	536.76
672.25	533.32
672.58	529.74
672.92	526.36
673.26	523.24
673.60	520.10
673.94	517.03
674.28	514.17
674.62	511.21
674.96	508.07
675.30	505.23
675.64	502.29
675.97	499.55
676.31	496.74
676.65	493.83
676.99	491.17
677.33	488.31
677.67	485.52
678.01	482.48
678.34	479.50
678.68	476.59
679.02	473.71
679.36	471.01
679.70	468.40
680.04	465.59
680.37	462.69
680.71	459.91
681.05	457.33
681.39	454.66
681.73	452.05
682.06	449.56
682.40	446.98
682.74	444.49
683.08	441.93
683.42	439.34
683.75	436.85
684.09	434.32
684.43	431.83
684.77	429.39
685.10	427.07
685.44	424.78
685.78	422.56
686.12	420.36
686.45	418.06
686.79	415.71
687.13	413.57
687.46	411.42
687.80	409.29
688.14	407.10
688.48	404.98
688.81	402.75
689.15	400.58
689.49	398.45
689.82	396.37
690.16	394.28
690.50	392.36
690.83	390.41
691.17	388.46
691.51	386.59
691.84	384.77
692.18	382.80
692.52	380.81
692.85	378.87
693.19	377.01
693.52	375.23
693.86	373.46
694.20	371.67
694.53	369.86
694.87	368.02
695.21	366.23
695.54	364.41
695.88	362.67
696.21	360.95
696.55	359.30
696.88	357.66
697.22	356.03
697.56	354.37
697.89	352.70
698.23	351.08
698.56	349.41
698.90	347.75
699.23	346.12
699.57	344.59
699.90	343.04
700.24	341.48
700.58	339.90
700.91	338.38
701.25	336.95
701.58	335.60
701.92	334.25
702.25	332.87
702.59	331.50
702.92	330.18
703.26	328.85
703.59	327.53
703.93	326.33
704.26	325.09
704.60	323.82
704.93	322.53
705.26	321.27
705.60	320.17
705.93	319.02
706.27	317.97
706.60	316.95
706.94	315.88
707.27	314.76
707.61	313.69
707.94	312.70
708.27	311.64
708.61	310.53
708.94	309.53
709.28	308.60
709.61	307.61
709.94	306.68
710.28	305.66
710.61	304.72
710.95	303.61
711.28	302.68
711.61	301.73
711.95	300.86
712.28	299.92
712.61	298.91
712.95	298.01
713.28	297.13
713.61	296.23
713.95	295.38
714.28	294.55
714.61	293.73
714.95	292.90
715.28	292.02
715.61	291.20
715.95	290.34
716.28	289.48
716.61	288.69
716.95	287.88
717.28	287.19
717.61	286.44
717.94	285.74
718.28	284.95
718.61	284.27
718.94	283.58
719.27	282.94
719.61	282.31
719.94	281.67
720.27	280.98
720.60	280.33
720.94	279.67
721.27	279.07
721.60	278.50
721.93	277.88
722.27	277.33
722.60	276.74
722.93	276.18
723.26	275.63
723.59	275.13
723.93	274.61
724.26	274.06
724.59	273.49
724.92	272.96
725.25	272.49
725.59	271.92
725.92	271.43
726.25	270.94
726.58	270.45
726.91	269.94
727.24	269.46
727.57	269.00
727.91	268.51
728.24	268.06
728.57	267.60
728.90	267.14
729.23	266.68
729.56	266.28
729.89	265.80
730.22	265.32
730.55	264.84
730.89	264.37
731.22	263.92
731.55	263.49
731.88	263.08
732.21	262.64
732.54	262.24
732.87	261.83
733.20	261.39
733.53	261.00
733.86	260.64
734.19	260.28
734.52	259.85
734.85	259.55
735.18	259.11
735.51	258.71
735.84	258.32
736.17	257.96
736.50	257.56
736.83	257.36
737.16	257.00
737.49	256.68
737.82	256.31
738.15	255.95
738.48	255.63
738.81	255.28
739.14	254.94
739.47	254.59
739.80	254.26
740.13	253.93
740.46	253.58
740.79	253.22
741.12	252.88
741.45	252.57
741.78	252.18
742.11	251.89
742.44	251.57
742.77	251.30
743.10	251.00
743.43	250.70
743.75	250.27
744.08	250.12
744.41	249.81
744.74	249.53
745.07	249.26
745.40	248.99
745.73	248.76
746.06	248.48
746.39	248.20
746.71	247.92
747.04	247.68
747.37	247.42
747.70	247.19
748.03	246.90
748.36	246.70
748.68	246.47
749.01	246.25
749.34	246.01
749.67	245.76
750.00	245.55
750.33	245.41
750.65	245.21
750.98	244.86
751.31	244.64
751.64	244.46
751.97	244.30
752.29	244.09
752.62	243.82
752.95	243.62
753.28	243.41
753.60	243.24
753.93	243.06
754.26	242.89
754.59	242.64
754.91	242.47
755.24	242.27
755.57	242.11
755.90	241.92
756.22	241.71
756.55	241.53
756.88	241.28
757.20	241.03
757.53	240.80
757.86	240.63
758.19	240.50
758.51	240.31
758.84	240.08
759.17	239.93
759.49	239.81
759.82	239.69
760.15	239.55
760.47	239.40
760.80	239.24
761.13	239.12
761.45	239.01
761.78	238.89
762.11	238.74
762.43	238.59
762.76	238.45
763.08	238.34
763.41	238.24
763.74	238.15
764.06	238.01
764.39	237.93
764.71	237.82
765.04	237.67
765.37	237.55
765.69	237.43
766.02	237.24
766.34	237.11
766.67	236.99
767.00	236.92
767.32	236.86
767.65	236.82
767.97	236.72
768.30	236.61
768.62	236.50
768.95	236.39
769.27	236.27
769.60	236.20
769.92	236.09
770.25	235.98
770.57	235.86
770.90	235.77
771.22	235.66
771.55	235.55
771.87	235.48
772.20	235.39
772.52	235.38
772.85	235.45
773.17	235.36
773.50	235.23
773.82	235.10
774.15	234.96
774.47	234.77
774.80	234.63
775.12	234.54
775.45	234.46
775.77	234.33
776.09	234.27
776.42	234.14
776.74	234.11
777.07	234.04
777.39	233.97
777.72	233.88
778.04	233.80
778.36	233.75
778.69	233.67
779.01	233.60
779.33	233.46
779.66	233.24
779.98	233.16
780.31	233.09
780.63	233.05
780.95	232.99
781.28	232.94
781.60	232.90
781.92	232.80
782.25	232.72
782.57	232.67
782.89	232.59
783.22	232.52
783.54	232.42
783.86	232.34
784.19	232.28
784.51	232.27
784.83	232.17
785.16	232.09
785.48	232.02
785.80	231.97
786.12	231.90
786.45	231.86
786.77	231.81
787.09	231.75
