SpectraSuite Data File
++++++++++++++++++++++++++++++++++++
Date: Fri Feb 01 15:14:11 EST 2013
User: group
Dark Spectrum Present: No
Reference Spectrum Present: No
Number of Sampled Component Spectra: 1
Spectrometers: USB2E7196
Integration Time (usec): 35000 (USB2E7196)
Spectra Averaged: 100 (USB2E7196)
Boxcar Smoothing: 10 (USB2E7196)
Correct for Electrical Dark: No (USB2E7196)
Strobe/Lamp Enabled: No (USB2E7196)
Correct for Detector Non-linearity: No (USB2E7196)
Correct for Stray Light: No (USB2E7196)
Number of Pixels in Processed Spectrum: 2048
>>>>>Begin Processed Spectral Data<<<<<
339.09	0.00
339.48	215.02
339.86	216.46
340.24	217.68
340.63	219.09
341.01	221.95
341.39	221.87
341.78	222.94
342.16	224.88
342.54	224.72
342.93	213.45
343.31	224.22
343.69	224.75
344.07	225.22
344.46	225.67
344.84	226.07
345.22	226.30
345.60	226.54
345.99	226.77
346.37	226.91
346.75	227.03
347.13	227.11
347.52	227.17
347.90	227.25
348.28	227.29
348.66	227.35
349.05	227.37
349.43	227.47
349.81	227.50
350.19	227.56
350.57	227.60
350.96	227.65
351.34	227.76
351.72	227.89
352.10	227.98
352.48	228.04
352.87	228.13
353.25	228.19
353.63	228.25
354.01	228.32
354.39	228.35
354.77	228.47
355.15	228.55
355.54	228.62
355.92	228.66
356.30	228.71
356.68	228.80
357.06	228.89
357.44	228.90
357.82	228.97
358.20	229.02
358.58	229.08
358.97	229.12
359.35	229.20
359.73	229.26
360.11	229.30
360.49	229.35
360.87	229.35
361.25	229.41
361.63	229.52
362.01	229.53
362.39	229.58
362.77	229.57
363.15	229.57
363.53	229.55
363.91	229.58
364.29	229.59
364.67	229.54
365.05	229.54
365.43	229.56
365.81	229.56
366.19	229.59
366.57	229.58
366.95	229.61
367.33	229.55
367.71	229.51
368.09	229.53
368.47	229.49
368.85	229.49
369.23	229.48
369.61	229.42
369.99	229.40
370.37	229.38
370.75	229.41
371.13	229.35
371.51	229.34
371.89	229.30
372.27	229.28
372.65	229.21
373.03	229.11
373.41	229.03
373.78	228.96
374.16	228.87
374.54	228.80
374.92	228.70
375.30	228.66
375.68	228.62
376.06	228.55
376.44	228.49
376.82	228.40
377.19	228.34
377.57	228.26
377.95	228.18
378.33	228.09
378.71	227.95
379.09	227.90
379.47	227.80
379.84	227.73
380.22	227.60
380.60	227.50
380.98	227.43
381.36	227.37
381.73	227.25
382.11	227.19
382.49	227.11
382.87	227.03
383.25	226.92
383.62	226.93
384.00	226.84
384.38	226.77
384.76	226.74
385.13	226.68
385.51	226.61
385.89	226.53
386.27	226.45
386.64	226.43
387.02	226.34
387.40	226.30
387.78	226.26
388.15	226.27
388.53	226.22
388.91	226.22
389.29	226.21
389.66	226.19
390.04	226.16
390.42	226.16
390.79	226.15
391.17	226.15
391.55	226.02
391.92	226.03
392.30	226.04
392.68	225.98
393.05	226.01
393.43	226.00
393.81	226.06
394.18	226.10
394.56	226.12
394.94	226.15
395.31	226.18
395.69	226.24
396.06	226.27
396.44	226.33
396.82	226.35
397.19	226.43
397.57	226.50
397.95	226.57
398.32	226.61
398.70	226.69
399.07	226.81
399.45	226.89
399.82	226.95
400.20	227.02
400.58	227.17
400.95	227.24
401.33	227.34
401.70	227.49
402.08	227.60
402.45	227.69
402.83	227.87
403.20	228.02
403.58	228.08
403.95	228.23
404.33	228.41
404.71	228.56
405.08	228.76
405.46	228.91
405.83	229.06
406.21	229.24
406.58	229.41
406.96	229.57
407.33	229.76
407.70	230.00
408.08	230.31
408.45	230.52
408.83	230.79
409.20	231.02
409.58	231.21
409.95	231.49
410.33	231.77
410.70	232.00
411.08	232.30
411.45	232.65
411.82	232.96
412.20	233.30
412.57	233.72
412.95	234.03
413.32	234.42
413.69	234.84
414.07	235.26
414.44	235.74
414.82	236.20
415.19	236.77
415.56	237.32
415.94	237.83
416.31	238.44
416.68	239.01
417.06	239.72
417.43	240.37
417.81	241.10
418.18	241.84
418.55	242.66
418.93	243.51
419.30	244.40
419.67	245.33
420.04	246.30
420.42	247.28
420.79	248.42
421.16	249.60
421.54	250.78
421.91	252.01
422.28	253.25
422.66	254.57
423.03	255.86
423.40	257.12
423.77	258.55
424.15	259.97
424.52	261.46
424.89	263.08
425.26	264.63
425.64	266.10
426.01	267.69
426.38	269.35
426.75	271.05
427.13	272.76
427.50	274.56
427.87	276.42
428.24	278.31
428.61	280.09
428.99	282.01
429.36	284.08
429.73	286.14
430.10	288.17
430.47	290.23
430.85	292.37
431.22	294.67
431.59	297.06
431.96	299.30
432.33	301.77
432.70	304.14
433.08	307.01
433.45	309.67
433.82	312.30
434.19	315.19
434.56	317.98
434.93	320.67
435.30	323.35
435.68	326.25
436.05	329.08
436.42	331.84
436.79	334.43
437.16	337.12
437.53	339.98
437.90	342.83
438.27	345.57
438.64	348.38
439.01	350.98
439.38	353.20
439.75	355.38
440.13	357.89
440.50	360.29
440.87	362.10
441.24	364.04
441.61	366.24
441.98	367.76
442.35	369.62
442.72	371.44
443.09	373.24
443.46	374.21
443.83	374.76
444.20	375.34
444.57	376.16
444.94	376.47
445.31	376.84
445.68	377.15
446.05	377.25
446.42	376.88
446.79	376.40
447.16	375.99
447.53	375.69
447.90	374.54
448.27	373.38
448.64	371.82
449.01	370.68
449.37	368.65
449.74	366.75
450.11	364.49
450.48	362.03
450.85	359.48
451.22	357.37
451.59	355.37
451.96	353.39
452.33	350.80
452.70	348.41
453.07	345.53
453.43	342.65
453.80	339.89
454.17	337.22
454.54	334.72
454.91	331.95
455.28	329.26
455.65	326.75
456.02	324.24
456.38	322.05
456.75	319.36
457.12	317.14
457.49	314.91
457.86	312.70
458.23	310.83
458.59	308.77
458.96	306.68
459.33	304.82
459.70	302.95
460.07	301.43
460.43	299.78
460.80	298.15
461.17	296.69
461.54	295.18
461.91	293.75
462.27	292.34
462.64	291.08
463.01	289.70
463.38	288.41
463.74	287.04
464.11	285.87
464.48	284.85
464.85	283.74
465.21	282.83
465.58	281.89
465.95	280.75
466.32	279.83
466.68	278.91
467.05	277.99
467.42	277.10
467.78	276.15
468.15	275.21
468.52	274.51
468.88	273.62
469.25	272.82
469.62	272.13
469.98	271.42
470.35	270.79
470.72	270.19
471.08	269.51
471.45	268.96
471.82	268.39
472.18	267.75
472.55	267.29
472.92	266.79
473.28	266.31
473.65	265.89
474.02	265.45
474.38	265.07
474.75	264.72
475.11	264.37
475.48	264.07
475.85	263.83
476.21	263.60
476.58	263.43
476.94	263.25
477.31	263.09
477.67	262.92
478.04	262.78
478.41	262.71
478.77	262.74
479.14	262.69
479.50	262.71
479.87	262.78
480.23	262.85
480.60	262.90
480.96	263.00
481.33	263.21
481.69	263.43
482.06	263.62
482.42	263.81
482.79	264.00
483.15	264.33
483.52	264.71
483.88	265.09
484.25	265.47
484.61	265.93
484.98	266.40
485.34	266.96
485.71	267.56
486.07	268.17
486.44	268.74
486.80	269.43
487.17	270.16
487.53	270.99
487.90	271.86
488.26	272.80
488.62	273.80
488.99	274.75
489.35	275.78
489.72	276.91
490.08	278.12
490.44	279.41
490.81	280.76
491.17	282.12
491.54	283.57
491.90	285.11
492.26	286.71
492.63	288.47
492.99	290.24
493.36	292.11
493.72	294.15
494.08	296.28
494.45	298.55
494.81	300.92
495.17	303.36
495.54	305.91
495.90	308.57
496.26	311.37
496.63	314.32
496.99	317.41
497.35	320.67
497.72	324.08
498.08	327.56
498.44	331.22
498.80	335.11
499.17	339.15
499.53	343.31
499.89	347.73
500.26	352.19
500.62	356.86
500.98	361.82
501.34	366.89
501.71	372.23
502.07	377.65
502.43	383.27
502.79	389.07
503.16	395.14
503.52	401.42
503.88	407.82
504.24	414.51
504.60	421.36
504.97	428.46
505.33	435.76
505.69	443.43
506.05	451.16
506.41	459.05
506.78	467.17
507.14	475.59
507.50	484.35
507.86	493.37
508.22	502.53
508.59	511.76
508.95	521.33
509.31	531.11
509.67	541.19
510.03	551.44
510.39	561.98
510.75	572.79
511.12	583.73
511.48	595.00
511.84	606.42
512.20	617.91
512.56	629.87
512.92	642.10
513.28	654.50
513.64	667.01
514.00	679.74
514.37	692.72
514.73	705.76
515.09	718.77
515.45	732.07
515.81	745.61
516.17	759.59
516.53	773.64
516.89	787.79
517.25	801.93
517.61	816.38
517.97	830.86
518.33	845.31
518.69	860.16
519.05	875.19
519.41	890.34
519.77	905.97
520.13	921.41
520.49	936.80
520.85	952.17
521.21	967.81
521.57	984.12
521.93	999.97
522.29	1016.54
522.65	1032.80
523.01	1049.04
523.37	1065.28
523.73	1081.57
524.09	1097.76
524.45	1114.22
524.81	1131.02
525.17	1147.92
525.53	1164.88
525.89	1181.76
526.25	1198.58
526.61	1215.04
526.97	1231.80
527.33	1248.27
527.68	1265.02
528.04	1281.56
528.40	1298.22
528.76	1315.42
529.12	1332.01
529.48	1348.93
529.84	1364.91
530.20	1381.60
530.56	1398.71
530.91	1416.03
531.27	1432.72
531.63	1449.40
531.99	1465.85
532.35	1481.77
532.71	1497.70
533.07	1514.07
533.42	1530.02
533.78	1546.08
534.14	1562.45
534.50	1577.91
534.86	1593.88
535.21	1609.09
535.57	1625.16
535.93	1640.77
536.29	1655.60
536.65	1670.81
537.00	1685.63
537.36	1701.03
537.72	1715.77
538.08	1730.34
538.44	1744.28
538.79	1758.22
539.15	1771.96
539.51	1785.95
539.87	1800.48
540.22	1814.24
540.58	1828.04
540.94	1841.48
541.29	1854.43
541.65	1867.14
542.01	1880.57
542.37	1893.00
542.72	1905.52
543.08	1917.29
543.44	1929.79
543.79	1941.18
544.15	1952.26
544.51	1963.85
544.87	1974.95
545.22	1985.72
545.58	1995.97
545.94	2005.88
546.29	2015.97
546.65	2025.75
547.01	2034.97
547.36	2043.82
547.72	2052.42
548.07	2060.30
548.43	2068.55
548.79	2076.72
549.14	2084.31
549.50	2091.57
549.86	2099.43
550.21	2106.77
550.57	2113.94
550.92	2120.56
551.28	2127.73
551.64	2134.75
551.99	2141.39
552.35	2147.40
552.70	2153.62
553.06	2159.54
553.41	2165.71
553.77	2171.65
554.13	2177.77
554.48	2183.79
554.84	2189.02
555.19	2194.39
555.55	2199.54
555.90	2203.94
556.26	2208.83
556.61	2213.51
556.97	2217.68
557.32	2221.55
557.68	2225.57
558.03	2229.97
558.39	2233.64
558.74	2238.21
559.10	2242.05
559.45	2245.62
559.81	2249.92
560.16	2253.65
560.52	2256.92
560.87	2260.52
561.23	2263.08
561.58	2265.97
561.94	2268.55
562.29	2270.99
562.64	2273.56
563.00	2276.19
563.35	2279.73
563.71	2282.68
564.06	2285.85
564.42	2288.72
564.77	2291.19
565.12	2293.38
565.48	2295.11
565.83	2296.85
566.19	2298.02
566.54	2298.99
566.89	2300.07
567.25	2300.57
567.60	2301.96
567.96	2303.46
568.31	2304.10
568.66	2305.10
569.02	2305.57
569.37	2305.96
569.72	2306.68
570.08	2306.67
570.43	2306.54
570.78	2305.80
571.14	2304.23
571.49	2303.11
571.84	2302.73
572.20	2301.42
572.55	2300.29
572.90	2298.68
573.26	2297.13
573.61	2295.35
573.96	2293.35
574.31	2290.30
574.67	2287.33
575.02	2283.40
575.37	2280.03
575.72	2276.08
576.08	2272.83
576.43	2269.61
576.78	2265.76
577.13	2262.70
577.49	2259.59
577.84	2256.09
578.19	2252.34
578.54	2248.53
578.90	2243.94
579.25	2238.26
579.60	2233.34
579.95	2228.28
580.30	2223.10
580.66	2218.10
581.01	2213.00
581.36	2208.00
581.71	2203.82
582.06	2199.18
582.42	2194.70
582.77	2189.31
583.12	2184.69
583.47	2179.71
583.82	2174.38
584.17	2169.06
584.53	2163.30
584.88	2157.45
585.23	2151.57
585.58	2145.98
585.93	2140.57
586.28	2135.71
586.63	2130.61
586.98	2125.54
587.34	2120.98
587.69	2116.02
588.04	2110.53
588.39	2104.71
588.74	2098.34
589.09	2092.01
589.44	2085.12
589.79	2078.99
590.14	2073.23
590.49	2066.65
590.84	2060.39
591.19	2054.28
591.54	2047.80
591.89	2040.25
592.25	2033.40
592.60	2026.15
592.95	2018.35
593.30	2010.85
593.65	2003.14
594.00	1996.09
594.35	1988.74
594.70	1980.48
595.05	1973.13
595.40	1965.82
595.75	1958.34
596.10	1951.87
596.45	1944.99
596.80	1938.87
597.15	1932.13
597.50	1924.94
597.85	1918.44
598.19	1911.63
598.54	1904.56
598.89	1897.76
599.24	1891.94
599.59	1885.19
599.94	1878.82
600.29	1872.52
600.64	1866.10
600.99	1858.54
601.34	1851.53
601.69	1844.52
602.04	1837.52
602.39	1830.15
602.74	1823.20
603.08	1816.48
603.43	1809.67
603.78	1802.48
604.13	1795.10
604.48	1787.69
604.83	1781.00
605.18	1773.89
605.53	1765.85
605.87	1757.65
606.22	1750.33
606.57	1742.32
606.92	1735.03
607.27	1727.84
607.62	1720.94
607.96	1713.44
608.31	1706.86
608.66	1699.28
609.01	1691.69
609.36	1684.12
609.70	1676.15
610.05	1668.05
610.40	1660.30
610.75	1652.12
611.10	1644.24
611.44	1636.04
611.79	1628.16
612.14	1619.35
612.49	1610.34
612.83	1601.89
613.18	1593.93
613.53	1585.81
613.88	1577.26
614.22	1568.93
614.57	1560.34
614.92	1552.19
615.27	1544.55
615.61	1536.22
615.96	1528.18
616.31	1520.45
616.65	1513.05
617.00	1505.50
617.35	1497.92
617.70	1489.60
618.04	1480.96
618.39	1472.86
618.74	1465.23
619.08	1456.98
619.43	1449.37
619.78	1442.46
620.12	1435.28
620.47	1427.68
620.82	1419.63
621.16	1412.20
621.51	1404.61
621.85	1397.12
622.20	1388.67
622.55	1380.44
622.89	1372.65
623.24	1365.07
623.59	1357.77
623.93	1350.32
624.28	1343.08
624.62	1335.48
624.97	1328.35
625.32	1321.76
625.66	1314.61
626.01	1307.28
626.35	1299.81
626.70	1292.11
627.04	1284.33
627.39	1276.58
627.73	1269.29
628.08	1262.36
628.43	1255.11
628.77	1247.67
629.12	1240.01
629.46	1232.85
629.81	1225.50
630.15	1218.32
630.50	1210.84
630.84	1202.71
631.19	1194.74
631.53	1187.25
631.88	1179.82
632.22	1172.21
632.57	1164.88
632.91	1157.49
633.26	1150.19
633.60	1142.84
633.95	1135.81
634.29	1128.82
634.64	1122.19
634.98	1114.83
635.32	1107.72
635.67	1101.22
636.01	1094.62
636.36	1087.89
636.70	1081.51
637.05	1074.93
637.39	1068.54
637.73	1062.13
638.08	1056.14
638.42	1050.32
638.77	1043.91
639.11	1037.27
639.45	1030.91
639.80	1024.17
640.14	1017.70
640.49	1011.16
640.83	1004.88
641.17	998.56
641.52	992.21
641.86	985.88
642.20	980.02
642.55	973.71
642.89	967.17
643.23	960.78
643.58	954.99
643.92	948.75
644.26	942.66
644.61	936.63
644.95	930.53
645.29	923.99
645.64	917.17
645.98	910.84
646.32	905.00
646.66	898.92
647.01	893.18
647.35	887.59
647.69	881.80
648.04	876.33
648.38	870.59
648.72	864.51
649.06	858.41
649.41	852.57
649.75	846.56
650.09	840.57
650.43	834.73
650.78	828.51
651.12	822.57
651.46	816.87
651.80	811.04
652.14	805.70
652.49	800.36
652.83	795.17
653.17	789.42
653.51	783.71
653.85	778.32
654.20	772.60
654.54	766.48
654.88	760.75
655.22	754.79
655.56	749.09
655.90	743.72
656.25	738.48
656.59	733.08
656.93	728.05
657.27	722.93
657.61	717.53
657.95	712.45
658.29	707.34
658.64	702.14
658.98	696.87
659.32	691.40
659.66	686.30
660.00	681.03
660.34	676.12
660.68	671.23
661.02	666.23
661.36	661.60
661.70	657.20
662.05	652.79
662.39	648.56
662.73	644.15
663.07	639.81
663.41	635.29
663.75	630.83
664.09	626.30
664.43	621.99
664.77	617.85
665.11	613.66
665.45	609.58
665.79	605.46
666.13	601.31
666.47	597.30
666.81	593.10
667.15	589.04
667.49	585.21
667.83	581.43
668.17	577.55
668.51	573.49
668.85	569.48
669.19	565.67
669.53	561.77
669.87	557.89
670.21	554.19
670.55	550.62
670.89	547.17
671.23	543.70
671.57	540.13
671.91	536.62
672.25	533.16
672.58	529.67
672.92	526.33
673.26	523.26
673.60	520.12
673.94	516.98
674.28	514.06
674.62	511.14
674.96	507.99
675.30	505.15
675.64	502.20
675.97	499.50
676.31	496.61
676.65	493.74
676.99	491.09
677.33	488.19
677.67	485.44
678.01	482.47
678.34	479.52
678.68	476.72
679.02	473.94
679.36	471.17
679.70	468.42
680.04	465.63
680.37	462.73
680.71	459.87
681.05	457.29
681.39	454.57
681.73	451.91
682.06	449.50
682.40	446.89
682.74	444.40
683.08	441.81
683.42	439.26
683.75	436.76
684.09	434.17
684.43	431.75
684.77	429.24
685.10	426.91
685.44	424.66
685.78	422.30
686.12	420.06
686.45	417.74
686.79	415.41
687.13	413.25
687.46	411.13
687.80	408.99
688.14	406.73
688.48	404.71
688.81	402.43
689.15	400.26
689.49	398.09
689.82	395.98
690.16	393.88
690.50	391.94
690.83	389.97
691.17	388.01
691.51	386.14
691.84	384.29
692.18	382.34
692.52	380.34
692.85	378.48
693.19	376.56
693.52	374.79
693.86	373.04
694.20	371.21
694.53	369.39
694.87	367.55
695.21	365.84
695.54	363.97
695.88	362.29
696.21	360.54
696.55	358.87
696.88	357.19
697.22	355.55
697.56	353.90
697.89	352.23
698.23	350.63
698.56	349.00
698.90	347.41
699.23	345.76
699.57	344.20
699.90	342.66
700.24	341.11
700.58	339.56
700.91	338.07
701.25	336.68
701.58	335.32
701.92	333.97
702.25	332.62
702.59	331.28
702.92	329.95
703.26	328.67
703.59	327.40
703.93	326.27
704.26	325.02
704.60	323.75
704.93	322.53
705.26	321.28
705.60	320.13
705.93	319.04
706.27	318.06
706.60	317.01
706.94	315.92
707.27	314.84
707.61	313.78
707.94	312.75
708.27	311.66
708.61	310.61
708.94	309.61
709.28	308.60
709.61	307.66
709.94	306.73
710.28	305.74
710.61	304.77
710.95	303.70
711.28	302.82
711.61	301.90
711.95	300.96
712.28	300.02
712.61	299.06
712.95	298.11
713.28	297.22
713.61	296.36
713.95	295.52
714.28	294.69
714.61	293.87
714.95	293.04
715.28	292.17
715.61	291.30
715.95	290.47
716.28	289.64
716.61	288.82
716.95	288.00
717.28	287.29
717.61	286.53
717.94	285.77
718.28	284.98
718.61	284.31
718.94	283.64
719.27	282.99
719.61	282.34
719.94	281.67
720.27	280.97
720.60	280.31
720.94	279.66
721.27	279.08
721.60	278.43
721.93	277.86
722.27	277.36
722.60	276.79
722.93	276.22
723.26	275.65
723.59	275.07
723.93	274.54
724.26	273.99
724.59	273.43
724.92	272.91
725.25	272.38
725.59	271.79
725.92	271.27
726.25	270.79
726.58	270.29
726.91	269.81
727.24	269.33
727.57	268.84
727.91	268.30
728.24	267.83
728.57	267.38
728.90	266.92
729.23	266.38
729.56	265.96
729.89	265.50
730.22	265.04
730.55	264.58
730.89	264.13
731.22	263.63
731.55	263.21
731.88	262.79
732.21	262.37
732.54	261.95
732.87	261.53
733.20	261.11
733.53	260.72
733.86	260.35
734.19	259.94
734.52	259.55
734.85	259.28
735.18	258.86
735.51	258.49
735.84	258.10
736.17	257.79
736.50	257.36
736.83	257.11
737.16	256.75
737.49	256.39
737.82	256.02
738.15	255.72
738.48	255.37
738.81	255.04
739.14	254.71
739.47	254.41
739.80	254.10
740.13	253.80
740.46	253.46
740.79	253.11
741.12	252.82
741.45	252.50
741.78	252.17
742.11	251.90
742.44	251.57
742.77	251.29
743.10	250.98
743.43	250.66
743.75	250.29
744.08	250.16
744.41	249.93
744.74	249.69
745.07	249.39
745.40	249.17
745.73	248.95
746.06	248.70
746.39	248.44
746.71	248.18
747.04	247.90
747.37	247.65
747.70	247.43
748.03	247.19
748.36	247.01
748.68	246.77
749.01	246.54
749.34	246.34
749.67	246.12
750.00	245.91
750.33	245.80
750.65	245.61
750.98	245.27
751.31	245.04
751.64	244.83
751.97	244.72
752.29	244.50
752.62	244.24
752.95	244.02
753.28	243.82
753.60	243.62
753.93	243.46
754.26	243.29
754.59	243.06
754.91	242.85
755.24	242.69
755.57	242.53
755.90	242.33
756.22	242.14
756.55	241.93
756.88	241.76
757.20	241.51
757.53	241.31
757.86	241.14
758.19	241.01
758.51	240.86
758.84	240.64
759.17	240.46
759.49	240.33
759.82	240.23
760.15	240.05
760.47	239.89
760.80	239.74
761.13	239.60
761.45	239.48
761.78	239.32
762.11	239.13
762.43	238.97
762.76	238.83
763.08	238.71
763.41	238.60
763.74	238.45
764.06	238.37
764.39	238.20
764.71	238.07
765.04	237.93
765.37	237.71
765.69	237.58
766.02	237.44
766.34	237.29
766.67	237.12
767.00	237.03
767.32	236.98
767.65	236.87
767.97	236.76
768.30	236.62
768.62	236.51
768.95	236.38
769.27	236.23
769.60	236.11
769.92	235.97
770.25	235.81
770.57	235.68
770.90	235.51
771.22	235.40
771.55	235.30
771.87	235.16
772.20	235.12
772.52	235.12
772.85	235.12
773.17	235.01
773.50	234.93
773.82	234.83
774.15	234.66
774.47	234.53
774.80	234.41
775.12	234.33
775.45	234.22
775.77	234.11
776.09	234.05
776.42	233.99
776.74	233.92
777.07	233.85
777.39	233.78
777.72	233.71
778.04	233.64
778.36	233.57
778.69	233.52
779.01	233.45
779.33	233.23
779.66	233.08
779.98	233.01
780.31	232.91
780.63	232.88
780.95	232.79
781.28	232.76
781.60	232.68
781.92	232.61
782.25	232.54
782.57	232.47
782.89	232.37
783.22	232.27
783.54	232.20
783.86	232.16
784.19	232.09
784.51	232.06
784.83	232.01
785.16	231.93
785.48	231.90
785.80	231.84
786.12	231.84
786.45	231.79
786.77	231.74
787.09	231.70
