SpectraSuite Data File
++++++++++++++++++++++++++++++++++++
Date: Fri Feb 01 16:20:08 EST 2013
User: group
Dark Spectrum Present: No
Reference Spectrum Present: No
Number of Sampled Component Spectra: 1
Spectrometers: USB2E7196
Integration Time (usec): 35000 (USB2E7196)
Spectra Averaged: 100 (USB2E7196)
Boxcar Smoothing: 10 (USB2E7196)
Correct for Electrical Dark: No (USB2E7196)
Strobe/Lamp Enabled: No (USB2E7196)
Correct for Detector Non-linearity: No (USB2E7196)
Correct for Stray Light: No (USB2E7196)
Number of Pixels in Processed Spectrum: 2048
>>>>>Begin Processed Spectral Data<<<<<
339.09	0.00
339.48	214.75
339.86	215.34
340.24	216.31
340.63	218.92
341.01	221.64
341.39	221.06
341.78	223.04
342.16	223.86
342.54	224.08
342.93	212.62
343.31	223.37
343.69	223.88
344.07	224.34
344.46	224.79
344.84	225.14
345.22	225.34
345.60	225.57
345.99	225.73
346.37	225.83
346.75	225.91
347.13	225.94
347.52	225.98
347.90	226.08
348.28	226.04
348.66	226.09
349.05	226.08
349.43	226.12
349.81	226.17
350.19	226.16
350.57	226.22
350.96	226.27
351.34	226.34
351.72	226.38
352.10	226.47
352.48	226.53
352.87	226.59
353.25	226.66
353.63	226.72
354.01	226.79
354.39	226.87
354.77	226.96
355.15	227.06
355.54	227.11
355.92	227.11
356.30	227.21
356.68	227.31
357.06	227.36
357.44	227.40
357.82	227.45
358.20	227.55
358.58	227.62
358.97	227.68
359.35	227.73
359.73	227.83
360.11	227.88
360.49	227.92
360.87	227.95
361.25	228.02
361.63	228.10
362.01	228.13
362.39	228.15
362.77	228.20
363.15	228.24
363.53	228.26
363.91	228.30
364.29	228.37
364.67	228.28
365.05	228.31
365.43	228.31
365.81	228.32
366.19	228.37
366.57	228.39
366.95	228.40
367.33	228.37
367.71	228.39
368.09	228.37
368.47	228.39
368.85	228.39
369.23	228.36
369.61	228.32
369.99	228.30
370.37	228.30
370.75	228.31
371.13	228.25
371.51	228.22
371.89	228.19
372.27	228.12
372.65	228.12
373.03	228.10
373.41	228.09
373.78	228.06
374.16	227.97
374.54	227.89
374.92	227.82
375.30	227.80
375.68	227.71
376.06	227.68
376.44	227.60
376.82	227.55
377.19	227.51
377.57	227.45
377.95	227.38
378.33	227.30
378.71	227.19
379.09	227.18
379.47	227.13
379.84	227.05
380.22	226.99
380.60	226.92
380.98	226.81
381.36	226.72
381.73	226.63
382.11	226.59
382.49	226.56
382.87	226.50
383.25	226.42
383.62	226.49
384.00	226.43
384.38	226.37
384.76	226.34
385.13	226.31
385.51	226.24
385.89	226.16
386.27	226.11
386.64	226.09
387.02	226.01
387.40	225.95
387.78	225.96
388.15	225.94
388.53	225.92
388.91	225.90
389.29	225.85
389.66	225.82
390.04	225.80
390.42	225.78
390.79	225.78
391.17	225.76
391.55	225.63
391.92	225.62
392.30	225.65
392.68	225.63
393.05	225.61
393.43	225.64
393.81	225.65
394.18	225.66
394.56	225.66
394.94	225.68
395.31	225.68
395.69	225.67
396.06	225.67
396.44	225.70
396.82	225.72
397.19	225.81
397.57	225.86
397.95	225.89
398.32	225.87
398.70	225.92
399.07	225.98
399.45	226.03
399.82	226.03
400.20	226.07
400.58	226.13
400.95	226.16
401.33	226.23
401.70	226.39
402.08	226.48
402.45	226.58
402.83	226.66
403.20	226.76
403.58	226.88
403.95	227.03
404.33	227.10
404.71	227.21
405.08	227.38
405.46	227.52
405.83	227.64
406.21	227.82
406.58	227.99
406.96	228.18
407.33	228.32
407.70	228.58
408.08	228.84
408.45	229.06
408.83	229.27
409.20	229.46
409.58	229.64
409.95	229.89
410.33	230.15
410.70	230.42
411.08	230.73
411.45	231.03
411.82	231.33
412.20	231.71
412.57	232.15
412.95	232.40
413.32	232.82
413.69	233.25
414.07	233.66
414.44	234.07
414.82	234.52
415.19	235.08
415.56	235.63
415.94	236.18
416.31	236.80
416.68	237.47
417.06	238.23
417.43	238.90
417.81	239.69
418.18	240.49
418.55	241.34
418.93	242.21
419.30	243.09
419.67	244.02
420.04	245.00
420.42	245.99
420.79	247.22
421.16	248.33
421.54	249.54
421.91	250.76
422.28	252.05
422.66	253.40
423.03	254.72
423.40	256.02
423.77	257.43
424.15	258.89
424.52	260.39
424.89	261.98
425.26	263.56
425.64	265.03
426.01	266.57
426.38	268.23
426.75	269.91
427.13	271.63
427.50	273.43
427.87	275.30
428.24	277.14
428.61	278.88
428.99	280.83
429.36	282.90
429.73	284.93
430.10	286.94
430.47	288.98
430.85	291.13
431.22	293.36
431.59	295.70
431.96	297.90
432.33	300.38
432.70	302.77
433.08	305.55
433.45	308.18
433.82	310.80
434.19	313.68
434.56	316.47
434.93	319.12
435.30	321.76
435.68	324.63
436.05	327.48
436.42	330.28
436.79	332.78
437.16	335.48
437.53	338.39
437.90	341.19
438.27	343.93
438.64	346.71
439.01	349.31
439.38	351.57
439.75	353.74
440.13	356.13
440.50	358.42
440.87	360.21
441.24	362.12
441.61	364.25
441.98	365.71
442.35	367.54
442.72	369.38
443.09	371.15
443.46	372.10
443.83	372.64
444.20	373.14
444.57	374.00
444.94	374.26
445.31	374.55
445.68	374.92
446.05	374.99
446.42	374.58
446.79	374.10
447.16	373.65
447.53	373.34
447.90	372.23
448.27	371.07
448.64	369.55
449.01	368.40
449.37	366.42
449.74	364.53
450.11	362.27
450.48	359.83
450.85	357.31
451.22	355.21
451.59	353.23
451.96	351.28
452.33	348.69
452.70	346.36
453.07	343.55
453.43	340.64
453.80	337.88
454.17	335.22
454.54	332.70
454.91	329.95
455.28	327.27
455.65	324.82
456.02	322.41
456.38	320.25
456.75	317.59
457.12	315.39
457.49	313.19
457.86	311.02
458.23	309.17
458.59	307.16
458.96	305.10
459.33	303.24
459.70	301.40
460.07	299.87
460.43	298.15
460.80	296.53
461.17	295.14
461.54	293.66
461.91	292.28
462.27	290.90
462.64	289.67
463.01	288.33
463.38	287.04
463.74	285.67
464.11	284.54
464.48	283.53
464.85	282.43
465.21	281.61
465.58	280.70
465.95	279.63
466.32	278.77
466.68	277.85
467.05	276.97
467.42	276.06
467.78	275.17
468.15	274.32
468.52	273.67
468.88	272.77
469.25	272.05
469.62	271.42
469.98	270.74
470.35	270.17
470.72	269.58
471.08	268.92
471.45	268.41
471.82	267.86
472.18	267.29
472.55	266.88
472.92	266.33
473.28	265.90
473.65	265.43
474.02	264.96
474.38	264.63
474.75	264.33
475.11	263.98
475.48	263.72
475.85	263.51
476.21	263.30
476.58	263.14
476.94	262.98
477.31	262.81
477.67	262.65
478.04	262.51
478.41	262.47
478.77	262.52
479.14	262.47
479.50	262.50
479.87	262.56
480.23	262.62
480.60	262.72
480.96	262.78
481.33	262.99
481.69	263.20
482.06	263.38
482.42	263.57
482.79	263.82
483.15	264.15
483.52	264.50
483.88	264.86
484.25	265.25
484.61	265.66
484.98	266.12
485.34	266.67
485.71	267.25
486.07	267.85
486.44	268.41
486.80	269.09
487.17	269.78
487.53	270.56
487.90	271.40
488.26	272.31
488.62	273.32
488.99	274.29
489.35	275.31
489.72	276.43
490.08	277.66
490.44	278.95
490.81	280.25
491.17	281.65
491.54	283.12
491.90	284.64
492.26	286.31
492.63	288.03
492.99	289.82
493.36	291.72
493.72	293.77
494.08	295.91
494.45	298.15
494.81	300.52
495.17	302.99
495.54	305.57
495.90	308.29
496.26	311.07
496.63	314.07
496.99	317.18
497.35	320.47
497.72	323.85
498.08	327.38
498.44	331.03
498.80	334.95
499.17	339.00
499.53	343.17
499.89	347.58
500.26	352.12
500.62	356.78
500.98	361.79
501.34	366.86
501.71	372.19
502.07	377.64
502.43	383.33
502.79	389.18
503.16	395.27
503.52	401.46
503.88	407.95
504.24	414.58
504.60	421.49
504.97	428.58
505.33	435.89
505.69	443.58
506.05	451.39
506.41	459.29
506.78	467.45
507.14	475.93
507.50	484.64
507.86	493.67
508.22	502.86
508.59	512.09
508.95	521.69
509.31	531.52
509.67	541.62
510.03	551.90
510.39	562.38
510.75	573.17
511.12	584.19
511.48	595.43
511.84	606.86
512.20	618.38
512.56	630.45
512.92	642.73
513.28	655.16
513.64	667.62
514.00	680.29
514.37	693.26
514.73	706.32
515.09	719.32
515.45	732.61
515.81	746.22
516.17	760.18
516.53	774.26
516.89	788.42
517.25	802.60
517.61	816.97
517.97	831.43
518.33	845.87
518.69	860.56
519.05	875.50
519.41	890.66
519.77	906.25
520.13	921.68
520.49	936.95
520.85	952.29
521.21	968.00
521.57	984.26
521.93	999.98
522.29	1016.32
522.65	1032.51
523.01	1048.69
523.37	1064.70
523.73	1080.84
524.09	1096.94
524.45	1113.23
524.81	1129.80
525.17	1146.63
525.53	1163.45
525.89	1180.30
526.25	1197.25
526.61	1213.64
526.97	1230.45
527.33	1246.79
527.68	1263.16
528.04	1279.65
528.40	1296.23
528.76	1313.18
529.12	1329.72
529.48	1346.43
529.84	1362.39
530.20	1379.05
530.56	1395.99
530.91	1413.36
531.27	1430.04
531.63	1446.46
531.99	1463.06
532.35	1478.96
532.71	1494.76
533.07	1510.96
533.42	1526.62
533.78	1542.46
534.14	1558.67
534.50	1573.86
534.86	1589.62
535.21	1604.82
535.57	1620.67
535.93	1636.12
536.29	1650.99
536.65	1665.88
537.00	1680.75
537.36	1695.96
537.72	1710.42
538.08	1724.73
538.44	1738.47
538.79	1752.27
539.15	1765.82
539.51	1779.43
539.87	1793.59
540.22	1807.26
540.58	1821.08
540.94	1834.52
541.29	1847.39
541.65	1859.97
542.01	1873.04
542.37	1885.34
542.72	1897.79
543.08	1909.49
543.44	1921.72
543.79	1932.76
544.15	1943.75
544.51	1955.20
544.87	1966.03
545.22	1976.81
545.58	1986.94
545.94	1996.61
546.29	2006.34
546.65	2016.18
547.01	2025.26
547.36	2033.96
547.72	2042.34
548.07	2050.00
548.43	2058.09
548.79	2066.09
549.14	2073.62
549.50	2081.03
549.86	2088.70
550.21	2095.86
550.57	2102.97
550.92	2109.54
551.28	2116.56
551.64	2123.60
551.99	2130.07
552.35	2136.39
552.70	2142.43
553.06	2148.53
553.41	2154.79
553.77	2160.90
554.13	2167.05
554.48	2173.32
554.84	2178.92
555.19	2184.18
555.55	2189.47
555.90	2194.03
556.26	2198.89
556.61	2203.62
556.97	2207.82
557.32	2212.01
557.68	2216.20
558.03	2220.50
558.39	2224.10
558.74	2228.71
559.10	2232.54
559.45	2236.28
559.81	2240.63
560.16	2244.44
560.52	2247.53
560.87	2250.93
561.23	2253.56
561.58	2256.48
561.94	2258.88
562.29	2261.27
562.64	2263.94
563.00	2266.45
563.35	2269.84
563.71	2272.97
564.06	2276.22
564.42	2279.27
564.77	2281.76
565.12	2284.01
565.48	2285.97
565.83	2287.91
566.19	2289.29
566.54	2290.24
566.89	2291.37
567.25	2291.90
567.60	2293.20
567.96	2294.91
568.31	2295.85
568.66	2297.11
569.02	2297.66
569.37	2298.10
569.72	2299.03
570.08	2299.26
570.43	2299.30
570.78	2298.96
571.14	2297.54
571.49	2296.17
571.84	2295.71
572.20	2294.60
572.55	2293.70
572.90	2292.16
573.26	2290.73
573.61	2289.05
573.96	2287.53
574.31	2284.51
574.67	2281.62
575.02	2278.21
575.37	2275.00
575.72	2271.28
576.08	2267.78
576.43	2264.52
576.78	2260.79
577.13	2257.60
577.49	2254.63
577.84	2251.26
578.19	2247.45
578.54	2243.88
578.90	2239.72
579.25	2234.21
579.60	2229.37
579.95	2224.19
580.30	2219.22
580.66	2214.36
581.01	2209.52
581.36	2204.60
581.71	2200.48
582.06	2195.94
582.42	2191.39
582.77	2186.20
583.12	2181.67
583.47	2177.10
583.82	2172.15
584.17	2167.07
584.53	2161.70
584.88	2156.08
585.23	2150.36
585.58	2144.82
585.93	2139.26
586.28	2134.55
586.63	2129.58
586.98	2124.45
587.34	2119.92
587.69	2115.06
588.04	2109.70
588.39	2104.07
588.74	2097.50
589.09	2091.43
589.44	2084.74
589.79	2078.77
590.14	2073.13
590.49	2066.52
590.84	2060.15
591.19	2054.19
591.54	2047.71
591.89	2040.34
592.25	2033.50
592.60	2026.14
592.95	2018.64
593.30	2011.37
593.65	2003.76
594.00	1996.75
594.35	1989.59
594.70	1981.59
595.05	1974.41
595.40	1967.16
595.75	1959.53
596.10	1953.36
596.45	1946.60
596.80	1940.44
597.15	1933.85
597.50	1926.75
597.85	1920.48
598.19	1913.80
598.54	1906.60
598.89	1899.98
599.24	1894.12
599.59	1887.46
599.94	1881.50
600.29	1875.15
600.64	1868.63
600.99	1861.28
601.34	1854.52
601.69	1847.53
602.04	1840.64
602.39	1833.27
602.74	1826.43
603.08	1819.85
603.43	1813.25
603.78	1806.00
604.13	1798.80
604.48	1791.53
604.83	1784.80
605.18	1777.82
605.53	1769.92
605.87	1761.99
606.22	1754.88
606.57	1746.90
606.92	1739.58
607.27	1732.41
607.62	1725.50
607.96	1718.18
608.31	1711.59
608.66	1704.02
609.01	1696.53
609.36	1689.01
609.70	1681.06
610.05	1672.99
610.40	1665.32
610.75	1656.87
611.10	1649.33
611.44	1640.96
611.79	1633.02
612.14	1624.32
612.49	1615.18
612.83	1606.73
613.18	1598.59
613.53	1590.46
613.88	1581.89
614.22	1573.53
614.57	1564.92
614.92	1556.93
615.27	1549.40
615.61	1541.02
615.96	1532.89
616.31	1525.34
616.65	1517.92
617.00	1510.40
617.35	1502.79
617.70	1494.37
618.04	1486.01
618.39	1477.70
618.74	1470.15
619.08	1461.76
619.43	1454.10
619.78	1447.19
620.12	1440.06
620.47	1432.55
620.82	1424.31
621.16	1416.95
621.51	1409.47
621.85	1401.81
622.20	1393.32
622.55	1385.00
622.89	1377.12
623.24	1369.52
623.59	1361.99
623.93	1354.47
624.28	1347.19
624.62	1339.61
624.97	1332.44
625.32	1325.59
625.66	1318.64
626.01	1311.50
626.35	1304.10
626.70	1296.36
627.04	1288.66
627.39	1280.85
627.73	1273.42
628.08	1266.58
628.43	1259.26
628.77	1251.93
629.12	1244.32
629.46	1237.19
629.81	1229.75
630.15	1222.51
630.50	1215.15
630.84	1206.99
631.19	1199.06
631.53	1191.54
631.88	1184.07
632.22	1176.44
632.57	1169.14
632.91	1161.49
633.26	1154.02
633.60	1146.64
633.95	1139.50
634.29	1132.41
634.64	1125.69
634.98	1118.41
635.32	1111.23
635.67	1104.55
636.01	1097.87
636.36	1091.13
636.70	1084.48
637.05	1077.91
637.39	1071.39
637.73	1064.90
638.08	1058.93
638.42	1052.96
638.77	1046.47
639.11	1039.82
639.45	1033.49
639.80	1026.75
640.14	1020.30
640.49	1013.74
640.83	1007.41
641.17	1001.22
641.52	994.80
641.86	988.40
642.20	982.51
642.55	976.18
642.89	969.80
643.23	963.19
643.58	957.44
643.92	951.28
644.26	945.11
644.61	939.12
644.95	933.01
645.29	926.44
645.64	919.71
645.98	913.45
646.32	907.61
646.66	901.59
647.01	895.81
647.35	890.11
647.69	884.25
648.04	878.70
648.38	872.82
648.72	866.79
649.06	860.70
649.41	854.78
649.75	848.80
650.09	842.71
650.43	836.88
650.78	830.62
651.12	824.73
651.46	819.08
651.80	813.30
652.14	807.93
652.49	802.55
652.83	797.37
653.17	791.59
653.51	785.88
653.85	780.38
654.20	774.76
654.54	768.75
654.88	763.02
655.22	757.12
655.56	751.51
655.90	746.13
656.25	740.96
656.59	735.58
656.93	730.51
657.27	725.39
657.61	720.03
657.95	714.99
658.29	709.82
658.64	704.56
658.98	699.28
659.32	693.84
659.66	688.65
660.00	683.30
660.34	678.38
660.68	673.39
661.02	668.41
661.36	663.68
661.70	659.17
662.05	654.74
662.39	650.42
662.73	645.94
663.07	641.54
663.41	637.01
663.75	632.50
664.09	627.85
664.43	623.44
664.77	619.26
665.11	614.97
665.45	610.86
665.79	606.74
666.13	602.61
666.47	598.43
666.81	594.31
667.15	590.23
667.49	586.35
667.83	582.59
668.17	578.62
668.51	574.49
668.85	570.46
669.19	566.64
669.53	562.74
669.87	558.88
670.21	555.16
670.55	551.50
670.89	548.07
671.23	544.69
671.57	541.22
671.91	537.63
672.25	534.09
672.58	530.53
672.92	527.13
673.26	523.93
673.60	520.81
673.94	517.74
674.28	514.78
674.62	511.82
674.96	508.67
675.30	505.77
675.64	502.79
675.97	499.99
676.31	497.12
676.65	494.23
676.99	491.49
677.33	488.63
677.67	485.81
678.01	482.77
678.34	479.77
678.68	476.89
679.02	474.11
679.36	471.35
679.70	468.68
680.04	465.92
680.37	463.04
680.71	460.21
681.05	457.44
681.39	454.75
681.73	452.08
682.06	449.55
682.40	446.94
682.74	444.49
683.08	441.95
683.42	439.34
683.75	436.86
684.09	434.27
684.43	431.75
684.77	429.28
685.10	426.93
685.44	424.60
685.78	422.27
686.12	420.05
686.45	417.73
686.79	415.38
687.13	413.13
687.46	410.91
687.80	408.79
688.14	406.63
688.48	404.53
688.81	402.27
689.15	400.14
689.49	398.04
689.82	395.92
690.16	393.85
690.50	391.91
690.83	389.90
691.17	387.92
691.51	386.02
691.84	384.19
692.18	382.27
692.52	380.29
692.85	378.37
693.19	376.50
693.52	374.67
693.86	372.87
694.20	371.08
694.53	369.34
694.87	367.47
695.21	365.64
695.54	363.81
695.88	362.09
696.21	360.35
696.55	358.68
696.88	357.03
697.22	355.34
697.56	353.66
697.89	352.05
698.23	350.45
698.56	348.89
698.90	347.28
699.23	345.63
699.57	344.09
699.90	342.58
700.24	341.03
700.58	339.53
700.91	338.02
701.25	336.57
701.58	335.16
701.92	333.81
702.25	332.47
702.59	331.07
702.92	329.74
703.26	328.42
703.59	327.13
703.93	325.95
704.26	324.73
704.60	323.45
704.93	322.19
705.26	320.93
705.60	319.72
705.93	318.58
706.27	317.56
706.60	316.52
706.94	315.41
707.27	314.30
707.61	313.22
707.94	312.24
708.27	311.20
708.61	310.17
708.94	309.16
709.28	308.17
709.61	307.23
709.94	306.25
710.28	305.25
710.61	304.28
710.95	303.20
711.28	302.30
711.61	301.36
711.95	300.46
712.28	299.51
712.61	298.53
712.95	297.61
713.28	296.70
713.61	295.77
713.95	294.90
714.28	294.04
714.61	293.20
714.95	292.33
715.28	291.46
715.61	290.58
715.95	289.73
716.28	288.85
716.61	288.00
716.95	287.19
717.28	286.42
717.61	285.65
717.94	284.89
718.28	284.04
718.61	283.32
718.94	282.58
719.27	281.93
719.61	281.27
719.94	280.64
720.27	279.91
720.60	279.28
720.94	278.63
721.27	278.04
721.60	277.44
721.93	276.83
722.27	276.29
722.60	275.73
722.93	275.16
723.26	274.63
723.59	274.09
723.93	273.57
724.26	273.04
724.59	272.51
724.92	272.01
725.25	271.52
725.59	270.97
725.92	270.50
726.25	269.96
726.58	269.48
726.91	268.97
727.24	268.50
727.57	267.98
727.91	267.49
728.24	267.00
728.57	266.50
728.90	266.07
729.23	265.52
729.56	265.08
729.89	264.60
730.22	264.12
730.55	263.63
730.89	263.15
731.22	262.66
731.55	262.21
731.88	261.73
732.21	261.29
732.54	260.86
732.87	260.37
733.20	259.97
733.53	259.58
733.86	259.16
734.19	258.77
734.52	258.37
734.85	258.05
735.18	257.65
735.51	257.27
735.84	256.91
736.17	256.58
736.50	256.20
736.83	255.98
737.16	255.67
737.49	255.37
737.82	255.01
738.15	254.70
738.48	254.37
738.81	254.05
739.14	253.72
739.47	253.41
739.80	253.17
740.13	252.87
740.46	252.57
740.79	252.26
741.12	251.98
741.45	251.69
741.78	251.34
742.11	251.06
742.44	250.76
742.77	250.48
743.10	250.17
743.43	249.87
743.75	249.48
744.08	249.34
744.41	249.04
744.74	248.81
745.07	248.53
745.40	248.28
745.73	248.05
746.06	247.82
746.39	247.59
746.71	247.29
747.04	247.01
747.37	246.73
747.70	246.48
748.03	246.20
748.36	245.96
748.68	245.70
749.01	245.47
749.34	245.24
749.67	245.00
750.00	244.83
750.33	244.68
750.65	244.47
750.98	244.13
751.31	243.96
751.64	243.75
751.97	243.61
752.29	243.41
752.62	243.16
752.95	242.92
753.28	242.72
753.60	242.51
753.93	242.34
754.26	242.18
754.59	241.98
754.91	241.80
755.24	241.62
755.57	241.47
755.90	241.27
756.22	241.08
756.55	240.86
756.88	240.64
757.20	240.38
757.53	240.19
757.86	240.00
758.19	239.82
758.51	239.62
758.84	239.41
759.17	239.24
759.49	239.08
759.82	238.98
760.15	238.79
760.47	238.66
760.80	238.50
761.13	238.35
761.45	238.22
761.78	238.04
762.11	237.92
762.43	237.75
762.76	237.61
763.08	237.48
763.41	237.39
763.74	237.26
764.06	237.12
764.39	236.97
764.71	236.82
765.04	236.65
765.37	236.55
765.69	236.40
766.02	236.25
766.34	236.14
766.67	235.98
767.00	235.89
767.32	235.80
767.65	235.74
767.97	235.61
768.30	235.48
768.62	235.39
768.95	235.24
769.27	235.12
769.60	235.02
769.92	234.91
770.25	234.75
770.57	234.60
770.90	234.52
771.22	234.39
771.55	234.29
771.87	234.21
772.20	234.11
772.52	234.11
772.85	234.15
773.17	234.04
773.50	233.93
773.82	233.81
774.15	233.69
774.47	233.52
774.80	233.41
775.12	233.29
775.45	233.19
775.77	233.13
776.09	233.06
776.42	233.00
776.74	232.94
777.07	232.85
777.39	232.80
777.72	232.67
778.04	232.64
778.36	232.61
778.69	232.55
779.01	232.46
779.33	232.31
779.66	232.12
779.98	232.06
780.31	232.01
780.63	232.00
780.95	231.94
781.28	231.90
781.60	231.85
781.92	231.80
782.25	231.78
782.57	231.72
782.89	231.68
783.22	231.58
783.54	231.49
783.86	231.43
784.19	231.35
784.51	231.38
784.83	231.34
785.16	231.23
785.48	231.19
785.80	231.15
786.12	231.10
786.45	231.06
786.77	231.02
787.09	230.98
