SpectraSuite Data File
++++++++++++++++++++++++++++++++++++
Date: Fri Feb 01 16:25:36 EST 2013
User: group
Dark Spectrum Present: No
Reference Spectrum Present: No
Number of Sampled Component Spectra: 1
Spectrometers: USB2E7196
Integration Time (usec): 35000 (USB2E7196)
Spectra Averaged: 100 (USB2E7196)
Boxcar Smoothing: 10 (USB2E7196)
Correct for Electrical Dark: No (USB2E7196)
Strobe/Lamp Enabled: No (USB2E7196)
Correct for Detector Non-linearity: No (USB2E7196)
Correct for Stray Light: No (USB2E7196)
Number of Pixels in Processed Spectrum: 2048
>>>>>Begin Processed Spectral Data<<<<<
339.09	0.00
339.48	214.35
339.86	216.11
340.24	216.87
340.63	218.96
341.01	220.81
341.39	221.04
341.78	222.24
342.16	224.13
342.54	224.03
342.93	212.55
343.31	223.29
343.69	223.81
344.07	224.23
344.46	224.64
344.84	225.02
345.22	225.28
345.60	225.53
345.99	225.75
346.37	225.86
346.75	225.95
347.13	226.03
347.52	226.11
347.90	226.19
348.28	226.24
348.66	226.28
349.05	226.26
349.43	226.29
349.81	226.34
350.19	226.38
350.57	226.44
350.96	226.49
351.34	226.58
351.72	226.70
352.10	226.82
352.48	226.91
352.87	226.95
353.25	227.01
353.63	227.05
354.01	227.06
354.39	227.16
354.77	227.22
355.15	227.29
355.54	227.36
355.92	227.38
356.30	227.42
356.68	227.56
357.06	227.65
357.44	227.70
357.82	227.74
358.20	227.84
358.58	227.90
358.97	227.96
359.35	228.02
359.73	228.04
360.11	228.05
360.49	228.09
360.87	228.12
361.25	228.18
361.63	228.27
362.01	228.33
362.39	228.30
362.77	228.34
363.15	228.38
363.53	228.39
363.91	228.42
364.29	228.47
364.67	228.37
365.05	228.37
365.43	228.41
365.81	228.45
366.19	228.45
366.57	228.46
366.95	228.46
367.33	228.44
367.71	228.48
368.09	228.51
368.47	228.50
368.85	228.46
369.23	228.47
369.61	228.40
369.99	228.42
370.37	228.43
370.75	228.50
371.13	228.43
371.51	228.39
371.89	228.35
372.27	228.29
372.65	228.26
373.03	228.22
373.41	228.16
373.78	228.09
374.16	227.99
374.54	227.92
374.92	227.85
375.30	227.80
375.68	227.68
376.06	227.62
376.44	227.55
376.82	227.52
377.19	227.43
377.57	227.35
377.95	227.21
378.33	227.11
378.71	226.96
379.09	226.93
379.47	226.89
379.84	226.79
380.22	226.74
380.60	226.65
380.98	226.60
381.36	226.50
381.73	226.43
382.11	226.36
382.49	226.31
382.87	226.22
383.25	226.15
383.62	226.20
384.00	226.10
384.38	226.02
384.76	225.99
385.13	225.98
385.51	225.97
385.89	225.94
386.27	225.89
386.64	225.86
387.02	225.77
387.40	225.70
387.78	225.69
388.15	225.63
388.53	225.60
388.91	225.57
389.29	225.56
389.66	225.54
390.04	225.52
390.42	225.50
390.79	225.50
391.17	225.45
391.55	225.35
391.92	225.36
392.30	225.38
392.68	225.34
393.05	225.30
393.43	225.27
393.81	225.27
394.18	225.28
394.56	225.31
394.94	225.38
395.31	225.40
395.69	225.43
396.06	225.50
396.44	225.52
396.82	225.52
397.19	225.56
397.57	225.60
397.95	225.64
398.32	225.64
398.70	225.67
399.07	225.78
399.45	225.83
399.82	225.91
400.20	225.94
400.58	226.02
400.95	226.08
401.33	226.19
401.70	226.34
402.08	226.44
402.45	226.48
402.83	226.58
403.20	226.68
403.58	226.80
403.95	226.94
404.33	227.07
404.71	227.20
405.08	227.44
405.46	227.56
405.83	227.71
406.21	227.91
406.58	228.10
406.96	228.23
407.33	228.42
407.70	228.61
408.08	228.89
408.45	229.13
408.83	229.38
409.20	229.59
409.58	229.76
409.95	230.01
410.33	230.32
410.70	230.59
411.08	230.91
411.45	231.17
411.82	231.45
412.20	231.80
412.57	232.24
412.95	232.51
413.32	232.92
413.69	233.36
414.07	233.82
414.44	234.28
414.82	234.78
415.19	235.33
415.56	235.90
415.94	236.47
416.31	237.10
416.68	237.72
417.06	238.46
417.43	239.17
417.81	239.93
418.18	240.66
418.55	241.49
418.93	242.37
419.30	243.29
419.67	244.23
420.04	245.20
420.42	246.19
420.79	247.34
421.16	248.48
421.54	249.64
421.91	250.84
422.28	252.10
422.66	253.43
423.03	254.70
423.40	256.02
423.77	257.38
424.15	258.76
424.52	260.24
424.89	261.82
425.26	263.34
425.64	264.83
426.01	266.44
426.38	268.10
426.75	269.77
427.13	271.50
427.50	273.31
427.87	275.17
428.24	276.97
428.61	278.69
428.99	280.62
429.36	282.70
429.73	284.73
430.10	286.74
430.47	288.77
430.85	290.86
431.22	293.06
431.59	295.44
431.96	297.70
432.33	300.15
432.70	302.53
433.08	305.33
433.45	307.95
433.82	310.53
434.19	313.36
434.56	316.14
434.93	318.77
435.30	321.36
435.68	324.22
436.05	327.08
436.42	329.89
436.79	332.40
437.16	335.08
437.53	337.90
437.90	340.69
438.27	343.42
438.64	346.23
439.01	348.84
439.38	351.05
439.75	353.20
440.13	355.67
440.50	357.96
440.87	359.79
441.24	361.70
441.61	363.85
441.98	365.33
442.35	367.10
442.72	368.95
443.09	370.76
443.46	371.73
443.83	372.28
444.20	372.79
444.57	373.63
444.94	373.92
445.31	374.25
445.68	374.59
446.05	374.66
446.42	374.30
446.79	373.88
447.16	373.43
447.53	373.12
447.90	372.00
448.27	370.83
448.64	369.25
449.01	368.12
449.37	366.17
449.74	364.30
450.11	362.06
450.48	359.57
450.85	357.00
451.22	354.90
451.59	352.92
451.96	351.01
452.33	348.41
452.70	346.07
453.07	343.30
453.43	340.40
453.80	337.63
454.17	334.96
454.54	332.38
454.91	329.67
455.28	327.01
455.65	324.53
456.02	322.14
456.38	320.04
456.75	317.41
457.12	315.16
457.49	312.95
457.86	310.81
458.23	309.01
458.59	307.01
458.96	304.94
459.33	303.08
459.70	301.23
460.07	299.76
460.43	298.05
460.80	296.42
461.17	295.03
461.54	293.54
461.91	292.16
462.27	290.79
462.64	289.55
463.01	288.20
463.38	286.91
463.74	285.51
464.11	284.35
464.48	283.36
464.85	282.27
465.21	281.45
465.58	280.50
465.95	279.38
466.32	278.52
466.68	277.61
467.05	276.72
467.42	275.81
467.78	274.88
468.15	274.06
468.52	273.43
468.88	272.60
469.25	271.85
469.62	271.24
469.98	270.56
470.35	270.01
470.72	269.44
471.08	268.82
471.45	268.28
471.82	267.74
472.18	267.12
472.55	266.73
472.92	266.20
473.28	265.79
473.65	265.35
474.02	264.88
474.38	264.55
474.75	264.26
475.11	263.91
475.48	263.65
475.85	263.40
476.21	263.19
476.58	262.99
476.94	262.87
477.31	262.68
477.67	262.55
478.04	262.38
478.41	262.32
478.77	262.37
479.14	262.34
479.50	262.37
479.87	262.46
480.23	262.53
480.60	262.61
480.96	262.70
481.33	262.96
481.69	263.16
482.06	263.39
482.42	263.58
482.79	263.83
483.15	264.17
483.52	264.56
483.88	264.91
484.25	265.29
484.61	265.74
484.98	266.21
485.34	266.80
485.71	267.42
486.07	268.01
486.44	268.56
486.80	269.29
487.17	270.01
487.53	270.86
487.90	271.69
488.26	272.60
488.62	273.59
488.99	274.58
489.35	275.65
489.72	276.74
490.08	277.98
490.44	279.24
490.81	280.59
491.17	281.94
491.54	283.41
491.90	284.95
492.26	286.57
492.63	288.30
492.99	290.06
493.36	291.92
493.72	293.98
494.08	296.10
494.45	298.30
494.81	300.66
495.17	303.09
495.54	305.68
495.90	308.37
496.26	311.12
496.63	314.04
496.99	317.13
497.35	320.38
497.72	323.76
498.08	327.27
498.44	330.95
498.80	334.85
499.17	338.85
499.53	343.07
499.89	347.42
500.26	351.94
500.62	356.62
500.98	361.65
501.34	366.74
501.71	372.03
502.07	377.50
502.43	383.13
502.79	388.94
503.16	395.00
503.52	401.35
503.88	407.79
504.24	414.43
504.60	421.28
504.97	428.41
505.33	435.72
505.69	443.48
506.05	451.23
506.41	459.13
506.78	467.33
507.14	475.77
507.50	484.51
507.86	493.57
508.22	502.78
508.59	511.95
508.95	521.53
509.31	531.39
509.67	541.48
510.03	551.77
510.39	562.32
510.75	573.14
511.12	583.96
511.48	595.32
511.84	606.78
512.20	618.31
512.56	630.29
512.92	642.47
513.28	654.79
513.64	667.23
514.00	679.94
514.37	692.84
514.73	705.91
515.09	718.93
515.45	732.14
515.81	745.63
516.17	759.63
516.53	773.68
516.89	787.78
517.25	801.87
517.61	816.20
517.97	830.56
518.33	844.90
518.69	859.65
519.05	874.56
519.41	889.68
519.77	905.18
520.13	920.59
520.49	935.97
520.85	951.37
521.21	967.00
521.57	983.17
521.93	998.89
522.29	1015.19
522.65	1031.41
523.01	1047.59
523.37	1063.67
523.73	1079.67
524.09	1095.73
524.45	1112.04
524.81	1128.61
525.17	1145.40
525.53	1162.37
525.89	1179.22
526.25	1196.09
526.61	1212.38
526.97	1229.17
527.33	1245.61
527.68	1262.20
528.04	1278.56
528.40	1294.98
528.76	1311.96
529.12	1328.40
529.48	1345.24
529.84	1361.19
530.20	1377.70
530.56	1394.65
530.91	1411.89
531.27	1428.70
531.63	1445.12
531.99	1461.51
532.35	1477.36
532.71	1493.20
533.07	1509.32
533.42	1525.08
533.78	1540.94
534.14	1557.16
534.50	1572.30
534.86	1588.09
535.21	1603.15
535.57	1619.11
535.93	1634.61
536.29	1649.41
536.65	1664.41
537.00	1679.06
537.36	1694.29
537.72	1708.80
538.08	1723.07
538.44	1736.85
538.79	1750.63
539.15	1764.13
539.51	1777.83
539.87	1792.23
540.22	1805.79
540.58	1819.34
540.94	1832.49
541.29	1845.27
541.65	1857.93
542.01	1871.00
542.37	1883.18
542.72	1895.40
543.08	1906.89
543.44	1919.10
543.79	1930.10
544.15	1941.11
544.51	1952.69
544.87	1963.51
545.22	1974.14
545.58	1984.46
545.94	1994.10
546.29	2003.86
546.65	2013.73
547.01	2023.03
547.36	2031.54
547.72	2040.06
548.07	2047.93
548.43	2056.20
548.79	2064.38
549.14	2071.76
549.50	2079.13
549.86	2086.68
550.21	2094.03
550.57	2101.29
550.92	2107.79
551.28	2114.92
551.64	2121.74
551.99	2128.15
552.35	2134.28
552.70	2140.46
553.06	2146.25
553.41	2152.63
553.77	2158.56
554.13	2164.63
554.48	2170.67
554.84	2176.22
555.19	2181.35
555.55	2186.61
555.90	2191.06
556.26	2195.81
556.61	2200.53
556.97	2204.64
557.32	2208.92
557.68	2212.97
558.03	2217.20
558.39	2220.95
558.74	2225.55
559.10	2229.54
559.45	2233.18
559.81	2237.41
560.16	2241.28
560.52	2244.60
560.87	2247.93
561.23	2250.59
561.58	2253.56
561.94	2256.12
562.29	2258.47
562.64	2261.18
563.00	2263.63
563.35	2267.07
563.71	2270.15
564.06	2273.50
564.42	2276.47
564.77	2279.05
565.12	2281.36
565.48	2283.29
565.83	2285.18
566.19	2286.50
566.54	2287.34
566.89	2288.42
567.25	2288.99
567.60	2290.25
567.96	2291.98
568.31	2292.90
568.66	2294.27
569.02	2294.76
569.37	2295.02
569.72	2295.95
570.08	2296.30
570.43	2296.47
570.78	2296.02
571.14	2294.57
571.49	2293.19
571.84	2292.94
572.20	2291.78
572.55	2290.90
572.90	2289.43
573.26	2288.08
573.61	2286.49
573.96	2284.93
574.31	2282.07
574.67	2279.38
575.02	2275.81
575.37	2272.48
575.72	2268.67
576.08	2265.14
576.43	2261.95
576.78	2258.38
577.13	2255.20
577.49	2252.04
577.84	2248.53
578.19	2244.84
578.54	2241.27
578.90	2237.23
579.25	2231.78
579.60	2226.84
579.95	2221.90
580.30	2217.04
580.66	2212.04
581.01	2207.09
581.36	2202.22
581.71	2198.16
582.06	2193.67
582.42	2189.28
582.77	2184.10
583.12	2179.69
583.47	2175.23
583.82	2170.40
584.17	2165.16
584.53	2159.89
584.88	2154.38
585.23	2148.63
585.58	2143.18
585.93	2137.72
586.28	2133.02
586.63	2128.03
586.98	2123.05
587.34	2118.36
587.69	2113.47
588.04	2108.32
588.39	2102.83
588.74	2096.46
589.09	2090.43
589.44	2083.77
589.79	2077.85
590.14	2072.26
590.49	2065.79
590.84	2059.40
591.19	2053.30
591.54	2046.98
591.89	2039.54
592.25	2032.89
592.60	2025.83
592.95	2018.31
593.30	2011.04
593.65	2003.32
594.00	1996.32
594.35	1989.12
594.70	1981.13
595.05	1973.81
595.40	1966.45
595.75	1958.83
596.10	1952.64
596.45	1945.92
596.80	1939.79
597.15	1933.18
597.50	1926.10
597.85	1919.66
598.19	1913.09
598.54	1905.98
598.89	1899.42
599.24	1893.64
599.59	1886.83
599.94	1880.69
600.29	1874.42
600.64	1867.93
600.99	1860.63
601.34	1853.93
601.69	1847.05
602.04	1840.21
602.39	1833.04
602.74	1826.22
603.08	1819.61
603.43	1812.78
603.78	1805.46
604.13	1798.23
604.48	1791.01
604.83	1784.21
605.18	1777.32
605.53	1769.24
605.87	1761.23
606.22	1754.02
606.57	1745.97
606.92	1738.73
607.27	1731.51
607.62	1724.64
607.96	1717.32
608.31	1710.78
608.66	1703.09
609.01	1695.54
609.36	1688.03
609.70	1680.01
610.05	1671.97
610.40	1664.32
610.75	1656.11
611.10	1648.51
611.44	1640.07
611.79	1631.99
612.14	1623.24
612.49	1613.97
612.83	1605.64
613.18	1597.53
613.53	1589.33
613.88	1580.81
614.22	1572.47
614.57	1563.90
614.92	1555.80
615.27	1548.27
615.61	1539.88
615.96	1531.75
616.31	1524.11
616.65	1516.71
617.00	1509.16
617.35	1501.49
617.70	1493.26
618.04	1484.64
618.39	1476.33
618.74	1468.76
619.08	1460.59
619.43	1453.12
619.78	1446.23
620.12	1438.98
620.47	1431.48
620.82	1423.36
621.16	1416.01
621.51	1408.51
621.85	1400.95
622.20	1392.47
622.55	1384.02
622.89	1376.08
623.24	1368.52
623.59	1361.15
623.93	1353.61
624.28	1346.31
624.62	1338.78
624.97	1331.46
625.32	1324.87
625.66	1317.89
626.01	1310.78
626.35	1303.29
626.70	1295.46
627.04	1287.75
627.39	1279.97
627.73	1272.60
628.08	1265.75
628.43	1258.32
628.77	1250.92
629.12	1243.33
629.46	1236.18
629.81	1228.86
630.15	1221.74
630.50	1214.42
630.84	1206.11
631.19	1198.20
631.53	1190.74
631.88	1183.14
632.22	1175.56
632.57	1168.20
632.91	1160.62
633.26	1153.15
633.60	1145.80
633.95	1138.71
634.29	1131.72
634.64	1125.08
634.98	1117.75
635.32	1110.57
635.67	1104.08
636.01	1097.39
636.36	1090.64
636.70	1084.08
637.05	1077.49
637.39	1070.94
637.73	1064.30
638.08	1058.46
638.42	1052.49
638.77	1046.02
639.11	1039.44
639.45	1033.01
639.80	1026.35
640.14	1019.96
640.49	1013.44
640.83	1007.05
641.17	1000.84
641.52	994.46
641.86	987.99
642.20	982.09
642.55	975.71
642.89	969.18
643.23	962.70
643.58	956.86
643.92	950.66
644.26	944.65
644.61	938.68
644.95	932.68
645.29	926.06
645.64	919.30
645.98	912.92
646.32	907.19
646.66	901.19
647.01	895.41
647.35	889.64
647.69	883.79
648.04	878.25
648.38	872.35
648.72	866.27
649.06	860.20
649.41	854.34
649.75	848.43
650.09	842.48
650.43	836.65
650.78	830.44
651.12	824.44
651.46	818.64
651.80	812.88
652.14	807.55
652.49	802.23
652.83	797.02
653.17	791.44
653.51	785.61
653.85	780.29
654.20	774.57
654.54	768.61
654.88	762.80
655.22	756.87
655.56	751.24
655.90	745.80
656.25	740.59
656.59	735.19
656.93	730.09
657.27	724.91
657.61	719.40
657.95	714.38
658.29	709.38
658.64	704.16
658.98	698.79
659.32	693.27
659.66	688.06
660.00	682.77
660.34	677.76
660.68	672.90
661.02	667.72
661.36	663.05
661.70	658.56
662.05	654.27
662.39	649.97
662.73	645.47
663.07	641.19
663.41	636.70
663.75	632.21
664.09	627.64
664.43	623.27
664.77	619.17
665.11	614.88
665.45	610.69
665.79	606.57
666.13	602.48
666.47	598.39
666.81	594.26
667.15	590.19
667.49	586.28
667.83	582.36
668.17	578.49
668.51	574.43
668.85	570.39
669.19	566.49
669.53	562.67
669.87	558.80
670.21	555.05
670.55	551.44
670.89	547.99
671.23	544.55
671.57	541.06
671.91	537.57
672.25	534.03
672.58	530.51
672.92	527.16
673.26	523.98
673.60	520.82
673.94	517.65
674.28	514.64
674.62	511.72
674.96	508.72
675.30	505.83
675.64	502.90
675.97	500.13
676.31	497.29
676.65	494.36
676.99	491.70
677.33	488.80
677.67	485.95
678.01	482.89
678.34	479.90
678.68	476.99
679.02	474.15
679.36	471.43
679.70	468.71
680.04	465.88
680.37	462.98
680.71	460.16
681.05	457.56
681.39	454.81
681.73	452.15
682.06	449.58
682.40	446.93
682.74	444.39
683.08	441.79
683.42	439.17
683.75	436.62
684.09	434.00
684.43	431.57
684.77	429.16
685.10	426.84
685.44	424.51
685.78	422.27
686.12	420.03
686.45	417.67
686.79	415.33
687.13	413.09
687.46	410.94
687.80	408.77
688.14	406.53
688.48	404.49
688.81	402.19
689.15	400.03
689.49	397.92
689.82	395.83
690.16	393.76
690.50	391.78
690.83	389.89
691.17	387.93
691.51	385.99
691.84	384.06
692.18	382.13
692.52	380.13
692.85	378.21
693.19	376.29
693.52	374.44
693.86	372.60
694.20	370.85
694.53	369.01
694.87	367.18
695.21	365.40
695.54	363.57
695.88	361.85
696.21	360.12
696.55	358.43
696.88	356.72
697.22	355.03
697.56	353.42
697.89	351.74
698.23	350.15
698.56	348.55
698.90	347.00
699.23	345.32
699.57	343.80
699.90	342.27
700.24	340.74
700.58	339.26
700.91	337.80
701.25	336.35
701.58	335.00
701.92	333.65
702.25	332.29
702.59	330.91
702.92	329.62
703.26	328.31
703.59	326.98
703.93	325.82
704.26	324.62
704.60	323.34
704.93	322.05
705.26	320.80
705.60	319.59
705.93	318.42
706.27	317.40
706.60	316.32
706.94	315.22
707.27	314.11
707.61	313.05
707.94	312.02
708.27	310.95
708.61	309.83
708.94	308.81
709.28	307.86
709.61	306.93
709.94	305.98
710.28	304.97
710.61	304.02
710.95	302.96
711.28	302.02
711.61	301.04
711.95	300.13
712.28	299.16
712.61	298.20
712.95	297.25
713.28	296.39
713.61	295.53
713.95	294.63
714.28	293.78
714.61	292.94
714.95	292.09
715.28	291.27
715.61	290.44
715.95	289.61
716.28	288.70
716.61	287.85
716.95	287.00
717.28	286.24
717.61	285.52
717.94	284.78
718.28	283.99
718.61	283.30
718.94	282.61
719.27	281.95
719.61	281.29
719.94	280.65
720.27	279.92
720.60	279.27
720.94	278.64
721.27	278.02
721.60	277.45
721.93	276.88
722.27	276.34
722.60	275.80
722.93	275.22
723.26	274.68
723.59	274.15
723.93	273.61
724.26	273.05
724.59	272.46
724.92	271.92
725.25	271.42
725.59	270.88
725.92	270.40
726.25	269.90
726.58	269.42
726.91	268.90
727.24	268.45
727.57	267.97
727.91	267.46
728.24	267.03
728.57	266.55
728.90	266.07
729.23	265.56
729.56	265.10
729.89	264.61
730.22	264.12
730.55	263.63
730.89	263.20
731.22	262.79
731.55	262.35
731.88	261.93
732.21	261.48
732.54	261.02
732.87	260.56
733.20	260.16
733.53	259.78
733.86	259.45
734.19	259.02
734.52	258.60
734.85	258.31
735.18	257.89
735.51	257.50
735.84	257.15
736.17	256.78
736.50	256.38
736.83	256.18
737.16	255.86
737.49	255.53
737.82	255.14
738.15	254.77
738.48	254.47
738.81	254.14
739.14	253.81
739.47	253.53
739.80	253.23
740.13	252.94
740.46	252.59
740.79	252.25
741.12	251.94
741.45	251.65
741.78	251.30
742.11	251.00
742.44	250.66
742.77	250.35
743.10	250.08
743.43	249.79
743.75	249.41
744.08	249.23
744.41	248.95
744.74	248.73
745.07	248.46
745.40	248.19
745.73	247.94
746.06	247.68
746.39	247.40
746.71	247.16
747.04	246.88
747.37	246.59
747.70	246.37
748.03	246.13
748.36	245.89
748.68	245.63
749.01	245.37
749.34	245.18
749.67	244.95
750.00	244.71
750.33	244.56
750.65	244.35
750.98	243.99
751.31	243.80
751.64	243.58
751.97	243.42
752.29	243.20
752.62	242.97
752.95	242.76
753.28	242.56
753.60	242.31
753.93	242.13
754.26	241.99
754.59	241.74
754.91	241.52
755.24	241.34
755.57	241.15
755.90	240.99
756.22	240.77
756.55	240.57
756.88	240.38
757.20	240.08
757.53	239.88
757.86	239.76
758.19	239.58
758.51	239.43
758.84	239.20
759.17	239.02
759.49	238.87
759.82	238.75
760.15	238.61
760.47	238.46
760.80	238.30
761.13	238.13
761.45	238.00
761.78	237.83
762.11	237.67
762.43	237.52
762.76	237.37
763.08	237.25
763.41	237.10
763.74	236.94
764.06	236.85
764.39	236.70
764.71	236.54
765.04	236.39
765.37	236.22
765.69	236.09
766.02	235.98
766.34	235.85
766.67	235.72
767.00	235.60
767.32	235.52
767.65	235.44
767.97	235.35
768.30	235.26
768.62	235.18
768.95	235.05
769.27	234.96
769.60	234.86
769.92	234.72
770.25	234.62
770.57	234.52
770.90	234.43
771.22	234.30
771.55	234.22
771.87	234.15
772.20	234.04
772.52	234.02
772.85	234.03
773.17	233.93
773.50	233.82
773.82	233.71
774.15	233.58
774.47	233.44
774.80	233.32
775.12	233.21
775.45	233.16
775.77	233.08
776.09	232.96
776.42	232.89
776.74	232.87
777.07	232.79
777.39	232.73
777.72	232.66
778.04	232.60
778.36	232.49
778.69	232.42
779.01	232.40
779.33	232.26
779.66	232.10
779.98	232.01
780.31	231.94
780.63	231.91
780.95	231.91
781.28	231.87
781.60	231.82
781.92	231.72
782.25	231.62
782.57	231.58
782.89	231.54
783.22	231.49
783.54	231.41
783.86	231.36
784.19	231.30
784.51	231.24
784.83	231.18
785.16	231.16
785.48	231.10
785.80	231.04
786.12	230.98
786.45	230.93
786.77	230.88
787.09	230.85
