SpectraSuite Data File
++++++++++++++++++++++++++++++++++++
Date: Fri Feb 01 18:02:35 EST 2013
User: group
Dark Spectrum Present: No
Reference Spectrum Present: No
Number of Sampled Component Spectra: 1
Spectrometers: USB2E7196
Integration Time (usec): 35000 (USB2E7196)
Spectra Averaged: 100 (USB2E7196)
Boxcar Smoothing: 10 (USB2E7196)
Correct for Electrical Dark: No (USB2E7196)
Strobe/Lamp Enabled: No (USB2E7196)
Correct for Detector Non-linearity: No (USB2E7196)
Correct for Stray Light: No (USB2E7196)
Number of Pixels in Processed Spectrum: 2048
>>>>>Begin Processed Spectral Data<<<<<
339.09	0.00
339.48	212.29
339.86	214.40
340.24	216.12
340.63	217.01
341.01	220.88
341.39	220.38
341.78	221.27
342.16	222.61
342.54	223.24
342.93	211.59
343.31	222.27
343.69	222.83
344.07	223.32
344.46	223.74
344.84	224.16
345.22	224.37
345.60	224.61
345.99	224.77
346.37	224.92
346.75	225.02
347.13	225.11
347.52	225.16
347.90	225.24
348.28	225.28
348.66	225.31
349.05	225.28
349.43	225.31
349.81	225.35
350.19	225.45
350.57	225.51
350.96	225.56
351.34	225.66
351.72	225.77
352.10	225.86
352.48	225.91
352.87	225.92
353.25	226.00
353.63	226.07
354.01	226.19
354.39	226.24
354.77	226.31
355.15	226.40
355.54	226.48
355.92	226.52
356.30	226.58
356.68	226.74
357.06	226.82
357.44	226.85
357.82	226.91
358.20	226.94
358.58	226.98
358.97	227.03
359.35	227.10
359.73	227.15
360.11	227.19
360.49	227.28
360.87	227.33
361.25	227.37
361.63	227.43
362.01	227.46
362.39	227.49
362.77	227.52
363.15	227.54
363.53	227.51
363.91	227.53
364.29	227.57
364.67	227.45
365.05	227.47
365.43	227.48
365.81	227.50
366.19	227.56
366.57	227.61
366.95	227.60
367.33	227.54
367.71	227.54
368.09	227.55
368.47	227.50
368.85	227.49
369.23	227.48
369.61	227.44
369.99	227.45
370.37	227.44
370.75	227.44
371.13	227.38
371.51	227.35
371.89	227.32
372.27	227.24
372.65	227.21
373.03	227.16
373.41	227.12
373.78	227.09
374.16	226.97
374.54	226.88
374.92	226.82
375.30	226.81
375.68	226.77
376.06	226.70
376.44	226.66
376.82	226.59
377.19	226.52
377.57	226.45
377.95	226.37
378.33	226.31
378.71	226.19
379.09	226.15
379.47	226.10
379.84	226.04
380.22	225.99
380.60	225.93
380.98	225.88
381.36	225.81
381.73	225.72
382.11	225.72
382.49	225.67
382.87	225.61
383.25	225.51
383.62	225.56
384.00	225.48
384.38	225.41
384.76	225.40
385.13	225.39
385.51	225.34
385.89	225.25
386.27	225.20
386.64	225.21
387.02	225.17
387.40	225.14
387.78	225.08
388.15	225.06
388.53	225.01
388.91	224.96
389.29	224.93
389.66	224.93
390.04	224.91
390.42	224.88
390.79	224.86
391.17	224.86
391.55	224.73
391.92	224.73
392.30	224.75
392.68	224.75
393.05	224.70
393.43	224.69
393.81	224.73
394.18	224.76
394.56	224.74
394.94	224.77
395.31	224.77
395.69	224.83
396.06	224.91
396.44	224.95
396.82	224.94
397.19	225.05
397.57	225.06
397.95	225.09
398.32	225.11
398.70	225.19
399.07	225.27
399.45	225.31
399.82	225.35
400.20	225.41
400.58	225.49
400.95	225.54
401.33	225.64
401.70	225.76
402.08	225.81
402.45	225.90
402.83	226.00
403.20	226.12
403.58	226.24
403.95	226.34
404.33	226.48
404.71	226.62
405.08	226.81
405.46	226.95
405.83	227.14
406.21	227.32
406.58	227.47
406.96	227.65
407.33	227.87
407.70	228.11
408.08	228.43
408.45	228.68
408.83	228.99
409.20	229.23
409.58	229.51
409.95	229.85
410.33	230.16
410.70	230.46
411.08	230.81
411.45	231.15
411.82	231.51
412.20	231.98
412.57	232.52
412.95	232.91
413.32	233.47
413.69	233.99
414.07	234.58
414.44	235.20
414.82	235.83
415.19	236.55
415.56	237.26
415.94	238.00
416.31	238.83
416.68	239.64
417.06	240.65
417.43	241.53
417.81	242.56
418.18	243.66
418.55	244.80
418.93	246.02
419.30	247.23
419.67	248.49
420.04	249.76
420.42	251.15
420.79	252.72
421.16	254.28
421.54	255.88
421.91	257.49
422.28	259.17
422.66	261.00
423.03	262.76
423.40	264.60
423.77	266.47
424.15	268.43
424.52	270.43
424.89	272.63
425.26	274.72
425.64	276.69
426.01	278.85
426.38	281.13
426.75	283.35
427.13	285.73
427.50	288.24
427.87	290.78
428.24	293.26
428.61	295.62
428.99	298.24
429.36	301.11
429.73	303.94
430.10	306.70
430.47	309.53
430.85	312.43
431.22	315.46
431.59	318.67
431.96	321.68
432.33	325.05
432.70	328.19
433.08	332.01
433.45	335.58
433.82	339.09
434.19	343.01
434.56	346.82
434.93	350.41
435.30	353.96
435.68	357.89
436.05	361.78
436.42	365.59
436.79	369.01
437.16	372.66
437.53	376.52
437.90	380.38
438.27	384.10
438.64	387.89
439.01	391.41
439.38	394.48
439.75	397.47
440.13	400.88
440.50	404.08
440.87	406.61
441.24	409.21
441.61	412.20
441.98	414.19
442.35	416.75
442.72	419.27
443.09	421.69
443.46	423.06
443.83	423.86
444.20	424.59
444.57	425.75
444.94	426.14
445.31	426.58
445.68	426.98
446.05	427.11
446.42	426.66
446.79	426.08
447.16	425.48
447.53	425.03
447.90	423.52
448.27	421.98
448.64	419.84
449.01	418.33
449.37	415.61
449.74	413.06
450.11	409.89
450.48	406.56
450.85	403.14
451.22	400.25
451.59	397.49
451.96	394.82
452.33	391.27
452.70	388.11
453.07	384.30
453.43	380.42
453.80	376.64
454.17	373.02
454.54	369.58
454.91	365.88
455.28	362.26
455.65	358.85
456.02	355.42
456.38	352.49
456.75	348.85
457.12	345.80
457.49	342.82
457.86	339.89
458.23	337.36
458.59	334.60
458.96	331.71
459.33	329.18
459.70	326.62
460.07	324.58
460.43	322.19
460.80	319.96
461.17	317.96
461.54	315.88
461.91	313.88
462.27	311.90
462.64	310.18
463.01	308.28
463.38	306.48
463.74	304.70
464.11	303.08
464.48	301.72
464.85	300.21
465.21	298.96
465.58	297.72
465.95	296.23
466.32	294.97
466.68	293.76
467.05	292.54
467.42	291.34
467.78	290.05
468.15	288.86
468.52	287.97
468.88	286.84
469.25	285.80
469.62	284.94
469.98	284.04
470.35	283.16
470.72	282.37
471.08	281.48
471.45	280.71
471.82	279.96
472.18	279.12
472.55	278.50
472.92	277.80
473.28	277.18
473.65	276.57
474.02	275.97
474.38	275.42
474.75	274.93
475.11	274.45
475.48	274.05
475.85	273.67
476.21	273.31
476.58	272.97
476.94	272.70
477.31	272.41
477.67	272.12
478.04	271.93
478.41	271.80
478.77	271.77
479.14	271.65
479.50	271.56
479.87	271.56
480.23	271.58
480.60	271.59
480.96	271.52
481.33	271.64
481.69	271.82
482.06	271.96
482.42	272.08
482.79	272.28
483.15	272.58
483.52	272.96
483.88	273.24
484.25	273.62
484.61	274.05
484.98	274.50
485.34	275.05
485.71	275.63
486.07	276.19
486.44	276.74
486.80	277.45
487.17	278.23
487.53	279.07
487.90	279.91
488.26	280.84
488.62	281.92
488.99	282.94
489.35	283.96
489.72	285.14
490.08	286.40
490.44	287.68
490.81	289.07
491.17	290.49
491.54	292.06
491.90	293.64
492.26	295.34
492.63	297.14
492.99	299.02
493.36	300.99
493.72	303.14
494.08	305.35
494.45	307.72
494.81	310.19
495.17	312.72
495.54	315.41
495.90	318.26
496.26	321.20
496.63	324.29
496.99	327.62
497.35	331.07
497.72	334.71
498.08	338.40
498.44	342.25
498.80	346.41
499.17	350.69
499.53	355.15
499.89	359.79
500.26	364.59
500.62	369.55
500.98	374.87
501.34	380.31
501.71	385.97
502.07	391.75
502.43	397.71
502.79	403.94
503.16	410.38
503.52	417.04
503.88	423.90
504.24	430.97
504.60	438.28
504.97	445.84
505.33	453.65
505.69	461.88
506.05	470.18
506.41	478.51
506.78	487.25
507.14	496.24
507.50	505.52
507.86	515.15
508.22	524.97
508.59	534.77
508.95	544.94
509.31	555.48
509.67	566.28
510.03	577.31
510.39	588.53
510.75	600.11
511.12	611.84
511.48	623.90
511.84	636.23
512.20	648.58
512.56	661.42
512.92	674.49
513.28	687.83
513.64	701.29
514.00	715.04
514.37	728.98
514.73	743.10
515.09	757.23
515.45	771.52
515.81	786.24
516.17	801.32
516.53	816.62
516.89	831.97
517.25	847.34
517.61	862.99
517.97	878.78
518.33	894.29
518.69	910.29
519.05	926.56
519.41	943.04
519.77	960.01
520.13	976.80
520.49	993.51
520.85	1010.18
521.21	1027.34
521.57	1045.07
521.93	1062.29
522.29	1080.13
522.65	1098.01
523.01	1115.74
523.37	1133.31
523.73	1151.05
524.09	1168.77
524.45	1186.76
524.81	1205.05
525.17	1223.40
525.53	1242.00
525.89	1260.87
526.25	1279.61
526.61	1297.74
526.97	1316.26
527.33	1334.46
527.68	1352.95
528.04	1371.24
528.40	1389.77
528.76	1408.63
529.12	1427.09
529.48	1445.93
529.84	1463.83
530.20	1482.24
530.56	1501.23
530.91	1520.68
531.27	1539.40
531.63	1557.77
531.99	1576.30
532.35	1594.20
532.71	1612.26
533.07	1630.52
533.42	1648.44
533.78	1666.56
534.14	1685.06
534.50	1702.49
534.86	1720.52
535.21	1737.77
535.57	1755.94
535.93	1773.76
536.29	1790.77
536.65	1808.00
537.00	1824.82
537.36	1842.32
537.72	1859.05
538.08	1875.87
538.44	1891.89
538.79	1908.08
539.15	1924.00
539.51	1939.91
539.87	1956.52
540.22	1972.50
540.58	1988.51
540.94	2003.99
541.29	2019.04
541.65	2033.97
542.01	2049.41
542.37	2064.05
542.72	2078.78
543.08	2092.94
543.44	2107.59
543.79	2121.12
544.15	2134.20
544.51	2148.19
544.87	2161.54
545.22	2174.71
545.58	2187.22
545.94	2199.05
546.29	2211.19
546.65	2223.46
547.01	2235.05
547.36	2246.12
547.72	2256.83
548.07	2266.95
548.43	2277.35
548.79	2287.46
549.14	2297.18
549.50	2306.49
549.86	2316.11
550.21	2325.41
550.57	2334.53
550.92	2343.02
551.28	2352.13
551.64	2361.42
551.99	2369.87
552.35	2377.97
552.70	2386.03
553.06	2393.98
553.41	2402.35
553.77	2410.06
554.13	2417.91
554.48	2425.89
554.84	2433.29
555.19	2440.24
555.55	2447.18
555.90	2453.23
556.26	2460.02
556.61	2466.41
556.97	2472.86
557.32	2478.89
557.68	2484.73
558.03	2490.71
558.39	2495.87
558.74	2502.12
559.10	2507.66
559.45	2512.96
559.81	2518.78
560.16	2524.15
560.52	2528.69
560.87	2533.65
561.23	2537.87
561.58	2542.11
561.94	2546.02
562.29	2549.39
562.64	2553.53
563.00	2557.32
563.35	2562.37
563.71	2566.77
564.06	2571.31
564.42	2575.12
564.77	2578.76
565.12	2582.47
565.48	2585.66
565.83	2588.78
566.19	2591.31
566.54	2592.98
566.89	2595.24
567.25	2596.86
567.60	2599.16
567.96	2602.10
568.31	2603.89
568.66	2606.00
569.02	2607.55
569.37	2608.68
569.72	2610.70
570.08	2611.68
570.43	2612.51
570.78	2612.65
571.14	2611.49
571.49	2610.64
571.84	2611.11
572.20	2610.69
572.55	2610.00
572.90	2608.72
573.26	2607.91
573.61	2606.47
573.96	2605.34
574.31	2602.65
574.67	2600.10
575.02	2596.56
575.37	2593.20
575.72	2589.52
576.08	2586.24
576.43	2583.18
576.78	2579.68
577.13	2576.37
577.49	2573.17
577.84	2569.87
578.19	2566.12
578.54	2562.79
578.90	2558.57
579.25	2552.67
579.60	2547.49
579.95	2542.30
580.30	2537.13
580.66	2531.78
581.01	2526.64
581.36	2521.50
581.71	2517.04
582.06	2512.20
582.42	2507.63
582.77	2501.93
583.12	2497.03
583.47	2492.10
583.82	2486.66
584.17	2480.99
584.53	2475.14
584.88	2469.23
585.23	2462.91
585.58	2456.81
585.93	2450.71
586.28	2445.37
586.63	2439.86
586.98	2434.31
587.34	2429.16
587.69	2423.62
588.04	2417.79
588.39	2411.51
588.74	2404.19
589.09	2397.35
589.44	2389.84
589.79	2383.08
590.14	2376.88
590.49	2369.40
590.84	2362.13
591.19	2355.34
591.54	2348.07
591.89	2339.97
592.25	2332.25
592.60	2324.13
592.95	2315.66
593.30	2307.42
593.65	2298.90
594.00	2290.98
594.35	2282.57
594.70	2273.44
595.05	2265.59
595.40	2257.08
595.75	2248.44
596.10	2241.53
596.45	2233.96
596.80	2226.81
597.15	2219.26
597.50	2211.15
597.85	2203.79
598.19	2196.25
598.54	2188.13
598.89	2180.43
599.24	2173.57
599.59	2166.00
599.94	2158.73
600.29	2151.39
600.64	2143.77
600.99	2135.24
601.34	2127.23
601.69	2119.28
602.04	2111.33
602.39	2102.55
602.74	2094.76
603.08	2087.01
603.43	2078.94
603.78	2070.31
604.13	2061.93
604.48	2053.50
604.83	2045.50
605.18	2037.44
605.53	2028.20
605.87	2018.83
606.22	2010.29
606.57	2000.84
606.92	1992.05
607.27	1983.83
607.62	1975.66
607.96	1967.12
608.31	1959.41
608.66	1950.51
609.01	1941.57
609.36	1932.73
609.70	1923.32
610.05	1913.89
610.40	1904.76
610.75	1895.11
611.10	1886.15
611.44	1876.17
611.79	1866.69
612.14	1856.56
612.49	1845.85
612.83	1835.97
613.18	1826.38
613.53	1816.91
613.88	1806.92
614.22	1797.27
614.57	1786.98
614.92	1777.65
615.27	1768.86
615.61	1759.01
615.96	1749.57
616.31	1740.58
616.65	1731.78
617.00	1723.01
617.35	1713.87
617.70	1704.28
618.04	1694.25
618.39	1684.49
618.74	1675.65
619.08	1665.83
619.43	1656.76
619.78	1648.56
620.12	1640.05
620.47	1631.22
620.82	1621.54
621.16	1612.76
621.51	1603.71
621.85	1594.63
622.20	1584.58
622.55	1574.63
622.89	1565.39
623.24	1556.34
623.59	1547.51
623.93	1538.79
624.28	1530.22
624.62	1521.47
624.97	1512.81
625.32	1504.77
625.66	1496.49
626.01	1488.10
626.35	1479.40
626.70	1470.27
627.04	1461.18
627.39	1451.99
627.73	1443.21
628.08	1435.25
628.43	1426.70
628.77	1418.14
629.12	1409.37
629.46	1400.98
629.81	1392.13
630.15	1383.57
630.50	1374.90
630.84	1365.25
631.19	1355.77
631.53	1346.70
631.88	1337.68
632.22	1328.82
632.57	1320.23
632.91	1311.36
633.26	1302.64
633.60	1293.83
633.95	1285.43
634.29	1277.18
634.64	1269.29
634.98	1260.66
635.32	1252.12
635.67	1244.30
636.01	1236.43
636.36	1228.50
636.70	1220.76
637.05	1213.08
637.39	1205.37
637.73	1197.68
638.08	1190.86
638.42	1183.79
638.77	1176.49
639.11	1168.92
639.45	1161.34
639.80	1153.53
640.14	1145.95
640.49	1138.19
640.83	1130.90
641.17	1123.66
641.52	1116.21
641.86	1108.69
642.20	1101.85
642.55	1094.44
642.89	1086.92
643.23	1079.21
643.58	1072.40
643.92	1065.13
644.26	1058.15
644.61	1051.10
644.95	1044.15
645.29	1036.49
645.64	1028.59
645.98	1021.12
646.32	1014.21
646.66	1007.19
647.01	1000.46
647.35	993.81
647.69	987.01
648.04	980.44
648.38	973.67
648.72	966.75
649.06	959.72
649.41	952.89
649.75	945.92
650.09	939.03
650.43	932.33
650.78	925.23
651.12	918.34
651.46	911.66
651.80	905.13
652.14	898.86
652.49	892.61
652.83	886.76
653.17	880.25
653.51	873.61
653.85	867.36
654.20	860.79
654.54	853.88
654.88	847.19
655.22	840.44
655.56	833.88
655.90	827.51
656.25	821.42
656.59	815.19
656.93	809.33
657.27	803.40
657.61	797.14
657.95	791.23
658.29	785.39
658.64	779.26
658.98	773.10
659.32	766.74
659.66	760.70
660.00	754.50
660.34	748.65
660.68	742.96
661.02	737.10
661.36	731.65
661.70	726.39
662.05	721.42
662.39	716.45
662.73	711.29
663.07	706.23
663.41	701.04
663.75	695.91
664.09	690.61
664.43	685.40
664.77	680.68
665.11	675.69
665.45	670.88
665.79	666.17
666.13	661.40
666.47	656.63
666.81	651.88
667.15	647.12
667.49	642.64
667.83	638.21
668.17	633.74
668.51	629.04
668.85	624.43
669.19	619.94
669.53	615.52
669.87	611.05
670.21	606.74
670.55	602.55
670.89	598.49
671.23	594.54
671.57	590.55
671.91	586.49
672.25	582.43
672.58	578.28
672.92	574.29
673.26	570.50
673.60	566.85
673.94	563.19
674.28	559.79
674.62	556.36
674.96	552.79
675.30	549.38
675.64	546.03
675.97	542.78
676.31	539.48
676.65	536.09
676.99	532.95
677.33	529.65
677.67	526.37
678.01	522.90
678.34	519.46
678.68	516.08
679.02	512.76
679.36	509.57
679.70	506.54
680.04	503.40
680.37	500.20
680.71	497.03
681.05	494.00
681.39	490.90
681.73	487.84
682.06	484.89
682.40	481.94
682.74	479.02
683.08	476.01
683.42	472.97
683.75	470.05
684.09	467.02
684.43	464.15
684.77	461.32
685.10	458.56
685.44	455.94
685.78	453.32
686.12	450.70
686.45	448.08
686.79	445.29
687.13	442.71
687.46	440.17
687.80	437.61
688.14	435.04
688.48	432.62
688.81	430.00
689.15	427.50
689.49	424.96
689.82	422.50
690.16	420.09
690.50	417.82
690.83	415.59
691.17	413.28
691.51	411.08
691.84	408.91
692.18	406.68
692.52	404.34
692.85	402.05
693.19	399.88
693.52	397.71
693.86	395.66
694.20	393.58
694.53	391.51
694.87	389.37
695.21	387.28
695.54	385.14
695.88	383.16
696.21	381.16
696.55	379.24
696.88	377.27
697.22	375.34
697.56	373.44
697.89	371.49
698.23	369.67
698.56	367.84
698.90	366.01
699.23	364.13
699.57	362.33
699.90	360.60
700.24	358.83
700.58	357.09
700.91	355.38
701.25	353.69
701.58	352.06
701.92	350.48
702.25	348.87
702.59	347.31
702.92	345.79
703.26	344.30
703.59	342.83
703.93	341.47
704.26	340.07
704.60	338.59
704.93	337.08
705.26	335.60
705.60	334.17
705.93	332.81
706.27	331.56
706.60	330.25
706.94	328.98
707.27	327.66
707.61	326.40
707.94	325.17
708.27	323.92
708.61	322.69
708.94	321.54
709.28	320.42
709.61	319.26
709.94	318.13
710.28	316.93
710.61	315.76
710.95	314.49
711.28	313.38
711.61	312.29
711.95	311.21
712.28	310.16
712.61	309.00
712.95	307.91
713.28	306.91
713.61	305.98
713.95	304.90
714.28	303.87
714.61	302.86
714.95	301.90
715.28	300.87
715.61	299.87
715.95	298.81
716.28	297.81
716.61	296.83
716.95	295.83
717.28	294.96
717.61	294.03
717.94	293.21
718.28	292.29
718.61	291.39
718.94	290.64
719.27	289.82
719.61	289.08
719.94	288.29
720.27	287.46
720.60	286.64
720.94	285.92
721.27	285.24
721.60	284.56
721.93	283.83
722.27	283.17
722.60	282.48
722.93	281.87
723.26	281.26
723.59	280.64
723.93	280.00
724.26	279.34
724.59	278.70
724.92	278.06
725.25	277.51
725.59	276.93
725.92	276.30
726.25	275.72
726.58	275.16
726.91	274.55
727.24	273.98
727.57	273.42
727.91	272.82
728.24	272.25
728.57	271.69
728.90	271.14
729.23	270.58
729.56	270.09
729.89	269.53
730.22	268.92
730.55	268.38
730.89	267.87
731.22	267.36
731.55	266.86
731.88	266.37
732.21	265.82
732.54	265.30
732.87	264.83
733.20	264.37
733.53	263.92
733.86	263.52
734.19	263.05
734.52	262.63
734.85	262.25
735.18	261.77
735.51	261.35
735.84	260.93
736.17	260.50
736.50	260.04
736.83	259.75
737.16	259.36
737.49	258.97
737.82	258.61
738.15	258.23
738.48	257.82
738.81	257.42
739.14	257.05
739.47	256.70
739.80	256.31
740.13	255.95
740.46	255.53
740.79	255.15
741.12	254.81
741.45	254.44
741.78	254.08
742.11	253.77
742.44	253.40
742.77	253.04
743.10	252.73
743.43	252.37
743.75	251.95
744.08	251.78
744.41	251.47
744.74	251.16
745.07	250.84
745.40	250.56
745.73	250.32
746.06	250.01
746.39	249.67
746.71	249.38
747.04	249.05
747.37	248.75
747.70	248.45
748.03	248.17
748.36	247.90
748.68	247.60
749.01	247.34
749.34	247.09
749.67	246.86
750.00	246.57
750.33	246.40
750.65	246.15
750.98	245.78
751.31	245.53
751.64	245.27
751.97	245.11
752.29	244.86
752.62	244.54
752.95	244.34
753.28	244.13
753.60	243.90
753.93	243.71
754.26	243.51
754.59	243.29
754.91	243.06
755.24	242.80
755.57	242.59
755.90	242.35
756.22	242.10
756.55	241.87
756.88	241.68
757.20	241.41
757.53	241.18
757.86	240.97
758.19	240.78
758.51	240.57
758.84	240.29
759.17	240.11
759.49	239.92
759.82	239.76
760.15	239.56
760.47	239.38
760.80	239.19
761.13	239.00
761.45	238.82
761.78	238.66
762.11	238.52
762.43	238.34
762.76	238.19
763.08	238.04
763.41	237.90
763.74	237.74
764.06	237.60
764.39	237.43
764.71	237.28
765.04	237.10
765.37	236.92
765.69	236.77
766.02	236.62
766.34	236.47
766.67	236.30
767.00	236.19
767.32	236.07
767.65	235.99
767.97	235.83
768.30	235.72
768.62	235.59
768.95	235.47
769.27	235.31
769.60	235.20
769.92	235.05
770.25	234.92
770.57	234.76
770.90	234.62
771.22	234.52
771.55	234.42
771.87	234.35
772.20	234.27
772.52	234.24
772.85	234.24
773.17	234.11
773.50	234.02
773.82	233.91
774.15	233.79
774.47	233.60
774.80	233.50
775.12	233.38
775.45	233.25
775.77	233.12
776.09	233.06
776.42	232.96
776.74	232.93
777.07	232.83
777.39	232.75
777.72	232.65
778.04	232.56
778.36	232.43
778.69	232.31
779.01	232.24
779.33	232.08
779.66	231.89
779.98	231.83
780.31	231.73
780.63	231.69
780.95	231.61
781.28	231.56
781.60	231.50
781.92	231.41
782.25	231.39
782.57	231.32
782.89	231.24
783.22	231.15
783.54	231.05
783.86	231.01
784.19	230.91
784.51	230.91
784.83	230.83
785.16	230.78
785.48	230.72
785.80	230.64
786.12	230.59
786.45	230.54
