SpectraSuite Data File
++++++++++++++++++++++++++++++++++++
Date: Fri Feb 01 16:30:08 EST 2013
User: group
Dark Spectrum Present: No
Reference Spectrum Present: No
Number of Sampled Component Spectra: 1
Spectrometers: USB2E7196
Integration Time (usec): 35000 (USB2E7196)
Spectra Averaged: 100 (USB2E7196)
Boxcar Smoothing: 10 (USB2E7196)
Correct for Electrical Dark: No (USB2E7196)
Strobe/Lamp Enabled: No (USB2E7196)
Correct for Detector Non-linearity: No (USB2E7196)
Correct for Stray Light: No (USB2E7196)
Number of Pixels in Processed Spectrum: 2048
>>>>>Begin Processed Spectral Data<<<<<
339.09	0.00
339.48	213.90
339.86	215.36
340.24	217.56
340.63	218.73
341.01	221.09
341.39	221.03
341.78	222.41
342.16	223.52
342.54	224.37
342.93	212.59
343.31	223.34
343.69	223.90
344.07	224.36
344.46	224.76
344.84	225.15
345.22	225.41
345.60	225.67
345.99	225.85
346.37	225.99
346.75	226.08
347.13	226.13
347.52	226.20
347.90	226.28
348.28	226.30
348.66	226.32
349.05	226.32
349.43	226.37
349.81	226.43
350.19	226.46
350.57	226.48
350.96	226.52
351.34	226.58
351.72	226.63
352.10	226.71
352.48	226.75
352.87	226.77
353.25	226.83
353.63	226.88
354.01	226.96
354.39	227.03
354.77	227.09
355.15	227.22
355.54	227.25
355.92	227.27
356.30	227.33
356.68	227.48
357.06	227.51
357.44	227.53
357.82	227.57
358.20	227.63
358.58	227.69
358.97	227.72
359.35	227.83
359.73	227.91
360.11	227.97
360.49	228.04
360.87	228.09
361.25	228.14
361.63	228.19
362.01	228.23
362.39	228.24
362.77	228.28
363.15	228.31
363.53	228.37
363.91	228.35
364.29	228.37
364.67	228.26
365.05	228.29
365.43	228.33
365.81	228.36
366.19	228.36
366.57	228.39
366.95	228.40
367.33	228.34
367.71	228.34
368.09	228.31
368.47	228.30
368.85	228.27
369.23	228.25
369.61	228.19
369.99	228.19
370.37	228.18
370.75	228.19
371.13	228.13
371.51	228.05
371.89	228.05
372.27	228.02
372.65	228.01
373.03	227.97
373.41	227.92
373.78	227.85
374.16	227.79
374.54	227.70
374.92	227.66
375.30	227.60
375.68	227.48
376.06	227.47
376.44	227.40
376.82	227.33
377.19	227.23
377.57	227.18
377.95	227.07
378.33	227.01
378.71	226.91
379.09	226.86
379.47	226.80
379.84	226.71
380.22	226.63
380.60	226.50
380.98	226.45
381.36	226.38
381.73	226.31
382.11	226.28
382.49	226.26
382.87	226.16
383.25	226.15
383.62	226.25
384.00	226.15
384.38	226.11
384.76	226.08
385.13	226.09
385.51	226.03
385.89	226.02
386.27	225.95
386.64	225.90
387.02	225.87
387.40	225.84
387.78	225.82
388.15	225.79
388.53	225.79
388.91	225.75
389.29	225.71
389.66	225.70
390.04	225.64
390.42	225.64
390.79	225.66
391.17	225.59
391.55	225.48
391.92	225.50
392.30	225.49
392.68	225.47
393.05	225.47
393.43	225.52
393.81	225.51
394.18	225.51
394.56	225.56
394.94	225.55
395.31	225.52
395.69	225.58
396.06	225.64
396.44	225.67
396.82	225.71
397.19	225.79
397.57	225.82
397.95	225.86
398.32	225.85
398.70	225.88
399.07	225.97
399.45	226.01
399.82	226.05
400.20	226.10
400.58	226.16
400.95	226.16
401.33	226.21
401.70	226.32
402.08	226.42
402.45	226.45
402.83	226.55
403.20	226.66
403.58	226.71
403.95	226.82
404.33	226.94
404.71	227.03
405.08	227.22
405.46	227.31
405.83	227.47
406.21	227.63
406.58	227.79
406.96	227.92
407.33	228.09
407.70	228.27
408.08	228.52
408.45	228.71
408.83	228.95
409.20	229.16
409.58	229.34
409.95	229.59
410.33	229.90
410.70	230.14
411.08	230.44
411.45	230.76
411.82	231.05
412.20	231.39
412.57	231.82
412.95	232.10
413.32	232.51
413.69	232.91
414.07	233.33
414.44	233.78
414.82	234.28
415.19	234.83
415.56	235.39
415.94	235.97
416.31	236.59
416.68	237.23
417.06	237.93
417.43	238.62
417.81	239.40
418.18	240.16
418.55	241.02
418.93	241.87
419.30	242.75
419.67	243.70
420.04	244.66
420.42	245.64
420.79	246.84
421.16	247.99
421.54	249.22
421.91	250.42
422.28	251.69
422.66	253.03
423.03	254.34
423.40	255.68
423.77	257.07
424.15	258.53
424.52	260.02
424.89	261.62
425.26	263.20
425.64	264.62
426.01	266.21
426.38	267.85
426.75	269.53
427.13	271.27
427.50	273.11
427.87	274.96
428.24	276.83
428.61	278.53
428.99	280.45
429.36	282.51
429.73	284.59
430.10	286.58
430.47	288.66
430.85	290.75
431.22	292.99
431.59	295.37
431.96	297.63
432.33	300.12
432.70	302.51
433.08	305.31
433.45	307.93
433.82	310.56
434.19	313.48
434.56	316.28
434.93	318.91
435.30	321.50
435.68	324.41
436.05	327.18
436.42	330.02
436.79	332.56
437.16	335.27
437.53	338.12
437.90	340.97
438.27	343.71
438.64	346.56
439.01	349.16
439.38	351.38
439.75	353.53
440.13	355.95
440.50	358.28
440.87	360.16
441.24	362.13
441.61	364.20
441.98	365.63
442.35	367.43
442.72	369.28
443.09	371.06
443.46	372.05
443.83	372.68
444.20	373.14
444.57	373.97
444.94	374.21
445.31	374.54
445.68	374.89
446.05	374.91
446.42	374.51
446.79	374.08
447.16	373.65
447.53	373.35
447.90	372.26
448.27	371.09
448.64	369.45
449.01	368.28
449.37	366.34
449.74	364.45
450.11	362.24
450.48	359.77
450.85	357.25
451.22	355.12
451.59	353.12
451.96	351.17
452.33	348.57
452.70	346.23
453.07	343.39
453.43	340.47
453.80	337.74
454.17	335.09
454.54	332.52
454.91	329.78
455.28	327.09
455.65	324.58
456.02	322.12
456.38	319.99
456.75	317.36
457.12	315.15
457.49	312.94
457.86	310.76
458.23	308.92
458.59	306.86
458.96	304.79
459.33	302.93
459.70	301.11
460.07	299.61
460.43	297.94
460.80	296.33
461.17	294.89
461.54	293.37
461.91	291.97
462.27	290.55
462.64	289.32
463.01	287.98
463.38	286.70
463.74	285.34
464.11	284.18
464.48	283.19
464.85	282.10
465.21	281.27
465.58	280.36
465.95	279.30
466.32	278.40
466.68	277.51
467.05	276.65
467.42	275.75
467.78	274.85
468.15	274.01
468.52	273.34
468.88	272.53
469.25	271.79
469.62	271.17
469.98	270.52
470.35	269.90
470.72	269.28
471.08	268.61
471.45	268.10
471.82	267.59
472.18	266.97
472.55	266.54
472.92	266.02
473.28	265.55
473.65	265.17
474.02	264.74
474.38	264.38
474.75	264.04
475.11	263.72
475.48	263.47
475.85	263.25
476.21	263.02
476.58	262.82
476.94	262.66
477.31	262.52
477.67	262.36
478.04	262.28
478.41	262.27
478.77	262.39
479.14	262.31
479.50	262.32
479.87	262.42
480.23	262.51
480.60	262.58
480.96	262.71
481.33	262.92
481.69	263.12
482.06	263.32
482.42	263.53
482.79	263.82
483.15	264.15
483.52	264.52
483.88	264.87
484.25	265.28
484.61	265.71
484.98	266.12
485.34	266.69
485.71	267.29
486.07	267.89
486.44	268.48
486.80	269.23
487.17	269.93
487.53	270.71
487.90	271.56
488.26	272.50
488.62	273.49
488.99	274.44
489.35	275.54
489.72	276.64
490.08	277.84
490.44	279.07
490.81	280.40
491.17	281.80
491.54	283.31
491.90	284.84
492.26	286.48
492.63	288.29
492.99	290.12
493.36	292.00
493.72	294.04
494.08	296.10
494.45	298.36
494.81	300.78
495.17	303.23
495.54	305.79
495.90	308.45
496.26	311.26
496.63	314.22
496.99	317.31
497.35	320.60
497.72	324.04
498.08	327.55
498.44	331.23
498.80	335.11
499.17	339.14
499.53	343.33
499.89	347.78
500.26	352.22
500.62	356.89
500.98	361.89
501.34	366.97
501.71	372.27
502.07	377.68
502.43	383.31
502.79	389.15
503.16	395.18
503.52	401.51
503.88	407.92
504.24	414.59
504.60	421.48
504.97	428.67
505.33	435.98
505.69	443.66
506.05	451.41
506.41	459.28
506.78	467.47
507.14	475.95
507.50	484.62
507.86	493.65
508.22	502.82
508.59	512.00
508.95	521.60
509.31	531.44
509.67	541.57
510.03	551.82
510.39	562.37
510.75	573.23
511.12	584.14
511.48	595.45
511.84	606.86
512.20	618.35
512.56	630.21
512.92	642.30
513.28	654.72
513.64	667.22
514.00	679.87
514.37	692.69
514.73	705.69
515.09	718.67
515.45	732.00
515.81	745.54
516.17	759.42
516.53	773.50
516.89	787.66
517.25	801.79
517.61	816.15
517.97	830.66
518.33	845.02
518.69	859.79
519.05	874.67
519.41	889.78
519.77	905.31
520.13	920.69
520.49	936.13
520.85	951.40
521.21	967.15
521.57	983.45
521.93	999.22
522.29	1015.54
522.65	1031.75
523.01	1047.89
523.37	1063.95
523.73	1080.08
524.09	1096.05
524.45	1112.30
524.81	1128.76
525.17	1145.51
525.53	1162.25
525.89	1179.00
526.25	1195.80
526.61	1212.25
526.97	1228.92
527.33	1245.27
527.68	1261.77
528.04	1278.22
528.40	1294.80
528.76	1311.57
529.12	1328.09
529.48	1344.92
529.84	1360.83
530.20	1377.44
530.56	1394.35
530.91	1411.63
531.27	1428.37
531.63	1444.75
531.99	1461.28
532.35	1477.38
532.71	1493.21
533.07	1509.50
533.42	1525.34
533.78	1541.20
534.14	1557.23
534.50	1572.51
534.86	1588.38
535.21	1603.59
535.57	1619.33
535.93	1634.77
536.29	1649.53
536.65	1664.45
537.00	1678.96
537.36	1694.15
537.72	1708.62
538.08	1722.87
538.44	1736.53
538.79	1750.26
539.15	1763.86
539.51	1777.39
539.87	1791.63
540.22	1805.27
540.58	1818.76
540.94	1831.97
541.29	1844.87
541.65	1857.43
542.01	1870.38
542.37	1882.60
542.72	1894.93
543.08	1906.78
543.44	1919.01
543.79	1930.26
544.15	1941.19
544.51	1952.77
544.87	1963.64
545.22	1974.21
545.58	1984.38
545.94	1994.08
546.29	2003.84
546.65	2013.65
547.01	2022.96
547.36	2031.41
547.72	2039.81
548.07	2047.57
548.43	2055.68
548.79	2063.53
549.14	2071.06
549.50	2078.49
549.86	2086.02
550.21	2093.14
550.57	2100.02
550.92	2106.50
551.28	2113.31
551.64	2120.22
551.99	2126.70
552.35	2132.97
552.70	2139.18
553.06	2145.12
553.41	2151.43
553.77	2157.50
554.13	2163.54
554.48	2169.52
554.84	2175.02
555.19	2180.27
555.55	2185.53
555.90	2190.22
556.26	2195.07
556.61	2199.68
556.97	2203.92
557.32	2208.10
557.68	2212.20
558.03	2216.56
558.39	2220.28
558.74	2225.14
559.10	2229.13
559.45	2232.81
559.81	2237.01
560.16	2240.71
560.52	2243.85
560.87	2247.18
561.23	2249.89
561.58	2252.94
561.94	2255.62
562.29	2258.06
562.64	2260.76
563.00	2263.25
563.35	2266.47
563.71	2269.61
564.06	2272.94
564.42	2275.81
564.77	2278.30
565.12	2280.70
565.48	2282.68
565.83	2284.62
566.19	2285.80
566.54	2286.61
566.89	2287.76
567.25	2288.46
567.60	2289.89
567.96	2291.71
568.31	2292.55
568.66	2293.68
569.02	2294.18
569.37	2294.34
569.72	2295.28
570.08	2295.41
570.43	2295.66
570.78	2295.31
571.14	2293.89
571.49	2292.71
571.84	2292.45
572.20	2291.51
572.55	2290.54
572.90	2288.94
573.26	2287.68
573.61	2286.02
573.96	2284.43
574.31	2281.57
574.67	2278.64
575.02	2275.09
575.37	2271.97
575.72	2268.40
576.08	2265.11
576.43	2261.97
576.78	2258.53
577.13	2255.22
577.49	2252.28
577.84	2248.78
578.19	2245.03
578.54	2241.48
578.90	2237.24
579.25	2231.86
579.60	2226.87
579.95	2221.91
580.30	2216.99
580.66	2211.83
581.01	2206.92
581.36	2202.04
581.71	2197.93
582.06	2193.45
582.42	2189.13
582.77	2183.77
583.12	2179.23
583.47	2174.52
583.82	2169.45
584.17	2164.12
584.53	2158.79
584.88	2153.16
585.23	2147.38
585.58	2141.99
585.93	2136.63
586.28	2131.89
586.63	2126.80
586.98	2121.88
587.34	2117.14
587.69	2112.26
588.04	2107.02
588.39	2101.63
588.74	2095.16
589.09	2089.08
589.44	2082.35
589.79	2076.33
590.14	2070.85
590.49	2064.34
590.84	2058.06
591.19	2052.05
591.54	2045.68
591.89	2038.46
592.25	2031.78
592.60	2024.81
592.95	2017.20
593.30	2009.71
593.65	2002.19
594.00	1995.17
594.35	1987.99
594.70	1980.13
595.05	1973.18
595.40	1965.96
595.75	1958.31
596.10	1952.25
596.45	1945.48
596.80	1939.37
597.15	1932.83
597.50	1925.77
597.85	1919.40
598.19	1912.66
598.54	1905.62
598.89	1898.98
599.24	1893.15
599.59	1886.52
599.94	1880.31
600.29	1874.10
600.64	1867.72
600.99	1860.33
601.34	1853.68
601.69	1846.65
602.04	1839.75
602.39	1832.31
602.74	1825.40
603.08	1818.80
603.43	1812.00
603.78	1804.76
604.13	1797.59
604.48	1790.29
604.83	1783.40
605.18	1776.36
605.53	1768.45
605.87	1760.51
606.22	1753.34
606.57	1745.31
606.92	1737.97
607.27	1730.76
607.62	1723.91
607.96	1716.57
608.31	1710.07
608.66	1702.43
609.01	1694.85
609.36	1687.37
609.70	1679.41
610.05	1671.48
610.40	1663.82
610.75	1655.54
611.10	1647.91
611.44	1639.52
611.79	1631.55
612.14	1622.87
612.49	1613.80
612.83	1605.52
613.18	1597.42
613.53	1589.41
613.88	1580.86
614.22	1572.58
614.57	1563.95
614.92	1555.86
615.27	1548.22
615.61	1539.76
615.96	1531.64
616.31	1524.08
616.65	1516.64
617.00	1509.09
617.35	1501.50
617.70	1493.09
618.04	1484.62
618.39	1476.35
618.74	1468.72
619.08	1460.52
619.43	1452.98
619.78	1446.02
620.12	1438.80
620.47	1431.21
620.82	1423.10
621.16	1415.76
621.51	1408.16
621.85	1400.54
622.20	1392.05
622.55	1383.77
622.89	1376.05
623.24	1368.51
623.59	1361.08
623.93	1353.63
624.28	1346.40
624.62	1338.87
624.97	1331.71
625.32	1324.94
625.66	1318.01
626.01	1310.93
626.35	1303.44
626.70	1295.64
627.04	1287.98
627.39	1280.28
627.73	1272.95
628.08	1266.01
628.43	1258.68
628.77	1251.28
629.12	1243.72
629.46	1236.52
629.81	1229.12
630.15	1221.78
630.50	1214.38
630.84	1206.22
631.19	1198.26
631.53	1190.76
631.88	1183.21
632.22	1175.64
632.57	1168.35
632.91	1160.77
633.26	1153.23
633.60	1145.78
633.95	1138.67
634.29	1131.70
634.64	1125.02
634.98	1117.57
635.32	1110.34
635.67	1103.69
636.01	1097.04
636.36	1090.25
636.70	1083.72
637.05	1077.15
637.39	1070.74
637.73	1064.14
638.08	1058.17
638.42	1052.16
638.77	1045.66
639.11	1039.02
639.45	1032.60
639.80	1025.93
640.14	1019.59
640.49	1013.14
640.83	1006.81
641.17	1000.64
641.52	994.19
641.86	987.66
642.20	981.83
642.55	975.54
642.89	969.09
643.23	962.58
643.58	956.86
643.92	950.70
644.26	944.63
644.61	938.62
644.95	932.65
645.29	926.09
645.64	919.31
645.98	912.96
646.32	907.14
646.66	901.03
647.01	895.24
647.35	889.45
647.69	883.58
648.04	878.07
648.38	872.20
648.72	866.27
649.06	860.20
649.41	854.35
649.75	848.41
650.09	842.41
650.43	836.61
650.78	830.41
651.12	824.45
651.46	818.74
651.80	813.01
652.14	807.62
652.49	802.31
652.83	797.15
653.17	791.44
653.51	785.67
653.85	780.31
654.20	774.61
654.54	768.64
654.88	762.89
655.22	756.99
655.56	751.26
655.90	745.77
656.25	740.56
656.59	735.16
656.93	730.14
657.27	725.11
657.61	719.65
657.95	714.45
658.29	709.39
658.64	704.13
658.98	698.74
659.32	693.25
659.66	687.98
660.00	682.68
660.34	677.76
660.68	672.82
661.02	667.77
661.36	663.06
661.70	658.57
662.05	654.25
662.39	649.96
662.73	645.56
663.07	641.18
663.41	636.72
663.75	632.20
664.09	627.59
664.43	623.14
664.77	618.98
665.11	614.78
665.45	610.69
665.79	606.58
666.13	602.47
666.47	598.38
666.81	594.19
667.15	590.09
667.49	586.20
667.83	582.42
668.17	578.49
668.51	574.42
668.85	570.33
669.19	566.48
669.53	562.56
669.87	558.66
670.21	555.01
670.55	551.35
670.89	547.94
671.23	544.43
671.57	540.90
671.91	537.41
672.25	533.94
672.58	530.36
672.92	526.94
673.26	523.73
673.60	520.55
673.94	517.48
674.28	514.57
674.62	511.60
674.96	508.49
675.30	505.61
675.64	502.62
675.97	499.83
676.31	496.94
676.65	494.02
676.99	491.33
677.33	488.48
677.67	485.60
678.01	482.59
678.34	479.62
678.68	476.75
679.02	473.92
679.36	471.15
679.70	468.42
680.04	465.64
680.37	462.80
680.71	460.05
681.05	457.40
681.39	454.61
681.73	451.87
682.06	449.31
682.40	446.78
682.74	444.30
683.08	441.77
683.42	439.16
683.75	436.67
684.09	434.12
684.43	431.58
684.77	429.22
685.10	426.82
685.44	424.53
685.78	422.24
686.12	419.99
686.45	417.66
686.79	415.33
687.13	413.16
687.46	411.01
687.80	408.84
688.14	406.70
688.48	404.68
688.81	402.49
689.15	400.37
689.49	398.21
689.82	396.14
690.16	394.06
690.50	392.10
690.83	390.13
691.17	388.10
691.51	386.21
691.84	384.33
692.18	382.45
692.52	380.49
692.85	378.55
693.19	376.68
693.52	374.88
693.86	373.07
694.20	371.28
694.53	369.45
694.87	367.61
695.21	365.75
695.54	363.91
695.88	362.18
696.21	360.45
696.55	358.79
696.88	357.11
697.22	355.42
697.56	353.81
697.89	352.22
698.23	350.65
698.56	349.06
698.90	347.45
699.23	345.80
699.57	344.21
699.90	342.70
700.24	341.17
700.58	339.57
700.91	338.10
701.25	336.65
701.58	335.29
701.92	333.87
702.25	332.53
702.59	331.16
702.92	329.82
703.26	328.52
703.59	327.18
703.93	325.98
704.26	324.69
704.60	323.37
704.93	322.09
705.26	320.84
705.60	319.64
705.93	318.49
706.27	317.45
706.60	316.38
706.94	315.25
707.27	314.16
707.61	313.15
707.94	312.10
708.27	310.98
708.61	309.89
708.94	308.92
709.28	307.90
709.61	306.93
709.94	305.99
710.28	304.92
710.61	303.97
710.95	302.91
711.28	302.08
711.61	301.16
711.95	300.22
712.28	299.27
712.61	298.25
712.95	297.30
713.28	296.38
713.61	295.50
713.95	294.61
714.28	293.75
714.61	292.86
714.95	292.03
715.28	291.17
715.61	290.29
715.95	289.42
716.28	288.58
716.61	287.76
716.95	286.95
717.28	286.26
717.61	285.50
717.94	284.79
718.28	283.96
718.61	283.21
718.94	282.50
719.27	281.79
719.61	281.18
719.94	280.55
720.27	279.85
720.60	279.18
720.94	278.62
721.27	278.01
721.60	277.45
721.93	276.86
722.27	276.32
722.60	275.77
722.93	275.17
723.26	274.63
723.59	274.07
723.93	273.55
724.26	273.01
724.59	272.40
724.92	271.86
725.25	271.35
725.59	270.87
725.92	270.35
726.25	269.88
726.58	269.39
726.91	268.88
727.24	268.44
727.57	268.01
727.91	267.49
728.24	267.04
728.57	266.55
728.90	266.09
729.23	265.62
729.56	265.21
729.89	264.79
730.22	264.31
730.55	263.85
730.89	263.39
731.22	262.94
731.55	262.56
731.88	262.12
732.21	261.70
732.54	261.25
732.87	260.86
733.20	260.47
733.53	260.08
733.86	259.72
734.19	259.31
734.52	258.90
734.85	258.56
735.18	258.14
735.51	257.76
735.84	257.40
736.17	257.07
736.50	256.66
736.83	256.42
737.16	256.10
737.49	255.76
737.82	255.42
738.15	255.06
738.48	254.71
738.81	254.41
739.14	254.07
739.47	253.76
739.80	253.43
740.13	253.10
740.46	252.76
740.79	252.42
741.12	252.09
741.45	251.80
741.78	251.42
742.11	251.12
742.44	250.77
742.77	250.49
743.10	250.17
743.43	249.83
743.75	249.43
744.08	249.26
744.41	248.98
744.74	248.69
745.07	248.40
745.40	248.16
745.73	247.92
746.06	247.66
746.39	247.39
746.71	247.10
747.04	246.83
747.37	246.55
747.70	246.32
748.03	246.08
748.36	245.84
748.68	245.62
749.01	245.35
749.34	245.19
749.67	244.94
750.00	244.73
750.33	244.60
750.65	244.38
750.98	244.02
751.31	243.82
751.64	243.61
751.97	243.47
752.29	243.21
752.62	242.95
752.95	242.71
753.28	242.46
753.60	242.28
753.93	242.07
754.26	241.82
754.59	241.58
754.91	241.36
755.24	241.17
755.57	240.95
755.90	240.78
756.22	240.55
756.55	240.34
756.88	240.15
757.20	239.91
757.53	239.74
757.86	239.60
758.19	239.42
758.51	239.24
758.84	239.03
759.17	238.87
759.49	238.70
759.82	238.61
760.15	238.48
760.47	238.34
760.80	238.23
761.13	238.14
761.45	237.98
761.78	237.87
762.11	237.71
762.43	237.61
762.76	237.47
763.08	237.37
763.41	237.22
763.74	237.08
764.06	236.93
764.39	236.82
764.71	236.69
765.04	236.56
765.37	236.46
765.69	236.33
766.02	236.21
766.34	236.10
766.67	235.96
767.00	235.85
767.32	235.76
767.65	235.71
767.97	235.63
768.30	235.52
768.62	235.39
768.95	235.31
769.27	235.17
769.60	235.09
769.92	234.97
770.25	234.87
770.57	234.74
770.90	234.65
771.22	234.51
771.55	234.39
771.87	234.32
772.20	234.22
772.52	234.20
772.85	234.26
773.17	234.16
773.50	234.06
773.82	233.99
774.15	233.87
774.47	233.68
774.80	233.58
775.12	233.51
775.45	233.43
775.77	233.31
776.09	233.26
776.42	233.17
776.74	233.10
777.07	233.02
777.39	232.95
777.72	232.88
778.04	232.82
778.36	232.76
778.69	232.69
779.01	232.61
779.33	232.46
779.66	232.22
779.98	232.16
780.31	232.11
780.63	232.06
780.95	232.02
781.28	231.99
781.60	231.93
781.92	231.84
782.25	231.76
782.57	231.72
782.89	231.60
783.22	231.49
783.54	231.43
783.86	231.41
784.19	231.34
784.51	231.29
784.83	231.21
785.16	231.14
785.48	231.05
785.80	231.03
786.12	230.95
786.45	230.94
786.77	230.86
787.09	230.83
