SpectraSuite Data File
++++++++++++++++++++++++++++++++++++
Date: Fri Feb 01 15:56:12 EST 2013
User: group
Dark Spectrum Present: No
Reference Spectrum Present: No
Number of Sampled Component Spectra: 1
Spectrometers: USB2E7196
Integration Time (usec): 35000 (USB2E7196)
Spectra Averaged: 100 (USB2E7196)
Boxcar Smoothing: 10 (USB2E7196)
Correct for Electrical Dark: No (USB2E7196)
Strobe/Lamp Enabled: No (USB2E7196)
Correct for Detector Non-linearity: No (USB2E7196)
Correct for Stray Light: No (USB2E7196)
Number of Pixels in Processed Spectrum: 2048
>>>>>Begin Processed Spectral Data<<<<<
339.09	0.00
339.48	214.82
339.86	216.41
340.24	217.29
340.63	219.00
341.01	221.47
341.39	221.57
341.78	222.50
342.16	224.28
342.54	224.36
342.93	212.93
343.31	223.67
343.69	224.23
344.07	224.66
344.46	225.07
344.84	225.41
345.22	225.64
345.60	225.87
345.99	226.07
346.37	226.17
346.75	226.31
347.13	226.37
347.52	226.44
347.90	226.48
348.28	226.49
348.66	226.52
349.05	226.53
349.43	226.56
349.81	226.59
350.19	226.67
350.57	226.75
350.96	226.80
351.34	226.89
351.72	226.94
352.10	227.04
352.48	227.11
352.87	227.17
353.25	227.25
353.63	227.34
354.01	227.39
354.39	227.47
354.77	227.51
355.15	227.61
355.54	227.64
355.92	227.68
356.30	227.76
356.68	227.91
357.06	227.99
357.44	228.02
357.82	228.08
358.20	228.13
358.58	228.17
358.97	228.25
359.35	228.36
359.73	228.42
360.11	228.52
360.49	228.63
360.87	228.73
361.25	228.77
361.63	228.83
362.01	228.90
362.39	228.94
362.77	229.00
363.15	229.02
363.53	229.04
363.91	229.09
364.29	229.08
364.67	229.02
365.05	229.03
365.43	229.07
365.81	229.10
366.19	229.17
366.57	229.24
366.95	229.25
367.33	229.21
367.71	229.24
368.09	229.19
368.47	229.15
368.85	229.12
369.23	229.12
369.61	229.10
369.99	229.10
370.37	229.06
370.75	229.07
371.13	229.05
371.51	229.07
371.89	229.06
372.27	229.06
372.65	229.04
373.03	229.03
373.41	229.00
373.78	228.96
374.16	228.86
374.54	228.75
374.92	228.71
375.30	228.67
375.68	228.62
376.06	228.59
376.44	228.56
376.82	228.48
377.19	228.44
377.57	228.36
377.95	228.28
378.33	228.24
378.71	228.11
379.09	228.07
379.47	228.00
379.84	227.89
380.22	227.80
380.60	227.71
380.98	227.61
381.36	227.52
381.73	227.43
382.11	227.37
382.49	227.31
382.87	227.23
383.25	227.12
383.62	227.14
384.00	227.06
384.38	226.99
384.76	226.98
385.13	226.95
385.51	226.90
385.89	226.86
386.27	226.79
386.64	226.76
387.02	226.71
387.40	226.63
387.78	226.59
388.15	226.56
388.53	226.50
388.91	226.45
389.29	226.45
389.66	226.43
390.04	226.38
390.42	226.35
390.79	226.33
391.17	226.32
391.55	226.16
391.92	226.12
392.30	226.09
392.68	226.07
393.05	226.05
393.43	226.03
393.81	226.00
394.18	226.00
394.56	226.00
394.94	226.00
395.31	226.03
395.69	226.09
396.06	226.10
396.44	226.11
396.82	226.15
397.19	226.22
397.57	226.23
397.95	226.31
398.32	226.35
398.70	226.39
399.07	226.51
399.45	226.60
399.82	226.68
400.20	226.75
400.58	226.82
400.95	226.83
401.33	226.92
401.70	227.08
402.08	227.20
402.45	227.31
402.83	227.42
403.20	227.51
403.58	227.64
403.95	227.78
404.33	227.93
404.71	228.06
405.08	228.25
405.46	228.39
405.83	228.53
406.21	228.67
406.58	228.83
406.96	228.99
407.33	229.13
407.70	229.34
408.08	229.61
408.45	229.81
408.83	230.08
409.20	230.33
409.58	230.53
409.95	230.79
410.33	231.05
410.70	231.31
411.08	231.65
411.45	231.92
411.82	232.25
412.20	232.62
412.57	233.04
412.95	233.33
413.32	233.76
413.69	234.16
414.07	234.62
414.44	235.07
414.82	235.55
415.19	236.14
415.56	236.69
415.94	237.25
416.31	237.91
416.68	238.53
417.06	239.22
417.43	239.88
417.81	240.64
418.18	241.38
418.55	242.19
418.93	243.02
419.30	243.91
419.67	244.83
420.04	245.77
420.42	246.75
420.79	247.93
421.16	249.10
421.54	250.28
421.91	251.48
422.28	252.76
422.66	254.09
423.03	255.38
423.40	256.69
423.77	258.10
424.15	259.50
424.52	261.00
424.89	262.63
425.26	264.19
425.64	265.64
426.01	267.24
426.38	268.92
426.75	270.63
427.13	272.34
427.50	274.14
427.87	276.00
428.24	277.87
428.61	279.62
428.99	281.54
429.36	283.68
429.73	285.74
430.10	287.76
430.47	289.79
430.85	291.91
431.22	294.19
431.59	296.55
431.96	298.82
432.33	301.33
432.70	303.68
433.08	306.52
433.45	309.15
433.82	311.76
434.19	314.65
434.56	317.41
434.93	320.12
435.30	322.74
435.68	325.64
436.05	328.47
436.42	331.24
436.79	333.76
437.16	336.43
437.53	339.30
437.90	342.08
438.27	344.85
438.64	347.69
439.01	350.28
439.38	352.52
439.75	354.70
440.13	357.14
440.50	359.42
440.87	361.25
441.24	363.19
441.61	365.39
441.98	366.88
442.35	368.70
442.72	370.56
443.09	372.33
443.46	373.33
443.83	373.90
444.20	374.40
444.57	375.18
444.94	375.47
445.31	375.75
445.68	376.13
446.05	376.17
446.42	375.75
446.79	375.29
447.16	374.82
447.53	374.46
447.90	373.30
448.27	372.18
448.64	370.58
449.01	369.45
449.37	367.44
449.74	365.53
450.11	363.26
450.48	360.77
450.85	358.21
451.22	356.05
451.59	354.04
451.96	352.11
452.33	349.58
452.70	347.20
453.07	344.38
453.43	341.47
453.80	338.70
454.17	336.02
454.54	333.46
454.91	330.71
455.28	328.04
455.65	325.54
456.02	323.11
456.38	320.96
456.75	318.30
457.12	316.03
457.49	313.83
457.86	311.70
458.23	309.84
458.59	307.85
458.96	305.76
459.33	303.89
459.70	302.01
460.07	300.46
460.43	298.77
460.80	297.15
461.17	295.71
461.54	294.24
461.91	292.87
462.27	291.45
462.64	290.25
463.01	288.90
463.38	287.61
463.74	286.22
464.11	285.08
464.48	284.04
464.85	282.98
465.21	282.10
465.58	281.16
465.95	280.04
466.32	279.14
466.68	278.25
467.05	277.36
467.42	276.49
467.78	275.59
468.15	274.75
468.52	274.11
468.88	273.27
469.25	272.54
469.62	271.89
469.98	271.19
470.35	270.57
470.72	269.96
471.08	269.32
471.45	268.78
471.82	268.26
472.18	267.65
472.55	267.21
472.92	266.68
473.28	266.21
473.65	265.79
474.02	265.36
474.38	265.02
474.75	264.70
475.11	264.35
475.48	264.10
475.85	263.90
476.21	263.62
476.58	263.43
476.94	263.25
477.31	263.09
477.67	262.99
478.04	262.91
478.41	262.90
478.77	262.92
479.14	262.91
479.50	262.90
479.87	263.03
480.23	263.09
480.60	263.16
480.96	263.30
481.33	263.50
481.69	263.71
482.06	263.92
482.42	264.12
482.79	264.38
483.15	264.71
483.52	265.06
483.88	265.47
484.25	265.87
484.61	266.28
484.98	266.76
485.34	267.30
485.71	267.85
486.07	268.42
486.44	269.03
486.80	269.68
487.17	270.42
487.53	271.21
487.90	272.08
488.26	273.04
488.62	274.02
488.99	275.02
489.35	276.05
489.72	277.17
490.08	278.41
490.44	279.67
490.81	280.99
491.17	282.31
491.54	283.77
491.90	285.30
492.26	286.95
492.63	288.68
492.99	290.45
493.36	292.33
493.72	294.41
494.08	296.50
494.45	298.75
494.81	301.13
495.17	303.56
495.54	306.12
495.90	308.78
496.26	311.59
496.63	314.54
496.99	317.63
497.35	320.86
497.72	324.21
498.08	327.68
498.44	331.32
498.80	335.27
499.17	339.30
499.53	343.44
499.89	347.80
500.26	352.26
500.62	356.97
500.98	361.93
501.34	366.99
501.71	372.33
502.07	377.79
502.43	383.37
502.79	389.19
503.16	395.27
503.52	401.56
503.88	407.94
504.24	414.54
504.60	421.45
504.97	428.60
505.33	435.96
505.69	443.67
506.05	451.44
506.41	459.35
506.78	467.50
507.14	476.04
507.50	484.77
507.86	493.83
508.22	503.06
508.59	512.27
508.95	521.88
509.31	531.72
509.67	541.91
510.03	552.28
510.39	562.84
510.75	573.61
511.12	584.56
511.48	595.93
511.84	607.39
512.20	619.00
512.56	630.92
512.92	643.06
513.28	655.44
513.64	667.96
514.00	680.66
514.37	693.68
514.73	706.69
515.09	719.69
515.45	732.94
515.81	746.46
516.17	760.46
516.53	774.51
516.89	788.52
517.25	802.59
517.61	816.95
517.97	831.39
518.33	845.82
518.69	860.62
519.05	875.47
519.41	890.61
519.77	906.11
520.13	921.62
520.49	936.98
520.85	952.37
521.21	968.09
521.57	984.31
521.93	999.98
522.29	1016.32
522.65	1032.50
523.01	1048.61
523.37	1064.63
523.73	1080.83
524.09	1096.86
524.45	1113.31
524.81	1129.94
525.17	1146.73
525.53	1163.65
525.89	1180.49
526.25	1197.20
526.61	1213.65
526.97	1230.38
527.33	1246.74
527.68	1263.25
528.04	1279.90
528.40	1296.41
528.76	1313.45
529.12	1329.93
529.48	1346.85
529.84	1362.81
530.20	1379.50
530.56	1396.66
530.91	1414.12
531.27	1430.70
531.63	1447.22
531.99	1463.72
532.35	1479.65
532.71	1495.42
533.07	1511.60
533.42	1527.49
533.78	1543.49
534.14	1559.72
534.50	1575.14
534.86	1591.07
535.21	1606.23
535.57	1622.03
535.93	1637.56
536.29	1652.26
536.65	1667.29
537.00	1681.90
537.36	1697.12
537.72	1711.68
538.08	1726.02
538.44	1739.67
538.79	1753.56
539.15	1767.20
539.51	1780.95
539.87	1795.32
540.22	1809.19
540.58	1823.01
540.94	1836.33
541.29	1849.32
541.65	1861.92
542.01	1875.09
542.37	1887.30
542.72	1899.74
543.08	1911.45
543.44	1923.84
543.79	1934.96
544.15	1945.91
544.51	1957.42
544.87	1968.44
545.22	1979.09
545.58	1989.25
545.94	1999.11
546.29	2008.97
546.65	2018.77
547.01	2028.04
547.36	2036.69
547.72	2045.04
548.07	2052.71
548.43	2060.87
548.79	2068.82
549.14	2076.26
549.50	2083.48
549.86	2091.11
550.21	2098.26
550.57	2105.44
550.92	2111.83
551.28	2118.89
551.64	2126.07
551.99	2132.78
552.35	2138.86
552.70	2145.11
553.06	2151.02
553.41	2157.29
553.77	2163.34
554.13	2169.54
554.48	2175.66
554.84	2181.06
555.19	2186.43
555.55	2191.76
555.90	2196.14
556.26	2201.01
556.61	2206.01
556.97	2210.24
557.32	2214.45
557.68	2218.72
558.03	2222.98
558.39	2226.85
558.74	2231.53
559.10	2235.28
559.45	2238.94
559.81	2243.32
560.16	2247.11
560.52	2250.38
560.87	2253.76
561.23	2256.41
561.58	2259.26
561.94	2261.73
562.29	2264.16
562.64	2266.71
563.00	2269.25
563.35	2272.93
563.71	2275.99
564.06	2279.09
564.42	2281.97
564.77	2284.39
565.12	2286.59
565.48	2288.52
565.83	2290.30
566.19	2291.54
566.54	2292.66
566.89	2293.82
567.25	2294.43
567.60	2295.68
567.96	2297.40
568.31	2298.25
568.66	2299.31
569.02	2299.98
569.37	2300.26
569.72	2301.27
570.08	2301.48
570.43	2301.53
570.78	2300.89
571.14	2299.41
571.49	2298.08
571.84	2297.88
572.20	2296.84
572.55	2295.83
572.90	2294.32
573.26	2292.95
573.61	2291.28
573.96	2289.33
574.31	2286.38
574.67	2283.47
575.02	2279.86
575.37	2276.45
575.72	2272.68
576.08	2269.41
576.43	2266.05
576.78	2262.38
577.13	2259.12
577.49	2255.95
577.84	2252.40
578.19	2248.71
578.54	2245.04
578.90	2240.73
579.25	2235.02
579.60	2229.93
579.95	2224.96
580.30	2219.85
580.66	2214.75
581.01	2209.86
581.36	2205.03
581.71	2200.72
582.06	2196.18
582.42	2191.73
582.77	2186.47
583.12	2181.89
583.47	2177.20
583.82	2172.13
584.17	2166.85
584.53	2161.23
584.88	2155.58
585.23	2149.87
585.58	2144.34
585.93	2138.84
586.28	2134.19
586.63	2129.18
586.98	2124.13
587.34	2119.43
587.69	2114.55
588.04	2109.29
588.39	2103.60
588.74	2097.09
589.09	2090.94
589.44	2084.14
589.79	2078.19
590.14	2072.78
590.49	2066.17
590.84	2059.66
591.19	2053.52
591.54	2047.14
591.89	2039.83
592.25	2033.12
592.60	2025.75
592.95	2018.17
593.30	2010.79
593.65	2003.14
594.00	1996.01
594.35	1988.86
594.70	1980.69
595.05	1973.43
595.40	1966.17
595.75	1958.69
596.10	1952.38
596.45	1945.64
596.80	1939.44
597.15	1932.86
597.50	1925.69
597.85	1919.35
598.19	1912.73
598.54	1905.77
598.89	1899.21
599.24	1893.36
599.59	1886.63
599.94	1880.67
600.29	1874.35
600.64	1867.90
600.99	1860.51
601.34	1853.81
601.69	1846.92
602.04	1840.14
602.39	1832.80
602.74	1825.88
603.08	1819.22
603.43	1812.75
603.78	1805.53
604.13	1798.42
604.48	1791.03
604.83	1784.05
605.18	1777.11
605.53	1769.23
605.87	1761.18
606.22	1753.93
606.57	1745.89
606.92	1738.56
607.27	1731.29
607.62	1724.35
607.96	1717.01
608.31	1710.33
608.66	1702.74
609.01	1695.22
609.36	1687.78
609.70	1679.84
610.05	1671.87
610.40	1664.14
610.75	1655.61
611.10	1647.77
611.44	1639.30
611.79	1631.37
612.14	1622.74
612.49	1613.42
612.83	1605.12
613.18	1597.10
613.53	1588.95
613.88	1580.42
614.22	1572.10
614.57	1563.47
614.92	1555.39
615.27	1547.92
615.61	1539.67
615.96	1531.56
616.31	1523.83
616.65	1516.37
617.00	1508.79
617.35	1501.18
617.70	1492.95
618.04	1484.51
618.39	1476.34
618.74	1468.77
619.08	1460.47
619.43	1452.83
619.78	1446.04
620.12	1438.67
620.47	1431.04
620.82	1422.83
621.16	1415.55
621.51	1407.98
621.85	1400.43
622.20	1391.95
622.55	1383.57
622.89	1375.65
623.24	1368.07
623.59	1360.67
623.93	1353.10
624.28	1345.90
624.62	1338.32
624.97	1330.99
625.32	1324.26
625.66	1317.28
626.01	1310.03
626.35	1302.51
626.70	1294.85
627.04	1287.06
627.39	1279.34
627.73	1272.04
628.08	1265.19
628.43	1257.72
628.77	1250.41
629.12	1242.77
629.46	1235.62
629.81	1228.17
630.15	1220.95
630.50	1213.52
630.84	1205.31
631.19	1197.43
631.53	1189.85
631.88	1182.28
632.22	1174.73
632.57	1167.33
632.91	1159.81
633.26	1152.38
633.60	1145.06
633.95	1137.98
634.29	1130.95
634.64	1124.20
634.98	1116.79
635.32	1109.58
635.67	1103.09
636.01	1096.42
636.36	1089.63
636.70	1083.05
637.05	1076.47
637.39	1070.04
637.73	1063.48
638.08	1057.57
638.42	1051.60
638.77	1045.16
639.11	1038.46
639.45	1032.04
639.80	1025.37
640.14	1018.91
640.49	1012.35
640.83	1006.03
641.17	999.75
641.52	993.42
641.86	987.06
642.20	981.14
642.55	974.83
642.89	968.35
643.23	961.77
643.58	955.96
643.92	949.81
644.26	943.71
644.61	937.71
644.95	931.82
645.29	925.30
645.64	918.51
645.98	912.27
646.32	906.49
646.66	900.50
647.01	894.72
647.35	889.00
647.69	883.22
648.04	877.69
648.38	871.94
648.72	865.90
649.06	859.81
649.41	853.95
649.75	847.98
650.09	842.02
650.43	836.32
650.78	830.23
651.12	824.28
651.46	818.62
651.80	812.90
652.14	807.47
652.49	802.19
652.83	797.09
653.17	791.27
653.51	785.55
653.85	780.20
654.20	774.63
654.54	768.71
654.88	762.98
655.22	757.12
655.56	751.38
655.90	746.04
656.25	740.81
656.59	735.49
656.93	730.41
657.27	725.31
657.61	719.85
657.95	714.76
658.29	709.71
658.64	704.46
658.98	699.12
659.32	693.65
659.66	688.34
660.00	682.96
660.34	678.08
660.68	673.23
661.02	668.19
661.36	663.45
661.70	658.93
662.05	654.59
662.39	650.21
662.73	645.75
663.07	641.37
663.41	636.89
663.75	632.41
664.09	627.88
664.43	623.44
664.77	619.28
665.11	615.02
665.45	610.89
665.79	606.76
666.13	602.62
666.47	598.52
666.81	594.30
667.15	590.21
667.49	586.40
667.83	582.57
668.17	578.68
668.51	574.54
668.85	570.52
669.19	566.66
669.53	562.83
669.87	558.97
670.21	555.23
670.55	551.58
670.89	548.18
671.23	544.76
671.57	541.24
671.91	537.74
672.25	534.24
672.58	530.68
672.92	527.31
673.26	524.14
673.60	520.99
673.94	517.94
674.28	515.00
674.62	511.98
674.96	508.82
675.30	505.81
675.64	502.92
675.97	500.14
676.31	497.25
676.65	494.34
676.99	491.61
677.33	488.73
677.67	485.96
678.01	482.85
678.34	479.83
678.68	476.95
679.02	474.06
679.36	471.33
679.70	468.68
680.04	465.92
680.37	463.05
680.71	460.25
681.05	457.62
681.39	454.95
681.73	452.30
682.06	449.78
682.40	447.27
682.74	444.73
683.08	442.21
683.42	439.68
683.75	437.17
684.09	434.63
684.43	432.17
684.77	429.73
685.10	427.44
685.44	425.11
685.78	422.85
686.12	420.64
686.45	418.31
686.79	415.97
687.13	413.74
687.46	411.58
687.80	409.46
688.14	407.28
688.48	405.21
688.81	402.97
689.15	400.80
689.49	398.64
689.82	396.60
690.16	394.50
690.50	392.53
690.83	390.63
691.17	388.66
691.51	386.77
691.84	384.87
692.18	382.93
692.52	380.99
692.85	379.09
693.19	377.16
693.52	375.31
693.86	373.52
694.20	371.75
694.53	369.95
694.87	368.08
695.21	366.31
695.54	364.48
695.88	362.76
696.21	361.07
696.55	359.40
696.88	357.71
697.22	356.08
697.56	354.46
697.89	352.81
698.23	351.21
698.56	349.58
698.90	348.02
699.23	346.37
699.57	344.83
699.90	343.29
700.24	341.84
700.58	340.35
700.91	338.85
701.25	337.42
701.58	336.00
701.92	334.69
702.25	333.27
702.59	331.92
702.92	330.58
703.26	329.28
703.59	328.00
703.93	326.80
704.26	325.51
704.60	324.21
704.93	322.93
705.26	321.69
705.60	320.55
705.93	319.41
706.27	318.40
706.60	317.33
706.94	316.25
707.27	315.08
707.61	313.99
707.94	312.98
708.27	311.90
708.61	310.89
708.94	309.84
709.28	308.87
709.61	307.92
709.94	306.96
710.28	305.95
710.61	304.98
710.95	303.90
711.28	303.04
711.61	302.02
711.95	301.08
712.28	300.08
712.61	299.09
712.95	298.12
713.28	297.22
713.61	296.31
713.95	295.40
714.28	294.54
714.61	293.70
714.95	292.86
715.28	291.95
715.61	291.04
715.95	290.21
716.28	289.36
716.61	288.51
716.95	287.70
717.28	286.94
717.61	286.16
717.94	285.44
718.28	284.59
718.61	283.89
718.94	283.23
719.27	282.61
719.61	281.93
719.94	281.28
720.27	280.56
720.60	279.92
720.94	279.29
721.27	278.71
721.60	278.10
721.93	277.50
722.27	276.97
722.60	276.41
722.93	275.83
723.26	275.28
723.59	274.71
723.93	274.17
724.26	273.59
724.59	273.01
724.92	272.47
725.25	271.99
725.59	271.48
725.92	270.93
726.25	270.42
726.58	269.95
726.91	269.45
727.24	268.97
727.57	268.50
727.91	267.99
728.24	267.52
728.57	267.03
728.90	266.56
729.23	266.08
729.56	265.67
729.89	265.20
730.22	264.72
730.55	264.25
730.89	263.80
731.22	263.39
731.55	262.95
731.88	262.51
732.21	262.08
732.54	261.64
732.87	261.23
733.20	260.82
733.53	260.44
733.86	260.09
734.19	259.69
734.52	259.28
734.85	258.97
735.18	258.58
735.51	258.20
735.84	257.84
736.17	257.46
736.50	257.03
736.83	256.78
737.16	256.45
737.49	256.17
737.82	255.82
738.15	255.50
738.48	255.17
738.81	254.85
739.14	254.50
739.47	254.20
739.80	253.91
740.13	253.62
740.46	253.26
740.79	252.92
741.12	252.60
741.45	252.32
741.78	251.97
742.11	251.66
742.44	251.35
742.77	251.06
743.10	250.77
743.43	250.48
743.75	250.10
744.08	249.90
744.41	249.60
744.74	249.32
745.07	249.03
745.40	248.77
745.73	248.57
746.06	248.33
746.39	248.06
746.71	247.78
747.04	247.51
747.37	247.26
747.70	247.02
748.03	246.78
748.36	246.55
748.68	246.30
749.01	246.06
749.34	245.84
749.67	245.61
750.00	245.37
750.33	245.23
750.65	245.01
750.98	244.68
751.31	244.48
751.64	244.25
751.97	244.13
752.29	243.94
752.62	243.67
752.95	243.43
753.28	243.22
753.60	242.98
753.93	242.83
754.26	242.64
754.59	242.39
754.91	242.19
755.24	242.01
755.57	241.83
755.90	241.64
756.22	241.45
756.55	241.28
756.88	241.09
757.20	240.86
757.53	240.69
757.86	240.54
758.19	240.36
758.51	240.21
758.84	239.97
759.17	239.75
759.49	239.60
759.82	239.49
760.15	239.38
760.47	239.27
760.80	239.06
761.13	238.94
761.45	238.83
761.78	238.68
762.11	238.52
762.43	238.37
762.76	238.20
763.08	238.07
763.41	237.89
763.74	237.78
764.06	237.63
764.39	237.50
764.71	237.33
765.04	237.19
765.37	237.06
765.69	236.91
766.02	236.78
766.34	236.63
766.67	236.48
767.00	236.37
767.32	236.27
767.65	236.25
767.97	236.14
768.30	236.03
768.62	235.89
768.95	235.76
769.27	235.64
769.60	235.56
769.92	235.44
770.25	235.34
770.57	235.21
770.90	235.11
771.22	234.99
771.55	234.90
771.87	234.81
772.20	234.72
772.52	234.77
772.85	234.81
773.17	234.71
773.50	234.62
773.82	234.49
774.15	234.36
774.47	234.20
774.80	234.09
775.12	234.00
775.45	233.96
775.77	233.88
776.09	233.78
776.42	233.74
776.74	233.67
777.07	233.60
777.39	233.54
777.72	233.47
778.04	233.42
778.36	233.36
778.69	233.28
779.01	233.23
779.33	233.03
779.66	232.86
779.98	232.81
780.31	232.76
780.63	232.73
780.95	232.66
781.28	232.61
781.60	232.51
781.92	232.47
782.25	232.36
782.57	232.32
782.89	232.29
783.22	232.20
783.54	232.14
783.86	232.09
784.19	232.03
784.51	231.99
784.83	231.90
785.16	231.83
785.48	231.78
785.80	231.73
786.12	231.71
786.45	231.69
786.77	231.59
787.09	231.54
