SpectraSuite Data File
++++++++++++++++++++++++++++++++++++
Date: Fri Feb 01 16:59:24 EST 2013
User: group
Dark Spectrum Present: No
Reference Spectrum Present: No
Number of Sampled Component Spectra: 1
Spectrometers: USB2E7196
Integration Time (usec): 35000 (USB2E7196)
Spectra Averaged: 100 (USB2E7196)
Boxcar Smoothing: 10 (USB2E7196)
Correct for Electrical Dark: No (USB2E7196)
Strobe/Lamp Enabled: No (USB2E7196)
Correct for Detector Non-linearity: No (USB2E7196)
Correct for Stray Light: No (USB2E7196)
Number of Pixels in Processed Spectrum: 2048
>>>>>Begin Processed Spectral Data<<<<<
339.09	0.00
339.48	213.30
339.86	214.35
340.24	216.32
340.63	217.65
341.01	220.43
341.39	220.59
341.78	221.51
342.16	223.25
342.54	223.50
342.93	211.77
343.31	222.46
343.69	223.00
344.07	223.50
344.46	223.95
344.84	224.35
345.22	224.61
345.60	224.85
345.99	225.04
346.37	225.16
346.75	225.27
347.13	225.32
347.52	225.34
347.90	225.42
348.28	225.46
348.66	225.52
349.05	225.51
349.43	225.55
349.81	225.61
350.19	225.65
350.57	225.69
350.96	225.79
351.34	225.87
351.72	225.97
352.10	226.05
352.48	226.08
352.87	226.11
353.25	226.17
353.63	226.22
354.01	226.30
354.39	226.35
354.77	226.41
355.15	226.54
355.54	226.58
355.92	226.58
356.30	226.66
356.68	226.76
357.06	226.85
357.44	226.91
357.82	226.95
358.20	227.02
358.58	227.06
358.97	227.12
359.35	227.19
359.73	227.23
360.11	227.30
360.49	227.35
360.87	227.39
361.25	227.44
361.63	227.53
362.01	227.57
362.39	227.64
362.77	227.67
363.15	227.63
363.53	227.70
363.91	227.76
364.29	227.79
364.67	227.71
365.05	227.68
365.43	227.69
365.81	227.72
366.19	227.78
366.57	227.82
366.95	227.78
367.33	227.76
367.71	227.75
368.09	227.71
368.47	227.71
368.85	227.70
369.23	227.68
369.61	227.61
369.99	227.57
370.37	227.54
370.75	227.55
371.13	227.52
371.51	227.45
371.89	227.41
372.27	227.39
372.65	227.36
373.03	227.34
373.41	227.28
373.78	227.20
374.16	227.08
374.54	226.99
374.92	226.95
375.30	226.91
375.68	226.86
376.06	226.85
376.44	226.77
376.82	226.69
377.19	226.61
377.57	226.55
377.95	226.48
378.33	226.36
378.71	226.24
379.09	226.18
379.47	226.12
379.84	226.05
380.22	226.00
380.60	225.93
380.98	225.83
381.36	225.78
381.73	225.73
382.11	225.70
382.49	225.65
382.87	225.56
383.25	225.50
383.62	225.55
384.00	225.47
384.38	225.40
384.76	225.36
385.13	225.36
385.51	225.33
385.89	225.28
386.27	225.26
386.64	225.23
387.02	225.21
387.40	225.18
387.78	225.15
388.15	225.10
388.53	225.05
388.91	225.08
389.29	225.06
389.66	225.02
390.04	224.97
390.42	225.00
390.79	225.01
391.17	224.98
391.55	224.83
391.92	224.79
392.30	224.81
392.68	224.84
393.05	224.83
393.43	224.79
393.81	224.81
394.18	224.81
394.56	224.83
394.94	224.85
395.31	224.84
395.69	224.86
396.06	224.90
396.44	224.94
396.82	224.92
397.19	225.01
397.57	225.05
397.95	225.09
398.32	225.07
398.70	225.11
399.07	225.23
399.45	225.27
399.82	225.34
400.20	225.41
400.58	225.46
400.95	225.49
401.33	225.60
401.70	225.71
402.08	225.81
402.45	225.89
402.83	225.99
403.20	226.08
403.58	226.17
403.95	226.28
404.33	226.40
404.71	226.49
405.08	226.61
405.46	226.71
405.83	226.87
406.21	227.01
406.58	227.16
406.96	227.26
407.33	227.46
407.70	227.64
408.08	227.90
408.45	228.12
408.83	228.34
409.20	228.54
409.58	228.71
409.95	228.96
410.33	229.22
410.70	229.47
411.08	229.78
411.45	230.05
411.82	230.36
412.20	230.69
412.57	231.16
412.95	231.46
413.32	231.87
413.69	232.25
414.07	232.69
414.44	233.15
414.82	233.61
415.19	234.14
415.56	234.68
415.94	235.21
416.31	235.84
416.68	236.45
417.06	237.13
417.43	237.84
417.81	238.57
418.18	239.35
418.55	240.14
418.93	240.99
419.30	241.92
419.67	242.84
420.04	243.79
420.42	244.76
420.79	245.93
421.16	247.11
421.54	248.34
421.91	249.56
422.28	250.82
422.66	252.18
423.03	253.49
423.40	254.86
423.77	256.26
424.15	257.66
424.52	259.14
424.89	260.80
425.26	262.33
425.64	263.77
426.01	265.38
426.38	267.03
426.75	268.76
427.13	270.48
427.50	272.30
427.87	274.23
428.24	276.10
428.61	277.84
428.99	279.79
429.36	281.85
429.73	283.91
430.10	285.91
430.47	287.96
430.85	290.06
431.22	292.26
431.59	294.61
431.96	296.85
432.33	299.34
432.70	301.71
433.08	304.51
433.45	307.17
433.82	309.74
434.19	312.61
434.56	315.37
434.93	317.97
435.30	320.53
435.68	323.37
436.05	326.12
436.42	328.96
436.79	331.39
437.16	334.05
437.53	336.83
437.90	339.60
438.27	342.30
438.64	345.10
439.01	347.68
439.38	349.92
439.75	352.07
440.13	354.50
440.50	356.77
440.87	358.57
441.24	360.48
441.61	362.61
441.98	364.13
442.35	365.88
442.72	367.79
443.09	369.60
443.46	370.55
443.83	371.16
444.20	371.62
444.57	372.49
444.94	372.79
445.31	373.11
445.68	373.47
446.05	373.55
446.42	373.20
446.79	372.75
447.16	372.34
447.53	372.03
447.90	370.89
448.27	369.75
448.64	368.20
449.01	367.05
449.37	365.10
449.74	363.16
450.11	360.96
450.48	358.46
450.85	355.96
451.22	353.84
451.59	351.83
451.96	349.87
452.33	347.29
452.70	344.97
453.07	342.21
453.43	339.37
453.80	336.65
454.17	333.95
454.54	331.44
454.91	328.71
455.28	326.06
455.65	323.62
456.02	321.20
456.38	319.09
456.75	316.50
457.12	314.25
457.49	312.08
457.86	309.90
458.23	308.12
458.59	306.09
458.96	304.02
459.33	302.22
459.70	300.41
460.07	298.91
460.43	297.23
460.80	295.60
461.17	294.19
461.54	292.67
461.91	291.31
462.27	289.88
462.64	288.63
463.01	287.30
463.38	285.98
463.74	284.65
464.11	283.46
464.48	282.43
464.85	281.39
465.21	280.55
465.58	279.70
465.95	278.60
466.32	277.69
466.68	276.80
467.05	275.93
467.42	275.04
467.78	274.17
468.15	273.28
468.52	272.63
468.88	271.78
469.25	271.05
469.62	270.43
469.98	269.82
470.35	269.20
470.72	268.62
471.08	268.01
471.45	267.50
471.82	267.00
472.18	266.42
472.55	265.99
472.92	265.50
473.28	265.03
473.65	264.59
474.02	264.20
474.38	263.90
474.75	263.58
475.11	263.24
475.48	262.94
475.85	262.76
476.21	262.51
476.58	262.36
476.94	262.25
477.31	262.08
477.67	261.94
478.04	261.87
478.41	261.82
478.77	261.85
479.14	261.78
479.50	261.77
479.87	261.87
480.23	261.96
480.60	262.02
480.96	262.14
481.33	262.35
481.69	262.57
482.06	262.78
482.42	262.99
482.79	263.24
483.15	263.60
483.52	264.00
483.88	264.37
484.25	264.73
484.61	265.13
484.98	265.61
485.34	266.17
485.71	266.75
486.07	267.40
486.44	268.01
486.80	268.71
487.17	269.46
487.53	270.27
487.90	271.10
488.26	272.01
488.62	272.96
488.99	273.91
489.35	274.93
489.72	276.01
490.08	277.22
490.44	278.46
490.81	279.78
491.17	281.09
491.54	282.60
491.90	284.16
492.26	285.78
492.63	287.47
492.99	289.24
493.36	291.13
493.72	293.14
494.08	295.20
494.45	297.45
494.81	299.80
495.17	302.19
495.54	304.74
495.90	307.43
496.26	310.23
496.63	313.17
496.99	316.27
497.35	319.51
497.72	322.87
498.08	326.36
498.44	330.02
498.80	333.93
499.17	337.92
499.53	342.00
499.89	346.42
500.26	350.92
500.62	355.55
500.98	360.48
501.34	365.47
501.71	370.78
502.07	376.16
502.43	381.74
502.79	387.52
503.16	393.57
503.52	399.78
503.88	406.12
504.24	412.71
504.60	419.54
504.97	426.66
505.33	433.93
505.69	441.63
506.05	449.34
506.41	457.10
506.78	465.21
507.14	473.64
507.50	482.23
507.86	491.22
508.22	500.35
508.59	509.48
508.95	518.95
509.31	528.68
509.67	538.66
510.03	548.82
510.39	559.29
510.75	569.94
511.12	580.76
511.48	591.99
511.84	603.33
512.20	614.70
512.56	626.43
512.92	638.45
513.28	650.71
513.64	662.99
514.00	675.61
514.37	688.38
514.73	701.20
515.09	714.12
515.45	727.12
515.81	740.45
516.17	754.19
516.53	768.13
516.89	782.11
517.25	796.06
517.61	810.24
517.97	824.45
518.33	838.69
518.69	853.26
519.05	867.94
519.41	882.83
519.77	898.10
520.13	913.36
520.49	928.49
520.85	943.51
521.21	958.86
521.57	974.81
521.93	990.24
522.29	1006.35
522.65	1022.27
523.01	1038.16
523.37	1053.99
523.73	1069.84
524.09	1085.67
524.45	1101.60
524.81	1118.00
525.17	1134.44
525.53	1151.04
525.89	1167.65
526.25	1184.18
526.61	1200.27
526.97	1216.68
527.33	1232.87
527.68	1249.04
528.04	1265.15
528.40	1281.38
528.76	1298.21
529.12	1314.36
529.48	1330.98
529.84	1346.57
530.20	1362.85
530.56	1379.54
530.91	1396.56
531.27	1413.04
531.63	1429.19
531.99	1445.45
532.35	1460.97
532.71	1476.59
533.07	1492.49
533.42	1507.98
533.78	1523.64
534.14	1539.59
534.50	1554.59
534.86	1570.12
535.21	1585.10
535.57	1600.73
535.93	1615.90
536.29	1630.42
536.65	1645.22
537.00	1659.67
537.36	1674.78
537.72	1689.02
538.08	1703.24
538.44	1716.72
538.79	1730.30
539.15	1743.62
539.51	1756.98
539.87	1771.10
540.22	1784.53
540.58	1798.00
540.94	1810.84
541.29	1823.41
541.65	1835.76
542.01	1848.75
542.37	1860.92
542.72	1872.88
543.08	1884.42
543.44	1896.58
543.79	1907.61
544.15	1918.39
544.51	1929.65
544.87	1940.41
545.22	1950.98
545.58	1960.90
545.94	1970.58
546.29	1980.27
546.65	1990.00
547.01	1999.36
547.36	2007.92
547.72	2016.23
548.07	2024.01
548.43	2032.33
548.79	2040.28
549.14	2047.88
549.50	2055.01
549.86	2062.38
550.21	2069.81
550.57	2076.85
550.92	2083.42
551.28	2090.38
551.64	2097.40
551.99	2103.92
552.35	2109.97
552.70	2116.02
553.06	2121.96
553.41	2128.18
553.77	2134.24
554.13	2140.35
554.48	2146.42
554.84	2152.00
555.19	2157.46
555.55	2162.59
555.90	2167.04
556.26	2172.06
556.61	2176.61
556.97	2181.08
557.32	2185.33
557.68	2189.32
558.03	2193.72
558.39	2197.37
558.74	2202.03
559.10	2205.90
559.45	2209.56
559.81	2213.98
560.16	2218.02
560.52	2221.45
560.87	2224.89
561.23	2227.55
561.58	2230.44
561.94	2232.93
562.29	2235.16
562.64	2237.85
563.00	2240.56
563.35	2244.14
563.71	2247.22
564.06	2250.61
564.42	2253.59
564.77	2256.31
565.12	2258.89
565.48	2260.87
565.83	2263.10
566.19	2264.59
566.54	2265.50
566.89	2266.71
567.25	2267.56
567.60	2268.95
567.96	2270.83
568.31	2271.79
568.66	2273.10
569.02	2273.88
569.37	2274.38
569.72	2275.55
570.08	2275.75
570.43	2275.77
570.78	2275.45
571.14	2274.10
571.49	2273.03
571.84	2272.82
572.20	2271.86
572.55	2270.87
572.90	2269.40
573.26	2267.96
573.61	2266.39
573.96	2265.03
574.31	2262.41
574.67	2259.59
575.02	2256.11
575.37	2252.79
575.72	2249.37
576.08	2246.07
576.43	2242.82
576.78	2239.34
577.13	2236.16
577.49	2233.33
577.84	2230.21
578.19	2226.52
578.54	2223.27
578.90	2219.27
579.25	2213.88
579.60	2209.16
579.95	2204.46
580.30	2199.68
580.66	2194.77
581.01	2189.95
581.36	2185.29
581.71	2181.20
582.06	2176.87
582.42	2172.75
582.77	2167.79
583.12	2163.35
583.47	2159.02
583.82	2154.41
584.17	2149.41
584.53	2144.21
584.88	2138.75
585.23	2133.21
585.58	2127.96
585.93	2122.52
586.28	2117.76
586.63	2112.98
586.98	2107.95
587.34	2103.34
587.69	2098.58
588.04	2093.62
588.39	2088.32
588.74	2081.96
589.09	2076.15
589.44	2069.40
589.79	2063.57
590.14	2058.12
590.49	2051.82
590.84	2045.43
591.19	2039.61
591.54	2033.31
591.89	2026.28
592.25	2019.85
592.60	2012.91
592.95	2005.60
593.30	1998.46
593.65	1991.04
594.00	1984.15
594.35	1977.22
594.70	1969.36
595.05	1962.53
595.40	1955.29
595.75	1947.84
596.10	1941.87
596.45	1935.26
596.80	1929.56
597.15	1922.98
597.50	1916.15
597.85	1909.74
598.19	1903.35
598.54	1896.38
598.89	1889.92
599.24	1884.09
599.59	1877.38
599.94	1871.23
600.29	1865.03
600.64	1858.52
600.99	1851.27
601.34	1844.56
601.69	1837.63
602.04	1830.96
602.39	1823.63
602.74	1816.97
603.08	1810.35
603.43	1803.64
603.78	1796.42
604.13	1789.14
604.48	1782.02
604.83	1775.21
605.18	1768.43
605.53	1760.64
605.87	1752.74
606.22	1745.60
606.57	1737.79
606.92	1730.65
607.27	1723.67
607.62	1716.83
607.96	1709.87
608.31	1703.44
608.66	1696.07
609.01	1688.69
609.36	1681.29
609.70	1673.43
610.05	1665.61
610.40	1658.01
610.75	1649.74
611.10	1642.27
611.44	1633.89
611.79	1626.06
612.14	1617.36
612.49	1608.21
612.83	1599.77
613.18	1591.70
613.53	1583.59
613.88	1575.05
614.22	1566.81
614.57	1558.09
614.92	1550.13
615.27	1542.63
615.61	1534.45
615.96	1526.36
616.31	1518.69
616.65	1511.22
617.00	1503.73
617.35	1496.00
617.70	1487.82
618.04	1479.42
618.39	1471.07
618.74	1463.67
619.08	1455.32
619.43	1447.85
619.78	1441.06
620.12	1434.03
620.47	1426.53
620.82	1418.40
621.16	1410.99
621.51	1403.39
621.85	1395.91
622.20	1387.31
622.55	1378.87
622.89	1370.85
623.24	1363.06
623.59	1355.70
623.93	1348.27
624.28	1341.05
624.62	1333.55
624.97	1326.29
625.32	1319.60
625.66	1312.72
626.01	1305.51
626.35	1298.16
626.70	1290.35
627.04	1282.56
627.39	1274.72
627.73	1267.29
628.08	1260.44
628.43	1253.24
628.77	1245.93
629.12	1238.31
629.46	1231.31
629.81	1223.84
630.15	1216.70
630.50	1209.45
630.84	1201.31
631.19	1193.39
631.53	1185.77
631.88	1178.23
632.22	1170.71
632.57	1163.33
632.91	1155.81
633.26	1148.43
633.60	1140.93
633.95	1133.87
634.29	1126.91
634.64	1120.22
634.98	1112.97
635.32	1105.78
635.67	1099.19
636.01	1092.57
636.36	1085.93
636.70	1079.36
637.05	1072.88
637.39	1066.46
637.73	1060.06
638.08	1054.25
638.42	1048.34
638.77	1042.04
639.11	1035.53
639.45	1029.06
639.80	1022.59
640.14	1016.14
640.49	1009.66
640.83	1003.40
641.17	997.20
641.52	990.82
641.86	984.35
642.20	978.48
642.55	972.18
642.89	965.73
643.23	959.16
643.58	953.38
643.92	947.23
644.26	941.18
644.61	935.15
644.95	929.09
645.29	922.55
645.64	915.77
645.98	909.43
646.32	903.62
646.66	897.64
647.01	891.80
647.35	886.14
647.69	880.22
648.04	874.72
648.38	868.96
648.72	863.03
649.06	857.14
649.41	851.35
649.75	845.43
650.09	839.57
650.43	833.80
650.78	827.64
651.12	821.69
651.46	816.04
651.80	810.31
652.14	804.98
652.49	799.59
652.83	794.38
653.17	788.80
653.51	783.09
653.85	777.74
654.20	772.11
654.54	766.17
654.88	760.51
655.22	754.60
655.56	748.97
655.90	743.53
656.25	738.21
656.59	732.75
656.93	727.73
657.27	722.54
657.61	717.18
657.95	712.08
658.29	706.99
658.64	701.73
658.98	696.48
659.32	691.04
659.66	685.85
660.00	680.66
660.34	675.64
660.68	670.68
661.02	665.66
661.36	660.95
661.70	656.44
662.05	652.07
662.39	647.82
662.73	643.30
663.07	639.01
663.41	634.60
663.75	630.22
664.09	625.66
664.43	621.34
664.77	617.25
665.11	613.04
665.45	608.94
665.79	604.86
666.13	600.74
666.47	596.63
666.81	592.43
667.15	588.31
667.49	584.47
667.83	580.66
668.17	576.74
668.51	572.72
668.85	568.73
669.19	564.92
669.53	561.12
669.87	557.27
670.21	553.51
670.55	549.90
670.89	546.46
671.23	543.04
671.57	539.56
671.91	536.00
672.25	532.49
672.58	529.03
672.92	525.62
673.26	522.44
673.60	519.28
673.94	516.23
674.28	513.36
674.62	510.39
674.96	507.32
675.30	504.41
675.64	501.48
675.97	498.66
676.31	495.79
676.65	492.83
676.99	490.18
677.33	487.38
677.67	484.55
678.01	481.51
678.34	478.58
678.68	475.60
679.02	472.78
679.36	470.01
679.70	467.28
680.04	464.49
680.37	461.63
680.71	458.80
681.05	456.19
681.39	453.42
681.73	450.74
682.06	448.25
682.40	445.72
682.74	443.17
683.08	440.68
683.42	438.11
683.75	435.66
684.09	433.11
684.43	430.64
684.77	428.17
685.10	425.82
685.44	423.49
685.78	421.22
686.12	418.99
686.45	416.73
686.79	414.44
687.13	412.35
687.46	410.16
687.80	408.09
688.14	405.84
688.48	403.81
688.81	401.61
689.15	399.41
689.49	397.27
689.82	395.23
690.16	393.08
690.50	391.11
690.83	389.13
691.17	387.13
691.51	385.20
691.84	383.37
692.18	381.46
692.52	379.47
692.85	377.52
693.19	375.66
693.52	373.83
693.86	372.00
694.20	370.17
694.53	368.42
694.87	366.53
695.21	364.77
695.54	362.99
695.88	361.26
696.21	359.58
696.55	357.89
696.88	356.17
697.22	354.50
697.56	352.84
697.89	351.21
698.23	349.63
698.56	348.01
698.90	346.44
699.23	344.81
699.57	343.31
699.90	341.77
700.24	340.20
700.58	338.69
700.91	337.23
701.25	335.76
701.58	334.38
701.92	333.03
702.25	331.66
702.59	330.25
702.92	328.94
703.26	327.67
703.59	326.35
703.93	325.16
704.26	323.97
704.60	322.70
704.93	321.44
705.26	320.20
705.60	319.01
705.93	317.80
706.27	316.77
706.60	315.70
706.94	314.65
707.27	313.49
707.61	312.37
707.94	311.29
708.27	310.22
708.61	309.09
708.94	308.08
709.28	307.10
709.61	306.22
709.94	305.25
710.28	304.23
710.61	303.27
710.95	302.17
711.28	301.23
711.61	300.32
711.95	299.39
712.28	298.48
712.61	297.52
712.95	296.61
713.28	295.73
713.61	294.83
713.95	293.95
714.28	293.17
714.61	292.34
714.95	291.53
715.28	290.64
715.61	289.72
715.95	288.85
716.28	287.97
716.61	287.05
716.95	286.26
717.28	285.51
717.61	284.74
717.94	284.04
718.28	283.23
718.61	282.48
718.94	281.75
719.27	281.04
719.61	280.39
719.94	279.71
720.27	279.00
720.60	278.33
720.94	277.70
721.27	277.09
721.60	276.53
721.93	275.91
722.27	275.34
722.60	274.88
722.93	274.32
723.26	273.76
723.59	273.23
723.93	272.66
724.26	272.08
724.59	271.49
724.92	270.94
725.25	270.43
725.59	269.90
725.92	269.40
726.25	268.90
726.58	268.40
726.91	267.93
727.24	267.43
727.57	266.95
727.91	266.43
728.24	265.96
728.57	265.43
728.90	264.96
729.23	264.49
729.56	264.04
729.89	263.57
730.22	263.10
730.55	262.64
730.89	262.20
731.22	261.76
731.55	261.36
731.88	260.98
732.21	260.54
732.54	260.11
732.87	259.66
733.20	259.26
733.53	258.88
733.86	258.50
734.19	258.13
734.52	257.74
734.85	257.43
735.18	257.00
735.51	256.69
735.84	256.31
736.17	255.99
736.50	255.59
736.83	255.35
737.16	255.02
737.49	254.67
737.82	254.34
738.15	254.04
738.48	253.75
738.81	253.41
739.14	253.13
739.47	252.79
739.80	252.50
740.13	252.23
740.46	251.91
740.79	251.57
741.12	251.25
741.45	250.98
741.78	250.62
742.11	250.37
742.44	250.01
742.77	249.76
743.10	249.45
743.43	249.17
743.75	248.81
744.08	248.67
744.41	248.44
744.74	248.13
745.07	247.82
745.40	247.53
745.73	247.29
746.06	247.04
746.39	246.81
746.71	246.51
747.04	246.22
747.37	245.97
747.70	245.72
748.03	245.47
748.36	245.21
748.68	244.98
749.01	244.71
749.34	244.49
749.67	244.24
750.00	244.03
750.33	243.89
750.65	243.65
750.98	243.31
751.31	243.07
751.64	242.90
751.97	242.74
752.29	242.53
752.62	242.29
752.95	242.05
753.28	241.88
753.60	241.71
753.93	241.56
754.26	241.36
754.59	241.14
754.91	240.93
755.24	240.73
755.57	240.55
755.90	240.35
756.22	240.13
756.55	239.96
756.88	239.76
757.20	239.52
757.53	239.33
757.86	239.20
758.19	239.04
758.51	238.85
758.84	238.64
759.17	238.47
759.49	238.28
759.82	238.15
760.15	237.96
760.47	237.80
760.80	237.61
761.13	237.47
761.45	237.30
761.78	237.16
762.11	237.01
762.43	236.85
762.76	236.71
763.08	236.61
763.41	236.47
763.74	236.32
764.06	236.16
764.39	236.04
764.71	235.86
765.04	235.70
765.37	235.55
765.69	235.40
766.02	235.27
766.34	235.17
766.67	235.04
767.00	234.92
767.32	234.84
767.65	234.80
767.97	234.67
768.30	234.57
768.62	234.44
768.95	234.35
769.27	234.26
769.60	234.15
769.92	234.05
770.25	233.89
770.57	233.79
770.90	233.68
771.22	233.58
771.55	233.48
771.87	233.41
772.20	233.35
772.52	233.35
772.85	233.39
773.17	233.24
773.50	233.14
773.82	233.07
774.15	232.93
774.47	232.77
774.80	232.68
775.12	232.63
775.45	232.58
775.77	232.47
776.09	232.41
776.42	232.38
776.74	232.33
777.07	232.28
777.39	232.24
777.72	232.15
778.04	232.06
778.36	232.00
778.69	231.93
779.01	231.84
779.33	231.68
779.66	231.51
779.98	231.47
780.31	231.43
780.63	231.43
780.95	231.38
781.28	231.31
781.60	231.22
781.92	231.17
782.25	231.12
782.57	231.08
782.89	230.99
783.22	230.91
783.54	230.80
783.86	230.74
784.19	230.68
784.51	230.68
784.83	230.63
785.16	230.58
785.48	230.54
785.80	230.51
786.12	230.51
786.45	230.43
786.77	230.40
787.09	230.32
