SpectraSuite Data File
++++++++++++++++++++++++++++++++++++
Date: Fri Feb 01 16:52:18 EST 2013
User: group
Dark Spectrum Present: No
Reference Spectrum Present: No
Number of Sampled Component Spectra: 1
Spectrometers: USB2E7196
Integration Time (usec): 35000 (USB2E7196)
Spectra Averaged: 100 (USB2E7196)
Boxcar Smoothing: 10 (USB2E7196)
Correct for Electrical Dark: No (USB2E7196)
Strobe/Lamp Enabled: No (USB2E7196)
Correct for Detector Non-linearity: No (USB2E7196)
Correct for Stray Light: No (USB2E7196)
Number of Pixels in Processed Spectrum: 2048
>>>>>Begin Processed Spectral Data<<<<<
339.09	0.00
339.48	213.23
339.86	214.65
340.24	215.68
340.63	217.51
341.01	220.08
341.39	220.35
341.78	221.56
342.16	223.05
342.54	223.48
342.93	211.63
343.31	222.31
343.69	222.86
344.07	223.31
344.46	223.77
344.84	224.14
345.22	224.40
345.60	224.63
345.99	224.80
346.37	224.90
346.75	224.96
347.13	225.02
347.52	225.09
347.90	225.14
348.28	225.20
348.66	225.26
349.05	225.26
349.43	225.31
349.81	225.37
350.19	225.41
350.57	225.46
350.96	225.53
351.34	225.64
351.72	225.73
352.10	225.82
352.48	225.88
352.87	225.93
353.25	225.98
353.63	226.05
354.01	226.14
354.39	226.25
354.77	226.35
355.15	226.44
355.54	226.51
355.92	226.54
356.30	226.60
356.68	226.75
357.06	226.81
357.44	226.86
357.82	226.93
358.20	227.04
358.58	227.12
358.97	227.19
359.35	227.25
359.73	227.33
360.11	227.43
360.49	227.47
360.87	227.54
361.25	227.61
361.63	227.68
362.01	227.75
362.39	227.77
362.77	227.83
363.15	227.85
363.53	227.90
363.91	227.92
364.29	227.97
364.67	227.91
365.05	227.93
365.43	227.99
365.81	228.01
366.19	228.04
366.57	228.08
366.95	228.09
367.33	228.10
367.71	228.08
368.09	228.07
368.47	228.08
368.85	228.08
369.23	228.07
369.61	228.01
369.99	227.99
370.37	227.97
370.75	227.98
371.13	227.94
371.51	227.86
371.89	227.84
372.27	227.79
372.65	227.69
373.03	227.67
373.41	227.58
373.78	227.52
374.16	227.40
374.54	227.36
374.92	227.29
375.30	227.20
375.68	227.14
376.06	227.07
376.44	226.97
376.82	226.91
377.19	226.84
377.57	226.78
377.95	226.69
378.33	226.65
378.71	226.53
379.09	226.48
379.47	226.42
379.84	226.36
380.22	226.27
380.60	226.21
380.98	226.11
381.36	226.04
381.73	225.94
382.11	225.89
382.49	225.83
382.87	225.75
383.25	225.71
383.62	225.76
384.00	225.69
384.38	225.66
384.76	225.61
385.13	225.60
385.51	225.54
385.89	225.47
386.27	225.37
386.64	225.35
387.02	225.29
387.40	225.22
387.78	225.19
388.15	225.18
388.53	225.13
388.91	225.10
389.29	225.09
389.66	225.06
390.04	225.01
390.42	224.96
390.79	224.94
391.17	224.90
391.55	224.75
391.92	224.71
392.30	224.72
392.68	224.70
393.05	224.65
393.43	224.71
393.81	224.72
394.18	224.74
394.56	224.71
394.94	224.74
395.31	224.78
395.69	224.82
396.06	224.83
396.44	224.87
396.82	224.87
397.19	224.94
397.57	224.97
397.95	225.02
398.32	225.03
398.70	225.06
399.07	225.14
399.45	225.18
399.82	225.27
400.20	225.30
400.58	225.36
400.95	225.40
401.33	225.45
401.70	225.60
402.08	225.66
402.45	225.75
402.83	225.86
403.20	225.97
403.58	226.02
403.95	226.16
404.33	226.29
404.71	226.43
405.08	226.60
405.46	226.74
405.83	226.88
406.21	227.06
406.58	227.26
406.96	227.44
407.33	227.60
407.70	227.77
408.08	228.06
408.45	228.28
408.83	228.52
409.20	228.73
409.58	228.89
409.95	229.18
410.33	229.48
410.70	229.70
411.08	230.00
411.45	230.30
411.82	230.60
412.20	230.95
412.57	231.37
412.95	231.66
413.32	232.05
413.69	232.49
414.07	232.93
414.44	233.38
414.82	233.80
415.19	234.35
415.56	234.92
415.94	235.42
416.31	236.08
416.68	236.68
417.06	237.37
417.43	238.05
417.81	238.78
418.18	239.53
418.55	240.38
418.93	241.26
419.30	242.16
419.67	243.10
420.04	244.02
420.42	245.02
420.79	246.19
421.16	247.35
421.54	248.49
421.91	249.68
422.28	250.96
422.66	252.33
423.03	253.65
423.40	254.95
423.77	256.36
424.15	257.75
424.52	259.28
424.89	260.88
425.26	262.41
425.64	263.84
426.01	265.45
426.38	267.08
426.75	268.71
427.13	270.41
427.50	272.18
427.87	274.06
428.24	275.89
428.61	277.62
428.99	279.55
429.36	281.66
429.73	283.71
430.10	285.70
430.47	287.71
430.85	289.82
431.22	292.07
431.59	294.43
431.96	296.64
432.33	299.09
432.70	301.43
433.08	304.23
433.45	306.90
433.82	309.45
434.19	312.29
434.56	315.10
434.93	317.76
435.30	320.34
435.68	323.21
436.05	326.03
436.42	328.81
436.79	331.30
437.16	333.95
437.53	336.74
437.90	339.52
438.27	342.23
438.64	345.03
439.01	347.58
439.38	349.77
439.75	351.90
440.13	354.32
440.50	356.66
440.87	358.48
441.24	360.40
441.61	362.53
441.98	364.04
442.35	365.81
442.72	367.66
443.09	369.51
443.46	370.51
443.83	371.04
444.20	371.56
444.57	372.37
444.94	372.68
445.31	373.03
445.68	373.40
446.05	373.50
446.42	373.12
446.79	372.74
447.16	372.37
447.53	372.10
447.90	370.99
448.27	369.85
448.64	368.33
449.01	367.20
449.37	365.28
449.74	363.40
450.11	361.19
450.48	358.74
450.85	356.19
451.22	354.07
451.59	352.13
451.96	350.24
452.33	347.66
452.70	345.32
453.07	342.54
453.43	339.68
453.80	336.91
454.17	334.28
454.54	331.73
454.91	328.99
455.28	326.35
455.65	323.90
456.02	321.50
456.38	319.41
456.75	316.78
457.12	314.53
457.49	312.38
457.86	310.25
458.23	308.40
458.59	306.36
458.96	304.32
459.33	302.42
459.70	300.52
460.07	299.04
460.43	297.34
460.80	295.73
461.17	294.30
461.54	292.83
461.91	291.42
462.27	289.98
462.64	288.75
463.01	287.38
463.38	286.08
463.74	284.71
464.11	283.52
464.48	282.50
464.85	281.39
465.21	280.48
465.58	279.54
465.95	278.45
466.32	277.59
466.68	276.69
467.05	275.86
467.42	275.00
467.78	274.10
468.15	273.26
468.52	272.63
468.88	271.76
469.25	270.98
469.62	270.37
469.98	269.72
470.35	269.10
470.72	268.52
471.08	267.93
471.45	267.37
471.82	266.83
472.18	266.24
472.55	265.81
472.92	265.30
473.28	264.87
473.65	264.43
474.02	263.98
474.38	263.60
474.75	263.26
475.11	262.92
475.48	262.70
475.85	262.45
476.21	262.20
476.58	262.06
476.94	261.94
477.31	261.76
477.67	261.63
478.04	261.54
478.41	261.49
478.77	261.51
479.14	261.48
479.50	261.52
479.87	261.59
480.23	261.72
480.60	261.80
480.96	261.88
481.33	262.08
481.69	262.29
482.06	262.50
482.42	262.74
482.79	263.00
483.15	263.27
483.52	263.66
483.88	264.01
484.25	264.39
484.61	264.83
484.98	265.30
485.34	265.88
485.71	266.45
486.07	267.06
486.44	267.62
486.80	268.33
487.17	269.04
487.53	269.85
487.90	270.69
488.26	271.63
488.62	272.66
488.99	273.66
489.35	274.68
489.72	275.81
490.08	277.00
490.44	278.24
490.81	279.58
491.17	280.91
491.54	282.40
491.90	283.92
492.26	285.53
492.63	287.27
492.99	289.01
493.36	290.89
493.72	292.96
494.08	295.06
494.45	297.25
494.81	299.59
495.17	302.01
495.54	304.56
495.90	307.25
496.26	310.07
496.63	313.02
496.99	316.16
497.35	319.40
497.72	322.80
498.08	326.28
498.44	329.93
498.80	333.83
499.17	337.87
499.53	342.05
499.89	346.41
500.26	350.93
500.62	355.61
500.98	360.56
501.34	365.63
501.71	370.91
502.07	376.34
502.43	381.99
502.79	387.78
503.16	393.86
503.52	400.11
503.88	406.48
504.24	413.07
504.60	419.96
504.97	427.06
505.33	434.35
505.69	442.09
506.05	449.80
506.41	457.67
506.78	465.78
507.14	474.19
507.50	482.91
507.86	491.86
508.22	501.06
508.59	510.22
508.95	519.71
509.31	529.53
509.67	539.57
510.03	549.81
510.39	560.28
510.75	570.96
511.12	581.82
511.48	593.05
511.84	604.48
512.20	615.84
512.56	627.72
512.92	639.75
513.28	651.98
513.64	664.40
514.00	677.00
514.37	689.80
514.73	702.74
515.09	715.66
515.45	728.80
515.81	742.26
516.17	756.09
516.53	770.02
516.89	784.01
517.25	797.99
517.61	812.20
517.97	826.60
518.33	840.88
518.69	855.52
519.05	870.25
519.41	885.13
519.77	900.48
520.13	915.74
520.49	930.95
520.85	946.13
521.21	961.62
521.57	977.61
521.93	993.21
522.29	1009.33
522.65	1025.33
523.01	1041.31
523.37	1057.00
523.73	1073.02
524.09	1088.87
524.45	1104.94
524.81	1121.39
525.17	1137.94
525.53	1154.61
525.89	1171.26
526.25	1187.81
526.61	1204.02
526.97	1220.58
527.33	1236.89
527.68	1253.25
528.04	1269.44
528.40	1285.70
528.76	1302.42
529.12	1318.76
529.48	1335.31
529.84	1351.13
530.20	1367.46
530.56	1384.24
530.91	1401.43
531.27	1417.89
531.63	1434.03
531.99	1450.29
532.35	1466.02
532.71	1481.74
533.07	1497.53
533.42	1513.26
533.78	1529.13
534.14	1545.15
534.50	1560.20
534.86	1575.79
535.21	1590.63
535.57	1606.26
535.93	1621.48
536.29	1636.20
536.65	1650.99
537.00	1665.43
537.36	1680.34
537.72	1694.63
538.08	1708.86
538.44	1722.44
538.79	1736.18
539.15	1749.66
539.51	1763.13
539.87	1777.33
540.22	1790.82
540.58	1804.33
540.94	1817.34
541.29	1829.94
541.65	1842.38
542.01	1855.39
542.37	1867.68
542.72	1880.01
543.08	1891.58
543.44	1903.87
543.79	1914.90
544.15	1925.83
544.51	1937.34
544.87	1948.17
545.22	1958.97
545.58	1968.92
545.94	1978.50
546.29	1988.18
546.65	1997.96
547.01	2007.19
547.36	2015.69
547.72	2024.00
548.07	2031.88
548.43	2039.86
548.79	2047.70
549.14	2055.18
549.50	2062.39
549.86	2069.78
550.21	2076.95
550.57	2084.20
550.92	2090.71
551.28	2097.66
551.64	2104.54
551.99	2111.01
552.35	2117.23
552.70	2123.14
553.06	2129.11
553.41	2135.42
553.77	2141.34
554.13	2147.48
554.48	2153.65
554.84	2159.20
555.19	2164.43
555.55	2169.67
555.90	2174.10
556.26	2179.17
556.61	2183.73
556.97	2188.17
557.32	2192.22
557.68	2196.44
558.03	2200.66
558.39	2204.33
558.74	2209.04
559.10	2213.08
559.45	2216.96
559.81	2221.17
560.16	2225.28
560.52	2228.79
560.87	2232.28
561.23	2235.07
561.58	2237.92
561.94	2240.45
562.29	2242.72
562.64	2245.61
563.00	2248.12
563.35	2251.79
563.71	2254.82
564.06	2258.20
564.42	2261.05
564.77	2263.81
565.12	2266.18
565.48	2268.37
565.83	2270.53
566.19	2271.95
566.54	2272.85
566.89	2273.92
567.25	2274.87
567.60	2276.06
567.96	2277.64
568.31	2278.63
568.66	2279.83
569.02	2280.70
569.37	2281.16
569.72	2282.22
570.08	2282.38
570.43	2282.63
570.78	2282.24
571.14	2280.87
571.49	2279.60
571.84	2279.30
572.20	2278.42
572.55	2277.73
572.90	2276.07
573.26	2274.82
573.61	2273.20
573.96	2271.69
574.31	2268.98
574.67	2266.18
575.02	2262.83
575.37	2259.68
575.72	2256.13
576.08	2252.84
576.43	2249.53
576.78	2246.05
577.13	2243.05
577.49	2240.16
577.84	2236.91
578.19	2233.20
578.54	2229.87
578.90	2225.92
579.25	2220.64
579.60	2215.66
579.95	2210.52
580.30	2205.83
580.66	2200.61
581.01	2195.82
581.36	2190.96
581.71	2186.87
582.06	2182.54
582.42	2178.25
582.77	2173.31
583.12	2168.84
583.47	2164.45
583.82	2159.66
584.17	2154.54
584.53	2149.11
584.88	2143.54
585.23	2137.90
585.58	2132.73
585.93	2127.34
586.28	2122.79
586.63	2117.92
586.98	2113.10
587.34	2108.51
587.69	2103.59
588.04	2098.68
588.39	2093.22
588.74	2087.05
589.09	2081.23
589.44	2074.41
589.79	2068.47
590.14	2062.70
590.49	2056.21
590.84	2049.92
591.19	2044.10
591.54	2037.81
591.89	2030.80
592.25	2024.21
592.60	2017.09
592.95	2009.74
593.30	2002.58
593.65	1995.04
594.00	1988.23
594.35	1981.04
594.70	1973.27
595.05	1966.52
595.40	1959.28
595.75	1951.88
596.10	1945.82
596.45	1939.16
596.80	1933.33
597.15	1926.96
597.50	1920.15
597.85	1913.71
598.19	1907.26
598.54	1900.18
598.89	1893.65
599.24	1887.89
599.59	1881.41
599.94	1875.44
600.29	1869.14
600.64	1862.63
600.99	1855.41
601.34	1848.58
601.69	1841.75
602.04	1835.01
602.39	1827.60
602.74	1820.86
603.08	1814.21
603.43	1807.43
603.78	1800.14
604.13	1792.77
604.48	1785.50
604.83	1778.63
605.18	1772.04
605.53	1764.17
605.87	1756.29
606.22	1749.02
606.57	1741.02
606.92	1733.59
607.27	1726.47
607.62	1719.65
607.96	1712.51
608.31	1705.90
608.66	1698.40
609.01	1690.94
609.36	1683.39
609.70	1675.45
610.05	1667.53
610.40	1659.96
610.75	1651.79
611.10	1644.20
611.44	1635.95
611.79	1627.98
612.14	1619.33
612.49	1610.08
612.83	1601.67
613.18	1593.54
613.53	1585.55
613.88	1577.01
614.22	1569.12
614.57	1560.39
614.92	1552.28
615.27	1544.60
615.61	1536.30
615.96	1528.30
616.31	1520.68
616.65	1513.33
617.00	1505.74
617.35	1498.03
617.70	1489.81
618.04	1481.37
618.39	1473.07
618.74	1465.56
619.08	1457.34
619.43	1449.86
619.78	1442.98
620.12	1435.74
620.47	1428.30
620.82	1420.24
621.16	1412.93
621.51	1405.02
621.85	1397.41
622.20	1388.96
622.55	1380.76
622.89	1372.97
623.24	1365.35
623.59	1357.96
623.93	1350.60
624.28	1343.45
624.62	1336.01
624.97	1328.77
625.32	1321.92
625.66	1314.90
626.01	1307.66
626.35	1300.24
626.70	1292.37
627.04	1284.61
627.39	1276.84
627.73	1269.41
628.08	1262.53
628.43	1255.29
628.77	1248.03
629.12	1240.61
629.46	1233.52
629.81	1225.99
630.15	1218.74
630.50	1211.34
630.84	1203.13
631.19	1195.08
631.53	1187.49
631.88	1179.87
632.22	1172.27
632.57	1165.05
632.91	1157.53
633.26	1150.18
633.60	1142.74
633.95	1135.74
634.29	1128.74
634.64	1122.13
634.98	1114.81
635.32	1107.57
635.67	1100.90
636.01	1094.21
636.36	1087.36
636.70	1080.75
637.05	1074.23
637.39	1067.77
637.73	1061.27
638.08	1055.40
638.42	1049.38
638.77	1042.95
639.11	1036.40
639.45	1029.96
639.80	1023.24
640.14	1016.92
640.49	1010.43
640.83	1004.18
641.17	997.93
641.52	991.65
641.86	985.16
642.20	979.29
642.55	972.94
642.89	966.50
643.23	959.93
643.58	954.22
643.92	948.03
644.26	942.02
644.61	935.93
644.95	930.00
645.29	923.53
645.64	916.82
645.98	910.56
646.32	904.72
646.66	898.69
647.01	892.96
647.35	887.25
647.69	881.32
648.04	875.78
648.38	870.05
648.72	864.11
649.06	858.00
649.41	852.18
649.75	846.32
650.09	840.40
650.43	834.68
650.78	828.52
651.12	822.60
651.46	816.90
651.80	811.21
652.14	805.83
652.49	800.39
652.83	795.26
653.17	789.61
653.51	783.92
653.85	778.59
654.20	772.97
654.54	766.96
654.88	761.21
655.22	755.33
655.56	749.65
655.90	744.12
656.25	739.00
656.59	733.67
656.93	728.60
657.27	723.45
657.61	718.03
657.95	713.01
658.29	707.95
658.64	702.67
658.98	697.34
659.32	691.84
659.66	686.69
660.00	681.42
660.34	676.47
660.68	671.57
661.02	666.55
661.36	661.78
661.70	657.30
662.05	653.02
662.39	648.69
662.73	644.24
663.07	639.91
663.41	635.46
663.75	630.97
664.09	626.39
664.43	621.92
664.77	617.89
665.11	613.57
665.45	609.50
665.79	605.44
666.13	601.44
666.47	597.38
666.81	593.20
667.15	589.01
667.49	585.09
667.83	581.30
668.17	577.35
668.51	573.36
668.85	569.36
669.19	565.51
669.53	561.76
669.87	557.89
670.21	554.17
670.55	550.52
670.89	547.06
671.23	543.65
671.57	540.16
671.91	536.53
672.25	533.07
672.58	529.56
672.92	526.18
673.26	522.97
673.60	519.75
673.94	516.67
674.28	513.85
674.62	510.92
674.96	507.72
675.30	504.81
675.64	501.89
675.97	499.08
676.31	496.27
676.65	493.31
676.99	490.66
677.33	487.85
677.67	485.01
678.01	482.03
678.34	479.04
678.68	476.21
679.02	473.42
679.36	470.67
679.70	467.93
680.04	465.21
680.37	462.35
680.71	459.57
681.05	456.93
681.39	454.17
681.73	451.47
682.06	449.04
682.40	446.54
682.74	443.99
683.08	441.43
683.42	438.79
683.75	436.27
684.09	433.68
684.43	431.17
684.77	428.74
685.10	426.32
685.44	424.10
685.78	421.80
686.12	419.56
686.45	417.26
686.79	414.93
687.13	412.69
687.46	410.50
687.80	408.32
688.14	406.11
688.48	404.05
688.81	401.85
689.15	399.64
689.49	397.44
689.82	395.35
690.16	393.26
690.50	391.31
690.83	389.40
691.17	387.39
691.51	385.45
691.84	383.62
692.18	381.74
692.52	379.70
692.85	377.76
693.19	375.89
693.52	374.02
693.86	372.24
694.20	370.43
694.53	368.61
694.87	366.79
695.21	365.00
695.54	363.18
695.88	361.47
696.21	359.78
696.55	358.10
696.88	356.39
697.22	354.67
697.56	353.01
697.89	351.35
698.23	349.74
698.56	348.11
698.90	346.52
699.23	344.89
699.57	343.30
699.90	341.75
700.24	340.17
700.58	338.71
700.91	337.19
701.25	335.76
701.58	334.40
701.92	333.02
702.25	331.64
702.59	330.27
702.92	328.94
703.26	327.62
703.59	326.35
703.93	325.18
704.26	323.98
704.60	322.70
704.93	321.44
705.26	320.18
705.60	319.04
705.93	317.87
706.27	316.83
706.60	315.81
706.94	314.73
707.27	313.63
707.61	312.52
707.94	311.47
708.27	310.37
708.61	309.31
708.94	308.31
709.28	307.33
709.61	306.32
709.94	305.35
710.28	304.30
710.61	303.35
710.95	302.27
711.28	301.36
711.61	300.41
711.95	299.47
712.28	298.52
712.61	297.52
712.95	296.57
713.28	295.65
713.61	294.82
713.95	293.97
714.28	293.09
714.61	292.26
714.95	291.39
715.28	290.51
715.61	289.64
715.95	288.82
716.28	287.96
716.61	287.17
716.95	286.33
717.28	285.57
717.61	284.77
717.94	284.05
718.28	283.26
718.61	282.53
718.94	281.80
719.27	281.14
719.61	280.46
719.94	279.80
720.27	279.09
720.60	278.39
720.94	277.73
721.27	277.14
721.60	276.57
721.93	275.98
722.27	275.49
722.60	274.92
722.93	274.33
723.26	273.77
723.59	273.18
723.93	272.63
724.26	272.08
724.59	271.51
724.92	270.94
725.25	270.43
725.59	269.89
725.92	269.43
726.25	268.91
726.58	268.45
726.91	267.94
727.24	267.45
727.57	266.95
727.91	266.40
728.24	265.92
728.57	265.38
728.90	264.92
729.23	264.40
729.56	263.99
729.89	263.52
730.22	263.03
730.55	262.59
730.89	262.17
731.22	261.75
731.55	261.35
731.88	260.94
732.21	260.54
732.54	260.11
732.87	259.68
733.20	259.29
733.53	258.90
733.86	258.56
734.19	258.18
734.52	257.82
734.85	257.53
735.18	257.11
735.51	256.80
735.84	256.42
736.17	256.05
736.50	255.61
736.83	255.39
737.16	255.08
737.49	254.73
737.82	254.37
738.15	254.03
738.48	253.65
738.81	253.35
739.14	252.96
739.47	252.65
739.80	252.35
740.13	252.03
740.46	251.69
740.79	251.32
741.12	251.04
741.45	250.72
741.78	250.39
742.11	250.12
742.44	249.77
742.77	249.52
743.10	249.24
743.43	248.97
743.75	248.57
744.08	248.41
744.41	248.15
744.74	247.91
745.07	247.65
745.40	247.43
745.73	247.19
746.06	246.96
746.39	246.70
746.71	246.45
747.04	246.19
747.37	245.92
747.70	245.68
748.03	245.38
748.36	245.17
748.68	244.94
749.01	244.69
749.34	244.49
749.67	244.25
750.00	244.04
750.33	243.88
750.65	243.66
750.98	243.34
751.31	243.10
751.64	242.89
751.97	242.71
752.29	242.46
752.62	242.17
752.95	241.96
753.28	241.76
753.60	241.54
753.93	241.34
754.26	241.16
754.59	240.92
754.91	240.74
755.24	240.56
755.57	240.37
755.90	240.21
756.22	240.00
756.55	239.80
756.88	239.60
757.20	239.36
757.53	239.18
757.86	239.03
758.19	238.89
758.51	238.72
758.84	238.52
759.17	238.36
759.49	238.22
759.82	238.10
760.15	237.94
760.47	237.81
760.80	237.70
761.13	237.57
761.45	237.46
761.78	237.30
762.11	237.12
762.43	236.96
762.76	236.82
763.08	236.72
763.41	236.61
763.74	236.48
764.06	236.34
764.39	236.21
764.71	236.04
765.04	235.89
765.37	235.73
765.69	235.60
766.02	235.53
766.34	235.38
766.67	235.21
767.00	235.09
767.32	235.00
767.65	234.94
767.97	234.83
768.30	234.72
768.62	234.63
768.95	234.53
769.27	234.43
769.60	234.33
769.92	234.17
770.25	234.03
770.57	233.90
770.90	233.79
771.22	233.70
771.55	233.62
771.87	233.53
772.20	233.44
772.52	233.42
772.85	233.41
773.17	233.36
773.50	233.29
773.82	233.21
774.15	233.09
774.47	232.92
774.80	232.82
775.12	232.73
775.45	232.63
775.77	232.56
776.09	232.50
776.42	232.42
776.74	232.38
777.07	232.32
777.39	232.26
777.72	232.15
778.04	232.06
778.36	231.97
778.69	231.92
779.01	231.85
779.33	231.70
779.66	231.51
779.98	231.42
780.31	231.34
780.63	231.29
780.95	231.23
781.28	231.17
781.60	231.09
781.92	231.02
782.25	230.96
782.57	230.85
782.89	230.78
783.22	230.70
783.54	230.60
783.86	230.51
784.19	230.44
784.51	230.40
784.83	230.33
785.16	230.23
785.48	230.16
785.80	230.09
786.12	230.03
786.45	229.97
786.77	229.88
787.09	229.81
