SpectraSuite Data File
++++++++++++++++++++++++++++++++++++
Date: Fri Feb 01 17:38:37 EST 2013
User: group
Dark Spectrum Present: No
Reference Spectrum Present: No
Number of Sampled Component Spectra: 1
Spectrometers: USB2E7196
Integration Time (usec): 35000 (USB2E7196)
Spectra Averaged: 100 (USB2E7196)
Boxcar Smoothing: 10 (USB2E7196)
Correct for Electrical Dark: No (USB2E7196)
Strobe/Lamp Enabled: No (USB2E7196)
Correct for Detector Non-linearity: No (USB2E7196)
Correct for Stray Light: No (USB2E7196)
Number of Pixels in Processed Spectrum: 2048
>>>>>Begin Processed Spectral Data<<<<<
339.09	0.00
339.48	213.55
339.86	214.28
340.24	215.93
340.63	217.41
341.01	219.93
341.39	220.23
341.78	221.62
342.16	222.88
342.54	223.31
342.93	211.61
343.31	222.27
343.69	222.79
344.07	223.28
344.46	223.74
344.84	224.10
345.22	224.36
345.60	224.61
345.99	224.77
346.37	224.90
346.75	225.00
347.13	225.06
347.52	225.11
347.90	225.14
348.28	225.16
348.66	225.17
349.05	225.16
349.43	225.17
349.81	225.25
350.19	225.29
350.57	225.33
350.96	225.37
351.34	225.44
351.72	225.52
352.10	225.57
352.48	225.61
352.87	225.66
353.25	225.71
353.63	225.75
354.01	225.84
354.39	225.87
354.77	225.91
355.15	226.00
355.54	226.07
355.92	226.10
356.30	226.16
356.68	226.29
357.06	226.32
357.44	226.35
357.82	226.40
358.20	226.43
358.58	226.49
358.97	226.52
359.35	226.59
359.73	226.64
360.11	226.69
360.49	226.71
360.87	226.77
361.25	226.81
361.63	226.88
362.01	226.90
362.39	226.96
362.77	226.97
363.15	227.01
363.53	227.02
363.91	227.06
364.29	227.05
364.67	226.98
365.05	226.99
365.43	227.04
365.81	227.05
366.19	227.09
366.57	227.12
366.95	227.14
367.33	227.16
367.71	227.15
368.09	227.16
368.47	227.15
368.85	227.12
369.23	227.12
369.61	227.05
369.99	227.07
370.37	227.06
370.75	227.11
371.13	227.03
371.51	227.00
371.89	226.99
372.27	226.98
372.65	226.96
373.03	226.94
373.41	226.88
373.78	226.81
374.16	226.75
374.54	226.69
374.92	226.65
375.30	226.58
375.68	226.52
376.06	226.49
376.44	226.42
376.82	226.39
377.19	226.36
377.57	226.31
377.95	226.23
378.33	226.12
378.71	226.01
379.09	225.96
379.47	225.93
379.84	225.84
380.22	225.80
380.60	225.73
380.98	225.67
381.36	225.62
381.73	225.58
382.11	225.52
382.49	225.46
382.87	225.39
383.25	225.35
383.62	225.43
384.00	225.36
384.38	225.35
384.76	225.33
385.13	225.30
385.51	225.26
385.89	225.16
386.27	225.15
386.64	225.11
387.02	225.08
387.40	225.01
387.78	224.98
388.15	224.92
388.53	224.86
388.91	224.83
389.29	224.79
389.66	224.80
390.04	224.75
390.42	224.74
390.79	224.71
391.17	224.68
391.55	224.52
391.92	224.49
392.30	224.47
392.68	224.43
393.05	224.40
393.43	224.40
393.81	224.45
394.18	224.43
394.56	224.44
394.94	224.46
395.31	224.48
395.69	224.50
396.06	224.57
396.44	224.61
396.82	224.63
397.19	224.71
397.57	224.72
397.95	224.80
398.32	224.84
398.70	224.90
399.07	224.95
399.45	224.98
399.82	225.06
400.20	225.11
400.58	225.16
400.95	225.20
401.33	225.28
401.70	225.35
402.08	225.42
402.45	225.54
402.83	225.62
403.20	225.71
403.58	225.79
403.95	225.91
404.33	226.03
404.71	226.14
405.08	226.28
405.46	226.39
405.83	226.52
406.21	226.64
406.58	226.79
406.96	226.97
407.33	227.17
407.70	227.34
408.08	227.60
408.45	227.83
408.83	228.04
409.20	228.26
409.58	228.48
409.95	228.77
410.33	229.01
410.70	229.27
411.08	229.55
411.45	229.88
411.82	230.17
412.20	230.51
412.57	230.91
412.95	231.24
413.32	231.66
413.69	232.08
414.07	232.55
414.44	233.03
414.82	233.53
415.19	234.11
415.56	234.67
415.94	235.22
416.31	235.87
416.68	236.56
417.06	237.27
417.43	238.03
417.81	238.82
418.18	239.65
418.55	240.53
418.93	241.44
419.30	242.41
419.67	243.38
420.04	244.43
420.42	245.50
420.79	246.75
421.16	247.98
421.54	249.24
421.91	250.51
422.28	251.84
422.66	253.21
423.03	254.57
423.40	255.98
423.77	257.45
424.15	258.96
424.52	260.56
424.89	262.28
425.26	263.88
425.64	265.39
426.01	267.10
426.38	268.88
426.75	270.65
427.13	272.46
427.50	274.35
427.87	276.30
428.24	278.26
428.61	280.04
428.99	282.05
429.36	284.20
429.73	286.34
430.10	288.48
430.47	290.60
430.85	292.79
431.22	295.10
431.59	297.59
431.96	299.90
432.33	302.43
432.70	304.89
433.08	307.81
433.45	310.59
433.82	313.25
434.19	316.22
434.56	319.16
434.93	321.93
435.30	324.66
435.68	327.65
436.05	330.58
436.42	333.57
436.79	336.20
437.16	339.00
437.53	342.01
437.90	344.89
438.27	347.79
438.64	350.74
439.01	353.45
439.38	355.78
439.75	358.07
440.13	360.65
440.50	363.07
440.87	364.99
441.24	367.04
441.61	369.33
441.98	370.86
442.35	372.73
442.72	374.69
443.09	376.60
443.46	377.68
443.83	378.27
444.20	378.76
444.57	379.66
444.94	379.99
445.31	380.29
445.68	380.68
446.05	380.79
446.42	380.41
446.79	380.03
447.16	379.58
447.53	379.29
447.90	378.17
448.27	377.02
448.64	375.40
449.01	374.18
449.37	372.16
449.74	370.23
450.11	367.90
450.48	365.27
450.85	362.62
451.22	360.42
451.59	358.34
451.96	356.32
452.33	353.60
452.70	351.16
453.07	348.21
453.43	345.21
453.80	342.35
454.17	339.59
454.54	336.93
454.91	334.07
455.28	331.29
455.65	328.63
456.02	326.06
456.38	323.80
456.75	321.01
457.12	318.66
457.49	316.32
457.86	314.05
458.23	312.13
458.59	309.98
458.96	307.78
459.33	305.85
459.70	303.91
460.07	302.34
460.43	300.57
460.80	298.89
461.17	297.38
461.54	295.78
461.91	294.26
462.27	292.79
462.64	291.50
463.01	290.07
463.38	288.76
463.74	287.36
464.11	286.17
464.48	285.12
464.85	283.95
465.21	283.06
465.58	282.08
465.95	280.97
466.32	280.04
466.68	279.10
467.05	278.16
467.42	277.24
467.78	276.29
468.15	275.35
468.52	274.67
468.88	273.80
469.25	272.99
469.62	272.34
469.98	271.62
470.35	270.96
470.72	270.36
471.08	269.66
471.45	269.08
471.82	268.47
472.18	267.85
472.55	267.38
472.92	266.83
473.28	266.37
473.65	265.89
474.02	265.43
474.38	265.05
474.75	264.74
475.11	264.41
475.48	264.12
475.85	263.89
476.21	263.61
476.58	263.41
476.94	263.30
477.31	263.15
477.67	262.98
478.04	262.88
478.41	262.76
478.77	262.75
479.14	262.73
479.50	262.79
479.87	262.79
480.23	262.90
480.60	262.98
480.96	263.07
481.33	263.30
481.69	263.52
482.06	263.72
482.42	263.89
482.79	264.11
483.15	264.44
483.52	264.83
483.88	265.20
484.25	265.56
484.61	265.99
484.98	266.44
485.34	266.96
485.71	267.56
486.07	268.20
486.44	268.78
486.80	269.42
487.17	270.09
487.53	270.94
487.90	271.78
488.26	272.69
488.62	273.67
488.99	274.61
489.35	275.63
489.72	276.71
490.08	277.90
490.44	279.15
490.81	280.46
491.17	281.78
491.54	283.25
491.90	284.83
492.26	286.41
492.63	288.14
492.99	289.91
493.36	291.79
493.72	293.78
494.08	295.82
494.45	298.07
494.81	300.42
495.17	302.84
495.54	305.33
495.90	307.94
496.26	310.68
496.63	313.55
496.99	316.64
497.35	319.86
497.72	323.26
498.08	326.72
498.44	330.34
498.80	334.22
499.17	338.20
499.53	342.25
499.89	346.57
500.26	350.94
500.62	355.55
500.98	360.40
501.34	365.41
501.71	370.64
502.07	376.01
502.43	381.54
502.79	387.27
503.16	393.27
503.52	399.48
503.88	405.80
504.24	412.35
504.60	419.10
504.97	426.13
505.33	433.30
505.69	440.87
506.05	448.53
506.41	456.21
506.78	464.22
507.14	472.52
507.50	481.03
507.86	489.80
508.22	498.76
508.59	507.78
508.95	517.17
509.31	526.79
509.67	536.60
510.03	546.57
510.39	556.88
510.75	567.40
511.12	577.99
511.48	589.00
511.84	600.14
512.20	611.38
512.56	623.01
512.92	634.79
513.28	646.77
513.64	658.88
514.00	671.25
514.37	683.75
514.73	696.46
515.09	709.13
515.45	722.09
515.81	735.29
516.17	748.89
516.53	762.63
516.89	776.47
517.25	790.31
517.61	804.41
517.97	818.40
518.33	832.31
518.69	846.67
519.05	861.17
519.41	875.84
519.77	890.84
520.13	905.85
520.49	920.88
520.85	935.81
521.21	950.91
521.57	966.55
521.93	981.86
522.29	997.64
522.65	1013.38
523.01	1029.08
523.37	1044.71
523.73	1060.31
524.09	1075.76
524.45	1091.37
524.81	1107.38
525.17	1123.49
525.53	1139.65
525.89	1156.05
526.25	1172.41
526.61	1188.19
526.97	1204.43
527.33	1220.37
527.68	1236.31
528.04	1252.22
528.40	1268.20
528.76	1284.86
529.12	1301.01
529.48	1317.41
529.84	1332.96
530.20	1348.98
530.56	1365.39
530.91	1382.05
531.27	1398.30
531.63	1414.29
531.99	1430.49
532.35	1446.12
532.71	1461.58
533.07	1477.55
533.42	1493.04
533.78	1508.57
534.14	1524.30
534.50	1539.29
534.86	1554.69
535.21	1569.55
535.57	1584.99
535.93	1600.08
536.29	1614.37
536.65	1629.09
537.00	1643.40
537.36	1658.42
537.72	1672.58
538.08	1686.74
538.44	1700.38
538.79	1714.04
539.15	1727.28
539.51	1740.66
539.87	1754.45
540.22	1767.91
540.58	1781.25
540.94	1794.09
541.29	1806.64
541.65	1819.18
542.01	1832.14
542.37	1844.47
542.72	1856.56
543.08	1868.23
543.44	1880.61
543.79	1891.90
544.15	1902.76
544.51	1914.30
544.87	1924.97
545.22	1935.85
545.58	1946.01
545.94	1955.76
546.29	1965.58
546.65	1975.68
547.01	1985.14
547.36	1994.11
547.72	2002.77
548.07	2010.94
548.43	2019.32
548.79	2027.29
549.14	2035.14
549.50	2042.39
549.86	2049.85
550.21	2057.44
550.57	2064.84
550.92	2071.63
551.28	2078.77
551.64	2086.10
551.99	2092.76
552.35	2099.26
552.70	2105.59
553.06	2111.96
553.41	2118.50
553.77	2124.66
554.13	2130.93
554.48	2137.16
554.84	2143.12
555.19	2148.57
555.55	2154.15
555.90	2159.09
556.26	2164.53
556.61	2169.44
556.97	2174.41
557.32	2179.19
557.68	2183.70
558.03	2188.10
558.39	2191.96
558.74	2196.94
559.10	2201.20
559.45	2205.32
559.81	2209.82
560.16	2214.02
560.52	2217.58
560.87	2221.30
561.23	2224.40
561.58	2227.45
561.94	2230.46
562.29	2232.91
562.64	2236.27
563.00	2239.09
563.35	2242.83
563.71	2246.41
564.06	2249.85
564.42	2253.08
564.77	2255.99
565.12	2258.92
565.48	2261.56
565.83	2264.06
566.19	2265.96
566.54	2267.25
566.89	2268.81
567.25	2270.15
567.60	2271.82
567.96	2274.07
568.31	2275.63
568.66	2277.22
569.02	2278.43
569.37	2279.18
569.72	2280.60
570.08	2281.14
570.43	2281.61
570.78	2281.61
571.14	2280.52
571.49	2279.77
571.84	2279.72
572.20	2279.16
572.55	2278.28
572.90	2276.90
573.26	2276.05
573.61	2274.47
573.96	2273.21
574.31	2270.70
574.67	2267.99
575.02	2264.87
575.37	2261.72
575.72	2258.29
576.08	2255.20
576.43	2252.14
576.78	2248.95
577.13	2246.08
577.49	2243.11
577.84	2240.23
578.19	2236.88
578.54	2233.75
578.90	2230.16
579.25	2225.13
579.60	2220.56
579.95	2216.14
580.30	2211.62
580.66	2206.68
581.01	2202.29
581.36	2197.64
581.71	2193.91
582.06	2190.02
582.42	2186.08
582.77	2181.32
583.12	2177.09
583.47	2172.99
583.82	2168.60
584.17	2163.81
584.53	2158.72
584.88	2153.61
585.23	2148.07
585.58	2142.79
585.93	2137.61
586.28	2132.83
586.63	2128.15
586.98	2123.18
587.34	2118.55
587.69	2113.84
588.04	2109.05
588.39	2103.64
588.74	2097.51
589.09	2091.57
589.44	2085.06
589.79	2078.88
590.14	2073.45
590.49	2067.00
590.84	2060.69
591.19	2054.98
591.54	2048.67
591.89	2041.66
592.25	2035.21
592.60	2028.22
592.95	2021.06
593.30	2013.92
593.65	2006.54
594.00	1999.63
594.35	1992.79
594.70	1984.82
595.05	1977.93
595.40	1970.77
595.75	1963.49
596.10	1957.59
596.45	1951.28
596.80	1945.24
597.15	1938.89
597.50	1932.22
597.85	1926.03
598.19	1919.73
598.54	1912.94
598.89	1906.58
599.24	1900.76
599.59	1894.57
599.94	1888.34
600.29	1881.98
600.64	1875.49
600.99	1868.40
601.34	1861.61
601.69	1854.58
602.04	1848.11
602.39	1840.90
602.74	1834.20
603.08	1827.70
603.43	1820.93
603.78	1813.67
604.13	1806.53
604.48	1799.72
604.83	1792.94
605.18	1786.23
605.53	1778.29
605.87	1770.19
606.22	1762.82
606.57	1754.85
606.92	1747.11
607.27	1740.29
607.62	1733.65
607.96	1726.62
608.31	1720.23
608.66	1712.92
609.01	1705.61
609.36	1698.17
609.70	1690.26
610.05	1682.29
610.40	1674.53
610.75	1666.40
611.10	1658.65
611.44	1650.31
611.79	1642.05
612.14	1633.32
612.49	1624.02
612.83	1615.58
613.18	1607.45
613.53	1599.35
613.88	1590.92
614.22	1582.58
614.57	1573.71
614.92	1565.56
615.27	1558.01
615.61	1549.59
615.96	1541.44
616.31	1533.57
616.65	1526.03
617.00	1518.42
617.35	1510.59
617.70	1502.30
618.04	1493.72
618.39	1485.40
618.74	1477.73
619.08	1469.45
619.43	1461.74
619.78	1454.72
620.12	1447.60
620.47	1440.00
620.82	1431.67
621.16	1424.07
621.51	1416.33
621.85	1408.64
622.20	1400.23
622.55	1391.64
622.89	1383.64
623.24	1375.78
623.59	1368.25
623.93	1360.67
624.28	1353.31
624.62	1345.73
624.97	1338.35
625.32	1331.33
625.66	1324.11
626.01	1316.83
626.35	1309.55
626.70	1301.74
627.04	1294.04
627.39	1286.00
627.73	1278.38
628.08	1271.37
628.43	1264.11
628.77	1256.89
629.12	1249.35
629.46	1241.92
629.81	1234.29
630.15	1226.91
630.50	1219.55
630.84	1211.46
631.19	1203.36
631.53	1195.73
631.88	1188.08
632.22	1180.45
632.57	1172.97
632.91	1165.42
633.26	1157.91
633.60	1150.27
633.95	1142.86
634.29	1135.60
634.64	1128.80
634.98	1121.47
635.32	1114.38
635.67	1107.68
636.01	1100.85
636.36	1094.02
636.70	1087.45
637.05	1080.92
637.39	1074.38
637.73	1067.85
638.08	1061.83
638.42	1055.82
638.77	1049.34
639.11	1042.82
639.45	1036.31
639.80	1029.85
640.14	1023.40
640.49	1016.91
640.83	1010.52
641.17	1004.43
641.52	998.21
641.86	991.75
642.20	985.88
642.55	979.35
642.89	972.86
643.23	966.18
643.58	960.30
643.92	954.20
644.26	948.21
644.61	942.11
644.95	936.03
645.29	929.45
645.64	922.69
645.98	916.26
646.32	910.09
646.66	904.09
647.01	898.10
647.35	892.49
647.69	886.57
648.04	880.93
648.38	875.12
648.72	869.14
649.06	863.17
649.41	857.20
649.75	851.36
650.09	845.31
650.43	839.63
650.78	833.54
651.12	827.44
651.46	821.58
651.80	815.94
652.14	810.44
652.49	805.07
652.83	799.88
653.17	794.37
653.51	788.82
653.85	783.38
654.20	777.80
654.54	771.70
654.88	765.90
655.22	760.03
655.56	754.23
655.90	748.67
656.25	743.38
656.59	738.07
656.93	732.97
657.27	727.88
657.61	722.36
657.95	717.18
658.29	712.10
658.64	706.83
658.98	701.41
659.32	695.91
659.66	690.67
660.00	685.38
660.34	680.36
660.68	675.40
661.02	670.28
661.36	665.54
661.70	661.02
662.05	656.62
662.39	652.35
662.73	647.93
663.07	643.52
663.41	639.11
663.75	634.56
664.09	629.98
664.43	625.57
664.77	621.56
665.11	617.35
665.45	613.17
665.79	609.14
666.13	605.13
666.47	601.09
666.81	596.96
667.15	592.82
667.49	588.84
667.83	584.98
668.17	581.10
668.51	576.98
668.85	572.90
669.19	569.05
669.53	565.23
669.87	561.39
670.21	557.75
670.55	554.06
670.89	550.67
671.23	547.19
671.57	543.65
671.91	540.09
672.25	536.43
672.58	532.93
672.92	529.52
673.26	526.26
673.60	523.06
673.94	519.93
674.28	516.97
674.62	514.05
674.96	511.02
675.30	508.16
675.64	505.32
675.97	502.57
676.31	499.69
676.65	496.70
676.99	493.93
677.33	490.99
677.67	488.09
678.01	485.05
678.34	482.09
678.68	479.17
679.02	476.31
679.36	473.54
679.70	470.73
680.04	467.91
680.37	465.10
680.71	462.33
681.05	459.66
681.39	456.95
681.73	454.24
682.06	451.63
682.40	449.05
682.74	446.43
683.08	443.85
683.42	441.22
683.75	438.73
684.09	436.10
684.43	433.58
684.77	431.12
685.10	428.73
685.44	426.36
685.78	424.10
686.12	421.83
686.45	419.56
686.79	417.26
687.13	415.04
687.46	412.82
687.80	410.60
688.14	408.31
688.48	406.22
688.81	404.01
689.15	401.84
689.49	399.60
689.82	397.56
690.16	395.40
690.50	393.46
690.83	391.48
691.17	389.50
691.51	387.60
691.84	385.77
692.18	383.84
692.52	381.94
692.85	379.94
693.19	378.04
693.52	376.19
693.86	374.35
694.20	372.55
694.53	370.74
694.87	368.86
695.21	367.04
695.54	365.18
695.88	363.37
696.21	361.63
696.55	359.96
696.88	358.21
697.22	356.53
697.56	354.80
697.89	353.18
698.23	351.60
698.56	349.98
698.90	348.34
699.23	346.76
699.57	345.15
699.90	343.62
700.24	342.07
700.58	340.55
700.91	339.14
701.25	337.66
701.58	336.25
701.92	334.88
702.25	333.54
702.59	332.19
702.92	330.90
703.26	329.55
703.59	328.30
703.93	327.08
704.26	325.85
704.60	324.58
704.93	323.25
705.26	321.96
705.60	320.70
705.93	319.48
706.27	318.35
706.60	317.28
706.94	316.18
707.27	315.02
707.61	313.94
707.94	312.86
708.27	311.77
708.61	310.64
708.94	309.63
709.28	308.63
709.61	307.64
709.94	306.65
710.28	305.62
710.61	304.54
710.95	303.44
711.28	302.51
711.61	301.53
711.95	300.60
712.28	299.65
712.61	298.70
712.95	297.77
713.28	296.83
713.61	295.90
713.95	294.96
714.28	294.10
714.61	293.19
714.95	292.34
715.28	291.46
715.61	290.58
715.95	289.70
716.28	288.85
716.61	287.97
716.95	287.13
717.28	286.36
717.61	285.61
717.94	284.87
718.28	284.05
718.61	283.31
718.94	282.60
719.27	281.90
719.61	281.21
719.94	280.54
720.27	279.85
720.60	279.18
720.94	278.55
721.27	277.94
721.60	277.37
721.93	276.75
722.27	276.19
722.60	275.65
722.93	275.08
723.26	274.51
723.59	273.93
723.93	273.37
724.26	272.82
724.59	272.26
724.92	271.72
725.25	271.20
725.59	270.66
725.92	270.14
726.25	269.64
726.58	269.16
726.91	268.65
727.24	268.17
727.57	267.66
727.91	267.16
728.24	266.64
728.57	266.12
728.90	265.64
729.23	265.08
729.56	264.64
729.89	264.09
730.22	263.58
730.55	263.10
730.89	262.64
731.22	262.18
731.55	261.73
731.88	261.30
732.21	260.84
732.54	260.41
732.87	259.99
733.20	259.57
733.53	259.19
733.86	258.80
734.19	258.37
734.52	257.98
734.85	257.64
735.18	257.28
735.51	256.92
735.84	256.53
736.17	256.20
736.50	255.78
736.83	255.60
737.16	255.25
737.49	254.90
737.82	254.53
738.15	254.20
738.48	253.85
738.81	253.51
739.14	253.20
739.47	252.89
739.80	252.58
740.13	252.25
740.46	251.89
740.79	251.58
741.12	251.27
741.45	250.97
741.78	250.63
742.11	250.34
742.44	250.00
742.77	249.67
743.10	249.40
743.43	249.08
743.75	248.66
744.08	248.54
744.41	248.30
744.74	248.07
745.07	247.76
745.40	247.54
745.73	247.31
746.06	247.02
746.39	246.73
746.71	246.43
747.04	246.16
747.37	245.90
747.70	245.66
748.03	245.42
748.36	245.18
748.68	244.93
749.01	244.64
749.34	244.44
749.67	244.22
750.00	243.99
750.33	243.85
750.65	243.64
750.98	243.25
751.31	242.98
751.64	242.76
751.97	242.59
752.29	242.35
752.62	242.07
752.95	241.84
753.28	241.64
753.60	241.43
753.93	241.24
754.26	241.03
754.59	240.78
754.91	240.57
755.24	240.35
755.57	240.16
755.90	239.97
756.22	239.77
756.55	239.60
756.88	239.40
757.20	239.17
757.53	238.97
757.86	238.82
758.19	238.70
758.51	238.52
758.84	238.33
759.17	238.16
759.49	238.02
759.82	237.91
760.15	237.74
760.47	237.61
760.80	237.42
761.13	237.29
761.45	237.15
761.78	236.98
762.11	236.86
762.43	236.70
762.76	236.55
763.08	236.44
763.41	236.32
763.74	236.12
764.06	236.00
764.39	235.87
764.71	235.74
765.04	235.60
765.37	235.46
765.69	235.31
766.02	235.18
766.34	235.03
766.67	234.87
767.00	234.82
767.32	234.74
767.65	234.69
767.97	234.57
768.30	234.46
768.62	234.36
768.95	234.19
769.27	234.07
769.60	233.95
769.92	233.82
770.25	233.69
770.57	233.59
770.90	233.46
771.22	233.33
771.55	233.22
771.87	233.11
772.20	233.03
772.52	233.01
772.85	233.04
773.17	232.99
773.50	232.92
773.82	232.78
774.15	232.67
774.47	232.50
774.80	232.40
775.12	232.30
775.45	232.22
775.77	232.18
776.09	232.10
776.42	232.02
776.74	231.94
777.07	231.87
777.39	231.81
777.72	231.73
778.04	231.70
778.36	231.65
778.69	231.57
779.01	231.49
779.33	231.34
779.66	231.16
779.98	231.05
780.31	230.98
780.63	230.96
780.95	230.88
781.28	230.86
781.60	230.79
781.92	230.75
782.25	230.71
782.57	230.70
782.89	230.61
783.22	230.58
783.54	230.50
783.86	230.46
784.19	230.38
784.51	230.37
784.83	230.28
785.16	230.22
785.48	230.21
785.80	230.18
786.12	230.14
786.45	230.07
786.77	230.01
787.09	229.95
