SpectraSuite Data File
++++++++++++++++++++++++++++++++++++
Date: Fri Feb 01 18:12:57 EST 2013
User: group
Dark Spectrum Present: No
Reference Spectrum Present: No
Number of Sampled Component Spectra: 1
Spectrometers: USB2E7196
Integration Time (usec): 35000 (USB2E7196)
Spectra Averaged: 100 (USB2E7196)
Boxcar Smoothing: 10 (USB2E7196)
Correct for Electrical Dark: No (USB2E7196)
Strobe/Lamp Enabled: No (USB2E7196)
Correct for Detector Non-linearity: No (USB2E7196)
Correct for Stray Light: No (USB2E7196)
Number of Pixels in Processed Spectrum: 2048
>>>>>Begin Processed Spectral Data<<<<<
339.09	0.00
339.48	213.20
339.86	214.18
340.24	215.95
340.63	217.10
341.01	220.06
341.39	220.08
341.78	220.24
342.16	221.61
342.54	223.12
342.93	211.30
343.31	221.97
343.69	222.51
344.07	223.00
344.46	223.42
344.84	223.81
345.22	224.05
345.60	224.31
345.99	224.57
346.37	224.73
346.75	224.83
347.13	224.92
347.52	224.97
347.90	225.08
348.28	225.11
348.66	225.16
349.05	225.13
349.43	225.19
349.81	225.24
350.19	225.31
350.57	225.39
350.96	225.48
351.34	225.59
351.72	225.68
352.10	225.78
352.48	225.86
352.87	225.93
353.25	226.02
353.63	226.08
354.01	226.14
354.39	226.21
354.77	226.29
355.15	226.39
355.54	226.46
355.92	226.48
356.30	226.58
356.68	226.74
357.06	226.85
357.44	226.90
357.82	226.97
358.20	227.06
358.58	227.13
358.97	227.19
359.35	227.26
359.73	227.33
360.11	227.37
360.49	227.43
360.87	227.50
361.25	227.55
361.63	227.62
362.01	227.68
362.39	227.72
362.77	227.76
363.15	227.78
363.53	227.85
363.91	227.90
364.29	227.93
364.67	227.85
365.05	227.86
365.43	227.92
365.81	227.93
366.19	227.95
366.57	227.98
366.95	227.98
367.33	227.93
367.71	227.94
368.09	227.96
368.47	227.92
368.85	227.87
369.23	227.88
369.61	227.85
369.99	227.86
370.37	227.87
370.75	227.90
371.13	227.86
371.51	227.80
371.89	227.79
372.27	227.72
372.65	227.66
373.03	227.62
373.41	227.55
373.78	227.51
374.16	227.42
374.54	227.34
374.92	227.26
375.30	227.24
375.68	227.17
376.06	227.09
376.44	227.06
376.82	227.02
377.19	226.92
377.57	226.82
377.95	226.73
378.33	226.64
378.71	226.50
379.09	226.46
379.47	226.37
379.84	226.27
380.22	226.26
380.60	226.18
380.98	226.09
381.36	226.02
381.73	225.95
382.11	225.91
382.49	225.84
382.87	225.79
383.25	225.73
383.62	225.81
384.00	225.74
384.38	225.70
384.76	225.68
385.13	225.69
385.51	225.66
385.89	225.59
386.27	225.55
386.64	225.52
387.02	225.46
387.40	225.42
387.78	225.39
388.15	225.35
388.53	225.32
388.91	225.31
389.29	225.29
389.66	225.26
390.04	225.21
390.42	225.20
390.79	225.20
391.17	225.19
391.55	225.03
391.92	225.04
392.30	225.06
392.68	225.02
393.05	224.99
393.43	224.99
393.81	225.00
394.18	224.99
394.56	224.97
394.94	225.02
395.31	225.05
395.69	225.12
396.06	225.17
396.44	225.21
396.82	225.22
397.19	225.32
397.57	225.35
397.95	225.43
398.32	225.46
398.70	225.51
399.07	225.57
399.45	225.64
399.82	225.69
400.20	225.74
400.58	225.80
400.95	225.86
401.33	225.97
401.70	226.09
402.08	226.22
402.45	226.37
402.83	226.49
403.20	226.61
403.58	226.72
403.95	226.83
404.33	226.97
404.71	227.12
405.08	227.30
405.46	227.48
405.83	227.64
406.21	227.81
406.58	227.99
406.96	228.17
407.33	228.40
407.70	228.67
408.08	228.98
408.45	229.26
408.83	229.53
409.20	229.80
409.58	230.10
409.95	230.43
410.33	230.76
410.70	231.07
411.08	231.44
411.45	231.83
411.82	232.22
412.20	232.66
412.57	233.19
412.95	233.61
413.32	234.14
413.69	234.71
414.07	235.30
414.44	236.00
414.82	236.67
415.19	237.43
415.56	238.15
415.94	238.91
416.31	239.76
416.68	240.66
417.06	241.65
417.43	242.58
417.81	243.63
418.18	244.71
418.55	245.88
418.93	247.12
419.30	248.36
419.67	249.70
420.04	251.07
420.42	252.49
420.79	254.13
421.16	255.71
421.54	257.37
421.91	259.08
422.28	260.83
422.66	262.68
423.03	264.47
423.40	266.39
423.77	268.35
424.15	270.37
424.52	272.44
424.89	274.69
425.26	276.84
425.64	278.91
426.01	281.18
426.38	283.50
426.75	285.83
427.13	288.27
427.50	290.80
427.87	293.45
428.24	296.06
428.61	298.53
428.99	301.25
429.36	304.20
429.73	307.09
430.10	309.94
430.47	312.82
430.85	315.84
431.22	319.02
431.59	322.38
431.96	325.54
432.33	329.06
432.70	332.39
433.08	336.38
433.45	340.05
433.82	343.70
434.19	347.79
434.56	351.74
434.93	355.49
435.30	359.18
435.68	363.25
436.05	367.26
436.42	371.20
436.79	374.77
437.16	378.58
437.53	382.63
437.90	386.61
438.27	390.50
438.64	394.46
439.01	398.02
439.38	401.21
439.75	404.26
440.13	407.76
440.50	411.05
440.87	413.66
441.24	416.39
441.61	419.40
441.98	421.52
442.35	424.12
442.72	426.70
443.09	429.24
443.46	430.68
443.83	431.48
444.20	432.23
444.57	433.44
444.94	433.87
445.31	434.34
445.68	434.77
446.05	434.91
446.42	434.42
446.79	433.87
447.16	433.25
447.53	432.84
447.90	431.21
448.27	429.56
448.64	427.30
449.01	425.72
449.37	422.92
449.74	420.25
450.11	417.00
450.48	413.55
450.85	409.99
451.22	406.94
451.59	404.12
451.96	401.38
452.33	397.67
452.70	394.37
453.07	390.38
453.43	386.31
453.80	382.34
454.17	378.54
454.54	374.90
454.91	371.06
455.28	367.29
455.65	363.78
456.02	360.28
456.38	357.27
456.75	353.53
457.12	350.40
457.49	347.23
457.86	344.21
458.23	341.55
458.59	338.65
458.96	335.71
459.33	333.06
459.70	330.39
460.07	328.27
460.43	325.78
460.80	323.49
461.17	321.44
461.54	319.34
461.91	317.33
462.27	315.30
462.64	313.52
463.01	311.57
463.38	309.67
463.74	307.77
464.11	306.11
464.48	304.64
464.85	303.05
465.21	301.84
465.58	300.50
465.95	298.94
466.32	297.63
466.68	296.32
467.05	295.02
467.42	293.75
467.78	292.40
468.15	291.17
468.52	290.20
468.88	289.00
469.25	287.89
469.62	286.98
469.98	286.00
470.35	285.10
470.72	284.22
471.08	283.31
471.45	282.59
471.82	281.79
472.18	280.94
472.55	280.33
472.92	279.57
473.28	278.93
473.65	278.31
474.02	277.71
474.38	277.18
474.75	276.69
475.11	276.18
475.48	275.80
475.85	275.45
476.21	275.02
476.58	274.72
476.94	274.46
477.31	274.14
477.67	273.88
478.04	273.65
478.41	273.53
478.77	273.48
479.14	273.25
479.50	273.21
479.87	273.21
480.23	273.19
480.60	273.15
480.96	273.17
481.33	273.32
481.69	273.49
482.06	273.65
482.42	273.83
482.79	274.04
483.15	274.31
483.52	274.65
483.88	275.00
484.25	275.41
484.61	275.82
484.98	276.26
485.34	276.78
485.71	277.38
486.07	277.97
486.44	278.54
486.80	279.30
487.17	280.04
487.53	280.84
487.90	281.72
488.26	282.71
488.62	283.70
488.99	284.73
489.35	285.77
489.72	286.93
490.08	288.15
490.44	289.42
490.81	290.84
491.17	292.24
491.54	293.83
491.90	295.41
492.26	297.15
492.63	298.98
492.99	300.91
493.36	302.92
493.72	305.12
494.08	307.38
494.45	309.79
494.81	312.30
495.17	314.89
495.54	317.63
495.90	320.52
496.26	323.52
496.63	326.68
496.99	330.01
497.35	333.48
497.72	337.14
498.08	340.95
498.44	344.87
498.80	349.10
499.17	353.43
499.53	357.84
499.89	362.57
500.26	367.43
500.62	372.44
500.98	377.75
501.34	383.15
501.71	388.89
502.07	394.69
502.43	400.77
502.79	407.07
503.16	413.61
503.52	420.29
503.88	427.19
504.24	434.31
504.60	441.70
504.97	449.39
505.33	457.27
505.69	465.55
506.05	473.93
506.41	482.42
506.78	491.19
507.14	500.38
507.50	509.74
507.86	519.50
508.22	529.42
508.59	539.36
508.95	549.73
509.31	560.30
509.67	571.27
510.03	582.37
510.39	593.76
510.75	605.49
511.12	617.36
511.48	629.61
511.84	642.04
512.20	654.54
512.56	667.46
512.92	680.65
513.28	694.12
513.64	707.70
514.00	721.57
514.37	735.72
514.73	750.04
515.09	764.25
515.45	778.73
515.81	793.65
516.17	809.01
516.53	824.51
516.89	840.10
517.25	855.71
517.61	871.63
517.97	887.56
518.33	903.40
518.69	919.72
519.05	936.23
519.41	952.97
519.77	970.22
520.13	987.33
520.49	1004.47
520.85	1021.61
521.21	1039.07
521.57	1057.12
521.93	1074.62
522.29	1092.75
522.65	1110.99
523.01	1129.02
523.37	1146.87
523.73	1164.95
524.09	1182.99
524.45	1201.18
524.81	1219.76
525.17	1238.38
525.53	1257.23
525.89	1276.29
526.25	1295.23
526.61	1313.76
526.97	1332.62
527.33	1351.21
527.68	1369.94
528.04	1388.59
528.40	1407.25
528.76	1426.63
529.12	1445.52
529.48	1464.82
529.84	1483.12
530.20	1502.06
530.56	1521.39
530.91	1541.26
531.27	1560.33
531.63	1579.15
531.99	1598.14
532.35	1616.55
532.71	1634.99
533.07	1653.98
533.42	1672.26
533.78	1690.91
534.14	1709.72
534.50	1727.60
534.86	1745.97
535.21	1763.75
535.57	1782.16
535.93	1800.19
536.29	1817.46
536.65	1835.06
537.00	1852.20
537.36	1870.14
537.72	1887.09
538.08	1904.27
538.44	1920.60
538.79	1937.13
539.15	1953.31
539.51	1969.60
539.87	1986.65
540.22	2002.97
540.58	2019.23
540.94	2035.16
541.29	2050.58
541.65	2065.90
542.01	2081.88
542.37	2096.78
542.72	2111.78
543.08	2126.32
543.44	2141.48
543.79	2155.34
544.15	2168.75
544.51	2183.09
544.87	2196.57
545.22	2210.02
545.58	2222.73
545.94	2234.96
546.29	2247.24
546.65	2259.71
547.01	2271.61
547.36	2282.64
547.72	2293.56
548.07	2303.70
548.43	2314.13
548.79	2324.36
549.14	2334.28
549.50	2343.72
549.86	2353.74
550.21	2363.30
550.57	2372.61
550.92	2381.42
551.28	2390.63
551.64	2399.89
551.99	2408.48
552.35	2416.80
552.70	2425.10
553.06	2433.28
553.41	2441.77
553.77	2450.03
554.13	2458.17
554.48	2466.37
554.84	2474.07
555.19	2481.41
555.55	2488.67
555.90	2495.24
556.26	2502.21
556.61	2508.67
556.97	2514.91
557.32	2520.82
557.68	2526.90
558.03	2533.08
558.39	2538.42
558.74	2544.97
559.10	2550.79
559.45	2556.14
559.81	2562.02
560.16	2567.62
560.52	2572.45
560.87	2577.52
561.23	2581.45
561.58	2585.83
561.94	2589.78
562.29	2593.34
562.64	2597.55
563.00	2601.42
563.35	2606.52
563.71	2611.11
564.06	2615.86
564.42	2620.33
564.77	2624.43
565.12	2628.06
565.48	2631.18
565.83	2634.43
566.19	2636.95
566.54	2639.07
566.89	2641.42
567.25	2643.30
567.60	2645.67
567.96	2648.60
568.31	2650.56
568.66	2652.95
569.02	2654.63
569.37	2656.09
569.72	2658.28
570.08	2659.30
570.43	2660.41
570.78	2660.58
571.14	2659.49
571.49	2658.71
571.84	2659.02
572.20	2658.43
572.55	2658.06
572.90	2656.87
573.26	2656.03
573.61	2654.73
573.96	2653.48
574.31	2650.69
574.67	2647.96
575.02	2644.48
575.37	2641.11
575.72	2637.25
576.08	2633.97
576.43	2630.58
576.78	2626.87
577.13	2623.49
577.49	2620.26
577.84	2616.63
578.19	2612.72
578.54	2609.30
578.90	2605.04
579.25	2599.13
579.60	2593.87
579.95	2588.46
580.30	2583.33
580.66	2577.66
581.01	2572.27
581.36	2566.62
581.71	2562.29
582.06	2557.54
582.42	2552.89
582.77	2547.26
583.12	2542.54
583.47	2537.47
583.82	2532.17
584.17	2526.47
584.53	2520.40
584.88	2514.42
585.23	2508.07
585.58	2502.05
585.93	2495.84
586.28	2490.36
586.63	2484.71
586.98	2479.05
587.34	2473.89
587.69	2468.39
588.04	2462.49
588.39	2456.06
588.74	2448.76
589.09	2441.72
589.44	2433.93
589.79	2426.73
590.14	2420.22
590.49	2412.57
590.84	2405.24
591.19	2398.32
591.54	2390.73
591.89	2382.39
592.25	2374.57
592.60	2366.27
592.95	2357.61
593.30	2349.15
593.65	2340.36
594.00	2332.00
594.35	2323.61
594.70	2313.99
595.05	2305.72
595.40	2297.28
595.75	2288.55
596.10	2281.54
596.45	2273.72
596.80	2266.51
597.15	2259.05
597.50	2250.91
597.85	2243.27
598.19	2235.64
598.54	2227.40
598.89	2219.65
599.24	2212.62
599.59	2204.71
599.94	2197.43
600.29	2189.87
600.64	2182.03
600.99	2173.38
601.34	2165.51
601.69	2157.17
602.04	2149.29
602.39	2140.62
602.74	2132.54
603.08	2124.54
603.43	2116.33
603.78	2107.52
604.13	2098.95
604.48	2090.13
604.83	2081.81
605.18	2073.65
605.53	2064.07
605.87	2054.39
606.22	2045.74
606.57	2036.22
606.92	2027.34
607.27	2018.80
607.62	2010.51
607.96	2001.93
608.31	1994.06
608.66	1985.02
609.01	1976.01
609.36	1966.85
609.70	1957.17
610.05	1947.65
610.40	1938.50
610.75	1928.57
611.10	1919.51
611.44	1909.37
611.79	1899.81
612.14	1889.49
612.49	1878.36
612.83	1868.21
613.18	1858.58
613.53	1848.72
613.88	1838.55
614.22	1828.62
614.57	1818.20
614.92	1808.55
615.27	1799.50
615.61	1789.57
615.96	1779.81
616.31	1770.52
616.65	1761.76
617.00	1752.71
617.35	1743.39
617.70	1733.44
618.04	1723.21
618.39	1713.28
618.74	1704.13
619.08	1694.17
619.43	1685.01
619.78	1676.68
620.12	1668.15
620.47	1659.10
620.82	1649.42
621.16	1640.30
621.51	1631.16
621.85	1621.77
622.20	1611.58
622.55	1601.47
622.89	1591.96
623.24	1582.66
623.59	1573.80
623.93	1564.63
624.28	1555.85
624.62	1546.76
624.97	1538.04
625.32	1529.86
625.66	1521.37
626.01	1512.87
626.35	1504.01
626.70	1494.70
627.04	1485.55
627.39	1476.05
627.73	1467.14
628.08	1458.73
628.43	1450.15
628.77	1441.30
629.12	1432.38
629.46	1423.78
629.81	1414.66
630.15	1405.97
630.50	1397.10
630.84	1387.24
631.19	1377.65
631.53	1368.53
631.88	1359.48
632.22	1350.42
632.57	1341.63
632.91	1332.68
633.26	1323.73
633.60	1314.76
633.95	1306.15
634.29	1297.56
634.64	1289.53
634.98	1280.65
635.32	1272.12
635.67	1264.09
636.01	1256.07
636.36	1247.93
636.70	1239.96
637.05	1232.21
637.39	1224.42
637.73	1216.65
638.08	1209.53
638.42	1202.35
638.77	1194.61
639.11	1186.79
639.45	1179.07
639.80	1171.11
640.14	1163.33
640.49	1155.52
640.83	1147.98
641.17	1140.63
641.52	1133.10
641.86	1125.30
642.20	1118.22
642.55	1110.58
642.89	1102.86
643.23	1095.02
643.58	1088.15
643.92	1080.83
644.26	1073.59
644.61	1066.33
644.95	1059.15
645.29	1051.34
645.64	1043.34
645.98	1035.83
646.32	1028.69
646.66	1021.58
647.01	1014.79
647.35	1008.11
647.69	1001.12
648.04	994.58
648.38	987.70
648.72	980.66
649.06	973.60
649.41	966.65
649.75	959.72
650.09	952.64
650.43	945.86
650.78	938.50
651.12	931.39
651.46	924.58
651.80	917.90
652.14	911.52
652.49	905.28
652.83	899.22
653.17	892.58
653.51	885.91
653.85	879.51
654.20	872.83
654.54	865.65
654.88	858.83
655.22	851.81
655.56	845.07
655.90	838.59
656.25	832.40
656.59	826.09
656.93	820.01
657.27	813.99
657.61	807.60
657.95	801.64
658.29	795.69
658.64	789.50
658.98	783.17
659.32	776.70
659.66	770.54
660.00	764.31
660.34	758.40
660.68	752.64
661.02	746.66
661.36	741.08
661.70	735.76
662.05	730.62
662.39	725.59
662.73	720.30
663.07	715.10
663.41	709.81
663.75	704.45
664.09	699.06
664.43	693.87
664.77	688.99
665.11	683.95
665.45	679.04
665.79	674.24
666.13	669.41
666.47	664.60
666.81	659.71
667.15	654.80
667.49	650.23
667.83	645.63
668.17	640.99
668.51	636.20
668.85	631.43
669.19	626.89
669.53	622.33
669.87	617.77
670.21	613.40
670.55	609.11
670.89	605.10
671.23	601.13
671.57	596.92
671.91	592.76
672.25	588.63
672.58	584.51
672.92	580.42
673.26	576.63
673.60	572.89
673.94	569.20
674.28	565.76
674.62	562.32
674.96	558.74
675.30	555.33
675.64	551.86
675.97	548.60
676.31	545.18
676.65	541.69
676.99	538.50
677.33	535.11
677.67	531.80
678.01	528.20
678.34	524.69
678.68	521.32
679.02	517.98
679.36	514.71
679.70	511.47
680.04	508.29
680.37	504.93
680.71	501.58
681.05	498.51
681.39	495.28
681.73	492.15
682.06	489.15
682.40	486.13
682.74	483.18
683.08	480.19
683.42	477.14
683.75	474.21
684.09	471.14
684.43	468.25
684.77	465.35
685.10	462.58
685.44	459.79
685.78	457.11
686.12	454.48
686.45	451.78
686.79	449.06
687.13	446.42
687.46	443.83
687.80	441.33
688.14	438.65
688.48	436.24
688.81	433.50
689.15	430.94
689.49	428.44
689.82	425.94
690.16	423.45
690.50	421.15
690.83	418.83
691.17	416.51
691.51	414.22
691.84	412.04
692.18	409.81
692.52	407.52
692.85	405.17
693.19	402.91
693.52	400.73
693.86	398.58
694.20	396.51
694.53	394.41
694.87	392.21
695.21	390.12
695.54	387.97
695.88	385.98
696.21	383.93
696.55	381.91
696.88	379.94
697.22	377.99
697.56	376.08
697.89	374.15
698.23	372.26
698.56	370.40
698.90	368.49
699.23	366.52
699.57	364.68
699.90	362.91
700.24	361.09
700.58	359.31
700.91	357.58
701.25	355.89
701.58	354.24
701.92	352.63
702.25	351.03
702.59	349.40
702.92	347.84
703.26	346.30
703.59	344.79
703.93	343.38
704.26	341.92
704.60	340.40
704.93	338.96
705.26	337.49
705.60	336.09
705.93	334.75
706.27	333.58
706.60	332.35
706.94	331.09
707.27	329.74
707.61	328.50
707.94	327.24
708.27	325.91
708.61	324.60
708.94	323.42
709.28	322.22
709.61	321.08
709.94	319.95
710.28	318.74
710.61	317.56
710.95	316.29
711.28	315.18
711.61	314.07
711.95	312.94
712.28	311.80
712.61	310.62
712.95	309.50
713.28	308.40
713.61	307.30
713.95	306.26
714.28	305.29
714.61	304.25
714.95	303.34
715.28	302.35
715.61	301.33
715.95	300.32
716.28	299.33
716.61	298.33
716.95	297.32
717.28	296.45
717.61	295.56
717.94	294.69
718.28	293.75
718.61	292.86
718.94	292.04
719.27	291.29
719.61	290.57
719.94	289.79
720.27	288.94
720.60	288.16
720.94	287.40
721.27	286.66
721.60	285.98
721.93	285.20
722.27	284.53
722.60	283.93
722.93	283.28
723.26	282.65
723.59	282.02
723.93	281.38
724.26	280.72
724.59	280.04
724.92	279.38
725.25	278.80
725.59	278.18
725.92	277.54
726.25	276.92
726.58	276.30
726.91	275.70
727.24	275.13
727.57	274.56
727.91	273.94
728.24	273.42
728.57	272.81
728.90	272.26
729.23	271.69
729.56	271.16
729.89	270.57
730.22	269.99
730.55	269.41
730.89	268.87
731.22	268.34
731.55	267.83
731.88	267.34
732.21	266.83
732.54	266.29
732.87	265.82
733.20	265.36
733.53	264.89
733.86	264.44
734.19	263.98
734.52	263.56
734.85	263.22
735.18	262.73
735.51	262.30
735.84	261.85
736.17	261.42
736.50	260.94
736.83	260.63
737.16	260.21
737.49	259.76
737.82	259.34
738.15	258.99
738.48	258.59
738.81	258.21
739.14	257.83
739.47	257.47
739.80	257.09
740.13	256.71
740.46	256.32
740.79	255.96
741.12	255.58
741.45	255.18
741.78	254.74
742.11	254.37
742.44	254.00
742.77	253.68
743.10	253.32
743.43	252.96
743.75	252.56
744.08	252.37
744.41	252.13
744.74	251.81
745.07	251.45
745.40	251.20
745.73	250.94
746.06	250.59
746.39	250.31
746.71	250.02
747.04	249.71
747.37	249.41
747.70	249.12
748.03	248.84
748.36	248.56
748.68	248.29
749.01	248.01
749.34	247.76
749.67	247.49
750.00	247.27
750.33	247.09
750.65	246.81
750.98	246.43
751.31	246.15
751.64	245.93
751.97	245.73
752.29	245.44
752.62	245.16
752.95	244.92
753.28	244.65
753.60	244.37
753.93	244.11
754.26	243.90
754.59	243.62
754.91	243.40
755.24	243.18
755.57	242.94
755.90	242.72
756.22	242.47
756.55	242.23
756.88	241.96
757.20	241.69
757.53	241.47
757.86	241.28
758.19	241.06
758.51	240.83
758.84	240.60
759.17	240.38
759.49	240.17
759.82	240.04
760.15	239.87
760.47	239.70
760.80	239.54
761.13	239.35
761.45	239.20
761.78	239.01
762.11	238.84
762.43	238.66
762.76	238.50
763.08	238.40
763.41	238.26
763.74	238.09
764.06	237.91
764.39	237.73
764.71	237.59
765.04	237.44
765.37	237.30
765.69	237.14
766.02	237.00
766.34	236.81
766.67	236.62
767.00	236.50
767.32	236.42
767.65	236.33
767.97	236.20
768.30	236.03
768.62	235.87
768.95	235.73
769.27	235.63
769.60	235.49
769.92	235.29
770.25	235.15
770.57	235.06
770.90	234.91
771.22	234.78
771.55	234.68
771.87	234.58
772.20	234.44
772.52	234.42
772.85	234.42
773.17	234.34
773.50	234.23
773.82	234.12
774.15	233.97
774.47	233.85
774.80	233.72
775.12	233.62
775.45	233.55
775.77	233.43
776.09	233.35
776.42	233.26
776.74	233.21
777.07	233.12
777.39	233.02
777.72	232.97
778.04	232.92
778.36	232.82
778.69	232.74
779.01	232.70
779.33	232.54
779.66	232.37
779.98	232.30
780.31	232.26
780.63	232.20
780.95	232.15
781.28	232.08
781.60	231.97
781.92	231.94
782.25	231.87
782.57	231.82
782.89	231.72
783.22	231.67
783.54	231.60
783.86	231.56
784.19	231.49
784.51	231.42
784.83	231.36
785.16	231.28
785.48	231.18
785.80	231.10
786.12	231.02
786.45	230.95
