SpectraSuite Data File
++++++++++++++++++++++++++++++++++++
Date: Fri Feb 01 16:27:40 EST 2013
User: group
Dark Spectrum Present: No
Reference Spectrum Present: No
Number of Sampled Component Spectra: 1
Spectrometers: USB2E7196
Integration Time (usec): 35000 (USB2E7196)
Spectra Averaged: 100 (USB2E7196)
Boxcar Smoothing: 10 (USB2E7196)
Correct for Electrical Dark: No (USB2E7196)
Strobe/Lamp Enabled: No (USB2E7196)
Correct for Detector Non-linearity: No (USB2E7196)
Correct for Stray Light: No (USB2E7196)
Number of Pixels in Processed Spectrum: 2048
>>>>>Begin Processed Spectral Data<<<<<
339.09	0.00
339.48	214.19
339.86	215.64
340.24	217.10
340.63	218.99
341.01	221.65
341.39	221.55
341.78	222.48
342.16	223.63
342.54	223.79
342.93	212.67
343.31	223.41
343.69	223.96
344.07	224.43
344.46	224.82
344.84	225.19
345.22	225.43
345.60	225.63
345.99	225.83
346.37	225.94
346.75	226.07
347.13	226.14
347.52	226.23
347.90	226.28
348.28	226.32
348.66	226.36
349.05	226.32
349.43	226.42
349.81	226.48
350.19	226.53
350.57	226.53
350.96	226.63
351.34	226.72
351.72	226.80
352.10	226.91
352.48	227.01
352.87	227.04
353.25	227.08
353.63	227.19
354.01	227.21
354.39	227.31
354.77	227.39
355.15	227.49
355.54	227.55
355.92	227.56
356.30	227.61
356.68	227.73
357.06	227.82
357.44	227.82
357.82	227.85
358.20	227.92
358.58	228.01
358.97	228.06
359.35	228.07
359.73	228.10
360.11	228.12
360.49	228.14
360.87	228.17
361.25	228.23
361.63	228.27
362.01	228.33
362.39	228.34
362.77	228.35
363.15	228.34
363.53	228.33
363.91	228.36
364.29	228.39
364.67	228.30
365.05	228.27
365.43	228.28
365.81	228.29
366.19	228.33
366.57	228.34
366.95	228.28
367.33	228.30
367.71	228.27
368.09	228.28
368.47	228.29
368.85	228.27
369.23	228.26
369.61	228.18
369.99	228.18
370.37	228.14
370.75	228.15
371.13	228.07
371.51	228.06
371.89	228.01
372.27	227.96
372.65	227.93
373.03	227.90
373.41	227.87
373.78	227.80
374.16	227.69
374.54	227.59
374.92	227.56
375.30	227.52
375.68	227.46
376.06	227.39
376.44	227.34
376.82	227.27
377.19	227.22
377.57	227.13
377.95	227.03
378.33	226.97
378.71	226.84
379.09	226.82
379.47	226.73
379.84	226.67
380.22	226.60
380.60	226.49
380.98	226.40
381.36	226.30
381.73	226.26
382.11	226.24
382.49	226.21
382.87	226.14
383.25	226.07
383.62	226.16
384.00	226.10
384.38	226.01
384.76	225.97
385.13	225.96
385.51	225.96
385.89	225.89
386.27	225.86
386.64	225.86
387.02	225.82
387.40	225.80
387.78	225.76
388.15	225.73
388.53	225.73
388.91	225.70
389.29	225.67
389.66	225.66
390.04	225.59
390.42	225.62
390.79	225.59
391.17	225.55
391.55	225.42
391.92	225.39
392.30	225.42
392.68	225.43
393.05	225.39
393.43	225.37
393.81	225.41
394.18	225.40
394.56	225.40
394.94	225.42
395.31	225.43
395.69	225.50
396.06	225.54
396.44	225.56
396.82	225.63
397.19	225.76
397.57	225.77
397.95	225.87
398.32	225.86
398.70	225.93
399.07	226.00
399.45	226.04
399.82	226.13
400.20	226.17
400.58	226.21
400.95	226.24
401.33	226.36
401.70	226.49
402.08	226.58
402.45	226.65
402.83	226.75
403.20	226.84
403.58	226.91
403.95	227.06
404.33	227.16
404.71	227.26
405.08	227.39
405.46	227.52
405.83	227.65
406.21	227.76
406.58	227.91
406.96	228.08
407.33	228.25
407.70	228.45
408.08	228.71
408.45	228.92
408.83	229.15
409.20	229.35
409.58	229.51
409.95	229.80
410.33	230.06
410.70	230.31
411.08	230.61
411.45	230.93
411.82	231.18
412.20	231.54
412.57	231.95
412.95	232.21
413.32	232.63
413.69	232.98
414.07	233.44
414.44	233.89
414.82	234.36
415.19	234.89
415.56	235.39
415.94	235.96
416.31	236.60
416.68	237.20
417.06	237.89
417.43	238.59
417.81	239.34
418.18	240.10
418.55	240.95
418.93	241.80
419.30	242.68
419.67	243.62
420.04	244.58
420.42	245.56
420.79	246.79
421.16	247.92
421.54	249.12
421.91	250.37
422.28	251.65
422.66	252.95
423.03	254.31
423.40	255.65
423.77	257.06
424.15	258.48
424.52	260.00
424.89	261.66
425.26	263.22
425.64	264.63
426.01	266.26
426.38	267.89
426.75	269.54
427.13	271.25
427.50	273.07
427.87	274.92
428.24	276.75
428.61	278.50
428.99	280.46
429.36	282.59
429.73	284.62
430.10	286.63
430.47	288.67
430.85	290.75
431.22	293.00
431.59	295.36
431.96	297.58
432.33	300.05
432.70	302.37
433.08	305.12
433.45	307.74
433.82	310.30
434.19	313.19
434.56	315.98
434.93	318.65
435.30	321.28
435.68	324.18
436.05	327.02
436.42	329.77
436.79	332.23
437.16	334.87
437.53	337.64
437.90	340.47
438.27	343.21
438.64	345.97
439.01	348.56
439.38	350.79
439.75	352.95
440.13	355.44
440.50	357.77
440.87	359.65
441.24	361.64
441.61	363.76
441.98	365.28
442.35	367.10
442.72	368.96
443.09	370.67
443.46	371.67
443.83	372.25
444.20	372.78
444.57	373.61
444.94	373.92
445.31	374.28
445.68	374.64
446.05	374.71
446.42	374.39
446.79	373.93
447.16	373.46
447.53	373.18
447.90	372.02
448.27	370.90
448.64	369.32
449.01	368.18
449.37	366.30
449.74	364.40
450.11	362.15
450.48	359.66
450.85	357.22
451.22	355.05
451.59	353.08
451.96	351.15
452.33	348.61
452.70	346.28
453.07	343.44
453.43	340.52
453.80	337.77
454.17	335.11
454.54	332.64
454.91	329.94
455.28	327.27
455.65	324.80
456.02	322.33
456.38	320.18
456.75	317.52
457.12	315.27
457.49	313.08
457.86	310.92
458.23	309.05
458.59	307.01
458.96	304.98
459.33	303.12
459.70	301.26
460.07	299.77
460.43	298.02
460.80	296.46
461.17	295.02
461.54	293.55
461.91	292.11
462.27	290.65
462.64	289.40
463.01	288.08
463.38	286.74
463.74	285.40
464.11	284.28
464.48	283.23
464.85	282.14
465.21	281.26
465.58	280.39
465.95	279.34
466.32	278.44
466.68	277.51
467.05	276.60
467.42	275.71
467.78	274.80
468.15	273.98
468.52	273.30
468.88	272.45
469.25	271.71
469.62	271.12
469.98	270.45
470.35	269.82
470.72	269.20
471.08	268.60
471.45	268.09
471.82	267.54
472.18	266.95
472.55	266.49
472.92	265.93
473.28	265.48
473.65	265.03
474.02	264.61
474.38	264.24
474.75	263.93
475.11	263.58
475.48	263.29
475.85	263.03
476.21	262.81
476.58	262.64
476.94	262.47
477.31	262.31
477.67	262.17
478.04	262.10
478.41	262.08
478.77	262.10
479.14	262.02
479.50	262.02
479.87	262.16
480.23	262.27
480.60	262.35
480.96	262.44
481.33	262.66
481.69	262.86
482.06	263.11
482.42	263.33
482.79	263.65
483.15	263.96
483.52	264.37
483.88	264.73
484.25	265.14
484.61	265.59
484.98	266.06
485.34	266.61
485.71	267.24
486.07	267.84
486.44	268.42
486.80	269.17
487.17	269.87
487.53	270.66
487.90	271.51
488.26	272.48
488.62	273.49
488.99	274.46
489.35	275.51
489.72	276.60
490.08	277.82
490.44	279.04
490.81	280.43
491.17	281.79
491.54	283.30
491.90	284.84
492.26	286.49
492.63	288.28
492.99	290.05
493.36	291.95
493.72	294.00
494.08	296.12
494.45	298.37
494.81	300.80
495.17	303.27
495.54	305.83
495.90	308.47
496.26	311.27
496.63	314.27
496.99	317.37
497.35	320.68
497.72	324.16
498.08	327.69
498.44	331.32
498.80	335.29
499.17	339.29
499.53	343.45
499.89	347.89
500.26	352.35
500.62	357.03
500.98	362.00
501.34	367.05
501.71	372.44
502.07	377.86
502.43	383.48
502.79	389.31
503.16	395.38
503.52	401.73
503.88	408.08
504.24	414.69
504.60	421.57
504.97	428.68
505.33	435.95
505.69	443.66
506.05	451.47
506.41	459.28
506.78	467.44
507.14	475.93
507.50	484.59
507.86	493.58
508.22	502.70
508.59	511.92
508.95	521.48
509.31	531.25
509.67	541.36
510.03	551.67
510.39	562.18
510.75	572.99
511.12	583.91
511.48	595.18
511.84	606.61
512.20	618.08
512.56	629.96
512.92	642.13
513.28	654.46
513.64	666.92
514.00	679.56
514.37	692.53
514.73	705.50
515.09	718.46
515.45	731.70
515.81	745.32
516.17	759.22
516.53	773.39
516.89	787.59
517.25	801.75
517.61	816.00
517.97	830.37
518.33	844.76
518.69	859.45
519.05	874.40
519.41	889.52
519.77	905.13
520.13	920.56
520.49	935.77
520.85	951.07
521.21	966.66
521.57	982.88
521.93	998.56
522.29	1014.88
522.65	1031.09
523.01	1047.30
523.37	1063.41
523.73	1079.53
524.09	1095.37
524.45	1111.55
524.81	1128.06
525.17	1144.89
525.53	1161.83
525.89	1178.62
526.25	1195.47
526.61	1211.90
526.97	1228.53
527.33	1244.84
527.68	1261.40
528.04	1277.89
528.40	1294.43
528.76	1311.39
529.12	1327.88
529.48	1344.58
529.84	1360.49
530.20	1377.18
530.56	1394.13
530.91	1411.40
531.27	1428.05
531.63	1444.46
531.99	1460.99
532.35	1476.91
532.71	1492.67
533.07	1508.73
533.42	1524.57
533.78	1540.36
534.14	1556.37
534.50	1571.74
534.86	1587.65
535.21	1602.72
535.57	1618.50
535.93	1633.97
536.29	1648.67
536.65	1663.62
537.00	1678.37
537.36	1693.65
537.72	1707.88
538.08	1722.11
538.44	1735.75
538.79	1749.53
539.15	1763.18
539.51	1776.74
539.87	1790.94
540.22	1804.48
540.58	1818.26
540.94	1831.46
541.29	1844.21
541.65	1856.94
542.01	1870.00
542.37	1882.09
542.72	1894.48
543.08	1906.10
543.44	1918.37
543.79	1929.65
544.15	1940.61
544.51	1952.02
544.87	1962.88
545.22	1973.77
545.58	1983.96
545.94	1993.60
546.29	2003.46
546.65	2013.23
547.01	2022.42
547.36	2031.14
547.72	2039.69
548.07	2047.40
548.43	2055.45
548.79	2063.61
549.14	2070.98
549.50	2078.24
549.86	2085.92
550.21	2093.19
550.57	2100.35
550.92	2106.75
551.28	2113.63
551.64	2120.66
551.99	2127.27
552.35	2133.34
552.70	2139.43
553.06	2145.39
553.41	2151.82
553.77	2157.66
554.13	2163.83
554.48	2170.00
554.84	2175.39
555.19	2180.68
555.55	2185.83
555.90	2190.32
556.26	2195.04
556.61	2199.86
556.97	2204.23
557.32	2208.27
557.68	2212.27
558.03	2216.50
558.39	2220.26
558.74	2224.93
559.10	2228.84
559.45	2232.40
559.81	2236.73
560.16	2240.60
560.52	2243.73
560.87	2246.95
561.23	2249.71
561.58	2252.53
561.94	2255.04
562.29	2257.41
562.64	2260.04
563.00	2262.68
563.35	2266.18
563.71	2269.42
564.06	2272.72
564.42	2275.67
564.77	2278.17
565.12	2280.69
565.48	2282.79
565.83	2284.72
566.19	2286.04
566.54	2286.89
566.89	2288.12
567.25	2288.74
567.60	2289.99
567.96	2291.85
568.31	2292.80
568.66	2293.87
569.02	2294.59
569.37	2294.88
569.72	2295.77
570.08	2295.97
570.43	2295.89
570.78	2295.37
571.14	2293.89
571.49	2292.47
571.84	2292.05
572.20	2291.08
572.55	2290.02
572.90	2288.58
573.26	2287.26
573.61	2285.67
573.96	2284.14
574.31	2281.22
574.67	2278.32
575.02	2274.89
575.37	2271.63
575.72	2267.88
576.08	2264.71
576.43	2261.42
576.78	2257.73
577.13	2254.66
577.49	2251.64
577.84	2248.36
578.19	2244.81
578.54	2241.32
578.90	2237.20
579.25	2231.70
579.60	2226.93
579.95	2221.90
580.30	2216.77
580.66	2211.60
581.01	2206.73
581.36	2201.82
581.71	2197.70
582.06	2193.37
582.42	2188.85
582.77	2183.56
583.12	2179.24
583.47	2174.59
583.82	2169.68
584.17	2164.65
584.53	2159.21
584.88	2153.53
585.23	2147.77
585.58	2142.28
585.93	2136.87
586.28	2132.04
586.63	2127.05
586.98	2121.90
587.34	2117.27
587.69	2112.52
588.04	2107.31
588.39	2101.70
588.74	2095.23
589.09	2089.25
589.44	2082.42
589.79	2076.44
590.14	2070.92
590.49	2064.38
590.84	2058.00
591.19	2052.03
591.54	2045.54
591.89	2038.22
592.25	2031.49
592.60	2024.43
592.95	2016.95
593.30	2009.54
593.65	2002.00
594.00	1994.98
594.35	1987.88
594.70	1979.86
595.05	1972.70
595.40	1965.51
595.75	1958.06
596.10	1951.94
596.45	1945.36
596.80	1939.35
597.15	1932.82
597.50	1925.68
597.85	1919.27
598.19	1912.60
598.54	1905.47
598.89	1898.97
599.24	1893.17
599.59	1886.48
599.94	1880.35
600.29	1873.95
600.64	1867.53
600.99	1860.29
601.34	1853.57
601.69	1846.62
602.04	1839.80
602.39	1832.52
602.74	1825.80
603.08	1819.13
603.43	1812.40
603.78	1804.93
604.13	1797.66
604.48	1790.34
604.83	1783.58
605.18	1776.59
605.53	1768.70
605.87	1760.79
606.22	1753.66
606.57	1745.74
606.92	1738.56
607.27	1731.30
607.62	1724.41
607.96	1717.16
608.31	1710.49
608.66	1702.90
609.01	1695.42
609.36	1687.78
609.70	1679.76
610.05	1671.65
610.40	1663.87
610.75	1655.59
611.10	1647.94
611.44	1639.44
611.79	1631.52
612.14	1622.72
612.49	1613.56
612.83	1605.23
613.18	1597.18
613.53	1589.01
613.88	1580.42
614.22	1572.17
614.57	1563.64
614.92	1555.61
615.27	1547.93
615.61	1539.62
615.96	1531.53
616.31	1523.83
616.65	1516.53
617.00	1509.01
617.35	1501.33
617.70	1492.98
618.04	1484.48
618.39	1476.33
618.74	1468.84
619.08	1460.45
619.43	1453.01
619.78	1446.15
620.12	1438.93
620.47	1431.25
620.82	1423.11
621.16	1415.67
621.51	1408.21
621.85	1400.50
622.20	1392.05
622.55	1383.70
622.89	1375.86
623.24	1368.23
623.59	1360.75
623.93	1353.32
624.28	1346.18
624.62	1338.65
624.97	1331.55
625.32	1324.81
625.66	1317.77
626.01	1310.62
626.35	1303.35
626.70	1295.53
627.04	1287.72
627.39	1279.94
627.73	1272.59
628.08	1265.62
628.43	1258.34
628.77	1250.75
629.12	1243.22
629.46	1236.06
629.81	1228.74
630.15	1221.47
630.50	1214.15
630.84	1206.00
631.19	1197.96
631.53	1190.35
631.88	1182.76
632.22	1175.16
632.57	1167.79
632.91	1160.10
633.26	1152.66
633.60	1145.20
633.95	1138.10
634.29	1131.15
634.64	1124.51
634.98	1117.21
635.32	1110.06
635.67	1103.42
636.01	1096.87
636.36	1090.07
636.70	1083.46
637.05	1076.80
637.39	1070.29
637.73	1063.68
638.08	1057.78
638.42	1051.82
638.77	1045.36
639.11	1038.90
639.45	1032.49
639.80	1025.83
640.14	1019.42
640.49	1012.79
640.83	1006.44
641.17	1000.20
641.52	993.83
641.86	987.30
642.20	981.42
642.55	975.13
642.89	968.66
643.23	962.05
643.58	956.36
643.92	950.21
644.26	944.17
644.61	938.20
644.95	932.18
645.29	925.55
645.64	918.84
645.98	912.51
646.32	906.61
646.66	900.57
647.01	894.83
647.35	889.24
647.69	883.44
648.04	878.00
648.38	872.30
648.72	866.27
649.06	860.32
649.41	854.42
649.75	848.39
650.09	842.53
650.43	836.82
650.78	830.52
651.12	824.65
651.46	818.93
651.80	813.20
652.14	807.82
652.49	802.51
652.83	797.34
653.17	791.68
653.51	785.97
653.85	780.55
654.20	774.86
654.54	768.84
654.88	763.15
655.22	757.14
655.56	751.35
655.90	745.97
656.25	740.63
656.59	735.29
656.93	730.29
657.27	725.08
657.61	719.59
657.95	714.60
658.29	709.52
658.64	704.30
658.98	698.95
659.32	693.48
659.66	688.24
660.00	682.88
660.34	677.84
660.68	672.95
661.02	667.93
661.36	663.19
661.70	658.68
662.05	654.32
662.39	650.07
662.73	645.61
663.07	641.19
663.41	636.74
663.75	632.22
664.09	627.66
664.43	623.31
664.77	619.22
665.11	614.90
665.45	610.62
665.79	606.46
666.13	602.34
666.47	598.27
666.81	594.10
667.15	589.94
667.49	586.08
667.83	582.23
668.17	578.30
668.51	574.19
668.85	570.13
669.19	566.29
669.53	562.42
669.87	558.51
670.21	554.79
670.55	551.14
670.89	547.66
671.23	544.15
671.57	540.54
671.91	536.94
672.25	533.48
672.58	530.05
672.92	526.61
673.26	523.44
673.60	520.30
673.94	517.21
674.28	514.33
674.62	511.32
674.96	508.26
675.30	505.34
675.64	502.41
675.97	499.65
676.31	496.79
676.65	493.81
676.99	491.11
677.33	488.22
677.67	485.39
678.01	482.36
678.34	479.42
678.68	476.54
679.02	473.76
679.36	470.95
679.70	468.19
680.04	465.47
680.37	462.55
680.71	459.70
681.05	457.05
681.39	454.34
681.73	451.73
682.06	449.15
682.40	446.56
682.74	444.10
683.08	441.55
683.42	438.95
683.75	436.48
684.09	433.93
684.43	431.48
684.77	429.04
685.10	426.73
685.44	424.43
685.78	422.18
686.12	419.93
686.45	417.67
686.79	415.36
687.13	413.19
687.46	411.05
687.80	408.92
688.14	406.72
688.48	404.67
688.81	402.45
689.15	400.30
689.49	398.22
689.82	396.17
690.16	394.10
690.50	392.14
690.83	390.17
691.17	388.22
691.51	386.33
691.84	384.53
692.18	382.57
692.52	380.56
692.85	378.66
693.19	376.80
693.52	374.99
693.86	373.22
694.20	371.41
694.53	369.68
694.87	367.84
695.21	366.09
695.54	364.27
695.88	362.57
696.21	360.82
696.55	359.07
696.88	357.35
697.22	355.69
697.56	354.08
697.89	352.48
698.23	350.86
698.56	349.21
698.90	347.56
699.23	345.95
699.57	344.41
699.90	342.87
700.24	341.35
700.58	339.76
700.91	338.24
701.25	336.84
701.58	335.44
701.92	334.07
702.25	332.67
702.59	331.28
702.92	329.92
703.26	328.63
703.59	327.35
703.93	326.17
704.26	324.95
704.60	323.64
704.93	322.36
705.26	321.11
705.60	319.97
705.93	318.82
706.27	317.76
706.60	316.68
706.94	315.59
707.27	314.40
707.61	313.37
707.94	312.32
708.27	311.16
708.61	310.10
708.94	309.07
709.28	308.08
709.61	307.07
709.94	306.09
710.28	305.07
710.61	304.10
710.95	303.00
711.28	302.02
711.61	301.04
711.95	300.13
712.28	299.17
712.61	298.18
712.95	297.24
713.28	296.37
713.61	295.43
713.95	294.52
714.28	293.69
714.61	292.80
714.95	292.00
715.28	291.16
715.61	290.24
715.95	289.38
716.28	288.51
716.61	287.71
716.95	286.88
717.28	286.11
717.61	285.35
717.94	284.56
718.28	283.76
718.61	283.06
718.94	282.31
719.27	281.66
719.61	280.98
719.94	280.32
720.27	279.57
720.60	278.89
720.94	278.29
721.27	277.68
721.60	277.06
721.93	276.40
722.27	275.86
722.60	275.27
722.93	274.75
723.26	274.21
723.59	273.64
723.93	273.08
724.26	272.52
724.59	271.95
724.92	271.45
725.25	270.98
725.59	270.47
725.92	269.98
726.25	269.44
726.58	268.97
726.91	268.46
727.24	268.00
727.57	267.58
727.91	267.05
728.24	266.61
728.57	266.16
728.90	265.72
729.23	265.24
729.56	264.86
729.89	264.36
730.22	263.91
730.55	263.41
730.89	263.00
731.22	262.60
731.55	262.17
731.88	261.78
732.21	261.35
732.54	260.91
732.87	260.49
733.20	260.10
733.53	259.72
733.86	259.36
734.19	258.98
734.52	258.62
734.85	258.32
735.18	257.89
735.51	257.57
735.84	257.21
736.17	256.85
736.50	256.46
736.83	256.26
737.16	255.92
737.49	255.63
737.82	255.29
738.15	254.96
738.48	254.63
738.81	254.29
739.14	253.94
739.47	253.62
739.80	253.35
740.13	253.05
740.46	252.72
740.79	252.34
741.12	252.03
741.45	251.71
741.78	251.33
742.11	251.06
742.44	250.69
742.77	250.41
743.10	250.12
743.43	249.78
743.75	249.39
744.08	249.25
744.41	248.98
744.74	248.71
745.07	248.43
745.40	248.20
745.73	247.98
746.06	247.73
746.39	247.50
746.71	247.21
747.04	246.94
747.37	246.66
747.70	246.45
748.03	246.21
748.36	246.00
748.68	245.75
749.01	245.53
749.34	245.32
749.67	245.10
750.00	244.86
750.33	244.74
750.65	244.52
750.98	244.18
751.31	243.97
751.64	243.73
751.97	243.52
752.29	243.29
752.62	243.04
752.95	242.83
753.28	242.58
753.60	242.37
753.93	242.19
754.26	242.04
754.59	241.83
754.91	241.65
755.24	241.41
755.57	241.26
755.90	241.06
756.22	240.85
756.55	240.62
756.88	240.45
757.20	240.20
757.53	240.02
757.86	239.85
758.19	239.70
758.51	239.53
758.84	239.31
759.17	239.13
759.49	238.95
759.82	238.83
760.15	238.68
760.47	238.50
760.80	238.34
761.13	238.18
761.45	238.01
761.78	237.84
762.11	237.71
762.43	237.55
762.76	237.39
763.08	237.27
763.41	237.16
763.74	237.03
764.06	236.91
764.39	236.74
764.71	236.61
765.04	236.43
765.37	236.30
765.69	236.21
766.02	236.07
766.34	235.94
766.67	235.79
767.00	235.66
767.32	235.59
767.65	235.52
767.97	235.38
768.30	235.28
768.62	235.18
768.95	235.06
769.27	234.94
769.60	234.85
769.92	234.76
770.25	234.62
770.57	234.46
770.90	234.34
771.22	234.23
771.55	234.10
771.87	234.02
772.20	233.91
772.52	233.90
772.85	233.90
773.17	233.82
773.50	233.71
773.82	233.62
774.15	233.51
774.47	233.37
774.80	233.28
775.12	233.20
775.45	233.08
775.77	233.01
776.09	232.93
776.42	232.85
776.74	232.76
777.07	232.68
777.39	232.61
777.72	232.55
778.04	232.53
778.36	232.47
778.69	232.42
779.01	232.36
779.33	232.19
779.66	232.04
779.98	231.97
780.31	231.89
780.63	231.87
780.95	231.81
781.28	231.73
781.60	231.67
781.92	231.61
782.25	231.56
782.57	231.45
782.89	231.40
783.22	231.35
783.54	231.28
783.86	231.24
784.19	231.18
784.51	231.10
784.83	231.00
785.16	230.92
785.48	230.85
785.80	230.81
786.12	230.75
786.45	230.68
786.77	230.64
787.09	230.60
