SpectraSuite Data File
++++++++++++++++++++++++++++++++++++
Date: Fri Feb 01 15:14:07 EST 2013
User: group
Dark Spectrum Present: No
Reference Spectrum Present: No
Number of Sampled Component Spectra: 1
Spectrometers: USB2E7196
Integration Time (usec): 35000 (USB2E7196)
Spectra Averaged: 100 (USB2E7196)
Boxcar Smoothing: 10 (USB2E7196)
Correct for Electrical Dark: No (USB2E7196)
Strobe/Lamp Enabled: No (USB2E7196)
Correct for Detector Non-linearity: No (USB2E7196)
Correct for Stray Light: No (USB2E7196)
Number of Pixels in Processed Spectrum: 2048
>>>>>Begin Processed Spectral Data<<<<<
339.09	0.00
339.48	215.22
339.86	216.58
340.24	217.65
340.63	219.50
341.01	222.23
341.39	222.10
341.78	223.40
342.16	224.53
342.54	225.17
342.93	213.48
343.31	224.27
343.69	224.79
344.07	225.28
344.46	225.72
344.84	226.11
345.22	226.34
345.60	226.58
345.99	226.76
346.37	226.89
346.75	226.96
347.13	227.00
347.52	227.04
347.90	227.08
348.28	227.12
348.66	227.16
349.05	227.13
349.43	227.18
349.81	227.25
350.19	227.28
350.57	227.32
350.96	227.41
351.34	227.48
351.72	227.57
352.10	227.65
352.48	227.72
352.87	227.76
353.25	227.79
353.63	227.84
354.01	227.88
354.39	227.93
354.77	228.05
355.15	228.17
355.54	228.22
355.92	228.26
356.30	228.34
356.68	228.45
357.06	228.53
357.44	228.52
357.82	228.55
358.20	228.64
358.58	228.66
358.97	228.73
359.35	228.82
359.73	228.87
360.11	228.95
360.49	228.99
360.87	229.05
361.25	229.14
361.63	229.21
362.01	229.26
362.39	229.30
362.77	229.34
363.15	229.35
363.53	229.35
363.91	229.39
364.29	229.43
364.67	229.36
365.05	229.30
365.43	229.33
365.81	229.32
366.19	229.37
366.57	229.44
366.95	229.42
367.33	229.40
367.71	229.42
368.09	229.37
368.47	229.34
368.85	229.29
369.23	229.25
369.61	229.17
369.99	229.22
370.37	229.22
370.75	229.20
371.13	229.15
371.51	229.12
371.89	229.08
372.27	229.01
372.65	228.96
373.03	228.96
373.41	228.90
373.78	228.88
374.16	228.74
374.54	228.62
374.92	228.54
375.30	228.46
375.68	228.36
376.06	228.31
376.44	228.23
376.82	228.19
377.19	228.10
377.57	228.07
377.95	227.92
378.33	227.80
378.71	227.69
379.09	227.61
379.47	227.55
379.84	227.46
380.22	227.40
380.60	227.32
380.98	227.25
381.36	227.16
381.73	227.09
382.11	227.05
382.49	227.00
382.87	226.95
383.25	226.89
383.62	226.95
384.00	226.84
384.38	226.80
384.76	226.75
385.13	226.74
385.51	226.69
385.89	226.67
386.27	226.62
386.64	226.54
387.02	226.51
387.40	226.43
387.78	226.40
388.15	226.33
388.53	226.28
388.91	226.24
389.29	226.26
389.66	226.26
390.04	226.21
390.42	226.21
390.79	226.21
391.17	226.21
391.55	226.06
391.92	226.09
392.30	226.09
392.68	226.08
393.05	226.09
393.43	226.11
393.81	226.13
394.18	226.15
394.56	226.22
394.94	226.27
395.31	226.32
395.69	226.38
396.06	226.43
396.44	226.53
396.82	226.59
397.19	226.67
397.57	226.68
397.95	226.75
398.32	226.78
398.70	226.82
399.07	226.89
399.45	227.00
399.82	227.04
400.20	227.11
400.58	227.20
400.95	227.26
401.33	227.35
401.70	227.48
402.08	227.60
402.45	227.69
402.83	227.81
403.20	227.93
403.58	228.06
403.95	228.20
404.33	228.31
404.71	228.43
405.08	228.65
405.46	228.84
405.83	228.98
406.21	229.16
406.58	229.34
406.96	229.50
407.33	229.69
407.70	229.88
408.08	230.17
408.45	230.38
408.83	230.62
409.20	230.85
409.58	231.06
409.95	231.31
410.33	231.55
410.70	231.81
411.08	232.08
411.45	232.39
411.82	232.68
412.20	233.05
412.57	233.49
412.95	233.74
413.32	234.14
413.69	234.60
414.07	235.04
414.44	235.54
414.82	236.03
415.19	236.58
415.56	237.18
415.94	237.71
416.31	238.33
416.68	238.94
417.06	239.67
417.43	240.36
417.81	241.12
418.18	241.96
418.55	242.79
418.93	243.69
419.30	244.57
419.67	245.53
420.04	246.50
420.42	247.47
420.79	248.66
421.16	249.79
421.54	250.98
421.91	252.21
422.28	253.46
422.66	254.77
423.03	256.08
423.40	257.42
423.77	258.86
424.15	260.31
424.52	261.81
424.89	263.36
425.26	264.89
425.64	266.32
426.01	267.87
426.38	269.54
426.75	271.21
427.13	272.94
427.50	274.73
427.87	276.58
428.24	278.44
428.61	280.15
428.99	282.10
429.36	284.18
429.73	286.22
430.10	288.24
430.47	290.32
430.85	292.41
431.22	294.63
431.59	296.99
431.96	299.23
432.33	301.70
432.70	304.11
433.08	306.99
433.45	309.66
433.82	312.32
434.19	315.22
434.56	318.07
434.93	320.71
435.30	323.37
435.68	326.30
436.05	329.16
436.42	332.02
436.79	334.55
437.16	337.26
437.53	340.12
437.90	342.90
438.27	345.69
438.64	348.54
439.01	351.12
439.38	353.32
439.75	355.53
440.13	358.03
440.50	360.37
440.87	362.17
441.24	364.13
441.61	366.31
441.98	367.77
442.35	369.54
442.72	371.40
443.09	373.23
443.46	374.19
443.83	374.75
444.20	375.19
444.57	376.01
444.94	376.29
445.31	376.58
445.68	376.96
446.05	377.00
446.42	376.65
446.79	376.25
447.16	375.82
447.53	375.47
447.90	374.31
448.27	373.15
448.64	371.59
449.01	370.45
449.37	368.45
449.74	366.53
450.11	364.31
450.48	361.84
450.85	359.24
451.22	357.11
451.59	355.11
451.96	353.15
452.33	350.50
452.70	348.14
453.07	345.30
453.43	342.39
453.80	339.60
454.17	336.88
454.54	334.31
454.91	331.60
455.28	328.94
455.65	326.44
456.02	323.99
456.38	321.84
456.75	319.16
457.12	316.89
457.49	314.65
457.86	312.50
458.23	310.63
458.59	308.62
458.96	306.51
459.33	304.65
459.70	302.85
460.07	301.38
460.43	299.67
460.80	298.06
461.17	296.62
461.54	295.14
461.91	293.70
462.27	292.23
462.64	290.96
463.01	289.59
463.38	288.31
463.74	286.93
464.11	285.73
464.48	284.69
464.85	283.58
465.21	282.75
465.58	281.80
465.95	280.70
466.32	279.77
466.68	278.87
467.05	277.96
467.42	277.01
467.78	276.08
468.15	275.19
468.52	274.52
468.88	273.67
469.25	272.87
469.62	272.24
469.98	271.58
470.35	270.96
470.72	270.35
471.08	269.69
471.45	269.13
471.82	268.59
472.18	268.00
472.55	267.56
472.92	266.99
473.28	266.49
473.65	266.02
474.02	265.56
474.38	265.18
474.75	264.84
475.11	264.53
475.48	264.26
475.85	264.01
476.21	263.79
476.58	263.59
476.94	263.44
477.31	263.27
477.67	263.13
478.04	263.03
478.41	263.00
478.77	263.03
479.14	262.97
479.50	262.95
479.87	263.02
480.23	263.10
480.60	263.14
480.96	263.23
481.33	263.45
481.69	263.64
482.06	263.83
482.42	264.05
482.79	264.29
483.15	264.58
483.52	264.99
483.88	265.34
484.25	265.73
484.61	266.14
484.98	266.57
485.34	267.14
485.71	267.70
486.07	268.28
486.44	268.82
486.80	269.51
487.17	270.28
487.53	271.07
487.90	271.91
488.26	272.90
488.62	273.88
488.99	274.89
489.35	275.93
489.72	277.10
490.08	278.29
490.44	279.51
490.81	280.85
491.17	282.17
491.54	283.61
491.90	285.17
492.26	286.85
492.63	288.56
492.99	290.33
493.36	292.22
493.72	294.25
494.08	296.34
494.45	298.61
494.81	300.96
495.17	303.42
495.54	306.00
495.90	308.68
496.26	311.49
496.63	314.41
496.99	317.52
497.35	320.70
497.72	324.12
498.08	327.60
498.44	331.28
498.80	335.18
499.17	339.19
499.53	343.30
499.89	347.63
500.26	352.16
500.62	356.85
500.98	361.83
501.34	366.91
501.71	372.23
502.07	377.62
502.43	383.24
502.79	389.05
503.16	395.13
503.52	401.34
503.88	407.75
504.24	414.39
504.60	421.28
504.97	428.49
505.33	435.83
505.69	443.53
506.05	451.27
506.41	459.18
506.78	467.31
507.14	475.75
507.50	484.54
507.86	493.51
508.22	502.64
508.59	511.84
508.95	521.46
509.31	531.31
509.67	541.44
510.03	551.67
510.39	562.23
510.75	573.00
511.12	583.99
511.48	595.27
511.84	606.72
512.20	618.24
512.56	630.10
512.92	642.21
513.28	654.55
513.64	667.14
514.00	679.75
514.37	692.66
514.73	705.77
515.09	718.72
515.45	732.07
515.81	745.66
516.17	759.72
516.53	773.75
516.89	787.88
517.25	802.10
517.61	816.53
517.97	830.95
518.33	845.32
518.69	860.13
519.05	875.18
519.41	890.47
519.77	905.97
520.13	921.46
520.49	936.98
520.85	952.40
521.21	968.03
521.57	984.35
521.93	1000.32
522.29	1016.70
522.65	1033.03
523.01	1049.35
523.37	1065.47
523.73	1081.63
524.09	1097.78
524.45	1114.21
524.81	1130.85
525.17	1147.71
525.53	1164.73
525.89	1181.81
526.25	1198.65
526.61	1214.95
526.97	1231.68
527.33	1248.27
527.68	1265.00
528.04	1281.56
528.40	1298.29
528.76	1315.43
529.12	1332.11
529.48	1349.05
529.84	1365.23
530.20	1381.96
530.56	1399.10
530.91	1416.60
531.27	1433.46
531.63	1450.07
531.99	1466.67
532.35	1482.84
532.71	1498.81
533.07	1515.12
533.42	1531.09
533.78	1547.25
534.14	1563.68
534.50	1579.02
534.86	1595.00
535.21	1610.21
535.57	1626.20
535.93	1641.74
536.29	1656.66
536.65	1671.87
537.00	1686.64
537.36	1702.00
537.72	1716.61
538.08	1731.03
538.44	1744.87
538.79	1758.76
539.15	1772.59
539.51	1786.49
539.87	1800.79
540.22	1814.70
540.58	1828.52
540.94	1841.90
541.29	1854.98
541.65	1867.80
542.01	1881.07
542.37	1893.50
542.72	1906.10
543.08	1917.91
543.44	1930.46
543.79	1941.68
544.15	1952.73
544.51	1964.33
544.87	1975.38
545.22	1986.17
545.58	1996.27
545.94	2006.17
546.29	2016.20
546.65	2025.97
547.01	2035.30
547.36	2044.15
547.72	2052.60
548.07	2060.45
548.43	2068.67
548.79	2076.59
549.14	2084.14
549.50	2091.59
549.86	2099.21
550.21	2106.48
550.57	2113.71
550.92	2120.16
551.28	2127.23
551.64	2134.21
551.99	2140.77
552.35	2146.85
552.70	2152.94
553.06	2158.97
553.41	2165.19
553.77	2171.09
554.13	2177.18
554.48	2183.15
554.84	2188.48
555.19	2193.86
555.55	2199.07
555.90	2203.40
556.26	2208.21
556.61	2212.90
556.97	2217.03
557.32	2221.18
557.68	2225.23
558.03	2229.44
558.39	2233.21
558.74	2237.73
559.10	2241.52
559.45	2245.16
559.81	2249.62
560.16	2253.54
560.52	2256.85
560.87	2260.26
561.23	2262.93
561.58	2265.80
561.94	2268.33
562.29	2270.74
562.64	2273.34
563.00	2275.98
563.35	2279.70
563.71	2282.82
564.06	2285.92
564.42	2288.82
564.77	2291.20
565.12	2293.38
565.48	2295.16
565.83	2296.94
566.19	2298.21
566.54	2299.16
566.89	2300.22
567.25	2300.49
567.60	2301.66
567.96	2303.31
568.31	2304.25
568.66	2305.13
569.02	2305.64
569.37	2305.84
569.72	2306.52
570.08	2306.51
570.43	2306.36
570.78	2305.40
571.14	2303.76
571.49	2302.35
571.84	2302.00
572.20	2300.70
572.55	2299.61
572.90	2298.10
573.26	2296.64
573.61	2294.94
573.96	2293.04
574.31	2290.04
574.67	2287.05
575.02	2283.39
575.37	2279.75
575.72	2275.66
576.08	2272.29
576.43	2268.95
576.78	2265.18
577.13	2261.97
577.49	2258.89
577.84	2255.38
578.19	2251.71
578.54	2247.99
578.90	2243.67
579.25	2238.05
579.60	2233.09
579.95	2228.02
580.30	2222.85
580.66	2217.56
581.01	2212.57
581.36	2207.62
581.71	2203.22
582.06	2198.72
582.42	2194.05
582.77	2188.87
583.12	2184.26
583.47	2179.50
583.82	2174.30
584.17	2169.05
584.53	2163.58
584.88	2157.86
585.23	2151.89
585.58	2146.27
585.93	2140.75
586.28	2135.94
586.63	2130.66
586.98	2125.54
587.34	2120.80
587.69	2115.85
588.04	2110.51
588.39	2104.69
588.74	2098.24
589.09	2092.13
589.44	2085.25
589.79	2079.25
590.14	2073.48
590.49	2066.91
590.84	2060.54
591.19	2054.43
591.54	2047.91
591.89	2040.24
592.25	2033.17
592.60	2025.84
592.95	2018.13
593.30	2010.71
593.65	2003.02
594.00	1996.06
594.35	1988.76
594.70	1980.59
595.05	1973.13
595.40	1965.84
595.75	1958.34
596.10	1951.71
596.45	1944.72
596.80	1938.38
597.15	1931.59
597.50	1924.36
597.85	1917.84
598.19	1910.93
598.54	1903.85
598.89	1897.18
599.24	1891.32
599.59	1884.76
599.94	1878.44
600.29	1872.14
600.64	1865.57
600.99	1858.11
601.34	1851.02
601.69	1843.96
602.04	1836.91
602.39	1829.63
602.74	1822.68
603.08	1816.03
603.43	1809.52
603.78	1802.26
604.13	1795.01
604.48	1787.67
604.83	1780.84
605.18	1773.75
605.53	1765.73
605.87	1757.65
606.22	1750.26
606.57	1742.28
606.92	1734.94
607.27	1727.77
607.62	1720.83
607.96	1713.38
608.31	1706.73
608.66	1699.14
609.01	1691.57
609.36	1684.18
609.70	1676.16
610.05	1668.07
610.40	1660.11
610.75	1651.80
611.10	1644.15
611.44	1635.80
611.79	1627.85
612.14	1619.16
612.49	1610.13
612.83	1601.88
613.18	1593.72
613.53	1585.75
613.88	1577.23
614.22	1568.82
614.57	1560.31
614.92	1552.16
615.27	1544.72
615.61	1536.43
615.96	1528.54
616.31	1520.98
616.65	1513.55
617.00	1506.02
617.35	1498.42
617.70	1490.10
618.04	1481.52
618.39	1473.28
618.74	1465.64
619.08	1457.34
619.43	1449.77
619.78	1442.82
620.12	1435.57
620.47	1428.09
620.82	1419.89
621.16	1412.51
621.51	1404.94
621.85	1397.39
622.20	1388.95
622.55	1380.57
622.89	1372.72
623.24	1365.12
623.59	1357.69
623.93	1350.13
624.28	1342.81
624.62	1335.22
624.97	1328.08
625.32	1321.42
625.66	1314.49
626.01	1307.25
626.35	1299.82
626.70	1292.08
627.04	1284.24
627.39	1276.56
627.73	1269.12
628.08	1262.20
628.43	1254.81
628.77	1247.39
629.12	1239.80
629.46	1232.70
629.81	1225.30
630.15	1218.15
630.50	1210.76
630.84	1202.73
631.19	1194.79
631.53	1187.40
631.88	1179.90
632.22	1172.35
632.57	1164.97
632.91	1157.34
633.26	1149.96
633.60	1142.69
633.95	1135.64
634.29	1128.67
634.64	1121.92
634.98	1114.64
635.32	1107.51
635.67	1101.07
636.01	1094.48
636.36	1087.74
636.70	1081.21
637.05	1074.75
637.39	1068.15
637.73	1061.69
638.08	1055.66
638.42	1049.74
638.77	1043.25
639.11	1036.72
639.45	1030.35
639.80	1023.68
640.14	1017.35
640.49	1010.87
640.83	1004.61
641.17	998.39
641.52	992.13
641.86	985.73
642.20	979.91
642.55	973.65
642.89	967.08
643.23	960.61
643.58	954.76
643.92	948.50
644.26	942.40
644.61	936.43
644.95	930.27
645.29	923.67
645.64	916.91
645.98	910.64
646.32	904.76
646.66	898.70
647.01	892.96
647.35	887.24
647.69	881.52
648.04	875.96
648.38	870.21
648.72	864.16
649.06	858.19
649.41	852.28
649.75	846.27
650.09	840.34
650.43	834.53
650.78	828.48
651.12	822.56
651.46	816.80
651.80	811.02
652.14	805.65
652.49	800.36
652.83	795.20
653.17	789.51
653.51	783.83
653.85	778.48
654.20	772.84
654.54	766.81
654.88	761.00
655.22	755.08
655.56	749.35
655.90	743.91
656.25	738.61
656.59	733.33
656.93	728.29
657.27	723.17
657.61	717.81
657.95	712.66
658.29	707.58
658.64	702.31
658.98	697.09
659.32	691.67
659.66	686.40
660.00	681.16
660.34	676.21
660.68	671.30
661.02	666.22
661.36	661.54
661.70	657.12
662.05	652.83
662.39	648.58
662.73	644.20
663.07	639.84
663.41	635.40
663.75	630.95
664.09	626.41
664.43	622.07
664.77	617.90
665.11	613.64
665.45	609.55
665.79	605.59
666.13	601.43
666.47	597.34
666.81	593.25
667.15	589.09
667.49	585.27
667.83	581.50
668.17	577.63
668.51	573.59
668.85	569.62
669.19	565.75
669.53	561.89
669.87	557.95
670.21	554.25
670.55	550.65
670.89	547.22
671.23	543.79
671.57	540.23
671.91	536.69
672.25	533.27
672.58	529.75
672.92	526.34
673.26	523.21
673.60	520.06
673.94	516.96
674.28	514.09
674.62	511.11
674.96	507.99
675.30	505.11
675.64	502.14
675.97	499.36
676.31	496.48
676.65	493.57
676.99	490.86
677.33	488.04
677.67	485.17
678.01	482.11
678.34	479.10
678.68	476.27
679.02	473.49
679.36	470.69
679.70	467.98
680.04	465.20
680.37	462.36
680.71	459.58
681.05	456.96
681.39	454.29
681.73	451.62
682.06	449.07
682.40	446.49
682.74	444.05
683.08	441.51
683.42	438.96
683.75	436.44
684.09	433.95
684.43	431.49
684.77	429.07
685.10	426.72
685.44	424.45
685.78	422.19
686.12	420.01
686.45	417.72
686.79	415.46
687.13	413.27
687.46	411.16
687.80	409.06
688.14	406.86
688.48	404.75
688.81	402.48
689.15	400.36
689.49	398.26
689.82	396.17
690.16	394.08
690.50	392.08
690.83	390.16
691.17	388.13
691.51	386.27
691.84	384.41
692.18	382.49
692.52	380.50
692.85	378.58
693.19	376.63
693.52	374.86
693.86	373.02
694.20	371.28
694.53	369.43
694.87	367.57
695.21	365.80
695.54	364.01
695.88	362.33
696.21	360.60
696.55	358.90
696.88	357.20
697.22	355.61
697.56	354.00
697.89	352.36
698.23	350.80
698.56	349.17
698.90	347.60
699.23	345.97
699.57	344.45
699.90	342.92
700.24	341.43
700.58	339.88
700.91	338.37
701.25	336.92
701.58	335.55
701.92	334.19
702.25	332.80
702.59	331.43
702.92	330.13
703.26	328.85
703.59	327.59
703.93	326.43
704.26	325.17
704.60	323.91
704.93	322.63
705.26	321.38
705.60	320.22
705.93	319.08
706.27	318.08
706.60	316.99
706.94	315.94
707.27	314.81
707.61	313.77
707.94	312.78
708.27	311.70
708.61	310.65
708.94	309.68
709.28	308.72
709.61	307.80
709.94	306.85
710.28	305.86
710.61	304.92
710.95	303.89
711.28	302.99
711.61	302.06
711.95	301.22
712.28	300.25
712.61	299.31
712.95	298.36
713.28	297.50
713.61	296.66
713.95	295.77
714.28	294.94
714.61	294.06
714.95	293.24
715.28	292.40
715.61	291.49
715.95	290.61
716.28	289.77
716.61	288.94
716.95	288.14
717.28	287.42
717.61	286.65
717.94	285.91
718.28	285.13
718.61	284.40
718.94	283.68
719.27	283.07
719.61	282.39
719.94	281.76
720.27	281.05
720.60	280.35
720.94	279.72
721.27	279.12
721.60	278.58
721.93	277.99
722.27	277.42
722.60	276.87
722.93	276.30
723.26	275.76
723.59	275.20
723.93	274.65
724.26	274.06
724.59	273.52
724.92	272.97
725.25	272.45
725.59	271.93
725.92	271.40
726.25	270.88
726.58	270.41
726.91	269.89
727.24	269.37
727.57	268.92
727.91	268.35
728.24	267.86
728.57	267.32
728.90	266.90
729.23	266.43
729.56	266.06
729.89	265.59
730.22	265.12
730.55	264.62
730.89	264.16
731.22	263.71
731.55	263.24
731.88	262.80
732.21	262.34
732.54	261.88
732.87	261.46
733.20	261.06
733.53	260.66
733.86	260.30
734.19	259.92
734.52	259.50
734.85	259.21
735.18	258.79
735.51	258.46
735.84	258.04
736.17	257.69
736.50	257.25
736.83	257.02
737.16	256.65
737.49	256.34
737.82	256.01
738.15	255.68
738.48	255.37
738.81	255.05
739.14	254.76
739.47	254.42
739.80	254.12
740.13	253.80
740.46	253.46
740.79	253.12
741.12	252.82
741.45	252.51
741.78	252.16
742.11	251.89
742.44	251.55
742.77	251.28
743.10	250.95
743.43	250.68
743.75	250.30
744.08	250.19
744.41	249.91
744.74	249.66
745.07	249.39
745.40	249.13
745.73	248.89
746.06	248.58
746.39	248.37
746.71	248.12
747.04	247.83
747.37	247.58
747.70	247.33
748.03	247.08
748.36	246.88
748.68	246.68
749.01	246.44
749.34	246.23
749.67	246.00
750.00	245.78
750.33	245.62
750.65	245.42
750.98	245.06
751.31	244.83
751.64	244.63
751.97	244.48
752.29	244.28
752.62	244.01
752.95	243.82
753.28	243.59
753.60	243.39
753.93	243.26
754.26	243.09
754.59	242.88
754.91	242.66
755.24	242.45
755.57	242.24
755.90	242.05
756.22	241.82
756.55	241.59
756.88	241.41
757.20	241.22
757.53	241.03
757.86	240.88
758.19	240.75
758.51	240.56
758.84	240.31
759.17	240.14
759.49	239.98
759.82	239.88
760.15	239.76
760.47	239.61
760.80	239.40
761.13	239.26
761.45	239.10
761.78	238.97
762.11	238.83
762.43	238.69
762.76	238.56
763.08	238.49
763.41	238.40
763.74	238.26
764.06	238.12
764.39	237.96
764.71	237.79
765.04	237.61
765.37	237.49
765.69	237.40
766.02	237.25
766.34	237.12
766.67	236.94
767.00	236.84
767.32	236.73
767.65	236.68
767.97	236.53
768.30	236.41
768.62	236.31
768.95	236.18
769.27	236.08
769.60	235.95
769.92	235.79
770.25	235.67
770.57	235.56
770.90	235.41
771.22	235.31
771.55	235.22
771.87	235.11
772.20	235.01
772.52	235.00
772.85	235.02
773.17	234.93
773.50	234.85
773.82	234.77
774.15	234.65
774.47	234.47
774.80	234.38
775.12	234.31
775.45	234.18
775.77	234.10
776.09	234.00
776.42	233.93
776.74	233.86
777.07	233.78
777.39	233.71
777.72	233.65
778.04	233.59
778.36	233.52
778.69	233.49
779.01	233.40
779.33	233.21
779.66	233.05
779.98	232.95
780.31	232.87
780.63	232.80
780.95	232.72
781.28	232.66
781.60	232.61
781.92	232.54
782.25	232.48
782.57	232.41
782.89	232.32
783.22	232.24
783.54	232.18
783.86	232.13
784.19	232.07
784.51	232.01
784.83	231.96
785.16	231.88
785.48	231.82
785.80	231.80
786.12	231.79
786.45	231.74
786.77	231.72
787.09	231.67
