SpectraSuite Data File
++++++++++++++++++++++++++++++++++++
Date: Fri Feb 01 15:38:47 EST 2013
User: group
Dark Spectrum Present: No
Reference Spectrum Present: No
Number of Sampled Component Spectra: 1
Spectrometers: USB2E7196
Integration Time (usec): 35000 (USB2E7196)
Spectra Averaged: 100 (USB2E7196)
Boxcar Smoothing: 10 (USB2E7196)
Correct for Electrical Dark: No (USB2E7196)
Strobe/Lamp Enabled: No (USB2E7196)
Correct for Detector Non-linearity: No (USB2E7196)
Correct for Stray Light: No (USB2E7196)
Number of Pixels in Processed Spectrum: 2048
>>>>>Begin Processed Spectral Data<<<<<
339.09	0.00
339.48	214.81
339.86	216.47
340.24	218.05
340.63	219.42
341.01	221.92
341.39	222.45
341.78	223.74
342.16	224.32
342.54	224.97
342.93	213.43
343.31	224.23
343.69	224.80
344.07	225.25
344.46	225.67
344.84	226.04
345.22	226.26
345.60	226.51
345.99	226.68
346.37	226.81
346.75	226.90
347.13	226.96
347.52	226.98
347.90	227.05
348.28	227.05
348.66	227.08
349.05	227.09
349.43	227.12
349.81	227.15
350.19	227.20
350.57	227.25
350.96	227.34
351.34	227.38
351.72	227.44
352.10	227.56
352.48	227.64
352.87	227.67
353.25	227.76
353.63	227.80
354.01	227.87
354.39	227.96
354.77	228.06
355.15	228.19
355.54	228.27
355.92	228.30
356.30	228.40
356.68	228.53
357.06	228.58
357.44	228.62
357.82	228.72
358.20	228.79
358.58	228.83
358.97	228.87
359.35	228.98
359.73	229.05
360.11	229.08
360.49	229.10
360.87	229.16
361.25	229.23
361.63	229.28
362.01	229.31
362.39	229.32
362.77	229.34
363.15	229.37
363.53	229.37
363.91	229.40
364.29	229.41
364.67	229.37
365.05	229.38
365.43	229.39
365.81	229.39
366.19	229.42
366.57	229.50
366.95	229.47
367.33	229.44
367.71	229.43
368.09	229.42
368.47	229.44
368.85	229.42
369.23	229.39
369.61	229.32
369.99	229.31
370.37	229.30
370.75	229.31
371.13	229.16
371.51	229.11
371.89	229.06
372.27	228.98
372.65	228.94
373.03	228.89
373.41	228.84
373.78	228.74
374.16	228.65
374.54	228.54
374.92	228.47
375.30	228.36
375.68	228.29
376.06	228.24
376.44	228.16
376.82	228.09
377.19	228.02
377.57	227.99
377.95	227.89
378.33	227.80
378.71	227.67
379.09	227.64
379.47	227.60
379.84	227.52
380.22	227.50
380.60	227.39
380.98	227.32
381.36	227.24
381.73	227.18
382.11	227.13
382.49	227.03
382.87	226.92
383.25	226.88
383.62	226.92
384.00	226.81
384.38	226.73
384.76	226.68
385.13	226.64
385.51	226.55
385.89	226.49
386.27	226.45
386.64	226.44
387.02	226.42
387.40	226.37
387.78	226.34
388.15	226.27
388.53	226.25
388.91	226.21
389.29	226.18
389.66	226.17
390.04	226.13
390.42	226.15
390.79	226.19
391.17	226.21
391.55	226.13
391.92	226.15
392.30	226.19
392.68	226.16
393.05	226.15
393.43	226.19
393.81	226.20
394.18	226.19
394.56	226.20
394.94	226.23
395.31	226.26
395.69	226.31
396.06	226.36
396.44	226.40
396.82	226.42
397.19	226.54
397.57	226.59
397.95	226.69
398.32	226.72
398.70	226.79
399.07	226.86
399.45	226.91
399.82	226.97
400.20	227.03
400.58	227.11
400.95	227.17
401.33	227.28
401.70	227.44
402.08	227.57
402.45	227.67
402.83	227.78
403.20	227.91
403.58	228.01
403.95	228.15
404.33	228.27
404.71	228.42
405.08	228.56
405.46	228.69
405.83	228.83
406.21	229.00
406.58	229.17
406.96	229.32
407.33	229.50
407.70	229.70
408.08	229.98
408.45	230.22
408.83	230.44
409.20	230.64
409.58	230.81
409.95	231.03
410.33	231.27
410.70	231.53
411.08	231.79
411.45	232.07
411.82	232.35
412.20	232.73
412.57	233.11
412.95	233.43
413.32	233.83
413.69	234.23
414.07	234.64
414.44	235.07
414.82	235.53
415.19	236.09
415.56	236.63
415.94	237.14
416.31	237.77
416.68	238.42
417.06	239.12
417.43	239.87
417.81	240.63
418.18	241.45
418.55	242.25
418.93	243.17
419.30	244.09
419.67	245.05
420.04	245.98
420.42	246.99
420.79	248.17
421.16	249.29
421.54	250.48
421.91	251.70
422.28	252.99
422.66	254.33
423.03	255.61
423.40	256.95
423.77	258.37
424.15	259.78
424.52	261.26
424.89	262.90
425.26	264.40
425.64	265.86
426.01	267.41
426.38	269.07
426.75	270.73
427.13	272.42
427.50	274.23
427.87	276.12
428.24	277.96
428.61	279.66
428.99	281.59
429.36	283.71
429.73	285.75
430.10	287.73
430.47	289.80
430.85	291.89
431.22	294.09
431.59	296.45
431.96	298.70
432.33	301.18
432.70	303.53
433.08	306.31
433.45	308.94
433.82	311.56
434.19	314.44
434.56	317.26
434.93	319.96
435.30	322.52
435.68	325.39
436.05	328.25
436.42	331.07
436.79	333.63
437.16	336.32
437.53	339.20
437.90	342.06
438.27	344.83
438.64	347.68
439.01	350.29
439.38	352.53
439.75	354.73
440.13	357.25
440.50	359.62
440.87	361.47
441.24	363.44
441.61	365.59
441.98	367.09
442.35	368.86
442.72	370.69
443.09	372.59
443.46	373.61
443.83	374.20
444.20	374.72
444.57	375.57
444.94	375.89
445.31	376.19
445.68	376.57
446.05	376.63
446.42	376.26
446.79	375.87
447.16	375.41
447.53	375.10
447.90	373.93
448.27	372.74
448.64	371.16
449.01	370.01
449.37	368.09
449.74	366.24
450.11	364.02
450.48	361.60
450.85	359.04
451.22	356.89
451.59	354.93
451.96	353.03
452.33	350.38
452.70	348.01
453.07	345.19
453.43	342.26
453.80	339.49
454.17	336.81
454.54	334.26
454.91	331.54
455.28	328.87
455.65	326.36
456.02	323.92
456.38	321.80
456.75	319.14
457.12	316.84
457.49	314.62
457.86	312.44
458.23	310.54
458.59	308.48
458.96	306.41
459.33	304.49
459.70	302.58
460.07	301.07
460.43	299.34
460.80	297.70
461.17	296.29
461.54	294.80
461.91	293.40
462.27	291.94
462.64	290.67
463.01	289.31
463.38	288.03
463.74	286.64
464.11	285.49
464.48	284.49
464.85	283.38
465.21	282.46
465.58	281.54
465.95	280.45
466.32	279.54
466.68	278.62
467.05	277.71
467.42	276.84
467.78	275.92
468.15	275.03
468.52	274.37
468.88	273.44
469.25	272.65
469.62	272.00
469.98	271.33
470.35	270.72
470.72	270.12
471.08	269.42
471.45	268.89
471.82	268.34
472.18	267.70
472.55	267.26
472.92	266.75
473.28	266.26
473.65	265.76
474.02	265.31
474.38	264.93
474.75	264.61
475.11	264.22
475.48	263.94
475.85	263.69
476.21	263.43
476.58	263.25
476.94	263.09
477.31	262.93
477.67	262.78
478.04	262.64
478.41	262.57
478.77	262.65
479.14	262.57
479.50	262.59
479.87	262.68
480.23	262.74
480.60	262.80
480.96	262.91
481.33	263.14
481.69	263.32
482.06	263.53
482.42	263.75
482.79	264.05
483.15	264.39
483.52	264.80
483.88	265.20
484.25	265.61
484.61	266.06
484.98	266.51
485.34	267.05
485.71	267.63
486.07	268.23
486.44	268.83
486.80	269.58
487.17	270.30
487.53	271.14
487.90	272.02
488.26	272.97
488.62	273.92
488.99	274.92
489.35	275.95
489.72	277.11
490.08	278.29
490.44	279.54
490.81	280.90
491.17	282.27
491.54	283.73
491.90	285.29
492.26	286.91
492.63	288.66
492.99	290.48
493.36	292.37
493.72	294.47
494.08	296.55
494.45	298.80
494.81	301.14
495.17	303.57
495.54	306.14
495.90	308.82
496.26	311.64
496.63	314.65
496.99	317.78
497.35	321.04
497.72	324.46
498.08	327.99
498.44	331.62
498.80	335.53
499.17	339.60
499.53	343.79
499.89	348.19
500.26	352.70
500.62	357.36
500.98	362.37
501.34	367.44
501.71	372.71
502.07	378.12
502.43	383.79
502.79	389.61
503.16	395.62
503.52	401.93
503.88	408.39
504.24	414.99
504.60	421.91
504.97	429.03
505.33	436.46
505.69	444.16
506.05	451.92
506.41	459.80
506.78	467.93
507.14	476.36
507.50	485.05
507.86	494.03
508.22	503.25
508.59	512.41
508.95	522.02
509.31	531.88
509.67	542.01
510.03	552.24
510.39	562.73
510.75	573.57
511.12	584.45
511.48	595.80
511.84	607.22
512.20	618.71
512.56	630.68
512.92	642.70
513.28	654.98
513.64	667.48
514.00	680.21
514.37	693.12
514.73	706.17
515.09	719.26
515.45	732.63
515.81	746.22
516.17	760.25
516.53	774.31
516.89	788.50
517.25	802.65
517.61	817.18
517.97	831.66
518.33	846.12
518.69	860.92
519.05	875.87
519.41	891.03
519.77	906.67
520.13	922.03
520.49	937.46
520.85	952.90
521.21	968.69
521.57	984.96
521.93	1000.75
522.29	1017.19
522.65	1033.44
523.01	1049.61
523.37	1065.63
523.73	1081.75
524.09	1097.85
524.45	1114.08
524.81	1130.85
525.17	1147.58
525.53	1164.64
525.89	1181.49
526.25	1198.39
526.61	1214.77
526.97	1231.62
527.33	1248.02
527.68	1264.69
528.04	1281.27
528.40	1297.99
528.76	1315.02
529.12	1331.61
529.48	1348.49
529.84	1364.39
530.20	1380.96
530.56	1398.05
530.91	1415.43
531.27	1432.25
531.63	1448.75
531.99	1465.49
532.35	1481.40
532.71	1497.34
533.07	1513.55
533.42	1529.42
533.78	1545.46
534.14	1561.84
534.50	1577.11
534.86	1592.99
535.21	1608.11
535.57	1624.04
535.93	1639.53
536.29	1654.22
536.65	1669.21
537.00	1684.07
537.36	1699.57
537.72	1714.22
538.08	1728.73
538.44	1742.61
538.79	1756.53
539.15	1770.27
539.51	1783.95
539.87	1798.38
540.22	1812.16
540.58	1826.02
540.94	1839.40
541.29	1852.30
541.65	1864.97
542.01	1878.37
542.37	1890.80
542.72	1903.37
543.08	1915.24
543.44	1927.62
543.79	1939.07
544.15	1950.12
544.51	1961.58
544.87	1972.57
545.22	1983.34
545.58	1993.48
545.94	2003.23
546.29	2013.07
546.65	2022.90
547.01	2032.15
547.36	2040.75
547.72	2049.22
548.07	2057.09
548.43	2065.22
548.79	2073.31
549.14	2080.78
549.50	2088.16
549.86	2095.87
550.21	2103.15
550.57	2110.22
550.92	2116.86
551.28	2123.83
551.64	2130.98
551.99	2137.65
552.35	2143.83
552.70	2150.05
553.06	2156.04
553.41	2162.40
553.77	2168.56
554.13	2174.72
554.48	2180.80
554.84	2186.26
555.19	2191.52
555.55	2196.55
555.90	2201.02
556.26	2205.85
556.61	2210.59
556.97	2214.74
557.32	2218.78
557.68	2222.86
558.03	2227.15
558.39	2230.78
558.74	2235.40
559.10	2239.17
559.45	2242.68
559.81	2246.90
560.16	2250.62
560.52	2253.80
560.87	2257.21
561.23	2259.72
561.58	2262.59
561.94	2265.18
562.29	2267.66
562.64	2270.33
563.00	2272.90
563.35	2276.51
563.71	2279.58
564.06	2282.82
564.42	2285.57
564.77	2288.06
565.12	2290.35
565.48	2292.12
565.83	2293.98
566.19	2295.24
566.54	2296.09
566.89	2297.19
567.25	2297.74
567.60	2299.07
567.96	2300.61
568.31	2301.51
568.66	2302.53
569.02	2302.95
569.37	2303.18
569.72	2303.92
570.08	2304.03
570.43	2304.20
570.78	2303.54
571.14	2301.92
571.49	2300.42
571.84	2300.16
572.20	2299.04
572.55	2297.98
572.90	2296.59
573.26	2295.13
573.61	2293.32
573.96	2291.60
574.31	2288.65
574.67	2285.64
575.02	2282.02
575.37	2278.81
575.72	2274.93
576.08	2271.64
576.43	2268.41
576.78	2264.70
577.13	2261.46
577.49	2258.43
577.84	2254.62
578.19	2250.87
578.54	2247.35
578.90	2243.11
579.25	2237.47
579.60	2232.41
579.95	2227.38
580.30	2222.18
580.66	2217.02
581.01	2212.12
581.36	2207.07
581.71	2202.85
582.06	2198.28
582.42	2193.68
582.77	2188.39
583.12	2183.68
583.47	2178.90
583.82	2173.84
584.17	2168.63
584.53	2163.13
584.88	2157.41
585.23	2151.77
585.58	2146.49
585.93	2140.89
586.28	2136.21
586.63	2131.14
586.98	2126.15
587.34	2121.46
587.69	2116.53
588.04	2111.09
588.39	2105.43
588.74	2098.99
589.09	2092.91
589.44	2086.20
589.79	2080.22
590.14	2074.54
590.49	2067.97
590.84	2061.63
591.19	2055.60
591.54	2049.15
591.89	2041.73
592.25	2034.80
592.60	2027.51
592.95	2019.65
593.30	2012.27
593.65	2004.71
594.00	1997.64
594.35	1990.30
594.70	1982.23
595.05	1975.07
595.40	1967.84
595.75	1960.33
596.10	1954.12
596.45	1947.35
596.80	1941.08
597.15	1934.37
597.50	1927.16
597.85	1920.77
598.19	1914.06
598.54	1906.73
598.89	1900.15
599.24	1894.26
599.59	1887.52
599.94	1881.36
600.29	1874.98
600.64	1868.36
600.99	1860.85
601.34	1854.05
601.69	1847.11
602.04	1840.06
602.39	1832.75
602.74	1825.95
603.08	1819.14
603.43	1812.39
603.78	1805.03
604.13	1797.79
604.48	1790.37
604.83	1783.48
605.18	1776.36
605.53	1768.36
605.87	1760.39
606.22	1752.99
606.57	1745.05
606.92	1737.75
607.27	1730.65
607.62	1723.75
607.96	1716.42
608.31	1709.60
608.66	1701.90
609.01	1694.22
609.36	1686.71
609.70	1678.53
610.05	1670.34
610.40	1662.61
610.75	1654.28
611.10	1646.47
611.44	1638.07
611.79	1630.29
612.14	1621.59
612.49	1612.50
612.83	1604.05
613.18	1596.08
613.53	1587.99
613.88	1579.38
614.22	1571.07
614.57	1562.30
614.92	1554.26
615.27	1546.76
615.61	1538.48
615.96	1530.46
616.31	1522.80
616.65	1515.36
617.00	1507.82
617.35	1500.31
617.70	1492.02
618.04	1483.63
618.39	1475.47
618.74	1467.95
619.08	1459.48
619.43	1452.01
619.78	1445.08
620.12	1437.90
620.47	1430.32
620.82	1422.14
621.16	1414.80
621.51	1407.35
621.85	1399.71
622.20	1391.15
622.55	1382.84
622.89	1375.08
623.24	1367.44
623.59	1360.25
623.93	1352.68
624.28	1345.37
624.62	1337.79
624.97	1330.58
625.32	1323.71
625.66	1316.71
626.01	1309.41
626.35	1301.99
626.70	1294.27
627.04	1286.53
627.39	1278.80
627.73	1271.35
628.08	1264.44
628.43	1257.11
628.77	1249.63
629.12	1242.12
629.46	1235.06
629.81	1227.67
630.15	1220.38
630.50	1213.08
630.84	1204.80
631.19	1196.98
631.53	1189.50
631.88	1181.93
632.22	1174.32
632.57	1166.92
632.91	1159.41
633.26	1152.03
633.60	1144.72
633.95	1137.58
634.29	1130.55
634.64	1123.87
634.98	1116.50
635.32	1109.51
635.67	1102.91
636.01	1096.27
636.36	1089.49
636.70	1082.95
637.05	1076.36
637.39	1069.93
637.73	1063.34
638.08	1057.44
638.42	1051.57
638.77	1045.23
639.11	1038.60
639.45	1032.17
639.80	1025.60
640.14	1019.19
640.49	1012.77
640.83	1006.49
641.17	1000.20
641.52	993.89
641.86	987.48
642.20	981.70
642.55	975.33
642.89	968.86
643.23	962.36
643.58	956.56
643.92	950.33
644.26	944.21
644.61	938.14
644.95	932.05
645.29	925.40
645.64	918.59
645.98	912.31
646.32	906.55
646.66	900.53
647.01	894.75
647.35	889.01
647.69	883.14
648.04	877.62
648.38	871.86
648.72	865.87
649.06	859.81
649.41	853.93
649.75	847.88
650.09	841.90
650.43	836.12
650.78	829.98
651.12	824.00
651.46	818.33
651.80	812.56
652.14	807.23
652.49	801.92
652.83	796.71
653.17	790.98
653.51	785.20
653.85	779.85
654.20	774.18
654.54	768.20
654.88	762.42
655.22	756.46
655.56	750.76
655.90	745.31
656.25	740.02
656.59	734.65
656.93	729.64
657.27	724.48
657.61	719.13
657.95	714.02
658.29	708.94
658.64	703.71
658.98	698.46
659.32	693.00
659.66	687.81
660.00	682.46
660.34	677.51
660.68	672.59
661.02	667.57
661.36	662.83
661.70	658.30
662.05	653.94
662.39	649.71
662.73	645.31
663.07	640.93
663.41	636.47
663.75	632.00
664.09	627.42
664.43	623.06
664.77	618.89
665.11	614.63
665.45	610.52
665.79	606.39
666.13	602.28
666.47	598.19
666.81	593.99
667.15	589.92
667.49	586.01
667.83	582.27
668.17	578.35
668.51	574.33
668.85	570.36
669.19	566.58
669.53	562.69
669.87	558.81
670.21	555.12
670.55	551.52
670.89	548.07
671.23	544.63
671.57	541.13
671.91	537.57
672.25	534.11
672.58	530.59
672.92	527.23
673.26	524.05
673.60	520.89
673.94	517.78
674.28	514.88
674.62	511.93
674.96	508.83
675.30	505.85
675.64	502.90
675.97	500.14
676.31	497.23
676.65	494.26
676.99	491.58
677.33	488.73
677.67	485.94
678.01	482.93
678.34	479.88
678.68	477.03
679.02	474.23
679.36	471.49
679.70	468.75
680.04	465.98
680.37	463.12
680.71	460.42
681.05	457.80
681.39	455.10
681.73	452.43
682.06	449.88
682.40	447.36
682.74	444.84
683.08	442.28
683.42	439.68
683.75	437.26
684.09	434.67
684.43	432.20
684.77	429.76
685.10	427.44
685.44	425.19
685.78	422.89
686.12	420.63
686.45	418.32
686.79	416.05
687.13	413.84
687.46	411.68
687.80	409.50
688.14	407.28
688.48	405.22
688.81	402.99
689.15	400.83
689.49	398.71
689.82	396.67
690.16	394.60
690.50	392.69
690.83	390.74
691.17	388.76
691.51	386.88
691.84	384.95
692.18	382.97
692.52	381.00
692.85	379.04
693.19	377.14
693.52	375.33
693.86	373.54
694.20	371.79
694.53	370.04
694.87	368.16
695.21	366.39
695.54	364.57
695.88	362.84
696.21	361.17
696.55	359.48
696.88	357.77
697.22	356.08
697.56	354.40
697.89	352.69
698.23	351.08
698.56	349.46
698.90	347.82
699.23	346.19
699.57	344.64
699.90	343.13
700.24	341.59
700.58	340.03
700.91	338.52
701.25	337.10
701.58	335.68
701.92	334.35
702.25	332.97
702.59	331.60
702.92	330.29
703.26	328.94
703.59	327.68
703.93	326.45
704.26	325.23
704.60	323.98
704.93	322.74
705.26	321.47
705.60	320.29
705.93	319.17
706.27	318.17
706.60	317.10
706.94	316.02
707.27	314.90
707.61	313.87
707.94	312.85
708.27	311.73
708.61	310.67
708.94	309.67
709.28	308.67
709.61	307.74
709.94	306.82
710.28	305.87
710.61	304.90
710.95	303.85
711.28	302.94
711.61	301.98
711.95	301.06
712.28	300.11
712.61	299.11
712.95	298.21
713.28	297.31
713.61	296.43
713.95	295.51
714.28	294.69
714.61	293.80
714.95	292.98
715.28	292.15
715.61	291.30
715.95	290.44
716.28	289.62
716.61	288.74
716.95	287.89
717.28	287.08
717.61	286.31
717.94	285.60
718.28	284.77
718.61	284.05
718.94	283.38
719.27	282.75
719.61	282.14
719.94	281.46
720.27	280.74
720.60	280.09
720.94	279.51
721.27	278.92
721.60	278.35
721.93	277.71
722.27	277.12
722.60	276.55
722.93	275.98
723.26	275.44
723.59	274.87
723.93	274.31
724.26	273.79
724.59	273.25
724.92	272.72
725.25	272.23
725.59	271.74
725.92	271.19
726.25	270.69
726.58	270.19
726.91	269.69
727.24	269.25
727.57	268.73
727.91	268.22
728.24	267.70
728.57	267.23
728.90	266.81
729.23	266.34
729.56	265.94
729.89	265.46
730.22	264.94
730.55	264.50
730.89	264.04
731.22	263.57
731.55	263.12
731.88	262.68
732.21	262.25
732.54	261.77
732.87	261.33
733.20	260.89
733.53	260.49
733.86	260.12
734.19	259.72
734.52	259.38
734.85	259.08
735.18	258.66
735.51	258.27
735.84	257.86
736.17	257.50
736.50	257.07
736.83	256.85
737.16	256.54
737.49	256.19
737.82	255.86
738.15	255.53
738.48	255.19
738.81	254.87
739.14	254.57
739.47	254.30
739.80	254.04
740.13	253.75
740.46	253.43
740.79	253.10
741.12	252.75
741.45	252.42
741.78	252.05
742.11	251.80
742.44	251.47
742.77	251.22
743.10	250.88
743.43	250.59
743.75	250.19
744.08	250.02
744.41	249.72
744.74	249.45
745.07	249.19
745.40	248.98
745.73	248.70
746.06	248.39
746.39	248.09
746.71	247.80
747.04	247.50
747.37	247.22
747.70	246.98
748.03	246.75
748.36	246.53
748.68	246.31
749.01	246.05
749.34	245.82
749.67	245.56
750.00	245.35
750.33	245.18
750.65	244.98
750.98	244.68
751.31	244.48
751.64	244.30
751.97	244.08
752.29	243.82
752.62	243.61
752.95	243.41
753.28	243.23
753.60	243.03
753.93	242.89
754.26	242.72
754.59	242.52
754.91	242.32
755.24	242.09
755.57	241.91
755.90	241.74
756.22	241.55
756.55	241.35
756.88	241.20
757.20	240.98
757.53	240.76
757.86	240.61
758.19	240.48
758.51	240.31
758.84	240.14
759.17	239.96
759.49	239.79
759.82	239.69
760.15	239.54
760.47	239.38
760.80	239.22
761.13	239.06
761.45	238.90
761.78	238.76
762.11	238.63
762.43	238.46
762.76	238.33
763.08	238.22
763.41	238.09
763.74	237.96
764.06	237.82
764.39	237.68
764.71	237.50
765.04	237.35
765.37	237.20
765.69	237.07
766.02	236.98
766.34	236.87
766.67	236.67
767.00	236.56
767.32	236.51
767.65	236.45
767.97	236.33
768.30	236.25
768.62	236.14
768.95	236.04
769.27	235.93
769.60	235.80
769.92	235.66
770.25	235.55
770.57	235.42
770.90	235.29
771.22	235.17
771.55	235.08
771.87	235.00
772.20	234.93
772.52	234.93
772.85	234.92
773.17	234.85
773.50	234.77
773.82	234.66
774.15	234.52
774.47	234.35
774.80	234.27
775.12	234.18
775.45	234.09
775.77	234.01
776.09	233.93
776.42	233.87
776.74	233.85
777.07	233.80
777.39	233.75
777.72	233.70
778.04	233.65
778.36	233.60
778.69	233.52
779.01	233.45
779.33	233.33
779.66	233.17
779.98	233.10
780.31	233.03
780.63	233.02
780.95	232.97
781.28	232.91
781.60	232.82
781.92	232.78
782.25	232.73
782.57	232.69
782.89	232.64
783.22	232.59
783.54	232.52
783.86	232.47
784.19	232.40
784.51	232.37
784.83	232.32
785.16	232.25
785.48	232.19
785.80	232.13
786.12	232.08
786.45	232.05
786.77	232.00
787.09	231.98
