SpectraSuite Data File
++++++++++++++++++++++++++++++++++++
Date: Fri Feb 01 15:00:51 EST 2013
User: group
Dark Spectrum Present: No
Reference Spectrum Present: No
Number of Sampled Component Spectra: 1
Spectrometers: USB2E7196
Integration Time (usec): 35000 (USB2E7196)
Spectra Averaged: 100 (USB2E7196)
Boxcar Smoothing: 10 (USB2E7196)
Correct for Electrical Dark: No (USB2E7196)
Strobe/Lamp Enabled: No (USB2E7196)
Correct for Detector Non-linearity: No (USB2E7196)
Correct for Stray Light: No (USB2E7196)
Number of Pixels in Processed Spectrum: 2048
>>>>>Begin Processed Spectral Data<<<<<
339.09	0.00
339.48	215.29
339.86	216.58
340.24	218.82
340.63	219.70
341.01	222.42
341.39	222.43
341.78	224.04
342.16	224.51
342.54	225.06
342.93	213.66
343.31	224.46
343.69	225.01
344.07	225.51
344.46	225.90
344.84	226.27
345.22	226.48
345.60	226.72
345.99	226.87
346.37	226.99
346.75	227.13
347.13	227.18
347.52	227.23
347.90	227.31
348.28	227.33
348.66	227.37
349.05	227.36
349.43	227.45
349.81	227.49
350.19	227.53
350.57	227.59
350.96	227.68
351.34	227.76
351.72	227.86
352.10	227.92
352.48	227.97
352.87	228.03
353.25	228.13
353.63	228.20
354.01	228.26
354.39	228.36
354.77	228.43
355.15	228.54
355.54	228.63
355.92	228.70
356.30	228.78
356.68	228.89
357.06	228.95
357.44	228.99
357.82	229.05
358.20	229.11
358.58	229.16
358.97	229.24
359.35	229.31
359.73	229.35
360.11	229.40
360.49	229.46
360.87	229.47
361.25	229.47
361.63	229.51
362.01	229.56
362.39	229.58
362.77	229.58
363.15	229.60
363.53	229.61
363.91	229.62
364.29	229.58
364.67	229.52
365.05	229.52
365.43	229.52
365.81	229.52
366.19	229.54
366.57	229.59
366.95	229.56
367.33	229.52
367.71	229.49
368.09	229.51
368.47	229.49
368.85	229.48
369.23	229.48
369.61	229.39
369.99	229.37
370.37	229.34
370.75	229.36
371.13	229.24
371.51	229.18
371.89	229.13
372.27	229.13
372.65	229.09
373.03	229.00
373.41	228.93
373.78	228.89
374.16	228.77
374.54	228.66
374.92	228.57
375.30	228.50
375.68	228.44
376.06	228.32
376.44	228.25
376.82	228.20
377.19	228.15
377.57	228.11
377.95	228.04
378.33	227.97
378.71	227.84
379.09	227.83
379.47	227.76
379.84	227.68
380.22	227.58
380.60	227.46
380.98	227.43
381.36	227.34
381.73	227.28
382.11	227.22
382.49	227.18
382.87	227.10
383.25	227.02
383.62	227.05
384.00	226.98
384.38	226.91
384.76	226.86
385.13	226.83
385.51	226.78
385.89	226.72
386.27	226.68
386.64	226.64
387.02	226.57
387.40	226.55
387.78	226.50
388.15	226.44
388.53	226.42
388.91	226.38
389.29	226.39
389.66	226.33
390.04	226.34
390.42	226.34
390.79	226.35
391.17	226.37
391.55	226.25
391.92	226.25
392.30	226.27
392.68	226.28
393.05	226.29
393.43	226.30
393.81	226.30
394.18	226.28
394.56	226.29
394.94	226.34
395.31	226.37
395.69	226.43
396.06	226.53
396.44	226.58
396.82	226.61
397.19	226.68
397.57	226.74
397.95	226.76
398.32	226.77
398.70	226.82
399.07	226.91
399.45	226.99
399.82	227.06
400.20	227.13
400.58	227.21
400.95	227.22
401.33	227.34
401.70	227.52
402.08	227.67
402.45	227.82
402.83	227.94
403.20	228.03
403.58	228.16
403.95	228.27
404.33	228.43
404.71	228.58
405.08	228.77
405.46	228.89
405.83	229.09
406.21	229.29
406.58	229.50
406.96	229.64
407.33	229.84
407.70	230.05
408.08	230.35
408.45	230.57
408.83	230.83
409.20	231.06
409.58	231.24
409.95	231.48
410.33	231.77
410.70	232.01
411.08	232.33
411.45	232.62
411.82	232.92
412.20	233.26
412.57	233.72
412.95	233.98
413.32	234.43
413.69	234.79
414.07	235.22
414.44	235.69
414.82	236.22
415.19	236.76
415.56	237.31
415.94	237.86
416.31	238.48
416.68	239.13
417.06	239.85
417.43	240.55
417.81	241.32
418.18	242.07
418.55	242.91
418.93	243.79
419.30	244.71
419.67	245.68
420.04	246.66
420.42	247.65
420.79	248.85
421.16	250.02
421.54	251.27
421.91	252.48
422.28	253.72
422.66	255.03
423.03	256.32
423.40	257.65
423.77	259.05
424.15	260.51
424.52	262.00
424.89	263.66
425.26	265.22
425.64	266.67
426.01	268.26
426.38	269.91
426.75	271.60
427.13	273.32
427.50	275.12
427.87	277.00
428.24	278.84
428.61	280.58
428.99	282.48
429.36	284.53
429.73	286.58
430.10	288.64
430.47	290.69
430.85	292.82
431.22	295.04
431.59	297.45
431.96	299.69
432.33	302.12
432.70	304.44
433.08	307.24
433.45	309.88
433.82	312.48
434.19	315.43
434.56	318.22
434.93	320.87
435.30	323.44
435.68	326.31
436.05	329.16
436.42	331.95
436.79	334.50
437.16	337.17
437.53	340.06
437.90	342.86
438.27	345.61
438.64	348.43
439.01	351.05
439.38	353.27
439.75	355.42
440.13	357.91
440.50	360.29
440.87	362.11
441.24	364.03
441.61	366.22
441.98	367.69
442.35	369.51
442.72	371.37
443.09	373.23
443.46	374.23
443.83	374.80
444.20	375.30
444.57	376.11
444.94	376.41
445.31	376.70
445.68	377.12
446.05	377.18
446.42	376.78
446.79	376.34
447.16	375.85
447.53	375.55
447.90	374.40
448.27	373.24
448.64	371.67
449.01	370.56
449.37	368.53
449.74	366.60
450.11	364.34
450.48	361.83
450.85	359.28
451.22	357.15
451.59	355.14
451.96	353.17
452.33	350.59
452.70	348.29
453.07	345.51
453.43	342.54
453.80	339.80
454.17	337.15
454.54	334.63
454.91	331.91
455.28	329.23
455.65	326.77
456.02	324.30
456.38	322.18
456.75	319.51
457.12	317.28
457.49	315.04
457.86	312.90
458.23	311.07
458.59	309.02
458.96	306.92
459.33	305.05
459.70	303.21
460.07	301.70
460.43	299.98
460.80	298.34
461.17	296.90
461.54	295.38
461.91	293.96
462.27	292.51
462.64	291.27
463.01	289.89
463.38	288.56
463.74	287.17
464.11	285.99
464.48	284.95
464.85	283.84
465.21	283.01
465.58	282.05
465.95	280.95
466.32	280.03
466.68	279.14
467.05	278.22
467.42	277.34
467.78	276.42
468.15	275.56
468.52	274.86
468.88	273.99
469.25	273.18
469.62	272.58
469.98	271.92
470.35	271.28
470.72	270.72
471.08	270.03
471.45	269.49
471.82	268.94
472.18	268.31
472.55	267.87
472.92	267.33
473.28	266.82
473.65	266.37
474.02	265.88
474.38	265.49
474.75	265.17
475.11	264.81
475.48	264.51
475.85	264.22
476.21	263.98
476.58	263.78
476.94	263.64
477.31	263.42
477.67	263.27
478.04	263.15
478.41	263.04
478.77	263.09
479.14	263.02
479.50	263.00
479.87	263.09
480.23	263.15
480.60	263.21
480.96	263.35
481.33	263.53
481.69	263.71
482.06	263.93
482.42	264.12
482.79	264.34
483.15	264.69
483.52	265.04
483.88	265.38
484.25	265.73
484.61	266.16
484.98	266.59
485.34	267.15
485.71	267.71
486.07	268.35
486.44	268.91
486.80	269.61
487.17	270.33
487.53	271.15
487.90	271.98
488.26	272.90
488.62	273.81
488.99	274.78
489.35	275.82
489.72	276.94
490.08	278.13
490.44	279.37
490.81	280.66
491.17	282.01
491.54	283.50
491.90	285.06
492.26	286.68
492.63	288.40
492.99	290.16
493.36	292.03
493.72	294.04
494.08	296.14
494.45	298.37
494.81	300.76
495.17	303.14
495.54	305.73
495.90	308.39
496.26	311.23
496.63	314.17
496.99	317.29
497.35	320.48
497.72	323.89
498.08	327.39
498.44	331.03
498.80	334.98
499.17	338.96
499.53	343.10
499.89	347.43
500.26	351.92
500.62	356.58
500.98	361.57
501.34	366.65
501.71	371.95
502.07	377.35
502.43	382.94
502.79	388.73
503.16	394.77
503.52	401.03
503.88	407.42
504.24	414.00
504.60	420.82
504.97	427.91
505.33	435.21
505.69	442.85
506.05	450.58
506.41	458.40
506.78	466.57
507.14	475.01
507.50	483.68
507.86	492.75
508.22	501.91
508.59	511.02
508.95	520.58
509.31	530.36
509.67	540.47
510.03	550.71
510.39	561.34
510.75	572.15
511.12	583.13
511.48	594.42
511.84	605.85
512.20	617.43
512.56	629.38
512.92	641.56
513.28	653.96
513.64	666.48
514.00	679.28
514.37	692.21
514.73	705.30
515.09	718.46
515.45	731.77
515.81	745.35
516.17	759.39
516.53	773.48
516.89	787.73
517.25	801.94
517.61	816.46
517.97	830.91
518.33	845.40
518.69	860.18
519.05	875.16
519.41	890.39
519.77	905.92
520.13	921.47
520.49	936.99
520.85	952.51
521.21	968.29
521.57	984.49
521.93	1000.32
522.29	1016.66
522.65	1032.92
523.01	1049.15
523.37	1065.30
523.73	1081.60
524.09	1097.77
524.45	1114.19
524.81	1130.79
525.17	1147.60
525.53	1164.62
525.89	1181.48
526.25	1198.31
526.61	1214.86
526.97	1231.66
527.33	1248.27
527.68	1265.03
528.04	1281.46
528.40	1298.08
528.76	1315.16
529.12	1331.74
529.48	1348.69
529.84	1364.91
530.20	1381.56
530.56	1398.78
530.91	1416.25
531.27	1433.01
531.63	1449.51
531.99	1466.10
532.35	1482.29
532.71	1498.28
533.07	1514.58
533.42	1530.55
533.78	1546.63
534.14	1562.95
534.50	1578.29
534.86	1594.17
535.21	1609.22
535.57	1625.33
535.93	1640.94
536.29	1655.86
536.65	1671.25
537.00	1686.19
537.36	1701.57
537.72	1716.29
538.08	1730.69
538.44	1744.61
538.79	1758.61
539.15	1772.51
539.51	1786.40
539.87	1800.74
540.22	1814.50
540.58	1828.31
540.94	1841.79
541.29	1854.85
541.65	1867.66
542.01	1881.15
542.37	1893.60
542.72	1906.33
543.08	1918.13
543.44	1930.62
543.79	1941.87
544.15	1952.92
544.51	1964.53
544.87	1975.64
545.22	1986.42
545.58	1996.71
545.94	2006.47
546.29	2016.44
546.65	2026.31
547.01	2035.55
547.36	2044.37
547.72	2052.93
548.07	2060.81
548.43	2068.99
548.79	2077.10
549.14	2084.69
549.50	2092.06
549.86	2099.88
550.21	2107.07
550.57	2114.18
550.92	2120.72
551.28	2127.75
551.64	2134.78
551.99	2141.23
552.35	2147.31
552.70	2153.51
553.06	2159.33
553.41	2165.65
553.77	2171.64
554.13	2177.64
554.48	2183.75
554.84	2189.07
555.19	2194.36
555.55	2199.51
555.90	2203.99
556.26	2208.71
556.61	2213.43
556.97	2217.59
557.32	2221.48
557.68	2225.61
558.03	2229.89
558.39	2233.62
558.74	2238.25
559.10	2241.95
559.45	2245.57
559.81	2249.95
560.16	2253.69
560.52	2257.01
560.87	2260.42
561.23	2262.98
561.58	2265.89
561.94	2268.35
562.29	2270.79
562.64	2273.38
563.00	2275.96
563.35	2279.43
563.71	2282.56
564.06	2285.61
564.42	2288.40
564.77	2290.76
565.12	2292.89
565.48	2294.71
565.83	2296.38
566.19	2297.62
566.54	2298.64
566.89	2299.63
567.25	2299.96
567.60	2301.13
567.96	2302.54
568.31	2303.22
568.66	2304.12
569.02	2304.52
569.37	2304.75
569.72	2305.45
570.08	2305.33
570.43	2305.18
570.78	2304.27
571.14	2302.62
571.49	2301.04
571.84	2300.59
572.20	2299.38
572.55	2298.13
572.90	2296.40
573.26	2294.69
573.61	2292.80
573.96	2290.65
574.31	2287.58
574.67	2284.37
575.02	2280.68
575.37	2277.30
575.72	2273.32
576.08	2269.96
576.43	2266.47
576.78	2262.70
577.13	2259.38
577.49	2256.38
577.84	2252.77
578.19	2249.06
578.54	2245.19
578.90	2240.83
579.25	2235.17
579.60	2230.06
579.95	2225.06
580.30	2219.97
580.66	2214.96
581.01	2209.91
581.36	2204.86
581.71	2200.65
582.06	2196.00
582.42	2191.38
582.77	2185.96
583.12	2181.20
583.47	2176.19
583.82	2171.01
584.17	2165.48
584.53	2159.77
584.88	2153.87
585.23	2147.86
585.58	2142.18
585.93	2136.69
586.28	2131.84
586.63	2126.58
586.98	2121.53
587.34	2116.78
587.69	2111.66
588.04	2106.17
588.39	2100.37
588.74	2093.90
589.09	2087.47
589.44	2080.56
589.79	2074.43
590.14	2068.64
590.49	2062.02
590.84	2055.62
591.19	2049.62
591.54	2043.17
591.89	2035.69
592.25	2028.75
592.60	2021.33
592.95	2013.64
593.30	2006.20
593.65	1998.62
594.00	1991.45
594.35	1983.96
594.70	1975.72
595.05	1968.43
595.40	1961.14
595.75	1953.57
596.10	1947.14
596.45	1940.26
596.80	1934.13
597.15	1927.30
597.50	1920.17
597.85	1913.65
598.19	1907.00
598.54	1899.65
598.89	1892.93
599.24	1886.94
599.59	1880.20
599.94	1874.03
600.29	1867.68
600.64	1861.00
600.99	1853.36
601.34	1846.38
601.69	1839.35
602.04	1832.38
602.39	1824.93
602.74	1818.03
603.08	1811.25
603.43	1804.64
603.78	1797.32
604.13	1790.03
604.48	1782.77
604.83	1775.88
605.18	1768.95
605.53	1760.80
605.87	1752.88
606.22	1745.53
606.57	1737.62
606.92	1730.45
607.27	1723.27
607.62	1716.34
607.96	1708.98
608.31	1702.40
608.66	1694.72
609.01	1687.26
609.36	1679.84
609.70	1671.90
610.05	1663.74
610.40	1656.03
610.75	1647.54
611.10	1639.95
611.44	1631.55
611.79	1623.66
612.14	1614.90
612.49	1605.70
612.83	1597.39
613.18	1589.29
613.53	1581.22
613.88	1572.81
614.22	1564.36
614.57	1555.91
614.92	1547.82
615.27	1540.24
615.61	1531.83
615.96	1524.13
616.31	1516.45
616.65	1508.93
617.00	1501.41
617.35	1493.90
617.70	1485.49
618.04	1477.01
618.39	1468.82
618.74	1461.29
619.08	1452.96
619.43	1445.56
619.78	1438.69
620.12	1431.55
620.47	1424.03
620.82	1415.93
621.16	1408.55
621.51	1401.14
621.85	1393.52
622.20	1385.13
622.55	1377.04
622.89	1369.36
623.24	1361.76
623.59	1354.57
623.93	1347.14
624.28	1339.97
624.62	1332.41
624.97	1325.25
625.32	1318.66
625.66	1311.57
626.01	1304.35
626.35	1296.83
626.70	1289.19
627.04	1281.47
627.39	1273.77
627.73	1266.36
628.08	1259.58
628.43	1252.20
628.77	1244.80
629.12	1237.14
629.46	1229.92
629.81	1222.46
630.15	1215.22
630.50	1207.79
630.84	1199.57
631.19	1191.74
631.53	1184.26
631.88	1176.76
632.22	1169.32
632.57	1162.09
632.91	1154.67
633.26	1147.22
633.60	1140.03
633.95	1132.97
634.29	1126.02
634.64	1119.38
634.98	1112.18
635.32	1105.02
635.67	1098.51
636.01	1091.86
636.36	1085.21
636.70	1078.79
637.05	1072.27
637.39	1065.94
637.73	1059.47
638.08	1053.64
638.42	1047.64
638.77	1041.20
639.11	1034.59
639.45	1028.27
639.80	1021.51
640.14	1015.06
640.49	1008.64
640.83	1002.30
641.17	996.05
641.52	989.75
641.86	983.46
642.20	977.57
642.55	971.32
642.89	964.86
643.23	958.50
643.58	952.71
643.92	946.55
644.26	940.44
644.61	934.41
644.95	928.37
645.29	921.75
645.64	915.05
645.98	908.76
646.32	903.08
646.66	897.03
647.01	891.33
647.35	885.74
647.69	880.00
648.04	874.55
648.38	868.76
648.72	862.70
649.06	856.54
649.41	850.70
649.75	844.65
650.09	838.68
650.43	832.82
650.78	826.77
651.12	820.75
651.46	815.06
651.80	809.26
652.14	803.87
652.49	798.55
652.83	793.37
653.17	787.70
653.51	781.92
653.85	776.52
654.20	770.85
654.54	764.89
654.88	759.15
655.22	753.30
655.56	747.63
655.90	742.20
656.25	737.01
656.59	731.61
656.93	726.62
657.27	721.49
657.61	716.04
657.95	710.93
658.29	705.96
658.64	700.77
658.98	695.62
659.32	690.24
659.66	685.06
660.00	679.84
660.34	674.92
660.68	670.07
661.02	665.03
661.36	660.43
661.70	655.98
662.05	651.67
662.39	647.28
662.73	642.82
663.07	638.51
663.41	634.03
663.75	629.63
664.09	625.10
664.43	620.82
664.77	616.72
665.11	612.47
665.45	608.35
665.79	604.24
666.13	600.11
666.47	596.01
666.81	591.82
667.15	587.74
667.49	583.84
667.83	580.08
668.17	576.30
668.51	572.26
668.85	568.25
669.19	564.44
669.53	560.67
669.87	556.86
670.21	553.21
670.55	549.62
670.89	546.23
671.23	542.80
671.57	539.28
671.91	535.85
672.25	532.45
672.58	529.00
672.92	525.68
673.26	522.53
673.60	519.44
673.94	516.41
674.28	513.49
674.62	510.57
674.96	507.49
675.30	504.53
675.64	501.59
675.97	498.84
676.31	495.98
676.65	493.03
676.99	490.36
677.33	487.50
677.67	484.66
678.01	481.57
678.34	478.63
678.68	475.74
679.02	472.93
679.36	470.21
679.70	467.45
680.04	464.70
680.37	461.82
680.71	459.07
681.05	456.46
681.39	453.77
681.73	451.19
682.06	448.66
682.40	446.14
682.74	443.63
683.08	441.07
683.42	438.50
683.75	436.12
684.09	433.59
684.43	431.19
684.77	428.85
685.10	426.55
685.44	424.28
685.78	422.07
686.12	419.86
686.45	417.57
686.79	415.31
687.13	413.14
687.46	410.99
687.80	408.83
688.14	406.65
688.48	404.60
688.81	402.39
689.15	400.27
689.49	398.19
689.82	396.12
690.16	394.10
690.50	392.15
690.83	390.18
691.17	388.23
691.51	386.30
691.84	384.43
692.18	382.55
692.52	380.56
692.85	378.63
693.19	376.74
693.52	374.90
693.86	373.12
694.20	371.36
694.53	369.58
694.87	367.77
695.21	366.03
695.54	364.23
695.88	362.49
696.21	360.78
696.55	359.07
696.88	357.41
697.22	355.77
697.56	354.19
697.89	352.56
698.23	350.98
698.56	349.37
698.90	347.78
699.23	346.11
699.57	344.60
699.90	343.05
700.24	341.51
700.58	339.97
700.91	338.49
701.25	337.04
701.58	335.70
701.92	334.36
702.25	332.98
702.59	331.59
702.92	330.27
703.26	328.97
703.59	327.67
703.93	326.47
704.26	325.24
704.60	323.89
704.93	322.62
705.26	321.39
705.60	320.27
705.93	319.11
706.27	318.11
706.60	317.01
706.94	315.88
707.27	314.73
707.61	313.69
707.94	312.64
708.27	311.56
708.61	310.45
708.94	309.42
709.28	308.41
709.61	307.49
709.94	306.54
710.28	305.48
710.61	304.57
710.95	303.53
711.28	302.59
711.61	301.71
711.95	300.81
712.28	299.84
712.61	298.84
712.95	297.95
713.28	297.07
713.61	296.23
713.95	295.41
714.28	294.62
714.61	293.77
714.95	292.93
715.28	292.07
715.61	291.20
715.95	290.35
716.28	289.51
716.61	288.70
716.95	287.91
717.28	287.20
717.61	286.39
717.94	285.69
718.28	284.92
718.61	284.20
718.94	283.48
719.27	282.82
719.61	282.18
719.94	281.49
720.27	280.78
720.60	280.10
720.94	279.48
721.27	278.87
721.60	278.31
721.93	277.73
722.27	277.19
722.60	276.68
722.93	276.11
723.26	275.60
723.59	275.03
723.93	274.50
724.26	273.95
724.59	273.41
724.92	272.88
725.25	272.38
725.59	271.89
725.92	271.43
726.25	270.94
726.58	270.44
726.91	269.97
727.24	269.49
727.57	269.05
727.91	268.55
728.24	268.11
728.57	267.62
728.90	267.18
729.23	266.69
729.56	266.25
729.89	265.78
730.22	265.30
730.55	264.83
730.89	264.38
731.22	263.95
731.55	263.52
731.88	263.10
732.21	262.67
732.54	262.20
732.87	261.76
733.20	261.36
733.53	261.00
733.86	260.63
734.19	260.24
734.52	259.87
734.85	259.58
735.18	259.14
735.51	258.80
735.84	258.45
736.17	258.07
736.50	257.68
736.83	257.43
737.16	257.10
737.49	256.81
737.82	256.45
738.15	256.12
738.48	255.78
738.81	255.44
739.14	255.10
739.47	254.76
739.80	254.46
740.13	254.18
740.46	253.83
740.79	253.49
741.12	253.18
741.45	252.85
741.78	252.46
742.11	252.20
742.44	251.83
742.77	251.51
743.10	251.22
743.43	250.91
743.75	250.57
744.08	250.39
744.41	250.07
744.74	249.82
745.07	249.51
745.40	249.23
745.73	248.99
746.06	248.69
746.39	248.47
746.71	248.19
747.04	247.88
747.37	247.61
747.70	247.34
748.03	247.06
748.36	246.82
748.68	246.59
749.01	246.29
749.34	246.07
749.67	245.84
750.00	245.62
750.33	245.49
750.65	245.26
750.98	244.92
751.31	244.71
751.64	244.52
751.97	244.38
752.29	244.19
752.62	243.91
752.95	243.71
753.28	243.49
753.60	243.29
753.93	243.15
754.26	242.98
754.59	242.77
754.91	242.59
755.24	242.41
755.57	242.22
755.90	242.04
756.22	241.84
756.55	241.68
756.88	241.53
757.20	241.28
757.53	241.09
757.86	240.93
758.19	240.79
758.51	240.57
758.84	240.38
759.17	240.20
759.49	240.08
759.82	239.99
760.15	239.85
760.47	239.67
760.80	239.46
761.13	239.32
761.45	239.19
761.78	239.08
762.11	238.95
762.43	238.81
762.76	238.70
763.08	238.59
763.41	238.42
763.74	238.27
764.06	238.12
764.39	237.97
764.71	237.83
765.04	237.70
765.37	237.56
765.69	237.43
766.02	237.32
766.34	237.20
766.67	237.05
767.00	236.95
767.32	236.91
767.65	236.86
767.97	236.75
768.30	236.65
768.62	236.52
768.95	236.38
769.27	236.27
769.60	236.18
769.92	236.04
770.25	235.92
770.57	235.82
770.90	235.70
771.22	235.62
771.55	235.55
771.87	235.47
772.20	235.40
772.52	235.40
772.85	235.44
773.17	235.37
773.50	235.27
773.82	235.20
774.15	235.05
774.47	234.92
774.80	234.83
775.12	234.73
775.45	234.66
775.77	234.62
776.09	234.53
776.42	234.46
776.74	234.44
777.07	234.38
777.39	234.32
777.72	234.29
778.04	234.21
778.36	234.12
778.69	234.06
779.01	234.01
779.33	233.84
779.66	233.67
779.98	233.55
780.31	233.49
780.63	233.46
780.95	233.42
781.28	233.35
781.60	233.26
781.92	233.23
782.25	233.18
782.57	233.10
782.89	233.04
783.22	232.97
783.54	232.88
783.86	232.83
784.19	232.75
784.51	232.68
784.83	232.62
785.16	232.57
785.48	232.53
785.80	232.45
786.12	232.39
786.45	232.33
786.77	232.29
787.09	232.19
