SpectraSuite Data File
++++++++++++++++++++++++++++++++++++
Date: Fri Feb 01 17:05:22 EST 2013
User: group
Dark Spectrum Present: No
Reference Spectrum Present: No
Number of Sampled Component Spectra: 1
Spectrometers: USB2E7196
Integration Time (usec): 35000 (USB2E7196)
Spectra Averaged: 100 (USB2E7196)
Boxcar Smoothing: 10 (USB2E7196)
Correct for Electrical Dark: No (USB2E7196)
Strobe/Lamp Enabled: No (USB2E7196)
Correct for Detector Non-linearity: No (USB2E7196)
Correct for Stray Light: No (USB2E7196)
Number of Pixels in Processed Spectrum: 2048
>>>>>Begin Processed Spectral Data<<<<<
339.09	0.00
339.48	213.14
339.86	215.30
340.24	216.43
340.63	217.23
341.01	220.62
341.39	220.48
341.78	221.80
342.16	223.33
342.54	223.57
342.93	211.92
343.31	222.62
343.69	223.18
344.07	223.60
344.46	224.02
344.84	224.42
345.22	224.66
345.60	224.93
345.99	225.10
346.37	225.22
346.75	225.30
347.13	225.35
347.52	225.43
347.90	225.51
348.28	225.51
348.66	225.54
349.05	225.54
349.43	225.58
349.81	225.62
350.19	225.66
350.57	225.69
350.96	225.77
351.34	225.87
351.72	225.97
352.10	226.07
352.48	226.13
352.87	226.17
353.25	226.23
353.63	226.27
354.01	226.36
354.39	226.40
354.77	226.50
355.15	226.63
355.54	226.67
355.92	226.67
356.30	226.75
356.68	226.90
357.06	226.95
357.44	226.99
357.82	227.05
358.20	227.13
358.58	227.17
358.97	227.23
359.35	227.29
359.73	227.34
360.11	227.39
360.49	227.46
360.87	227.51
361.25	227.58
361.63	227.62
362.01	227.67
362.39	227.70
362.77	227.77
363.15	227.78
363.53	227.79
363.91	227.85
364.29	227.86
364.67	227.77
365.05	227.80
365.43	227.83
365.81	227.86
366.19	227.90
366.57	227.97
366.95	227.93
367.33	227.88
367.71	227.85
368.09	227.86
368.47	227.85
368.85	227.84
369.23	227.83
369.61	227.78
369.99	227.78
370.37	227.77
370.75	227.72
371.13	227.68
371.51	227.65
371.89	227.60
372.27	227.59
372.65	227.57
373.03	227.50
373.41	227.44
373.78	227.37
374.16	227.26
374.54	227.15
374.92	227.13
375.30	227.11
375.68	227.04
376.06	227.00
376.44	226.91
376.82	226.84
377.19	226.75
377.57	226.70
377.95	226.57
378.33	226.47
378.71	226.39
379.09	226.35
379.47	226.28
379.84	226.21
380.22	226.14
380.60	226.06
380.98	226.01
381.36	225.95
381.73	225.87
382.11	225.82
382.49	225.79
382.87	225.71
383.25	225.64
383.62	225.71
384.00	225.62
384.38	225.57
384.76	225.54
385.13	225.54
385.51	225.50
385.89	225.45
386.27	225.45
386.64	225.42
387.02	225.35
387.40	225.30
387.78	225.26
388.15	225.20
388.53	225.18
388.91	225.15
389.29	225.12
389.66	225.11
390.04	225.10
390.42	225.07
390.79	225.01
391.17	224.98
391.55	224.85
391.92	224.85
392.30	224.87
392.68	224.85
393.05	224.82
393.43	224.77
393.81	224.78
394.18	224.72
394.56	224.70
394.94	224.72
395.31	224.73
395.69	224.76
396.06	224.76
396.44	224.75
396.82	224.76
397.19	224.85
397.57	224.86
397.95	224.91
398.32	224.93
398.70	225.01
399.07	225.07
399.45	225.13
399.82	225.19
400.20	225.23
400.58	225.30
400.95	225.32
401.33	225.46
401.70	225.59
402.08	225.73
402.45	225.83
402.83	225.93
403.20	226.04
403.58	226.15
403.95	226.29
404.33	226.45
404.71	226.54
405.08	226.70
405.46	226.82
405.83	226.93
406.21	227.08
406.58	227.24
406.96	227.40
407.33	227.57
407.70	227.73
408.08	227.97
408.45	228.15
408.83	228.39
409.20	228.55
409.58	228.73
409.95	228.96
410.33	229.22
410.70	229.43
411.08	229.75
411.45	230.05
411.82	230.32
412.20	230.64
412.57	231.11
412.95	231.36
413.32	231.76
413.69	232.18
414.07	232.60
414.44	233.05
414.82	233.51
415.19	234.02
415.56	234.57
415.94	235.08
416.31	235.73
416.68	236.35
417.06	237.08
417.43	237.78
417.81	238.53
418.18	239.30
418.55	240.16
418.93	240.97
419.30	241.87
419.67	242.84
420.04	243.78
420.42	244.69
420.79	245.88
421.16	247.04
421.54	248.24
421.91	249.44
422.28	250.70
422.66	252.01
423.03	253.28
423.40	254.63
423.77	256.03
424.15	257.42
424.52	258.88
424.89	260.46
425.26	261.94
425.64	263.39
426.01	264.95
426.38	266.65
426.75	268.34
427.13	270.04
427.50	271.82
427.87	273.66
428.24	275.53
428.61	277.26
428.99	279.18
429.36	281.24
429.73	283.30
430.10	285.27
430.47	287.31
430.85	289.48
431.22	291.73
431.59	294.13
431.96	296.38
432.33	298.84
432.70	301.24
433.08	304.07
433.45	306.68
433.82	309.28
434.19	312.09
434.56	314.87
434.93	317.50
435.30	320.09
435.68	323.03
436.05	325.83
436.42	328.65
436.79	331.17
437.16	333.79
437.53	336.60
437.90	339.40
438.27	342.12
438.64	344.92
439.01	347.43
439.38	349.66
439.75	351.79
440.13	354.25
440.50	356.51
440.87	358.30
441.24	360.22
441.61	362.38
441.98	363.84
442.35	365.63
442.72	367.44
443.09	369.28
443.46	370.24
443.83	370.87
444.20	371.33
444.57	372.16
444.94	372.55
445.31	372.89
445.68	373.27
446.05	373.37
446.42	373.02
446.79	372.65
447.16	372.26
447.53	372.01
447.90	370.91
448.27	369.81
448.64	368.28
449.01	367.18
449.37	365.27
449.74	363.45
450.11	361.27
450.48	358.91
450.85	356.40
451.22	354.29
451.59	352.30
451.96	350.40
452.33	347.83
452.70	345.47
453.07	342.68
453.43	339.85
453.80	337.14
454.17	334.49
454.54	331.98
454.91	329.24
455.28	326.59
455.65	324.16
456.02	321.77
456.38	319.69
456.75	317.07
457.12	314.85
457.49	312.63
457.86	310.45
458.23	308.57
458.59	306.53
458.96	304.48
459.33	302.65
459.70	300.79
460.07	299.30
460.43	297.59
460.80	296.01
461.17	294.56
461.54	293.05
461.91	291.60
462.27	290.17
462.64	288.94
463.01	287.60
463.38	286.31
463.74	284.94
464.11	283.77
464.48	282.74
464.85	281.63
465.21	280.73
465.58	279.84
465.95	278.74
466.32	277.85
466.68	276.94
467.05	276.05
467.42	275.18
467.78	274.26
468.15	273.44
468.52	272.76
468.88	271.89
469.25	271.17
469.62	270.56
469.98	269.91
470.35	269.30
470.72	268.68
471.08	268.03
471.45	267.51
471.82	266.94
472.18	266.39
472.55	265.95
472.92	265.49
473.28	265.05
473.65	264.61
474.02	264.19
474.38	263.81
474.75	263.49
475.11	263.17
475.48	262.93
475.85	262.70
476.21	262.51
476.58	262.36
476.94	262.21
477.31	262.05
477.67	261.91
478.04	261.77
478.41	261.74
478.77	261.84
479.14	261.76
479.50	261.80
479.87	261.87
480.23	261.95
480.60	262.02
480.96	262.15
481.33	262.37
481.69	262.58
482.06	262.79
482.42	263.02
482.79	263.31
483.15	263.64
483.52	264.01
483.88	264.36
484.25	264.73
484.61	265.11
484.98	265.61
485.34	266.19
485.71	266.79
486.07	267.42
486.44	267.96
486.80	268.69
487.17	269.42
487.53	270.25
487.90	271.12
488.26	272.05
488.62	273.02
488.99	274.00
489.35	275.04
489.72	276.21
490.08	277.39
490.44	278.59
490.81	279.89
491.17	281.22
491.54	282.70
491.90	284.26
492.26	285.90
492.63	287.58
492.99	289.31
493.36	291.22
493.72	293.21
494.08	295.30
494.45	297.53
494.81	299.88
495.17	302.27
495.54	304.80
495.90	307.51
496.26	310.28
496.63	313.20
496.99	316.34
497.35	319.52
497.72	322.91
498.08	326.43
498.44	330.05
498.80	333.96
499.17	337.98
499.53	342.13
499.89	346.53
500.26	351.00
500.62	355.67
500.98	360.58
501.34	365.63
501.71	370.91
502.07	376.31
502.43	381.83
502.79	387.61
503.16	393.68
503.52	399.83
503.88	406.17
504.24	412.76
504.60	419.47
504.97	426.53
505.33	433.81
505.69	441.40
506.05	449.14
506.41	456.92
506.78	464.96
507.14	473.32
507.50	481.92
507.86	490.83
508.22	499.89
508.59	509.00
508.95	518.45
509.31	528.17
509.67	538.14
510.03	548.33
510.39	558.68
510.75	569.27
511.12	580.09
511.48	591.20
511.84	602.54
512.20	613.95
512.56	625.68
512.92	637.61
513.28	649.87
513.64	662.16
514.00	674.66
514.37	687.41
514.73	700.24
515.09	712.98
515.45	726.02
515.81	739.35
516.17	753.03
516.53	766.91
516.89	780.73
517.25	794.63
517.61	808.79
517.97	823.01
518.33	837.16
518.69	851.60
519.05	866.26
519.41	880.99
519.77	896.21
520.13	911.42
520.49	926.60
520.85	941.57
521.21	956.79
521.57	972.74
521.93	988.20
522.29	1004.18
522.65	1020.21
523.01	1036.12
523.37	1051.82
523.73	1067.66
524.09	1083.40
524.45	1099.37
524.81	1115.66
525.17	1132.02
525.53	1148.61
525.89	1165.18
526.25	1181.72
526.61	1197.79
526.97	1214.17
527.33	1230.23
527.68	1246.41
528.04	1262.41
528.40	1278.57
528.76	1295.37
529.12	1311.40
529.48	1327.93
529.84	1343.55
530.20	1359.63
530.56	1375.97
530.91	1393.02
531.27	1409.37
531.63	1425.44
531.99	1441.71
532.35	1457.21
532.71	1472.79
533.07	1488.60
533.42	1504.15
533.78	1519.82
534.14	1535.76
534.50	1550.84
534.86	1566.32
535.21	1581.13
535.57	1596.71
535.93	1611.85
536.29	1626.37
536.65	1641.16
537.00	1655.42
537.36	1670.44
537.72	1684.72
538.08	1699.03
538.44	1712.40
538.79	1726.02
539.15	1739.34
539.51	1752.64
539.87	1766.61
540.22	1779.90
540.58	1793.30
540.94	1806.08
541.29	1818.52
541.65	1830.86
542.01	1843.82
542.37	1855.89
542.72	1868.04
543.08	1879.61
543.44	1891.78
543.79	1902.69
544.15	1913.46
544.51	1924.88
544.87	1935.63
545.22	1946.33
545.58	1956.45
545.94	1966.07
546.29	1975.65
546.65	1985.40
547.01	1994.61
547.36	2003.22
547.72	2011.54
548.07	2019.33
548.43	2027.40
548.79	2035.35
549.14	2042.94
549.50	2049.95
549.86	2057.30
550.21	2064.58
550.57	2071.73
550.92	2078.23
551.28	2085.22
551.64	2092.23
551.99	2098.65
552.35	2104.71
552.70	2110.61
553.06	2116.50
553.41	2122.69
553.77	2128.70
554.13	2134.67
554.48	2140.76
554.84	2146.34
555.19	2151.63
555.55	2156.84
555.90	2161.34
556.26	2166.27
556.61	2170.75
556.97	2175.27
557.32	2179.66
557.68	2183.67
558.03	2187.88
558.39	2191.50
558.74	2196.06
559.10	2199.93
559.45	2203.66
559.81	2207.87
560.16	2211.93
560.52	2215.13
560.87	2218.73
561.23	2221.54
561.58	2224.42
561.94	2227.06
562.29	2229.44
562.64	2232.26
563.00	2234.93
563.35	2238.56
563.71	2241.74
564.06	2245.06
564.42	2248.05
564.77	2250.71
565.12	2253.30
565.48	2255.43
565.83	2257.74
566.19	2259.29
566.54	2260.22
566.89	2261.47
567.25	2262.48
567.60	2263.81
567.96	2265.70
568.31	2266.59
568.66	2267.89
569.02	2268.81
569.37	2269.29
569.72	2270.33
570.08	2270.78
570.43	2271.09
570.78	2270.75
571.14	2269.42
571.49	2268.30
571.84	2268.07
572.20	2267.13
572.55	2266.23
572.90	2264.49
573.26	2263.22
573.61	2261.64
573.96	2260.29
574.31	2257.75
574.67	2254.84
575.02	2251.42
575.37	2248.21
575.72	2244.69
576.08	2241.34
576.43	2238.04
576.78	2234.53
577.13	2231.50
577.49	2228.51
577.84	2225.07
578.19	2221.62
578.54	2218.28
578.90	2214.34
579.25	2208.96
579.60	2204.26
579.95	2199.60
580.30	2195.05
580.66	2190.03
581.01	2185.34
581.36	2180.68
581.71	2176.61
582.06	2172.49
582.42	2168.32
582.77	2163.29
583.12	2159.03
583.47	2154.76
583.82	2150.21
584.17	2145.29
584.53	2140.11
584.88	2134.64
585.23	2129.13
585.58	2123.78
585.93	2118.52
586.28	2113.77
586.63	2109.11
586.98	2104.15
587.34	2099.42
587.69	2094.66
588.04	2089.69
588.39	2084.22
588.74	2077.83
589.09	2071.85
589.44	2065.27
589.79	2059.34
590.14	2053.91
590.49	2047.52
590.84	2041.27
591.19	2035.43
591.54	2029.13
591.89	2022.01
592.25	2015.49
592.60	2008.45
592.95	2001.16
593.30	1993.87
593.65	1986.53
594.00	1979.55
594.35	1972.52
594.70	1964.64
595.05	1957.91
595.40	1950.79
595.75	1943.60
596.10	1937.67
596.45	1931.23
596.80	1925.28
597.15	1919.06
597.50	1912.44
597.85	1906.15
598.19	1899.68
598.54	1892.81
598.89	1886.34
599.24	1880.61
599.59	1874.19
599.94	1868.19
600.29	1861.90
600.64	1855.57
600.99	1848.34
601.34	1841.68
601.69	1834.77
602.04	1828.21
602.39	1820.68
602.74	1814.01
603.08	1807.39
603.43	1800.77
603.78	1793.45
604.13	1786.31
604.48	1779.10
604.83	1772.20
605.18	1765.38
605.53	1757.63
605.87	1749.60
606.22	1742.40
606.57	1734.42
606.92	1727.10
607.27	1720.16
607.62	1713.42
607.96	1706.25
608.31	1699.99
608.66	1692.52
609.01	1685.26
609.36	1677.90
609.70	1670.13
610.05	1662.16
610.40	1654.52
610.75	1646.42
611.10	1638.89
611.44	1630.43
611.79	1622.41
612.14	1613.87
612.49	1604.78
612.83	1596.35
613.18	1588.39
613.53	1580.44
613.88	1572.22
614.22	1564.08
614.57	1555.41
614.92	1547.43
615.27	1540.09
615.61	1531.72
615.96	1523.72
616.31	1516.08
616.65	1508.62
617.00	1501.16
617.35	1493.53
617.70	1485.31
618.04	1476.72
618.39	1468.55
618.74	1461.12
619.08	1452.97
619.43	1445.45
619.78	1438.57
620.12	1431.44
620.47	1423.97
620.82	1415.76
621.16	1408.17
621.51	1400.54
621.85	1392.90
622.20	1384.48
622.55	1376.13
622.89	1368.22
623.24	1360.65
623.59	1353.29
623.93	1345.83
624.28	1338.60
624.62	1331.22
624.97	1324.03
625.32	1317.28
625.66	1310.22
626.01	1303.12
626.35	1295.66
626.70	1287.84
627.04	1280.24
627.39	1272.55
627.73	1265.15
628.08	1258.31
628.43	1251.15
628.77	1243.88
629.12	1236.44
629.46	1229.37
629.81	1221.88
630.15	1214.76
630.50	1207.35
630.84	1199.26
631.19	1191.27
631.53	1183.82
631.88	1176.26
632.22	1168.81
632.57	1161.54
632.91	1154.08
633.26	1146.61
633.60	1139.16
633.95	1132.14
634.29	1125.07
634.64	1118.40
634.98	1111.17
635.32	1104.01
635.67	1097.37
636.01	1090.64
636.36	1083.98
636.70	1077.39
637.05	1070.90
637.39	1064.47
637.73	1058.05
638.08	1052.05
638.42	1046.18
638.77	1039.73
639.11	1033.27
639.45	1026.86
639.80	1020.28
640.14	1013.97
640.49	1007.62
640.83	1001.37
641.17	995.20
641.52	988.95
641.86	982.56
642.20	976.72
642.55	970.48
642.89	964.13
643.23	957.67
643.58	951.94
643.92	945.83
644.26	939.90
644.61	933.87
644.95	927.99
645.29	921.61
645.64	914.87
645.98	908.51
646.32	902.58
646.66	896.59
647.01	890.79
647.35	885.10
647.69	879.17
648.04	873.75
648.38	867.99
648.72	862.09
649.06	856.05
649.41	850.16
649.75	844.32
650.09	838.41
650.43	832.67
650.78	826.48
651.12	820.55
651.46	814.81
651.80	809.19
652.14	803.76
652.49	798.36
652.83	793.31
653.17	787.78
653.51	782.15
653.85	776.71
654.20	771.17
654.54	765.17
654.88	759.40
655.22	753.43
655.56	747.76
655.90	742.29
656.25	737.10
656.59	731.76
656.93	726.64
657.27	721.52
657.61	716.12
657.95	711.10
658.29	706.12
658.64	700.85
658.98	695.52
659.32	690.02
659.66	684.86
660.00	679.60
660.34	674.72
660.68	669.83
661.02	664.80
661.36	660.12
661.70	655.69
662.05	651.45
662.39	647.29
662.73	642.85
663.07	638.48
663.41	634.10
663.75	629.69
664.09	625.14
664.43	620.80
664.77	616.76
665.11	612.54
665.45	608.33
665.79	604.28
666.13	600.18
666.47	596.14
666.81	591.97
667.15	587.89
667.49	583.93
667.83	580.10
668.17	576.24
668.51	572.24
668.85	568.16
669.19	564.29
669.53	560.46
669.87	556.64
670.21	552.93
670.55	549.23
670.89	545.77
671.23	542.33
671.57	538.78
671.91	535.25
672.25	531.78
672.58	528.35
672.92	524.93
673.26	521.76
673.60	518.67
673.94	515.64
674.28	512.67
674.62	509.73
674.96	506.65
675.30	503.76
675.64	500.82
675.97	498.11
676.31	495.26
676.65	492.37
676.99	489.68
677.33	486.86
677.67	484.13
678.01	481.17
678.34	478.27
678.68	475.45
679.02	472.66
679.36	469.84
679.70	467.13
680.04	464.45
680.37	461.61
680.71	458.83
681.05	456.18
681.39	453.50
681.73	450.90
682.06	448.40
682.40	445.91
682.74	443.36
683.08	440.81
683.42	438.26
683.75	435.75
684.09	433.17
684.43	430.71
684.77	428.23
685.10	425.87
685.44	423.58
685.78	421.27
686.12	419.01
686.45	416.73
686.79	414.44
687.13	412.21
687.46	410.06
687.80	407.88
688.14	405.71
688.48	403.72
688.81	401.50
689.15	399.33
689.49	397.15
689.82	395.07
690.16	392.97
690.50	391.02
690.83	389.10
691.17	387.13
691.51	385.23
691.84	383.37
692.18	381.53
692.52	379.59
692.85	377.66
693.19	375.77
693.52	373.97
693.86	372.15
694.20	370.37
694.53	368.57
694.87	366.74
695.21	364.95
695.54	363.07
695.88	361.36
696.21	359.65
696.55	357.96
696.88	356.30
697.22	354.65
697.56	353.00
697.89	351.34
698.23	349.77
698.56	348.18
698.90	346.65
699.23	344.95
699.57	343.39
699.90	341.87
700.24	340.37
700.58	338.86
700.91	337.35
701.25	335.93
701.58	334.58
701.92	333.19
702.25	331.82
702.59	330.46
702.92	329.08
703.26	327.76
703.59	326.48
703.93	325.31
704.26	324.09
704.60	322.78
704.93	321.52
705.26	320.28
705.60	319.04
705.93	317.83
706.27	316.76
706.60	315.70
706.94	314.64
707.27	313.47
707.61	312.39
707.94	311.37
708.27	310.28
708.61	309.18
708.94	308.19
709.28	307.19
709.61	306.25
709.94	305.35
710.28	304.37
710.61	303.39
710.95	302.26
711.28	301.35
711.61	300.41
711.95	299.50
712.28	298.57
712.61	297.64
712.95	296.71
713.28	295.84
713.61	294.92
713.95	294.05
714.28	293.21
714.61	292.32
714.95	291.47
715.28	290.60
715.61	289.73
715.95	288.88
716.28	288.03
716.61	287.15
716.95	286.27
717.28	285.50
717.61	284.70
717.94	283.99
718.28	283.13
718.61	282.41
718.94	281.70
719.27	281.05
719.61	280.38
719.94	279.70
720.27	279.03
720.60	278.38
720.94	277.70
721.27	277.10
721.60	276.53
721.93	275.87
722.27	275.32
722.60	274.79
722.93	274.17
723.26	273.63
723.59	273.09
723.93	272.55
724.26	272.00
724.59	271.46
724.92	270.94
725.25	270.47
725.59	269.94
725.92	269.44
726.25	268.88
726.58	268.37
726.91	267.89
727.24	267.38
727.57	266.90
727.91	266.41
728.24	265.95
728.57	265.45
728.90	265.04
729.23	264.58
729.56	264.11
729.89	263.67
730.22	263.20
730.55	262.74
730.89	262.30
731.22	261.84
731.55	261.40
731.88	260.97
732.21	260.57
732.54	260.17
732.87	259.74
733.20	259.36
733.53	259.01
733.86	258.61
734.19	258.21
734.52	257.83
734.85	257.52
735.18	257.11
735.51	256.77
735.84	256.39
736.17	256.03
736.50	255.65
736.83	255.45
737.16	255.13
737.49	254.85
737.82	254.51
738.15	254.20
738.48	253.91
738.81	253.56
739.14	253.23
739.47	252.92
739.80	252.63
740.13	252.36
740.46	252.04
740.79	251.74
741.12	251.45
741.45	251.13
741.78	250.79
742.11	250.52
742.44	250.20
742.77	249.89
743.10	249.60
743.43	249.31
743.75	248.92
744.08	248.77
744.41	248.48
744.74	248.21
745.07	247.92
745.40	247.67
745.73	247.44
746.06	247.17
746.39	246.92
746.71	246.65
747.04	246.34
747.37	246.09
747.70	245.84
748.03	245.56
748.36	245.37
748.68	245.12
749.01	244.84
749.34	244.62
749.67	244.40
750.00	244.18
750.33	244.01
750.65	243.77
750.98	243.42
751.31	243.15
751.64	242.93
751.97	242.80
752.29	242.57
752.62	242.32
752.95	242.11
753.28	241.88
753.60	241.68
753.93	241.52
754.26	241.29
754.59	241.08
754.91	240.87
755.24	240.64
755.57	240.47
755.90	240.27
756.22	240.06
756.55	239.87
756.88	239.67
757.20	239.44
757.53	239.22
757.86	239.07
758.19	238.95
758.51	238.78
758.84	238.53
759.17	238.37
759.49	238.19
759.82	238.07
760.15	237.93
760.47	237.78
760.80	237.57
761.13	237.45
761.45	237.28
761.78	237.15
762.11	237.00
762.43	236.82
762.76	236.71
763.08	236.58
763.41	236.43
763.74	236.28
764.06	236.12
764.39	236.01
764.71	235.82
765.04	235.68
765.37	235.49
765.69	235.36
766.02	235.21
766.34	235.09
766.67	234.94
767.00	234.82
767.32	234.72
767.65	234.65
767.97	234.50
768.30	234.37
768.62	234.25
768.95	234.13
769.27	234.05
769.60	233.93
769.92	233.80
770.25	233.70
770.57	233.61
770.90	233.51
771.22	233.39
771.55	233.34
771.87	233.23
772.20	233.16
772.52	233.16
772.85	233.17
773.17	233.10
773.50	232.98
773.82	232.85
774.15	232.71
774.47	232.59
774.80	232.51
775.12	232.39
775.45	232.30
775.77	232.23
776.09	232.11
776.42	232.05
776.74	231.98
777.07	231.91
777.39	231.82
777.72	231.75
778.04	231.69
778.36	231.61
778.69	231.58
779.01	231.51
779.33	231.33
779.66	231.17
779.98	231.10
780.31	231.04
780.63	231.05
780.95	231.01
781.28	230.97
781.60	230.90
781.92	230.86
782.25	230.83
782.57	230.78
782.89	230.74
783.22	230.69
783.54	230.66
783.86	230.63
784.19	230.55
784.51	230.53
784.83	230.50
785.16	230.44
785.48	230.33
785.80	230.31
786.12	230.32
786.45	230.26
786.77	230.21
787.09	230.18
