SpectraSuite Data File
++++++++++++++++++++++++++++++++++++
Date: Fri Feb 01 16:06:52 EST 2013
User: group
Dark Spectrum Present: No
Reference Spectrum Present: No
Number of Sampled Component Spectra: 1
Spectrometers: USB2E7196
Integration Time (usec): 35000 (USB2E7196)
Spectra Averaged: 100 (USB2E7196)
Boxcar Smoothing: 10 (USB2E7196)
Correct for Electrical Dark: No (USB2E7196)
Strobe/Lamp Enabled: No (USB2E7196)
Correct for Detector Non-linearity: No (USB2E7196)
Correct for Stray Light: No (USB2E7196)
Number of Pixels in Processed Spectrum: 2048
>>>>>Begin Processed Spectral Data<<<<<
339.09	0.00
339.48	214.97
339.86	216.24
340.24	218.06
340.63	219.59
341.01	221.81
341.39	221.74
341.78	223.34
342.16	224.54
342.54	225.02
342.93	213.39
343.31	224.18
343.69	224.72
344.07	225.19
344.46	225.61
344.84	225.97
345.22	226.24
345.60	226.49
345.99	226.63
346.37	226.76
346.75	226.87
347.13	226.90
347.52	226.97
347.90	227.07
348.28	227.06
348.66	227.09
349.05	227.10
349.43	227.13
349.81	227.15
350.19	227.20
350.57	227.23
350.96	227.27
351.34	227.35
351.72	227.42
352.10	227.49
352.48	227.53
352.87	227.55
353.25	227.60
353.63	227.64
354.01	227.73
354.39	227.79
354.77	227.85
355.15	227.92
355.54	227.93
355.92	227.96
356.30	228.02
356.68	228.14
357.06	228.18
357.44	228.22
357.82	228.30
358.20	228.39
358.58	228.42
358.97	228.48
359.35	228.54
359.73	228.61
360.11	228.65
360.49	228.70
360.87	228.76
361.25	228.78
361.63	228.84
362.01	228.86
362.39	228.91
362.77	228.90
363.15	228.93
363.53	228.96
363.91	228.95
364.29	228.97
364.67	228.90
365.05	228.92
365.43	228.92
365.81	228.91
366.19	228.93
366.57	228.97
366.95	228.96
367.33	228.94
367.71	228.93
368.09	228.94
368.47	228.94
368.85	228.91
369.23	228.91
369.61	228.87
369.99	228.88
370.37	228.84
370.75	228.89
371.13	228.84
371.51	228.83
371.89	228.79
372.27	228.74
372.65	228.68
373.03	228.63
373.41	228.59
373.78	228.54
374.16	228.43
374.54	228.37
374.92	228.28
375.30	228.24
375.68	228.15
376.06	228.10
376.44	228.06
376.82	228.01
377.19	227.94
377.57	227.88
377.95	227.79
378.33	227.70
378.71	227.55
379.09	227.51
379.47	227.44
379.84	227.38
380.22	227.32
380.60	227.25
380.98	227.22
381.36	227.12
381.73	227.03
382.11	227.00
382.49	226.93
382.87	226.86
383.25	226.76
383.62	226.82
384.00	226.76
384.38	226.70
384.76	226.68
385.13	226.68
385.51	226.64
385.89	226.57
386.27	226.53
386.64	226.52
387.02	226.44
387.40	226.38
387.78	226.41
388.15	226.36
388.53	226.36
388.91	226.33
389.29	226.31
389.66	226.33
390.04	226.28
390.42	226.31
390.79	226.30
391.17	226.29
391.55	226.16
391.92	226.15
392.30	226.14
392.68	226.11
393.05	226.12
393.43	226.12
393.81	226.14
394.18	226.17
394.56	226.18
394.94	226.23
395.31	226.24
395.69	226.27
396.06	226.30
396.44	226.33
396.82	226.34
397.19	226.44
397.57	226.46
397.95	226.52
398.32	226.51
398.70	226.59
399.07	226.67
399.45	226.72
399.82	226.78
400.20	226.83
400.58	226.89
400.95	226.90
401.33	227.00
401.70	227.15
402.08	227.23
402.45	227.32
402.83	227.46
403.20	227.58
403.58	227.65
403.95	227.81
404.33	227.93
404.71	228.03
405.08	228.21
405.46	228.34
405.83	228.48
406.21	228.63
406.58	228.80
406.96	228.96
407.33	229.13
407.70	229.32
408.08	229.63
408.45	229.86
408.83	230.09
409.20	230.29
409.58	230.48
409.95	230.74
410.33	231.04
410.70	231.26
411.08	231.56
411.45	231.89
411.82	232.18
412.20	232.55
412.57	233.01
412.95	233.34
413.32	233.76
413.69	234.18
414.07	234.59
414.44	235.04
414.82	235.55
415.19	236.12
415.56	236.66
415.94	237.16
416.31	237.80
416.68	238.41
417.06	239.14
417.43	239.84
417.81	240.63
418.18	241.38
418.55	242.26
418.93	243.13
419.30	244.02
419.67	244.98
420.04	245.93
420.42	246.90
420.79	248.07
421.16	249.24
421.54	250.42
421.91	251.66
422.28	252.93
422.66	254.26
423.03	255.59
423.40	256.94
423.77	258.34
424.15	259.73
424.52	261.25
424.89	262.82
425.26	264.36
425.64	265.80
426.01	267.36
426.38	269.00
426.75	270.72
427.13	272.45
427.50	274.22
427.87	276.10
428.24	277.96
428.61	279.68
428.99	281.62
429.36	283.74
429.73	285.83
430.10	287.87
430.47	289.92
430.85	292.03
431.22	294.27
431.59	296.65
431.96	298.93
432.33	301.38
432.70	303.78
433.08	306.58
433.45	309.22
433.82	311.85
434.19	314.72
434.56	317.50
434.93	320.09
435.30	322.73
435.68	325.59
436.05	328.41
436.42	331.18
436.79	333.69
437.16	336.36
437.53	339.16
437.90	341.94
438.27	344.67
438.64	347.49
439.01	350.04
439.38	352.28
439.75	354.42
440.13	356.91
440.50	359.24
440.87	361.06
441.24	362.94
441.61	365.07
441.98	366.59
442.35	368.36
442.72	370.30
443.09	372.07
443.46	373.07
443.83	373.64
444.20	374.17
444.57	374.97
444.94	375.26
445.31	375.52
445.68	375.88
446.05	375.91
446.42	375.46
446.79	375.06
447.16	374.59
447.53	374.29
447.90	373.13
448.27	371.96
448.64	370.40
449.01	369.30
449.37	367.40
449.74	365.45
450.11	363.24
450.48	360.71
450.85	358.15
451.22	355.96
451.59	353.95
451.96	351.99
452.33	349.40
452.70	347.02
453.07	344.26
453.43	341.35
453.80	338.62
454.17	335.96
454.54	333.42
454.91	330.72
455.28	328.06
455.65	325.57
456.02	323.10
456.38	320.96
456.75	318.29
457.12	316.01
457.49	313.81
457.86	311.61
458.23	309.78
458.59	307.82
458.96	305.79
459.33	303.91
459.70	302.06
460.07	300.57
460.43	298.89
460.80	297.30
461.17	295.85
461.54	294.34
461.91	292.95
462.27	291.53
462.64	290.30
463.01	288.92
463.38	287.61
463.74	286.27
464.11	285.13
464.48	284.12
464.85	282.98
465.21	282.10
465.58	281.21
465.95	280.07
466.32	279.12
466.68	278.21
467.05	277.36
467.42	276.51
467.78	275.57
468.15	274.75
468.52	274.08
468.88	273.23
469.25	272.51
469.62	271.89
469.98	271.26
470.35	270.65
470.72	270.07
471.08	269.46
471.45	268.90
471.82	268.33
472.18	267.76
472.55	267.30
472.92	266.82
473.28	266.33
473.65	265.91
474.02	265.48
474.38	265.12
474.75	264.81
475.11	264.45
475.48	264.21
475.85	263.94
476.21	263.75
476.58	263.58
476.94	263.42
477.31	263.29
477.67	263.09
478.04	262.95
478.41	262.90
478.77	262.95
479.14	262.92
479.50	262.92
479.87	263.00
480.23	263.13
480.60	263.18
480.96	263.28
481.33	263.48
481.69	263.69
482.06	263.88
482.42	264.06
482.79	264.35
483.15	264.61
483.52	264.98
483.88	265.31
484.25	265.69
484.61	266.10
484.98	266.55
485.34	267.11
485.71	267.70
486.07	268.29
486.44	268.83
486.80	269.54
487.17	270.27
487.53	271.07
487.90	271.92
488.26	272.85
488.62	273.82
488.99	274.79
489.35	275.87
489.72	277.00
490.08	278.20
490.44	279.38
490.81	280.74
491.17	282.08
491.54	283.52
491.90	285.05
492.26	286.72
492.63	288.41
492.99	290.25
493.36	292.20
493.72	294.23
494.08	296.33
494.45	298.56
494.81	300.92
495.17	303.32
495.54	305.91
495.90	308.62
496.26	311.42
496.63	314.39
496.99	317.53
497.35	320.76
497.72	324.20
498.08	327.76
498.44	331.45
498.80	335.40
499.17	339.50
499.53	343.70
499.89	348.06
500.26	352.57
500.62	357.21
500.98	362.18
501.34	367.29
501.71	372.62
502.07	378.10
502.43	383.77
502.79	389.68
503.16	395.75
503.52	402.05
503.88	408.47
504.24	415.13
504.60	422.02
504.97	429.15
505.33	436.45
505.69	444.12
506.05	451.93
506.41	459.86
506.78	468.02
507.14	476.47
507.50	485.23
507.86	494.24
508.22	503.41
508.59	512.60
508.95	522.25
509.31	532.08
509.67	542.18
510.03	552.52
510.39	563.02
510.75	573.78
511.12	584.60
511.48	595.99
511.84	607.50
512.20	619.00
512.56	631.05
512.92	643.27
513.28	655.63
513.64	668.05
514.00	680.69
514.37	693.64
514.73	706.66
515.09	719.66
515.45	732.92
515.81	746.56
516.17	760.56
516.53	774.62
516.89	788.78
517.25	802.89
517.61	817.25
517.97	831.74
518.33	846.17
518.69	860.97
519.05	875.95
519.41	891.06
519.77	906.58
520.13	921.95
520.49	937.46
520.85	952.87
521.21	968.65
521.57	984.88
521.93	1000.62
522.29	1017.04
522.65	1033.29
523.01	1049.54
523.37	1065.56
523.73	1081.73
524.09	1097.84
524.45	1114.10
524.81	1130.78
525.17	1147.53
525.53	1164.38
525.89	1181.30
526.25	1198.14
526.61	1214.48
526.97	1231.26
527.33	1247.67
527.68	1264.14
528.04	1280.39
528.40	1296.98
528.76	1313.92
529.12	1330.44
529.48	1347.32
529.84	1363.32
530.20	1379.78
530.56	1396.73
530.91	1414.05
531.27	1430.71
531.63	1446.93
531.99	1463.46
532.35	1479.42
532.71	1495.28
533.07	1511.45
533.42	1527.26
533.78	1543.23
534.14	1559.37
534.50	1574.66
534.86	1590.46
535.21	1605.63
535.57	1621.48
535.93	1636.89
536.29	1651.66
536.65	1666.74
537.00	1681.36
537.36	1696.58
537.72	1711.11
538.08	1725.41
538.44	1738.97
538.79	1752.80
539.15	1766.45
539.51	1780.09
539.87	1794.27
540.22	1807.83
540.58	1821.41
540.94	1834.78
541.29	1847.57
541.65	1860.25
542.01	1873.22
542.37	1885.42
542.72	1897.80
543.08	1909.50
543.44	1921.84
543.79	1932.96
544.15	1943.82
544.51	1955.35
544.87	1966.33
545.22	1977.17
545.58	1987.46
545.94	1997.39
546.29	2007.29
546.65	2017.43
547.01	2026.83
547.36	2035.50
547.72	2044.04
548.07	2052.01
548.43	2059.94
548.79	2068.01
549.14	2075.48
549.50	2082.85
549.86	2090.56
550.21	2097.82
550.57	2105.07
550.92	2111.64
551.28	2118.76
551.64	2125.86
551.99	2132.42
552.35	2138.53
552.70	2144.70
553.06	2150.77
553.41	2157.18
553.77	2163.14
554.13	2169.03
554.48	2175.13
554.84	2180.64
555.19	2185.89
555.55	2191.16
555.90	2195.82
556.26	2200.72
556.61	2205.47
556.97	2209.82
557.32	2213.93
557.68	2218.09
558.03	2222.39
558.39	2226.04
558.74	2230.70
559.10	2234.59
559.45	2238.14
559.81	2242.42
560.16	2246.28
560.52	2249.40
560.87	2252.87
561.23	2255.47
561.58	2258.32
561.94	2260.79
562.29	2263.14
562.64	2265.95
563.00	2268.53
563.35	2272.06
563.71	2275.16
564.06	2278.42
564.42	2281.26
564.77	2283.77
565.12	2286.18
565.48	2288.09
565.83	2289.93
566.19	2291.11
566.54	2291.99
566.89	2293.24
567.25	2293.92
567.60	2295.04
567.96	2296.80
568.31	2297.52
568.66	2298.89
569.02	2299.51
569.37	2299.91
569.72	2300.82
570.08	2300.90
570.43	2300.92
570.78	2300.33
571.14	2298.87
571.49	2297.51
571.84	2297.23
572.20	2296.30
572.55	2295.27
572.90	2293.64
573.26	2292.33
573.61	2290.75
573.96	2288.93
574.31	2285.93
574.67	2282.76
575.02	2279.28
575.37	2275.85
575.72	2272.02
576.08	2268.53
576.43	2265.15
576.78	2261.51
577.13	2258.40
577.49	2255.25
577.84	2251.70
578.19	2247.87
578.54	2244.31
578.90	2240.13
579.25	2234.50
579.60	2229.63
579.95	2224.54
580.30	2219.53
580.66	2214.58
581.01	2209.65
581.36	2204.91
581.71	2200.82
582.06	2196.54
582.42	2192.13
582.77	2186.89
583.12	2182.28
583.47	2177.47
583.82	2172.63
584.17	2167.49
584.53	2161.95
584.88	2156.50
585.23	2150.68
585.58	2145.24
585.93	2139.53
586.28	2134.64
586.63	2129.59
586.98	2124.36
587.34	2119.67
587.69	2114.97
588.04	2109.57
588.39	2104.00
588.74	2097.54
589.09	2091.35
589.44	2084.58
589.79	2078.49
590.14	2072.94
590.49	2066.51
590.84	2060.27
591.19	2054.20
591.54	2047.68
591.89	2040.35
592.25	2033.45
592.60	2026.30
592.95	2018.84
593.30	2011.65
593.65	2004.12
594.00	1997.23
594.35	1989.99
594.70	1982.02
595.05	1974.72
595.40	1967.50
595.75	1959.87
596.10	1953.62
596.45	1946.96
596.80	1940.80
597.15	1934.20
597.50	1927.11
597.85	1920.70
598.19	1914.08
598.54	1907.05
598.89	1900.42
599.24	1894.55
599.59	1887.97
599.94	1881.82
600.29	1875.40
600.64	1868.89
600.99	1861.51
601.34	1854.65
601.69	1847.68
602.04	1840.81
602.39	1833.44
602.74	1826.57
603.08	1819.94
603.43	1813.32
603.78	1805.89
604.13	1798.70
604.48	1791.51
604.83	1784.63
605.18	1777.60
605.53	1769.56
605.87	1761.46
606.22	1754.19
606.57	1746.14
606.92	1738.81
607.27	1731.67
607.62	1724.82
607.96	1717.59
608.31	1711.00
608.66	1703.40
609.01	1695.89
609.36	1688.31
609.70	1680.33
610.05	1672.23
610.40	1664.46
610.75	1656.05
611.10	1648.45
611.44	1639.94
611.79	1631.96
612.14	1623.22
612.49	1614.07
612.83	1605.75
613.18	1597.60
613.53	1589.57
613.88	1581.03
614.22	1572.77
614.57	1564.06
614.92	1556.02
615.27	1548.42
615.61	1540.11
615.96	1531.95
616.31	1524.34
616.65	1516.91
617.00	1509.33
617.35	1501.73
617.70	1493.45
618.04	1484.99
618.39	1476.79
618.74	1469.25
619.08	1460.84
619.43	1453.31
619.78	1446.46
620.12	1439.21
620.47	1431.84
620.82	1423.67
621.16	1416.25
621.51	1408.53
621.85	1401.03
622.20	1392.43
622.55	1384.00
622.89	1376.13
623.24	1368.69
623.59	1361.30
623.93	1353.79
624.28	1346.64
624.62	1339.10
624.97	1331.99
625.32	1325.20
625.66	1318.08
626.01	1310.94
626.35	1303.45
626.70	1295.75
627.04	1288.07
627.39	1280.34
627.73	1272.86
628.08	1265.87
628.43	1258.70
628.77	1251.45
629.12	1243.85
629.46	1236.78
629.81	1229.46
630.15	1222.25
630.50	1214.86
630.84	1206.62
631.19	1198.71
631.53	1191.19
631.88	1183.60
632.22	1175.95
632.57	1168.62
632.91	1161.13
633.26	1153.69
633.60	1146.35
633.95	1139.19
634.29	1132.02
634.64	1125.22
634.98	1117.95
635.32	1110.84
635.67	1104.19
636.01	1097.45
636.36	1090.69
636.70	1084.09
637.05	1077.45
637.39	1070.96
637.73	1064.37
638.08	1058.47
638.42	1052.51
638.77	1045.99
639.11	1039.40
639.45	1033.00
639.80	1026.31
640.14	1020.01
640.49	1013.48
640.83	1007.15
641.17	1000.99
641.52	994.68
641.86	988.31
642.20	982.36
642.55	976.00
642.89	969.47
643.23	962.95
643.58	957.12
643.92	950.95
644.26	944.93
644.61	938.85
644.95	932.82
645.29	926.27
645.64	919.51
645.98	913.16
646.32	907.34
646.66	901.31
647.01	895.53
647.35	889.73
647.69	883.90
648.04	878.44
648.38	872.58
648.72	866.56
649.06	860.52
649.41	854.57
649.75	848.58
650.09	842.75
650.43	837.02
650.78	830.92
651.12	824.95
651.46	819.21
651.80	813.52
652.14	808.09
652.49	802.79
652.83	797.60
653.17	791.92
653.51	786.19
653.85	780.78
654.20	775.17
654.54	769.09
654.88	763.24
655.22	757.32
655.56	751.67
655.90	746.21
656.25	740.93
656.59	735.61
656.93	730.57
657.27	725.38
657.61	719.87
657.95	714.78
658.29	709.60
658.64	704.34
658.98	699.00
659.32	693.54
659.66	688.28
660.00	682.94
660.34	678.05
660.68	673.07
661.02	668.03
661.36	663.34
661.70	658.91
662.05	654.65
662.39	650.35
662.73	645.82
663.07	641.46
663.41	637.02
663.75	632.56
664.09	627.96
664.43	623.55
664.77	619.49
665.11	615.22
665.45	611.19
665.79	607.12
666.13	603.07
666.47	598.96
666.81	594.84
667.15	590.74
667.49	586.83
667.83	583.06
668.17	579.09
668.51	575.00
668.85	570.96
669.19	567.12
669.53	563.29
669.87	559.46
670.21	555.76
670.55	552.11
670.89	548.68
671.23	545.28
671.57	541.75
671.91	538.17
672.25	534.64
672.58	531.10
672.92	527.65
673.26	524.42
673.60	521.32
673.94	518.17
674.28	515.26
674.62	512.27
674.96	509.19
675.30	506.36
675.64	503.35
675.97	500.60
676.31	497.66
676.65	494.69
676.99	491.97
677.33	489.11
677.67	486.27
678.01	483.22
678.34	480.18
678.68	477.30
679.02	474.41
679.36	471.69
679.70	469.00
680.04	466.25
680.37	463.31
680.71	460.48
681.05	457.85
681.39	455.11
681.73	452.48
682.06	449.92
682.40	447.30
682.74	444.81
683.08	442.22
683.42	439.65
683.75	437.16
684.09	434.58
684.43	432.10
684.77	429.58
685.10	427.23
685.44	424.96
685.78	422.62
686.12	420.39
686.45	418.03
686.79	415.70
687.13	413.53
687.46	411.37
687.80	409.22
688.14	406.99
688.48	404.97
688.81	402.69
689.15	400.51
689.49	398.37
689.82	396.24
690.16	394.18
690.50	392.19
690.83	390.24
691.17	388.28
691.51	386.36
691.84	384.58
692.18	382.65
692.52	380.67
692.85	378.77
693.19	376.90
693.52	375.08
693.86	373.31
694.20	371.50
694.53	369.73
694.87	367.87
695.21	366.10
695.54	364.26
695.88	362.58
696.21	360.86
696.55	359.20
696.88	357.54
697.22	355.89
697.56	354.34
697.89	352.65
698.23	351.07
698.56	349.46
698.90	347.89
699.23	346.27
699.57	344.72
699.90	343.18
700.24	341.66
700.58	340.12
700.91	338.60
701.25	337.17
701.58	335.83
701.92	334.47
702.25	333.11
702.59	331.75
702.92	330.42
703.26	329.17
703.59	327.84
703.93	326.67
704.26	325.44
704.60	324.10
704.93	322.87
705.26	321.57
705.60	320.40
705.93	319.21
706.27	318.15
706.60	317.06
706.94	316.02
707.27	314.85
707.61	313.80
707.94	312.77
708.27	311.69
708.61	310.57
708.94	309.58
709.28	308.57
709.61	307.65
709.94	306.70
710.28	305.64
710.61	304.69
710.95	303.60
711.28	302.68
711.61	301.76
711.95	300.84
712.28	299.90
712.61	298.92
712.95	297.99
713.28	297.12
713.61	296.28
713.95	295.39
714.28	294.57
714.61	293.73
714.95	292.90
715.28	292.02
715.61	291.18
715.95	290.30
716.28	289.43
716.61	288.55
716.95	287.74
717.28	287.01
717.61	286.26
717.94	285.55
718.28	284.77
718.61	284.04
718.94	283.33
719.27	282.71
719.61	282.08
719.94	281.40
720.27	280.66
720.60	279.96
720.94	279.32
721.27	278.73
721.60	278.11
721.93	277.48
722.27	276.94
722.60	276.35
722.93	275.79
723.26	275.26
723.59	274.73
723.93	274.18
724.26	273.64
724.59	273.05
724.92	272.53
725.25	272.00
725.59	271.47
725.92	270.96
726.25	270.42
726.58	269.92
726.91	269.43
727.24	268.97
727.57	268.50
727.91	267.99
728.24	267.51
728.57	267.02
728.90	266.55
729.23	266.04
729.56	265.60
729.89	265.13
730.22	264.64
730.55	264.18
730.89	263.73
731.22	263.27
731.55	262.84
731.88	262.38
732.21	261.92
732.54	261.49
732.87	261.11
733.20	260.72
733.53	260.31
733.86	259.95
734.19	259.54
734.52	259.16
734.85	258.82
735.18	258.40
735.51	258.04
735.84	257.69
736.17	257.36
736.50	256.97
736.83	256.76
737.16	256.43
737.49	256.08
737.82	255.72
738.15	255.39
738.48	255.04
738.81	254.70
739.14	254.39
739.47	254.12
739.80	253.76
740.13	253.44
740.46	253.12
740.79	252.79
741.12	252.45
741.45	252.16
741.78	251.85
742.11	251.59
742.44	251.29
742.77	250.99
743.10	250.68
743.43	250.43
743.75	250.02
744.08	249.86
744.41	249.59
744.74	249.32
745.07	249.04
745.40	248.82
745.73	248.61
746.06	248.33
746.39	248.04
746.71	247.78
747.04	247.51
747.37	247.26
747.70	247.03
748.03	246.79
748.36	246.53
748.68	246.27
749.01	246.01
749.34	245.77
749.67	245.57
750.00	245.32
750.33	245.13
750.65	244.90
750.98	244.57
751.31	244.37
751.64	244.18
751.97	243.99
752.29	243.74
752.62	243.48
752.95	243.30
753.28	243.07
753.60	242.87
753.93	242.68
754.26	242.51
754.59	242.31
754.91	242.14
755.24	241.96
755.57	241.78
755.90	241.59
756.22	241.42
756.55	241.23
756.88	241.07
757.20	240.84
757.53	240.67
757.86	240.48
758.19	240.30
758.51	240.13
758.84	239.97
759.17	239.82
759.49	239.67
759.82	239.55
760.15	239.39
760.47	239.22
760.80	239.04
761.13	238.87
761.45	238.69
761.78	238.53
762.11	238.37
762.43	238.22
762.76	238.08
763.08	237.94
763.41	237.79
763.74	237.67
764.06	237.53
764.39	237.38
764.71	237.27
765.04	237.13
765.37	236.96
765.69	236.84
766.02	236.71
766.34	236.59
766.67	236.42
767.00	236.36
767.32	236.31
767.65	236.31
767.97	236.21
768.30	236.10
768.62	235.99
768.95	235.90
769.27	235.78
769.60	235.68
769.92	235.57
770.25	235.49
770.57	235.36
770.90	235.28
771.22	235.18
771.55	235.09
771.87	234.99
772.20	234.92
772.52	234.90
772.85	234.92
773.17	234.82
773.50	234.78
773.82	234.68
774.15	234.53
774.47	234.38
774.80	234.27
775.12	234.21
775.45	234.12
775.77	234.06
776.09	233.99
776.42	233.92
776.74	233.89
777.07	233.81
777.39	233.74
777.72	233.65
778.04	233.58
778.36	233.55
778.69	233.48
779.01	233.42
779.33	233.27
779.66	233.13
779.98	233.06
780.31	232.96
780.63	232.90
780.95	232.87
781.28	232.80
781.60	232.74
781.92	232.68
782.25	232.61
782.57	232.52
782.89	232.47
783.22	232.41
783.54	232.28
783.86	232.22
784.19	232.15
784.51	232.12
784.83	232.06
785.16	231.97
785.48	231.93
785.80	231.89
786.12	231.83
786.45	231.72
786.77	231.69
787.09	231.64
