SpectraSuite Data File
++++++++++++++++++++++++++++++++++++
Date: Fri Feb 01 17:08:25 EST 2013
User: group
Dark Spectrum Present: No
Reference Spectrum Present: No
Number of Sampled Component Spectra: 1
Spectrometers: USB2E7196
Integration Time (usec): 35000 (USB2E7196)
Spectra Averaged: 100 (USB2E7196)
Boxcar Smoothing: 10 (USB2E7196)
Correct for Electrical Dark: No (USB2E7196)
Strobe/Lamp Enabled: No (USB2E7196)
Correct for Detector Non-linearity: No (USB2E7196)
Correct for Stray Light: No (USB2E7196)
Number of Pixels in Processed Spectrum: 2048
>>>>>Begin Processed Spectral Data<<<<<
339.09	0.00
339.48	212.95
339.86	214.73
340.24	216.02
340.63	217.35
341.01	220.24
341.39	220.55
341.78	221.45
342.16	223.21
342.54	222.97
342.93	211.54
343.31	222.25
343.69	222.79
344.07	223.27
344.46	223.69
344.84	224.07
345.22	224.28
345.60	224.52
345.99	224.68
346.37	224.78
346.75	224.90
347.13	224.96
347.52	225.00
347.90	225.09
348.28	225.10
348.66	225.18
349.05	225.17
349.43	225.23
349.81	225.24
350.19	225.31
350.57	225.36
350.96	225.44
351.34	225.49
351.72	225.59
352.10	225.67
352.48	225.74
352.87	225.81
353.25	225.91
353.63	225.95
354.01	226.04
354.39	226.10
354.77	226.18
355.15	226.28
355.54	226.33
355.92	226.38
356.30	226.46
356.68	226.59
357.06	226.65
357.44	226.72
357.82	226.78
358.20	226.82
358.58	226.95
358.97	227.03
359.35	227.14
359.73	227.23
360.11	227.29
360.49	227.36
360.87	227.38
361.25	227.45
361.63	227.54
362.01	227.59
362.39	227.64
362.77	227.69
363.15	227.74
363.53	227.82
363.91	227.82
364.29	227.85
364.67	227.82
365.05	227.87
365.43	227.90
365.81	227.92
366.19	227.97
366.57	227.99
366.95	228.01
367.33	227.98
367.71	227.95
368.09	227.98
368.47	227.97
368.85	227.98
369.23	227.97
369.61	227.95
369.99	227.96
370.37	227.94
370.75	227.97
371.13	227.89
371.51	227.81
371.89	227.79
372.27	227.75
372.65	227.71
373.03	227.64
373.41	227.55
373.78	227.54
374.16	227.45
374.54	227.37
374.92	227.32
375.30	227.27
375.68	227.20
376.06	227.09
376.44	227.03
376.82	226.97
377.19	226.92
377.57	226.82
377.95	226.76
378.33	226.68
378.71	226.59
379.09	226.53
379.47	226.49
379.84	226.44
380.22	226.35
380.60	226.26
380.98	226.18
381.36	226.15
381.73	226.07
382.11	225.99
382.49	225.91
382.87	225.85
383.25	225.77
383.62	225.80
384.00	225.73
384.38	225.67
384.76	225.61
385.13	225.57
385.51	225.53
385.89	225.44
386.27	225.40
386.64	225.34
387.02	225.31
387.40	225.23
387.78	225.17
388.15	225.17
388.53	225.10
388.91	225.11
389.29	225.08
389.66	225.07
390.04	225.08
390.42	225.09
390.79	225.04
391.17	225.05
391.55	224.92
391.92	224.92
392.30	224.93
392.68	224.90
393.05	224.90
393.43	224.89
393.81	224.90
394.18	224.88
394.56	224.88
394.94	224.89
395.31	224.91
395.69	224.99
396.06	224.99
396.44	225.01
396.82	225.01
397.19	225.09
397.57	225.12
397.95	225.15
398.32	225.17
398.70	225.21
399.07	225.27
399.45	225.33
399.82	225.41
400.20	225.45
400.58	225.54
400.95	225.59
401.33	225.70
401.70	225.87
402.08	225.97
402.45	226.05
402.83	226.15
403.20	226.27
403.58	226.33
403.95	226.48
404.33	226.61
404.71	226.72
405.08	226.89
405.46	227.03
405.83	227.17
406.21	227.34
406.58	227.55
406.96	227.68
407.33	227.88
407.70	228.07
408.08	228.31
408.45	228.53
408.83	228.76
409.20	228.97
409.58	229.11
409.95	229.37
410.33	229.65
410.70	229.87
411.08	230.16
411.45	230.47
411.82	230.76
412.20	231.13
412.57	231.55
412.95	231.85
413.32	232.22
413.69	232.63
414.07	233.04
414.44	233.47
414.82	233.95
415.19	234.50
415.56	235.04
415.94	235.59
416.31	236.22
416.68	236.80
417.06	237.50
417.43	238.18
417.81	238.95
418.18	239.70
418.55	240.58
418.93	241.45
419.30	242.36
419.67	243.30
420.04	244.24
420.42	245.18
420.79	246.34
421.16	247.50
421.54	248.67
421.91	249.88
422.28	251.12
422.66	252.46
423.03	253.74
423.40	255.03
423.77	256.46
424.15	257.88
424.52	259.34
424.89	260.93
425.26	262.44
425.64	263.87
426.01	265.46
426.38	267.05
426.75	268.71
427.13	270.40
427.50	272.17
427.87	273.99
428.24	275.86
428.61	277.60
428.99	279.54
429.36	281.62
429.73	283.64
430.10	285.61
430.47	287.64
430.85	289.75
431.22	291.99
431.59	294.32
431.96	296.50
432.33	298.98
432.70	301.30
433.08	304.09
433.45	306.70
433.82	309.32
434.19	312.20
434.56	314.96
434.93	317.61
435.30	320.22
435.68	323.10
436.05	325.93
436.42	328.69
436.79	331.15
437.16	333.85
437.53	336.67
437.90	339.53
438.27	342.22
438.64	345.04
439.01	347.65
439.38	349.86
439.75	352.03
440.13	354.52
440.50	356.91
440.87	358.72
441.24	360.66
441.61	362.80
441.98	364.27
442.35	366.08
442.72	367.93
443.09	369.74
443.46	370.72
443.83	371.31
444.20	371.82
444.57	372.67
444.94	372.96
445.31	373.27
445.68	373.58
446.05	373.67
446.42	373.26
446.79	372.79
447.16	372.38
447.53	372.06
447.90	370.94
448.27	369.74
448.64	368.26
449.01	367.13
449.37	365.14
449.74	363.29
450.11	361.08
450.48	358.62
450.85	356.06
451.22	353.93
451.59	351.93
451.96	350.00
452.33	347.39
452.70	345.02
453.07	342.23
453.43	339.36
453.80	336.61
454.17	333.96
454.54	331.44
454.91	328.71
455.28	326.04
455.65	323.52
456.02	321.11
456.38	318.92
456.75	316.28
457.12	314.04
457.49	311.83
457.86	309.65
458.23	307.78
458.59	305.79
458.96	303.79
459.33	301.94
459.70	300.10
460.07	298.59
460.43	296.93
460.80	295.28
461.17	293.89
461.54	292.45
461.91	291.04
462.27	289.62
462.64	288.40
463.01	287.08
463.38	285.87
463.74	284.52
464.11	283.37
464.48	282.37
464.85	281.31
465.21	280.47
465.58	279.62
465.95	278.56
466.32	277.65
466.68	276.73
467.05	275.82
467.42	274.94
467.78	274.06
468.15	273.18
468.52	272.60
468.88	271.76
469.25	270.98
469.62	270.39
469.98	269.74
470.35	269.10
470.72	268.54
471.08	267.87
471.45	267.33
471.82	266.80
472.18	266.24
472.55	265.80
472.92	265.28
473.28	264.79
473.65	264.38
474.02	263.94
474.38	263.58
474.75	263.32
475.11	263.00
475.48	262.77
475.85	262.57
476.21	262.30
476.58	262.10
476.94	261.97
477.31	261.78
477.67	261.64
478.04	261.58
478.41	261.52
478.77	261.55
479.14	261.51
479.50	261.55
479.87	261.62
480.23	261.68
480.60	261.76
480.96	261.82
481.33	262.00
481.69	262.23
482.06	262.44
482.42	262.59
482.79	262.85
483.15	263.14
483.52	263.50
483.88	263.86
484.25	264.25
484.61	264.66
484.98	265.10
485.34	265.61
485.71	266.19
486.07	266.78
486.44	267.35
486.80	268.04
487.17	268.74
487.53	269.52
487.90	270.37
488.26	271.29
488.62	272.29
488.99	273.28
489.35	274.35
489.72	275.48
490.08	276.68
490.44	277.90
490.81	279.23
491.17	280.60
491.54	282.08
491.90	283.62
492.26	285.27
492.63	287.04
492.99	288.87
493.36	290.73
493.72	292.77
494.08	294.85
494.45	297.09
494.81	299.46
495.17	301.86
495.54	304.47
495.90	307.17
496.26	309.95
496.63	312.87
496.99	315.93
497.35	319.15
497.72	322.58
498.08	326.11
498.44	329.75
498.80	333.65
499.17	337.69
499.53	341.83
499.89	346.17
500.26	350.63
500.62	355.26
500.98	360.24
501.34	365.27
501.71	370.61
502.07	376.07
502.43	381.66
502.79	387.46
503.16	393.46
503.52	399.69
503.88	406.06
504.24	412.65
504.60	419.52
504.97	426.60
505.33	433.88
505.69	441.55
506.05	449.26
506.41	457.10
506.78	465.17
507.14	473.52
507.50	482.17
507.86	491.14
508.22	500.26
508.59	509.39
508.95	518.84
509.31	528.56
509.67	538.48
510.03	548.62
510.39	559.07
510.75	569.72
511.12	580.54
511.48	591.66
511.84	602.98
512.20	614.32
512.56	626.09
512.92	638.03
513.28	650.19
513.64	662.48
514.00	674.91
514.37	687.66
514.73	700.54
515.09	713.35
515.45	726.36
515.81	739.72
516.17	753.44
516.53	767.40
516.89	781.33
517.25	795.31
517.61	809.42
517.97	823.57
518.33	837.71
518.69	852.15
519.05	866.84
519.41	881.67
519.77	896.79
520.13	911.96
520.49	927.08
520.85	942.14
521.21	957.51
521.57	973.43
521.93	988.77
522.29	1004.71
522.65	1020.60
523.01	1036.39
523.37	1052.02
523.73	1067.86
524.09	1083.55
524.45	1099.46
524.81	1115.66
525.17	1132.11
525.53	1148.67
525.89	1165.12
526.25	1181.55
526.61	1197.49
526.97	1213.85
527.33	1229.96
527.68	1246.08
528.04	1262.05
528.40	1278.16
528.76	1294.88
529.12	1311.03
529.48	1327.71
529.84	1343.30
530.20	1359.54
530.56	1376.10
530.91	1393.03
531.27	1409.36
531.63	1425.37
531.99	1441.54
532.35	1457.16
532.71	1472.71
533.07	1488.61
533.42	1504.12
533.78	1519.90
534.14	1535.91
534.50	1550.84
534.86	1566.34
535.21	1581.22
535.57	1596.87
535.93	1612.05
536.29	1626.43
536.65	1641.13
537.00	1655.13
537.36	1670.05
537.72	1684.03
538.08	1698.16
538.44	1711.57
538.79	1724.98
539.15	1738.08
539.51	1751.31
539.87	1765.01
540.22	1778.19
540.58	1791.47
540.94	1804.29
541.29	1816.61
541.65	1828.82
542.01	1841.64
542.37	1853.60
542.72	1865.61
543.08	1876.95
543.44	1888.94
543.79	1899.93
544.15	1910.49
544.51	1922.03
544.87	1932.75
545.22	1943.40
545.58	1953.49
545.94	1963.05
546.29	1972.75
546.65	1982.66
547.01	1991.91
547.36	2000.64
547.72	2009.18
548.07	2016.92
548.43	2025.07
548.79	2033.11
549.14	2040.78
549.50	2048.08
549.86	2055.74
550.21	2062.97
550.57	2070.21
550.92	2076.77
551.28	2083.70
551.64	2090.82
551.99	2097.23
552.35	2103.52
552.70	2109.61
553.06	2115.54
553.41	2122.00
553.77	2128.00
554.13	2134.04
554.48	2140.19
554.84	2145.85
555.19	2150.95
555.55	2156.19
555.90	2160.83
556.26	2165.70
556.61	2170.30
556.97	2174.72
557.32	2178.98
557.68	2183.17
558.03	2187.45
558.39	2191.14
558.74	2195.86
559.10	2199.82
559.45	2203.55
559.81	2207.83
560.16	2211.89
560.52	2215.17
560.87	2218.55
561.23	2221.50
561.58	2224.54
561.94	2227.02
562.29	2229.31
562.64	2232.28
563.00	2234.93
563.35	2238.38
563.71	2241.63
564.06	2244.92
564.42	2247.82
564.77	2250.50
565.12	2253.12
565.48	2255.31
565.83	2257.63
566.19	2259.10
566.54	2260.03
566.89	2261.47
567.25	2262.27
567.60	2263.68
567.96	2265.51
568.31	2266.51
568.66	2267.70
569.02	2268.40
569.37	2268.96
569.72	2270.18
570.08	2270.44
570.43	2270.64
570.78	2270.29
571.14	2268.87
571.49	2267.72
571.84	2267.66
572.20	2266.67
572.55	2265.63
572.90	2264.03
573.26	2262.66
573.61	2261.09
573.96	2259.74
574.31	2257.02
574.67	2254.22
575.02	2250.87
575.37	2247.61
575.72	2244.14
576.08	2240.91
576.43	2237.74
576.78	2234.44
577.13	2231.16
577.49	2228.20
577.84	2225.10
578.19	2221.62
578.54	2218.32
578.90	2214.35
579.25	2208.92
579.60	2204.21
579.95	2199.43
580.30	2194.74
580.66	2189.85
581.01	2185.16
581.36	2180.32
581.71	2176.47
582.06	2172.34
582.42	2168.02
582.77	2163.06
583.12	2158.72
583.47	2154.27
583.82	2149.55
584.17	2144.42
584.53	2139.24
584.88	2133.82
585.23	2128.21
585.58	2122.90
585.93	2117.60
586.28	2113.06
586.63	2108.25
586.98	2103.42
587.34	2099.02
587.69	2094.34
588.04	2089.37
588.39	2083.92
588.74	2077.73
589.09	2071.64
589.44	2064.99
589.79	2059.16
590.14	2053.77
590.49	2047.42
590.84	2041.16
591.19	2035.43
591.54	2029.19
591.89	2022.17
592.25	2015.75
592.60	2008.71
592.95	2001.45
593.30	1994.37
593.65	1987.00
594.00	1980.25
594.35	1973.17
594.70	1965.20
595.05	1958.26
595.40	1951.04
595.75	1943.72
596.10	1937.79
596.45	1931.33
596.80	1925.35
597.15	1919.02
597.50	1912.31
597.85	1905.94
598.19	1899.56
598.54	1892.75
598.89	1886.16
599.24	1880.48
599.59	1874.00
599.94	1868.01
600.29	1861.78
600.64	1855.29
600.99	1848.09
601.34	1841.35
601.69	1834.52
602.04	1828.00
602.39	1820.75
602.74	1814.12
603.08	1807.59
603.43	1800.94
603.78	1793.71
604.13	1786.66
604.48	1779.45
604.83	1772.68
605.18	1766.12
605.53	1758.35
605.87	1750.26
606.22	1743.18
606.57	1735.27
606.92	1727.90
607.27	1720.83
607.62	1714.02
607.96	1706.90
608.31	1700.32
608.66	1692.71
609.01	1685.17
609.36	1677.59
609.70	1669.61
610.05	1661.53
610.40	1653.90
610.75	1645.65
611.10	1638.04
611.44	1629.65
611.79	1621.77
612.14	1613.07
612.49	1603.78
612.83	1595.33
613.18	1587.31
613.53	1579.33
613.88	1570.98
614.22	1562.82
614.57	1554.20
614.92	1546.30
615.27	1539.01
615.61	1530.77
615.96	1522.86
616.31	1515.32
616.65	1508.08
617.00	1500.68
617.35	1493.15
617.70	1484.91
618.04	1476.50
618.39	1468.28
618.74	1460.84
619.08	1452.59
619.43	1445.12
619.78	1438.29
620.12	1431.29
620.47	1423.95
620.82	1415.91
621.16	1408.42
621.51	1400.85
621.85	1393.34
622.20	1384.98
622.55	1376.55
622.89	1368.82
623.24	1361.29
623.59	1353.92
623.93	1346.49
624.28	1339.37
624.62	1331.95
624.97	1324.84
625.32	1318.16
625.66	1311.28
626.01	1304.18
626.35	1296.83
626.70	1289.05
627.04	1281.37
627.39	1273.54
627.73	1266.21
628.08	1259.29
628.43	1252.11
628.77	1244.86
629.12	1237.27
629.46	1230.08
629.81	1222.63
630.15	1215.38
630.50	1208.04
630.84	1199.99
631.19	1192.01
631.53	1184.40
631.88	1176.81
632.22	1169.19
632.57	1161.83
632.91	1154.26
633.26	1146.86
633.60	1139.45
633.95	1132.36
634.29	1125.38
634.64	1118.79
634.98	1111.53
635.32	1104.47
635.67	1097.83
636.01	1091.25
636.36	1084.56
636.70	1078.04
637.05	1071.53
637.39	1065.09
637.73	1058.58
638.08	1052.74
638.42	1046.76
638.77	1040.41
639.11	1033.99
639.45	1027.73
639.80	1021.17
640.14	1014.81
640.49	1008.28
640.83	1002.00
641.17	995.93
641.52	989.63
641.86	983.19
642.20	977.20
642.55	970.78
642.89	964.42
643.23	957.87
643.58	952.17
643.92	946.00
644.26	940.05
644.61	933.99
644.95	928.04
645.29	921.46
645.64	914.81
645.98	908.51
646.32	902.64
646.66	896.59
647.01	890.81
647.35	885.17
647.69	879.29
648.04	873.78
648.38	867.90
648.72	861.98
649.06	856.03
649.41	850.27
649.75	844.47
650.09	838.53
650.43	832.76
650.78	826.56
651.12	820.68
651.46	814.93
651.80	809.37
652.14	803.95
652.49	798.69
652.83	793.52
653.17	787.91
653.51	782.19
653.85	776.80
654.20	771.26
654.54	765.26
654.88	759.67
655.22	753.88
655.56	748.31
655.90	742.88
656.25	737.63
656.59	732.22
656.93	727.17
657.27	722.13
657.61	716.76
657.95	711.77
658.29	706.75
658.64	701.46
658.98	696.11
659.32	690.73
659.66	685.58
660.00	680.34
660.34	675.44
660.68	670.58
661.02	665.57
661.36	660.84
661.70	656.39
662.05	652.03
662.39	647.63
662.73	643.13
663.07	638.78
663.41	634.38
663.75	629.93
664.09	625.31
664.43	620.94
664.77	616.81
665.11	612.59
665.45	608.43
665.79	604.44
666.13	600.34
666.47	596.28
666.81	592.11
667.15	587.98
667.49	584.04
667.83	580.25
668.17	576.39
668.51	572.38
668.85	568.37
669.19	564.56
669.53	560.82
669.87	556.97
670.21	553.26
670.55	549.62
670.89	546.23
671.23	542.84
671.57	539.26
671.91	535.80
672.25	532.22
672.58	528.72
672.92	525.32
673.26	522.19
673.60	519.06
673.94	515.92
674.28	513.01
674.62	510.07
674.96	506.97
675.30	504.06
675.64	501.05
675.97	498.21
676.31	495.36
676.65	492.43
676.99	489.80
677.33	486.95
677.67	484.16
678.01	481.16
678.34	478.20
678.68	475.32
679.02	472.53
679.36	469.80
679.70	467.12
680.04	464.35
680.37	461.47
680.71	458.63
681.05	456.02
681.39	453.30
681.73	450.69
682.06	448.19
682.40	445.66
682.74	443.21
683.08	440.73
683.42	438.15
683.75	435.71
684.09	433.08
684.43	430.55
684.77	428.08
685.10	425.72
685.44	423.37
685.78	421.10
686.12	418.88
686.45	416.58
686.79	414.27
687.13	412.10
687.46	409.92
687.80	407.80
688.14	405.59
688.48	403.57
688.81	401.37
689.15	399.20
689.49	397.07
689.82	394.95
690.16	392.84
690.50	390.85
690.83	388.92
691.17	386.99
691.51	385.13
691.84	383.28
692.18	381.39
692.52	379.50
692.85	377.61
693.19	375.68
693.52	373.88
693.86	372.04
694.20	370.26
694.53	368.51
694.87	366.63
695.21	364.84
695.54	362.98
695.88	361.23
696.21	359.49
696.55	357.79
696.88	356.16
697.22	354.48
697.56	352.86
697.89	351.19
698.23	349.56
698.56	347.97
698.90	346.44
699.23	344.80
699.57	343.23
699.90	341.67
700.24	340.11
700.58	338.64
700.91	337.16
701.25	335.71
701.58	334.39
701.92	333.04
702.25	331.69
702.59	330.34
702.92	329.01
703.26	327.76
703.59	326.48
703.93	325.26
704.26	324.08
704.60	322.80
704.93	321.55
705.26	320.33
705.60	319.14
705.93	317.91
706.27	316.85
706.60	315.82
706.94	314.75
707.27	313.66
707.61	312.53
707.94	311.53
708.27	310.46
708.61	309.34
708.94	308.33
709.28	307.32
709.61	306.39
709.94	305.43
710.28	304.38
710.61	303.39
710.95	302.34
711.28	301.40
711.61	300.43
711.95	299.52
712.28	298.58
712.61	297.61
712.95	296.71
713.28	295.81
713.61	294.89
713.95	294.00
714.28	293.14
714.61	292.32
714.95	291.45
715.28	290.56
715.61	289.69
715.95	288.86
716.28	288.02
716.61	287.14
716.95	286.36
717.28	285.66
717.61	284.86
717.94	284.11
718.28	283.28
718.61	282.58
718.94	281.90
719.27	281.26
719.61	280.60
719.94	279.95
720.27	279.30
720.60	278.61
720.94	277.98
721.27	277.38
721.60	276.79
721.93	276.21
722.27	275.65
722.60	275.09
722.93	274.49
723.26	273.98
723.59	273.46
723.93	272.89
724.26	272.31
724.59	271.78
724.92	271.23
725.25	270.84
725.59	270.28
725.92	269.77
726.25	269.22
726.58	268.71
726.91	268.21
727.24	267.70
727.57	267.24
727.91	266.73
728.24	266.28
728.57	265.79
728.90	265.32
729.23	264.84
729.56	264.42
729.89	263.96
730.22	263.44
730.55	262.96
730.89	262.51
731.22	262.05
731.55	261.61
731.88	261.23
732.21	260.73
732.54	260.34
732.87	259.91
733.20	259.55
733.53	259.15
733.86	258.76
734.19	258.36
734.52	258.00
734.85	257.70
735.18	257.25
735.51	256.91
735.84	256.55
736.17	256.25
736.50	255.81
736.83	255.59
737.16	255.27
737.49	254.95
737.82	254.59
738.15	254.27
738.48	253.95
738.81	253.58
739.14	253.28
739.47	252.96
739.80	252.63
740.13	252.30
740.46	251.97
740.79	251.66
741.12	251.36
741.45	251.07
741.78	250.72
742.11	250.49
742.44	250.15
742.77	249.87
743.10	249.53
743.43	249.27
743.75	248.87
744.08	248.73
744.41	248.42
744.74	248.17
745.07	247.86
745.40	247.61
745.73	247.37
746.06	247.08
746.39	246.81
746.71	246.53
747.04	246.25
747.37	245.98
747.70	245.70
748.03	245.46
748.36	245.19
748.68	244.89
749.01	244.65
749.34	244.42
749.67	244.18
750.00	243.96
750.33	243.82
750.65	243.65
750.98	243.32
751.31	243.14
751.64	242.94
751.97	242.82
752.29	242.60
752.62	242.39
752.95	242.16
753.28	241.92
753.60	241.75
753.93	241.56
754.26	241.38
754.59	241.16
754.91	240.94
755.24	240.77
755.57	240.61
755.90	240.39
756.22	240.18
756.55	239.98
756.88	239.76
757.20	239.53
757.53	239.31
757.86	239.12
758.19	238.95
758.51	238.79
758.84	238.56
759.17	238.38
759.49	238.20
759.82	238.14
760.15	238.05
760.47	237.87
760.80	237.70
761.13	237.56
761.45	237.42
761.78	237.27
762.11	237.13
762.43	236.98
762.76	236.83
763.08	236.71
763.41	236.57
763.74	236.48
764.06	236.31
764.39	236.16
764.71	236.02
765.04	235.87
765.37	235.70
765.69	235.55
766.02	235.44
766.34	235.32
766.67	235.12
767.00	235.01
767.32	234.97
767.65	234.94
767.97	234.80
768.30	234.70
768.62	234.55
768.95	234.43
769.27	234.31
769.60	234.24
769.92	234.10
770.25	233.97
770.57	233.82
770.90	233.74
771.22	233.64
771.55	233.54
771.87	233.46
772.20	233.38
772.52	233.38
772.85	233.36
773.17	233.28
773.50	233.20
773.82	233.03
774.15	232.89
774.47	232.76
774.80	232.67
775.12	232.56
775.45	232.51
775.77	232.41
776.09	232.35
776.42	232.30
776.74	232.26
777.07	232.20
777.39	232.16
777.72	232.05
778.04	231.99
778.36	231.89
778.69	231.82
779.01	231.74
779.33	231.62
779.66	231.46
779.98	231.40
780.31	231.31
780.63	231.33
780.95	231.28
781.28	231.17
781.60	231.12
781.92	231.05
782.25	230.98
782.57	230.92
782.89	230.83
783.22	230.72
783.54	230.67
783.86	230.61
784.19	230.54
784.51	230.53
784.83	230.45
785.16	230.42
785.48	230.38
785.80	230.32
786.12	230.25
786.45	230.21
786.77	230.14
787.09	230.10
