SpectraSuite Data File
++++++++++++++++++++++++++++++++++++
Date: Fri Feb 01 16:11:15 EST 2013
User: group
Dark Spectrum Present: No
Reference Spectrum Present: No
Number of Sampled Component Spectra: 1
Spectrometers: USB2E7196
Integration Time (usec): 35000 (USB2E7196)
Spectra Averaged: 100 (USB2E7196)
Boxcar Smoothing: 10 (USB2E7196)
Correct for Electrical Dark: No (USB2E7196)
Strobe/Lamp Enabled: No (USB2E7196)
Correct for Detector Non-linearity: No (USB2E7196)
Correct for Stray Light: No (USB2E7196)
Number of Pixels in Processed Spectrum: 2048
>>>>>Begin Processed Spectral Data<<<<<
339.09	0.00
339.48	214.23
339.86	215.93
340.24	217.38
340.63	217.88
341.01	221.31
341.39	221.46
341.78	223.07
342.16	223.90
342.54	224.59
342.93	212.85
343.31	223.62
343.69	224.19
344.07	224.67
344.46	225.13
344.84	225.53
345.22	225.77
345.60	226.02
345.99	226.21
346.37	226.36
346.75	226.46
347.13	226.55
347.52	226.65
347.90	226.72
348.28	226.75
348.66	226.82
349.05	226.82
349.43	226.86
349.81	226.91
350.19	226.94
350.57	226.99
350.96	227.06
351.34	227.10
351.72	227.19
352.10	227.28
352.48	227.30
352.87	227.40
353.25	227.47
353.63	227.52
354.01	227.59
354.39	227.68
354.77	227.73
355.15	227.85
355.54	227.88
355.92	227.88
356.30	227.95
356.68	228.06
357.06	228.12
357.44	228.14
357.82	228.21
358.20	228.26
358.58	228.30
358.97	228.38
359.35	228.49
359.73	228.54
360.11	228.57
360.49	228.67
360.87	228.73
361.25	228.82
361.63	228.84
362.01	228.86
362.39	228.86
362.77	228.92
363.15	228.92
363.53	228.94
363.91	229.01
364.29	229.01
364.67	228.96
365.05	228.98
365.43	228.99
365.81	228.96
366.19	229.01
366.57	229.01
366.95	228.99
367.33	228.95
367.71	228.94
368.09	228.96
368.47	228.92
368.85	228.88
369.23	228.84
369.61	228.83
369.99	228.82
370.37	228.80
370.75	228.81
371.13	228.76
371.51	228.72
371.89	228.69
372.27	228.67
372.65	228.59
373.03	228.52
373.41	228.45
373.78	228.40
374.16	228.28
374.54	228.24
374.92	228.17
375.30	228.10
375.68	227.99
376.06	227.90
376.44	227.83
376.82	227.75
377.19	227.68
377.57	227.59
377.95	227.49
378.33	227.43
378.71	227.30
379.09	227.26
379.47	227.21
379.84	227.12
380.22	227.04
380.60	226.98
380.98	226.95
381.36	226.91
381.73	226.86
382.11	226.80
382.49	226.73
382.87	226.61
383.25	226.57
383.62	226.64
384.00	226.59
384.38	226.50
384.76	226.48
385.13	226.45
385.51	226.39
385.89	226.36
386.27	226.31
386.64	226.29
387.02	226.23
387.40	226.17
387.78	226.15
388.15	226.14
388.53	226.10
388.91	226.04
389.29	226.01
389.66	225.99
390.04	225.96
390.42	225.97
390.79	225.99
391.17	225.96
391.55	225.83
391.92	225.84
392.30	225.84
392.68	225.81
393.05	225.79
393.43	225.79
393.81	225.82
394.18	225.77
394.56	225.76
394.94	225.80
395.31	225.82
395.69	225.83
396.06	225.86
396.44	225.91
396.82	225.93
397.19	225.99
397.57	225.99
397.95	226.08
398.32	226.10
398.70	226.16
399.07	226.25
399.45	226.29
399.82	226.31
400.20	226.41
400.58	226.51
400.95	226.55
401.33	226.66
401.70	226.79
402.08	226.89
402.45	226.99
402.83	227.12
403.20	227.22
403.58	227.31
403.95	227.45
404.33	227.57
404.71	227.71
405.08	227.89
405.46	228.03
405.83	228.14
406.21	228.28
406.58	228.45
406.96	228.55
407.33	228.76
407.70	228.99
408.08	229.25
408.45	229.43
408.83	229.68
409.20	229.89
409.58	230.06
409.95	230.34
410.33	230.59
410.70	230.80
411.08	231.13
411.45	231.44
411.82	231.76
412.20	232.05
412.57	232.46
412.95	232.74
413.32	233.19
413.69	233.61
414.07	234.05
414.44	234.55
414.82	235.07
415.19	235.63
415.56	236.13
415.94	236.68
416.31	237.35
416.68	237.97
417.06	238.70
417.43	239.41
417.81	240.20
418.18	240.99
418.55	241.85
418.93	242.70
419.30	243.61
419.67	244.53
420.04	245.52
420.42	246.53
420.79	247.76
421.16	248.89
421.54	250.11
421.91	251.35
422.28	252.58
422.66	253.92
423.03	255.24
423.40	256.63
423.77	258.04
424.15	259.44
424.52	260.95
424.89	262.58
425.26	264.12
425.64	265.53
426.01	267.14
426.38	268.79
426.75	270.45
427.13	272.14
427.50	274.00
427.87	275.89
428.24	277.70
428.61	279.42
428.99	281.39
429.36	283.48
429.73	285.48
430.10	287.50
430.47	289.55
430.85	291.64
431.22	293.88
431.59	296.22
431.96	298.45
432.33	300.92
432.70	303.19
433.08	306.02
433.45	308.69
433.82	311.28
434.19	314.15
434.56	316.97
434.93	319.63
435.30	322.22
435.68	325.13
436.05	327.98
436.42	330.75
436.79	333.22
437.16	335.87
437.53	338.72
437.90	341.54
438.27	344.22
438.64	346.99
439.01	349.56
439.38	351.82
439.75	353.99
440.13	356.48
440.50	358.88
440.87	360.71
441.24	362.63
441.61	364.82
441.98	366.30
442.35	368.10
442.72	369.93
443.09	371.69
443.46	372.65
443.83	373.21
444.20	373.70
444.57	374.56
444.94	374.88
445.31	375.20
445.68	375.50
446.05	375.61
446.42	375.25
446.79	374.80
447.16	374.30
447.53	373.96
447.90	372.77
448.27	371.59
448.64	370.01
449.01	368.85
449.37	366.80
449.74	364.86
450.11	362.61
450.48	360.16
450.85	357.66
451.22	355.50
451.59	353.51
451.96	351.61
452.33	348.98
452.70	346.62
453.07	343.80
453.43	340.95
453.80	338.20
454.17	335.52
454.54	332.98
454.91	330.29
455.28	327.63
455.65	325.15
456.02	322.71
456.38	320.54
456.75	317.87
457.12	315.66
457.49	313.50
457.86	311.30
458.23	309.45
458.59	307.41
458.96	305.34
459.33	303.47
459.70	301.59
460.07	300.09
460.43	298.39
460.80	296.82
461.17	295.36
461.54	293.89
461.91	292.52
462.27	291.07
462.64	289.85
463.01	288.48
463.38	287.23
463.74	285.89
464.11	284.75
464.48	283.78
464.85	282.69
465.21	281.81
465.58	280.94
465.95	279.85
466.32	278.93
466.68	278.06
467.05	277.22
467.42	276.33
467.78	275.43
468.15	274.55
468.52	273.86
468.88	273.01
469.25	272.25
469.62	271.61
469.98	270.97
470.35	270.33
470.72	269.78
471.08	269.10
471.45	268.57
471.82	268.06
472.18	267.43
472.55	266.99
472.92	266.51
473.28	266.03
473.65	265.60
474.02	265.19
474.38	264.78
474.75	264.43
475.11	264.10
475.48	263.84
475.85	263.62
476.21	263.38
476.58	263.20
476.94	263.04
477.31	262.91
477.67	262.76
478.04	262.66
478.41	262.56
478.77	262.61
479.14	262.53
479.50	262.52
479.87	262.63
480.23	262.74
480.60	262.79
480.96	262.88
481.33	263.05
481.69	263.22
482.06	263.46
482.42	263.64
482.79	263.91
483.15	264.24
483.52	264.65
483.88	265.02
484.25	265.41
484.61	265.83
484.98	266.22
485.34	266.74
485.71	267.30
486.07	267.92
486.44	268.49
486.80	269.23
487.17	269.97
487.53	270.75
487.90	271.58
488.26	272.52
488.62	273.51
488.99	274.51
489.35	275.56
489.72	276.67
490.08	277.88
490.44	279.09
490.81	280.34
491.17	281.68
491.54	283.17
491.90	284.68
492.26	286.31
492.63	288.07
492.99	289.86
493.36	291.76
493.72	293.81
494.08	295.87
494.45	298.11
494.81	300.46
495.17	302.94
495.54	305.51
495.90	308.18
496.26	311.00
496.63	313.97
496.99	317.07
497.35	320.33
497.72	323.73
498.08	327.32
498.44	331.06
498.80	334.99
499.17	339.01
499.53	343.21
499.89	347.65
500.26	352.14
500.62	356.87
500.98	361.88
501.34	366.97
501.71	372.31
502.07	377.80
502.43	383.46
502.79	389.34
503.16	395.39
503.52	401.67
503.88	408.09
504.24	414.71
504.60	421.60
504.97	428.80
505.33	436.13
505.69	443.82
506.05	451.62
506.41	459.55
506.78	467.72
507.14	476.25
507.50	484.92
507.86	493.97
508.22	503.20
508.59	512.42
508.95	521.97
509.31	531.83
509.67	541.89
510.03	552.14
510.39	562.67
510.75	573.46
511.12	584.42
511.48	595.75
511.84	607.22
512.20	618.75
512.56	630.65
512.92	642.93
513.28	655.32
513.64	667.80
514.00	680.51
514.37	693.44
514.73	706.57
515.09	719.63
515.45	732.87
515.81	746.39
516.17	760.33
516.53	774.51
516.89	788.68
517.25	802.82
517.61	817.27
517.97	831.77
518.33	846.28
518.69	860.96
519.05	875.98
519.41	891.15
519.77	906.68
520.13	922.09
520.49	937.34
520.85	952.58
521.21	968.26
521.57	984.48
521.93	1000.19
522.29	1016.50
522.65	1032.75
523.01	1048.96
523.37	1064.99
523.73	1081.19
524.09	1097.31
524.45	1113.53
524.81	1130.19
525.17	1146.93
525.53	1163.68
525.89	1180.49
526.25	1197.33
526.61	1213.67
526.97	1230.32
527.33	1246.82
527.68	1263.34
528.04	1279.72
528.40	1296.45
528.76	1313.41
529.12	1329.92
529.48	1346.82
529.84	1362.68
530.20	1379.26
530.56	1396.21
530.91	1413.55
531.27	1430.28
531.63	1446.61
531.99	1463.20
532.35	1479.01
532.71	1494.86
533.07	1511.16
533.42	1526.96
533.78	1542.94
534.14	1559.18
534.50	1574.58
534.86	1590.31
535.21	1605.42
535.57	1621.36
535.93	1636.71
536.29	1651.47
536.65	1666.41
537.00	1681.08
537.36	1696.39
537.72	1710.81
538.08	1725.16
538.44	1738.85
538.79	1752.59
539.15	1766.22
539.51	1779.87
539.87	1794.18
540.22	1807.87
540.58	1821.42
540.94	1834.74
541.29	1847.50
541.65	1860.08
542.01	1873.13
542.37	1885.45
542.72	1897.94
543.08	1909.68
543.44	1922.00
543.79	1933.19
544.15	1944.17
544.51	1955.78
544.87	1966.62
545.22	1977.34
545.58	1987.41
545.94	1997.11
546.29	2006.90
546.65	2016.73
547.01	2025.94
547.36	2034.71
547.72	2043.14
548.07	2050.94
548.43	2059.02
548.79	2067.14
549.14	2074.58
549.50	2081.94
549.86	2089.43
550.21	2096.77
550.57	2103.90
550.92	2110.47
551.28	2117.49
551.64	2124.62
551.99	2130.98
552.35	2137.17
552.70	2143.31
553.06	2149.42
553.41	2155.83
553.77	2161.95
554.13	2168.00
554.48	2174.16
554.84	2179.72
555.19	2185.02
555.55	2190.27
555.90	2194.71
556.26	2199.49
556.61	2204.27
556.97	2208.72
557.32	2213.12
557.68	2217.24
558.03	2221.45
558.39	2225.15
558.74	2229.78
559.10	2233.66
559.45	2237.45
559.81	2241.75
560.16	2245.68
560.52	2248.71
560.87	2252.20
561.23	2254.82
561.58	2257.63
561.94	2260.22
562.29	2262.35
562.64	2265.00
563.00	2267.57
563.35	2271.16
563.71	2274.33
564.06	2277.55
564.42	2280.27
564.77	2282.79
565.12	2285.07
565.48	2287.05
565.83	2289.00
566.19	2290.47
566.54	2291.35
566.89	2292.41
567.25	2293.08
567.60	2294.37
567.96	2296.30
568.31	2297.08
568.66	2298.25
569.02	2299.00
569.37	2299.35
569.72	2300.36
570.08	2300.52
570.43	2300.57
570.78	2300.05
571.14	2298.48
571.49	2297.17
571.84	2296.73
572.20	2295.48
572.55	2294.32
572.90	2292.76
573.26	2291.31
573.61	2289.39
573.96	2287.58
574.31	2284.71
574.67	2281.64
575.02	2278.04
575.37	2274.69
575.72	2270.96
576.08	2267.55
576.43	2264.24
576.78	2260.46
577.13	2257.19
577.49	2254.02
577.84	2250.48
578.19	2246.77
578.54	2243.43
578.90	2239.16
579.25	2233.76
579.60	2228.88
579.95	2223.97
580.30	2218.93
580.66	2213.70
581.01	2208.95
581.36	2204.20
581.71	2200.05
582.06	2195.80
582.42	2191.30
582.77	2186.05
583.12	2181.58
583.47	2176.98
583.82	2172.09
584.17	2167.11
584.53	2161.69
584.88	2156.17
585.23	2150.50
585.58	2144.86
585.93	2139.20
586.28	2134.47
586.63	2129.46
586.98	2124.46
587.34	2119.66
587.69	2114.83
588.04	2109.74
588.39	2104.17
588.74	2097.57
589.09	2091.41
589.44	2084.54
589.79	2078.55
590.14	2073.05
590.49	2066.31
590.84	2059.83
591.19	2053.72
591.54	2047.19
591.89	2039.90
592.25	2033.18
592.60	2026.23
592.95	2018.92
593.30	2011.70
593.65	2004.06
594.00	1997.20
594.35	1989.80
594.70	1981.89
595.05	1974.85
595.40	1967.54
595.75	1959.98
596.10	1953.96
596.45	1947.26
596.80	1941.11
597.15	1934.45
597.50	1927.41
597.85	1921.12
598.19	1914.57
598.54	1907.47
598.89	1900.78
599.24	1894.88
599.59	1888.20
599.94	1881.95
600.29	1875.58
600.64	1869.01
600.99	1861.71
601.34	1854.79
601.69	1847.90
602.04	1841.12
602.39	1833.76
602.74	1826.92
603.08	1820.22
603.43	1813.35
603.78	1805.95
604.13	1798.85
604.48	1791.60
604.83	1784.66
605.18	1777.70
605.53	1769.73
605.87	1761.72
606.22	1754.49
606.57	1746.55
606.92	1739.26
607.27	1732.08
607.62	1725.10
607.96	1717.87
608.31	1711.35
608.66	1703.75
609.01	1696.36
609.36	1688.86
609.70	1680.85
610.05	1672.92
610.40	1665.17
610.75	1656.90
611.10	1649.27
611.44	1640.76
611.79	1632.83
612.14	1624.20
612.49	1615.06
612.83	1606.68
613.18	1598.64
613.53	1590.47
613.88	1581.92
614.22	1573.56
614.57	1564.82
614.92	1556.81
615.27	1549.18
615.61	1540.74
615.96	1532.67
616.31	1524.99
616.65	1517.55
617.00	1510.04
617.35	1502.37
617.70	1494.12
618.04	1485.60
618.39	1477.50
618.74	1470.10
619.08	1461.89
619.43	1454.26
619.78	1447.27
620.12	1440.14
620.47	1432.61
620.82	1424.48
621.16	1417.01
621.51	1409.45
621.85	1401.95
622.20	1393.34
622.55	1384.97
622.89	1377.04
623.24	1369.39
623.59	1361.92
623.93	1354.36
624.28	1347.10
624.62	1339.48
624.97	1332.31
625.32	1325.46
625.66	1318.36
626.01	1311.01
626.35	1303.45
626.70	1295.57
627.04	1287.89
627.39	1280.03
627.73	1272.60
628.08	1265.77
628.43	1258.57
628.77	1251.16
629.12	1243.55
629.46	1236.42
629.81	1228.95
630.15	1221.77
630.50	1214.38
630.84	1206.10
631.19	1198.11
631.53	1190.50
631.88	1182.90
632.22	1175.30
632.57	1167.99
632.91	1160.39
633.26	1152.98
633.60	1145.58
633.95	1138.55
634.29	1131.39
634.64	1124.73
634.98	1117.46
635.32	1110.29
635.67	1103.57
636.01	1096.97
636.36	1090.11
636.70	1083.62
637.05	1077.06
637.39	1070.57
637.73	1064.03
638.08	1058.21
638.42	1052.30
638.77	1045.88
639.11	1039.36
639.45	1032.91
639.80	1026.30
640.14	1019.99
640.49	1013.47
640.83	1007.22
641.17	1001.03
641.52	994.78
641.86	988.25
642.20	982.36
642.55	976.02
642.89	969.58
643.23	962.96
643.58	957.21
643.92	950.98
644.26	945.00
644.61	939.01
644.95	933.00
645.29	926.39
645.64	919.59
645.98	913.25
646.32	907.40
646.66	901.34
647.01	895.51
647.35	889.72
647.69	883.79
648.04	878.15
648.38	872.37
648.72	866.38
649.06	860.35
649.41	854.38
649.75	848.41
650.09	842.46
650.43	836.70
650.78	830.52
651.12	824.54
651.46	818.76
651.80	812.97
652.14	807.56
652.49	802.17
652.83	796.98
653.17	791.34
653.51	785.57
653.85	780.12
654.20	774.50
654.54	768.54
654.88	762.84
655.22	757.03
655.56	751.37
655.90	745.95
656.25	740.77
656.59	735.42
656.93	730.35
657.27	725.20
657.61	719.80
657.95	714.72
658.29	709.68
658.64	704.42
658.98	699.07
659.32	693.61
659.66	688.44
660.00	683.15
660.34	678.17
660.68	673.29
661.02	668.31
661.36	663.57
661.70	659.06
662.05	654.72
662.39	650.39
662.73	645.83
663.07	641.42
663.41	636.95
663.75	632.43
664.09	627.75
664.43	623.40
664.77	619.30
665.11	615.06
665.45	610.85
665.79	606.79
666.13	602.73
666.47	598.66
666.81	594.53
667.15	590.38
667.49	586.46
667.83	582.62
668.17	578.65
668.51	574.62
668.85	570.61
669.19	566.69
669.53	562.81
669.87	558.98
670.21	555.25
670.55	551.58
670.89	548.15
671.23	544.79
671.57	541.23
671.91	537.63
672.25	534.08
672.58	530.62
672.92	527.17
673.26	524.00
673.60	520.81
673.94	517.66
674.28	514.76
674.62	511.76
674.96	508.65
675.30	505.78
675.64	502.83
675.97	500.02
676.31	497.19
676.65	494.32
676.99	491.58
677.33	488.68
677.67	485.86
678.01	482.83
678.34	479.86
678.68	476.96
679.02	474.22
679.36	471.47
679.70	468.73
680.04	466.01
680.37	463.09
680.71	460.29
681.05	457.66
681.39	454.96
681.73	452.33
682.06	449.83
682.40	447.24
682.74	444.70
683.08	442.17
683.42	439.58
683.75	437.04
684.09	434.54
684.43	432.10
684.77	429.63
685.10	427.25
685.44	424.90
685.78	422.64
686.12	420.31
686.45	418.04
686.79	415.77
687.13	413.61
687.46	411.50
687.80	409.34
688.14	407.15
688.48	405.10
688.81	402.89
689.15	400.72
689.49	398.59
689.82	396.46
690.16	394.30
690.50	392.33
690.83	390.40
691.17	388.41
691.51	386.47
691.84	384.61
692.18	382.73
692.52	380.83
692.85	378.88
693.19	377.02
693.52	375.17
693.86	373.31
694.20	371.47
694.53	369.63
694.87	367.77
695.21	365.98
695.54	364.11
695.88	362.36
696.21	360.65
696.55	358.99
696.88	357.36
697.22	355.71
697.56	354.07
697.89	352.42
698.23	350.83
698.56	349.23
698.90	347.66
699.23	346.01
699.57	344.40
699.90	342.85
700.24	341.31
700.58	339.78
700.91	338.33
701.25	336.90
701.58	335.56
701.92	334.22
702.25	332.83
702.59	331.49
702.92	330.15
703.26	328.83
703.59	327.52
703.93	326.33
704.26	325.11
704.60	323.82
704.93	322.51
705.26	321.22
705.60	320.03
705.93	318.84
706.27	317.79
706.60	316.74
706.94	315.67
707.27	314.58
707.61	313.51
707.94	312.47
708.27	311.39
708.61	310.27
708.94	309.29
709.28	308.33
709.61	307.35
709.94	306.42
710.28	305.40
710.61	304.44
710.95	303.33
711.28	302.44
711.61	301.49
711.95	300.62
712.28	299.72
712.61	298.78
712.95	297.87
713.28	296.99
713.61	296.13
713.95	295.24
714.28	294.38
714.61	293.50
714.95	292.70
715.28	291.82
715.61	290.94
715.95	290.09
716.28	289.23
716.61	288.45
716.95	287.63
717.28	286.88
717.61	286.11
717.94	285.42
718.28	284.59
718.61	283.93
718.94	283.24
719.27	282.58
719.61	281.96
719.94	281.30
720.27	280.59
720.60	279.90
720.94	279.27
721.27	278.66
721.60	278.14
721.93	277.51
722.27	277.00
722.60	276.48
722.93	275.87
723.26	275.32
723.59	274.74
723.93	274.19
724.26	273.62
724.59	273.02
724.92	272.51
725.25	272.04
725.59	271.52
725.92	270.98
726.25	270.41
726.58	269.88
726.91	269.38
727.24	268.92
727.57	268.48
727.91	268.01
728.24	267.52
728.57	266.99
728.90	266.51
729.23	265.98
729.56	265.57
729.89	265.08
730.22	264.63
730.55	264.12
730.89	263.67
731.22	263.24
731.55	262.86
731.88	262.40
732.21	261.93
732.54	261.48
732.87	261.06
733.20	260.68
733.53	260.32
733.86	259.95
734.19	259.54
734.52	259.12
734.85	258.79
735.18	258.39
735.51	258.04
735.84	257.68
736.17	257.34
736.50	256.88
736.83	256.67
737.16	256.29
737.49	255.99
737.82	255.62
738.15	255.27
738.48	254.95
738.81	254.59
739.14	254.31
739.47	253.99
739.80	253.66
740.13	253.38
740.46	253.03
740.79	252.67
741.12	252.34
741.45	252.02
741.78	251.67
742.11	251.40
742.44	251.06
742.77	250.75
743.10	250.44
743.43	250.15
743.75	249.76
744.08	249.65
744.41	249.39
744.74	249.09
745.07	248.82
745.40	248.53
745.73	248.33
746.06	248.01
746.39	247.74
746.71	247.45
747.04	247.14
747.37	246.90
747.70	246.66
748.03	246.43
748.36	246.21
748.68	245.93
749.01	245.67
749.34	245.45
749.67	245.24
750.00	244.97
750.33	244.82
750.65	244.59
750.98	244.20
751.31	243.96
751.64	243.80
751.97	243.60
752.29	243.42
752.62	243.14
752.95	242.93
753.28	242.72
753.60	242.54
753.93	242.38
754.26	242.18
754.59	241.95
754.91	241.74
755.24	241.54
755.57	241.36
755.90	241.16
756.22	240.96
756.55	240.78
756.88	240.61
757.20	240.42
757.53	240.24
757.86	240.10
758.19	239.96
758.51	239.78
758.84	239.59
759.17	239.40
759.49	239.23
759.82	239.14
760.15	238.97
760.47	238.83
760.80	238.65
761.13	238.51
761.45	238.34
761.78	238.18
762.11	238.03
762.43	237.89
762.76	237.77
763.08	237.69
763.41	237.53
763.74	237.40
764.06	237.22
764.39	237.08
764.71	236.93
765.04	236.78
765.37	236.66
765.69	236.54
766.02	236.43
766.34	236.36
766.67	236.20
767.00	236.12
767.32	236.03
767.65	235.98
767.97	235.85
768.30	235.79
768.62	235.72
768.95	235.60
769.27	235.51
769.60	235.42
769.92	235.24
770.25	235.14
770.57	235.05
770.90	234.96
771.22	234.86
771.55	234.78
771.87	234.70
772.20	234.59
772.52	234.55
772.85	234.56
773.17	234.43
773.50	234.34
773.82	234.24
774.15	234.12
774.47	233.96
774.80	233.88
775.12	233.75
775.45	233.68
775.77	233.61
776.09	233.54
776.42	233.44
776.74	233.42
777.07	233.32
777.39	233.25
777.72	233.19
778.04	233.12
778.36	233.03
778.69	232.93
779.01	232.85
779.33	232.75
779.66	232.58
779.98	232.51
780.31	232.46
780.63	232.43
780.95	232.37
781.28	232.31
781.60	232.25
781.92	232.17
782.25	232.08
782.57	232.01
782.89	231.95
783.22	231.85
783.54	231.77
783.86	231.76
784.19	231.67
784.51	231.61
784.83	231.53
785.16	231.47
785.48	231.41
785.80	231.38
786.12	231.31
786.45	231.25
786.77	231.24
787.09	231.19
