SpectraSuite Data File
++++++++++++++++++++++++++++++++++++
Date: Fri Feb 01 17:35:41 EST 2013
User: group
Dark Spectrum Present: No
Reference Spectrum Present: No
Number of Sampled Component Spectra: 1
Spectrometers: USB2E7196
Integration Time (usec): 35000 (USB2E7196)
Spectra Averaged: 100 (USB2E7196)
Boxcar Smoothing: 10 (USB2E7196)
Correct for Electrical Dark: No (USB2E7196)
Strobe/Lamp Enabled: No (USB2E7196)
Correct for Detector Non-linearity: No (USB2E7196)
Correct for Stray Light: No (USB2E7196)
Number of Pixels in Processed Spectrum: 2048
>>>>>Begin Processed Spectral Data<<<<<
339.09	0.00
339.48	212.84
339.86	214.13
340.24	216.20
340.63	216.69
341.01	220.48
341.39	220.26
341.78	221.14
342.16	222.62
342.54	222.79
342.93	211.44
343.31	222.13
343.69	222.69
344.07	223.15
344.46	223.56
344.84	223.95
345.22	224.17
345.60	224.43
345.99	224.60
346.37	224.71
346.75	224.82
347.13	224.90
347.52	224.96
347.90	225.00
348.28	225.04
348.66	225.08
349.05	225.09
349.43	225.12
349.81	225.16
350.19	225.20
350.57	225.27
350.96	225.32
351.34	225.39
351.72	225.46
352.10	225.59
352.48	225.66
352.87	225.71
353.25	225.78
353.63	225.83
354.01	225.93
354.39	226.04
354.77	226.12
355.15	226.24
355.54	226.30
355.92	226.38
356.30	226.47
356.68	226.61
357.06	226.67
357.44	226.73
357.82	226.80
358.20	226.88
358.58	226.95
358.97	227.02
359.35	227.11
359.73	227.21
360.11	227.26
360.49	227.33
360.87	227.40
361.25	227.47
361.63	227.54
362.01	227.60
362.39	227.61
362.77	227.63
363.15	227.66
363.53	227.69
363.91	227.72
364.29	227.72
364.67	227.66
365.05	227.67
365.43	227.70
365.81	227.71
366.19	227.78
366.57	227.83
366.95	227.85
367.33	227.83
367.71	227.81
368.09	227.79
368.47	227.76
368.85	227.73
369.23	227.70
369.61	227.64
369.99	227.66
370.37	227.62
370.75	227.62
371.13	227.56
371.51	227.50
371.89	227.46
372.27	227.42
372.65	227.35
373.03	227.30
373.41	227.27
373.78	227.22
374.16	227.10
374.54	227.01
374.92	226.93
375.30	226.84
375.68	226.75
376.06	226.70
376.44	226.63
376.82	226.60
377.19	226.53
377.57	226.43
377.95	226.33
378.33	226.30
378.71	226.18
379.09	226.14
379.47	226.07
379.84	226.00
380.22	225.89
380.60	225.81
380.98	225.74
381.36	225.66
381.73	225.61
382.11	225.57
382.49	225.52
382.87	225.43
383.25	225.40
383.62	225.46
384.00	225.42
384.38	225.40
384.76	225.36
385.13	225.36
385.51	225.32
385.89	225.26
386.27	225.19
386.64	225.19
387.02	225.16
387.40	225.11
387.78	225.07
388.15	225.06
388.53	225.02
388.91	225.03
389.29	224.97
389.66	224.92
390.04	224.86
390.42	224.84
390.79	224.85
391.17	224.81
391.55	224.67
391.92	224.63
392.30	224.63
392.68	224.57
393.05	224.54
393.43	224.53
393.81	224.57
394.18	224.55
394.56	224.55
394.94	224.58
395.31	224.60
395.69	224.64
396.06	224.68
396.44	224.73
396.82	224.71
397.19	224.81
397.57	224.87
397.95	224.95
398.32	224.98
398.70	225.02
399.07	225.08
399.45	225.15
399.82	225.17
400.20	225.17
400.58	225.27
400.95	225.31
401.33	225.41
401.70	225.51
402.08	225.58
402.45	225.67
402.83	225.76
403.20	225.86
403.58	225.96
403.95	226.05
404.33	226.19
404.71	226.30
405.08	226.46
405.46	226.56
405.83	226.69
406.21	226.81
406.58	226.97
406.96	227.14
407.33	227.32
407.70	227.56
408.08	227.84
408.45	228.05
408.83	228.28
409.20	228.46
409.58	228.67
409.95	228.96
410.33	229.22
410.70	229.45
411.08	229.74
411.45	230.04
411.82	230.34
412.20	230.69
412.57	231.11
412.95	231.40
413.32	231.84
413.69	232.26
414.07	232.74
414.44	233.22
414.82	233.71
415.19	234.30
415.56	234.87
415.94	235.44
416.31	236.10
416.68	236.77
417.06	237.49
417.43	238.17
417.81	238.96
418.18	239.75
418.55	240.63
418.93	241.56
419.30	242.49
419.67	243.48
420.04	244.47
420.42	245.49
420.79	246.74
421.16	247.91
421.54	249.16
421.91	250.39
422.28	251.70
422.66	253.10
423.03	254.41
423.40	255.80
423.77	257.27
424.15	258.74
424.52	260.28
424.89	262.03
425.26	263.67
425.64	265.19
426.01	266.88
426.38	268.62
426.75	270.40
427.13	272.23
427.50	274.12
427.87	276.08
428.24	278.02
428.61	279.84
428.99	281.89
429.36	284.08
429.73	286.25
430.10	288.37
430.47	290.47
430.85	292.71
431.22	295.04
431.59	297.56
431.96	299.92
432.33	302.51
432.70	304.95
433.08	307.86
433.45	310.62
433.82	313.31
434.19	316.35
434.56	319.26
434.93	322.01
435.30	324.83
435.68	327.85
436.05	330.83
436.42	333.75
436.79	336.40
437.16	339.19
437.53	342.16
437.90	345.11
438.27	347.98
438.64	350.96
439.01	353.66
439.38	355.99
439.75	358.26
440.13	360.86
440.50	363.35
440.87	365.30
441.24	367.39
441.61	369.71
441.98	371.27
442.35	373.14
442.72	375.09
443.09	376.95
443.46	378.05
443.83	378.67
444.20	379.21
444.57	380.05
444.94	380.41
445.31	380.81
445.68	381.19
446.05	381.31
446.42	380.91
446.79	380.51
447.16	380.05
447.53	379.73
447.90	378.56
448.27	377.35
448.64	375.73
449.01	374.48
449.37	372.46
449.74	370.51
450.11	368.20
450.48	365.59
450.85	362.94
451.22	360.69
451.59	358.59
451.96	356.60
452.33	353.91
452.70	351.48
453.07	348.50
453.43	345.47
453.80	342.61
454.17	339.81
454.54	337.15
454.91	334.30
455.28	331.49
455.65	328.91
456.02	326.31
456.38	324.07
456.75	321.31
457.12	318.94
457.49	316.58
457.86	314.32
458.23	312.42
458.59	310.30
458.96	308.09
459.33	306.13
459.70	304.13
460.07	302.60
460.43	300.75
460.80	299.05
461.17	297.57
461.54	295.99
461.91	294.52
462.27	292.99
462.64	291.71
463.01	290.30
463.38	288.93
463.74	287.50
464.11	286.24
464.48	285.17
464.85	283.96
465.21	283.06
465.58	282.07
465.95	280.92
466.32	279.95
466.68	279.01
467.05	278.10
467.42	277.18
467.78	276.16
468.15	275.27
468.52	274.59
468.88	273.67
469.25	272.86
469.62	272.21
469.98	271.50
470.35	270.86
470.72	270.26
471.08	269.56
471.45	269.05
471.82	268.52
472.18	267.89
472.55	267.45
472.92	266.91
473.28	266.42
473.65	265.99
474.02	265.53
474.38	265.18
474.75	264.85
475.11	264.50
475.48	264.24
475.85	263.98
476.21	263.73
476.58	263.54
476.94	263.39
477.31	263.20
477.67	263.04
478.04	262.91
478.41	262.86
478.77	262.89
479.14	262.82
479.50	262.81
479.87	262.89
480.23	262.96
480.60	263.01
480.96	263.14
481.33	263.33
481.69	263.54
482.06	263.74
482.42	263.90
482.79	264.13
483.15	264.49
483.52	264.88
483.88	265.19
484.25	265.56
484.61	266.02
484.98	266.50
485.34	267.06
485.71	267.64
486.07	268.23
486.44	268.78
486.80	269.45
487.17	270.24
487.53	271.04
487.90	271.87
488.26	272.79
488.62	273.71
488.99	274.68
489.35	275.71
489.72	276.82
490.08	278.02
490.44	279.25
490.81	280.53
491.17	281.91
491.54	283.39
491.90	284.96
492.26	286.54
492.63	288.26
492.99	290.06
493.36	291.93
493.72	293.94
494.08	296.06
494.45	298.33
494.81	300.65
495.17	303.11
495.54	305.69
495.90	308.37
496.26	311.19
496.63	314.14
496.99	317.23
497.35	320.45
497.72	323.80
498.08	327.29
498.44	330.87
498.80	334.70
499.17	338.70
499.53	342.77
499.89	347.11
500.26	351.54
500.62	356.08
500.98	360.96
501.34	365.96
501.71	371.18
502.07	376.48
502.43	381.95
502.79	387.71
503.16	393.65
503.52	399.81
503.88	406.07
504.24	412.54
504.60	419.23
504.97	426.23
505.33	433.46
505.69	441.06
506.05	448.73
506.41	456.47
506.78	464.41
507.14	472.69
507.50	481.19
507.86	490.00
508.22	499.08
508.59	508.14
508.95	517.51
509.31	527.15
509.67	537.14
510.03	547.29
510.39	557.47
510.75	567.98
511.12	578.61
511.48	589.61
511.84	600.83
512.20	612.14
512.56	623.77
512.92	635.55
513.28	647.57
513.64	659.71
514.00	672.13
514.37	684.76
514.73	697.46
515.09	710.10
515.45	723.00
515.81	736.12
516.17	749.65
516.53	763.34
516.89	777.03
517.25	790.65
517.61	804.58
517.97	818.60
518.33	832.53
518.69	846.97
519.05	861.45
519.41	876.14
519.77	891.18
520.13	906.13
520.49	921.11
520.85	935.99
521.21	951.10
521.57	966.76
521.93	982.02
522.29	997.78
522.65	1013.59
523.01	1029.36
523.37	1044.87
523.73	1060.53
524.09	1076.11
524.45	1091.84
524.81	1107.99
525.17	1124.12
525.53	1140.50
525.89	1156.87
526.25	1173.14
526.61	1189.07
526.97	1205.23
527.33	1221.22
527.68	1237.24
528.04	1253.20
528.40	1269.18
528.76	1285.87
529.12	1301.93
529.48	1318.35
529.84	1334.08
530.20	1350.10
530.56	1366.42
530.91	1383.38
531.27	1399.76
531.63	1415.83
531.99	1432.03
532.35	1447.60
532.71	1463.15
533.07	1479.06
533.42	1494.56
533.78	1510.21
534.14	1526.09
534.50	1541.02
534.86	1556.55
535.21	1571.45
535.57	1586.99
535.93	1602.14
536.29	1616.53
536.65	1631.24
537.00	1645.62
537.36	1660.55
537.72	1674.85
538.08	1689.04
538.44	1702.45
538.79	1715.95
539.15	1729.14
539.51	1742.46
539.87	1756.58
540.22	1770.12
540.58	1783.48
540.94	1796.54
541.29	1808.95
541.65	1821.53
542.01	1834.55
542.37	1846.66
542.72	1858.87
543.08	1870.51
543.44	1882.86
543.79	1894.11
544.15	1905.17
544.51	1916.70
544.87	1927.51
545.22	1938.28
545.58	1948.57
545.94	1958.43
546.29	1968.32
546.65	1978.33
547.01	1987.82
547.36	1996.53
547.72	2005.13
548.07	2013.29
548.43	2021.58
548.79	2029.86
549.14	2037.64
549.50	2045.20
549.86	2052.88
550.21	2060.38
550.57	2067.80
550.92	2074.53
551.28	2081.85
551.64	2088.98
551.99	2095.68
552.35	2102.14
552.70	2108.55
553.06	2114.77
553.41	2121.38
553.77	2127.64
554.13	2133.95
554.48	2140.33
554.84	2146.30
555.19	2151.70
555.55	2157.17
555.90	2162.03
556.26	2167.36
556.61	2172.25
556.97	2176.97
557.32	2181.48
557.68	2186.04
558.03	2190.52
558.39	2194.52
558.74	2199.33
559.10	2203.57
559.45	2207.65
559.81	2212.24
560.16	2216.50
560.52	2220.11
560.87	2223.88
561.23	2226.98
561.58	2230.20
561.94	2233.18
562.29	2235.75
562.64	2239.04
563.00	2241.80
563.35	2245.73
563.71	2249.19
564.06	2252.70
564.42	2256.00
564.77	2259.08
565.12	2261.80
565.48	2264.42
565.83	2266.83
566.19	2268.72
566.54	2269.92
566.89	2271.48
567.25	2272.72
567.60	2274.46
567.96	2276.67
568.31	2277.93
568.66	2279.44
569.02	2280.63
569.37	2281.34
569.72	2282.78
570.08	2283.36
570.43	2283.93
570.78	2283.80
571.14	2282.79
571.49	2281.81
571.84	2281.77
572.20	2281.07
572.55	2280.49
572.90	2279.09
573.26	2278.17
573.61	2276.68
573.96	2275.67
574.31	2273.18
574.67	2270.54
575.02	2267.28
575.37	2264.23
575.72	2260.94
576.08	2257.88
576.43	2254.76
576.78	2251.70
577.13	2248.66
577.49	2245.79
577.84	2242.81
578.19	2239.39
578.54	2236.09
578.90	2232.55
579.25	2227.44
579.60	2222.93
579.95	2218.43
580.30	2213.85
580.66	2209.03
581.01	2204.50
581.36	2199.69
581.71	2195.89
582.06	2191.91
582.42	2187.89
582.77	2183.04
583.12	2179.04
583.47	2175.06
583.82	2170.62
584.17	2165.57
584.53	2160.49
584.88	2155.21
585.23	2149.88
585.58	2144.70
585.93	2139.49
586.28	2134.72
586.63	2130.06
586.98	2125.21
587.34	2120.57
587.69	2115.79
588.04	2110.86
588.39	2105.58
588.74	2099.46
589.09	2093.58
589.44	2087.13
589.79	2080.97
590.14	2075.48
590.49	2068.96
590.84	2062.47
591.19	2056.73
591.54	2050.49
591.89	2043.51
592.25	2037.17
592.60	2030.18
592.95	2023.03
593.30	2015.93
593.65	2008.58
594.00	2001.57
594.35	1994.56
594.70	1986.66
595.05	1979.91
595.40	1972.72
595.75	1965.34
596.10	1959.51
596.45	1953.07
596.80	1947.01
597.15	1940.75
597.50	1934.16
597.85	1927.77
598.19	1921.42
598.54	1914.60
598.89	1908.20
599.24	1902.33
599.59	1895.92
599.94	1889.78
600.29	1883.47
600.64	1877.02
600.99	1869.83
601.34	1863.23
601.69	1856.16
602.04	1849.63
602.39	1842.38
602.74	1835.70
603.08	1829.14
603.43	1822.40
603.78	1815.08
604.13	1807.88
604.48	1800.89
604.83	1793.94
605.18	1787.34
605.53	1779.50
605.87	1771.53
606.22	1764.33
606.57	1756.42
606.92	1748.77
607.27	1741.78
607.62	1734.90
607.96	1727.80
608.31	1721.45
608.66	1713.97
609.01	1706.71
609.36	1699.10
609.70	1691.19
610.05	1683.19
610.40	1675.46
610.75	1667.16
611.10	1659.48
611.44	1651.04
611.79	1642.87
612.14	1634.18
612.49	1624.79
612.83	1616.19
613.18	1607.92
613.53	1599.71
613.88	1591.19
614.22	1582.86
614.57	1573.97
614.92	1565.91
615.27	1558.32
615.61	1549.90
615.96	1541.68
616.31	1533.85
616.65	1526.35
617.00	1518.55
617.35	1510.77
617.70	1502.46
618.04	1493.89
618.39	1485.54
618.74	1477.94
619.08	1469.56
619.43	1461.88
619.78	1454.81
620.12	1447.71
620.47	1440.11
620.82	1431.87
621.16	1424.20
621.51	1416.59
621.85	1408.86
622.20	1400.30
622.55	1391.79
622.89	1383.73
623.24	1376.05
623.59	1368.49
623.93	1361.06
624.28	1353.82
624.62	1346.37
624.97	1339.07
625.32	1332.13
625.66	1324.97
626.01	1317.63
626.35	1310.41
626.70	1302.61
627.04	1295.00
627.39	1287.21
627.73	1279.63
628.08	1272.63
628.43	1265.39
628.77	1258.03
629.12	1250.48
629.46	1243.26
629.81	1235.61
630.15	1228.29
630.50	1220.73
630.84	1212.59
631.19	1204.40
631.53	1196.73
631.88	1188.93
632.22	1181.28
632.57	1173.84
632.91	1166.27
633.26	1158.84
633.60	1151.22
633.95	1143.81
634.29	1136.57
634.64	1129.69
634.98	1122.36
635.32	1115.17
635.67	1108.53
636.01	1101.77
636.36	1094.98
636.70	1088.30
637.05	1081.75
637.39	1075.26
637.73	1068.83
638.08	1062.84
638.42	1056.82
638.77	1050.28
639.11	1043.83
639.45	1037.38
639.80	1030.82
640.14	1024.33
640.49	1017.75
640.83	1011.32
641.17	1005.30
641.52	998.94
641.86	992.39
642.20	986.52
642.55	980.02
642.89	973.42
643.23	966.70
643.58	960.81
643.92	954.66
644.26	948.69
644.61	942.56
644.95	936.44
645.29	929.87
645.64	923.07
645.98	916.72
646.32	910.60
646.66	904.48
647.01	898.54
647.35	892.84
647.69	886.94
648.04	881.42
648.38	875.51
648.72	869.55
649.06	863.54
649.41	857.49
649.75	851.67
650.09	845.78
650.43	840.13
650.78	834.01
651.12	828.00
651.46	822.20
651.80	816.59
652.14	811.23
652.49	805.80
652.83	800.60
653.17	795.02
653.51	789.46
653.85	783.96
654.20	778.35
654.54	772.36
654.88	766.55
655.22	760.64
655.56	754.98
655.90	749.37
656.25	744.13
656.59	738.82
656.93	733.65
657.27	728.45
657.61	723.01
657.95	717.86
658.29	712.74
658.64	707.43
658.98	701.95
659.32	696.39
659.66	691.13
660.00	685.90
660.34	680.89
660.68	675.89
661.02	670.89
661.36	666.18
661.70	661.67
662.05	657.35
662.39	653.02
662.73	648.46
663.07	644.07
663.41	639.59
663.75	635.13
664.09	630.56
664.43	626.14
664.77	621.92
665.11	617.67
665.45	613.48
665.79	609.40
666.13	605.34
666.47	601.24
666.81	597.17
667.15	593.00
667.49	588.97
667.83	585.08
668.17	581.15
668.51	577.06
668.85	573.03
669.19	569.08
669.53	565.22
669.87	561.42
670.21	557.78
670.55	554.04
670.89	550.57
671.23	547.17
671.57	543.65
671.91	540.16
672.25	536.54
672.58	533.04
672.92	529.57
673.26	526.34
673.60	523.17
673.94	520.08
674.28	517.11
674.62	514.24
674.96	511.19
675.30	508.32
675.64	505.42
675.97	502.59
676.31	499.76
676.65	496.83
676.99	494.04
677.33	491.12
677.67	488.38
678.01	485.36
678.34	482.38
678.68	479.48
679.02	476.67
679.36	473.95
679.70	471.25
680.04	468.45
680.37	465.61
680.71	462.75
681.05	459.99
681.39	457.26
681.73	454.56
682.06	452.04
682.40	449.46
682.74	446.84
683.08	444.24
683.42	441.61
683.75	439.07
684.09	436.50
684.43	434.06
684.77	431.50
685.10	429.07
685.44	426.70
685.78	424.37
686.12	422.04
686.45	419.71
686.79	417.40
687.13	415.21
687.46	412.96
687.80	410.78
688.14	408.53
688.48	406.46
688.81	404.24
689.15	402.05
689.49	399.81
689.82	397.70
690.16	395.57
690.50	393.61
690.83	391.67
691.17	389.67
691.51	387.74
691.84	385.93
692.18	384.01
692.52	382.05
692.85	380.13
693.19	378.23
693.52	376.37
693.86	374.47
694.20	372.63
694.53	370.83
694.87	368.96
695.21	367.14
695.54	365.26
695.88	363.47
696.21	361.69
696.55	360.04
696.88	358.35
697.22	356.68
697.56	354.97
697.89	353.31
698.23	351.69
698.56	350.02
698.90	348.42
699.23	346.78
699.57	345.19
699.90	343.60
700.24	342.01
700.58	340.49
700.91	339.02
701.25	337.57
701.58	336.20
701.92	334.82
702.25	333.45
702.59	332.10
702.92	330.75
703.26	329.41
703.59	328.12
703.93	326.89
704.26	325.66
704.60	324.37
704.93	323.06
705.26	321.77
705.60	320.54
705.93	319.30
706.27	318.27
706.60	317.21
706.94	316.12
707.27	314.96
707.61	313.87
707.94	312.83
708.27	311.73
708.61	310.64
708.94	309.62
709.28	308.58
709.61	307.58
709.94	306.65
710.28	305.61
710.61	304.57
710.95	303.46
711.28	302.51
711.61	301.53
711.95	300.59
712.28	299.66
712.61	298.71
712.95	297.79
713.28	296.82
713.61	295.86
713.95	294.96
714.28	294.15
714.61	293.28
714.95	292.41
715.28	291.52
715.61	290.64
715.95	289.79
716.28	288.92
716.61	288.04
716.95	287.20
717.28	286.44
717.61	285.68
717.94	284.95
718.28	284.14
718.61	283.41
718.94	282.71
719.27	282.05
719.61	281.36
719.94	280.69
720.27	279.94
720.60	279.28
720.94	278.64
721.27	278.05
721.60	277.46
721.93	276.83
722.27	276.27
722.60	275.71
722.93	275.08
723.26	274.61
723.59	274.03
723.93	273.48
724.26	272.90
724.59	272.35
724.92	271.81
725.25	271.31
725.59	270.76
725.92	270.25
726.25	269.71
726.58	269.17
726.91	268.63
727.24	268.19
727.57	267.70
727.91	267.18
728.24	266.67
728.57	266.15
728.90	265.68
729.23	265.15
729.56	264.70
729.89	264.22
730.22	263.69
730.55	263.24
730.89	262.78
731.22	262.35
731.55	261.86
731.88	261.40
732.21	260.97
732.54	260.52
732.87	260.10
733.20	259.65
733.53	259.28
733.86	258.90
734.19	258.48
734.52	258.09
734.85	257.78
735.18	257.35
735.51	256.98
735.84	256.60
736.17	256.27
736.50	255.87
736.83	255.65
737.16	255.30
737.49	254.97
737.82	254.60
738.15	254.23
738.48	253.92
738.81	253.58
739.14	253.23
739.47	252.94
739.80	252.62
740.13	252.34
740.46	251.99
740.79	251.64
741.12	251.33
741.45	251.00
741.78	250.64
742.11	250.33
742.44	250.02
742.77	249.73
743.10	249.41
743.43	249.10
743.75	248.70
744.08	248.58
744.41	248.30
744.74	248.01
745.07	247.76
745.40	247.52
745.73	247.29
746.06	247.00
746.39	246.72
746.71	246.41
747.04	246.13
747.37	245.88
747.70	245.68
748.03	245.42
748.36	245.21
748.68	244.95
749.01	244.72
749.34	244.47
749.67	244.23
750.00	244.00
750.33	243.83
750.65	243.58
750.98	243.21
751.31	242.98
751.64	242.78
751.97	242.60
752.29	242.37
752.62	242.10
752.95	241.88
753.28	241.63
753.60	241.44
753.93	241.30
754.26	241.08
754.59	240.83
754.91	240.62
755.24	240.40
755.57	240.23
755.90	240.05
756.22	239.88
756.55	239.66
756.88	239.45
757.20	239.19
757.53	239.04
757.86	238.89
758.19	238.73
758.51	238.55
758.84	238.34
759.17	238.13
759.49	237.99
759.82	237.89
760.15	237.79
760.47	237.62
760.80	237.41
761.13	237.31
761.45	237.16
761.78	237.05
762.11	236.93
762.43	236.75
762.76	236.58
763.08	236.44
763.41	236.33
763.74	236.20
764.06	236.09
764.39	235.93
764.71	235.76
765.04	235.63
765.37	235.46
765.69	235.31
766.02	235.20
766.34	235.08
766.67	234.92
767.00	234.77
767.32	234.72
767.65	234.68
767.97	234.55
768.30	234.43
768.62	234.30
768.95	234.13
769.27	234.02
769.60	233.94
769.92	233.79
770.25	233.72
770.57	233.58
770.90	233.48
771.22	233.38
771.55	233.30
771.87	233.20
772.20	233.14
772.52	233.18
772.85	233.18
773.17	233.11
773.50	233.01
773.82	232.92
774.15	232.74
774.47	232.60
774.80	232.55
775.12	232.47
775.45	232.40
775.77	232.36
776.09	232.30
776.42	232.21
776.74	232.21
777.07	232.11
777.39	232.08
777.72	232.01
778.04	231.94
778.36	231.87
778.69	231.83
779.01	231.79
779.33	231.62
779.66	231.48
779.98	231.38
780.31	231.31
780.63	231.31
780.95	231.30
781.28	231.22
781.60	231.13
781.92	231.05
782.25	230.94
782.57	230.86
782.89	230.82
783.22	230.76
783.54	230.65
783.86	230.62
784.19	230.54
784.51	230.50
784.83	230.46
785.16	230.39
785.48	230.35
785.80	230.28
786.12	230.24
786.45	230.19
786.77	230.12
787.09	230.07
