SpectraSuite Data File
++++++++++++++++++++++++++++++++++++
Date: Fri Feb 01 15:53:22 EST 2013
User: group
Dark Spectrum Present: No
Reference Spectrum Present: No
Number of Sampled Component Spectra: 1
Spectrometers: USB2E7196
Integration Time (usec): 35000 (USB2E7196)
Spectra Averaged: 100 (USB2E7196)
Boxcar Smoothing: 10 (USB2E7196)
Correct for Electrical Dark: No (USB2E7196)
Strobe/Lamp Enabled: No (USB2E7196)
Correct for Detector Non-linearity: No (USB2E7196)
Correct for Stray Light: No (USB2E7196)
Number of Pixels in Processed Spectrum: 2048
>>>>>Begin Processed Spectral Data<<<<<
339.09	0.00
339.48	214.98
339.86	216.37
340.24	217.68
340.63	218.72
341.01	221.97
341.39	221.52
341.78	222.59
342.16	224.64
342.54	225.28
342.93	213.32
343.31	224.12
343.69	224.66
344.07	225.15
344.46	225.58
344.84	225.97
345.22	226.22
345.60	226.47
345.99	226.71
346.37	226.83
346.75	226.91
347.13	226.99
347.52	227.08
347.90	227.19
348.28	227.20
348.66	227.23
349.05	227.23
349.43	227.26
349.81	227.30
350.19	227.33
350.57	227.38
350.96	227.42
351.34	227.48
351.72	227.58
352.10	227.69
352.48	227.77
352.87	227.86
353.25	227.90
353.63	227.98
354.01	228.05
354.39	228.13
354.77	228.21
355.15	228.28
355.54	228.31
355.92	228.32
356.30	228.37
356.68	228.48
357.06	228.57
357.44	228.62
357.82	228.69
358.20	228.76
358.58	228.79
358.97	228.90
359.35	228.96
359.73	228.99
360.11	228.98
360.49	229.02
360.87	229.03
361.25	229.06
361.63	229.13
362.01	229.17
362.39	229.18
362.77	229.19
363.15	229.22
363.53	229.23
363.91	229.26
364.29	229.25
364.67	229.19
365.05	229.19
365.43	229.22
365.81	229.21
366.19	229.24
366.57	229.29
366.95	229.28
367.33	229.26
367.71	229.27
368.09	229.29
368.47	229.28
368.85	229.27
369.23	229.31
369.61	229.21
369.99	229.19
370.37	229.19
370.75	229.24
371.13	229.12
371.51	229.07
371.89	229.02
372.27	229.00
372.65	228.97
373.03	228.91
373.41	228.84
373.78	228.80
374.16	228.68
374.54	228.60
374.92	228.49
375.30	228.42
375.68	228.30
376.06	228.22
376.44	228.14
376.82	228.11
377.19	227.99
377.57	227.97
377.95	227.82
378.33	227.72
378.71	227.58
379.09	227.53
379.47	227.47
379.84	227.37
380.22	227.31
380.60	227.21
380.98	227.12
381.36	227.04
381.73	226.96
382.11	226.92
382.49	226.84
382.87	226.80
383.25	226.74
383.62	226.82
384.00	226.76
384.38	226.70
384.76	226.65
385.13	226.66
385.51	226.56
385.89	226.55
386.27	226.50
386.64	226.47
387.02	226.44
387.40	226.39
387.78	226.38
388.15	226.31
388.53	226.26
388.91	226.24
389.29	226.20
389.66	226.16
390.04	226.15
390.42	226.17
390.79	226.13
391.17	226.11
391.55	225.99
391.92	225.98
392.30	225.99
392.68	225.94
393.05	225.92
393.43	225.94
393.81	225.97
394.18	225.99
394.56	225.98
394.94	226.06
395.31	226.07
395.69	226.11
396.06	226.17
396.44	226.25
396.82	226.31
397.19	226.41
397.57	226.44
397.95	226.51
398.32	226.53
398.70	226.58
399.07	226.67
399.45	226.75
399.82	226.81
400.20	226.91
400.58	227.00
400.95	227.04
401.33	227.16
401.70	227.28
402.08	227.34
402.45	227.44
402.83	227.52
403.20	227.67
403.58	227.77
403.95	227.93
404.33	228.05
404.71	228.14
405.08	228.33
405.46	228.46
405.83	228.57
406.21	228.72
406.58	228.96
406.96	229.12
407.33	229.28
407.70	229.47
408.08	229.73
408.45	229.96
408.83	230.22
409.20	230.43
409.58	230.64
409.95	230.91
410.33	231.19
410.70	231.47
411.08	231.76
411.45	232.10
411.82	232.40
412.20	232.75
412.57	233.19
412.95	233.49
413.32	233.94
413.69	234.34
414.07	234.77
414.44	235.19
414.82	235.63
415.19	236.22
415.56	236.76
415.94	237.29
416.31	237.92
416.68	238.57
417.06	239.30
417.43	239.96
417.81	240.77
418.18	241.56
418.55	242.41
418.93	243.25
419.30	244.13
419.67	245.03
420.04	245.98
420.42	246.97
420.79	248.17
421.16	249.30
421.54	250.52
421.91	251.76
422.28	253.05
422.66	254.42
423.03	255.73
423.40	257.07
423.77	258.49
424.15	259.90
424.52	261.36
424.89	262.95
425.26	264.52
425.64	265.92
426.01	267.49
426.38	269.12
426.75	270.84
427.13	272.57
427.50	274.40
427.87	276.26
428.24	278.10
428.61	279.83
428.99	281.74
429.36	283.84
429.73	285.91
430.10	287.92
430.47	289.99
430.85	292.03
431.22	294.28
431.59	296.64
431.96	298.90
432.33	301.36
432.70	303.71
433.08	306.51
433.45	309.15
433.82	311.75
434.19	314.64
434.56	317.41
434.93	320.04
435.30	322.66
435.68	325.55
436.05	328.38
436.42	331.14
436.79	333.69
437.16	336.40
437.53	339.23
437.90	342.03
438.27	344.75
438.64	347.59
439.01	350.21
439.38	352.44
439.75	354.60
440.13	357.11
440.50	359.46
440.87	361.29
441.24	363.23
441.61	365.38
441.98	366.86
442.35	368.65
442.72	370.49
443.09	372.31
443.46	373.29
443.83	373.89
444.20	374.38
444.57	375.21
444.94	375.45
445.31	375.74
445.68	376.10
446.05	376.14
446.42	375.77
446.79	375.32
447.16	374.88
447.53	374.55
447.90	373.40
448.27	372.24
448.64	370.66
449.01	369.50
449.37	367.57
449.74	365.62
450.11	363.38
450.48	360.90
450.85	358.34
451.22	356.16
451.59	354.12
451.96	352.21
452.33	349.60
452.70	347.26
453.07	344.45
453.43	341.56
453.80	338.78
454.17	336.12
454.54	333.58
454.91	330.83
455.28	328.14
455.65	325.64
456.02	323.18
456.38	321.05
456.75	318.41
457.12	316.15
457.49	313.95
457.86	311.81
458.23	309.98
458.59	307.93
458.96	305.92
459.33	304.06
459.70	302.20
460.07	300.75
460.43	299.01
460.80	297.40
461.17	295.97
461.54	294.55
461.91	293.11
462.27	291.67
462.64	290.46
463.01	289.09
463.38	287.83
463.74	286.48
464.11	285.32
464.48	284.34
464.85	283.23
465.21	282.37
465.58	281.45
465.95	280.38
466.32	279.50
466.68	278.58
467.05	277.74
467.42	276.86
467.78	275.91
468.15	275.04
468.52	274.38
468.88	273.54
469.25	272.78
469.62	272.16
469.98	271.45
470.35	270.81
470.72	270.26
471.08	269.61
471.45	269.07
471.82	268.54
472.18	267.91
472.55	267.50
472.92	266.97
473.28	266.49
473.65	266.06
474.02	265.64
474.38	265.26
474.75	264.94
475.11	264.60
475.48	264.32
475.85	264.11
476.21	263.89
476.58	263.71
476.94	263.53
477.31	263.39
477.67	263.25
478.04	263.14
478.41	263.06
478.77	263.08
479.14	263.02
479.50	263.00
479.87	263.09
480.23	263.16
480.60	263.23
480.96	263.33
481.33	263.49
481.69	263.68
482.06	263.86
482.42	264.03
482.79	264.28
483.15	264.61
483.52	265.01
483.88	265.33
484.25	265.68
484.61	266.10
484.98	266.55
485.34	267.15
485.71	267.73
486.07	268.33
486.44	268.88
486.80	269.59
487.17	270.35
487.53	271.12
487.90	271.97
488.26	272.95
488.62	273.96
488.99	274.91
489.35	275.89
489.72	277.04
490.08	278.21
490.44	279.47
490.81	280.78
491.17	282.12
491.54	283.62
491.90	285.17
492.26	286.82
492.63	288.55
492.99	290.32
493.36	292.22
493.72	294.22
494.08	296.29
494.45	298.51
494.81	300.88
495.17	303.34
495.54	305.89
495.90	308.50
496.26	311.25
496.63	314.25
496.99	317.44
497.35	320.69
497.72	324.12
498.08	327.60
498.44	331.29
498.80	335.22
499.17	339.22
499.53	343.40
499.89	347.79
500.26	352.29
500.62	356.98
500.98	361.96
501.34	367.06
501.71	372.44
502.07	377.92
502.43	383.54
502.79	389.35
503.16	395.45
503.52	401.74
503.88	408.21
504.24	414.85
504.60	421.72
504.97	428.83
505.33	436.19
505.69	443.99
506.05	451.76
506.41	459.66
506.78	467.80
507.14	476.21
507.50	484.97
507.86	494.02
508.22	503.22
508.59	512.39
508.95	521.97
509.31	531.87
509.67	541.96
510.03	552.26
510.39	562.85
510.75	573.61
511.12	584.58
511.48	595.81
511.84	607.32
512.20	618.84
512.56	630.80
512.92	642.97
513.28	655.25
513.64	667.71
514.00	680.42
514.37	693.47
514.73	706.54
515.09	719.53
515.45	732.75
515.81	746.37
516.17	760.36
516.53	774.48
516.89	788.62
517.25	802.81
517.61	817.24
517.97	831.69
518.33	846.11
518.69	860.83
519.05	875.92
519.41	891.00
519.77	906.57
520.13	921.96
520.49	937.41
520.85	952.86
521.21	968.64
521.57	984.80
521.93	1000.45
522.29	1016.93
522.65	1033.12
523.01	1049.34
523.37	1065.36
523.73	1081.57
524.09	1097.67
524.45	1113.96
524.81	1130.58
525.17	1147.35
525.53	1164.17
525.89	1181.09
526.25	1197.95
526.61	1214.32
526.97	1231.20
527.33	1247.51
527.68	1264.10
528.04	1280.48
528.40	1296.98
528.76	1313.99
529.12	1330.51
529.48	1347.43
529.84	1363.35
530.20	1380.01
530.56	1397.15
530.91	1414.52
531.27	1431.16
531.63	1447.58
531.99	1464.15
532.35	1480.05
532.71	1495.99
533.07	1512.32
533.42	1528.15
533.78	1544.17
534.14	1560.41
534.50	1575.57
534.86	1591.60
535.21	1606.77
535.57	1622.67
535.93	1638.22
536.29	1652.97
536.65	1668.07
537.00	1682.79
537.36	1698.04
537.72	1712.54
538.08	1726.89
538.44	1740.62
538.79	1754.57
539.15	1768.22
539.51	1781.82
539.87	1796.04
540.22	1809.79
540.58	1823.54
540.94	1836.88
541.29	1849.73
541.65	1862.39
542.01	1875.65
542.37	1887.86
542.72	1900.25
543.08	1912.04
543.44	1924.38
543.79	1935.51
544.15	1946.54
544.51	1958.08
544.87	1968.97
545.22	1979.78
545.58	1989.87
545.94	1999.69
546.29	2009.60
546.65	2019.51
547.01	2028.82
547.36	2037.61
547.72	2045.99
548.07	2053.63
548.43	2061.79
548.79	2069.81
549.14	2077.30
549.50	2084.46
549.86	2092.21
550.21	2099.56
550.57	2106.62
550.92	2113.15
551.28	2120.29
551.64	2127.28
551.99	2133.73
552.35	2139.98
552.70	2146.11
553.06	2152.07
553.41	2158.44
553.77	2164.35
554.13	2170.30
554.48	2176.43
554.84	2181.75
555.19	2186.97
555.55	2192.17
555.90	2196.57
556.26	2201.39
556.61	2206.26
556.97	2210.65
557.32	2214.70
557.68	2218.88
558.03	2223.11
558.39	2226.83
558.74	2231.41
559.10	2235.40
559.45	2239.21
559.81	2243.48
560.16	2247.27
560.52	2250.43
560.87	2253.75
561.23	2256.29
561.58	2259.32
561.94	2261.73
562.29	2264.29
562.64	2266.98
563.00	2269.62
563.35	2273.30
563.71	2276.50
564.06	2279.50
564.42	2282.29
564.77	2284.81
565.12	2287.00
565.48	2288.97
565.83	2290.95
566.19	2292.27
566.54	2293.10
566.89	2294.08
567.25	2294.69
567.60	2296.11
567.96	2297.84
568.31	2298.70
568.66	2299.95
569.02	2300.51
569.37	2300.92
569.72	2301.64
570.08	2301.86
570.43	2301.93
570.78	2301.30
571.14	2299.88
571.49	2298.54
571.84	2298.24
572.20	2297.13
572.55	2296.11
572.90	2294.69
573.26	2293.19
573.61	2291.38
573.96	2289.58
574.31	2286.54
574.67	2283.48
575.02	2279.74
575.37	2276.43
575.72	2272.52
576.08	2269.11
576.43	2265.84
576.78	2262.17
577.13	2259.06
577.49	2255.94
577.84	2252.40
578.19	2248.66
578.54	2244.86
578.90	2240.59
579.25	2235.07
579.60	2230.17
579.95	2225.11
580.30	2220.00
580.66	2214.86
581.01	2209.84
581.36	2204.90
581.71	2200.85
582.06	2196.31
582.42	2191.80
582.77	2186.53
583.12	2182.05
583.47	2177.36
583.82	2172.42
584.17	2167.25
584.53	2161.71
584.88	2156.00
585.23	2150.36
585.58	2144.86
585.93	2139.36
586.28	2134.65
586.63	2129.60
586.98	2124.49
587.34	2119.81
587.69	2114.96
588.04	2109.65
588.39	2104.12
588.74	2097.65
589.09	2091.54
589.44	2084.80
589.79	2078.94
590.14	2073.40
590.49	2066.88
590.84	2060.52
591.19	2054.39
591.54	2047.82
591.89	2040.44
592.25	2033.66
592.60	2026.29
592.95	2018.63
593.30	2011.32
593.65	2003.75
594.00	1996.71
594.35	1989.47
594.70	1981.47
595.05	1974.20
595.40	1966.93
595.75	1959.39
596.10	1953.17
596.45	1946.34
596.80	1940.19
597.15	1933.57
597.50	1926.40
597.85	1920.01
598.19	1913.27
598.54	1906.03
598.89	1899.43
599.24	1893.64
599.59	1886.86
599.94	1880.70
600.29	1874.43
600.64	1867.88
600.99	1860.50
601.34	1853.65
601.69	1846.67
602.04	1839.78
602.39	1832.49
602.74	1825.61
603.08	1818.96
603.43	1812.37
603.78	1805.12
604.13	1797.95
604.48	1790.60
604.83	1783.75
605.18	1776.51
605.53	1768.56
605.87	1760.68
606.22	1753.43
606.57	1745.49
606.92	1738.26
607.27	1731.04
607.62	1724.08
607.96	1716.80
608.31	1710.09
608.66	1702.48
609.01	1694.84
609.36	1687.31
609.70	1679.18
610.05	1671.17
610.40	1663.49
610.75	1655.10
611.10	1647.31
611.44	1638.87
611.79	1630.87
612.14	1622.13
612.49	1613.03
612.83	1604.69
613.18	1596.59
613.53	1588.60
613.88	1579.99
614.22	1571.69
614.57	1563.10
614.92	1555.07
615.27	1547.54
615.61	1539.13
615.96	1531.24
616.31	1523.70
616.65	1516.29
617.00	1508.82
617.35	1501.16
617.70	1492.74
618.04	1484.18
618.39	1476.08
618.74	1468.51
619.08	1460.18
619.43	1452.63
619.78	1445.78
620.12	1438.60
620.47	1431.11
620.82	1422.97
621.16	1415.60
621.51	1407.98
621.85	1400.45
622.20	1391.94
622.55	1383.49
622.89	1375.75
623.24	1368.07
623.59	1360.59
623.93	1353.10
624.28	1345.84
624.62	1338.32
624.97	1331.29
625.32	1324.63
625.66	1317.64
626.01	1310.47
626.35	1302.93
626.70	1295.20
627.04	1287.50
627.39	1279.81
627.73	1272.37
628.08	1265.29
628.43	1257.99
628.77	1250.66
629.12	1243.06
629.46	1235.84
629.81	1228.43
630.15	1221.32
630.50	1213.87
630.84	1205.63
631.19	1197.70
631.53	1190.21
631.88	1182.65
632.22	1175.00
632.57	1167.63
632.91	1159.96
633.26	1152.44
633.60	1145.19
633.95	1138.07
634.29	1130.98
634.64	1124.23
634.98	1116.81
635.32	1109.68
635.67	1103.08
636.01	1096.46
636.36	1089.60
636.70	1083.15
637.05	1076.68
637.39	1070.10
637.73	1063.57
638.08	1057.74
638.42	1051.76
638.77	1045.35
639.11	1038.65
639.45	1032.23
639.80	1025.57
640.14	1019.27
640.49	1012.86
640.83	1006.46
641.17	1000.22
641.52	993.95
641.86	987.53
642.20	981.70
642.55	975.44
642.89	968.92
643.23	962.31
643.58	956.57
643.92	950.33
644.26	944.17
644.61	938.14
644.95	932.03
645.29	925.42
645.64	918.64
645.98	912.25
646.32	906.46
646.66	900.36
647.01	894.55
647.35	888.80
647.69	882.91
648.04	877.42
648.38	871.58
648.72	865.56
649.06	859.42
649.41	853.50
649.75	847.47
650.09	841.55
650.43	835.77
650.78	829.65
651.12	823.71
651.46	818.02
651.80	812.30
652.14	806.97
652.49	801.55
652.83	796.39
653.17	790.67
653.51	784.93
653.85	779.60
654.20	773.94
654.54	767.89
654.88	762.18
655.22	756.26
655.56	750.69
655.90	745.25
656.25	739.99
656.59	734.63
656.93	729.59
657.27	724.46
657.61	719.01
657.95	713.90
658.29	708.83
658.64	703.55
658.98	698.25
659.32	692.79
659.66	687.71
660.00	682.35
660.34	677.48
660.68	672.59
661.02	667.56
661.36	662.87
661.70	658.42
662.05	654.09
662.39	649.83
662.73	645.34
663.07	640.95
663.41	636.64
663.75	632.14
664.09	627.56
664.43	623.12
664.77	619.09
665.11	614.83
665.45	610.68
665.79	606.59
666.13	602.46
666.47	598.35
666.81	594.18
667.15	590.09
667.49	586.20
667.83	582.45
668.17	578.47
668.51	574.42
668.85	570.39
669.19	566.57
669.53	562.63
669.87	558.76
670.21	555.03
670.55	551.27
670.89	547.92
671.23	544.51
671.57	541.03
671.91	537.48
672.25	534.00
672.58	530.45
672.92	527.09
673.26	523.96
673.60	520.80
673.94	517.70
674.28	514.85
674.62	511.84
674.96	508.69
675.30	505.83
675.64	502.89
675.97	500.17
676.31	497.26
676.65	494.39
676.99	491.69
677.33	488.87
677.67	486.11
678.01	483.07
678.34	480.10
678.68	477.24
679.02	474.41
679.36	471.64
679.70	468.98
680.04	466.20
680.37	463.29
680.71	460.55
681.05	457.89
681.39	455.12
681.73	452.48
682.06	450.01
682.40	447.42
682.74	444.92
683.08	442.35
683.42	439.77
683.75	437.27
684.09	434.72
684.43	432.23
684.77	429.77
685.10	427.41
685.44	425.08
685.78	422.76
686.12	420.48
686.45	418.18
686.79	415.82
687.13	413.62
687.46	411.47
687.80	409.30
688.14	407.11
688.48	405.06
688.81	402.81
689.15	400.61
689.49	398.52
689.82	396.39
690.16	394.33
690.50	392.35
690.83	390.45
691.17	388.48
691.51	386.55
691.84	384.68
692.18	382.74
692.52	380.76
692.85	378.84
693.19	376.96
693.52	375.15
693.86	373.41
694.20	371.63
694.53	369.84
694.87	368.03
695.21	366.26
695.54	364.46
695.88	362.79
696.21	361.10
696.55	359.38
696.88	357.72
697.22	356.07
697.56	354.46
697.89	352.77
698.23	351.13
698.56	349.53
698.90	347.96
699.23	346.33
699.57	344.78
699.90	343.25
700.24	341.74
700.58	340.19
700.91	338.67
701.25	337.24
701.58	335.86
701.92	334.44
702.25	333.00
702.59	331.59
702.92	330.21
703.26	328.88
703.59	327.57
703.93	326.37
704.26	325.09
704.60	323.76
704.93	322.49
705.26	321.23
705.60	320.04
705.93	318.87
706.27	317.86
706.60	316.81
706.94	315.73
707.27	314.56
707.61	313.50
707.94	312.46
708.27	311.32
708.61	310.24
708.94	309.25
709.28	308.32
709.61	307.37
709.94	306.41
710.28	305.39
710.61	304.42
710.95	303.36
711.28	302.41
711.61	301.48
711.95	300.58
712.28	299.65
712.61	298.70
712.95	297.78
713.28	296.86
713.61	295.93
713.95	295.04
714.28	294.20
714.61	293.35
714.95	292.50
715.28	291.70
715.61	290.84
715.95	290.01
716.28	289.13
716.61	288.30
716.95	287.47
717.28	286.75
717.61	285.98
717.94	285.27
718.28	284.48
718.61	283.78
718.94	283.09
719.27	282.47
719.61	281.81
719.94	281.11
720.27	280.38
720.60	279.72
720.94	279.10
721.27	278.50
721.60	277.91
721.93	277.32
722.27	276.76
722.60	276.19
722.93	275.62
723.26	275.08
723.59	274.53
723.93	274.04
724.26	273.49
724.59	272.96
724.92	272.42
725.25	271.92
725.59	271.43
725.92	270.89
726.25	270.33
726.58	269.86
726.91	269.38
727.24	268.95
727.57	268.52
727.91	268.02
728.24	267.58
728.57	267.10
728.90	266.66
729.23	266.18
729.56	265.75
729.89	265.27
730.22	264.79
730.55	264.35
730.89	263.89
731.22	263.44
731.55	263.01
731.88	262.59
732.21	262.14
732.54	261.71
732.87	261.32
733.20	260.94
733.53	260.55
733.86	260.21
734.19	259.83
734.52	259.42
734.85	259.13
735.18	258.72
735.51	258.36
735.84	257.97
736.17	257.62
736.50	257.25
736.83	257.04
737.16	256.74
737.49	256.37
737.82	256.03
738.15	255.71
738.48	255.37
738.81	255.08
739.14	254.79
739.47	254.46
739.80	254.13
740.13	253.83
740.46	253.53
740.79	253.20
741.12	252.88
741.45	252.57
741.78	252.18
742.11	251.89
742.44	251.58
742.77	251.28
743.10	250.97
743.43	250.68
743.75	250.31
744.08	250.14
744.41	249.89
744.74	249.57
745.07	249.27
745.40	249.01
745.73	248.73
746.06	248.44
746.39	248.22
746.71	247.95
747.04	247.66
747.37	247.38
747.70	247.10
748.03	246.85
748.36	246.61
748.68	246.39
749.01	246.15
749.34	245.93
749.67	245.70
750.00	245.45
750.33	245.30
750.65	245.05
750.98	244.70
751.31	244.46
751.64	244.24
751.97	244.09
752.29	243.88
752.62	243.64
752.95	243.44
753.28	243.21
753.60	242.98
753.93	242.81
754.26	242.58
754.59	242.36
754.91	242.14
755.24	241.97
755.57	241.78
755.90	241.59
756.22	241.39
756.55	241.19
756.88	241.02
757.20	240.77
757.53	240.60
757.86	240.44
758.19	240.29
758.51	240.16
758.84	239.93
759.17	239.77
759.49	239.64
759.82	239.54
760.15	239.38
760.47	239.26
760.80	239.10
761.13	239.01
761.45	238.86
761.78	238.75
762.11	238.61
762.43	238.46
762.76	238.34
763.08	238.22
763.41	238.09
763.74	237.96
764.06	237.82
764.39	237.68
764.71	237.53
765.04	237.40
765.37	237.26
765.69	237.15
766.02	237.04
766.34	236.90
766.67	236.73
767.00	236.61
767.32	236.55
767.65	236.48
767.97	236.33
768.30	236.26
768.62	236.12
768.95	235.98
769.27	235.85
769.60	235.78
769.92	235.67
770.25	235.55
770.57	235.45
770.90	235.35
771.22	235.25
771.55	235.19
771.87	235.09
772.20	234.99
772.52	234.95
772.85	234.94
773.17	234.82
773.50	234.73
773.82	234.60
774.15	234.45
774.47	234.34
774.80	234.27
775.12	234.16
775.45	234.07
775.77	234.01
776.09	233.96
776.42	233.85
776.74	233.77
777.07	233.70
777.39	233.65
777.72	233.58
778.04	233.52
778.36	233.42
778.69	233.37
779.01	233.31
779.33	233.19
779.66	233.05
779.98	233.01
780.31	232.92
780.63	232.92
780.95	232.89
781.28	232.76
781.60	232.69
781.92	232.62
782.25	232.55
782.57	232.50
782.89	232.42
783.22	232.35
783.54	232.27
783.86	232.20
784.19	232.08
784.51	232.03
784.83	231.93
785.16	231.87
785.48	231.83
785.80	231.77
786.12	231.71
786.45	231.62
786.77	231.54
787.09	231.46
