SpectraSuite Data File
++++++++++++++++++++++++++++++++++++
Date: Fri Feb 01 17:51:16 EST 2013
User: group
Dark Spectrum Present: No
Reference Spectrum Present: No
Number of Sampled Component Spectra: 1
Spectrometers: USB2E7196
Integration Time (usec): 35000 (USB2E7196)
Spectra Averaged: 100 (USB2E7196)
Boxcar Smoothing: 10 (USB2E7196)
Correct for Electrical Dark: No (USB2E7196)
Strobe/Lamp Enabled: No (USB2E7196)
Correct for Detector Non-linearity: No (USB2E7196)
Correct for Stray Light: No (USB2E7196)
Number of Pixels in Processed Spectrum: 2048
>>>>>Begin Processed Spectral Data<<<<<
339.09	0.00
339.48	212.85
339.86	214.04
340.24	214.59
340.63	216.78
341.01	219.39
341.39	219.78
341.78	221.11
342.16	222.01
342.54	222.40
342.93	210.94
343.31	221.60
343.69	222.14
344.07	222.58
344.46	223.05
344.84	223.42
345.22	223.66
345.60	223.89
345.99	224.06
346.37	224.20
346.75	224.31
347.13	224.37
347.52	224.47
347.90	224.55
348.28	224.56
348.66	224.64
349.05	224.67
349.43	224.67
349.81	224.71
350.19	224.77
350.57	224.82
350.96	224.90
351.34	225.00
351.72	225.10
352.10	225.20
352.48	225.30
352.87	225.36
353.25	225.45
353.63	225.53
354.01	225.61
354.39	225.68
354.77	225.78
355.15	225.89
355.54	225.92
355.92	225.97
356.30	226.06
356.68	226.19
357.06	226.26
357.44	226.30
357.82	226.37
358.20	226.46
358.58	226.50
358.97	226.59
359.35	226.66
359.73	226.72
360.11	226.78
360.49	226.82
360.87	226.88
361.25	226.94
361.63	227.02
362.01	227.04
362.39	227.08
362.77	227.12
363.15	227.14
363.53	227.21
363.91	227.24
364.29	227.26
364.67	227.20
365.05	227.21
365.43	227.27
365.81	227.30
366.19	227.31
366.57	227.36
366.95	227.34
367.33	227.31
367.71	227.31
368.09	227.34
368.47	227.31
368.85	227.28
369.23	227.29
369.61	227.23
369.99	227.25
370.37	227.25
370.75	227.28
371.13	227.22
371.51	227.16
371.89	227.12
372.27	227.08
372.65	227.04
373.03	227.01
373.41	226.94
373.78	226.90
374.16	226.81
374.54	226.71
374.92	226.66
375.30	226.62
375.68	226.55
376.06	226.49
376.44	226.46
376.82	226.41
377.19	226.34
377.57	226.29
377.95	226.21
378.33	226.14
378.71	225.98
379.09	225.96
379.47	225.90
379.84	225.84
380.22	225.80
380.60	225.73
380.98	225.67
381.36	225.64
381.73	225.57
382.11	225.56
382.49	225.54
382.87	225.47
383.25	225.40
383.62	225.45
384.00	225.38
384.38	225.30
384.76	225.26
385.13	225.26
385.51	225.21
385.89	225.12
386.27	225.08
386.64	225.08
387.02	225.03
387.40	225.00
387.78	224.97
388.15	224.92
388.53	224.89
388.91	224.84
389.29	224.81
389.66	224.81
390.04	224.72
390.42	224.70
390.79	224.67
391.17	224.65
391.55	224.54
391.92	224.55
392.30	224.54
392.68	224.54
393.05	224.52
393.43	224.52
393.81	224.52
394.18	224.53
394.56	224.52
394.94	224.53
395.31	224.53
395.69	224.60
396.06	224.63
396.44	224.67
396.82	224.70
397.19	224.72
397.57	224.75
397.95	224.84
398.32	224.86
398.70	224.90
399.07	224.99
399.45	225.03
399.82	225.08
400.20	225.14
400.58	225.21
400.95	225.21
401.33	225.31
401.70	225.48
402.08	225.53
402.45	225.59
402.83	225.70
403.20	225.82
403.58	225.91
403.95	226.03
404.33	226.16
404.71	226.31
405.08	226.53
405.46	226.69
405.83	226.84
406.21	227.01
406.58	227.21
406.96	227.41
407.33	227.64
407.70	227.84
408.08	228.11
408.45	228.35
408.83	228.66
409.20	228.95
409.58	229.17
409.95	229.54
410.33	229.88
410.70	230.19
411.08	230.56
411.45	230.97
411.82	231.34
412.20	231.79
412.57	232.30
412.95	232.69
413.32	233.21
413.69	233.73
414.07	234.28
414.44	234.88
414.82	235.47
415.19	236.16
415.56	236.89
415.94	237.64
416.31	238.43
416.68	239.26
417.06	240.17
417.43	241.06
417.81	242.04
418.18	243.10
418.55	244.20
418.93	245.35
419.30	246.47
419.67	247.69
420.04	248.93
420.42	250.25
420.79	251.79
421.16	253.25
421.54	254.79
421.91	256.41
422.28	258.00
422.66	259.71
423.03	261.38
423.40	263.11
423.77	264.93
424.15	266.81
424.52	268.73
424.89	270.81
425.26	272.83
425.64	274.74
426.01	276.79
426.38	278.97
426.75	281.14
427.13	283.44
427.50	285.84
427.87	288.33
428.24	290.78
428.61	293.09
428.99	295.66
429.36	298.47
429.73	301.19
430.10	303.94
430.47	306.68
430.85	309.48
431.22	312.47
431.59	315.61
431.96	318.60
432.33	321.88
432.70	325.00
433.08	328.71
433.45	332.17
433.82	335.64
434.19	339.44
434.56	343.14
434.93	346.62
435.30	350.09
435.68	353.88
436.05	357.58
436.42	361.29
436.79	364.63
437.16	368.19
437.53	371.91
437.90	375.58
438.27	379.19
438.64	382.95
439.01	386.34
439.38	389.36
439.75	392.24
440.13	395.56
440.50	398.63
440.87	401.08
441.24	403.59
441.61	406.44
441.98	408.41
442.35	410.76
442.72	413.21
443.09	415.64
443.46	416.98
443.83	417.78
444.20	418.44
444.57	419.57
444.94	419.99
445.31	420.48
445.68	420.96
446.05	421.11
446.42	420.64
446.79	420.11
447.16	419.48
447.53	419.09
447.90	417.56
448.27	416.08
448.64	414.00
449.01	412.57
449.37	409.94
449.74	407.52
450.11	404.66
450.48	401.47
450.85	398.11
451.22	395.31
451.59	392.65
451.96	390.11
452.33	386.65
452.70	383.53
453.07	379.79
453.43	375.98
453.80	372.33
454.17	368.83
454.54	365.45
454.91	361.84
455.28	358.28
455.65	355.02
456.02	351.80
456.38	348.99
456.75	345.47
457.12	342.55
457.49	339.52
457.86	336.59
458.23	334.07
458.59	331.36
458.96	328.56
459.33	326.08
459.70	323.62
460.07	321.62
460.43	319.31
460.80	317.16
461.17	315.25
461.54	313.23
461.91	311.30
462.27	309.40
462.64	307.78
463.01	305.98
463.38	304.24
463.74	302.44
464.11	300.87
464.48	299.47
464.85	297.99
465.21	296.86
465.58	295.63
465.95	294.16
466.32	292.91
466.68	291.70
467.05	290.50
467.42	289.30
467.78	288.05
468.15	286.90
468.52	285.98
468.88	284.81
469.25	283.79
469.62	282.96
469.98	282.03
470.35	281.16
470.72	280.34
471.08	279.46
471.45	278.71
471.82	277.97
472.18	277.16
472.55	276.56
472.92	275.84
473.28	275.25
473.65	274.68
474.02	274.07
474.38	273.56
474.75	273.10
475.11	272.61
475.48	272.22
475.85	271.85
476.21	271.53
476.58	271.26
476.94	271.00
477.31	270.67
477.67	270.44
478.04	270.21
478.41	270.11
478.77	270.06
479.14	269.89
479.50	269.82
479.87	269.87
480.23	269.87
480.60	269.88
480.96	269.90
481.33	270.05
481.69	270.20
482.06	270.34
482.42	270.51
482.79	270.72
483.15	271.02
483.52	271.41
483.88	271.69
484.25	272.02
484.61	272.46
484.98	272.92
485.34	273.50
485.71	274.13
486.07	274.69
486.44	275.25
486.80	275.96
487.17	276.71
487.53	277.51
487.90	278.35
488.26	279.31
488.62	280.30
488.99	281.27
489.35	282.39
489.72	283.59
490.08	284.84
490.44	286.15
490.81	287.49
491.17	288.86
491.54	290.44
491.90	292.09
492.26	293.80
492.63	295.62
492.99	297.45
493.36	299.41
493.72	301.58
494.08	303.81
494.45	306.19
494.81	308.69
495.17	311.26
495.54	313.99
495.90	316.80
496.26	319.76
496.63	322.90
496.99	326.19
497.35	329.65
497.72	333.22
498.08	336.92
498.44	340.80
498.80	344.94
499.17	349.18
499.53	353.53
499.89	358.13
500.26	362.91
500.62	367.84
500.98	373.06
501.34	378.44
501.71	384.06
502.07	389.77
502.43	395.73
502.79	401.87
503.16	408.28
503.52	414.93
503.88	421.70
504.24	428.73
504.60	436.00
504.97	443.49
505.33	451.20
505.69	459.33
506.05	467.60
506.41	475.93
506.78	484.54
507.14	493.54
507.50	502.78
507.86	512.34
508.22	522.02
508.59	531.79
508.95	541.89
509.31	552.23
509.67	562.97
510.03	573.80
510.39	584.95
510.75	596.39
511.12	607.96
511.48	619.95
511.84	632.08
512.20	644.24
512.56	656.90
512.92	669.84
513.28	683.01
513.64	696.24
514.00	709.82
514.37	723.62
514.73	737.50
515.09	751.41
515.45	765.53
515.81	780.13
516.17	795.03
516.53	810.18
516.89	825.46
517.25	840.65
517.61	856.04
517.97	871.66
518.33	887.19
518.69	903.11
519.05	919.16
519.41	935.44
519.77	952.19
520.13	968.84
520.49	985.46
520.85	1002.00
521.21	1018.93
521.57	1036.43
521.93	1053.50
522.29	1071.11
522.65	1088.70
523.01	1106.10
523.37	1123.48
523.73	1141.06
524.09	1158.50
524.45	1176.20
524.81	1194.22
525.17	1212.58
525.53	1230.88
525.89	1249.25
526.25	1267.54
526.61	1285.42
526.97	1303.81
527.33	1321.82
527.68	1340.01
528.04	1357.97
528.40	1376.17
528.76	1394.99
529.12	1413.17
529.48	1431.73
529.84	1449.53
530.20	1467.91
530.56	1486.79
530.91	1506.04
531.27	1524.68
531.63	1542.93
531.99	1561.22
532.35	1579.11
532.71	1596.88
533.07	1615.02
533.42	1632.79
533.78	1650.82
534.14	1669.04
534.50	1686.26
534.86	1704.21
535.21	1721.33
535.57	1739.37
535.93	1756.81
536.29	1773.56
536.65	1790.63
537.00	1807.29
537.36	1824.50
537.72	1840.92
538.08	1857.43
538.44	1873.09
538.79	1888.84
539.15	1904.30
539.51	1920.01
539.87	1936.36
540.22	1951.96
540.58	1967.67
540.94	1983.00
541.29	1997.79
541.65	2012.47
542.01	2027.70
542.37	2041.85
542.72	2056.16
543.08	2069.91
543.44	2084.39
543.79	2097.56
544.15	2110.50
544.51	2124.21
544.87	2137.24
545.22	2150.17
545.58	2162.38
545.94	2174.10
546.29	2185.94
546.65	2197.99
547.01	2209.30
547.36	2219.87
547.72	2230.31
548.07	2240.13
548.43	2250.08
548.79	2259.91
549.14	2269.45
549.50	2278.42
549.86	2287.85
550.21	2297.16
550.57	2306.14
550.92	2314.53
551.28	2323.46
551.64	2332.31
551.99	2340.45
552.35	2348.36
552.70	2356.20
553.06	2363.95
553.41	2372.15
553.77	2379.84
554.13	2387.65
554.48	2395.39
554.84	2402.66
555.19	2409.39
555.55	2416.22
555.90	2422.25
556.26	2428.87
556.61	2434.96
556.97	2441.07
557.32	2446.77
557.68	2452.19
558.03	2457.93
558.39	2462.96
558.74	2469.01
559.10	2474.44
559.45	2479.47
559.81	2485.13
560.16	2490.29
560.52	2494.89
560.87	2499.55
561.23	2503.38
561.58	2507.41
561.94	2511.24
562.29	2514.65
562.64	2518.88
563.00	2522.54
563.35	2527.45
563.71	2531.70
564.06	2536.09
564.42	2540.15
564.77	2544.03
565.12	2547.69
565.48	2550.63
565.83	2553.77
566.19	2556.27
566.54	2557.97
566.89	2560.33
567.25	2561.87
567.60	2564.08
567.96	2566.72
568.31	2568.36
568.66	2570.60
569.02	2572.08
569.37	2573.08
569.72	2574.83
570.08	2575.71
570.43	2576.55
570.78	2576.72
571.14	2575.91
571.49	2575.09
571.84	2575.28
572.20	2574.65
572.55	2574.04
572.90	2572.71
573.26	2571.86
573.61	2570.33
573.96	2569.26
574.31	2566.43
574.67	2563.66
575.02	2560.17
575.37	2556.77
575.72	2553.21
576.08	2549.78
576.43	2546.51
576.78	2543.13
577.13	2540.05
577.49	2536.84
577.84	2533.45
578.19	2529.47
578.54	2525.89
578.90	2521.79
579.25	2515.98
579.60	2510.78
579.95	2505.60
580.30	2500.64
580.66	2495.13
581.01	2489.91
581.36	2484.56
581.71	2480.27
582.06	2475.79
582.42	2471.25
582.77	2465.86
583.12	2460.93
583.47	2456.12
583.82	2450.98
584.17	2445.29
584.53	2439.36
584.88	2433.50
585.23	2427.35
585.58	2421.50
585.93	2415.48
586.28	2410.21
586.63	2404.80
586.98	2399.32
587.34	2394.21
587.69	2388.91
588.04	2383.26
588.39	2377.16
588.74	2370.01
589.09	2363.16
589.44	2355.72
589.79	2348.79
590.14	2342.52
590.49	2335.30
590.84	2328.21
591.19	2321.57
591.54	2314.49
591.89	2306.49
592.25	2298.84
592.60	2290.91
592.95	2282.60
593.30	2274.42
593.65	2266.04
594.00	2258.21
594.35	2250.05
594.70	2240.95
595.05	2232.92
595.40	2224.62
595.75	2216.06
596.10	2209.21
596.45	2201.77
596.80	2194.78
597.15	2187.61
597.50	2179.85
597.85	2172.43
598.19	2164.96
598.54	2156.99
598.89	2149.37
599.24	2142.62
599.59	2135.24
599.94	2127.85
600.29	2120.59
600.64	2113.10
600.99	2104.67
601.34	2096.94
601.69	2088.94
602.04	2081.34
602.39	2072.80
602.74	2064.99
603.08	2057.36
603.43	2049.53
603.78	2041.08
604.13	2032.82
604.48	2024.53
604.83	2016.58
605.18	2008.94
605.53	1999.87
605.87	1990.54
606.22	1982.29
606.57	1973.12
606.92	1964.51
607.27	1956.48
607.62	1948.53
607.96	1940.23
608.31	1932.66
608.66	1923.78
609.01	1915.18
609.36	1906.23
609.70	1897.12
610.05	1887.90
610.40	1879.08
610.75	1869.55
611.10	1860.74
611.44	1850.92
611.79	1841.53
612.14	1831.50
612.49	1820.73
612.83	1810.94
613.18	1801.44
613.53	1791.98
613.88	1782.04
614.22	1772.43
614.57	1762.32
614.92	1752.97
615.27	1744.24
615.61	1734.52
615.96	1725.24
616.31	1716.37
616.65	1707.91
617.00	1699.21
617.35	1690.26
617.70	1680.65
618.04	1670.87
618.39	1661.23
618.74	1652.43
619.08	1642.83
619.43	1633.98
619.78	1625.97
620.12	1617.66
620.47	1609.13
620.82	1599.64
621.16	1591.01
621.51	1582.21
621.85	1573.39
622.20	1563.52
622.55	1553.61
622.89	1544.53
623.24	1535.59
623.59	1526.85
623.93	1518.11
624.28	1509.73
624.62	1501.05
624.97	1492.55
625.32	1484.62
625.66	1476.50
626.01	1468.21
626.35	1459.60
626.70	1450.57
627.04	1441.61
627.39	1432.54
627.73	1423.80
628.08	1415.80
628.43	1407.39
628.77	1398.86
629.12	1390.10
629.46	1381.86
629.81	1373.30
630.15	1364.88
630.50	1356.31
630.84	1346.95
631.19	1337.65
631.53	1328.79
631.88	1320.00
632.22	1311.36
632.57	1302.86
632.91	1294.17
633.26	1285.60
633.60	1277.09
633.95	1268.77
634.29	1260.56
634.64	1252.87
634.98	1244.46
635.32	1236.18
635.67	1228.51
636.01	1220.80
636.36	1213.10
636.70	1205.44
637.05	1197.88
637.39	1190.45
637.73	1182.95
638.08	1176.10
638.42	1169.29
638.77	1161.94
639.11	1154.43
639.45	1147.05
639.80	1139.46
640.14	1132.13
640.49	1124.64
640.83	1117.41
641.17	1110.31
641.52	1103.01
641.86	1095.46
642.20	1088.79
642.55	1081.45
642.89	1074.06
643.23	1066.47
643.58	1059.80
643.92	1052.76
644.26	1045.93
644.61	1038.94
644.95	1032.13
645.29	1024.61
645.64	1016.94
645.98	1009.59
646.32	1002.67
646.66	995.72
647.01	989.01
647.35	982.35
647.69	975.54
648.04	969.13
648.38	962.45
648.72	955.63
649.06	948.78
649.41	941.98
649.75	935.36
650.09	928.63
650.43	922.12
650.78	915.02
651.12	908.17
651.46	901.51
651.80	895.02
652.14	888.75
652.49	882.63
652.83	876.66
653.17	870.36
653.51	863.97
653.85	857.74
654.20	851.30
654.54	844.49
654.88	837.97
655.22	831.20
655.56	824.75
655.90	818.51
656.25	812.54
656.59	806.39
656.93	800.47
657.27	794.53
657.61	788.27
657.95	782.45
658.29	776.70
658.64	770.61
658.98	764.47
659.32	758.26
659.66	752.31
660.00	746.27
660.34	740.53
660.68	734.86
661.02	729.17
661.36	723.72
661.70	718.58
662.05	713.61
662.39	708.73
662.73	703.58
663.07	698.53
663.41	693.45
663.75	688.34
664.09	683.11
664.43	678.02
664.77	673.38
665.11	668.49
665.45	663.79
665.79	659.24
666.13	654.62
666.47	649.99
666.81	645.33
667.15	640.58
667.49	636.11
667.83	631.74
668.17	627.24
668.51	622.71
668.85	618.11
669.19	613.68
669.53	609.27
669.87	604.91
670.21	600.70
670.55	596.49
670.89	592.55
671.23	588.66
671.57	584.72
671.91	580.67
672.25	576.67
672.58	572.64
672.92	568.75
673.26	565.06
673.60	561.39
673.94	557.79
674.28	554.52
674.62	551.16
674.96	547.67
675.30	544.38
675.64	540.98
675.97	537.80
676.31	534.56
676.65	531.24
676.99	528.18
677.33	524.91
677.67	521.71
678.01	518.28
678.34	514.87
678.68	511.53
679.02	508.31
679.36	505.14
679.70	502.03
680.04	498.88
680.37	495.63
680.71	492.42
681.05	489.42
681.39	486.32
681.73	483.28
682.06	480.40
682.40	477.51
682.74	474.61
683.08	471.72
683.42	468.74
683.75	465.90
684.09	462.91
684.43	460.13
684.77	457.33
685.10	454.63
685.44	452.05
685.78	449.42
686.12	446.84
686.45	444.26
686.79	441.64
687.13	439.07
687.46	436.61
687.80	434.13
688.14	431.59
688.48	429.20
688.81	426.64
689.15	424.12
689.49	421.64
689.82	419.26
690.16	416.87
690.50	414.57
690.83	412.37
691.17	410.07
691.51	407.88
691.84	405.79
692.18	403.62
692.52	401.36
692.85	399.13
693.19	397.00
693.52	394.85
693.86	392.76
694.20	390.69
694.53	388.67
694.87	386.58
695.21	384.47
695.54	382.35
695.88	380.37
696.21	378.43
696.55	376.48
696.88	374.57
697.22	372.69
697.56	370.87
697.89	368.96
698.23	367.16
698.56	365.33
698.90	363.50
699.23	361.64
699.57	359.84
699.90	358.12
700.24	356.32
700.58	354.62
700.91	352.92
701.25	351.29
701.58	349.67
701.92	348.14
702.25	346.63
702.59	345.10
702.92	343.58
703.26	342.08
703.59	340.66
703.93	339.27
704.26	337.85
704.60	336.38
704.93	334.89
705.26	333.46
705.60	332.07
705.93	330.72
706.27	329.49
706.60	328.24
706.94	327.04
707.27	325.79
707.61	324.51
707.94	323.30
708.27	322.06
708.61	320.84
708.94	319.70
709.28	318.53
709.61	317.46
709.94	316.39
710.28	315.21
710.61	314.05
710.95	312.84
711.28	311.77
711.61	310.67
711.95	309.69
712.28	308.61
712.61	307.50
712.95	306.42
713.28	305.41
713.61	304.41
713.95	303.36
714.28	302.38
714.61	301.45
714.95	300.51
715.28	299.56
715.61	298.53
715.95	297.50
716.28	296.53
716.61	295.54
716.95	294.59
717.28	293.75
717.61	292.86
717.94	292.01
718.28	291.12
718.61	290.29
718.94	289.46
719.27	288.76
719.61	288.04
719.94	287.31
720.27	286.49
720.60	285.74
720.94	285.02
721.27	284.34
721.60	283.69
721.93	282.99
722.27	282.30
722.60	281.67
722.93	281.03
723.26	280.43
723.59	279.80
723.93	279.18
724.26	278.51
724.59	277.89
724.92	277.26
725.25	276.66
725.59	276.05
725.92	275.47
726.25	274.82
726.58	274.24
726.91	273.66
727.24	273.12
727.57	272.54
727.91	271.95
728.24	271.38
728.57	270.78
728.90	270.26
729.23	269.74
729.56	269.24
729.89	268.66
730.22	268.11
730.55	267.56
730.89	267.02
731.22	266.53
731.55	266.04
731.88	265.55
732.21	265.06
732.54	264.59
732.87	264.09
733.20	263.64
733.53	263.22
733.86	262.79
734.19	262.32
734.52	261.90
734.85	261.54
735.18	261.07
735.51	260.65
735.84	260.21
736.17	259.80
736.50	259.33
736.83	259.07
737.16	258.70
737.49	258.32
737.82	257.91
738.15	257.52
738.48	257.13
738.81	256.79
739.14	256.42
739.47	256.05
739.80	255.68
740.13	255.34
740.46	254.93
740.79	254.54
741.12	254.20
741.45	253.84
741.78	253.43
742.11	253.10
742.44	252.73
742.77	252.40
743.10	252.03
743.43	251.75
743.75	251.31
744.08	251.10
744.41	250.77
744.74	250.45
745.07	250.13
745.40	249.82
745.73	249.50
746.06	249.17
746.39	248.86
746.71	248.55
747.04	248.24
747.37	247.93
747.70	247.66
748.03	247.37
748.36	247.11
748.68	246.80
749.01	246.53
749.34	246.28
749.67	246.00
750.00	245.74
750.33	245.50
750.65	245.26
750.98	244.86
751.31	244.61
751.64	244.40
751.97	244.19
752.29	243.94
752.62	243.64
752.95	243.43
753.28	243.16
753.60	242.93
753.93	242.69
754.26	242.48
754.59	242.22
754.91	241.96
755.24	241.68
755.57	241.49
755.90	241.24
756.22	241.00
756.55	240.75
756.88	240.54
757.20	240.27
757.53	240.06
757.86	239.91
758.19	239.72
758.51	239.53
758.84	239.32
759.17	239.10
759.49	238.94
759.82	238.79
760.15	238.64
760.47	238.47
760.80	238.27
761.13	238.13
761.45	237.95
761.78	237.77
762.11	237.67
762.43	237.48
762.76	237.35
763.08	237.22
763.41	237.08
763.74	236.93
764.06	236.79
764.39	236.63
764.71	236.46
765.04	236.31
765.37	236.16
765.69	236.01
766.02	235.88
766.34	235.74
766.67	235.58
767.00	235.47
767.32	235.39
767.65	235.35
767.97	235.22
768.30	235.12
768.62	235.04
768.95	234.88
769.27	234.79
769.60	234.68
769.92	234.51
770.25	234.40
770.57	234.25
770.90	234.12
771.22	234.02
771.55	233.91
771.87	233.84
772.20	233.69
772.52	233.69
772.85	233.72
773.17	233.66
773.50	233.53
773.82	233.42
774.15	233.27
774.47	233.08
774.80	232.99
775.12	232.89
775.45	232.81
775.77	232.76
776.09	232.67
776.42	232.56
776.74	232.53
777.07	232.47
777.39	232.44
777.72	232.36
778.04	232.31
778.36	232.21
778.69	232.14
779.01	232.09
779.33	231.89
779.66	231.73
779.98	231.61
780.31	231.55
780.63	231.53
780.95	231.49
781.28	231.45
781.60	231.35
781.92	231.24
782.25	231.18
782.57	231.08
782.89	231.05
783.22	230.97
783.54	230.88
783.86	230.82
784.19	230.72
784.51	230.72
784.83	230.61
785.16	230.57
785.48	230.50
785.80	230.43
786.12	230.41
786.45	230.32
