SpectraSuite Data File
++++++++++++++++++++++++++++++++++++
Date: Fri Feb 01 15:20:12 EST 2013
User: group
Dark Spectrum Present: No
Reference Spectrum Present: No
Number of Sampled Component Spectra: 1
Spectrometers: USB2E7196
Integration Time (usec): 35000 (USB2E7196)
Spectra Averaged: 100 (USB2E7196)
Boxcar Smoothing: 10 (USB2E7196)
Correct for Electrical Dark: No (USB2E7196)
Strobe/Lamp Enabled: No (USB2E7196)
Correct for Detector Non-linearity: No (USB2E7196)
Correct for Stray Light: No (USB2E7196)
Number of Pixels in Processed Spectrum: 2048
>>>>>Begin Processed Spectral Data<<<<<
339.09	0.00
339.48	215.63
339.86	216.76
340.24	217.95
340.63	219.54
341.01	222.44
341.39	221.96
341.78	223.53
342.16	225.06
342.54	224.62
342.93	213.57
343.31	224.35
343.69	224.86
344.07	225.29
344.46	225.71
344.84	226.06
345.22	226.30
345.60	226.54
345.99	226.70
346.37	226.81
346.75	226.92
347.13	226.95
347.52	227.01
347.90	227.04
348.28	227.06
348.66	227.07
349.05	227.02
349.43	227.07
349.81	227.12
350.19	227.14
350.57	227.26
350.96	227.34
351.34	227.41
351.72	227.52
352.10	227.63
352.48	227.67
352.87	227.75
353.25	227.78
353.63	227.85
354.01	227.92
354.39	228.00
354.77	228.08
355.15	228.21
355.54	228.29
355.92	228.32
356.30	228.38
356.68	228.52
357.06	228.59
357.44	228.63
357.82	228.65
358.20	228.73
358.58	228.74
358.97	228.81
359.35	228.90
359.73	228.95
360.11	229.00
360.49	229.06
360.87	229.10
361.25	229.17
361.63	229.25
362.01	229.30
362.39	229.29
362.77	229.29
363.15	229.32
363.53	229.33
363.91	229.36
364.29	229.36
364.67	229.26
365.05	229.31
365.43	229.33
365.81	229.34
366.19	229.40
366.57	229.44
366.95	229.40
367.33	229.35
367.71	229.34
368.09	229.34
368.47	229.34
368.85	229.32
369.23	229.29
369.61	229.23
369.99	229.23
370.37	229.26
370.75	229.31
371.13	229.24
371.51	229.19
371.89	229.18
372.27	229.17
372.65	229.15
373.03	229.11
373.41	229.03
373.78	228.94
374.16	228.81
374.54	228.74
374.92	228.65
375.30	228.60
375.68	228.51
376.06	228.46
376.44	228.40
376.82	228.32
377.19	228.27
377.57	228.18
377.95	228.11
378.33	228.03
378.71	227.90
379.09	227.84
379.47	227.77
379.84	227.69
380.22	227.61
380.60	227.53
380.98	227.44
381.36	227.39
381.73	227.33
382.11	227.29
382.49	227.21
382.87	227.15
383.25	227.07
383.62	227.15
384.00	227.08
384.38	227.00
384.76	226.97
385.13	226.95
385.51	226.92
385.89	226.85
386.27	226.79
386.64	226.75
387.02	226.69
387.40	226.65
387.78	226.64
388.15	226.56
388.53	226.53
388.91	226.51
389.29	226.48
389.66	226.48
390.04	226.45
390.42	226.44
390.79	226.46
391.17	226.44
391.55	226.30
391.92	226.27
392.30	226.30
392.68	226.26
393.05	226.25
393.43	226.27
393.81	226.29
394.18	226.30
394.56	226.34
394.94	226.39
395.31	226.42
395.69	226.47
396.06	226.57
396.44	226.61
396.82	226.65
397.19	226.73
397.57	226.79
397.95	226.86
398.32	226.89
398.70	226.98
399.07	227.09
399.45	227.16
399.82	227.23
400.20	227.28
400.58	227.39
400.95	227.44
401.33	227.58
401.70	227.72
402.08	227.82
402.45	227.90
402.83	228.07
403.20	228.19
403.58	228.26
403.95	228.40
404.33	228.56
404.71	228.71
405.08	228.95
405.46	229.08
405.83	229.25
406.21	229.44
406.58	229.61
406.96	229.81
407.33	229.99
407.70	230.24
408.08	230.50
408.45	230.74
408.83	231.00
409.20	231.18
409.58	231.38
409.95	231.69
410.33	231.98
410.70	232.23
411.08	232.52
411.45	232.86
411.82	233.15
412.20	233.51
412.57	233.92
412.95	234.18
413.32	234.62
413.69	234.99
414.07	235.42
414.44	235.90
414.82	236.35
415.19	236.92
415.56	237.45
415.94	238.01
416.31	238.65
416.68	239.26
417.06	239.97
417.43	240.63
417.81	241.34
418.18	242.12
418.55	242.93
418.93	243.81
419.30	244.69
419.67	245.68
420.04	246.62
420.42	247.58
420.79	248.75
421.16	249.90
421.54	251.11
421.91	252.32
422.28	253.56
422.66	254.87
423.03	256.14
423.40	257.43
423.77	258.82
424.15	260.21
424.52	261.69
424.89	263.29
425.26	264.83
425.64	266.26
426.01	267.84
426.38	269.51
426.75	271.15
427.13	272.90
427.50	274.67
427.87	276.54
428.24	278.42
428.61	280.18
428.99	282.10
429.36	284.20
429.73	286.26
430.10	288.26
430.47	290.31
430.85	292.41
431.22	294.68
431.59	297.10
431.96	299.39
432.33	301.88
432.70	304.29
433.08	307.14
433.45	309.79
433.82	312.42
434.19	315.29
434.56	318.11
434.93	320.73
435.30	323.33
435.68	326.20
436.05	329.01
436.42	331.81
436.79	334.37
437.16	337.14
437.53	340.00
437.90	342.82
438.27	345.61
438.64	348.56
439.01	351.12
439.38	353.32
439.75	355.45
440.13	358.01
440.50	360.34
440.87	362.17
441.24	364.16
441.61	366.30
441.98	367.81
442.35	369.62
442.72	371.45
443.09	373.29
443.46	374.29
443.83	374.94
444.20	375.41
444.57	376.18
444.94	376.40
445.31	376.72
445.68	377.07
446.05	377.10
446.42	376.66
446.79	376.22
447.16	375.84
447.53	375.52
447.90	374.26
448.27	373.12
448.64	371.53
449.01	370.39
449.37	368.40
449.74	366.47
450.11	364.24
450.48	361.80
450.85	359.27
451.22	357.11
451.59	355.05
451.96	353.11
452.33	350.50
452.70	348.14
453.07	345.30
453.43	342.39
453.80	339.65
454.17	336.96
454.54	334.46
454.91	331.69
455.28	329.04
455.65	326.55
456.02	324.09
456.38	321.93
456.75	319.24
457.12	317.00
457.49	314.81
457.86	312.67
458.23	310.82
458.59	308.76
458.96	306.68
459.33	304.81
459.70	302.91
460.07	301.42
460.43	299.69
460.80	298.06
461.17	296.60
461.54	295.07
461.91	293.61
462.27	292.15
462.64	290.90
463.01	289.51
463.38	288.24
463.74	286.82
464.11	285.67
464.48	284.61
464.85	283.48
465.21	282.58
465.58	281.61
465.95	280.47
466.32	279.56
466.68	278.64
467.05	277.72
467.42	276.86
467.78	275.93
468.15	275.06
468.52	274.42
468.88	273.55
469.25	272.83
469.62	272.24
469.98	271.54
470.35	270.88
470.72	270.26
471.08	269.58
471.45	269.05
471.82	268.48
472.18	267.88
472.55	267.42
472.92	266.89
473.28	266.39
473.65	265.95
474.02	265.50
474.38	265.14
474.75	264.82
475.11	264.45
475.48	264.16
475.85	263.94
476.21	263.65
476.58	263.46
476.94	263.26
477.31	263.04
477.67	262.90
478.04	262.79
478.41	262.72
478.77	262.81
479.14	262.75
479.50	262.75
479.87	262.82
480.23	262.91
480.60	262.99
480.96	263.10
481.33	263.33
481.69	263.52
482.06	263.74
482.42	263.94
482.79	264.19
483.15	264.51
483.52	264.88
483.88	265.25
484.25	265.66
484.61	266.05
484.98	266.51
485.34	267.09
485.71	267.70
486.07	268.30
486.44	268.87
486.80	269.58
487.17	270.35
487.53	271.16
487.90	272.05
488.26	272.94
488.62	273.90
488.99	274.84
489.35	275.87
489.72	276.98
490.08	278.16
490.44	279.43
490.81	280.75
491.17	282.07
491.54	283.55
491.90	285.07
492.26	286.77
492.63	288.50
492.99	290.24
493.36	292.15
493.72	294.20
494.08	296.31
494.45	298.60
494.81	300.92
495.17	303.35
495.54	305.91
495.90	308.67
496.26	311.51
496.63	314.51
496.99	317.64
497.35	320.89
497.72	324.28
498.08	327.81
498.44	331.50
498.80	335.44
499.17	339.47
499.53	343.62
499.89	348.00
500.26	352.54
500.62	357.22
500.98	362.16
501.34	367.21
501.71	372.48
502.07	377.87
502.43	383.49
502.79	389.31
503.16	395.38
503.52	401.61
503.88	408.01
504.24	414.57
504.60	421.46
504.97	428.59
505.33	435.92
505.69	443.64
506.05	451.43
506.41	459.29
506.78	467.46
507.14	475.93
507.50	484.64
507.86	493.63
508.22	502.83
508.59	512.04
508.95	521.64
509.31	531.50
509.67	541.62
510.03	551.85
510.39	562.46
510.75	573.22
511.12	584.18
511.48	595.44
511.84	606.88
512.20	618.46
512.56	630.37
512.92	642.59
513.28	654.87
513.64	667.33
514.00	680.05
514.37	692.95
514.73	705.99
515.09	719.02
515.45	732.31
515.81	745.89
516.17	759.92
516.53	774.01
516.89	788.17
517.25	802.42
517.61	816.93
517.97	831.43
518.33	845.87
518.69	860.65
519.05	875.74
519.41	890.98
519.77	906.49
520.13	922.00
520.49	937.42
520.85	952.92
521.21	968.69
521.57	985.00
521.93	1000.86
522.29	1017.34
522.65	1033.72
523.01	1050.09
523.37	1066.24
523.73	1082.50
524.09	1098.66
524.45	1115.04
524.81	1131.57
525.17	1148.42
525.53	1165.28
525.89	1182.20
526.25	1198.95
526.61	1215.35
526.97	1232.20
527.33	1248.72
527.68	1265.45
528.04	1281.93
528.40	1298.67
528.76	1315.86
529.12	1332.45
529.48	1349.41
529.84	1365.65
530.20	1382.29
530.56	1399.34
530.91	1416.75
531.27	1433.53
531.63	1450.07
531.99	1466.72
532.35	1482.90
532.71	1498.92
533.07	1515.25
533.42	1531.22
533.78	1547.30
534.14	1563.62
534.50	1579.00
534.86	1594.95
535.21	1610.22
535.57	1626.20
535.93	1641.65
536.29	1656.44
536.65	1671.55
537.00	1686.44
537.36	1701.75
537.72	1716.37
538.08	1730.78
538.44	1744.69
538.79	1758.68
539.15	1772.56
539.51	1786.40
539.87	1800.76
540.22	1814.37
540.58	1828.25
540.94	1841.69
541.29	1854.89
541.65	1867.70
542.01	1881.11
542.37	1893.49
542.72	1905.94
543.08	1917.90
543.44	1930.37
543.79	1941.73
544.15	1952.92
544.51	1964.54
544.87	1975.48
545.22	1986.32
545.58	1996.60
545.94	2006.36
546.29	2016.25
546.65	2026.04
547.01	2035.35
547.36	2044.10
547.72	2052.69
548.07	2060.61
548.43	2068.86
548.79	2076.82
549.14	2084.43
549.50	2091.68
549.86	2099.53
550.21	2106.77
550.57	2113.99
550.92	2120.65
551.28	2127.67
551.64	2134.70
551.99	2141.25
552.35	2147.38
552.70	2153.52
553.06	2159.56
553.41	2165.93
553.77	2172.05
554.13	2178.13
554.48	2184.20
554.84	2189.56
555.19	2194.97
555.55	2200.05
555.90	2204.56
556.26	2209.55
556.61	2214.21
556.97	2218.33
557.32	2222.45
557.68	2226.65
558.03	2230.96
558.39	2234.75
558.74	2239.30
559.10	2243.05
559.45	2246.65
559.81	2251.03
560.16	2254.76
560.52	2257.96
560.87	2261.38
561.23	2263.92
561.58	2266.88
561.94	2269.41
562.29	2271.94
562.64	2274.67
563.00	2277.33
563.35	2280.73
563.71	2283.85
564.06	2287.01
564.42	2289.97
564.77	2292.33
565.12	2294.55
565.48	2296.31
565.83	2298.06
566.19	2299.45
566.54	2300.40
566.89	2301.41
567.25	2301.86
567.60	2303.25
567.96	2304.81
568.31	2305.57
568.66	2306.62
569.02	2307.11
569.37	2307.32
569.72	2308.00
570.08	2308.06
570.43	2307.92
570.78	2307.24
571.14	2305.60
571.49	2304.31
571.84	2304.02
572.20	2302.68
572.55	2301.67
572.90	2300.19
573.26	2298.60
573.61	2296.67
573.96	2294.91
574.31	2291.91
574.67	2288.75
575.02	2285.02
575.37	2281.59
575.72	2277.65
576.08	2274.28
576.43	2271.00
576.78	2267.43
577.13	2264.36
577.49	2261.18
577.84	2257.49
578.19	2253.68
578.54	2249.87
578.90	2245.49
579.25	2239.85
579.60	2234.81
579.95	2229.61
580.30	2224.37
580.66	2219.27
581.01	2214.43
581.36	2209.27
581.71	2205.02
582.06	2200.61
582.42	2195.94
582.77	2190.66
583.12	2186.01
583.47	2181.07
583.82	2175.82
584.17	2170.32
584.53	2164.60
584.88	2158.78
585.23	2152.99
585.58	2147.46
585.93	2142.00
586.28	2137.19
586.63	2131.92
586.98	2126.92
587.34	2122.21
587.69	2117.26
588.04	2111.92
588.39	2106.02
588.74	2099.67
589.09	2093.51
589.44	2086.54
589.79	2080.64
590.14	2074.91
590.49	2068.32
590.84	2061.82
591.19	2055.78
591.54	2049.21
591.89	2041.68
592.25	2035.00
592.60	2027.84
592.95	2020.14
593.30	2012.68
593.65	2004.98
594.00	1997.91
594.35	1990.47
594.70	1982.33
595.05	1975.05
595.40	1967.54
595.75	1960.07
596.10	1953.70
596.45	1946.75
596.80	1940.61
597.15	1933.73
597.50	1926.56
597.85	1920.22
598.19	1913.75
598.54	1906.45
598.89	1899.88
599.24	1894.14
599.59	1887.21
599.94	1880.96
600.29	1874.75
600.64	1868.23
600.99	1860.69
601.34	1853.62
601.69	1846.65
602.04	1839.61
602.39	1832.17
602.74	1825.31
603.08	1818.48
603.43	1811.72
603.78	1804.46
604.13	1797.27
604.48	1789.99
604.83	1783.09
605.18	1775.81
605.53	1767.53
605.87	1759.60
606.22	1752.32
606.57	1744.21
606.92	1736.88
607.27	1729.54
607.62	1722.49
607.96	1715.09
608.31	1708.48
608.66	1700.95
609.01	1693.36
609.36	1685.81
609.70	1677.81
610.05	1669.78
610.40	1661.98
610.75	1653.58
611.10	1645.90
611.44	1637.57
611.79	1629.61
612.14	1620.97
612.49	1611.97
612.83	1603.69
613.18	1595.66
613.53	1587.55
613.88	1579.01
614.22	1570.67
614.57	1562.17
614.92	1554.20
615.27	1546.50
615.61	1538.19
615.96	1530.17
616.31	1522.60
616.65	1515.31
617.00	1507.76
617.35	1500.04
617.70	1491.58
618.04	1483.05
618.39	1474.75
618.74	1466.98
619.08	1458.68
619.43	1450.94
619.78	1444.00
620.12	1436.71
620.47	1428.98
620.82	1420.78
621.16	1413.38
621.51	1405.73
621.85	1398.03
622.20	1389.43
622.55	1381.25
622.89	1373.32
623.24	1365.71
623.59	1358.27
623.93	1350.66
624.28	1343.39
624.62	1335.92
624.97	1328.97
625.32	1322.29
625.66	1315.37
626.01	1308.06
626.35	1300.55
626.70	1292.91
627.04	1285.14
627.39	1277.54
627.73	1270.22
628.08	1263.38
628.43	1255.98
628.77	1248.63
629.12	1241.19
629.46	1233.97
629.81	1226.48
630.15	1219.40
630.50	1212.10
630.84	1203.91
631.19	1196.06
631.53	1188.53
631.88	1181.05
632.22	1173.37
632.57	1166.00
632.91	1158.39
633.26	1151.18
633.60	1143.87
633.95	1136.82
634.29	1129.84
634.64	1123.18
634.98	1115.80
635.32	1108.59
635.67	1102.09
636.01	1095.50
636.36	1088.68
636.70	1082.18
637.05	1075.63
637.39	1069.16
637.73	1062.46
638.08	1056.64
638.42	1050.66
638.77	1044.23
639.11	1037.57
639.45	1031.24
639.80	1024.66
640.14	1018.29
640.49	1011.79
640.83	1005.54
641.17	999.20
641.52	992.93
641.86	986.46
642.20	980.60
642.55	974.32
642.89	967.81
643.23	961.32
643.58	955.51
643.92	949.23
644.26	943.16
644.61	937.08
644.95	931.13
645.29	924.53
645.64	917.71
645.98	911.41
646.32	905.65
646.66	899.66
647.01	893.79
647.35	887.95
647.69	882.04
648.04	876.49
648.38	870.76
648.72	864.67
649.06	858.59
649.41	852.74
649.75	846.78
650.09	840.86
650.43	835.08
650.78	828.93
651.12	823.08
651.46	817.29
651.80	811.52
652.14	806.20
652.49	800.88
652.83	795.74
653.17	790.10
653.51	784.26
653.85	778.80
654.20	773.20
654.54	767.26
654.88	761.57
655.22	755.70
655.56	750.09
655.90	744.69
656.25	739.45
656.59	734.08
656.93	728.95
657.27	723.81
657.61	718.29
657.95	713.23
658.29	708.20
658.64	703.07
658.98	697.82
659.32	692.28
659.66	687.03
660.00	681.69
660.34	676.73
660.68	671.90
661.02	666.88
661.36	662.15
661.70	657.74
662.05	653.39
662.39	649.12
662.73	644.63
663.07	640.25
663.41	635.81
663.75	631.36
664.09	626.86
664.43	622.47
664.77	618.41
665.11	614.09
665.45	609.93
665.79	605.83
666.13	601.69
666.47	597.72
666.81	593.59
667.15	589.51
667.49	585.69
667.83	581.89
668.17	577.96
668.51	573.90
668.85	569.84
669.19	566.02
669.53	562.13
669.87	558.22
670.21	554.56
670.55	550.91
670.89	547.53
671.23	544.11
671.57	540.65
671.91	537.12
672.25	533.68
672.58	530.16
672.92	526.80
673.26	523.63
673.60	520.42
673.94	517.31
674.28	514.43
674.62	511.39
674.96	508.27
675.30	505.44
675.64	502.55
675.97	499.82
676.31	496.92
676.65	494.00
676.99	491.34
677.33	488.45
677.67	485.66
678.01	482.58
678.34	479.58
678.68	476.67
679.02	473.88
679.36	471.16
679.70	468.46
680.04	465.68
680.37	462.85
680.71	460.10
681.05	457.47
681.39	454.83
681.73	452.24
682.06	449.73
682.40	447.15
682.74	444.63
683.08	442.06
683.42	439.49
683.75	437.01
684.09	434.44
684.43	431.93
684.77	429.49
685.10	427.20
685.44	424.89
685.78	422.65
686.12	420.42
686.45	418.09
686.79	415.83
687.13	413.70
687.46	411.51
687.80	409.36
688.14	407.22
688.48	405.10
688.81	402.83
689.15	400.68
689.49	398.56
689.82	396.47
690.16	394.44
690.50	392.52
690.83	390.58
691.17	388.62
691.51	386.81
691.84	384.94
692.18	382.99
692.52	381.02
692.85	379.06
693.19	377.14
693.52	375.38
693.86	373.53
694.20	371.74
694.53	369.92
694.87	368.06
695.21	366.24
695.54	364.43
695.88	362.72
696.21	361.02
696.55	359.35
696.88	357.72
697.22	356.05
697.56	354.39
697.89	352.73
698.23	351.12
698.56	349.48
698.90	347.88
699.23	346.27
699.57	344.74
699.90	343.19
700.24	341.68
700.58	340.09
700.91	338.61
701.25	337.14
701.58	335.82
701.92	334.43
702.25	333.06
702.59	331.72
702.92	330.37
703.26	329.06
703.59	327.75
703.93	326.55
704.26	325.30
704.60	323.99
704.93	322.74
705.26	321.52
705.60	320.36
705.93	319.24
706.27	318.21
706.60	317.19
706.94	316.12
707.27	314.98
707.61	313.99
707.94	312.99
708.27	311.90
708.61	310.84
708.94	309.85
709.28	308.92
709.61	307.95
709.94	307.03
710.28	306.03
710.61	305.07
710.95	304.00
711.28	303.12
711.61	302.18
711.95	301.26
712.28	300.30
712.61	299.31
712.95	298.36
713.28	297.47
713.61	296.56
713.95	295.70
714.28	294.91
714.61	294.01
714.95	293.21
715.28	292.35
715.61	291.47
715.95	290.62
716.28	289.76
716.61	288.94
716.95	288.16
717.28	287.44
717.61	286.66
717.94	285.92
718.28	285.12
718.61	284.44
718.94	283.75
719.27	283.08
719.61	282.47
719.94	281.83
720.27	281.11
720.60	280.42
720.94	279.81
721.27	279.18
721.60	278.58
721.93	277.98
722.27	277.46
722.60	276.90
722.93	276.36
723.26	275.81
723.59	275.25
723.93	274.67
724.26	274.08
724.59	273.54
724.92	273.00
725.25	272.48
725.59	271.95
725.92	271.45
726.25	270.96
726.58	270.44
726.91	269.90
727.24	269.43
727.57	268.97
727.91	268.46
728.24	268.01
728.57	267.50
728.90	267.04
729.23	266.55
729.56	266.12
729.89	265.63
730.22	265.14
730.55	264.62
730.89	264.19
731.22	263.75
731.55	263.31
731.88	262.90
732.21	262.46
732.54	262.01
732.87	261.55
733.20	261.11
733.53	260.73
733.86	260.39
734.19	260.00
734.52	259.62
734.85	259.28
735.18	258.87
735.51	258.53
735.84	258.14
736.17	257.77
736.50	257.38
736.83	257.16
737.16	256.82
737.49	256.54
737.82	256.16
738.15	255.82
738.48	255.47
738.81	255.15
739.14	254.86
739.47	254.53
739.80	254.25
740.13	253.94
740.46	253.60
740.79	253.25
741.12	252.96
741.45	252.65
741.78	252.32
742.11	251.99
742.44	251.67
742.77	251.34
743.10	251.04
743.43	250.71
743.75	250.33
744.08	250.16
744.41	249.86
744.74	249.61
745.07	249.34
745.40	249.08
745.73	248.83
746.06	248.52
746.39	248.29
746.71	248.01
747.04	247.76
747.37	247.48
747.70	247.23
748.03	246.97
748.36	246.71
748.68	246.47
749.01	246.23
749.34	245.99
749.67	245.77
750.00	245.51
750.33	245.36
750.65	245.14
750.98	244.78
751.31	244.55
751.64	244.35
751.97	244.20
752.29	243.96
752.62	243.75
752.95	243.56
753.28	243.34
753.60	243.12
753.93	242.95
754.26	242.78
754.59	242.57
754.91	242.34
755.24	242.17
755.57	241.99
755.90	241.84
756.22	241.65
756.55	241.47
756.88	241.27
757.20	241.04
757.53	240.82
757.86	240.70
758.19	240.57
758.51	240.41
758.84	240.19
759.17	240.07
759.49	239.91
759.82	239.79
760.15	239.67
760.47	239.52
760.80	239.37
761.13	239.23
761.45	239.09
761.78	239.00
762.11	238.85
762.43	238.71
762.76	238.56
763.08	238.48
763.41	238.37
763.74	238.27
764.06	238.12
764.39	238.00
764.71	237.86
765.04	237.74
765.37	237.59
765.69	237.45
766.02	237.29
766.34	237.16
766.67	237.03
767.00	236.93
767.32	236.88
767.65	236.82
767.97	236.68
768.30	236.60
768.62	236.47
768.95	236.36
769.27	236.24
769.60	236.14
769.92	235.99
770.25	235.86
770.57	235.76
770.90	235.68
771.22	235.58
771.55	235.48
771.87	235.36
772.20	235.29
772.52	235.28
772.85	235.31
773.17	235.20
773.50	235.12
773.82	235.00
774.15	234.82
774.47	234.67
774.80	234.60
775.12	234.48
775.45	234.39
775.77	234.29
776.09	234.25
776.42	234.18
776.74	234.13
777.07	234.08
777.39	233.99
777.72	233.90
778.04	233.87
778.36	233.79
778.69	233.75
779.01	233.70
779.33	233.59
779.66	233.41
779.98	233.32
780.31	233.25
780.63	233.21
780.95	233.22
781.28	233.15
781.60	233.10
781.92	233.05
782.25	232.98
782.57	232.91
782.89	232.83
783.22	232.75
783.54	232.67
783.86	232.58
784.19	232.55
784.51	232.54
784.83	232.46
785.16	232.39
785.48	232.33
785.80	232.26
786.12	232.20
786.45	232.16
786.77	232.15
787.09	232.10
