SpectraSuite Data File
++++++++++++++++++++++++++++++++++++
Date: Fri Feb 01 15:17:50 EST 2013
User: group
Dark Spectrum Present: No
Reference Spectrum Present: No
Number of Sampled Component Spectra: 1
Spectrometers: USB2E7196
Integration Time (usec): 35000 (USB2E7196)
Spectra Averaged: 100 (USB2E7196)
Boxcar Smoothing: 10 (USB2E7196)
Correct for Electrical Dark: No (USB2E7196)
Strobe/Lamp Enabled: No (USB2E7196)
Correct for Detector Non-linearity: No (USB2E7196)
Correct for Stray Light: No (USB2E7196)
Number of Pixels in Processed Spectrum: 2048
>>>>>Begin Processed Spectral Data<<<<<
339.09	0.00
339.48	214.93
339.86	216.30
340.24	217.87
340.63	219.16
341.01	221.79
341.39	222.27
341.78	222.85
342.16	224.24
342.54	224.62
342.93	213.26
343.31	224.05
343.69	224.61
344.07	225.06
344.46	225.53
344.84	225.91
345.22	226.18
345.60	226.42
345.99	226.64
346.37	226.80
346.75	226.90
347.13	227.00
347.52	227.06
347.90	227.17
348.28	227.19
348.66	227.25
349.05	227.22
349.43	227.24
349.81	227.31
350.19	227.33
350.57	227.42
350.96	227.48
351.34	227.56
351.72	227.63
352.10	227.74
352.48	227.74
352.87	227.81
353.25	227.85
353.63	227.92
354.01	227.99
354.39	228.02
354.77	228.12
355.15	228.19
355.54	228.27
355.92	228.29
356.30	228.37
356.68	228.49
357.06	228.54
357.44	228.59
357.82	228.66
358.20	228.75
358.58	228.77
358.97	228.82
359.35	228.87
359.73	228.94
360.11	229.01
360.49	229.07
360.87	229.11
361.25	229.18
361.63	229.24
362.01	229.25
362.39	229.30
362.77	229.30
363.15	229.33
363.53	229.36
363.91	229.38
364.29	229.37
364.67	229.31
365.05	229.34
365.43	229.35
365.81	229.35
366.19	229.34
366.57	229.38
366.95	229.39
367.33	229.34
367.71	229.29
368.09	229.25
368.47	229.23
368.85	229.20
369.23	229.17
369.61	229.10
369.99	229.10
370.37	229.08
370.75	229.10
371.13	229.06
371.51	229.00
371.89	228.98
372.27	228.91
372.65	228.86
373.03	228.82
373.41	228.77
373.78	228.69
374.16	228.61
374.54	228.53
374.92	228.45
375.30	228.41
375.68	228.36
376.06	228.31
376.44	228.21
376.82	228.16
377.19	228.10
377.57	228.02
377.95	227.88
378.33	227.79
378.71	227.62
379.09	227.53
379.47	227.49
379.84	227.37
380.22	227.34
380.60	227.24
380.98	227.17
381.36	227.09
381.73	227.00
382.11	226.94
382.49	226.84
382.87	226.75
383.25	226.71
383.62	226.76
384.00	226.68
384.38	226.65
384.76	226.64
385.13	226.59
385.51	226.57
385.89	226.55
386.27	226.54
386.64	226.56
387.02	226.54
387.40	226.51
387.78	226.52
388.15	226.46
388.53	226.44
388.91	226.41
389.29	226.40
389.66	226.42
390.04	226.42
390.42	226.44
390.79	226.46
391.17	226.43
391.55	226.29
391.92	226.28
392.30	226.29
392.68	226.25
393.05	226.27
393.43	226.26
393.81	226.28
394.18	226.27
394.56	226.30
394.94	226.33
395.31	226.33
395.69	226.40
396.06	226.49
396.44	226.53
396.82	226.56
397.19	226.62
397.57	226.67
397.95	226.74
398.32	226.76
398.70	226.84
399.07	226.92
399.45	227.02
399.82	227.08
400.20	227.15
400.58	227.19
400.95	227.23
401.33	227.32
401.70	227.49
402.08	227.58
402.45	227.67
402.83	227.80
403.20	227.89
403.58	227.96
403.95	228.07
404.33	228.19
404.71	228.29
405.08	228.51
405.46	228.65
405.83	228.79
406.21	228.96
406.58	229.10
406.96	229.28
407.33	229.46
407.70	229.65
408.08	229.93
408.45	230.20
408.83	230.41
409.20	230.64
409.58	230.82
409.95	231.10
410.33	231.37
410.70	231.62
411.08	231.94
411.45	232.23
411.82	232.52
412.20	232.88
412.57	233.29
412.95	233.58
413.32	233.97
413.69	234.36
414.07	234.78
414.44	235.23
414.82	235.69
415.19	236.24
415.56	236.81
415.94	237.36
416.31	238.00
416.68	238.67
417.06	239.42
417.43	240.10
417.81	240.86
418.18	241.61
418.55	242.45
418.93	243.31
419.30	244.24
419.67	245.17
420.04	246.15
420.42	247.16
420.79	248.35
421.16	249.52
421.54	250.77
421.91	251.99
422.28	253.28
422.66	254.64
423.03	255.93
423.40	257.25
423.77	258.65
424.15	260.07
424.52	261.56
424.89	263.15
425.26	264.66
425.64	266.11
426.01	267.71
426.38	269.37
426.75	271.06
427.13	272.76
427.50	274.55
427.87	276.44
428.24	278.30
428.61	280.03
428.99	281.92
429.36	283.99
429.73	286.04
430.10	288.06
430.47	290.11
430.85	292.27
431.22	294.51
431.59	296.88
431.96	299.14
432.33	301.60
432.70	303.98
433.08	306.81
433.45	309.47
433.82	312.12
434.19	315.04
434.56	317.84
434.93	320.55
435.30	323.23
435.68	326.12
436.05	328.95
436.42	331.78
436.79	334.36
437.16	337.05
437.53	339.91
437.90	342.74
438.27	345.51
438.64	348.34
439.01	350.96
439.38	353.21
439.75	355.42
440.13	357.93
440.50	360.24
440.87	362.13
441.24	364.09
441.61	366.25
441.98	367.71
442.35	369.54
442.72	371.36
443.09	373.17
443.46	374.17
443.83	374.78
444.20	375.28
444.57	376.12
444.94	376.42
445.31	376.77
445.68	377.12
446.05	377.14
446.42	376.77
446.79	376.35
447.16	375.89
447.53	375.52
447.90	374.34
448.27	373.20
448.64	371.57
449.01	370.40
449.37	368.42
449.74	366.57
450.11	364.33
450.48	361.86
450.85	359.33
451.22	357.16
451.59	355.13
451.96	353.17
452.33	350.50
452.70	348.11
453.07	345.26
453.43	342.37
453.80	339.64
454.17	336.92
454.54	334.38
454.91	331.61
455.28	328.91
455.65	326.43
456.02	323.96
456.38	321.81
456.75	319.14
457.12	316.89
457.49	314.64
457.86	312.41
458.23	310.57
458.59	308.49
458.96	306.40
459.33	304.54
459.70	302.69
460.07	301.19
460.43	299.49
460.80	297.89
461.17	296.41
461.54	294.91
461.91	293.50
462.27	292.04
462.64	290.81
463.01	289.50
463.38	288.22
463.74	286.89
464.11	285.73
464.48	284.72
464.85	283.57
465.21	282.68
465.58	281.77
465.95	280.68
466.32	279.76
466.68	278.83
467.05	277.91
467.42	276.98
467.78	276.08
468.15	275.23
468.52	274.54
468.88	273.66
469.25	272.89
469.62	272.23
469.98	271.57
470.35	270.96
470.72	270.34
471.08	269.67
471.45	269.14
471.82	268.57
472.18	267.96
472.55	267.54
472.92	267.02
473.28	266.53
473.65	266.07
474.02	265.63
474.38	265.31
474.75	265.01
475.11	264.69
475.48	264.43
475.85	264.16
476.21	263.94
476.58	263.75
476.94	263.59
477.31	263.41
477.67	263.26
478.04	263.15
478.41	263.04
478.77	263.09
479.14	262.99
479.50	263.08
479.87	263.14
480.23	263.22
480.60	263.26
480.96	263.39
481.33	263.60
481.69	263.80
482.06	264.00
482.42	264.20
482.79	264.44
483.15	264.73
483.52	265.11
483.88	265.46
484.25	265.85
484.61	266.28
484.98	266.72
485.34	267.28
485.71	267.86
486.07	268.49
486.44	269.01
486.80	269.72
487.17	270.36
487.53	271.18
487.90	271.99
488.26	272.96
488.62	273.94
488.99	274.90
489.35	275.96
489.72	277.10
490.08	278.29
490.44	279.55
490.81	280.91
491.17	282.26
491.54	283.68
491.90	285.22
492.26	286.86
492.63	288.60
492.99	290.38
493.36	292.25
493.72	294.28
494.08	296.41
494.45	298.63
494.81	300.99
495.17	303.38
495.54	305.98
495.90	308.61
496.26	311.41
496.63	314.32
496.99	317.38
497.35	320.56
497.72	323.94
498.08	327.44
498.44	331.10
498.80	335.00
499.17	339.07
499.53	343.23
499.89	347.57
500.26	352.07
500.62	356.70
500.98	361.66
501.34	366.76
501.71	372.07
502.07	377.52
502.43	383.15
502.79	388.95
503.16	395.00
503.52	401.28
503.88	407.65
504.24	414.31
504.60	421.24
504.97	428.35
505.33	435.70
505.69	443.36
506.05	451.10
506.41	459.00
506.78	467.11
507.14	475.59
507.50	484.29
507.86	493.34
508.22	502.54
508.59	511.73
508.95	521.32
509.31	531.14
509.67	541.21
510.03	551.45
510.39	561.98
510.75	572.83
511.12	583.77
511.48	595.10
511.84	606.62
512.20	618.09
512.56	630.07
512.92	642.23
513.28	654.60
513.64	667.15
514.00	679.83
514.37	692.76
514.73	705.76
515.09	718.83
515.45	732.09
515.81	745.66
516.17	759.59
516.53	773.67
516.89	787.88
517.25	802.07
517.61	816.54
517.97	831.11
518.33	845.47
518.69	860.34
519.05	875.39
519.41	890.50
519.77	906.12
520.13	921.63
520.49	937.09
520.85	952.54
521.21	968.30
521.57	984.60
521.93	1000.55
522.29	1017.07
522.65	1033.39
523.01	1049.80
523.37	1066.01
523.73	1082.31
524.09	1098.55
524.45	1114.99
524.81	1131.77
525.17	1148.71
525.53	1165.66
525.89	1182.58
526.25	1199.38
526.61	1215.68
526.97	1232.47
527.33	1248.94
527.68	1265.63
528.04	1282.26
528.40	1298.99
528.76	1316.14
529.12	1332.69
529.48	1349.51
529.84	1365.63
530.20	1382.25
530.56	1399.24
530.91	1416.54
531.27	1433.33
531.63	1449.83
531.99	1466.39
532.35	1482.48
532.71	1498.34
533.07	1514.65
533.42	1530.64
533.78	1546.85
534.14	1563.21
534.50	1578.67
534.86	1594.67
535.21	1609.89
535.57	1625.89
535.93	1641.37
536.29	1656.10
536.65	1671.40
537.00	1686.40
537.36	1701.72
537.72	1716.38
538.08	1730.84
538.44	1744.71
538.79	1758.74
539.15	1772.62
539.51	1786.36
539.87	1800.74
540.22	1814.67
540.58	1828.51
540.94	1842.01
541.29	1855.06
541.65	1867.89
542.01	1881.12
542.37	1893.49
542.72	1905.98
543.08	1917.77
543.44	1930.24
543.79	1941.65
544.15	1952.67
544.51	1964.18
544.87	1975.17
545.22	1986.05
545.58	1996.29
545.94	2006.21
546.29	2016.17
546.65	2025.88
547.01	2035.22
547.36	2044.00
547.72	2052.42
548.07	2060.37
548.43	2068.51
548.79	2076.52
549.14	2084.10
549.50	2091.70
549.86	2099.46
550.21	2106.81
550.57	2113.90
550.92	2120.47
551.28	2127.49
551.64	2134.55
551.99	2141.23
552.35	2147.41
552.70	2153.50
553.06	2159.50
553.41	2165.85
553.77	2171.72
554.13	2177.84
554.48	2183.98
554.84	2189.38
555.19	2194.73
555.55	2199.71
555.90	2204.20
556.26	2208.96
556.61	2213.76
556.97	2217.82
557.32	2221.98
557.68	2226.06
558.03	2230.48
558.39	2234.21
558.74	2238.95
559.10	2242.73
559.45	2246.22
559.81	2250.43
560.16	2254.25
560.52	2257.55
560.87	2260.85
561.23	2263.51
561.58	2266.42
561.94	2268.92
562.29	2271.27
562.64	2273.74
563.00	2276.43
563.35	2280.05
563.71	2283.21
564.06	2286.26
564.42	2289.17
564.77	2291.55
565.12	2293.76
565.48	2295.52
565.83	2297.28
566.19	2298.36
566.54	2299.40
566.89	2300.52
567.25	2301.07
567.60	2302.40
567.96	2303.94
568.31	2304.82
568.66	2305.94
569.02	2306.46
569.37	2306.67
569.72	2307.49
570.08	2307.60
570.43	2307.57
570.78	2306.76
571.14	2305.11
571.49	2303.74
571.84	2303.25
572.20	2301.99
572.55	2300.88
572.90	2299.27
573.26	2297.84
573.61	2296.08
573.96	2294.15
574.31	2291.16
574.67	2287.96
575.02	2284.23
575.37	2280.91
575.72	2277.02
576.08	2273.66
576.43	2270.17
576.78	2266.44
577.13	2263.23
577.49	2260.27
577.84	2256.66
578.19	2252.80
578.54	2249.02
578.90	2244.72
579.25	2239.05
579.60	2234.03
579.95	2229.02
580.30	2223.98
580.66	2218.72
581.01	2213.77
581.36	2208.65
581.71	2204.39
582.06	2199.90
582.42	2195.27
582.77	2189.80
583.12	2185.10
583.47	2180.21
583.82	2175.06
584.17	2169.79
584.53	2164.04
584.88	2158.14
585.23	2152.28
585.58	2146.86
585.93	2141.29
586.28	2136.43
586.63	2131.33
586.98	2126.16
587.34	2121.38
587.69	2116.36
588.04	2111.05
588.39	2105.19
588.74	2098.86
589.09	2092.57
589.44	2085.78
589.79	2079.81
590.14	2074.08
590.49	2067.56
590.84	2061.09
591.19	2055.11
591.54	2048.57
591.89	2041.12
592.25	2034.35
592.60	2027.18
592.95	2019.38
593.30	2012.00
593.65	2004.35
594.00	1997.26
594.35	1990.02
594.70	1981.91
595.05	1974.70
595.40	1967.33
595.75	1959.75
596.10	1953.26
596.45	1946.42
596.80	1940.19
597.15	1933.49
597.50	1926.33
597.85	1919.81
598.19	1913.12
598.54	1905.97
598.89	1899.34
599.24	1893.39
599.59	1886.57
599.94	1880.23
600.29	1873.96
600.64	1867.26
600.99	1859.67
601.34	1852.64
601.69	1845.56
602.04	1838.55
602.39	1831.05
602.74	1824.19
603.08	1817.50
603.43	1810.91
603.78	1803.48
604.13	1796.22
604.48	1788.77
604.83	1781.96
605.18	1774.90
605.53	1766.78
605.87	1758.71
606.22	1751.38
606.57	1743.39
606.92	1736.16
607.27	1728.84
607.62	1721.83
607.96	1714.56
608.31	1707.99
608.66	1700.40
609.01	1692.88
609.36	1685.27
609.70	1677.29
610.05	1669.17
610.40	1661.46
610.75	1652.98
611.10	1645.36
611.44	1637.04
611.79	1629.07
612.14	1620.25
612.49	1611.10
612.83	1602.85
613.18	1594.82
613.53	1586.70
613.88	1578.31
614.22	1569.96
614.57	1561.47
614.92	1553.49
615.27	1545.91
615.61	1537.51
615.96	1529.66
616.31	1521.98
616.65	1514.65
617.00	1507.08
617.35	1499.48
617.70	1490.99
618.04	1482.48
618.39	1474.32
618.74	1466.75
619.08	1458.51
619.43	1450.99
619.78	1444.07
620.12	1436.79
620.47	1429.19
620.82	1421.09
621.16	1413.80
621.51	1406.18
621.85	1398.51
622.20	1389.94
622.55	1381.70
622.89	1373.92
623.24	1366.24
623.59	1358.83
623.93	1351.31
624.28	1343.94
624.62	1336.34
624.97	1329.32
625.32	1322.60
625.66	1315.57
626.01	1308.32
626.35	1300.77
626.70	1293.05
627.04	1285.25
627.39	1277.47
627.73	1270.05
628.08	1263.12
628.43	1255.55
628.77	1248.16
629.12	1240.55
629.46	1233.41
629.81	1226.00
630.15	1218.82
630.50	1211.42
630.84	1203.28
631.19	1195.39
631.53	1188.10
631.88	1180.57
632.22	1172.97
632.57	1165.64
632.91	1158.12
633.26	1150.67
633.60	1143.42
633.95	1136.36
634.29	1129.39
634.64	1122.82
634.98	1115.42
635.32	1108.31
635.67	1101.89
636.01	1095.27
636.36	1088.53
636.70	1082.05
637.05	1075.44
637.39	1068.90
637.73	1062.43
638.08	1056.53
638.42	1050.58
638.77	1043.97
639.11	1037.34
639.45	1030.94
639.80	1024.29
640.14	1017.78
640.49	1011.19
640.83	1004.79
641.17	998.53
641.52	992.26
641.86	985.78
642.20	980.04
642.55	973.70
642.89	967.23
643.23	960.68
643.58	954.94
643.92	948.73
644.26	942.65
644.61	936.72
644.95	930.66
645.29	924.04
645.64	917.22
645.98	910.93
646.32	905.13
646.66	899.09
647.01	893.33
647.35	887.82
647.69	882.10
648.04	876.65
648.38	870.94
648.72	864.91
649.06	858.92
649.41	852.95
649.75	846.98
650.09	840.93
650.43	835.14
650.78	828.95
651.12	822.88
651.46	817.21
651.80	811.43
652.14	806.07
652.49	800.75
652.83	795.66
653.17	789.92
653.51	784.18
653.85	778.87
654.20	773.18
654.54	767.08
654.88	761.36
655.22	755.51
655.56	749.76
655.90	744.25
656.25	738.94
656.59	733.65
656.93	728.53
657.27	723.40
657.61	718.00
657.95	712.94
658.29	707.93
658.64	702.65
658.98	697.31
659.32	691.81
659.66	686.66
660.00	681.28
660.34	676.45
660.68	671.59
661.02	666.54
661.36	661.86
661.70	657.42
662.05	653.08
662.39	648.78
662.73	644.37
663.07	640.10
663.41	635.66
663.75	631.11
664.09	626.59
664.43	622.21
664.77	618.11
665.11	613.85
665.45	609.72
665.79	605.69
666.13	601.68
666.47	597.65
666.81	593.54
667.15	589.50
667.49	585.62
667.83	581.85
668.17	577.92
668.51	573.89
668.85	569.83
669.19	565.95
669.53	562.05
669.87	558.16
670.21	554.46
670.55	550.85
670.89	547.50
671.23	544.13
671.57	540.63
671.91	537.08
672.25	533.63
672.58	530.21
672.92	526.81
673.26	523.68
673.60	520.51
673.94	517.38
674.28	514.50
674.62	511.54
674.96	508.44
675.30	505.51
675.64	502.60
675.97	499.87
676.31	497.01
676.65	494.12
676.99	491.39
677.33	488.54
677.67	485.72
678.01	482.68
678.34	479.66
678.68	476.83
679.02	474.11
679.36	471.34
679.70	468.60
680.04	465.85
680.37	462.95
680.71	460.17
681.05	457.48
681.39	454.75
681.73	452.10
682.06	449.52
682.40	446.98
682.74	444.45
683.08	441.92
683.42	439.37
683.75	436.87
684.09	434.35
684.43	431.86
684.77	429.43
685.10	427.13
685.44	424.81
685.78	422.54
686.12	420.27
686.45	418.01
686.79	415.72
687.13	413.52
687.46	411.36
687.80	409.22
688.14	407.04
688.48	404.99
688.81	402.72
689.15	400.63
689.49	398.53
689.82	396.45
690.16	394.39
690.50	392.42
690.83	390.47
691.17	388.51
691.51	386.61
691.84	384.80
692.18	382.81
692.52	380.83
692.85	378.89
693.19	377.00
693.52	375.16
693.86	373.32
694.20	371.56
694.53	369.73
694.87	367.86
695.21	366.10
695.54	364.27
695.88	362.57
696.21	360.80
696.55	359.11
696.88	357.42
697.22	355.80
697.56	354.18
697.89	352.49
698.23	350.84
698.56	349.26
698.90	347.62
699.23	345.93
699.57	344.39
699.90	342.87
700.24	341.30
700.58	339.77
700.91	338.30
701.25	336.85
701.58	335.44
701.92	334.10
702.25	332.76
702.59	331.41
702.92	330.10
703.26	328.86
703.59	327.60
703.93	326.42
704.26	325.13
704.60	323.88
704.93	322.61
705.26	321.43
705.60	320.28
705.93	319.14
706.27	318.16
706.60	317.15
706.94	316.05
707.27	314.94
707.61	313.88
707.94	312.88
708.27	311.79
708.61	310.78
708.94	309.82
709.28	308.81
709.61	307.87
709.94	306.95
710.28	305.90
710.61	304.91
710.95	303.84
711.28	302.94
711.61	301.97
711.95	301.07
712.28	300.13
712.61	299.16
712.95	298.24
713.28	297.36
713.61	296.45
713.95	295.57
714.28	294.74
714.61	293.87
714.95	292.98
715.28	292.16
715.61	291.27
715.95	290.39
716.28	289.54
716.61	288.69
716.95	287.85
717.28	287.13
717.61	286.38
717.94	285.64
718.28	284.84
718.61	284.14
718.94	283.50
719.27	282.82
719.61	282.19
719.94	281.52
720.27	280.82
720.60	280.19
720.94	279.59
721.27	279.02
721.60	278.43
721.93	277.87
722.27	277.33
722.60	276.78
722.93	276.28
723.26	275.78
723.59	275.23
723.93	274.66
724.26	274.12
724.59	273.57
724.92	273.06
725.25	272.59
725.59	272.09
725.92	271.58
726.25	271.08
726.58	270.61
726.91	270.12
727.24	269.69
727.57	269.16
727.91	268.64
728.24	268.15
728.57	267.67
728.90	267.20
729.23	266.64
729.56	266.21
729.89	265.66
730.22	265.14
730.55	264.68
730.89	264.22
731.22	263.75
731.55	263.29
731.88	262.84
732.21	262.37
732.54	261.88
732.87	261.42
733.20	261.00
733.53	260.57
733.86	260.16
734.19	259.73
734.52	259.35
734.85	259.01
735.18	258.60
735.51	258.24
735.84	257.84
736.17	257.53
736.50	257.10
736.83	256.88
737.16	256.53
737.49	256.17
737.82	255.83
738.15	255.47
738.48	255.11
738.81	254.79
739.14	254.45
739.47	254.12
739.80	253.79
740.13	253.50
740.46	253.13
740.79	252.78
741.12	252.47
741.45	252.14
741.78	251.81
742.11	251.51
742.44	251.15
742.77	250.88
743.10	250.55
743.43	250.28
743.75	249.88
744.08	249.72
744.41	249.44
744.74	249.18
745.07	248.93
745.40	248.70
745.73	248.45
746.06	248.15
746.39	247.90
746.71	247.63
747.04	247.30
747.37	247.06
747.70	246.81
748.03	246.59
748.36	246.40
748.68	246.15
749.01	245.92
749.34	245.73
749.67	245.51
750.00	245.29
750.33	245.12
750.65	244.89
750.98	244.58
751.31	244.38
751.64	244.19
751.97	244.00
752.29	243.79
752.62	243.58
752.95	243.41
753.28	243.19
753.60	243.01
753.93	242.88
754.26	242.70
754.59	242.48
754.91	242.23
755.24	242.02
755.57	241.82
755.90	241.63
756.22	241.47
756.55	241.27
756.88	241.11
757.20	240.91
757.53	240.74
757.86	240.58
758.19	240.40
758.51	240.22
758.84	240.02
759.17	239.84
759.49	239.64
759.82	239.55
760.15	239.44
760.47	239.29
760.80	239.10
761.13	238.96
761.45	238.85
761.78	238.73
762.11	238.61
762.43	238.48
762.76	238.35
763.08	238.20
763.41	238.07
763.74	237.91
764.06	237.73
764.39	237.58
764.71	237.43
765.04	237.32
765.37	237.22
765.69	237.09
766.02	237.00
766.34	236.93
766.67	236.79
767.00	236.66
767.32	236.60
767.65	236.58
767.97	236.45
768.30	236.33
768.62	236.23
768.95	236.08
769.27	235.95
769.60	235.83
769.92	235.69
770.25	235.55
770.57	235.45
770.90	235.36
771.22	235.27
771.55	235.18
771.87	235.10
772.20	234.97
772.52	234.97
772.85	234.99
773.17	234.88
773.50	234.75
773.82	234.63
774.15	234.50
774.47	234.35
774.80	234.27
775.12	234.17
775.45	234.08
775.77	234.04
776.09	233.99
776.42	233.92
776.74	233.86
777.07	233.81
777.39	233.71
777.72	233.61
778.04	233.56
778.36	233.48
778.69	233.39
779.01	233.32
779.33	233.16
779.66	232.98
779.98	232.90
780.31	232.85
780.63	232.84
780.95	232.75
781.28	232.68
781.60	232.60
781.92	232.57
782.25	232.46
782.57	232.38
782.89	232.27
783.22	232.19
783.54	232.14
783.86	232.07
784.19	232.03
784.51	232.01
784.83	231.92
785.16	231.86
785.48	231.82
785.80	231.76
786.12	231.74
786.45	231.68
786.77	231.67
787.09	231.60
