SpectraSuite Data File
++++++++++++++++++++++++++++++++++++
Date: Fri Feb 01 16:43:55 EST 2013
User: group
Dark Spectrum Present: No
Reference Spectrum Present: No
Number of Sampled Component Spectra: 1
Spectrometers: USB2E7196
Integration Time (usec): 35000 (USB2E7196)
Spectra Averaged: 100 (USB2E7196)
Boxcar Smoothing: 10 (USB2E7196)
Correct for Electrical Dark: No (USB2E7196)
Strobe/Lamp Enabled: No (USB2E7196)
Correct for Detector Non-linearity: No (USB2E7196)
Correct for Stray Light: No (USB2E7196)
Number of Pixels in Processed Spectrum: 2048
>>>>>Begin Processed Spectral Data<<<<<
339.09	0.00
339.48	213.62
339.86	215.39
340.24	216.54
340.63	217.53
341.01	220.65
341.39	221.20
341.78	222.02
342.16	222.89
342.54	223.39
342.93	211.97
343.31	222.68
343.69	223.21
344.07	223.61
344.46	224.00
344.84	224.40
345.22	224.62
345.60	224.86
345.99	225.02
346.37	225.17
346.75	225.25
347.13	225.33
347.52	225.39
347.90	225.47
348.28	225.49
348.66	225.53
349.05	225.54
349.43	225.57
349.81	225.62
350.19	225.70
350.57	225.74
350.96	225.80
351.34	225.85
351.72	225.91
352.10	226.03
352.48	226.10
352.87	226.18
353.25	226.25
353.63	226.29
354.01	226.37
354.39	226.40
354.77	226.49
355.15	226.57
355.54	226.62
355.92	226.66
356.30	226.73
356.68	226.85
357.06	226.94
357.44	227.01
357.82	227.04
358.20	227.07
358.58	227.10
358.97	227.16
359.35	227.24
359.73	227.32
360.11	227.40
360.49	227.47
360.87	227.46
361.25	227.51
361.63	227.57
362.01	227.58
362.39	227.63
362.77	227.66
363.15	227.68
363.53	227.71
363.91	227.73
364.29	227.78
364.67	227.71
365.05	227.69
365.43	227.71
365.81	227.75
366.19	227.82
366.57	227.86
366.95	227.85
367.33	227.84
367.71	227.84
368.09	227.84
368.47	227.81
368.85	227.79
369.23	227.79
369.61	227.75
369.99	227.77
370.37	227.80
370.75	227.83
371.13	227.83
371.51	227.81
371.89	227.80
372.27	227.74
372.65	227.70
373.03	227.69
373.41	227.64
373.78	227.55
374.16	227.46
374.54	227.40
374.92	227.34
375.30	227.29
375.68	227.21
376.06	227.14
376.44	227.09
376.82	227.05
377.19	226.99
377.57	226.92
377.95	226.82
378.33	226.72
378.71	226.59
379.09	226.51
379.47	226.44
379.84	226.32
380.22	226.23
380.60	226.16
380.98	226.06
381.36	225.98
381.73	225.94
382.11	225.91
382.49	225.88
382.87	225.83
383.25	225.77
383.62	225.83
384.00	225.78
384.38	225.76
384.76	225.72
385.13	225.71
385.51	225.68
385.89	225.61
386.27	225.58
386.64	225.56
387.02	225.47
387.40	225.41
387.78	225.40
388.15	225.37
388.53	225.34
388.91	225.32
389.29	225.34
389.66	225.31
390.04	225.25
390.42	225.21
390.79	225.20
391.17	225.19
391.55	225.05
391.92	225.04
392.30	225.02
392.68	225.01
393.05	224.98
393.43	224.97
393.81	224.97
394.18	224.97
394.56	224.97
394.94	225.05
395.31	225.04
395.69	225.12
396.06	225.17
396.44	225.21
396.82	225.23
397.19	225.30
397.57	225.32
397.95	225.39
398.32	225.45
398.70	225.48
399.07	225.52
399.45	225.58
399.82	225.63
400.20	225.67
400.58	225.72
400.95	225.74
401.33	225.79
401.70	225.96
402.08	226.01
402.45	226.11
402.83	226.19
403.20	226.31
403.58	226.38
403.95	226.46
404.33	226.62
404.71	226.73
405.08	226.85
405.46	226.96
405.83	227.08
406.21	227.20
406.58	227.35
406.96	227.52
407.33	227.66
407.70	227.84
408.08	228.12
408.45	228.35
408.83	228.61
409.20	228.83
409.58	229.00
409.95	229.28
410.33	229.54
410.70	229.78
411.08	230.06
411.45	230.35
411.82	230.72
412.20	231.02
412.57	231.46
412.95	231.80
413.32	232.21
413.69	232.66
414.07	233.09
414.44	233.55
414.82	234.03
415.19	234.61
415.56	235.15
415.94	235.71
416.31	236.34
416.68	236.93
417.06	237.68
417.43	238.38
417.81	239.12
418.18	239.88
418.55	240.73
418.93	241.60
419.30	242.47
419.67	243.39
420.04	244.39
420.42	245.36
420.79	246.53
421.16	247.71
421.54	248.89
421.91	250.12
422.28	251.37
422.66	252.70
423.03	253.99
423.40	255.32
423.77	256.73
424.15	258.17
424.52	259.65
424.89	261.23
425.26	262.78
425.64	264.24
426.01	265.84
426.38	267.46
426.75	269.14
427.13	270.85
427.50	272.60
427.87	274.43
428.24	276.28
428.61	278.02
428.99	279.91
429.36	282.00
429.73	284.01
430.10	286.04
430.47	288.08
430.85	290.20
431.22	292.47
431.59	294.82
431.96	297.00
432.33	299.48
432.70	301.83
433.08	304.58
433.45	307.19
433.82	309.76
434.19	312.59
434.56	315.35
434.93	317.99
435.30	320.61
435.68	323.45
436.05	326.25
436.42	328.95
436.79	331.44
437.16	334.08
437.53	336.85
437.90	339.59
438.27	342.32
438.64	345.05
439.01	347.59
439.38	349.74
439.75	351.88
440.13	354.39
440.50	356.69
440.87	358.51
441.24	360.42
441.61	362.52
441.98	364.04
442.35	365.83
442.72	367.67
443.09	369.48
443.46	370.48
443.83	371.08
444.20	371.62
444.57	372.45
444.94	372.78
445.31	373.16
445.68	373.51
446.05	373.58
446.42	373.25
446.79	372.78
447.16	372.38
447.53	372.09
447.90	370.84
448.27	369.72
448.64	368.18
449.01	367.06
449.37	365.17
449.74	363.32
450.11	361.08
450.48	358.64
450.85	356.13
451.22	353.98
451.59	351.99
451.96	350.08
452.33	347.50
452.70	345.15
453.07	342.36
453.43	339.49
453.80	336.74
454.17	334.10
454.54	331.57
454.91	328.84
455.28	326.20
455.65	323.83
456.02	321.40
456.38	319.30
456.75	316.68
457.12	314.42
457.49	312.21
457.86	310.10
458.23	308.28
458.59	306.24
458.96	304.21
459.33	302.37
459.70	300.54
460.07	299.06
460.43	297.31
460.80	295.72
461.17	294.31
461.54	292.84
461.91	291.45
462.27	290.07
462.64	288.86
463.01	287.51
463.38	286.25
463.74	284.88
464.11	283.72
464.48	282.72
464.85	281.65
465.21	280.81
465.58	279.92
465.95	278.83
466.32	277.93
466.68	277.08
467.05	276.19
467.42	275.27
467.78	274.37
468.15	273.56
468.52	272.89
468.88	272.06
469.25	271.32
469.62	270.69
469.98	270.03
470.35	269.42
470.72	268.86
471.08	268.20
471.45	267.71
471.82	267.16
472.18	266.56
472.55	266.17
472.92	265.63
473.28	265.20
473.65	264.79
474.02	264.41
474.38	264.01
474.75	263.70
475.11	263.40
475.48	263.17
475.85	262.98
476.21	262.75
476.58	262.57
476.94	262.42
477.31	262.28
477.67	262.16
478.04	262.09
478.41	262.05
478.77	262.12
479.14	262.03
479.50	262.05
479.87	262.14
480.23	262.20
480.60	262.27
480.96	262.36
481.33	262.55
481.69	262.72
482.06	262.93
482.42	263.11
482.79	263.37
483.15	263.66
483.52	264.03
483.88	264.39
484.25	264.77
484.61	265.20
484.98	265.63
485.34	266.18
485.71	266.75
486.07	267.33
486.44	267.88
486.80	268.56
487.17	269.31
487.53	270.15
487.90	270.98
488.26	271.95
488.62	272.94
488.99	273.90
489.35	274.93
489.72	276.05
490.08	277.25
490.44	278.49
490.81	279.80
491.17	281.15
491.54	282.63
491.90	284.17
492.26	285.82
492.63	287.56
492.99	289.32
493.36	291.23
493.72	293.26
494.08	295.32
494.45	297.61
494.81	299.92
495.17	302.32
495.54	304.86
495.90	307.53
496.26	310.27
496.63	313.23
496.99	316.36
497.35	319.60
497.72	323.00
498.08	326.53
498.44	330.23
498.80	334.16
499.17	338.24
499.53	342.42
499.89	346.78
500.26	351.27
500.62	355.95
500.98	360.85
501.34	365.91
501.71	371.27
502.07	376.72
502.43	382.37
502.79	388.18
503.16	394.29
503.52	400.55
503.88	406.98
504.24	413.58
504.60	420.43
504.97	427.61
505.33	434.92
505.69	442.57
506.05	450.36
506.41	458.23
506.78	466.39
507.14	474.86
507.50	483.53
507.86	492.58
508.22	501.81
508.59	511.05
508.95	520.64
509.31	530.45
509.67	540.49
510.03	550.70
510.39	561.26
510.75	571.99
511.12	582.90
511.48	594.13
511.84	605.56
512.20	617.00
512.56	628.85
512.92	640.96
513.28	653.32
513.64	665.70
514.00	678.35
514.37	691.19
514.73	704.15
515.09	717.14
515.45	730.34
515.81	743.83
516.17	757.69
516.53	771.74
516.89	785.81
517.25	799.91
517.61	814.26
517.97	828.55
518.33	842.93
518.69	857.55
519.05	872.42
519.41	887.46
519.77	902.88
520.13	918.16
520.49	933.44
520.85	948.71
521.21	964.26
521.57	980.36
521.93	996.04
522.29	1012.22
522.65	1028.37
523.01	1044.40
523.37	1060.28
523.73	1076.38
524.09	1092.28
524.45	1108.38
524.81	1124.94
525.17	1141.53
525.53	1158.25
525.89	1174.92
526.25	1191.66
526.61	1207.94
526.97	1224.59
527.33	1241.00
527.68	1257.54
528.04	1273.84
528.40	1290.16
528.76	1307.09
529.12	1323.48
529.48	1340.17
529.84	1355.97
530.20	1372.33
530.56	1389.17
530.91	1406.39
531.27	1422.98
531.63	1439.25
531.99	1455.76
532.35	1471.46
532.71	1487.19
533.07	1503.32
533.42	1519.11
533.78	1535.05
534.14	1551.10
534.50	1566.25
534.86	1581.93
535.21	1596.94
535.57	1612.66
535.93	1628.11
536.29	1642.74
536.65	1657.70
537.00	1672.28
537.36	1687.62
537.72	1702.02
538.08	1716.27
538.44	1729.81
538.79	1743.59
539.15	1757.05
539.51	1770.47
539.87	1784.75
540.22	1798.24
540.58	1811.78
540.94	1824.79
541.29	1837.28
541.65	1849.74
542.01	1862.81
542.37	1874.98
542.72	1887.11
543.08	1898.78
543.44	1910.96
543.79	1922.11
544.15	1932.86
544.51	1944.14
544.87	1954.84
545.22	1965.60
545.58	1975.77
545.94	1985.65
546.29	1995.33
546.65	2005.14
547.01	2014.44
547.36	2022.95
547.72	2031.42
548.07	2039.25
548.43	2047.44
548.79	2055.30
549.14	2062.94
549.50	2070.01
549.86	2077.49
550.21	2084.82
550.57	2092.03
550.92	2098.57
551.28	2105.47
551.64	2112.56
551.99	2119.09
552.35	2125.19
552.70	2131.25
553.06	2137.22
553.41	2143.37
553.77	2149.20
554.13	2155.25
554.48	2161.30
554.84	2166.95
555.19	2172.10
555.55	2177.32
555.90	2181.80
556.26	2187.00
556.61	2191.60
556.97	2196.22
557.32	2200.37
557.68	2204.53
558.03	2208.59
558.39	2212.20
558.74	2216.82
559.10	2220.69
559.45	2224.35
559.81	2228.65
560.16	2232.49
560.52	2235.70
560.87	2239.06
561.23	2241.86
561.58	2244.71
561.94	2247.23
562.29	2249.41
562.64	2252.32
563.00	2254.79
563.35	2258.32
563.71	2261.25
564.06	2264.49
564.42	2267.39
564.77	2270.07
565.12	2272.45
565.48	2274.63
565.83	2276.67
566.19	2277.96
566.54	2278.75
566.89	2280.00
567.25	2280.74
567.60	2282.10
567.96	2283.93
568.31	2284.88
568.66	2286.16
569.02	2287.02
569.37	2287.53
569.72	2288.61
570.08	2288.86
570.43	2289.05
570.78	2288.56
571.14	2287.28
571.49	2285.96
571.84	2285.59
572.20	2284.67
572.55	2283.67
572.90	2282.00
573.26	2280.75
573.61	2279.10
573.96	2277.60
574.31	2274.82
574.67	2271.83
575.02	2268.24
575.37	2264.81
575.72	2261.14
576.08	2257.66
576.43	2254.12
576.78	2250.66
577.13	2247.34
577.49	2244.02
577.84	2240.65
578.19	2236.95
578.54	2233.48
578.90	2229.60
579.25	2224.10
579.60	2219.26
579.95	2214.41
580.30	2209.45
580.66	2204.35
581.01	2199.48
581.36	2194.50
581.71	2190.42
582.06	2186.43
582.42	2182.12
582.77	2177.01
583.12	2172.55
583.47	2168.14
583.82	2163.35
584.17	2157.95
584.53	2152.61
584.88	2147.22
585.23	2141.66
585.58	2136.18
585.93	2130.67
586.28	2125.78
586.63	2120.83
586.98	2115.76
587.34	2110.95
587.69	2106.22
588.04	2101.05
588.39	2095.54
588.74	2089.25
589.09	2083.17
589.44	2076.24
589.79	2070.13
590.14	2064.50
590.49	2057.93
590.84	2051.43
591.19	2045.42
591.54	2039.18
591.89	2032.11
592.25	2025.50
592.60	2018.27
592.95	2011.03
593.30	2003.71
593.65	1996.06
594.00	1989.00
594.35	1981.77
594.70	1973.79
595.05	1966.93
595.40	1959.74
595.75	1952.34
596.10	1946.25
596.45	1939.62
596.80	1933.57
597.15	1927.24
597.50	1920.44
597.85	1914.25
598.19	1907.75
598.54	1900.97
598.89	1894.35
599.24	1888.39
599.59	1881.95
599.94	1875.73
600.29	1869.36
600.64	1862.87
600.99	1855.75
601.34	1849.15
601.69	1842.07
602.04	1835.40
602.39	1827.91
602.74	1821.21
603.08	1814.64
603.43	1807.95
603.78	1800.74
604.13	1793.56
604.48	1786.27
604.83	1779.43
605.18	1772.51
605.53	1764.65
605.87	1756.73
606.22	1749.47
606.57	1741.51
606.92	1734.04
607.27	1727.10
607.62	1720.25
607.96	1713.12
608.31	1706.68
608.66	1699.22
609.01	1691.95
609.36	1684.49
609.70	1676.54
610.05	1668.52
610.40	1660.99
610.75	1652.74
611.10	1645.07
611.44	1636.68
611.79	1628.61
612.14	1620.00
612.49	1610.86
612.83	1602.51
613.18	1594.29
613.53	1586.29
613.88	1577.88
614.22	1569.67
614.57	1561.00
614.92	1553.02
615.27	1545.59
615.61	1537.30
615.96	1529.24
616.31	1521.59
616.65	1514.27
617.00	1506.73
617.35	1498.98
617.70	1490.62
618.04	1482.28
618.39	1474.05
618.74	1466.43
619.08	1458.17
619.43	1450.50
619.78	1443.52
620.12	1436.50
620.47	1429.13
620.82	1420.98
621.16	1413.48
621.51	1405.84
621.85	1398.30
622.20	1389.86
622.55	1381.31
622.89	1373.40
623.24	1365.72
623.59	1358.27
623.93	1350.72
624.28	1343.54
624.62	1336.03
624.97	1328.81
625.32	1321.85
625.66	1314.85
626.01	1307.69
626.35	1300.46
626.70	1292.70
627.04	1285.11
627.39	1277.25
627.73	1269.70
628.08	1262.76
628.43	1255.61
628.77	1248.42
629.12	1240.77
629.46	1233.53
629.81	1226.15
630.15	1218.83
630.50	1211.42
630.84	1203.30
631.19	1195.38
631.53	1187.89
631.88	1180.31
632.22	1172.69
632.57	1165.49
632.91	1157.96
633.26	1150.62
633.60	1143.12
633.95	1135.98
634.29	1128.80
634.64	1122.00
634.98	1114.72
635.32	1107.57
635.67	1100.76
636.01	1094.07
636.36	1087.41
636.70	1080.89
637.05	1074.32
637.39	1067.91
637.73	1061.51
638.08	1055.60
638.42	1049.66
638.77	1043.19
639.11	1036.78
639.45	1030.48
639.80	1023.80
640.14	1017.53
640.49	1011.05
640.83	1004.83
641.17	998.76
641.52	992.55
641.86	986.18
642.20	980.32
642.55	974.07
642.89	967.82
643.23	961.23
643.58	955.47
643.92	949.30
644.26	943.43
644.61	937.33
644.95	931.23
645.29	924.78
645.64	917.95
645.98	911.65
646.32	905.68
646.66	899.58
647.01	893.83
647.35	888.01
647.69	882.15
648.04	876.64
648.38	870.82
648.72	864.87
649.06	858.79
649.41	852.91
649.75	847.05
650.09	841.08
650.43	835.32
650.78	829.06
651.12	823.12
651.46	817.31
651.80	811.66
652.14	806.32
652.49	800.90
652.83	795.78
653.17	790.19
653.51	784.52
653.85	779.07
654.20	773.39
654.54	767.38
654.88	761.59
655.22	755.66
655.56	749.95
655.90	744.40
656.25	739.21
656.59	733.84
656.93	728.71
657.27	723.59
657.61	718.15
657.95	713.16
658.29	708.10
658.64	702.79
658.98	697.46
659.32	692.02
659.66	686.79
660.00	681.56
660.34	676.50
660.68	671.59
661.02	666.58
661.36	661.93
661.70	657.52
662.05	653.24
662.39	648.95
662.73	644.46
663.07	640.08
663.41	635.63
663.75	631.24
664.09	626.63
664.43	622.21
664.77	618.12
665.11	613.85
665.45	609.69
665.79	605.66
666.13	601.60
666.47	597.42
666.81	593.28
667.15	589.13
667.49	585.27
667.83	581.40
668.17	577.50
668.51	573.44
668.85	569.37
669.19	565.41
669.53	561.53
669.87	557.70
670.21	554.07
670.55	550.42
670.89	546.93
671.23	543.49
671.57	539.91
671.91	536.37
672.25	532.81
672.58	529.29
672.92	525.84
673.26	522.60
673.60	519.46
673.94	516.35
674.28	513.40
674.62	510.46
674.96	507.43
675.30	504.53
675.64	501.64
675.97	498.88
676.31	496.00
676.65	493.10
676.99	490.40
677.33	487.55
677.67	484.74
678.01	481.73
678.34	478.76
678.68	475.94
679.02	473.13
679.36	470.32
679.70	467.61
680.04	464.89
680.37	462.08
680.71	459.30
681.05	456.67
681.39	453.94
681.73	451.30
682.06	448.75
682.40	446.21
682.74	443.62
683.08	441.02
683.42	438.47
683.75	436.02
684.09	433.45
684.43	430.93
684.77	428.51
685.10	426.15
685.44	423.87
685.78	421.61
686.12	419.35
686.45	417.10
686.79	414.85
687.13	412.68
687.46	410.55
687.80	408.41
688.14	406.16
688.48	404.17
688.81	401.94
689.15	399.85
689.49	397.70
689.82	395.67
690.16	393.59
690.50	391.67
690.83	389.72
691.17	387.74
691.51	385.86
691.84	383.94
692.18	382.08
692.52	380.12
692.85	378.17
693.19	376.31
693.52	374.49
693.86	372.65
694.20	370.85
694.53	369.02
694.87	367.18
695.21	365.40
695.54	363.51
695.88	361.77
696.21	360.01
696.55	358.34
696.88	356.63
697.22	354.96
697.56	353.29
697.89	351.67
698.23	350.08
698.56	348.48
698.90	346.92
699.23	345.27
699.57	343.74
699.90	342.16
700.24	340.59
700.58	339.13
700.91	337.63
701.25	336.20
701.58	334.87
701.92	333.51
702.25	332.13
702.59	330.84
702.92	329.54
703.26	328.20
703.59	326.96
703.93	325.78
704.26	324.54
704.60	323.23
704.93	321.91
705.26	320.72
705.60	319.48
705.93	318.32
706.27	317.27
706.60	316.22
706.94	315.15
707.27	314.01
707.61	312.91
707.94	311.90
708.27	310.79
708.61	309.63
708.94	308.61
709.28	307.61
709.61	306.60
709.94	305.67
710.28	304.64
710.61	303.59
710.95	302.48
711.28	301.55
711.61	300.66
711.95	299.79
712.28	298.78
712.61	297.85
712.95	296.88
713.28	296.00
713.61	295.03
713.95	294.20
714.28	293.38
714.61	292.46
714.95	291.61
715.28	290.73
715.61	289.87
715.95	289.02
716.28	288.21
716.61	287.36
716.95	286.48
717.28	285.71
717.61	284.94
717.94	284.20
718.28	283.42
718.61	282.67
718.94	281.93
719.27	281.27
719.61	280.61
719.94	279.93
720.27	279.17
720.60	278.55
720.94	277.91
721.27	277.27
721.60	276.71
721.93	276.05
722.27	275.53
722.60	274.96
722.93	274.34
723.26	273.78
723.59	273.23
723.93	272.72
724.26	272.19
724.59	271.59
724.92	271.10
725.25	270.63
725.59	270.10
725.92	269.60
726.25	269.07
726.58	268.56
726.91	268.08
727.24	267.63
727.57	267.14
727.91	266.62
728.24	266.17
728.57	265.70
728.90	265.28
729.23	264.76
729.56	264.37
729.89	263.93
730.22	263.42
730.55	262.92
730.89	262.45
731.22	262.00
731.55	261.60
731.88	261.15
732.21	260.66
732.54	260.22
732.87	259.77
733.20	259.33
733.53	258.96
733.86	258.62
734.19	258.21
734.52	257.83
734.85	257.54
735.18	257.13
735.51	256.76
735.84	256.40
736.17	256.06
736.50	255.62
736.83	255.37
737.16	255.03
737.49	254.73
737.82	254.38
738.15	254.04
738.48	253.72
738.81	253.40
739.14	253.09
739.47	252.77
739.80	252.47
740.13	252.22
740.46	251.89
740.79	251.55
741.12	251.25
741.45	250.97
741.78	250.63
742.11	250.33
742.44	249.98
742.77	249.68
743.10	249.40
743.43	249.13
743.75	248.79
744.08	248.67
744.41	248.37
744.74	248.14
745.07	247.90
745.40	247.63
745.73	247.40
746.06	247.13
746.39	246.89
746.71	246.60
747.04	246.33
747.37	246.04
747.70	245.81
748.03	245.55
748.36	245.31
748.68	245.05
749.01	244.84
749.34	244.67
749.67	244.42
750.00	244.19
750.33	244.02
750.65	243.78
750.98	243.44
751.31	243.26
751.64	243.02
751.97	242.82
752.29	242.61
752.62	242.37
752.95	242.17
753.28	241.97
753.60	241.79
753.93	241.60
754.26	241.42
754.59	241.18
754.91	240.98
755.24	240.78
755.57	240.59
755.90	240.39
756.22	240.16
756.55	239.96
756.88	239.75
757.20	239.52
757.53	239.33
757.86	239.12
758.19	238.95
758.51	238.78
758.84	238.57
759.17	238.39
759.49	238.20
759.82	238.10
760.15	237.94
760.47	237.79
760.80	237.65
761.13	237.52
761.45	237.38
761.78	237.23
762.11	237.06
762.43	236.90
762.76	236.77
763.08	236.66
763.41	236.49
763.74	236.34
764.06	236.19
764.39	236.02
764.71	235.91
765.04	235.76
765.37	235.60
765.69	235.49
766.02	235.36
766.34	235.25
766.67	235.05
767.00	234.93
767.32	234.84
767.65	234.73
767.97	234.59
768.30	234.47
768.62	234.36
768.95	234.25
769.27	234.12
769.60	233.98
769.92	233.85
770.25	233.76
770.57	233.65
770.90	233.53
771.22	233.47
771.55	233.39
771.87	233.26
772.20	233.17
772.52	233.18
772.85	233.22
773.17	233.13
773.50	233.05
773.82	232.95
774.15	232.85
774.47	232.73
774.80	232.66
775.12	232.59
775.45	232.52
775.77	232.45
776.09	232.39
776.42	232.31
776.74	232.23
777.07	232.21
777.39	232.16
777.72	232.10
778.04	232.03
778.36	231.96
778.69	231.94
779.01	231.89
779.33	231.74
779.66	231.53
779.98	231.47
780.31	231.44
780.63	231.44
780.95	231.38
781.28	231.33
781.60	231.26
781.92	231.18
782.25	231.13
782.57	231.05
782.89	230.98
783.22	230.93
783.54	230.89
783.86	230.82
784.19	230.76
784.51	230.78
784.83	230.72
785.16	230.65
785.48	230.61
785.80	230.58
786.12	230.55
786.45	230.53
786.77	230.52
787.09	230.46
