SpectraSuite Data File
++++++++++++++++++++++++++++++++++++
Date: Fri Feb 01 16:42:09 EST 2013
User: group
Dark Spectrum Present: No
Reference Spectrum Present: No
Number of Sampled Component Spectra: 1
Spectrometers: USB2E7196
Integration Time (usec): 35000 (USB2E7196)
Spectra Averaged: 100 (USB2E7196)
Boxcar Smoothing: 10 (USB2E7196)
Correct for Electrical Dark: No (USB2E7196)
Strobe/Lamp Enabled: No (USB2E7196)
Correct for Detector Non-linearity: No (USB2E7196)
Correct for Stray Light: No (USB2E7196)
Number of Pixels in Processed Spectrum: 2048
>>>>>Begin Processed Spectral Data<<<<<
339.09	0.00
339.48	213.38
339.86	214.99
340.24	216.49
340.63	217.69
341.01	220.54
341.39	220.60
341.78	222.42
342.16	223.11
342.54	223.67
342.93	211.95
343.31	222.67
343.69	223.23
344.07	223.68
344.46	224.11
344.84	224.50
345.22	224.75
345.60	224.98
345.99	225.14
346.37	225.27
346.75	225.35
347.13	225.45
347.52	225.48
347.90	225.55
348.28	225.59
348.66	225.62
349.05	225.60
349.43	225.63
349.81	225.65
350.19	225.71
350.57	225.76
350.96	225.88
351.34	225.98
351.72	226.04
352.10	226.15
352.48	226.24
352.87	226.30
353.25	226.37
353.63	226.44
354.01	226.50
354.39	226.58
354.77	226.67
355.15	226.76
355.54	226.82
355.92	226.86
356.30	226.96
356.68	227.10
357.06	227.19
357.44	227.29
357.82	227.39
358.20	227.48
358.58	227.54
358.97	227.59
359.35	227.64
359.73	227.72
360.11	227.78
360.49	227.81
360.87	227.85
361.25	227.91
361.63	227.99
362.01	228.04
362.39	228.09
362.77	228.13
363.15	228.17
363.53	228.19
363.91	228.25
364.29	228.25
364.67	228.15
365.05	228.18
365.43	228.14
365.81	228.14
366.19	228.15
366.57	228.20
366.95	228.21
367.33	228.22
367.71	228.22
368.09	228.21
368.47	228.19
368.85	228.18
369.23	228.17
369.61	228.10
369.99	228.08
370.37	228.02
370.75	228.03
371.13	228.00
371.51	227.98
371.89	227.91
372.27	227.89
372.65	227.84
373.03	227.77
373.41	227.74
373.78	227.68
374.16	227.57
374.54	227.50
374.92	227.41
375.30	227.30
375.68	227.22
376.06	227.16
376.44	227.09
376.82	227.01
377.19	226.96
377.57	226.91
377.95	226.83
378.33	226.76
378.71	226.65
379.09	226.58
379.47	226.53
379.84	226.49
380.22	226.41
380.60	226.34
380.98	226.27
381.36	226.24
381.73	226.14
382.11	226.09
382.49	226.04
382.87	225.96
383.25	225.90
383.62	225.95
384.00	225.88
384.38	225.82
384.76	225.80
385.13	225.78
385.51	225.71
385.89	225.64
386.27	225.63
386.64	225.58
387.02	225.55
387.40	225.45
387.78	225.41
388.15	225.38
388.53	225.39
388.91	225.37
389.29	225.30
389.66	225.30
390.04	225.29
390.42	225.26
390.79	225.29
391.17	225.29
391.55	225.19
391.92	225.19
392.30	225.22
392.68	225.17
393.05	225.17
393.43	225.22
393.81	225.26
394.18	225.25
394.56	225.26
394.94	225.29
395.31	225.34
395.69	225.34
396.06	225.39
396.44	225.40
396.82	225.43
397.19	225.51
397.57	225.53
397.95	225.59
398.32	225.61
398.70	225.66
399.07	225.76
399.45	225.81
399.82	225.88
400.20	225.89
400.58	225.97
400.95	226.00
401.33	226.07
401.70	226.22
402.08	226.31
402.45	226.41
402.83	226.50
403.20	226.62
403.58	226.73
403.95	226.84
404.33	226.97
404.71	227.08
405.08	227.25
405.46	227.41
405.83	227.57
406.21	227.73
406.58	227.86
406.96	228.02
407.33	228.19
407.70	228.39
408.08	228.68
408.45	228.91
408.83	229.15
409.20	229.36
409.58	229.52
409.95	229.76
410.33	230.04
410.70	230.29
411.08	230.59
411.45	230.93
411.82	231.24
412.20	231.60
412.57	232.03
412.95	232.32
413.32	232.72
413.69	233.10
414.07	233.51
414.44	233.96
414.82	234.43
415.19	235.00
415.56	235.52
415.94	236.06
416.31	236.69
416.68	237.31
417.06	238.02
417.43	238.72
417.81	239.51
418.18	240.26
418.55	241.09
418.93	241.94
419.30	242.80
419.67	243.72
420.04	244.66
420.42	245.61
420.79	246.80
421.16	247.93
421.54	249.10
421.91	250.31
422.28	251.57
422.66	252.89
423.03	254.18
423.40	255.48
423.77	256.88
424.15	258.29
424.52	259.75
424.89	261.31
425.26	262.82
425.64	264.24
426.01	265.88
426.38	267.53
426.75	269.18
427.13	270.90
427.50	272.68
427.87	274.52
428.24	276.36
428.61	278.06
428.99	279.96
429.36	282.01
429.73	284.05
430.10	286.06
430.47	288.08
430.85	290.16
431.22	292.42
431.59	294.76
431.96	296.94
432.33	299.36
432.70	301.69
433.08	304.45
433.45	307.06
433.82	309.57
434.19	312.36
434.56	315.14
434.93	317.75
435.30	320.37
435.68	323.27
436.05	326.09
436.42	328.84
436.79	331.37
437.16	334.07
437.53	336.84
437.90	339.63
438.27	342.35
438.64	345.12
439.01	347.67
439.38	349.88
439.75	352.09
440.13	354.57
440.50	356.92
440.87	358.78
441.24	360.70
441.61	362.85
441.98	364.36
442.35	366.16
442.72	367.98
443.09	369.74
443.46	370.71
443.83	371.25
444.20	371.78
444.57	372.61
444.94	372.90
445.31	373.31
445.68	373.66
446.05	373.74
446.42	373.42
446.79	372.98
447.16	372.55
447.53	372.23
447.90	371.10
448.27	369.96
448.64	368.42
449.01	367.29
449.37	365.33
449.74	363.44
450.11	361.24
450.48	358.83
450.85	356.35
451.22	354.24
451.59	352.29
451.96	350.37
452.33	347.80
452.70	345.50
453.07	342.64
453.43	339.79
453.80	337.00
454.17	334.32
454.54	331.80
454.91	329.10
455.28	326.48
455.65	323.98
456.02	321.54
456.38	319.43
456.75	316.80
457.12	314.63
457.49	312.44
457.86	310.26
458.23	308.41
458.59	306.37
458.96	304.30
459.33	302.43
459.70	300.58
460.07	299.11
460.43	297.38
460.80	295.81
461.17	294.37
461.54	292.91
461.91	291.52
462.27	290.13
462.64	288.89
463.01	287.53
463.38	286.29
463.74	284.94
464.11	283.81
464.48	282.78
464.85	281.64
465.21	280.76
465.58	279.86
465.95	278.75
466.32	277.87
466.68	276.98
467.05	276.09
467.42	275.25
467.78	274.27
468.15	273.43
468.52	272.74
468.88	271.89
469.25	271.19
469.62	270.55
469.98	269.86
470.35	269.24
470.72	268.66
471.08	268.00
471.45	267.47
471.82	266.91
472.18	266.32
472.55	265.95
472.92	265.47
473.28	265.05
473.65	264.62
474.02	264.21
474.38	263.83
474.75	263.52
475.11	263.18
475.48	262.95
475.85	262.72
476.21	262.56
476.58	262.41
476.94	262.23
477.31	262.11
477.67	261.95
478.04	261.85
478.41	261.81
478.77	261.84
479.14	261.81
479.50	261.84
479.87	261.90
480.23	261.96
480.60	262.03
480.96	262.09
481.33	262.31
481.69	262.51
482.06	262.74
482.42	262.97
482.79	263.23
483.15	263.55
483.52	263.93
483.88	264.25
484.25	264.64
484.61	265.05
484.98	265.48
485.34	266.07
485.71	266.68
486.07	267.27
486.44	267.86
486.80	268.53
487.17	269.24
487.53	270.08
487.90	270.92
488.26	271.88
488.62	272.86
488.99	273.85
489.35	274.88
489.72	276.02
490.08	277.23
490.44	278.43
490.81	279.76
491.17	281.11
491.54	282.61
491.90	284.10
492.26	285.77
492.63	287.55
492.99	289.32
493.36	291.18
493.72	293.22
494.08	295.35
494.45	297.60
494.81	299.97
495.17	302.41
495.54	305.01
495.90	307.73
496.26	310.55
496.63	313.49
496.99	316.64
497.35	319.84
497.72	323.24
498.08	326.76
498.44	330.47
498.80	334.40
499.17	338.48
499.53	342.62
499.89	347.02
500.26	351.49
500.62	356.19
500.98	361.17
501.34	366.31
501.71	371.63
502.07	377.09
502.43	382.74
502.79	388.53
503.16	394.55
503.52	400.74
503.88	407.04
504.24	413.64
504.60	420.52
504.97	427.68
505.33	435.01
505.69	442.74
506.05	450.51
506.41	458.36
506.78	466.48
507.14	475.01
507.50	483.62
507.86	492.65
508.22	501.90
508.59	511.11
508.95	520.63
509.31	530.42
509.67	540.49
510.03	550.72
510.39	561.29
510.75	572.03
511.12	582.91
511.48	594.26
511.84	605.74
512.20	617.16
512.56	629.08
512.92	641.15
513.28	653.50
513.64	665.90
514.00	678.59
514.37	691.49
514.73	704.46
515.09	717.48
515.45	730.61
515.81	744.07
516.17	757.98
516.53	772.04
516.89	786.13
517.25	800.24
517.61	814.61
517.97	828.96
518.33	843.36
518.69	858.09
519.05	873.01
519.41	888.03
519.77	903.48
520.13	918.85
520.49	934.24
520.85	949.40
521.21	964.93
521.57	981.04
521.93	996.74
522.29	1012.92
522.65	1029.10
523.01	1045.24
523.37	1061.22
523.73	1077.24
524.09	1093.21
524.45	1109.37
524.81	1125.94
525.17	1142.58
525.53	1159.32
525.89	1176.04
526.25	1192.77
526.61	1208.97
526.97	1225.71
527.33	1242.13
527.68	1258.46
528.04	1274.75
528.40	1291.19
528.76	1308.22
529.12	1324.72
529.48	1341.38
529.84	1357.41
530.20	1373.87
530.56	1390.68
530.91	1407.80
531.27	1424.42
531.63	1440.79
531.99	1457.24
532.35	1473.11
532.71	1488.78
533.07	1504.89
533.42	1520.60
533.78	1536.46
534.14	1552.46
534.50	1567.51
534.86	1583.11
535.21	1598.22
535.57	1613.96
535.93	1629.38
536.29	1643.94
536.65	1658.68
537.00	1673.15
537.36	1688.22
537.72	1702.32
538.08	1716.54
538.44	1730.14
538.79	1743.82
539.15	1757.05
539.51	1770.48
539.87	1784.48
540.22	1798.01
540.58	1811.41
540.94	1824.37
541.29	1836.88
541.65	1849.46
542.01	1862.48
542.37	1874.61
542.72	1886.87
543.08	1898.54
543.44	1910.64
543.79	1921.78
544.15	1932.59
544.51	1944.05
544.87	1954.80
545.22	1965.79
545.58	1975.96
545.94	1985.70
546.29	1995.51
546.65	2005.52
547.01	2014.87
547.36	2023.60
547.72	2032.18
548.07	2040.19
548.43	2048.42
548.79	2056.33
549.14	2064.07
549.50	2071.24
549.86	2078.84
550.21	2086.01
550.57	2093.19
550.92	2099.84
551.28	2106.83
551.64	2113.98
551.99	2120.46
552.35	2126.74
552.70	2132.78
553.06	2138.79
553.41	2145.07
553.77	2150.92
554.13	2156.73
554.48	2162.70
554.84	2168.23
555.19	2173.41
555.55	2178.48
555.90	2183.02
556.26	2188.24
556.61	2192.64
556.97	2197.11
557.32	2201.34
557.68	2205.38
558.03	2209.52
558.39	2213.03
558.74	2217.63
559.10	2221.49
559.45	2225.23
559.81	2229.31
560.16	2233.18
560.52	2236.42
560.87	2239.78
561.23	2242.43
561.58	2245.55
561.94	2248.10
562.29	2250.10
562.64	2252.96
563.00	2255.59
563.35	2259.20
563.71	2262.17
564.06	2265.45
564.42	2268.38
564.77	2270.96
565.12	2273.64
565.48	2275.62
565.83	2277.69
566.19	2279.18
566.54	2279.99
566.89	2281.34
567.25	2282.20
567.60	2283.50
567.96	2285.15
568.31	2286.02
568.66	2287.34
569.02	2287.96
569.37	2288.54
569.72	2289.70
570.08	2289.96
570.43	2290.03
570.78	2289.49
571.14	2288.19
571.49	2286.90
571.84	2286.50
572.20	2285.47
572.55	2284.27
572.90	2282.56
573.26	2281.32
573.61	2279.42
573.96	2278.06
574.31	2275.05
574.67	2272.20
575.02	2268.60
575.37	2265.25
575.72	2261.76
576.08	2258.29
576.43	2254.82
576.78	2251.26
577.13	2247.92
577.49	2244.57
577.84	2241.27
578.19	2237.61
578.54	2234.06
578.90	2230.12
579.25	2224.82
579.60	2220.11
579.95	2215.24
580.30	2210.51
580.66	2205.39
581.01	2200.60
581.36	2195.60
581.71	2191.63
582.06	2187.26
582.42	2183.07
582.77	2178.04
583.12	2173.44
583.47	2169.14
583.82	2164.50
584.17	2159.39
584.53	2154.14
584.88	2148.67
585.23	2143.03
585.58	2137.44
585.93	2131.92
586.28	2126.93
586.63	2121.97
586.98	2116.81
587.34	2112.21
587.69	2107.46
588.04	2102.39
588.39	2096.79
588.74	2090.40
589.09	2084.29
589.44	2077.55
589.79	2071.30
590.14	2065.54
590.49	2059.17
590.84	2052.56
591.19	2046.55
591.54	2040.02
591.89	2032.99
592.25	2026.37
592.60	2019.23
592.95	2011.88
593.30	2004.67
593.65	1997.10
594.00	1990.08
594.35	1982.86
594.70	1974.80
595.05	1967.81
595.40	1960.58
595.75	1953.30
596.10	1947.29
596.45	1940.77
596.80	1934.79
597.15	1928.47
597.50	1921.75
597.85	1915.22
598.19	1908.74
598.54	1901.98
598.89	1895.54
599.24	1889.46
599.59	1882.89
599.94	1876.72
600.29	1870.41
600.64	1863.83
600.99	1856.75
601.34	1850.00
601.69	1843.14
602.04	1836.41
602.39	1829.01
602.74	1822.25
603.08	1815.54
603.43	1808.79
603.78	1801.39
604.13	1794.10
604.48	1786.97
604.83	1780.09
605.18	1773.37
605.53	1765.48
605.87	1757.29
606.22	1749.90
606.57	1741.96
606.92	1734.43
607.27	1727.35
607.62	1720.60
607.96	1713.47
608.31	1707.00
608.66	1699.48
609.01	1691.96
609.36	1684.45
609.70	1676.52
610.05	1668.51
610.40	1660.98
610.75	1652.67
611.10	1644.95
611.44	1636.52
611.79	1628.38
612.14	1619.80
612.49	1610.54
612.83	1602.18
613.18	1594.06
613.53	1586.12
613.88	1577.70
614.22	1569.62
614.57	1560.93
614.92	1552.86
615.27	1545.40
615.61	1537.19
615.96	1529.15
616.31	1521.50
616.65	1514.22
617.00	1506.61
617.35	1498.89
617.70	1490.58
618.04	1482.17
618.39	1473.98
618.74	1466.45
619.08	1458.19
619.43	1450.58
619.78	1443.61
620.12	1436.57
620.47	1429.11
620.82	1420.90
621.16	1413.42
621.51	1405.85
621.85	1398.19
622.20	1389.81
622.55	1381.32
622.89	1373.25
623.24	1365.61
623.59	1358.12
623.93	1350.51
624.28	1343.30
624.62	1335.86
624.97	1328.60
625.32	1321.75
625.66	1314.75
626.01	1307.57
626.35	1300.33
626.70	1292.57
627.04	1285.01
627.39	1277.20
627.73	1269.80
628.08	1262.80
628.43	1255.74
628.77	1248.48
629.12	1241.10
629.46	1233.96
629.81	1226.52
630.15	1219.37
630.50	1211.94
630.84	1203.85
631.19	1195.88
631.53	1188.36
631.88	1180.71
632.22	1173.06
632.57	1165.81
632.91	1158.25
633.26	1150.99
633.60	1143.46
633.95	1136.24
634.29	1129.08
634.64	1122.33
634.98	1115.02
635.32	1108.02
635.67	1101.29
636.01	1094.64
636.36	1087.85
636.70	1081.26
637.05	1074.79
637.39	1068.47
637.73	1062.09
638.08	1056.30
638.42	1050.34
638.77	1043.91
639.11	1037.48
639.45	1031.25
639.80	1024.64
640.14	1018.28
640.49	1011.73
640.83	1005.45
641.17	999.38
641.52	993.19
641.86	986.79
642.20	981.01
642.55	974.60
642.89	968.19
643.23	961.58
643.58	955.85
643.92	949.64
644.26	943.69
644.61	937.40
644.95	931.38
645.29	924.81
645.64	918.19
645.98	911.90
646.32	905.93
646.66	899.85
647.01	894.00
647.35	888.39
647.69	882.46
648.04	876.96
648.38	871.23
648.72	865.32
649.06	859.37
649.41	853.40
649.75	847.56
650.09	841.55
650.43	835.79
650.78	829.63
651.12	823.66
651.46	817.88
651.80	812.37
652.14	806.91
652.49	801.52
652.83	796.30
653.17	790.64
653.51	785.03
653.85	779.58
654.20	774.05
654.54	768.00
654.88	762.25
655.22	756.31
655.56	750.49
655.90	744.96
656.25	739.72
656.59	734.46
656.93	729.35
657.27	724.28
657.61	718.90
657.95	713.77
658.29	708.74
658.64	703.46
658.98	698.05
659.32	692.60
659.66	687.41
660.00	682.21
660.34	677.32
660.68	672.40
661.02	667.36
661.36	662.55
661.70	658.05
662.05	653.75
662.39	649.50
662.73	645.09
663.07	640.61
663.41	636.14
663.75	631.58
664.09	626.98
664.43	622.57
664.77	618.42
665.11	614.17
665.45	610.01
665.79	605.95
666.13	601.89
666.47	597.81
666.81	593.60
667.15	589.41
667.49	585.39
667.83	581.51
668.17	577.60
668.51	573.55
668.85	569.51
669.19	565.59
669.53	561.74
669.87	557.90
670.21	554.27
670.55	550.57
670.89	547.14
671.23	543.73
671.57	540.22
671.91	536.68
672.25	533.18
672.58	529.69
672.92	526.25
673.26	522.99
673.60	519.85
673.94	516.77
674.28	513.84
674.62	510.93
674.96	507.86
675.30	504.97
675.64	502.13
675.97	499.35
676.31	496.48
676.65	493.56
676.99	490.78
677.33	487.85
677.67	485.07
678.01	482.07
678.34	479.10
678.68	476.21
679.02	473.45
679.36	470.66
679.70	467.90
680.04	465.14
680.37	462.33
680.71	459.52
681.05	456.92
681.39	454.19
681.73	451.51
682.06	449.00
682.40	446.46
682.74	443.84
683.08	441.25
683.42	438.67
683.75	436.13
684.09	433.58
684.43	431.14
684.77	428.68
685.10	426.30
685.44	423.97
685.78	421.70
686.12	419.37
686.45	417.14
686.79	414.85
687.13	412.70
687.46	410.51
687.80	408.32
688.14	406.08
688.48	404.01
688.81	401.82
689.15	399.65
689.49	397.49
689.82	395.44
690.16	393.40
690.50	391.46
690.83	389.55
691.17	387.62
691.51	385.75
691.84	383.91
692.18	381.95
692.52	379.99
692.85	378.04
693.19	376.17
693.52	374.32
693.86	372.50
694.20	370.68
694.53	368.91
694.87	367.09
695.21	365.30
695.54	363.47
695.88	361.71
696.21	360.01
696.55	358.30
696.88	356.61
697.22	354.91
697.56	353.26
697.89	351.59
698.23	350.01
698.56	348.38
698.90	346.83
699.23	345.30
699.57	343.76
699.90	342.21
700.24	340.66
700.58	339.09
700.91	337.63
701.25	336.18
701.58	334.78
701.92	333.43
702.25	332.07
702.59	330.73
702.92	329.42
703.26	328.11
703.59	326.84
703.93	325.63
704.26	324.41
704.60	323.10
704.93	321.85
705.26	320.52
705.60	319.30
705.93	318.10
706.27	316.99
706.60	316.00
706.94	314.92
707.27	313.83
707.61	312.82
707.94	311.77
708.27	310.67
708.61	309.57
708.94	308.53
709.28	307.54
709.61	306.56
709.94	305.60
710.28	304.57
710.61	303.59
710.95	302.55
711.28	301.66
711.61	300.75
711.95	299.85
712.28	298.94
712.61	297.97
712.95	297.04
713.28	296.12
713.61	295.17
713.95	294.28
714.28	293.42
714.61	292.52
714.95	291.66
715.28	290.83
715.61	289.97
715.95	289.11
716.28	288.25
716.61	287.40
716.95	286.58
717.28	285.86
717.61	285.06
717.94	284.28
718.28	283.39
718.61	282.65
718.94	281.96
719.27	281.35
719.61	280.73
719.94	280.04
720.27	279.33
720.60	278.67
720.94	278.05
721.27	277.46
721.60	276.89
721.93	276.31
722.27	275.75
722.60	275.19
722.93	274.65
723.26	274.10
723.59	273.55
723.93	272.99
724.26	272.42
724.59	271.85
724.92	271.35
725.25	270.89
725.59	270.42
725.92	269.93
726.25	269.37
726.58	268.87
726.91	268.39
727.24	267.93
727.57	267.43
727.91	266.91
728.24	266.44
728.57	265.94
728.90	265.49
729.23	264.99
729.56	264.57
729.89	264.11
730.22	263.61
730.55	263.16
730.89	262.79
731.22	262.33
731.55	261.94
731.88	261.52
732.21	261.09
732.54	260.60
732.87	260.14
733.20	259.73
733.53	259.34
733.86	258.99
734.19	258.63
734.52	258.27
734.85	257.99
735.18	257.54
735.51	257.19
735.84	256.81
736.17	256.47
736.50	256.08
736.83	255.87
737.16	255.55
737.49	255.21
737.82	254.83
738.15	254.51
738.48	254.15
738.81	253.78
739.14	253.45
739.47	253.16
739.80	252.87
740.13	252.55
740.46	252.23
740.79	251.91
741.12	251.56
741.45	251.24
741.78	250.89
742.11	250.65
742.44	250.32
742.77	250.04
743.10	249.75
743.43	249.42
743.75	248.99
744.08	248.85
744.41	248.58
744.74	248.29
745.07	248.00
745.40	247.79
745.73	247.62
746.06	247.36
746.39	247.09
746.71	246.82
747.04	246.57
747.37	246.30
747.70	246.05
748.03	245.81
748.36	245.61
748.68	245.37
749.01	245.10
749.34	244.91
749.67	244.64
750.00	244.42
750.33	244.27
750.65	244.07
750.98	243.70
751.31	243.49
751.64	243.30
751.97	243.13
752.29	242.88
752.62	242.62
752.95	242.42
753.28	242.22
753.60	242.00
753.93	241.82
754.26	241.62
754.59	241.39
754.91	241.18
755.24	240.95
755.57	240.76
755.90	240.60
756.22	240.39
756.55	240.20
756.88	240.02
757.20	239.82
757.53	239.63
757.86	239.48
758.19	239.33
758.51	239.19
758.84	239.01
759.17	238.85
759.49	238.68
759.82	238.55
760.15	238.38
760.47	238.23
760.80	238.09
761.13	237.95
761.45	237.80
761.78	237.64
762.11	237.50
762.43	237.35
762.76	237.22
763.08	237.10
763.41	236.99
763.74	236.84
764.06	236.67
764.39	236.55
764.71	236.41
765.04	236.23
765.37	236.08
765.69	235.95
766.02	235.80
766.34	235.71
766.67	235.54
767.00	235.49
767.32	235.40
767.65	235.33
767.97	235.23
768.30	235.14
768.62	235.02
768.95	234.89
769.27	234.77
769.60	234.64
769.92	234.55
770.25	234.42
770.57	234.32
770.90	234.22
771.22	234.11
771.55	234.02
771.87	233.98
772.20	233.90
772.52	233.90
772.85	233.95
773.17	233.84
773.50	233.76
773.82	233.61
774.15	233.49
774.47	233.34
774.80	233.24
775.12	233.16
775.45	233.09
775.77	233.01
776.09	232.95
776.42	232.90
776.74	232.84
777.07	232.78
777.39	232.70
777.72	232.65
778.04	232.59
778.36	232.52
778.69	232.45
779.01	232.36
779.33	232.17
779.66	231.99
779.98	231.92
780.31	231.85
780.63	231.85
780.95	231.82
781.28	231.76
781.60	231.70
781.92	231.63
782.25	231.59
782.57	231.54
782.89	231.45
783.22	231.38
783.54	231.26
783.86	231.19
784.19	231.10
784.51	231.03
784.83	230.98
785.16	230.88
785.48	230.79
785.80	230.74
786.12	230.71
786.45	230.62
786.77	230.55
787.09	230.51
