SpectraSuite Data File
++++++++++++++++++++++++++++++++++++
Date: Fri Feb 01 15:23:36 EST 2013
User: group
Dark Spectrum Present: No
Reference Spectrum Present: No
Number of Sampled Component Spectra: 1
Spectrometers: USB2E7196
Integration Time (usec): 35000 (USB2E7196)
Spectra Averaged: 100 (USB2E7196)
Boxcar Smoothing: 10 (USB2E7196)
Correct for Electrical Dark: No (USB2E7196)
Strobe/Lamp Enabled: No (USB2E7196)
Correct for Detector Non-linearity: No (USB2E7196)
Correct for Stray Light: No (USB2E7196)
Number of Pixels in Processed Spectrum: 2048
>>>>>Begin Processed Spectral Data<<<<<
339.09	0.00
339.48	215.32
339.86	216.67
340.24	218.01
340.63	219.50
341.01	222.24
341.39	222.49
341.78	224.08
342.16	224.29
342.54	225.37
342.93	213.48
343.31	224.28
343.69	224.80
344.07	225.25
344.46	225.68
344.84	226.04
345.22	226.26
345.60	226.50
345.99	226.66
346.37	226.79
346.75	226.86
347.13	226.94
347.52	227.01
347.90	227.09
348.28	227.13
348.66	227.16
349.05	227.17
349.43	227.20
349.81	227.24
350.19	227.29
350.57	227.40
350.96	227.46
351.34	227.54
351.72	227.65
352.10	227.74
352.48	227.81
352.87	227.90
353.25	227.97
353.63	228.02
354.01	228.10
354.39	228.20
354.77	228.29
355.15	228.40
355.54	228.47
355.92	228.50
356.30	228.55
356.68	228.68
357.06	228.72
357.44	228.78
357.82	228.80
358.20	228.87
358.58	228.90
358.97	228.94
359.35	229.01
359.73	229.06
360.11	229.11
360.49	229.15
360.87	229.17
361.25	229.25
361.63	229.30
362.01	229.35
362.39	229.36
362.77	229.39
363.15	229.40
363.53	229.41
363.91	229.44
364.29	229.47
364.67	229.41
365.05	229.45
365.43	229.46
365.81	229.48
366.19	229.52
366.57	229.55
366.95	229.56
367.33	229.50
367.71	229.49
368.09	229.49
368.47	229.47
368.85	229.43
369.23	229.38
369.61	229.32
369.99	229.33
370.37	229.31
370.75	229.33
371.13	229.27
371.51	229.23
371.89	229.16
372.27	229.11
372.65	229.05
373.03	228.97
373.41	228.95
373.78	228.89
374.16	228.77
374.54	228.70
374.92	228.65
375.30	228.59
375.68	228.49
376.06	228.46
376.44	228.39
376.82	228.32
377.19	228.27
377.57	228.23
377.95	228.11
378.33	228.02
378.71	227.88
379.09	227.83
379.47	227.74
379.84	227.65
380.22	227.56
380.60	227.49
380.98	227.41
381.36	227.33
381.73	227.25
382.11	227.22
382.49	227.14
382.87	227.07
383.25	227.00
383.62	227.03
384.00	226.97
384.38	226.88
384.76	226.87
385.13	226.83
385.51	226.78
385.89	226.70
386.27	226.66
386.64	226.61
387.02	226.54
387.40	226.48
387.78	226.48
388.15	226.47
388.53	226.42
388.91	226.40
389.29	226.37
389.66	226.39
390.04	226.35
390.42	226.34
390.79	226.30
391.17	226.31
391.55	226.23
391.92	226.18
392.30	226.21
392.68	226.16
393.05	226.19
393.43	226.19
393.81	226.23
394.18	226.24
394.56	226.29
394.94	226.34
395.31	226.40
395.69	226.46
396.06	226.51
396.44	226.53
396.82	226.56
397.19	226.63
397.57	226.66
397.95	226.73
398.32	226.74
398.70	226.86
399.07	226.93
399.45	227.00
399.82	227.07
400.20	227.15
400.58	227.25
400.95	227.29
401.33	227.40
401.70	227.56
402.08	227.68
402.45	227.76
402.83	227.91
403.20	228.01
403.58	228.10
403.95	228.23
404.33	228.39
404.71	228.57
405.08	228.75
405.46	228.88
405.83	229.06
406.21	229.21
406.58	229.34
406.96	229.52
407.33	229.68
407.70	229.88
408.08	230.18
408.45	230.42
408.83	230.63
409.20	230.87
409.58	231.05
409.95	231.30
410.33	231.57
410.70	231.78
411.08	232.09
411.45	232.40
411.82	232.72
412.20	233.07
412.57	233.48
412.95	233.79
413.32	234.23
413.69	234.62
414.07	235.08
414.44	235.57
414.82	236.05
415.19	236.63
415.56	237.15
415.94	237.67
416.31	238.27
416.68	238.90
417.06	239.58
417.43	240.27
417.81	241.03
418.18	241.80
418.55	242.67
418.93	243.53
419.30	244.42
419.67	245.34
420.04	246.29
420.42	247.27
420.79	248.44
421.16	249.56
421.54	250.75
421.91	251.94
422.28	253.19
422.66	254.52
423.03	255.79
423.40	257.14
423.77	258.56
424.15	259.99
424.52	261.49
424.89	263.10
425.26	264.61
425.64	266.04
426.01	267.61
426.38	269.26
426.75	270.94
427.13	272.68
427.50	274.51
427.87	276.37
428.24	278.18
428.61	279.92
428.99	281.89
429.36	283.99
429.73	286.09
430.10	288.10
430.47	290.16
430.85	292.28
431.22	294.55
431.59	296.89
431.96	299.14
432.33	301.63
432.70	304.02
433.08	306.85
433.45	309.52
433.82	312.14
434.19	315.04
434.56	317.87
434.93	320.51
435.30	323.19
435.68	326.14
436.05	329.02
436.42	331.83
436.79	334.31
437.16	337.01
437.53	339.85
437.90	342.68
438.27	345.45
438.64	348.32
439.01	350.90
439.38	353.19
439.75	355.38
440.13	357.88
440.50	360.21
440.87	362.06
441.24	364.05
441.61	366.22
441.98	367.73
442.35	369.54
442.72	371.45
443.09	373.17
443.46	374.15
443.83	374.75
444.20	375.26
444.57	376.12
444.94	376.41
445.31	376.80
445.68	377.14
446.05	377.19
446.42	376.82
446.79	376.41
447.16	375.96
447.53	375.67
447.90	374.50
448.27	373.34
448.64	371.76
449.01	370.60
449.37	368.66
449.74	366.74
450.11	364.47
450.48	361.97
450.85	359.46
451.22	357.33
451.59	355.33
451.96	353.42
452.33	350.81
452.70	348.47
453.07	345.56
453.43	342.64
453.80	339.91
454.17	337.21
454.54	334.67
454.91	331.95
455.28	329.26
455.65	326.74
456.02	324.29
456.38	322.12
456.75	319.44
457.12	317.21
457.49	314.96
457.86	312.79
458.23	310.91
458.59	308.87
458.96	306.75
459.33	304.88
459.70	302.99
460.07	301.50
460.43	299.75
460.80	298.14
461.17	296.72
461.54	295.22
461.91	293.79
462.27	292.33
462.64	291.04
463.01	289.64
463.38	288.34
463.74	286.97
464.11	285.83
464.48	284.78
464.85	283.61
465.21	282.78
465.58	281.85
465.95	280.76
466.32	279.84
466.68	278.93
467.05	278.01
467.42	277.09
467.78	276.12
468.15	275.23
468.52	274.56
468.88	273.68
469.25	272.83
469.62	272.17
469.98	271.50
470.35	270.85
470.72	270.28
471.08	269.60
471.45	269.07
471.82	268.53
472.18	267.92
472.55	267.48
472.92	266.89
473.28	266.42
473.65	265.93
474.02	265.46
474.38	265.06
474.75	264.69
475.11	264.36
475.48	264.09
475.85	263.82
476.21	263.59
476.58	263.44
476.94	263.27
477.31	263.09
477.67	262.91
478.04	262.84
478.41	262.76
478.77	262.78
479.14	262.69
479.50	262.69
479.87	262.75
480.23	262.82
480.60	262.93
480.96	263.01
481.33	263.18
481.69	263.38
482.06	263.61
482.42	263.82
482.79	264.04
483.15	264.34
483.52	264.74
483.88	265.08
484.25	265.48
484.61	265.94
484.98	266.42
485.34	267.01
485.71	267.59
486.07	268.22
486.44	268.84
486.80	269.54
487.17	270.25
487.53	271.09
487.90	271.94
488.26	272.87
488.62	273.87
488.99	274.88
489.35	275.92
489.72	277.06
490.08	278.27
490.44	279.58
490.81	280.94
491.17	282.32
491.54	283.81
491.90	285.28
492.26	286.94
492.63	288.65
492.99	290.40
493.36	292.27
493.72	294.26
494.08	296.36
494.45	298.61
494.81	300.98
495.17	303.42
495.54	306.01
495.90	308.69
496.26	311.45
496.63	314.43
496.99	317.56
497.35	320.80
497.72	324.21
498.08	327.70
498.44	331.33
498.80	335.24
499.17	339.26
499.53	343.47
499.89	347.81
500.26	352.31
500.62	356.98
500.98	361.98
501.34	367.06
501.71	372.39
502.07	377.87
502.43	383.49
502.79	389.27
503.16	395.32
503.52	401.58
503.88	408.01
504.24	414.61
504.60	421.55
504.97	428.68
505.33	436.00
505.69	443.67
506.05	451.46
506.41	459.36
506.78	467.52
507.14	475.93
507.50	484.63
507.86	493.70
508.22	502.89
508.59	512.04
508.95	521.68
509.31	531.50
509.67	541.58
510.03	551.92
510.39	562.48
510.75	573.25
511.12	584.18
511.48	595.48
511.84	606.98
512.20	618.47
512.56	630.39
512.92	642.57
513.28	654.95
513.64	667.45
514.00	680.14
514.37	693.04
514.73	706.11
515.09	719.14
515.45	732.40
515.81	745.98
516.17	760.04
516.53	774.26
516.89	788.45
517.25	802.63
517.61	817.04
517.97	831.54
518.33	846.00
518.69	860.83
519.05	875.85
519.41	891.05
519.77	906.65
520.13	922.16
520.49	937.58
520.85	952.96
521.21	968.67
521.57	985.02
521.93	1000.92
522.29	1017.37
522.65	1033.76
523.01	1049.95
523.37	1066.06
523.73	1082.25
524.09	1098.25
524.45	1114.61
524.81	1131.27
525.17	1148.15
525.53	1165.10
525.89	1182.00
526.25	1198.86
526.61	1215.31
526.97	1232.03
527.33	1248.49
527.68	1265.15
528.04	1281.77
528.40	1298.61
528.76	1315.82
529.12	1332.37
529.48	1349.23
529.84	1365.36
530.20	1382.05
530.56	1399.31
530.91	1416.80
531.27	1433.69
531.63	1450.36
531.99	1467.04
532.35	1483.12
532.71	1499.02
533.07	1515.28
533.42	1531.21
533.78	1547.35
534.14	1563.65
534.50	1579.05
534.86	1595.05
535.21	1610.18
535.57	1626.24
535.93	1641.77
536.29	1656.74
536.65	1671.90
537.00	1686.85
537.36	1702.22
537.72	1716.75
538.08	1731.27
538.44	1745.05
538.79	1759.00
539.15	1772.65
539.51	1786.48
539.87	1800.92
540.22	1814.73
540.58	1828.76
540.94	1842.27
541.29	1855.25
541.65	1868.14
542.01	1881.41
542.37	1893.71
542.72	1906.39
543.08	1918.12
543.44	1930.39
543.79	1941.51
544.15	1952.47
544.51	1964.03
544.87	1975.13
545.22	1986.09
545.58	1996.20
545.94	2006.02
546.29	2015.84
546.65	2025.61
547.01	2034.81
547.36	2043.60
547.72	2052.02
548.07	2059.72
548.43	2067.86
548.79	2075.93
549.14	2083.32
549.50	2090.78
549.86	2098.58
550.21	2105.87
550.57	2112.93
550.92	2119.58
551.28	2126.64
551.64	2133.70
551.99	2140.21
552.35	2146.28
552.70	2152.38
553.06	2158.40
553.41	2164.75
553.77	2170.83
554.13	2176.94
554.48	2182.93
554.84	2188.22
555.19	2193.66
555.55	2198.74
555.90	2203.17
556.26	2207.89
556.61	2212.66
556.97	2216.90
557.32	2220.92
557.68	2224.99
558.03	2229.39
558.39	2233.24
558.74	2237.91
559.10	2241.94
559.45	2245.70
559.81	2250.09
560.16	2253.85
560.52	2257.07
560.87	2260.50
561.23	2263.12
561.58	2266.22
561.94	2268.80
562.29	2271.37
562.64	2274.07
563.00	2276.76
563.35	2280.31
563.71	2283.59
564.06	2286.73
564.42	2289.50
564.77	2291.89
565.12	2294.10
565.48	2295.90
565.83	2297.59
566.19	2298.81
566.54	2299.74
566.89	2300.77
567.25	2301.07
567.60	2302.49
567.96	2304.14
568.31	2305.07
568.66	2306.07
569.02	2306.56
569.37	2306.94
569.72	2307.57
570.08	2307.62
570.43	2307.54
570.78	2306.92
571.14	2305.33
571.49	2304.00
571.84	2303.63
572.20	2302.47
572.55	2301.51
572.90	2300.08
573.26	2298.69
573.61	2297.07
573.96	2295.11
574.31	2292.05
574.67	2289.20
575.02	2285.52
575.37	2282.08
575.72	2278.10
576.08	2274.74
576.43	2271.26
576.78	2267.46
577.13	2264.43
577.49	2261.27
577.84	2257.68
578.19	2253.82
578.54	2250.04
578.90	2245.81
579.25	2240.36
579.60	2235.34
579.95	2230.18
580.30	2225.00
580.66	2219.71
581.01	2214.53
581.36	2209.54
581.71	2205.30
582.06	2200.64
582.42	2195.88
582.77	2190.58
583.12	2185.88
583.47	2181.10
583.82	2175.96
584.17	2170.65
584.53	2164.98
584.88	2159.20
585.23	2153.37
585.58	2147.95
585.93	2142.39
586.28	2137.52
586.63	2132.21
586.98	2127.07
587.34	2122.23
587.69	2117.33
588.04	2112.04
588.39	2106.29
588.74	2099.71
589.09	2093.49
589.44	2086.57
589.79	2080.66
590.14	2074.91
590.49	2068.33
590.84	2061.90
591.19	2055.89
591.54	2049.32
591.89	2041.68
592.25	2034.84
592.60	2027.67
592.95	2019.91
593.30	2012.49
593.65	2004.82
594.00	1997.68
594.35	1990.49
594.70	1982.55
595.05	1975.03
595.40	1967.70
595.75	1960.26
596.10	1954.02
596.45	1947.21
596.80	1941.01
597.15	1934.17
597.50	1926.96
597.85	1920.54
598.19	1913.87
598.54	1906.68
598.89	1900.18
599.24	1894.34
599.59	1887.58
599.94	1881.33
600.29	1875.01
600.64	1868.45
600.99	1860.91
601.34	1854.03
601.69	1846.96
602.04	1839.86
602.39	1832.61
602.74	1825.67
603.08	1818.87
603.43	1812.08
603.78	1804.79
604.13	1797.59
604.48	1790.34
604.83	1783.50
605.18	1776.30
605.53	1768.19
605.87	1760.15
606.22	1752.71
606.57	1744.82
606.92	1737.42
607.27	1730.12
607.62	1723.13
607.96	1715.83
608.31	1709.17
608.66	1701.63
609.01	1693.98
609.36	1686.30
609.70	1678.25
610.05	1670.21
610.40	1662.40
610.75	1654.15
611.10	1646.45
611.44	1638.16
611.79	1630.15
612.14	1621.44
612.49	1612.33
612.83	1603.95
613.18	1595.91
613.53	1587.93
613.88	1579.36
614.22	1571.25
614.57	1562.71
614.92	1554.62
615.27	1546.96
615.61	1538.57
615.96	1530.55
616.31	1523.05
616.65	1515.85
617.00	1508.32
617.35	1500.60
617.70	1492.26
618.04	1483.57
618.39	1475.28
618.74	1467.54
619.08	1459.23
619.43	1451.63
619.78	1444.76
620.12	1437.60
620.47	1429.94
620.82	1421.76
621.16	1414.42
621.51	1406.71
621.85	1399.12
622.20	1390.61
622.55	1382.27
622.89	1374.49
623.24	1366.87
623.59	1359.56
623.93	1351.98
624.28	1344.68
624.62	1337.13
624.97	1329.95
625.32	1323.30
625.66	1316.26
626.01	1309.02
626.35	1301.51
626.70	1293.83
627.04	1286.09
627.39	1278.26
627.73	1270.84
628.08	1263.76
628.43	1256.38
628.77	1248.94
629.12	1241.21
629.46	1234.24
629.81	1226.83
630.15	1219.59
630.50	1212.16
630.84	1203.85
631.19	1195.91
631.53	1188.56
631.88	1181.00
632.22	1173.43
632.57	1166.12
632.91	1158.70
633.26	1151.39
633.60	1144.03
633.95	1136.96
634.29	1129.94
634.64	1123.32
634.98	1116.00
635.32	1109.02
635.67	1102.46
636.01	1095.81
636.36	1089.17
636.70	1082.49
637.05	1076.00
637.39	1069.55
637.73	1063.09
638.08	1057.24
638.42	1051.35
638.77	1044.74
639.11	1038.27
639.45	1031.91
639.80	1025.21
640.14	1018.72
640.49	1012.15
640.83	1005.90
641.17	999.58
641.52	993.34
641.86	986.91
642.20	981.15
642.55	974.91
642.89	968.39
643.23	961.95
643.58	956.12
643.92	949.93
644.26	943.79
644.61	937.78
644.95	931.71
645.29	925.14
645.64	918.39
645.98	912.17
646.32	906.29
646.66	900.28
647.01	894.49
647.35	888.75
647.69	882.93
648.04	877.44
648.38	871.73
648.72	865.61
649.06	859.56
649.41	853.68
649.75	847.56
650.09	841.64
650.43	835.84
650.78	829.72
651.12	823.79
651.46	818.10
651.80	812.32
652.14	806.92
652.49	801.55
652.83	796.37
653.17	790.57
653.51	784.80
653.85	779.38
654.20	773.76
654.54	767.79
654.88	762.01
655.22	756.15
655.56	750.40
655.90	744.99
656.25	739.73
656.59	734.37
656.93	729.27
657.27	724.10
657.61	718.54
657.95	713.35
658.29	708.27
658.64	703.03
658.98	697.78
659.32	692.29
659.66	687.04
660.00	681.62
660.34	676.71
660.68	671.81
661.02	666.78
661.36	662.09
661.70	657.59
662.05	653.26
662.39	648.84
662.73	644.42
663.07	640.03
663.41	635.54
663.75	630.97
664.09	626.42
664.43	622.06
664.77	618.02
665.11	613.84
665.45	609.67
665.79	605.54
666.13	601.42
666.47	597.45
666.81	593.28
667.15	589.16
667.49	585.31
667.83	581.53
668.17	577.62
668.51	573.52
668.85	569.48
669.19	565.62
669.53	561.78
669.87	557.86
670.21	554.17
670.55	550.61
670.89	547.17
671.23	543.79
671.57	540.25
671.91	536.69
672.25	533.22
672.58	529.76
672.92	526.43
673.26	523.24
673.60	519.97
673.94	516.88
674.28	514.06
674.62	511.10
674.96	507.99
675.30	505.07
675.64	502.21
675.97	499.44
676.31	496.61
676.65	493.72
676.99	491.08
677.33	488.21
677.67	485.35
678.01	482.34
678.34	479.31
678.68	476.47
679.02	473.69
679.36	470.96
679.70	468.25
680.04	465.47
680.37	462.63
680.71	459.92
681.05	457.37
681.39	454.63
681.73	451.98
682.06	449.44
682.40	446.88
682.74	444.36
683.08	441.88
683.42	439.28
683.75	436.78
684.09	434.24
684.43	431.81
684.77	429.38
685.10	427.00
685.44	424.76
685.78	422.45
686.12	420.15
686.45	417.83
686.79	415.50
687.13	413.30
687.46	411.13
687.80	408.96
688.14	406.70
688.48	404.70
688.81	402.45
689.15	400.30
689.49	398.16
689.82	396.06
690.16	393.98
690.50	392.01
690.83	390.05
691.17	388.05
691.51	386.11
691.84	384.35
692.18	382.44
692.52	380.40
692.85	378.54
693.19	376.72
693.52	374.94
693.86	373.16
694.20	371.43
694.53	369.58
694.87	367.74
695.21	366.01
695.54	364.17
695.88	362.46
696.21	360.75
696.55	359.13
696.88	357.48
697.22	355.86
697.56	354.26
697.89	352.62
698.23	351.08
698.56	349.52
698.90	347.82
699.23	346.25
699.57	344.76
699.90	343.16
700.24	341.64
700.58	340.09
700.91	338.57
701.25	337.07
701.58	335.71
701.92	334.36
702.25	332.97
702.59	331.61
702.92	330.34
703.26	329.05
703.59	327.75
703.93	326.56
704.26	325.31
704.60	324.00
704.93	322.74
705.26	321.48
705.60	320.31
705.93	319.20
706.27	318.18
706.60	317.13
706.94	316.08
707.27	314.93
707.61	313.90
707.94	312.86
708.27	311.80
708.61	310.75
708.94	309.76
709.28	308.79
709.61	307.82
709.94	306.82
710.28	305.80
710.61	304.84
710.95	303.76
711.28	302.81
711.61	301.91
711.95	300.98
712.28	300.01
712.61	298.99
712.95	298.06
713.28	297.17
713.61	296.28
713.95	295.38
714.28	294.58
714.61	293.68
714.95	292.87
715.28	292.02
715.61	291.16
715.95	290.28
716.28	289.44
716.61	288.59
716.95	287.79
717.28	287.05
717.61	286.29
717.94	285.58
718.28	284.78
718.61	284.03
718.94	283.38
719.27	282.74
719.61	282.09
719.94	281.41
720.27	280.67
720.60	280.01
720.94	279.38
721.27	278.76
721.60	278.20
721.93	277.60
722.27	277.05
722.60	276.48
722.93	275.91
723.26	275.39
723.59	274.83
723.93	274.30
724.26	273.78
724.59	273.20
724.92	272.65
725.25	272.17
725.59	271.67
725.92	271.17
726.25	270.65
726.58	270.19
726.91	269.70
727.24	269.27
727.57	268.79
727.91	268.30
728.24	267.85
728.57	267.36
728.90	266.95
729.23	266.46
729.56	266.05
729.89	265.60
730.22	265.07
730.55	264.62
730.89	264.15
731.22	263.68
731.55	263.25
731.88	262.86
732.21	262.43
732.54	262.02
732.87	261.59
733.20	261.18
733.53	260.80
733.86	260.45
734.19	260.02
734.52	259.64
734.85	259.33
735.18	258.89
735.51	258.52
735.84	258.13
736.17	257.79
736.50	257.39
736.83	257.15
737.16	256.84
737.49	256.54
737.82	256.22
738.15	255.89
738.48	255.59
738.81	255.25
739.14	254.92
739.47	254.61
739.80	254.26
740.13	253.94
740.46	253.63
740.79	253.29
741.12	253.00
741.45	252.71
741.78	252.36
742.11	252.10
742.44	251.81
742.77	251.52
743.10	251.19
743.43	250.87
743.75	250.53
744.08	250.40
744.41	250.12
744.74	249.80
745.07	249.52
745.40	249.25
745.73	249.01
746.06	248.76
746.39	248.50
746.71	248.27
747.04	248.05
747.37	247.77
747.70	247.53
748.03	247.28
748.36	247.04
748.68	246.80
749.01	246.58
749.34	246.32
749.67	246.07
750.00	245.87
750.33	245.74
750.65	245.49
750.98	245.12
751.31	244.90
751.64	244.69
751.97	244.53
752.29	244.33
752.62	244.05
752.95	243.82
753.28	243.59
753.60	243.36
753.93	243.19
754.26	242.99
754.59	242.76
754.91	242.53
755.24	242.32
755.57	242.12
755.90	241.92
756.22	241.73
756.55	241.55
756.88	241.36
757.20	241.12
757.53	240.93
757.86	240.75
758.19	240.57
758.51	240.41
758.84	240.22
759.17	240.03
759.49	239.88
759.82	239.77
760.15	239.63
760.47	239.49
760.80	239.30
761.13	239.16
761.45	239.02
761.78	238.92
762.11	238.79
762.43	238.65
762.76	238.47
763.08	238.35
763.41	238.21
763.74	238.06
764.06	237.90
764.39	237.78
764.71	237.64
765.04	237.53
765.37	237.40
765.69	237.26
766.02	237.14
766.34	237.01
766.67	236.83
767.00	236.72
767.32	236.64
767.65	236.57
767.97	236.45
768.30	236.33
768.62	236.20
768.95	236.07
769.27	235.95
769.60	235.86
769.92	235.74
770.25	235.60
770.57	235.51
770.90	235.42
771.22	235.30
771.55	235.20
771.87	235.08
772.20	234.98
772.52	234.96
772.85	234.95
773.17	234.86
773.50	234.79
773.82	234.70
774.15	234.54
774.47	234.41
774.80	234.32
775.12	234.26
775.45	234.14
775.77	234.06
776.09	233.99
776.42	233.95
776.74	233.90
777.07	233.83
777.39	233.71
777.72	233.59
778.04	233.53
778.36	233.46
778.69	233.41
779.01	233.34
779.33	233.22
779.66	233.07
779.98	233.01
780.31	232.95
780.63	232.93
780.95	232.93
781.28	232.86
781.60	232.75
781.92	232.68
782.25	232.68
782.57	232.61
782.89	232.54
783.22	232.46
783.54	232.39
783.86	232.37
784.19	232.34
784.51	232.34
784.83	232.24
785.16	232.20
785.48	232.15
785.80	232.11
786.12	232.03
786.45	231.96
786.77	231.90
787.09	231.86
