SpectraSuite Data File
++++++++++++++++++++++++++++++++++++
Date: Fri Feb 01 17:59:09 EST 2013
User: group
Dark Spectrum Present: No
Reference Spectrum Present: No
Number of Sampled Component Spectra: 1
Spectrometers: USB2E7196
Integration Time (usec): 35000 (USB2E7196)
Spectra Averaged: 100 (USB2E7196)
Boxcar Smoothing: 10 (USB2E7196)
Correct for Electrical Dark: No (USB2E7196)
Strobe/Lamp Enabled: No (USB2E7196)
Correct for Detector Non-linearity: No (USB2E7196)
Correct for Stray Light: No (USB2E7196)
Number of Pixels in Processed Spectrum: 2048
>>>>>Begin Processed Spectral Data<<<<<
339.09	0.00
339.48	212.38
339.86	214.45
340.24	215.82
340.63	217.12
341.01	219.87
341.39	219.49
341.78	221.25
342.16	222.12
342.54	222.27
342.93	211.18
343.31	221.84
343.69	222.39
344.07	222.84
344.46	223.24
344.84	223.61
345.22	223.82
345.60	224.08
345.99	224.25
346.37	224.37
346.75	224.49
347.13	224.57
347.52	224.65
347.90	224.72
348.28	224.74
348.66	224.78
349.05	224.79
349.43	224.82
349.81	224.85
350.19	224.91
350.57	224.93
350.96	224.99
351.34	225.11
351.72	225.21
352.10	225.31
352.48	225.38
352.87	225.46
353.25	225.58
353.63	225.65
354.01	225.74
354.39	225.85
354.77	225.96
355.15	226.05
355.54	226.13
355.92	226.18
356.30	226.28
356.68	226.43
357.06	226.50
357.44	226.57
357.82	226.63
358.20	226.73
358.58	226.82
358.97	226.92
359.35	227.00
359.73	227.06
360.11	227.16
360.49	227.23
360.87	227.28
361.25	227.33
361.63	227.42
362.01	227.46
362.39	227.48
362.77	227.51
363.15	227.51
363.53	227.54
363.91	227.60
364.29	227.62
364.67	227.55
365.05	227.60
365.43	227.61
365.81	227.64
366.19	227.69
366.57	227.72
366.95	227.71
367.33	227.69
367.71	227.68
368.09	227.67
368.47	227.65
368.85	227.63
369.23	227.60
369.61	227.55
369.99	227.58
370.37	227.58
370.75	227.60
371.13	227.57
371.51	227.52
371.89	227.50
372.27	227.46
372.65	227.40
373.03	227.32
373.41	227.27
373.78	227.21
374.16	227.09
374.54	227.02
374.92	226.95
375.30	226.88
375.68	226.83
376.06	226.77
376.44	226.72
376.82	226.69
377.19	226.63
377.57	226.54
377.95	226.43
378.33	226.37
378.71	226.24
379.09	226.20
379.47	226.17
379.84	226.04
380.22	225.97
380.60	225.89
380.98	225.83
381.36	225.79
381.73	225.70
382.11	225.66
382.49	225.59
382.87	225.52
383.25	225.48
383.62	225.50
384.00	225.45
384.38	225.37
384.76	225.31
385.13	225.32
385.51	225.25
385.89	225.20
386.27	225.16
386.64	225.17
387.02	225.12
387.40	225.05
387.78	225.05
388.15	225.01
388.53	225.00
388.91	224.98
389.29	224.95
389.66	224.98
390.04	224.96
390.42	224.98
390.79	224.98
391.17	224.97
391.55	224.84
391.92	224.82
392.30	224.84
392.68	224.81
393.05	224.80
393.43	224.82
393.81	224.82
394.18	224.82
394.56	224.79
394.94	224.83
395.31	224.85
395.69	224.91
396.06	224.94
396.44	224.94
396.82	224.98
397.19	225.03
397.57	225.04
397.95	225.08
398.32	225.07
398.70	225.11
399.07	225.16
399.45	225.22
399.82	225.28
400.20	225.32
400.58	225.41
400.95	225.42
401.33	225.50
401.70	225.65
402.08	225.72
402.45	225.78
402.83	225.86
403.20	225.96
403.58	226.03
403.95	226.15
404.33	226.33
404.71	226.44
405.08	226.63
405.46	226.78
405.83	226.94
406.21	227.11
406.58	227.31
406.96	227.48
407.33	227.69
407.70	227.94
408.08	228.24
408.45	228.50
408.83	228.80
409.20	229.05
409.58	229.28
409.95	229.60
410.33	229.97
410.70	230.29
411.08	230.66
411.45	231.10
411.82	231.50
412.20	231.94
412.57	232.46
412.95	232.87
413.32	233.38
413.69	233.93
414.07	234.51
414.44	235.14
414.82	235.79
415.19	236.54
415.56	237.23
415.94	237.99
416.31	238.84
416.68	239.64
417.06	240.57
417.43	241.49
417.81	242.54
418.18	243.57
418.55	244.72
418.93	245.88
419.30	247.07
419.67	248.33
420.04	249.62
420.42	250.94
420.79	252.55
421.16	254.13
421.54	255.74
421.91	257.35
422.28	259.02
422.66	260.84
423.03	262.54
423.40	264.38
423.77	266.28
424.15	268.21
424.52	270.23
424.89	272.43
425.26	274.55
425.64	276.50
426.01	278.65
426.38	280.86
426.75	283.13
427.13	285.48
427.50	287.96
427.87	290.52
428.24	293.05
428.61	295.37
428.99	297.98
429.36	300.79
429.73	303.56
430.10	306.29
430.47	309.02
430.85	311.90
431.22	314.87
431.59	318.02
431.96	321.08
432.33	324.41
432.70	327.59
433.08	331.30
433.45	334.81
433.82	338.30
434.19	342.22
434.56	345.98
434.93	349.53
435.30	353.04
435.68	356.91
436.05	360.74
436.42	364.53
436.79	367.91
437.16	371.54
437.53	375.41
437.90	379.18
438.27	382.89
438.64	386.72
439.01	390.22
439.38	393.23
439.75	396.07
440.13	399.47
440.50	402.62
440.87	405.18
441.24	407.85
441.61	410.77
441.98	412.73
442.35	415.18
442.72	417.72
443.09	420.20
443.46	421.54
443.83	422.35
444.20	423.04
444.57	424.19
444.94	424.64
445.31	425.11
445.68	425.52
446.05	425.68
446.42	425.17
446.79	424.58
447.16	424.04
447.53	423.69
447.90	422.10
448.27	420.59
448.64	418.42
449.01	416.93
449.37	414.28
449.74	411.78
450.11	408.72
450.48	405.36
450.85	401.91
451.22	398.98
451.59	396.25
451.96	393.68
452.33	390.16
452.70	386.92
453.07	383.10
453.43	379.30
453.80	375.51
454.17	371.92
454.54	368.50
454.91	364.83
455.28	361.17
455.65	357.86
456.02	354.50
456.38	351.61
456.75	348.03
457.12	345.03
457.49	342.03
457.86	339.12
458.23	336.58
458.59	333.81
458.96	331.03
459.33	328.52
459.70	325.93
460.07	323.85
460.43	321.54
460.80	319.35
461.17	317.38
461.54	315.39
461.91	313.46
462.27	311.49
462.64	309.81
463.01	307.96
463.38	306.15
463.74	304.30
464.11	302.74
464.48	301.34
464.85	299.80
465.21	298.61
465.58	297.38
465.95	295.91
466.32	294.66
466.68	293.40
467.05	292.19
467.42	290.98
467.78	289.70
468.15	288.46
468.52	287.52
468.88	286.32
469.25	285.26
469.62	284.40
469.98	283.45
470.35	282.58
470.72	281.80
471.08	280.94
471.45	280.18
471.82	279.42
472.18	278.55
472.55	277.91
472.92	277.17
473.28	276.48
473.65	275.87
474.02	275.25
474.38	274.75
474.75	274.25
475.11	273.76
475.48	273.41
475.85	273.10
476.21	272.78
476.58	272.51
476.94	272.23
477.31	271.94
477.67	271.72
478.04	271.54
478.41	271.37
478.77	271.31
479.14	271.18
479.50	271.11
479.87	271.12
480.23	271.18
480.60	271.19
480.96	271.21
481.33	271.38
481.69	271.51
482.06	271.66
482.42	271.80
482.79	272.01
483.15	272.29
483.52	272.65
483.88	272.94
484.25	273.28
484.61	273.69
484.98	274.10
485.34	274.67
485.71	275.22
486.07	275.79
486.44	276.37
486.80	277.12
487.17	277.83
487.53	278.65
487.90	279.51
488.26	280.49
488.62	281.51
488.99	282.50
489.35	283.66
489.72	284.81
490.08	286.10
490.44	287.39
490.81	288.77
491.17	290.17
491.54	291.75
491.90	293.38
492.26	295.12
492.63	296.95
492.99	298.83
493.36	300.84
493.72	303.04
494.08	305.29
494.45	307.61
494.81	310.13
495.17	312.72
495.54	315.43
495.90	318.23
496.26	321.16
496.63	324.25
496.99	327.49
497.35	330.96
497.72	334.56
498.08	338.28
498.44	342.14
498.80	346.26
499.17	350.54
499.53	354.94
499.89	359.57
500.26	364.33
500.62	369.24
500.98	374.53
501.34	379.84
501.71	385.43
502.07	391.22
502.43	397.18
502.79	403.33
503.16	409.72
503.52	416.44
503.88	423.28
504.24	430.36
504.60	437.69
504.97	445.27
505.33	453.03
505.69	461.28
506.05	469.59
506.41	477.99
506.78	486.68
507.14	495.73
507.50	505.03
507.86	514.66
508.22	524.46
508.59	534.29
508.95	544.50
509.31	555.03
509.67	565.84
510.03	576.86
510.39	588.20
510.75	599.80
511.12	611.47
511.48	623.68
511.84	635.96
512.20	648.26
512.56	661.05
512.92	674.11
513.28	687.32
513.64	700.66
514.00	714.40
514.37	728.29
514.73	742.33
515.09	756.30
515.45	770.61
515.81	785.32
516.17	800.32
516.53	815.65
516.89	830.93
517.25	846.21
517.61	861.78
517.97	877.47
518.33	893.17
518.69	909.11
519.05	925.23
519.41	941.68
519.77	958.53
520.13	975.39
520.49	992.15
520.85	1008.95
521.21	1026.11
521.57	1043.80
521.93	1061.00
522.29	1078.81
522.65	1096.64
523.01	1114.39
523.37	1131.87
523.73	1149.67
524.09	1167.38
524.45	1185.36
524.81	1203.64
525.17	1222.08
525.53	1240.58
525.89	1259.01
526.25	1277.64
526.61	1295.82
526.97	1314.32
527.33	1332.55
527.68	1350.81
528.04	1369.08
528.40	1387.45
528.76	1406.33
529.12	1424.67
529.48	1443.41
529.84	1461.33
530.20	1479.88
530.56	1498.79
530.91	1518.26
531.27	1536.94
531.63	1555.33
531.99	1573.90
532.35	1591.98
532.71	1609.90
533.07	1628.18
533.42	1646.18
533.78	1664.40
534.14	1682.59
534.50	1699.96
534.86	1717.92
535.21	1735.22
535.57	1753.31
535.93	1771.01
536.29	1788.02
536.65	1805.25
537.00	1822.11
537.36	1839.55
537.72	1856.26
538.08	1872.85
538.44	1888.75
538.79	1904.78
539.15	1920.38
539.51	1936.12
539.87	1952.61
540.22	1968.47
540.58	1984.57
540.94	2000.04
541.29	2014.90
541.65	2029.98
542.01	2045.39
542.37	2060.02
542.72	2074.73
543.08	2088.69
543.44	2103.26
543.79	2116.71
544.15	2129.94
544.51	2143.94
544.87	2157.16
545.22	2170.27
545.58	2182.82
545.94	2194.74
546.29	2206.84
546.65	2219.21
547.01	2230.83
547.36	2241.68
547.72	2252.33
548.07	2262.16
548.43	2272.42
548.79	2282.41
549.14	2291.97
549.50	2301.20
549.86	2310.90
550.21	2320.22
550.57	2329.39
550.92	2338.09
551.28	2347.12
551.64	2356.22
551.99	2364.58
552.35	2372.66
552.70	2380.63
553.06	2388.47
553.41	2396.76
553.77	2404.58
554.13	2412.31
554.48	2420.19
554.84	2427.63
555.19	2434.70
555.55	2441.66
555.90	2448.01
556.26	2455.03
556.61	2461.32
556.97	2467.50
557.32	2473.17
557.68	2478.85
558.03	2484.81
558.39	2489.90
558.74	2496.09
559.10	2501.48
559.45	2506.48
559.81	2512.28
560.16	2517.51
560.52	2522.14
560.87	2526.88
561.23	2530.82
561.58	2534.93
561.94	2538.86
562.29	2542.29
562.64	2546.41
563.00	2550.36
563.35	2555.15
563.71	2559.26
564.06	2563.83
564.42	2568.05
564.77	2571.93
565.12	2575.64
565.48	2578.76
565.83	2581.89
566.19	2584.43
566.54	2586.25
566.89	2588.64
567.25	2590.36
567.60	2592.72
567.96	2595.51
568.31	2597.41
568.66	2599.70
569.02	2601.32
569.37	2602.45
569.72	2604.33
570.08	2605.42
570.43	2606.13
570.78	2606.36
571.14	2605.43
571.49	2604.59
571.84	2604.85
572.20	2604.36
572.55	2603.82
572.90	2602.53
573.26	2601.58
573.61	2600.10
573.96	2598.88
574.31	2596.07
574.67	2593.27
575.02	2589.83
575.37	2586.59
575.72	2582.96
576.08	2579.58
576.43	2576.43
576.78	2572.94
577.13	2569.75
577.49	2566.37
577.84	2562.92
578.19	2559.08
578.54	2555.60
578.90	2551.54
579.25	2545.66
579.60	2540.44
579.95	2535.02
580.30	2529.79
580.66	2524.36
581.01	2519.20
581.36	2513.97
581.71	2509.73
582.06	2504.98
582.42	2500.39
582.77	2494.69
583.12	2489.85
583.47	2484.98
583.82	2479.64
584.17	2473.88
584.53	2467.95
584.88	2461.94
585.23	2455.69
585.58	2449.59
585.93	2443.52
586.28	2438.15
586.63	2432.63
586.98	2427.05
587.34	2421.92
587.69	2416.58
588.04	2410.85
588.39	2404.61
588.74	2397.43
589.09	2390.59
589.44	2383.03
589.79	2376.08
590.14	2369.89
590.49	2362.51
590.84	2355.30
591.19	2348.58
591.54	2341.41
591.89	2333.35
592.25	2325.77
592.60	2317.61
592.95	2309.30
593.30	2301.06
593.65	2292.45
594.00	2284.51
594.35	2276.20
594.70	2267.14
595.05	2259.12
595.40	2250.78
595.75	2242.17
596.10	2235.24
596.45	2227.63
596.80	2220.61
597.15	2213.23
597.50	2205.26
597.85	2197.78
598.19	2190.21
598.54	2182.24
598.89	2174.58
599.24	2167.60
599.59	2159.96
599.94	2152.81
600.29	2145.42
600.64	2137.72
600.99	2129.26
601.34	2121.48
601.69	2113.53
602.04	2105.66
602.39	2097.18
602.74	2089.35
603.08	2081.66
603.43	2073.64
603.78	2065.03
604.13	2056.79
604.48	2048.27
604.83	2040.27
605.18	2032.35
605.53	2023.08
605.87	2013.69
606.22	2005.24
606.57	1995.96
606.92	1987.27
607.27	1979.07
607.62	1971.07
607.96	1962.75
608.31	1955.05
608.66	1946.05
609.01	1937.22
609.36	1928.41
609.70	1918.95
610.05	1909.51
610.40	1900.64
610.75	1891.09
611.10	1882.19
611.44	1872.12
611.79	1862.77
612.14	1852.52
612.49	1841.74
612.83	1831.89
613.18	1822.31
613.53	1812.82
613.88	1802.87
614.22	1793.12
614.57	1782.83
614.92	1773.35
615.27	1764.51
615.61	1754.70
615.96	1745.33
616.31	1736.33
616.65	1727.58
617.00	1718.72
617.35	1709.62
617.70	1699.72
618.04	1689.65
618.39	1679.97
618.74	1671.19
619.08	1661.40
619.43	1652.35
619.78	1644.13
620.12	1635.73
620.47	1626.93
620.82	1617.27
621.16	1608.43
621.51	1599.42
621.85	1590.53
622.20	1580.51
622.55	1570.51
622.89	1561.27
623.24	1552.23
623.59	1543.41
623.93	1534.53
624.28	1525.96
624.62	1517.21
624.97	1508.65
625.32	1500.62
625.66	1492.25
626.01	1483.83
626.35	1475.18
626.70	1466.19
627.04	1457.18
627.39	1447.88
627.73	1439.08
628.08	1430.92
628.43	1422.55
628.77	1413.95
629.12	1405.04
629.46	1396.56
629.81	1387.78
630.15	1379.36
630.50	1370.69
630.84	1361.20
631.19	1351.79
631.53	1343.00
631.88	1333.94
632.22	1325.07
632.57	1316.48
632.91	1307.69
633.26	1298.89
633.60	1290.12
633.95	1281.67
634.29	1273.34
634.64	1265.60
634.98	1256.90
635.32	1248.65
635.67	1240.80
636.01	1233.07
636.36	1225.21
636.70	1217.53
637.05	1210.07
637.39	1202.43
637.73	1194.87
638.08	1187.92
638.42	1181.02
638.77	1173.43
639.11	1165.99
639.45	1158.54
639.80	1150.83
640.14	1143.43
640.49	1135.94
640.83	1128.67
641.17	1121.49
641.52	1114.12
641.86	1106.64
642.20	1099.98
642.55	1092.45
642.89	1084.93
643.23	1077.30
643.58	1070.55
643.92	1063.43
644.26	1056.38
644.61	1049.40
644.95	1042.35
645.29	1034.73
645.64	1026.88
645.98	1019.50
646.32	1012.50
646.66	1005.45
647.01	998.73
647.35	992.05
647.69	985.09
648.04	978.61
648.38	971.94
648.72	965.12
649.06	957.97
649.41	951.15
649.75	944.39
650.09	937.50
650.43	930.87
650.78	923.64
651.12	916.68
651.46	909.96
651.80	903.29
652.14	897.02
652.49	890.85
652.83	884.83
653.17	878.33
653.51	871.78
653.85	865.47
654.20	858.97
654.54	851.98
654.88	845.40
655.22	838.57
655.56	831.91
655.90	825.45
656.25	819.45
656.59	813.16
656.93	807.25
657.27	801.31
657.61	794.98
657.95	789.16
658.29	783.29
658.64	777.19
658.98	771.00
659.32	764.69
659.66	758.76
660.00	752.67
660.34	746.91
660.68	741.20
661.02	735.44
661.36	729.94
661.70	724.80
662.05	719.74
662.39	714.68
662.73	709.44
663.07	704.42
663.41	699.29
663.75	694.18
664.09	688.84
664.43	683.76
664.77	679.04
665.11	674.14
665.45	669.38
665.79	664.68
666.13	659.98
666.47	655.30
666.81	650.41
667.15	645.62
667.49	641.09
667.83	636.67
668.17	632.15
668.51	627.41
668.85	622.71
669.19	618.20
669.53	613.82
669.87	609.42
670.21	605.11
670.55	600.86
670.89	596.83
671.23	592.98
671.57	588.85
671.91	584.75
672.25	580.70
672.58	576.63
672.92	572.63
673.26	568.93
673.60	565.17
673.94	561.52
674.28	558.15
674.62	554.75
674.96	551.17
675.30	547.86
675.64	544.51
675.97	541.27
676.31	538.03
676.65	534.68
676.99	531.58
677.33	528.27
677.67	525.03
678.01	521.59
678.34	518.12
678.68	514.86
679.02	511.56
679.36	508.31
679.70	505.21
680.04	502.17
680.37	498.91
680.71	495.79
681.05	492.83
681.39	489.73
681.73	486.69
682.06	483.81
682.40	480.83
682.74	477.89
683.08	475.00
683.42	471.98
683.75	469.15
684.09	466.22
684.43	463.43
684.77	460.62
685.10	457.84
685.44	455.17
685.78	452.51
686.12	449.90
686.45	447.28
686.79	444.64
687.13	442.03
687.46	439.51
687.80	437.01
688.14	434.47
688.48	432.05
688.81	429.45
689.15	426.94
689.49	424.46
689.82	422.05
690.16	419.58
690.50	417.35
690.83	415.04
691.17	412.75
691.51	410.52
691.84	408.31
692.18	406.17
692.52	403.84
692.85	401.58
693.19	399.44
693.52	397.30
693.86	395.13
694.20	393.04
694.53	390.97
694.87	388.81
695.21	386.70
695.54	384.57
695.88	382.56
696.21	380.55
696.55	378.59
696.88	376.63
697.22	374.76
697.56	372.88
697.89	371.00
698.23	369.12
698.56	367.22
698.90	365.44
699.23	363.49
699.57	361.70
699.90	359.91
700.24	358.09
700.58	356.35
700.91	354.61
701.25	352.91
701.58	351.27
701.92	349.68
702.25	348.11
702.59	346.55
702.92	345.01
703.26	343.52
703.59	342.06
703.93	340.71
704.26	339.23
704.60	337.70
704.93	336.20
705.26	334.75
705.60	333.30
705.93	331.96
706.27	330.75
706.60	329.53
706.94	328.29
707.27	327.02
707.61	325.73
707.94	324.55
708.27	323.31
708.61	322.07
708.94	320.89
709.28	319.72
709.61	318.58
709.94	317.42
710.28	316.18
710.61	315.02
710.95	313.73
711.28	312.68
711.61	311.60
711.95	310.52
712.28	309.43
712.61	308.32
712.95	307.21
713.28	306.19
713.61	305.11
713.95	304.08
714.28	303.10
714.61	302.11
714.95	301.10
715.28	300.10
715.61	299.13
715.95	298.12
716.28	297.11
716.61	296.15
716.95	295.26
717.28	294.41
717.61	293.53
717.94	292.73
718.28	291.80
718.61	290.90
718.94	290.10
719.27	289.33
719.61	288.63
719.94	287.88
720.27	287.02
720.60	286.28
720.94	285.57
721.27	284.90
721.60	284.25
721.93	283.55
722.27	282.94
722.60	282.30
722.93	281.68
723.26	281.10
723.59	280.47
723.93	279.84
724.26	279.20
724.59	278.56
724.92	277.92
725.25	277.38
725.59	276.79
725.92	276.23
726.25	275.65
726.58	275.07
726.91	274.52
727.24	273.97
727.57	273.44
727.91	272.87
728.24	272.31
728.57	271.71
728.90	271.21
729.23	270.64
729.56	270.12
729.89	269.57
730.22	269.02
730.55	268.48
730.89	267.97
731.22	267.48
731.55	266.97
731.88	266.50
732.21	265.96
732.54	265.48
732.87	264.97
733.20	264.49
733.53	264.05
733.86	263.61
734.19	263.14
734.52	262.66
734.85	262.25
735.18	261.79
735.51	261.38
735.84	260.93
736.17	260.51
736.50	260.03
736.83	259.73
737.16	259.32
737.49	258.93
737.82	258.53
738.15	258.15
738.48	257.75
738.81	257.36
739.14	257.00
739.47	256.62
739.80	256.25
740.13	255.91
740.46	255.53
740.79	255.12
741.12	254.78
741.45	254.43
741.78	254.04
742.11	253.69
742.44	253.32
742.77	253.02
743.10	252.69
743.43	252.32
743.75	251.89
744.08	251.70
744.41	251.39
744.74	251.03
745.07	250.68
745.40	250.39
745.73	250.10
746.06	249.78
746.39	249.48
746.71	249.17
747.04	248.82
747.37	248.53
747.70	248.27
748.03	247.96
748.36	247.66
748.68	247.39
749.01	247.10
749.34	246.84
749.67	246.57
750.00	246.30
750.33	246.14
750.65	245.87
750.98	245.50
751.31	245.24
751.64	245.03
751.97	244.83
752.29	244.58
752.62	244.28
752.95	244.03
753.28	243.76
753.60	243.51
753.93	243.30
754.26	243.05
754.59	242.79
754.91	242.56
755.24	242.35
755.57	242.14
755.90	241.93
756.22	241.68
756.55	241.40
756.88	241.20
757.20	240.89
757.53	240.67
757.86	240.48
758.19	240.31
758.51	240.12
758.84	239.90
759.17	239.69
759.49	239.56
759.82	239.42
760.15	239.28
760.47	239.12
760.80	238.93
761.13	238.81
761.45	238.62
761.78	238.44
762.11	238.30
762.43	238.11
762.76	237.98
763.08	237.86
763.41	237.74
763.74	237.58
764.06	237.45
764.39	237.33
764.71	237.15
765.04	236.98
765.37	236.79
765.69	236.67
766.02	236.53
766.34	236.38
766.67	236.22
767.00	236.11
767.32	236.02
767.65	235.93
767.97	235.77
768.30	235.64
768.62	235.53
768.95	235.36
769.27	235.28
769.60	235.14
769.92	235.02
770.25	234.90
770.57	234.76
770.90	234.66
771.22	234.52
771.55	234.42
771.87	234.30
772.20	234.18
772.52	234.14
772.85	234.17
773.17	234.04
773.50	233.92
773.82	233.78
774.15	233.64
774.47	233.51
774.80	233.40
775.12	233.29
775.45	233.16
775.77	233.07
776.09	232.99
776.42	232.88
776.74	232.77
777.07	232.67
777.39	232.58
777.72	232.47
778.04	232.42
778.36	232.30
778.69	232.24
779.01	232.18
779.33	231.99
779.66	231.79
779.98	231.72
780.31	231.64
780.63	231.61
780.95	231.55
781.28	231.46
781.60	231.41
781.92	231.36
782.25	231.31
782.57	231.22
782.89	231.14
783.22	231.03
783.54	230.97
783.86	230.91
784.19	230.82
784.51	230.77
784.83	230.66
785.16	230.62
785.48	230.56
785.80	230.48
786.12	230.46
786.45	230.40
