SpectraSuite Data File
++++++++++++++++++++++++++++++++++++
Date: Fri Feb 01 15:06:43 EST 2013
User: group
Dark Spectrum Present: No
Reference Spectrum Present: No
Number of Sampled Component Spectra: 1
Spectrometers: USB2E7196
Integration Time (usec): 35000 (USB2E7196)
Spectra Averaged: 100 (USB2E7196)
Boxcar Smoothing: 10 (USB2E7196)
Correct for Electrical Dark: No (USB2E7196)
Strobe/Lamp Enabled: No (USB2E7196)
Correct for Detector Non-linearity: No (USB2E7196)
Correct for Stray Light: No (USB2E7196)
Number of Pixels in Processed Spectrum: 2048
>>>>>Begin Processed Spectral Data<<<<<
339.09	0.00
339.48	214.92
339.86	216.75
340.24	218.08
340.63	219.37
341.01	222.72
341.39	222.51
341.78	223.40
342.16	224.88
342.54	225.27
342.93	213.63
343.31	224.41
343.69	224.96
344.07	225.45
344.46	225.86
344.84	226.25
345.22	226.47
345.60	226.72
345.99	226.91
346.37	227.03
346.75	227.15
347.13	227.22
347.52	227.25
347.90	227.34
348.28	227.38
348.66	227.42
349.05	227.43
349.43	227.44
349.81	227.45
350.19	227.49
350.57	227.53
350.96	227.60
351.34	227.67
351.72	227.75
352.10	227.79
352.48	227.90
352.87	227.94
353.25	228.01
353.63	228.05
354.01	228.10
354.39	228.18
354.77	228.23
355.15	228.27
355.54	228.31
355.92	228.34
356.30	228.39
356.68	228.53
357.06	228.59
357.44	228.66
357.82	228.75
358.20	228.84
358.58	228.88
358.97	228.94
359.35	229.02
359.73	229.09
360.11	229.14
360.49	229.16
360.87	229.21
361.25	229.25
361.63	229.31
362.01	229.36
362.39	229.38
362.77	229.42
363.15	229.45
363.53	229.49
363.91	229.51
364.29	229.53
364.67	229.44
365.05	229.43
365.43	229.43
365.81	229.46
366.19	229.49
366.57	229.50
366.95	229.51
367.33	229.46
367.71	229.45
368.09	229.46
368.47	229.45
368.85	229.40
369.23	229.37
369.61	229.32
369.99	229.31
370.37	229.30
370.75	229.27
371.13	229.20
371.51	229.16
371.89	229.10
372.27	229.06
372.65	229.05
373.03	228.99
373.41	228.97
373.78	228.85
374.16	228.73
374.54	228.64
374.92	228.56
375.30	228.53
375.68	228.43
376.06	228.34
376.44	228.27
376.82	228.20
377.19	228.13
377.57	228.05
377.95	227.96
378.33	227.83
378.71	227.74
379.09	227.68
379.47	227.60
379.84	227.55
380.22	227.48
380.60	227.36
380.98	227.26
381.36	227.14
381.73	227.11
382.11	227.07
382.49	227.04
382.87	226.93
383.25	226.85
383.62	226.90
384.00	226.83
384.38	226.77
384.76	226.73
385.13	226.74
385.51	226.65
385.89	226.57
386.27	226.55
386.64	226.49
387.02	226.45
387.40	226.41
387.78	226.34
388.15	226.28
388.53	226.29
388.91	226.28
389.29	226.22
389.66	226.18
390.04	226.14
390.42	226.11
390.79	226.13
391.17	226.10
391.55	226.00
391.92	226.00
392.30	225.99
392.68	225.99
393.05	225.96
393.43	226.00
393.81	226.00
394.18	225.99
394.56	226.02
394.94	226.03
395.31	226.04
395.69	226.11
396.06	226.16
396.44	226.15
396.82	226.17
397.19	226.32
397.57	226.38
397.95	226.44
398.32	226.48
398.70	226.55
399.07	226.65
399.45	226.71
399.82	226.81
400.20	226.90
400.58	226.99
400.95	227.01
401.33	227.13
401.70	227.33
402.08	227.44
402.45	227.52
402.83	227.68
403.20	227.78
403.58	227.90
403.95	228.06
404.33	228.22
404.71	228.39
405.08	228.55
405.46	228.68
405.83	228.86
406.21	229.01
406.58	229.16
406.96	229.33
407.33	229.52
407.70	229.71
408.08	229.97
408.45	230.20
408.83	230.50
409.20	230.71
409.58	230.89
409.95	231.16
410.33	231.46
410.70	231.71
411.08	232.05
411.45	232.35
411.82	232.67
412.20	233.03
412.57	233.45
412.95	233.77
413.32	234.24
413.69	234.59
414.07	235.06
414.44	235.55
414.82	236.08
415.19	236.61
415.56	237.18
415.94	237.75
416.31	238.43
416.68	239.02
417.06	239.74
417.43	240.43
417.81	241.23
418.18	242.00
418.55	242.86
418.93	243.76
419.30	244.68
419.67	245.61
420.04	246.59
420.42	247.59
420.79	248.80
421.16	249.95
421.54	251.21
421.91	252.44
422.28	253.72
422.66	255.02
423.03	256.36
423.40	257.67
423.77	259.06
424.15	260.44
424.52	261.96
424.89	263.60
425.26	265.16
425.64	266.60
426.01	268.19
426.38	269.84
426.75	271.49
427.13	273.22
427.50	275.02
427.87	276.91
428.24	278.77
428.61	280.52
428.99	282.42
429.36	284.50
429.73	286.56
430.10	288.57
430.47	290.63
430.85	292.72
431.22	294.95
431.59	297.33
431.96	299.58
432.33	302.07
432.70	304.46
433.08	307.28
433.45	309.96
433.82	312.58
434.19	315.48
434.56	318.28
434.93	320.92
435.30	323.55
435.68	326.44
436.05	329.25
436.42	332.01
436.79	334.53
437.16	337.21
437.53	340.06
437.90	342.90
438.27	345.63
438.64	348.47
439.01	351.10
439.38	353.33
439.75	355.50
440.13	357.98
440.50	360.31
440.87	362.17
441.24	364.10
441.61	366.23
441.98	367.70
442.35	369.50
442.72	371.40
443.09	373.22
443.46	374.18
443.83	374.80
444.20	375.32
444.57	376.16
444.94	376.43
445.31	376.73
445.68	377.09
446.05	377.15
446.42	376.77
446.79	376.32
447.16	375.85
447.53	375.54
447.90	374.37
448.27	373.24
448.64	371.60
449.01	370.43
449.37	368.48
449.74	366.64
450.11	364.36
450.48	361.86
450.85	359.27
451.22	357.15
451.59	355.12
451.96	353.17
452.33	350.59
452.70	348.25
453.07	345.42
453.43	342.49
453.80	339.73
454.17	337.09
454.54	334.57
454.91	331.87
455.28	329.17
455.65	326.68
456.02	324.21
456.38	322.10
456.75	319.45
457.12	317.23
457.49	314.99
457.86	312.86
458.23	311.02
458.59	309.04
458.96	306.97
459.33	305.12
459.70	303.22
460.07	301.72
460.43	299.99
460.80	298.39
461.17	296.95
461.54	295.48
461.91	294.03
462.27	292.58
462.64	291.31
463.01	289.98
463.38	288.68
463.74	287.28
464.11	286.08
464.48	285.06
464.85	283.94
465.21	283.06
465.58	282.15
465.95	281.03
466.32	280.10
466.68	279.15
467.05	278.20
467.42	277.33
467.78	276.38
468.15	275.54
468.52	274.84
468.88	273.96
469.25	273.16
469.62	272.52
469.98	271.82
470.35	271.20
470.72	270.58
471.08	269.93
471.45	269.39
471.82	268.88
472.18	268.24
472.55	267.79
472.92	267.27
473.28	266.74
473.65	266.26
474.02	265.81
474.38	265.44
474.75	265.13
475.11	264.76
475.48	264.47
475.85	264.22
476.21	263.99
476.58	263.78
476.94	263.63
477.31	263.46
477.67	263.33
478.04	263.18
478.41	263.10
478.77	263.12
479.14	263.02
479.50	262.97
479.87	263.05
480.23	263.07
480.60	263.09
480.96	263.20
481.33	263.39
481.69	263.57
482.06	263.75
482.42	263.93
482.79	264.19
483.15	264.49
483.52	264.87
483.88	265.19
484.25	265.56
484.61	265.98
484.98	266.40
485.34	266.93
485.71	267.50
486.07	268.10
486.44	268.61
486.80	269.32
487.17	270.07
487.53	270.88
487.90	271.72
488.26	272.69
488.62	273.66
488.99	274.58
489.35	275.57
489.72	276.69
490.08	277.88
490.44	279.08
490.81	280.41
491.17	281.75
491.54	283.21
491.90	284.75
492.26	286.36
492.63	288.08
492.99	289.84
493.36	291.76
493.72	293.81
494.08	295.92
494.45	298.18
494.81	300.53
495.17	302.94
495.54	305.51
495.90	308.17
496.26	310.99
496.63	314.01
496.99	317.14
497.35	320.39
497.72	323.79
498.08	327.32
498.44	330.99
498.80	334.87
499.17	338.93
499.53	343.11
499.89	347.48
500.26	352.01
500.62	356.69
500.98	361.63
501.34	366.69
501.71	372.03
502.07	377.46
502.43	383.06
502.79	388.81
503.16	394.87
503.52	401.03
503.88	407.46
504.24	414.11
504.60	421.07
504.97	428.19
505.33	435.49
505.69	443.19
506.05	450.92
506.41	458.82
506.78	466.99
507.14	475.40
507.50	484.17
507.86	493.15
508.22	502.28
508.59	511.48
508.95	521.01
509.31	530.76
509.67	540.87
510.03	551.17
510.39	561.81
510.75	572.61
511.12	583.66
511.48	594.97
511.84	606.34
512.20	617.76
512.56	629.66
512.92	641.86
513.28	654.21
513.64	666.73
514.00	679.37
514.37	692.25
514.73	705.37
515.09	718.38
515.45	731.70
515.81	745.39
516.17	759.37
516.53	773.50
516.89	787.70
517.25	801.76
517.61	816.19
517.97	830.75
518.33	845.25
518.69	860.12
519.05	875.14
519.41	890.36
519.77	906.00
520.13	921.52
520.49	936.91
520.85	952.37
521.21	968.20
521.57	984.63
521.93	1000.49
522.29	1016.83
522.65	1033.14
523.01	1049.35
523.37	1065.39
523.73	1081.64
524.09	1097.82
524.45	1114.24
524.81	1131.04
525.17	1147.93
525.53	1164.81
525.89	1181.67
526.25	1198.39
526.61	1214.83
526.97	1231.63
527.33	1248.18
527.68	1264.91
528.04	1281.46
528.40	1298.17
528.76	1315.27
529.12	1331.80
529.48	1348.73
529.84	1364.92
530.20	1381.68
530.56	1398.88
530.91	1416.32
531.27	1433.09
531.63	1449.63
531.99	1466.20
532.35	1482.23
532.71	1498.17
533.07	1514.53
533.42	1530.53
533.78	1546.75
534.14	1563.03
534.50	1578.50
534.86	1594.38
535.21	1609.57
535.57	1625.59
535.93	1641.14
536.29	1655.90
536.65	1671.09
537.00	1686.00
537.36	1701.35
537.72	1715.83
538.08	1730.18
538.44	1744.11
538.79	1758.08
539.15	1771.91
539.51	1785.83
539.87	1800.14
540.22	1813.93
540.58	1827.78
540.94	1841.33
541.29	1854.38
541.65	1867.24
542.01	1880.43
542.37	1892.88
542.72	1905.40
543.08	1917.24
543.44	1929.64
543.79	1941.03
544.15	1952.06
544.51	1963.68
544.87	1974.77
545.22	1985.65
545.58	1995.99
545.94	2005.82
546.29	2015.80
546.65	2025.56
547.01	2034.83
547.36	2043.88
547.72	2052.34
548.07	2060.15
548.43	2068.37
548.79	2076.41
549.14	2083.79
549.50	2091.42
549.86	2099.12
550.21	2106.48
550.57	2113.73
550.92	2120.43
551.28	2127.43
551.64	2134.58
551.99	2141.18
552.35	2147.18
552.70	2153.37
553.06	2159.39
553.41	2165.72
553.77	2171.69
554.13	2177.77
554.48	2184.05
554.84	2189.28
555.19	2194.68
555.55	2199.66
555.90	2203.90
556.26	2208.64
556.61	2213.51
556.97	2217.44
557.32	2221.67
557.68	2225.60
558.03	2229.88
558.39	2233.64
558.74	2238.17
559.10	2241.99
559.45	2245.58
559.81	2250.06
560.16	2253.75
560.52	2256.86
560.87	2260.35
561.23	2263.08
561.58	2266.10
561.94	2268.47
562.29	2270.91
562.64	2273.41
563.00	2276.24
563.35	2279.79
563.71	2282.90
564.06	2286.03
564.42	2289.07
564.77	2291.23
565.12	2293.47
565.48	2295.15
565.83	2296.83
566.19	2298.12
566.54	2299.03
566.89	2300.03
567.25	2300.28
567.60	2301.80
567.96	2303.21
568.31	2303.91
568.66	2304.93
569.02	2305.32
569.37	2305.40
569.72	2306.01
570.08	2306.04
570.43	2305.79
570.78	2304.89
571.14	2303.21
571.49	2301.71
571.84	2301.17
572.20	2299.96
572.55	2298.99
572.90	2297.46
573.26	2295.82
573.61	2293.91
573.96	2291.90
574.31	2288.74
574.67	2285.70
575.02	2281.89
575.37	2278.56
575.72	2274.51
576.08	2271.18
576.43	2267.76
576.78	2264.04
577.13	2260.99
577.49	2257.81
577.84	2254.27
578.19	2250.55
578.54	2246.73
578.90	2242.41
579.25	2236.72
579.60	2231.72
579.95	2226.47
580.30	2221.38
580.66	2216.19
581.01	2211.31
581.36	2206.19
581.71	2201.88
582.06	2197.33
582.42	2192.63
582.77	2187.46
583.12	2182.81
583.47	2177.56
583.82	2172.46
584.17	2167.12
584.53	2161.37
584.88	2155.57
585.23	2149.70
585.58	2144.12
585.93	2138.54
586.28	2133.73
586.63	2128.61
586.98	2123.41
587.34	2118.62
587.69	2113.46
588.04	2108.02
588.39	2102.13
588.74	2095.72
589.09	2089.46
589.44	2082.51
589.79	2076.44
590.14	2070.69
590.49	2064.03
590.84	2057.78
591.19	2051.60
591.54	2045.03
591.89	2037.49
592.25	2030.63
592.60	2023.27
592.95	2015.58
593.30	2008.20
593.65	2000.37
594.00	1993.08
594.35	1985.83
594.70	1977.68
595.05	1970.24
595.40	1962.98
595.75	1955.45
596.10	1949.12
596.45	1942.32
596.80	1936.09
597.15	1929.24
597.50	1921.90
597.85	1915.50
598.19	1908.73
598.54	1901.63
598.89	1894.94
599.24	1889.05
599.59	1882.25
599.94	1876.00
600.29	1869.73
600.64	1863.25
600.99	1855.84
601.34	1849.08
601.69	1841.98
602.04	1835.10
602.39	1827.99
602.74	1821.04
603.08	1814.30
603.43	1807.35
603.78	1800.05
604.13	1792.82
604.48	1785.44
604.83	1778.45
605.18	1771.28
605.53	1763.19
605.87	1755.14
606.22	1747.87
606.57	1739.87
606.92	1732.74
607.27	1725.48
607.62	1718.41
607.96	1710.97
608.31	1704.26
608.66	1696.55
609.01	1688.98
609.36	1681.50
609.70	1673.31
610.05	1665.19
610.40	1657.44
610.75	1649.30
611.10	1641.65
611.44	1633.40
611.79	1625.53
612.14	1616.99
612.49	1607.96
612.83	1599.74
613.18	1591.69
613.53	1583.64
613.88	1575.09
614.22	1566.75
614.57	1558.17
614.92	1550.17
615.27	1542.58
615.61	1534.30
615.96	1526.34
616.31	1518.76
616.65	1511.26
617.00	1503.78
617.35	1496.20
617.70	1487.88
618.04	1479.31
618.39	1471.07
618.74	1463.42
619.08	1455.14
619.43	1447.71
619.78	1440.74
620.12	1433.53
620.47	1426.05
620.82	1417.81
621.16	1410.52
621.51	1403.03
621.85	1395.42
622.20	1386.95
622.55	1378.69
622.89	1370.96
623.24	1363.41
623.59	1356.12
623.93	1348.71
624.28	1341.46
624.62	1333.94
624.97	1326.89
625.32	1320.19
625.66	1313.18
626.01	1306.01
626.35	1298.53
626.70	1290.73
627.04	1282.94
627.39	1275.21
627.73	1267.74
628.08	1260.87
628.43	1253.50
628.77	1246.00
629.12	1238.49
629.46	1231.35
629.81	1223.93
630.15	1216.69
630.50	1209.26
630.84	1200.95
631.19	1193.09
631.53	1185.75
631.88	1178.39
632.22	1170.75
632.57	1163.51
632.91	1156.01
633.26	1148.63
633.60	1141.43
633.95	1134.29
634.29	1127.45
634.64	1120.78
634.98	1113.40
635.32	1106.38
635.67	1099.93
636.01	1093.41
636.36	1086.72
636.70	1080.21
637.05	1073.67
637.39	1067.22
637.73	1060.66
638.08	1054.95
638.42	1048.96
638.77	1042.42
639.11	1035.76
639.45	1029.42
639.80	1022.77
640.14	1016.33
640.49	1009.83
640.83	1003.53
641.17	997.35
641.52	991.03
641.86	984.59
642.20	978.88
642.55	972.59
642.89	965.97
643.23	959.46
643.58	953.70
643.92	947.55
644.26	941.44
644.61	935.44
644.95	929.57
645.29	922.94
645.64	916.23
645.98	909.93
646.32	904.09
646.66	898.01
647.01	892.16
647.35	886.45
647.69	880.68
648.04	875.09
648.38	869.32
648.72	863.23
649.06	857.17
649.41	851.28
649.75	845.30
650.09	839.38
650.43	833.56
650.78	827.42
651.12	821.50
651.46	815.86
651.80	810.07
652.14	804.64
652.49	799.32
652.83	794.14
653.17	788.50
653.51	782.78
653.85	777.45
654.20	771.86
654.54	765.97
654.88	760.25
655.22	754.41
655.56	748.77
655.90	743.40
656.25	738.13
656.59	732.79
656.93	727.69
657.27	722.54
657.61	717.12
657.95	712.01
658.29	706.97
658.64	701.77
658.98	696.52
659.32	691.01
659.66	685.80
660.00	680.51
660.34	675.56
660.68	670.70
661.02	665.72
661.36	661.04
661.70	656.56
662.05	652.24
662.39	647.96
662.73	643.50
663.07	639.15
663.41	634.78
663.75	630.28
664.09	625.86
664.43	621.59
664.77	617.46
665.11	613.25
665.45	609.16
665.79	605.04
666.13	601.00
666.47	597.06
666.81	592.89
667.15	588.76
667.49	584.97
667.83	581.21
668.17	577.29
668.51	573.24
668.85	569.20
669.19	565.29
669.53	561.41
669.87	557.53
670.21	553.85
670.55	550.21
670.89	546.74
671.23	543.30
671.57	539.77
671.91	536.33
672.25	532.89
672.58	529.32
672.92	526.01
673.26	522.76
673.60	519.59
673.94	516.49
674.28	513.65
674.62	510.67
674.96	507.53
675.30	504.57
675.64	501.67
675.97	498.95
676.31	496.07
676.65	493.17
676.99	490.48
677.33	487.62
677.67	484.83
678.01	481.90
678.34	478.90
678.68	476.03
679.02	473.16
679.36	470.40
679.70	467.72
680.04	464.93
680.37	462.11
680.71	459.33
681.05	456.76
681.39	453.99
681.73	451.34
682.06	448.84
682.40	446.32
682.74	443.81
683.08	441.27
683.42	438.72
683.75	436.32
684.09	433.78
684.43	431.29
684.77	428.87
685.10	426.50
685.44	424.19
685.78	421.93
686.12	419.74
686.45	417.44
686.79	415.19
687.13	413.05
687.46	410.90
687.80	408.78
688.14	406.58
688.48	404.55
688.81	402.30
689.15	400.15
689.49	398.00
689.82	395.91
690.16	393.84
690.50	391.91
690.83	389.92
691.17	387.95
691.51	386.13
691.84	384.29
692.18	382.39
692.52	380.42
692.85	378.49
693.19	376.63
693.52	374.83
693.86	373.01
694.20	371.21
694.53	369.43
694.87	367.58
695.21	365.79
695.54	364.00
695.88	362.27
696.21	360.53
696.55	358.90
696.88	357.27
697.22	355.62
697.56	354.03
697.89	352.39
698.23	350.78
698.56	349.11
698.90	347.53
699.23	345.86
699.57	344.33
699.90	342.84
700.24	341.30
700.58	339.78
700.91	338.28
701.25	336.82
701.58	335.46
701.92	334.10
702.25	332.77
702.59	331.42
702.92	330.13
703.26	328.85
703.59	327.57
703.93	326.33
704.26	325.08
704.60	323.82
704.93	322.56
705.26	321.35
705.60	320.20
705.93	319.05
706.27	318.07
706.60	317.00
706.94	315.93
707.27	314.75
707.61	313.70
707.94	312.65
708.27	311.63
708.61	310.57
708.94	309.52
709.28	308.49
709.61	307.51
709.94	306.51
710.28	305.51
710.61	304.54
710.95	303.52
711.28	302.59
711.61	301.59
711.95	300.65
712.28	299.70
712.61	298.73
712.95	297.76
713.28	296.87
713.61	296.00
713.95	295.09
714.28	294.31
714.61	293.40
714.95	292.58
715.28	291.72
715.61	290.82
715.95	289.97
716.28	289.12
716.61	288.30
716.95	287.49
717.28	286.74
717.61	285.95
717.94	285.22
718.28	284.46
718.61	283.74
718.94	283.09
719.27	282.45
719.61	281.80
719.94	281.14
720.27	280.40
720.60	279.76
720.94	279.08
721.27	278.45
721.60	277.92
721.93	277.33
722.27	276.79
722.60	276.28
722.93	275.70
723.26	275.19
723.59	274.62
723.93	274.11
724.26	273.57
724.59	273.08
724.92	272.57
725.25	272.10
725.59	271.57
725.92	271.08
726.25	270.59
726.58	270.12
726.91	269.63
727.24	269.16
727.57	268.70
727.91	268.22
728.24	267.75
728.57	267.27
728.90	266.84
729.23	266.35
729.56	265.90
729.89	265.48
730.22	264.99
730.55	264.56
730.89	264.12
731.22	263.64
731.55	263.19
731.88	262.71
732.21	262.25
732.54	261.85
732.87	261.41
733.20	260.97
733.53	260.61
733.86	260.25
734.19	259.89
734.52	259.50
734.85	259.24
735.18	258.81
735.51	258.45
735.84	258.06
736.17	257.69
736.50	257.30
736.83	257.07
737.16	256.74
737.49	256.40
737.82	256.07
738.15	255.78
738.48	255.42
738.81	255.09
739.14	254.76
739.47	254.47
739.80	254.14
740.13	253.85
740.46	253.49
740.79	253.19
741.12	252.87
741.45	252.54
741.78	252.17
742.11	251.93
742.44	251.63
742.77	251.35
743.10	251.06
743.43	250.77
743.75	250.36
744.08	250.22
744.41	249.94
744.74	249.65
745.07	249.36
745.40	249.16
745.73	248.93
746.06	248.70
746.39	248.43
746.71	248.17
747.04	247.90
747.37	247.64
747.70	247.41
748.03	247.17
748.36	246.96
748.68	246.74
749.01	246.47
749.34	246.22
749.67	246.00
750.00	245.76
750.33	245.59
750.65	245.40
750.98	245.07
751.31	244.87
751.64	244.66
751.97	244.51
752.29	244.25
752.62	243.97
752.95	243.71
753.28	243.48
753.60	243.26
753.93	243.11
754.26	242.91
754.59	242.67
754.91	242.48
755.24	242.26
755.57	242.06
755.90	241.87
756.22	241.67
756.55	241.45
756.88	241.27
757.20	241.02
757.53	240.84
757.86	240.65
758.19	240.47
758.51	240.32
758.84	240.10
759.17	239.96
759.49	239.83
759.82	239.76
760.15	239.61
760.47	239.47
760.80	239.25
761.13	239.11
761.45	238.95
761.78	238.79
762.11	238.65
762.43	238.46
762.76	238.34
763.08	238.22
763.41	238.06
763.74	237.91
764.06	237.76
764.39	237.60
764.71	237.47
765.04	237.36
765.37	237.20
765.69	237.07
766.02	236.93
766.34	236.80
766.67	236.59
767.00	236.47
767.32	236.43
767.65	236.40
767.97	236.29
768.30	236.21
768.62	236.10
768.95	236.02
769.27	235.91
769.60	235.78
769.92	235.69
770.25	235.60
770.57	235.49
770.90	235.41
771.22	235.31
771.55	235.20
771.87	235.08
772.20	234.98
772.52	235.00
772.85	235.01
773.17	234.93
773.50	234.87
773.82	234.75
774.15	234.59
774.47	234.43
774.80	234.33
775.12	234.22
775.45	234.13
775.77	234.05
776.09	234.01
776.42	233.97
776.74	233.89
777.07	233.85
777.39	233.78
777.72	233.72
778.04	233.65
778.36	233.58
778.69	233.53
779.01	233.47
779.33	233.29
779.66	233.12
779.98	233.07
780.31	232.99
780.63	233.01
780.95	232.98
781.28	232.94
781.60	232.87
781.92	232.81
782.25	232.76
782.57	232.68
782.89	232.61
783.22	232.55
783.54	232.48
783.86	232.41
784.19	232.35
784.51	232.30
784.83	232.27
785.16	232.21
785.48	232.17
785.80	232.12
786.12	232.08
786.45	232.02
786.77	231.97
787.09	231.93
