SpectraSuite Data File
++++++++++++++++++++++++++++++++++++
Date: Fri Feb 01 16:21:43 EST 2013
User: group
Dark Spectrum Present: No
Reference Spectrum Present: No
Number of Sampled Component Spectra: 1
Spectrometers: USB2E7196
Integration Time (usec): 35000 (USB2E7196)
Spectra Averaged: 100 (USB2E7196)
Boxcar Smoothing: 10 (USB2E7196)
Correct for Electrical Dark: No (USB2E7196)
Strobe/Lamp Enabled: No (USB2E7196)
Correct for Detector Non-linearity: No (USB2E7196)
Correct for Stray Light: No (USB2E7196)
Number of Pixels in Processed Spectrum: 2048
>>>>>Begin Processed Spectral Data<<<<<
339.09	0.00
339.48	213.97
339.86	215.25
340.24	217.02
340.63	218.53
341.01	221.02
341.39	220.42
341.78	222.50
342.16	223.61
342.54	223.99
342.93	212.35
343.31	223.08
343.69	223.63
344.07	224.13
344.46	224.53
344.84	224.90
345.22	225.13
345.60	225.41
345.99	225.58
346.37	225.71
346.75	225.80
347.13	225.86
347.52	225.94
347.90	226.01
348.28	226.00
348.66	226.05
349.05	226.06
349.43	226.10
349.81	226.19
350.19	226.25
350.57	226.30
350.96	226.38
351.34	226.48
351.72	226.55
352.10	226.62
352.48	226.71
352.87	226.76
353.25	226.85
353.63	226.93
354.01	227.01
354.39	227.09
354.77	227.19
355.15	227.33
355.54	227.43
355.92	227.47
356.30	227.56
356.68	227.73
357.06	227.81
357.44	227.88
357.82	227.95
358.20	228.01
358.58	228.09
358.97	228.16
359.35	228.26
359.73	228.37
360.11	228.46
360.49	228.53
360.87	228.58
361.25	228.61
361.63	228.65
362.01	228.73
362.39	228.75
362.77	228.81
363.15	228.80
363.53	228.82
363.91	228.84
364.29	228.88
364.67	228.77
365.05	228.76
365.43	228.76
365.81	228.80
366.19	228.84
366.57	228.87
366.95	228.84
367.33	228.78
367.71	228.73
368.09	228.72
368.47	228.70
368.85	228.70
369.23	228.72
369.61	228.67
369.99	228.63
370.37	228.63
370.75	228.63
371.13	228.57
371.51	228.49
371.89	228.48
372.27	228.44
372.65	228.43
373.03	228.38
373.41	228.33
373.78	228.25
374.16	228.13
374.54	228.02
374.92	227.96
375.30	227.88
375.68	227.82
376.06	227.75
376.44	227.65
376.82	227.59
377.19	227.49
377.57	227.47
377.95	227.35
378.33	227.27
378.71	227.14
379.09	227.09
379.47	227.03
379.84	226.92
380.22	226.84
380.60	226.74
380.98	226.69
381.36	226.63
381.73	226.52
382.11	226.48
382.49	226.43
382.87	226.36
383.25	226.31
383.62	226.33
384.00	226.28
384.38	226.23
384.76	226.19
385.13	226.18
385.51	226.08
385.89	226.05
386.27	225.98
386.64	225.96
387.02	225.93
387.40	225.87
387.78	225.86
388.15	225.83
388.53	225.78
388.91	225.72
389.29	225.66
389.66	225.66
390.04	225.63
390.42	225.62
390.79	225.62
391.17	225.61
391.55	225.52
391.92	225.50
392.30	225.51
392.68	225.48
393.05	225.48
393.43	225.52
393.81	225.51
394.18	225.52
394.56	225.54
394.94	225.56
395.31	225.57
395.69	225.62
396.06	225.66
396.44	225.70
396.82	225.76
397.19	225.88
397.57	225.89
397.95	225.93
398.32	225.96
398.70	226.02
399.07	226.09
399.45	226.15
399.82	226.21
400.20	226.26
400.58	226.36
400.95	226.38
401.33	226.48
401.70	226.64
402.08	226.72
402.45	226.81
402.83	226.94
403.20	227.09
403.58	227.18
403.95	227.31
404.33	227.47
404.71	227.57
405.08	227.71
405.46	227.85
405.83	227.99
406.21	228.14
406.58	228.32
406.96	228.50
407.33	228.68
407.70	228.85
408.08	229.12
408.45	229.31
408.83	229.54
409.20	229.73
409.58	229.91
409.95	230.18
410.33	230.46
410.70	230.68
411.08	230.97
411.45	231.27
411.82	231.58
412.20	231.92
412.57	232.32
412.95	232.61
413.32	233.02
413.69	233.42
414.07	233.86
414.44	234.33
414.82	234.77
415.19	235.30
415.56	235.87
415.94	236.43
416.31	237.08
416.68	237.71
417.06	238.44
417.43	239.12
417.81	239.85
418.18	240.61
418.55	241.46
418.93	242.35
419.30	243.25
419.67	244.17
420.04	245.11
420.42	246.12
420.79	247.31
421.16	248.47
421.54	249.66
421.91	250.85
422.28	252.06
422.66	253.40
423.03	254.71
423.40	256.03
423.77	257.42
424.15	258.83
424.52	260.31
424.89	261.90
425.26	263.41
425.64	264.88
426.01	266.48
426.38	268.15
426.75	269.78
427.13	271.47
427.50	273.26
427.87	275.11
428.24	276.96
428.61	278.71
428.99	280.65
429.36	282.77
429.73	284.86
430.10	286.90
430.47	288.94
430.85	291.04
431.22	293.29
431.59	295.65
431.96	297.88
432.33	300.33
432.70	302.71
433.08	305.55
433.45	308.15
433.82	310.75
434.19	313.59
434.56	316.41
434.93	319.09
435.30	321.73
435.68	324.66
436.05	327.47
436.42	330.23
436.79	332.79
437.16	335.45
437.53	338.25
437.90	341.04
438.27	343.78
438.64	346.56
439.01	349.09
439.38	351.31
439.75	353.47
440.13	355.99
440.50	358.32
440.87	360.12
441.24	362.06
441.61	364.18
441.98	365.67
442.35	367.45
442.72	369.27
443.09	371.04
443.46	371.99
443.83	372.59
444.20	373.09
444.57	373.86
444.94	374.14
445.31	374.50
445.68	374.88
446.05	374.94
446.42	374.58
446.79	374.20
447.16	373.76
447.53	373.46
447.90	372.26
448.27	371.07
448.64	369.50
449.01	368.41
449.37	366.47
449.74	364.58
450.11	362.32
450.48	359.89
450.85	357.40
451.22	355.29
451.59	353.27
451.96	351.39
452.33	348.82
452.70	346.49
453.07	343.63
453.43	340.76
453.80	338.03
454.17	335.33
454.54	332.81
454.91	330.10
455.28	327.44
455.65	325.00
456.02	322.58
456.38	320.47
456.75	317.81
457.12	315.56
457.49	313.34
457.86	311.16
458.23	309.29
458.59	307.26
458.96	305.13
459.33	303.30
459.70	301.40
460.07	299.89
460.43	298.19
460.80	296.62
461.17	295.14
461.54	293.67
461.91	292.33
462.27	290.93
462.64	289.65
463.01	288.25
463.38	286.97
463.74	285.60
464.11	284.43
464.48	283.43
464.85	282.32
465.21	281.48
465.58	280.60
465.95	279.54
466.32	278.64
466.68	277.76
467.05	276.87
467.42	275.98
467.78	275.05
468.15	274.17
468.52	273.53
468.88	272.67
469.25	271.88
469.62	271.23
469.98	270.50
470.35	269.92
470.72	269.33
471.08	268.64
471.45	268.10
471.82	267.56
472.18	266.95
472.55	266.55
472.92	266.00
473.28	265.52
473.65	265.06
474.02	264.61
474.38	264.31
474.75	263.97
475.11	263.63
475.48	263.35
475.85	263.13
476.21	262.88
476.58	262.71
476.94	262.58
477.31	262.43
477.67	262.30
478.04	262.21
478.41	262.19
478.77	262.27
479.14	262.25
479.50	262.25
479.87	262.33
480.23	262.36
480.60	262.42
480.96	262.55
481.33	262.76
481.69	262.99
482.06	263.13
482.42	263.35
482.79	263.63
483.15	263.96
483.52	264.37
483.88	264.71
484.25	265.09
484.61	265.52
484.98	265.98
485.34	266.54
485.71	267.15
486.07	267.76
486.44	268.31
486.80	269.00
487.17	269.78
487.53	270.58
487.90	271.51
488.26	272.50
488.62	273.52
488.99	274.50
489.35	275.50
489.72	276.69
490.08	277.92
490.44	279.16
490.81	280.50
491.17	281.86
491.54	283.38
491.90	284.94
492.26	286.60
492.63	288.33
492.99	290.09
493.36	291.93
493.72	293.97
494.08	296.09
494.45	298.36
494.81	300.73
495.17	303.17
495.54	305.72
495.90	308.37
496.26	311.14
496.63	314.14
496.99	317.28
497.35	320.53
497.72	323.91
498.08	327.45
498.44	331.14
498.80	335.05
499.17	339.09
499.53	343.28
499.89	347.66
500.26	352.23
500.62	356.92
500.98	361.92
501.34	367.02
501.71	372.35
502.07	377.81
502.43	383.43
502.79	389.27
503.16	395.31
503.52	401.63
503.88	408.02
504.24	414.63
504.60	421.57
504.97	428.72
505.33	436.10
505.69	443.76
506.05	451.58
506.41	459.50
506.78	467.67
507.14	476.08
507.50	484.71
507.86	493.67
508.22	502.87
508.59	512.12
508.95	521.65
509.31	531.46
509.67	541.52
510.03	551.83
510.39	562.35
510.75	573.21
511.12	584.14
511.48	595.51
511.84	607.02
512.20	618.50
512.56	630.39
512.92	642.54
513.28	654.91
513.64	667.37
514.00	679.99
514.37	692.84
514.73	705.91
515.09	719.02
515.45	732.36
515.81	746.01
516.17	759.93
516.53	774.04
516.89	788.24
517.25	802.39
517.61	816.72
517.97	831.18
518.33	845.60
518.69	860.31
519.05	875.24
519.41	890.27
519.77	905.80
520.13	921.21
520.49	936.49
520.85	951.94
521.21	967.61
521.57	983.85
521.93	999.49
522.29	1015.87
522.65	1032.09
523.01	1048.12
523.37	1064.02
523.73	1080.19
524.09	1096.18
524.45	1112.45
524.81	1129.10
525.17	1145.88
525.53	1162.72
525.89	1179.49
526.25	1196.28
526.61	1212.61
526.97	1229.24
527.33	1245.63
527.68	1262.25
528.04	1278.69
528.40	1295.18
528.76	1312.16
529.12	1328.70
529.48	1345.60
529.84	1361.48
530.20	1378.03
530.56	1395.11
530.91	1412.53
531.27	1429.10
531.63	1445.57
531.99	1462.00
532.35	1477.91
532.71	1493.68
533.07	1509.80
533.42	1525.61
533.78	1541.51
534.14	1557.65
534.50	1572.99
534.86	1588.86
535.21	1603.95
535.57	1619.75
535.93	1635.16
536.29	1649.89
536.65	1664.79
537.00	1679.51
537.36	1694.81
537.72	1709.24
538.08	1723.60
538.44	1737.33
538.79	1751.23
539.15	1764.75
539.51	1778.43
539.87	1792.63
540.22	1806.31
540.58	1820.07
540.94	1833.28
541.29	1846.13
541.65	1858.79
542.01	1871.85
542.37	1884.03
542.72	1896.35
543.08	1908.09
543.44	1920.41
543.79	1931.48
544.15	1942.45
544.51	1953.94
544.87	1964.89
545.22	1975.66
545.58	1985.65
545.94	1995.24
546.29	2005.07
546.65	2015.11
547.01	2024.37
547.36	2033.02
547.72	2041.44
548.07	2049.21
548.43	2057.45
548.79	2065.56
549.14	2072.96
549.50	2080.37
549.86	2087.98
550.21	2095.27
550.57	2102.44
550.92	2108.92
551.28	2115.94
551.64	2123.06
551.99	2129.47
552.35	2135.44
552.70	2141.61
553.06	2147.56
553.41	2153.99
553.77	2159.97
554.13	2165.87
554.48	2172.03
554.84	2177.45
555.19	2182.74
555.55	2187.90
555.90	2192.33
556.26	2197.03
556.61	2201.93
556.97	2206.12
557.32	2210.17
557.68	2214.24
558.03	2218.74
558.39	2222.49
558.74	2227.12
559.10	2230.95
559.45	2234.75
559.81	2239.14
560.16	2242.94
560.52	2246.27
560.87	2249.55
561.23	2252.16
561.58	2255.11
561.94	2257.51
562.29	2260.05
562.64	2262.88
563.00	2265.52
563.35	2269.11
563.71	2272.32
564.06	2275.50
564.42	2278.41
564.77	2281.08
565.12	2283.44
565.48	2285.20
565.83	2287.25
566.19	2288.67
566.54	2289.56
566.89	2290.67
567.25	2291.29
567.60	2292.62
567.96	2294.37
568.31	2295.32
568.66	2296.58
569.02	2297.11
569.37	2297.57
569.72	2298.33
570.08	2298.42
570.43	2298.58
570.78	2297.88
571.14	2296.33
571.49	2295.03
571.84	2294.84
572.20	2293.76
572.55	2292.66
572.90	2291.09
573.26	2289.63
573.61	2287.94
573.96	2286.31
574.31	2283.42
574.67	2280.53
575.02	2277.00
575.37	2273.65
575.72	2269.97
576.08	2266.57
576.43	2263.39
576.78	2259.76
577.13	2256.69
577.49	2253.54
577.84	2249.94
578.19	2246.27
578.54	2242.84
578.90	2238.60
579.25	2233.16
579.60	2228.28
579.95	2223.29
580.30	2218.40
580.66	2213.22
581.01	2208.38
581.36	2203.43
581.71	2199.40
582.06	2194.97
582.42	2190.42
582.77	2185.17
583.12	2180.66
583.47	2176.01
583.82	2171.04
584.17	2165.86
584.53	2160.34
584.88	2154.91
585.23	2149.19
585.58	2143.87
585.93	2138.36
586.28	2133.69
586.63	2128.56
586.98	2123.58
587.34	2118.95
587.69	2114.16
588.04	2109.01
588.39	2103.39
588.74	2096.90
589.09	2090.65
589.44	2083.88
589.79	2077.87
590.14	2072.47
590.49	2065.89
590.84	2059.59
591.19	2053.66
591.54	2047.27
591.89	2040.03
592.25	2033.19
592.60	2026.09
592.95	2018.53
593.30	2011.31
593.65	2003.80
594.00	1996.80
594.35	1989.51
594.70	1981.68
595.05	1974.43
595.40	1967.27
595.75	1959.81
596.10	1953.67
596.45	1947.00
596.80	1940.90
597.15	1934.46
597.50	1927.23
597.85	1920.76
598.19	1914.08
598.54	1906.95
598.89	1900.19
599.24	1894.21
599.59	1887.50
599.94	1881.41
600.29	1875.12
600.64	1868.52
600.99	1861.19
601.34	1854.45
601.69	1847.49
602.04	1840.57
602.39	1833.24
602.74	1826.26
603.08	1819.52
603.43	1812.85
603.78	1805.52
604.13	1798.30
604.48	1790.95
604.83	1784.19
605.18	1777.38
605.53	1769.36
605.87	1761.32
606.22	1754.12
606.57	1746.21
606.92	1738.94
607.27	1731.72
607.62	1724.78
607.96	1717.53
608.31	1710.80
608.66	1703.22
609.01	1695.74
609.36	1688.09
609.70	1680.08
610.05	1672.10
610.40	1664.38
610.75	1656.01
611.10	1648.39
611.44	1639.90
611.79	1631.88
612.14	1623.15
612.49	1613.96
612.83	1605.71
613.18	1597.72
613.53	1589.72
613.88	1581.20
614.22	1572.96
614.57	1564.44
614.92	1556.40
615.27	1548.90
615.61	1540.58
615.96	1532.48
616.31	1524.76
616.65	1517.51
617.00	1509.92
617.35	1502.25
617.70	1493.96
618.04	1485.43
618.39	1477.34
618.74	1469.84
619.08	1461.58
619.43	1454.06
619.78	1447.18
620.12	1439.98
620.47	1432.37
620.82	1424.18
621.16	1416.76
621.51	1409.11
621.85	1401.44
622.20	1392.88
622.55	1384.36
622.89	1376.43
623.24	1368.72
623.59	1361.40
623.93	1353.89
624.28	1346.75
624.62	1339.21
624.97	1331.94
625.32	1325.34
625.66	1318.25
626.01	1311.00
626.35	1303.61
626.70	1295.86
627.04	1288.01
627.39	1280.20
627.73	1272.90
628.08	1265.99
628.43	1258.75
628.77	1251.43
629.12	1243.79
629.46	1236.70
629.81	1229.31
630.15	1222.04
630.50	1214.69
630.84	1206.48
631.19	1198.48
631.53	1190.94
631.88	1183.33
632.22	1175.79
632.57	1168.34
632.91	1160.82
633.26	1153.46
633.60	1146.01
633.95	1138.91
634.29	1131.96
634.64	1125.30
634.98	1117.78
635.32	1110.62
635.67	1104.00
636.01	1097.35
636.36	1090.56
636.70	1083.97
637.05	1077.50
637.39	1071.05
637.73	1064.51
638.08	1058.57
638.42	1052.57
638.77	1046.07
639.11	1039.57
639.45	1033.19
639.80	1026.58
640.14	1020.13
640.49	1013.58
640.83	1007.36
641.17	1001.07
641.52	994.66
641.86	988.21
642.20	982.39
642.55	976.00
642.89	969.54
643.23	962.97
643.58	957.15
643.92	950.93
644.26	944.84
644.61	938.85
644.95	932.81
645.29	926.30
645.64	919.48
645.98	913.13
646.32	907.26
646.66	901.24
647.01	895.45
647.35	889.67
647.69	883.83
648.04	878.21
648.38	872.47
648.72	866.55
649.06	860.48
649.41	854.61
649.75	848.67
650.09	842.68
650.43	836.84
650.78	830.68
651.12	824.77
651.46	819.04
651.80	813.29
652.14	807.97
652.49	802.52
652.83	797.38
653.17	791.72
653.51	786.01
653.85	780.58
654.20	774.92
654.54	768.98
654.88	763.26
655.22	757.32
655.56	751.62
655.90	746.05
656.25	740.86
656.59	735.47
656.93	730.40
657.27	725.20
657.61	719.76
657.95	714.68
658.29	709.59
658.64	704.33
658.98	699.02
659.32	693.49
659.66	688.28
660.00	682.99
660.34	678.06
660.68	673.12
661.02	668.14
661.36	663.40
661.70	658.83
662.05	654.45
662.39	650.17
662.73	645.64
663.07	641.28
663.41	636.78
663.75	632.25
664.09	627.64
664.43	623.30
664.77	619.15
665.11	614.88
665.45	610.74
665.79	606.61
666.13	602.41
666.47	598.34
666.81	594.14
667.15	590.00
667.49	586.11
667.83	582.40
668.17	578.44
668.51	574.35
668.85	570.37
669.19	566.55
669.53	562.71
669.87	558.81
670.21	555.11
670.55	551.46
670.89	548.08
671.23	544.69
671.57	541.13
671.91	537.59
672.25	534.15
672.58	530.62
672.92	527.23
673.26	524.08
673.60	520.93
673.94	517.87
674.28	514.98
674.62	511.99
674.96	508.76
675.30	505.82
675.64	502.89
675.97	500.02
676.31	497.14
676.65	494.21
676.99	491.54
677.33	488.65
677.67	485.79
678.01	482.72
678.34	479.75
678.68	476.93
679.02	474.17
679.36	471.38
679.70	468.67
680.04	465.89
680.37	463.05
680.71	460.23
681.05	457.61
681.39	454.88
681.73	452.21
682.06	449.70
682.40	447.07
682.74	444.54
683.08	442.01
683.42	439.36
683.75	436.87
684.09	434.29
684.43	431.89
684.77	429.49
685.10	427.12
685.44	424.79
685.78	422.44
686.12	420.15
686.45	417.87
686.79	415.53
687.13	413.36
687.46	411.18
687.80	409.04
688.14	406.78
688.48	404.68
688.81	402.39
689.15	400.24
689.49	398.10
689.82	396.04
690.16	393.95
690.50	391.98
690.83	390.01
691.17	388.05
691.51	386.08
691.84	384.17
692.18	382.25
692.52	380.22
692.85	378.31
693.19	376.41
693.52	374.57
693.86	372.75
694.20	370.94
694.53	369.12
694.87	367.25
695.21	365.47
695.54	363.67
695.88	361.95
696.21	360.21
696.55	358.56
696.88	356.85
697.22	355.19
697.56	353.60
697.89	351.97
698.23	350.30
698.56	348.65
698.90	347.08
699.23	345.44
699.57	343.92
699.90	342.40
700.24	340.88
700.58	339.38
700.91	337.86
701.25	336.41
701.58	335.10
701.92	333.74
702.25	332.35
702.59	330.97
702.92	329.66
703.26	328.35
703.59	327.05
703.93	325.85
704.26	324.65
704.60	323.33
704.93	322.08
705.26	320.86
705.60	319.72
705.93	318.55
706.27	317.52
706.60	316.45
706.94	315.37
707.27	314.22
707.61	313.11
707.94	312.11
708.27	311.03
708.61	309.90
708.94	308.86
709.28	307.93
709.61	307.01
709.94	306.03
710.28	305.02
710.61	304.07
710.95	303.01
711.28	302.08
711.61	301.14
711.95	300.18
712.28	299.30
712.61	298.32
712.95	297.40
713.28	296.51
713.61	295.62
713.95	294.71
714.28	293.89
714.61	293.05
714.95	292.22
715.28	291.34
715.61	290.47
715.95	289.59
716.28	288.69
716.61	287.81
716.95	287.03
717.28	286.32
717.61	285.52
717.94	284.76
718.28	283.96
718.61	283.22
718.94	282.55
719.27	281.85
719.61	281.21
719.94	280.57
720.27	279.88
720.60	279.24
720.94	278.56
721.27	277.95
721.60	277.35
721.93	276.72
722.27	276.18
722.60	275.63
722.93	275.11
723.26	274.60
723.59	274.03
723.93	273.48
724.26	272.88
724.59	272.34
724.92	271.84
725.25	271.36
725.59	270.86
725.92	270.34
726.25	269.82
726.58	269.34
726.91	268.80
727.24	268.32
727.57	267.85
727.91	267.39
728.24	266.92
728.57	266.45
728.90	266.03
729.23	265.54
729.56	265.15
729.89	264.69
730.22	264.17
730.55	263.74
730.89	263.32
731.22	262.89
731.55	262.45
731.88	262.05
732.21	261.58
732.54	261.16
732.87	260.75
733.20	260.32
733.53	259.93
733.86	259.60
734.19	259.21
734.52	258.84
734.85	258.56
735.18	258.18
735.51	257.80
735.84	257.46
736.17	257.11
736.50	256.69
736.83	256.43
737.16	256.11
737.49	255.75
737.82	255.36
738.15	255.03
738.48	254.68
738.81	254.35
739.14	254.04
739.47	253.70
739.80	253.36
740.13	253.13
740.46	252.80
740.79	252.42
741.12	252.11
741.45	251.76
741.78	251.39
742.11	251.08
742.44	250.76
742.77	250.45
743.10	250.14
743.43	249.84
743.75	249.50
744.08	249.38
744.41	249.13
744.74	248.87
745.07	248.55
745.40	248.31
745.73	248.08
746.06	247.86
746.39	247.59
746.71	247.33
747.04	247.03
747.37	246.75
747.70	246.51
748.03	246.27
748.36	246.06
748.68	245.84
749.01	245.61
749.34	245.41
749.67	245.16
750.00	244.94
750.33	244.79
750.65	244.55
750.98	244.18
751.31	243.93
751.64	243.73
751.97	243.61
752.29	243.38
752.62	243.11
752.95	242.85
753.28	242.64
753.60	242.43
753.93	242.21
754.26	242.00
754.59	241.78
754.91	241.56
755.24	241.33
755.57	241.12
755.90	240.95
756.22	240.75
756.55	240.54
756.88	240.32
757.20	240.08
757.53	239.86
757.86	239.69
758.19	239.54
758.51	239.37
758.84	239.14
759.17	238.98
759.49	238.83
759.82	238.74
760.15	238.60
760.47	238.44
760.80	238.30
761.13	238.19
761.45	238.03
761.78	237.89
762.11	237.74
762.43	237.57
762.76	237.42
763.08	237.29
763.41	237.16
763.74	237.05
764.06	236.89
764.39	236.78
764.71	236.62
765.04	236.45
765.37	236.30
765.69	236.19
766.02	236.04
766.34	235.89
766.67	235.75
767.00	235.63
767.32	235.55
767.65	235.51
767.97	235.36
768.30	235.28
768.62	235.16
768.95	235.03
769.27	234.94
769.60	234.84
769.92	234.67
770.25	234.57
770.57	234.43
770.90	234.37
771.22	234.26
771.55	234.19
771.87	234.12
772.20	234.05
772.52	234.03
772.85	234.10
773.17	234.03
773.50	233.91
773.82	233.84
774.15	233.71
774.47	233.57
774.80	233.51
775.12	233.40
775.45	233.31
775.77	233.26
776.09	233.19
776.42	233.12
776.74	233.12
777.07	233.05
777.39	233.00
777.72	232.92
778.04	232.88
778.36	232.79
778.69	232.72
779.01	232.65
779.33	232.52
779.66	232.31
779.98	232.24
780.31	232.18
780.63	232.15
780.95	232.11
781.28	232.03
781.60	231.97
781.92	231.93
782.25	231.89
782.57	231.83
782.89	231.76
783.22	231.69
783.54	231.58
783.86	231.54
784.19	231.49
784.51	231.46
784.83	231.40
785.16	231.35
785.48	231.33
785.80	231.26
786.12	231.23
786.45	231.19
786.77	231.17
787.09	231.10
