SpectraSuite Data File
++++++++++++++++++++++++++++++++++++
Date: Fri Feb 01 14:56:58 EST 2013
User: group
Dark Spectrum Present: No
Reference Spectrum Present: No
Number of Sampled Component Spectra: 1
Spectrometers: USB2E7196
Integration Time (usec): 35000 (USB2E7196)
Spectra Averaged: 100 (USB2E7196)
Boxcar Smoothing: 10 (USB2E7196)
Correct for Electrical Dark: No (USB2E7196)
Strobe/Lamp Enabled: No (USB2E7196)
Correct for Detector Non-linearity: No (USB2E7196)
Correct for Stray Light: No (USB2E7196)
Number of Pixels in Processed Spectrum: 2048
>>>>>Begin Processed Spectral Data<<<<<
339.09	0.00
339.48	215.35
339.86	216.61
340.24	218.22
340.63	218.90
341.01	221.82
341.39	221.85
341.78	223.00
342.16	224.33
342.54	224.78
342.93	213.43
343.31	224.23
343.69	224.76
344.07	225.23
344.46	225.63
344.84	226.00
345.22	226.21
345.60	226.49
345.99	226.68
346.37	226.80
346.75	226.92
347.13	226.95
347.52	226.99
347.90	227.04
348.28	227.04
348.66	227.06
349.05	227.04
349.43	227.11
349.81	227.17
350.19	227.22
350.57	227.30
350.96	227.41
351.34	227.47
351.72	227.57
352.10	227.66
352.48	227.77
352.87	227.84
353.25	227.95
353.63	227.98
354.01	228.07
354.39	228.16
354.77	228.24
355.15	228.32
355.54	228.40
355.92	228.44
356.30	228.51
356.68	228.63
357.06	228.69
357.44	228.71
357.82	228.75
358.20	228.84
358.58	228.90
358.97	228.89
359.35	228.99
359.73	229.02
360.11	229.05
360.49	229.07
360.87	229.11
361.25	229.15
361.63	229.24
362.01	229.30
362.39	229.32
362.77	229.36
363.15	229.39
363.53	229.41
363.91	229.44
364.29	229.46
364.67	229.43
365.05	229.46
365.43	229.51
365.81	229.56
366.19	229.55
366.57	229.58
366.95	229.59
367.33	229.52
367.71	229.51
368.09	229.52
368.47	229.50
368.85	229.50
369.23	229.48
369.61	229.39
369.99	229.33
370.37	229.30
370.75	229.31
371.13	229.26
371.51	229.19
371.89	229.15
372.27	229.11
372.65	229.04
373.03	228.97
373.41	228.90
373.78	228.79
374.16	228.72
374.54	228.64
374.92	228.59
375.30	228.55
375.68	228.48
376.06	228.40
376.44	228.35
376.82	228.27
377.19	228.20
377.57	228.14
377.95	228.05
378.33	227.98
378.71	227.84
379.09	227.75
379.47	227.69
379.84	227.61
380.22	227.52
380.60	227.41
380.98	227.32
381.36	227.23
381.73	227.17
382.11	227.10
382.49	227.00
382.87	226.90
383.25	226.82
383.62	226.84
384.00	226.74
384.38	226.65
384.76	226.65
385.13	226.60
385.51	226.55
385.89	226.49
386.27	226.40
386.64	226.38
387.02	226.33
387.40	226.29
387.78	226.23
388.15	226.18
388.53	226.15
388.91	226.13
389.29	226.08
389.66	226.07
390.04	226.04
390.42	226.04
390.79	226.04
391.17	226.01
391.55	225.93
391.92	225.94
392.30	225.94
392.68	225.89
393.05	225.90
393.43	225.90
393.81	225.92
394.18	225.95
394.56	225.95
394.94	226.01
395.31	225.99
395.69	226.05
396.06	226.10
396.44	226.15
396.82	226.19
397.19	226.31
397.57	226.36
397.95	226.42
398.32	226.43
398.70	226.51
399.07	226.61
399.45	226.68
399.82	226.77
400.20	226.85
400.58	226.96
400.95	227.03
401.33	227.15
401.70	227.35
402.08	227.47
402.45	227.62
402.83	227.76
403.20	227.92
403.58	228.02
403.95	228.18
404.33	228.33
404.71	228.48
405.08	228.68
405.46	228.84
405.83	229.01
406.21	229.19
406.58	229.38
406.96	229.53
407.33	229.70
407.70	229.92
408.08	230.21
408.45	230.41
408.83	230.65
409.20	230.86
409.58	231.04
409.95	231.31
410.33	231.56
410.70	231.78
411.08	232.06
411.45	232.41
411.82	232.71
412.20	233.08
412.57	233.49
412.95	233.78
413.32	234.21
413.69	234.65
414.07	235.10
414.44	235.57
414.82	236.12
415.19	236.68
415.56	237.24
415.94	237.77
416.31	238.44
416.68	239.09
417.06	239.82
417.43	240.53
417.81	241.28
418.18	242.06
418.55	242.93
418.93	243.82
419.30	244.70
419.67	245.61
420.04	246.56
420.42	247.56
420.79	248.80
421.16	249.93
421.54	251.11
421.91	252.33
422.28	253.54
422.66	254.78
423.03	256.05
423.40	257.37
423.77	258.78
424.15	260.19
424.52	261.67
424.89	263.26
425.26	264.77
425.64	266.20
426.01	267.75
426.38	269.41
426.75	271.12
427.13	272.81
427.50	274.65
427.87	276.53
428.24	278.40
428.61	280.10
428.99	282.04
429.36	284.13
429.73	286.19
430.10	288.25
430.47	290.35
430.85	292.49
431.22	294.74
431.59	297.12
431.96	299.32
432.33	301.83
432.70	304.21
433.08	307.05
433.45	309.76
433.82	312.43
434.19	315.30
434.56	318.08
434.93	320.73
435.30	323.35
435.68	326.23
436.05	329.02
436.42	331.82
436.79	334.33
437.16	337.02
437.53	339.86
437.90	342.70
438.27	345.44
438.64	348.29
439.01	350.90
439.38	353.15
439.75	355.35
440.13	357.83
440.50	360.17
440.87	362.01
441.24	363.88
441.61	365.99
441.98	367.49
442.35	369.28
442.72	371.19
443.09	372.98
443.46	374.00
443.83	374.60
444.20	375.12
444.57	375.96
444.94	376.28
445.31	376.59
445.68	376.91
446.05	377.00
446.42	376.61
446.79	376.16
447.16	375.69
447.53	375.39
447.90	374.26
448.27	373.13
448.64	371.52
449.01	370.41
449.37	368.47
449.74	366.54
450.11	364.31
450.48	361.79
450.85	359.28
451.22	357.16
451.59	355.15
451.96	353.22
452.33	350.58
452.70	348.23
453.07	345.44
453.43	342.54
453.80	339.81
454.17	337.14
454.54	334.60
454.91	331.88
455.28	329.23
455.65	326.71
456.02	324.20
456.38	322.07
456.75	319.39
457.12	317.14
457.49	314.94
457.86	312.73
458.23	310.90
458.59	308.83
458.96	306.70
459.33	304.86
459.70	302.98
460.07	301.48
460.43	299.70
460.80	298.05
461.17	296.62
461.54	295.06
461.91	293.62
462.27	292.16
462.64	290.91
463.01	289.50
463.38	288.16
463.74	286.79
464.11	285.58
464.48	284.56
464.85	283.43
465.21	282.54
465.58	281.65
465.95	280.53
466.32	279.64
466.68	278.75
467.05	277.83
467.42	276.91
467.78	275.99
468.15	275.13
468.52	274.44
468.88	273.54
469.25	272.76
469.62	272.12
469.98	271.44
470.35	270.78
470.72	270.19
471.08	269.53
471.45	268.96
471.82	268.46
472.18	267.86
472.55	267.42
472.92	266.92
473.28	266.40
473.65	265.98
474.02	265.51
474.38	265.14
474.75	264.81
475.11	264.47
475.48	264.16
475.85	263.87
476.21	263.64
476.58	263.46
476.94	263.28
477.31	263.09
477.67	262.90
478.04	262.79
478.41	262.76
478.77	262.80
479.14	262.75
479.50	262.74
479.87	262.78
480.23	262.83
480.60	262.88
480.96	263.00
481.33	263.13
481.69	263.34
482.06	263.51
482.42	263.69
482.79	263.94
483.15	264.26
483.52	264.65
483.88	265.00
484.25	265.42
484.61	265.87
484.98	266.33
485.34	266.90
485.71	267.46
486.07	268.02
486.44	268.57
486.80	269.27
487.17	269.97
487.53	270.78
487.90	271.61
488.26	272.53
488.62	273.46
488.99	274.45
489.35	275.50
489.72	276.62
490.08	277.79
490.44	278.99
490.81	280.33
491.17	281.72
491.54	283.19
491.90	284.68
492.26	286.31
492.63	288.00
492.99	289.78
493.36	291.69
493.72	293.72
494.08	295.85
494.45	298.06
494.81	300.40
495.17	302.80
495.54	305.36
495.90	308.04
496.26	310.90
496.63	313.81
496.99	316.87
497.35	320.10
497.72	323.47
498.08	326.99
498.44	330.61
498.80	334.46
499.17	338.47
499.53	342.62
499.89	346.97
500.26	351.48
500.62	356.12
500.98	361.04
501.34	366.09
501.71	371.39
502.07	376.83
502.43	382.37
502.79	388.19
503.16	394.24
503.52	400.46
503.88	406.78
504.24	413.40
504.60	420.28
504.97	427.43
505.33	434.78
505.69	442.47
506.05	450.22
506.41	458.14
506.78	466.26
507.14	474.69
507.50	483.36
507.86	492.40
508.22	501.61
508.59	510.74
508.95	520.29
509.31	529.98
509.67	540.07
510.03	550.36
510.39	560.91
510.75	571.77
511.12	582.64
511.48	593.93
511.84	605.36
512.20	616.82
512.56	628.69
512.92	640.84
513.28	653.13
513.64	665.60
514.00	678.31
514.37	691.29
514.73	704.29
515.09	717.36
515.45	730.55
515.81	744.15
516.17	758.14
516.53	772.26
516.89	786.47
517.25	800.67
517.61	815.17
517.97	829.63
518.33	844.02
518.69	858.91
519.05	873.99
519.41	889.18
519.77	904.76
520.13	920.30
520.49	935.76
520.85	951.20
521.21	966.98
521.57	983.13
521.93	998.93
522.29	1015.41
522.65	1031.70
523.01	1048.06
523.37	1064.15
523.73	1080.50
524.09	1096.59
524.45	1113.06
524.81	1129.77
525.17	1146.61
525.53	1163.59
525.89	1180.59
526.25	1197.40
526.61	1213.76
526.97	1230.74
527.33	1247.35
527.68	1264.04
528.04	1280.50
528.40	1297.20
528.76	1314.39
529.12	1331.21
529.48	1348.06
529.84	1364.19
530.20	1380.97
530.56	1398.01
530.91	1415.46
531.27	1432.20
531.63	1448.75
531.99	1465.38
532.35	1481.38
532.71	1497.33
533.07	1513.64
533.42	1529.53
533.78	1545.66
534.14	1562.03
534.50	1577.31
534.86	1593.24
535.21	1608.38
535.57	1624.52
535.93	1640.09
536.29	1654.86
536.65	1670.06
537.00	1685.12
537.36	1700.50
537.72	1715.08
538.08	1729.57
538.44	1743.54
538.79	1757.57
539.15	1771.46
539.51	1785.30
539.87	1799.69
540.22	1813.51
540.58	1827.44
540.94	1841.07
541.29	1854.14
541.65	1866.99
542.01	1880.29
542.37	1892.67
542.72	1905.36
543.08	1917.19
543.44	1929.78
543.79	1941.15
544.15	1952.06
544.51	1963.49
544.87	1974.60
545.22	1985.51
545.58	1995.82
545.94	2005.53
546.29	2015.43
546.65	2025.23
547.01	2034.38
547.36	2043.33
547.72	2051.82
548.07	2059.73
548.43	2067.80
548.79	2075.85
549.14	2083.41
549.50	2090.74
549.86	2098.55
550.21	2105.81
550.57	2112.94
550.92	2119.47
551.28	2126.61
551.64	2133.52
551.99	2140.23
552.35	2146.39
552.70	2152.51
553.06	2158.44
553.41	2164.80
553.77	2170.87
554.13	2177.01
554.48	2183.11
554.84	2188.30
555.19	2193.61
555.55	2198.68
555.90	2203.14
556.26	2207.79
556.61	2212.42
556.97	2216.63
557.32	2220.66
557.68	2224.70
558.03	2228.82
558.39	2232.52
558.74	2237.06
559.10	2241.02
559.45	2244.48
559.81	2248.68
560.16	2252.19
560.52	2255.46
560.87	2258.73
561.23	2261.16
561.58	2264.03
561.94	2266.55
562.29	2269.14
562.64	2271.90
563.00	2274.37
563.35	2277.77
563.71	2280.83
564.06	2284.02
564.42	2286.80
564.77	2288.98
565.12	2291.12
565.48	2292.98
565.83	2294.60
566.19	2295.76
566.54	2296.69
566.89	2297.79
567.25	2298.12
567.60	2299.59
567.96	2300.95
568.31	2301.65
568.66	2302.57
569.02	2302.98
569.37	2303.21
569.72	2303.68
570.08	2303.46
570.43	2303.32
570.78	2302.38
571.14	2300.77
571.49	2299.17
571.84	2298.66
572.20	2297.47
572.55	2296.25
572.90	2294.53
573.26	2293.08
573.61	2291.17
573.96	2289.12
574.31	2285.93
574.67	2282.74
575.02	2278.83
575.37	2275.34
575.72	2271.43
576.08	2268.12
576.43	2264.62
576.78	2260.84
577.13	2257.56
577.49	2254.34
577.84	2250.64
578.19	2246.96
578.54	2243.08
578.90	2238.76
579.25	2233.06
579.60	2227.94
579.95	2222.90
580.30	2217.73
580.66	2212.33
581.01	2207.25
581.36	2202.12
581.71	2197.77
582.06	2193.19
582.42	2188.50
582.77	2183.21
583.12	2178.44
583.47	2173.46
583.82	2168.24
584.17	2162.80
584.53	2157.23
584.88	2151.36
585.23	2145.52
585.58	2139.88
585.93	2134.27
586.28	2129.41
586.63	2124.22
586.98	2119.03
587.34	2114.11
587.69	2109.06
588.04	2103.73
588.39	2097.88
588.74	2091.25
589.09	2085.01
589.44	2078.09
589.79	2072.12
590.14	2066.34
590.49	2059.65
590.84	2053.20
591.19	2047.02
591.54	2040.38
591.89	2032.69
592.25	2025.81
592.60	2018.45
592.95	2010.73
593.30	2003.28
593.65	1995.58
594.00	1988.50
594.35	1981.16
594.70	1972.97
595.05	1965.62
595.40	1958.24
595.75	1950.73
596.10	1944.51
596.45	1937.57
596.80	1931.36
597.15	1924.51
597.50	1917.20
597.85	1910.74
598.19	1904.03
598.54	1896.96
598.89	1890.30
599.24	1884.32
599.59	1877.64
599.94	1871.39
600.29	1865.01
600.64	1858.51
600.99	1850.92
601.34	1843.96
601.69	1836.98
602.04	1830.03
602.39	1822.79
602.74	1815.88
603.08	1809.06
603.43	1802.39
603.78	1795.15
604.13	1787.93
604.48	1780.60
604.83	1773.91
605.18	1766.81
605.53	1758.69
605.87	1750.64
606.22	1743.42
606.57	1735.62
606.92	1728.29
607.27	1720.95
607.62	1714.03
607.96	1706.69
608.31	1700.01
608.66	1692.44
609.01	1684.87
609.36	1677.39
609.70	1669.35
610.05	1661.23
610.40	1653.50
610.75	1645.12
611.10	1637.47
611.44	1629.11
611.79	1621.17
612.14	1612.58
612.49	1603.55
612.83	1595.22
613.18	1587.19
613.53	1579.20
613.88	1570.61
614.22	1562.38
614.57	1554.00
614.92	1545.96
615.27	1538.44
615.61	1530.14
615.96	1522.09
616.31	1514.55
616.65	1507.28
617.00	1499.76
617.35	1492.28
617.70	1483.92
618.04	1475.38
618.39	1467.14
618.74	1459.56
619.08	1451.33
619.43	1443.76
619.78	1436.83
620.12	1429.69
620.47	1422.12
620.82	1413.86
621.16	1406.57
621.51	1398.94
621.85	1391.31
622.20	1382.84
622.55	1374.56
622.89	1366.90
623.24	1359.41
623.59	1352.05
623.93	1344.49
624.28	1337.19
624.62	1329.56
624.97	1322.52
625.32	1315.85
625.66	1308.96
626.01	1301.65
626.35	1294.24
626.70	1286.42
627.04	1278.88
627.39	1271.19
627.73	1263.88
628.08	1257.20
628.43	1249.87
628.77	1242.55
629.12	1235.03
629.46	1227.92
629.81	1220.64
630.15	1213.44
630.50	1206.05
630.84	1197.91
631.19	1190.05
631.53	1182.71
631.88	1175.36
632.22	1167.81
632.57	1160.66
632.91	1153.11
633.26	1145.99
633.60	1138.73
633.95	1131.81
634.29	1124.66
634.64	1118.05
634.98	1110.78
635.32	1103.54
635.67	1097.08
636.01	1090.56
636.36	1083.88
636.70	1077.40
637.05	1070.81
637.39	1064.44
637.73	1058.02
638.08	1052.14
638.42	1046.24
638.77	1039.80
639.11	1033.20
639.45	1026.87
639.80	1020.12
640.14	1013.77
640.49	1007.22
640.83	1000.91
641.17	994.62
641.52	988.42
641.86	982.15
642.20	976.33
642.55	970.01
642.89	963.54
643.23	957.02
643.58	951.21
643.92	945.01
644.26	938.91
644.61	932.92
644.95	926.94
645.29	920.39
645.64	913.61
645.98	907.38
646.32	901.54
646.66	895.57
647.01	889.93
647.35	884.35
647.69	878.52
648.04	873.04
648.38	867.31
648.72	861.29
649.06	855.15
649.41	849.25
649.75	843.40
650.09	837.56
650.43	831.77
650.78	825.62
651.12	819.70
651.46	814.07
651.80	808.29
652.14	802.84
652.49	797.62
652.83	792.52
653.17	786.85
653.51	781.20
653.85	775.78
654.20	770.10
654.54	764.07
654.88	758.33
655.22	752.46
655.56	746.73
655.90	741.38
656.25	736.13
656.59	730.88
656.93	725.78
657.27	720.62
657.61	715.30
657.95	710.29
658.29	705.34
658.64	700.12
658.98	694.95
659.32	689.53
659.66	684.32
660.00	679.07
660.34	674.18
660.68	669.25
661.02	664.27
661.36	659.63
661.70	655.27
662.05	650.99
662.39	646.64
662.73	642.31
663.07	637.98
663.41	633.63
663.75	629.13
664.09	624.68
664.43	620.27
664.77	616.19
665.11	611.95
665.45	607.85
665.79	603.82
666.13	599.68
666.47	595.63
666.81	591.45
667.15	587.38
667.49	583.49
667.83	579.74
668.17	575.83
668.51	571.74
668.85	567.68
669.19	563.87
669.53	560.09
669.87	556.23
670.21	552.55
670.55	548.95
670.89	545.54
671.23	542.09
671.57	538.67
671.91	535.17
672.25	531.76
672.58	528.28
672.92	524.96
673.26	521.79
673.60	518.66
673.94	515.60
674.28	512.71
674.62	509.79
674.96	506.74
675.30	503.87
675.64	501.00
675.97	498.32
676.31	495.50
676.65	492.62
676.99	489.92
677.33	487.07
677.67	484.25
678.01	481.25
678.34	478.24
678.68	475.36
679.02	472.54
679.36	469.78
679.70	467.11
680.04	464.27
680.37	461.39
680.71	458.70
681.05	456.16
681.39	453.43
681.73	450.79
682.06	448.26
682.40	445.76
682.74	443.27
683.08	440.66
683.42	438.11
683.75	435.68
684.09	433.21
684.43	430.78
684.77	428.34
685.10	426.04
685.44	423.83
685.78	421.61
686.12	419.45
686.45	417.19
686.79	414.88
687.13	412.73
687.46	410.63
687.80	408.48
688.14	406.28
688.48	404.32
688.81	402.07
689.15	399.96
689.49	397.82
689.82	395.78
690.16	393.75
690.50	391.78
690.83	389.80
691.17	387.80
691.51	385.94
691.84	384.10
692.18	382.19
692.52	380.20
692.85	378.26
693.19	376.33
693.52	374.58
693.86	372.78
694.20	371.05
694.53	369.29
694.87	367.41
695.21	365.61
695.54	363.78
695.88	362.08
696.21	360.35
696.55	358.68
696.88	356.99
697.22	355.36
697.56	353.77
697.89	352.16
698.23	350.57
698.56	348.90
698.90	347.32
699.23	345.66
699.57	344.13
699.90	342.59
700.24	341.06
700.58	339.47
700.91	337.96
701.25	336.49
701.58	335.14
701.92	333.81
702.25	332.46
702.59	331.12
702.92	329.83
703.26	328.58
703.59	327.32
703.93	326.15
704.26	324.95
704.60	323.67
704.93	322.42
705.26	321.18
705.60	320.09
705.93	318.93
706.27	317.91
706.60	316.86
706.94	315.81
707.27	314.65
707.61	313.61
707.94	312.64
708.27	311.53
708.61	310.43
708.94	309.45
709.28	308.46
709.61	307.46
709.94	306.51
710.28	305.47
710.61	304.51
710.95	303.46
711.28	302.52
711.61	301.55
711.95	300.62
712.28	299.67
712.61	298.66
712.95	297.76
713.28	296.93
713.61	296.04
713.95	295.17
714.28	294.40
714.61	293.57
714.95	292.71
715.28	291.88
715.61	291.06
715.95	290.21
716.28	289.36
716.61	288.57
716.95	287.74
717.28	286.97
717.61	286.20
717.94	285.44
718.28	284.63
718.61	283.92
718.94	283.22
719.27	282.57
719.61	281.98
719.94	281.31
720.27	280.55
720.60	279.86
720.94	279.22
721.27	278.62
721.60	278.03
721.93	277.44
722.27	276.94
722.60	276.37
722.93	275.80
723.26	275.28
723.59	274.74
723.93	274.19
724.26	273.64
724.59	273.08
724.92	272.59
725.25	272.07
725.59	271.58
725.92	271.08
726.25	270.60
726.58	270.09
726.91	269.58
727.24	269.14
727.57	268.71
727.91	268.23
728.24	267.77
728.57	267.27
728.90	266.81
729.23	266.29
729.56	265.89
729.89	265.41
730.22	264.89
730.55	264.40
730.89	263.97
731.22	263.51
731.55	263.08
731.88	262.66
732.21	262.25
732.54	261.81
732.87	261.39
733.20	261.00
733.53	260.60
733.86	260.22
734.19	259.83
734.52	259.46
734.85	259.17
735.18	258.77
735.51	258.45
735.84	258.08
736.17	257.76
736.50	257.33
736.83	257.11
737.16	256.79
737.49	256.47
737.82	256.15
738.15	255.83
738.48	255.51
738.81	255.13
739.14	254.84
739.47	254.54
739.80	254.25
740.13	253.92
740.46	253.60
740.79	253.32
741.12	253.00
741.45	252.63
741.78	252.24
742.11	251.95
742.44	251.62
742.77	251.30
743.10	251.00
743.43	250.72
743.75	250.34
744.08	250.21
744.41	249.94
744.74	249.68
745.07	249.38
745.40	249.11
745.73	248.91
746.06	248.62
746.39	248.35
746.71	248.10
747.04	247.82
747.37	247.57
747.70	247.31
748.03	247.06
748.36	246.88
748.68	246.67
749.01	246.42
749.34	246.19
749.67	246.00
750.00	245.74
750.33	245.59
750.65	245.40
750.98	245.05
751.31	244.82
751.64	244.64
751.97	244.51
752.29	244.31
752.62	244.05
752.95	243.84
753.28	243.64
753.60	243.43
753.93	243.22
754.26	243.02
754.59	242.79
754.91	242.59
755.24	242.37
755.57	242.16
755.90	241.99
756.22	241.80
756.55	241.57
756.88	241.38
757.20	241.16
757.53	240.97
757.86	240.80
758.19	240.65
758.51	240.48
758.84	240.30
759.17	240.12
759.49	239.97
759.82	239.84
760.15	239.68
760.47	239.49
760.80	239.34
761.13	239.22
761.45	239.09
761.78	238.94
762.11	238.80
762.43	238.63
762.76	238.48
763.08	238.32
763.41	238.20
763.74	238.09
764.06	237.95
764.39	237.78
764.71	237.64
765.04	237.50
765.37	237.32
765.69	237.15
766.02	237.04
766.34	236.90
766.67	236.75
767.00	236.63
767.32	236.58
767.65	236.53
767.97	236.39
768.30	236.24
768.62	236.13
768.95	236.02
769.27	235.94
769.60	235.83
769.92	235.74
770.25	235.59
770.57	235.46
770.90	235.33
771.22	235.24
771.55	235.15
771.87	235.07
772.20	234.99
772.52	234.98
772.85	235.00
773.17	234.91
773.50	234.78
773.82	234.70
774.15	234.55
774.47	234.41
774.80	234.33
775.12	234.28
775.45	234.22
775.77	234.14
776.09	234.06
776.42	234.00
776.74	233.96
777.07	233.91
777.39	233.84
777.72	233.77
778.04	233.71
778.36	233.65
778.69	233.57
779.01	233.50
779.33	233.35
779.66	233.17
779.98	233.10
780.31	233.04
780.63	233.00
780.95	232.98
781.28	232.90
781.60	232.82
781.92	232.76
782.25	232.70
782.57	232.63
782.89	232.55
783.22	232.49
783.54	232.43
783.86	232.37
784.19	232.30
784.51	232.25
784.83	232.18
785.16	232.13
785.48	232.06
785.80	232.03
786.12	232.00
786.45	231.94
786.77	231.94
787.09	231.90
