SpectraSuite Data File
++++++++++++++++++++++++++++++++++++
Date: Fri Feb 01 17:13:36 EST 2013
User: group
Dark Spectrum Present: No
Reference Spectrum Present: No
Number of Sampled Component Spectra: 1
Spectrometers: USB2E7196
Integration Time (usec): 35000 (USB2E7196)
Spectra Averaged: 100 (USB2E7196)
Boxcar Smoothing: 10 (USB2E7196)
Correct for Electrical Dark: No (USB2E7196)
Strobe/Lamp Enabled: No (USB2E7196)
Correct for Detector Non-linearity: No (USB2E7196)
Correct for Stray Light: No (USB2E7196)
Number of Pixels in Processed Spectrum: 2048
>>>>>Begin Processed Spectral Data<<<<<
339.09	0.00
339.48	213.54
339.86	214.90
340.24	216.32
340.63	217.66
341.01	220.54
341.39	220.01
341.78	221.81
342.16	222.64
342.54	223.09
342.93	211.67
343.31	222.36
343.69	222.87
344.07	223.30
344.46	223.70
344.84	224.08
345.22	224.30
345.60	224.58
345.99	224.75
346.37	224.87
346.75	224.98
347.13	225.08
347.52	225.12
347.90	225.21
348.28	225.22
348.66	225.25
349.05	225.27
349.43	225.32
349.81	225.37
350.19	225.41
350.57	225.46
350.96	225.51
351.34	225.59
351.72	225.69
352.10	225.81
352.48	225.89
352.87	225.91
353.25	225.98
353.63	226.01
354.01	226.06
354.39	226.13
354.77	226.17
355.15	226.29
355.54	226.36
355.92	226.39
356.30	226.46
356.68	226.61
357.06	226.69
357.44	226.73
357.82	226.79
358.20	226.86
358.58	226.93
358.97	227.03
359.35	227.11
359.73	227.18
360.11	227.24
360.49	227.31
360.87	227.37
361.25	227.41
361.63	227.48
362.01	227.52
362.39	227.55
362.77	227.62
363.15	227.63
363.53	227.67
363.91	227.71
364.29	227.72
364.67	227.63
365.05	227.62
365.43	227.65
365.81	227.67
366.19	227.72
366.57	227.75
366.95	227.71
367.33	227.69
367.71	227.67
368.09	227.68
368.47	227.63
368.85	227.62
369.23	227.61
369.61	227.57
369.99	227.58
370.37	227.57
370.75	227.61
371.13	227.56
371.51	227.50
371.89	227.47
372.27	227.46
372.65	227.45
373.03	227.43
373.41	227.34
373.78	227.28
374.16	227.17
374.54	227.08
374.92	227.01
375.30	226.91
375.68	226.85
376.06	226.78
376.44	226.73
376.82	226.67
377.19	226.60
377.57	226.55
377.95	226.47
378.33	226.42
378.71	226.25
379.09	226.20
379.47	226.14
379.84	226.05
380.22	225.97
380.60	225.89
380.98	225.82
381.36	225.77
381.73	225.69
382.11	225.65
382.49	225.58
382.87	225.52
383.25	225.49
383.62	225.53
384.00	225.45
384.38	225.40
384.76	225.41
385.13	225.39
385.51	225.36
385.89	225.29
386.27	225.25
386.64	225.20
387.02	225.14
387.40	225.13
387.78	225.06
388.15	225.05
388.53	224.98
388.91	224.94
389.29	224.90
389.66	224.91
390.04	224.88
390.42	224.87
390.79	224.83
391.17	224.79
391.55	224.67
391.92	224.67
392.30	224.70
392.68	224.62
393.05	224.61
393.43	224.57
393.81	224.56
394.18	224.56
394.56	224.57
394.94	224.61
395.31	224.58
395.69	224.65
396.06	224.66
396.44	224.72
396.82	224.73
397.19	224.82
397.57	224.84
397.95	224.88
398.32	224.87
398.70	224.98
399.07	225.05
399.45	225.12
399.82	225.15
400.20	225.18
400.58	225.26
400.95	225.28
401.33	225.38
401.70	225.56
402.08	225.60
402.45	225.69
402.83	225.79
403.20	225.89
403.58	226.00
403.95	226.09
404.33	226.23
404.71	226.36
405.08	226.54
405.46	226.66
405.83	226.83
406.21	227.01
406.58	227.14
406.96	227.29
407.33	227.45
407.70	227.67
408.08	227.93
408.45	228.16
408.83	228.45
409.20	228.66
409.58	228.84
409.95	229.13
410.33	229.42
410.70	229.68
411.08	229.99
411.45	230.30
411.82	230.64
412.20	230.99
412.57	231.41
412.95	231.69
413.32	232.16
413.69	232.58
414.07	233.02
414.44	233.54
414.82	234.04
415.19	234.61
415.56	235.19
415.94	235.73
416.31	236.35
416.68	236.97
417.06	237.70
417.43	238.41
417.81	239.17
418.18	239.95
418.55	240.82
418.93	241.70
419.30	242.61
419.67	243.58
420.04	244.56
420.42	245.55
420.79	246.81
421.16	247.97
421.54	249.15
421.91	250.40
422.28	251.63
422.66	252.96
423.03	254.31
423.40	255.65
423.77	257.09
424.15	258.57
424.52	260.08
424.89	261.72
425.26	263.31
425.64	264.83
426.01	266.48
426.38	268.16
426.75	269.85
427.13	271.62
427.50	273.44
427.87	275.32
428.24	277.22
428.61	278.96
428.99	280.87
429.36	282.98
429.73	285.07
430.10	287.09
430.47	289.21
430.85	291.33
431.22	293.60
431.59	296.05
431.96	298.28
432.33	300.81
432.70	303.20
433.08	306.03
433.45	308.68
433.82	311.27
434.19	314.16
434.56	317.04
434.93	319.71
435.30	322.36
435.68	325.34
436.05	328.23
436.42	331.07
436.79	333.67
437.16	336.42
437.53	339.31
437.90	342.20
438.27	345.00
438.64	347.85
439.01	350.50
439.38	352.76
439.75	355.01
440.13	357.53
440.50	359.91
440.87	361.77
441.24	363.75
441.61	365.98
441.98	367.51
442.35	369.33
442.72	371.23
443.09	373.05
443.46	374.05
443.83	374.65
444.20	375.18
444.57	376.04
444.94	376.40
445.31	376.73
445.68	377.11
446.05	377.18
446.42	376.82
446.79	376.42
447.16	375.93
447.53	375.63
447.90	374.48
448.27	373.33
448.64	371.75
449.01	370.63
449.37	368.65
449.74	366.75
450.11	364.50
450.48	361.98
450.85	359.45
451.22	357.27
451.59	355.23
451.96	353.22
452.33	350.61
452.70	348.17
453.07	345.31
453.43	342.38
453.80	339.58
454.17	336.87
454.54	334.29
454.91	331.55
455.28	328.84
455.65	326.29
456.02	323.79
456.38	321.62
456.75	318.89
457.12	316.62
457.49	314.32
457.86	312.09
458.23	310.24
458.59	308.22
458.96	306.10
459.33	304.19
459.70	302.30
460.07	300.75
460.43	299.01
460.80	297.35
461.17	295.90
461.54	294.37
461.91	292.91
462.27	291.44
462.64	290.21
463.01	288.79
463.38	287.50
463.74	286.11
464.11	284.91
464.48	283.86
464.85	282.70
465.21	281.87
465.58	280.96
465.95	279.83
466.32	278.84
466.68	277.91
467.05	276.99
467.42	276.07
467.78	275.14
468.15	274.26
468.52	273.58
468.88	272.66
469.25	271.90
469.62	271.27
469.98	270.53
470.35	269.87
470.72	269.30
471.08	268.56
471.45	268.01
471.82	267.44
472.18	266.86
472.55	266.46
472.92	265.90
473.28	265.42
473.65	264.98
474.02	264.54
474.38	264.17
474.75	263.87
475.11	263.55
475.48	263.26
475.85	263.03
476.21	262.80
476.58	262.64
476.94	262.52
477.31	262.36
477.67	262.26
478.04	262.15
478.41	262.07
478.77	262.16
479.14	262.13
479.50	262.16
479.87	262.18
480.23	262.22
480.60	262.28
480.96	262.37
481.33	262.59
481.69	262.79
482.06	263.01
482.42	263.21
482.79	263.48
483.15	263.82
483.52	264.20
483.88	264.53
484.25	264.92
484.61	265.29
484.98	265.74
485.34	266.29
485.71	266.86
486.07	267.50
486.44	268.10
486.80	268.77
487.17	269.53
487.53	270.36
487.90	271.26
488.26	272.22
488.62	273.19
488.99	274.12
489.35	275.20
489.72	276.29
490.08	277.51
490.44	278.72
490.81	280.05
491.17	281.43
491.54	282.95
491.90	284.43
492.26	286.11
492.63	287.82
492.99	289.60
493.36	291.47
493.72	293.48
494.08	295.55
494.45	297.85
494.81	300.19
495.17	302.65
495.54	305.20
495.90	307.93
496.26	310.74
496.63	313.73
496.99	316.82
497.35	320.09
497.72	323.47
498.08	327.00
498.44	330.67
498.80	334.58
499.17	338.60
499.53	342.79
499.89	347.16
500.26	351.66
500.62	356.31
500.98	361.28
501.34	366.39
501.71	371.71
502.07	377.09
502.43	382.69
502.79	388.48
503.16	394.48
503.52	400.66
503.88	407.05
504.24	413.63
504.60	420.46
504.97	427.63
505.33	434.86
505.69	442.53
506.05	450.21
506.41	457.98
506.78	466.03
507.14	474.36
507.50	482.95
507.86	491.89
508.22	501.00
508.59	510.14
508.95	519.55
509.31	529.27
509.67	539.22
510.03	549.41
510.39	559.80
510.75	570.46
511.12	581.26
511.48	592.40
511.84	603.65
512.20	615.02
512.56	626.68
512.92	638.67
513.28	650.83
513.64	663.23
514.00	675.72
514.37	688.50
514.73	701.46
515.09	714.32
515.45	727.43
515.81	740.75
516.17	754.42
516.53	768.31
516.89	782.28
517.25	796.25
517.61	810.38
517.97	824.61
518.33	838.83
518.69	853.42
519.05	868.09
519.41	883.02
519.77	898.23
520.13	913.45
520.49	928.61
520.85	943.63
521.21	958.94
521.57	974.95
521.93	990.42
522.29	1006.31
522.65	1022.25
523.01	1038.08
523.37	1053.81
523.73	1069.69
524.09	1085.44
524.45	1101.41
524.81	1117.71
525.17	1134.11
525.53	1150.53
525.89	1167.14
526.25	1183.64
526.61	1199.81
526.97	1216.35
527.33	1232.50
527.68	1248.73
528.04	1264.91
528.40	1281.10
528.76	1297.87
529.12	1314.20
529.48	1330.74
529.84	1346.58
530.20	1362.87
530.56	1379.52
530.91	1396.60
531.27	1413.09
531.63	1429.29
531.99	1445.60
532.35	1461.38
532.71	1477.00
533.07	1493.06
533.42	1508.70
533.78	1524.37
534.14	1540.31
534.50	1555.33
534.86	1570.92
535.21	1585.89
535.57	1601.56
535.93	1616.88
536.29	1631.35
536.65	1646.00
537.00	1660.46
537.36	1675.47
537.72	1689.73
538.08	1703.89
538.44	1717.49
538.79	1731.09
539.15	1744.44
539.51	1757.75
539.87	1771.68
540.22	1785.14
540.58	1798.51
540.94	1811.30
541.29	1823.82
541.65	1836.21
542.01	1849.27
542.37	1861.47
542.72	1873.66
543.08	1885.32
543.44	1897.65
543.79	1908.93
544.15	1919.84
544.51	1931.41
544.87	1942.29
545.22	1953.14
545.58	1963.42
545.94	1973.18
546.29	1983.12
546.65	1993.09
547.01	2002.57
547.36	2011.49
547.72	2020.09
548.07	2028.35
548.43	2036.82
548.79	2045.00
549.14	2052.90
549.50	2060.06
549.86	2067.62
550.21	2075.02
550.57	2082.22
550.92	2088.90
551.28	2095.92
551.64	2103.12
551.99	2109.66
552.35	2115.99
552.70	2122.28
553.06	2128.51
553.41	2135.14
553.77	2141.17
554.13	2147.31
554.48	2153.53
554.84	2159.23
555.19	2164.43
555.55	2169.70
555.90	2174.40
556.26	2179.77
556.61	2184.58
556.97	2189.41
557.32	2193.89
557.68	2198.26
558.03	2202.66
558.39	2206.54
558.74	2211.25
559.10	2215.35
559.45	2219.24
559.81	2223.64
560.16	2227.61
560.52	2230.91
560.87	2234.41
561.23	2237.32
561.58	2240.41
561.94	2243.11
562.29	2245.42
562.64	2248.81
563.00	2251.47
563.35	2255.12
563.71	2258.20
564.06	2261.33
564.42	2264.37
564.77	2267.24
565.12	2269.99
565.48	2272.43
565.83	2274.52
566.19	2276.21
566.54	2277.31
566.89	2278.94
567.25	2279.91
567.60	2281.51
567.96	2283.59
568.31	2284.70
568.66	2286.16
569.02	2287.01
569.37	2287.72
569.72	2288.94
570.08	2289.17
570.43	2289.56
570.78	2289.17
571.14	2287.92
571.49	2286.90
571.84	2286.79
572.20	2285.94
572.55	2285.07
572.90	2283.51
573.26	2282.52
573.61	2280.98
573.96	2279.69
574.31	2276.82
574.67	2274.05
575.02	2270.70
575.37	2267.41
575.72	2263.98
576.08	2260.82
576.43	2257.57
576.78	2254.33
577.13	2251.32
577.49	2248.24
577.84	2245.00
578.19	2241.50
578.54	2238.22
578.90	2234.50
579.25	2229.19
579.60	2224.64
579.95	2219.85
580.30	2215.08
580.66	2210.09
581.01	2205.40
581.36	2200.61
581.71	2196.79
582.06	2192.79
582.42	2188.66
582.77	2183.74
583.12	2179.38
583.47	2174.95
583.82	2170.50
584.17	2165.31
584.53	2160.05
584.88	2154.84
585.23	2149.49
585.58	2144.30
585.93	2138.92
586.28	2134.16
586.63	2129.41
586.98	2124.35
587.34	2119.67
587.69	2114.90
588.04	2110.03
588.39	2104.59
588.74	2098.17
589.09	2092.27
589.44	2085.63
589.79	2079.50
590.14	2074.02
590.49	2067.38
590.84	2061.07
591.19	2055.16
591.54	2048.88
591.89	2041.98
592.25	2035.46
592.60	2028.31
592.95	2020.96
593.30	2013.78
593.65	2006.19
594.00	1999.20
594.35	1992.11
594.70	1984.14
595.05	1977.41
595.40	1970.16
595.75	1962.91
596.10	1957.11
596.45	1950.54
596.80	1944.55
597.15	1938.25
597.50	1931.66
597.85	1925.46
598.19	1919.01
598.54	1912.28
598.89	1905.66
599.24	1899.68
599.59	1893.35
599.94	1887.10
600.29	1880.92
600.64	1874.45
600.99	1867.38
601.34	1860.74
601.69	1853.69
602.04	1847.16
602.39	1839.73
602.74	1832.98
603.08	1826.36
603.43	1819.53
603.78	1812.24
604.13	1804.92
604.48	1797.75
604.83	1790.70
605.18	1783.92
605.53	1776.04
605.87	1767.83
606.22	1760.61
606.57	1752.60
606.92	1744.76
607.27	1737.73
607.62	1730.80
607.96	1723.64
608.31	1717.16
608.66	1709.57
609.01	1702.17
609.36	1694.64
609.70	1686.62
610.05	1678.57
610.40	1670.84
610.75	1662.54
611.10	1654.78
611.44	1646.31
611.79	1638.11
612.14	1629.39
612.49	1620.18
612.83	1611.70
613.18	1603.53
613.53	1595.45
613.88	1586.93
614.22	1578.84
614.57	1570.10
614.92	1562.04
615.27	1554.52
615.61	1546.10
615.96	1537.99
616.31	1530.24
616.65	1522.77
617.00	1515.24
617.35	1507.49
617.70	1499.16
618.04	1490.70
618.39	1482.34
618.74	1474.86
619.08	1466.54
619.43	1458.94
619.78	1451.92
620.12	1444.81
620.47	1437.40
620.82	1429.11
621.16	1421.69
621.51	1414.07
621.85	1406.37
622.20	1397.93
622.55	1389.42
622.89	1381.43
623.24	1373.68
623.59	1366.26
623.93	1358.67
624.28	1351.25
624.62	1343.77
624.97	1336.51
625.32	1329.51
625.66	1322.50
626.01	1315.28
626.35	1308.04
626.70	1300.06
627.04	1292.26
627.39	1284.41
627.73	1276.89
628.08	1269.99
628.43	1262.80
628.77	1255.52
629.12	1248.11
629.46	1240.83
629.81	1233.35
630.15	1226.14
630.50	1218.68
630.84	1210.59
631.19	1202.55
631.53	1195.04
631.88	1187.38
632.22	1179.68
632.57	1172.32
632.91	1164.83
633.26	1157.33
633.60	1149.73
633.95	1142.54
634.29	1135.41
634.64	1128.63
634.98	1121.18
635.32	1114.06
635.67	1107.21
636.01	1100.44
636.36	1093.59
636.70	1086.98
637.05	1080.34
637.39	1073.81
637.73	1067.33
638.08	1061.27
638.42	1055.36
638.77	1048.94
639.11	1042.38
639.45	1036.02
639.80	1029.48
640.14	1023.00
640.49	1016.48
640.83	1010.15
641.17	1004.04
641.52	997.85
641.86	991.34
642.20	985.45
642.55	978.95
642.89	972.59
643.23	965.91
643.58	960.09
643.92	953.84
644.26	947.93
644.61	941.82
644.95	935.78
645.29	929.25
645.64	922.41
645.98	915.98
646.32	909.86
646.66	903.71
647.01	897.76
647.35	892.03
647.69	886.02
648.04	880.43
648.38	874.63
648.72	868.62
649.06	862.62
649.41	856.67
649.75	850.81
650.09	844.79
650.43	838.92
650.78	832.75
651.12	826.72
651.46	820.82
651.80	815.17
652.14	809.63
652.49	804.25
652.83	799.08
653.17	793.57
653.51	787.99
653.85	782.60
654.20	777.02
654.54	770.92
654.88	765.18
655.22	759.27
655.56	753.49
655.90	747.90
656.25	742.62
656.59	737.27
656.93	732.11
657.27	727.00
657.61	721.58
657.95	716.40
658.29	711.36
658.64	706.03
658.98	700.63
659.32	695.17
659.66	689.89
660.00	684.58
660.34	679.53
660.68	674.63
661.02	669.60
661.36	664.94
661.70	660.46
662.05	656.16
662.39	651.88
662.73	647.45
663.07	643.07
663.41	638.58
663.75	634.13
664.09	629.56
664.43	625.08
664.77	621.10
665.11	616.95
665.45	612.78
665.79	608.79
666.13	604.68
666.47	600.69
666.81	596.53
667.15	592.42
667.49	588.52
667.83	584.58
668.17	580.66
668.51	576.59
668.85	572.53
669.19	568.57
669.53	564.77
669.87	560.91
670.21	557.20
670.55	553.57
670.89	550.10
671.23	546.73
671.57	543.19
671.91	539.61
672.25	535.99
672.58	532.47
672.92	528.98
673.26	525.75
673.60	522.53
673.94	519.49
674.28	516.57
674.62	513.55
674.96	510.50
675.30	507.55
675.64	504.57
675.97	501.82
676.31	499.00
676.65	496.01
676.99	493.25
677.33	490.44
677.67	487.58
678.01	484.57
678.34	481.56
678.68	478.68
679.02	475.83
679.36	473.04
679.70	470.27
680.04	467.51
680.37	464.72
680.71	461.87
681.05	459.19
681.39	456.42
681.73	453.69
682.06	451.19
682.40	448.68
682.74	446.09
683.08	443.49
683.42	440.86
683.75	438.37
684.09	435.77
684.43	433.26
684.77	430.75
685.10	428.35
685.44	425.98
685.78	423.65
686.12	421.32
686.45	419.00
686.79	416.71
687.13	414.49
687.46	412.23
687.80	410.01
688.14	407.72
688.48	405.62
688.81	403.40
689.15	401.22
689.49	398.99
689.82	396.89
690.16	394.70
690.50	392.73
690.83	390.73
691.17	388.72
691.51	386.74
691.84	384.87
692.18	382.94
692.52	381.00
692.85	379.05
693.19	377.18
693.52	375.34
693.86	373.46
694.20	371.66
694.53	369.87
694.87	368.04
695.21	366.19
695.54	364.32
695.88	362.54
696.21	360.74
696.55	359.04
696.88	357.34
697.22	355.66
697.56	353.97
697.89	352.32
698.23	350.73
698.56	349.11
698.90	347.55
699.23	345.92
699.57	344.36
699.90	342.83
700.24	341.27
700.58	339.77
700.91	338.35
701.25	336.90
701.58	335.51
701.92	334.14
702.25	332.82
702.59	331.48
702.92	330.19
703.26	328.92
703.59	327.64
703.93	326.43
704.26	325.21
704.60	323.92
704.93	322.68
705.26	321.41
705.60	320.21
705.93	319.02
706.27	317.89
706.60	316.78
706.94	315.67
707.27	314.55
707.61	313.42
707.94	312.34
708.27	311.24
708.61	310.15
708.94	309.14
709.28	308.15
709.61	307.17
709.94	306.19
710.28	305.13
710.61	304.10
710.95	303.00
711.28	302.09
711.61	301.14
711.95	300.23
712.28	299.30
712.61	298.35
712.95	297.38
713.28	296.51
713.61	295.59
713.95	294.74
714.28	293.85
714.61	293.02
714.95	292.18
715.28	291.33
715.61	290.47
715.95	289.61
716.28	288.73
716.61	287.89
716.95	287.03
717.28	286.31
717.61	285.57
717.94	284.87
718.28	284.06
718.61	283.32
718.94	282.56
719.27	281.91
719.61	281.24
719.94	280.56
720.27	279.84
720.60	279.16
720.94	278.50
721.27	277.93
721.60	277.30
721.93	276.69
722.27	276.14
722.60	275.59
722.93	274.99
723.26	274.47
723.59	273.96
723.93	273.40
724.26	272.82
724.59	272.21
724.92	271.63
725.25	271.13
725.59	270.61
725.92	270.13
726.25	269.56
726.58	269.07
726.91	268.58
727.24	268.09
727.57	267.61
727.91	267.12
728.24	266.63
728.57	266.13
728.90	265.65
729.23	265.12
729.56	264.61
729.89	264.15
730.22	263.62
730.55	263.09
730.89	262.64
731.22	262.21
731.55	261.78
731.88	261.33
732.21	260.88
732.54	260.44
732.87	259.98
733.20	259.56
733.53	259.13
733.86	258.73
734.19	258.31
734.52	257.93
734.85	257.62
735.18	257.20
735.51	256.85
735.84	256.45
736.17	256.11
736.50	255.70
736.83	255.45
737.16	255.14
737.49	254.84
737.82	254.51
738.15	254.11
738.48	253.78
738.81	253.47
739.14	253.12
739.47	252.80
739.80	252.47
740.13	252.21
740.46	251.89
740.79	251.56
741.12	251.27
741.45	250.96
741.78	250.60
742.11	250.31
742.44	249.95
742.77	249.72
743.10	249.41
743.43	249.13
743.75	248.73
744.08	248.55
744.41	248.25
744.74	247.98
745.07	247.73
745.40	247.48
745.73	247.25
746.06	246.99
746.39	246.73
746.71	246.46
747.04	246.14
747.37	245.90
747.70	245.67
748.03	245.43
748.36	245.23
748.68	244.96
749.01	244.71
749.34	244.53
749.67	244.30
750.00	244.06
750.33	243.93
750.65	243.77
750.98	243.44
751.31	243.24
751.64	243.02
751.97	242.85
752.29	242.65
752.62	242.40
752.95	242.22
753.28	242.01
753.60	241.83
753.93	241.70
754.26	241.50
754.59	241.29
754.91	241.08
755.24	240.87
755.57	240.73
755.90	240.57
756.22	240.35
756.55	240.13
756.88	239.93
757.20	239.69
757.53	239.42
757.86	239.22
758.19	239.08
758.51	238.93
758.84	238.70
759.17	238.53
759.49	238.36
759.82	238.23
760.15	238.06
760.47	237.92
760.80	237.69
761.13	237.55
761.45	237.37
761.78	237.20
762.11	237.03
762.43	236.82
762.76	236.64
763.08	236.53
763.41	236.39
763.74	236.26
764.06	236.12
764.39	236.00
764.71	235.85
765.04	235.64
765.37	235.52
765.69	235.37
766.02	235.23
766.34	235.07
766.67	234.89
767.00	234.78
767.32	234.67
767.65	234.63
767.97	234.50
768.30	234.42
768.62	234.31
768.95	234.21
769.27	234.09
769.60	234.02
769.92	233.88
770.25	233.76
770.57	233.61
770.90	233.51
771.22	233.39
771.55	233.30
771.87	233.24
772.20	233.10
772.52	233.08
772.85	233.08
773.17	233.01
773.50	232.93
773.82	232.84
774.15	232.74
774.47	232.55
774.80	232.41
775.12	232.33
775.45	232.24
775.77	232.17
776.09	232.10
776.42	231.98
776.74	231.93
777.07	231.87
777.39	231.79
777.72	231.71
778.04	231.67
778.36	231.58
778.69	231.49
779.01	231.45
779.33	231.31
779.66	231.15
779.98	231.09
780.31	231.06
780.63	231.00
780.95	230.95
781.28	230.89
781.60	230.85
781.92	230.77
782.25	230.72
782.57	230.65
782.89	230.62
783.22	230.58
783.54	230.50
783.86	230.45
784.19	230.40
784.51	230.35
784.83	230.31
785.16	230.25
785.48	230.22
785.80	230.19
786.12	230.16
786.45	230.09
786.77	230.06
787.09	229.98
