SpectraSuite Data File
++++++++++++++++++++++++++++++++++++
Date: Fri Feb 01 14:54:25 EST 2013
User: group
Dark Spectrum Present: No
Reference Spectrum Present: No
Number of Sampled Component Spectra: 1
Spectrometers: USB2E7196
Integration Time (usec): 35000 (USB2E7196)
Spectra Averaged: 100 (USB2E7196)
Boxcar Smoothing: 10 (USB2E7196)
Correct for Electrical Dark: No (USB2E7196)
Strobe/Lamp Enabled: No (USB2E7196)
Correct for Detector Non-linearity: No (USB2E7196)
Correct for Stray Light: No (USB2E7196)
Number of Pixels in Processed Spectrum: 2048
>>>>>Begin Processed Spectral Data<<<<<
339.09	0.00
339.48	216.08
339.86	216.67
340.24	218.42
340.63	219.88
341.01	223.14
341.39	222.52
341.78	223.94
342.16	224.48
342.54	225.47
342.93	213.83
343.31	224.64
343.69	225.15
344.07	225.61
344.46	226.03
344.84	226.38
345.22	226.56
345.60	226.80
345.99	227.00
346.37	227.16
346.75	227.25
347.13	227.31
347.52	227.37
347.90	227.44
348.28	227.48
348.66	227.52
349.05	227.52
349.43	227.55
349.81	227.60
350.19	227.64
350.57	227.67
350.96	227.77
351.34	227.85
351.72	227.93
352.10	228.02
352.48	228.10
352.87	228.17
353.25	228.24
353.63	228.32
354.01	228.37
354.39	228.42
354.77	228.49
355.15	228.56
355.54	228.62
355.92	228.66
356.30	228.71
356.68	228.84
357.06	228.92
357.44	228.96
357.82	229.03
358.20	229.08
358.58	229.16
358.97	229.21
359.35	229.24
359.73	229.35
360.11	229.42
360.49	229.47
360.87	229.53
361.25	229.60
361.63	229.64
362.01	229.68
362.39	229.71
362.77	229.77
363.15	229.79
363.53	229.77
363.91	229.81
364.29	229.84
364.67	229.77
365.05	229.77
365.43	229.80
365.81	229.82
366.19	229.86
366.57	229.90
366.95	229.90
367.33	229.92
367.71	229.86
368.09	229.86
368.47	229.82
368.85	229.78
369.23	229.75
369.61	229.69
369.99	229.68
370.37	229.66
370.75	229.64
371.13	229.61
371.51	229.58
371.89	229.53
372.27	229.49
372.65	229.44
373.03	229.38
373.41	229.29
373.78	229.18
374.16	229.09
374.54	229.01
374.92	228.93
375.30	228.83
375.68	228.73
376.06	228.65
376.44	228.59
376.82	228.50
377.19	228.42
377.57	228.36
377.95	228.23
378.33	228.13
378.71	228.02
379.09	227.95
379.47	227.90
379.84	227.82
380.22	227.70
380.60	227.59
380.98	227.53
381.36	227.44
381.73	227.40
382.11	227.34
382.49	227.24
382.87	227.15
383.25	227.08
383.62	227.15
384.00	227.08
384.38	227.02
384.76	227.00
385.13	226.99
385.51	226.94
385.89	226.88
386.27	226.86
386.64	226.80
387.02	226.74
387.40	226.68
387.78	226.64
388.15	226.62
388.53	226.58
388.91	226.56
389.29	226.52
389.66	226.48
390.04	226.47
390.42	226.46
390.79	226.44
391.17	226.43
391.55	226.30
391.92	226.28
392.30	226.31
392.68	226.25
393.05	226.24
393.43	226.25
393.81	226.28
394.18	226.25
394.56	226.32
394.94	226.37
395.31	226.41
395.69	226.48
396.06	226.54
396.44	226.61
396.82	226.63
397.19	226.77
397.57	226.83
397.95	226.89
398.32	226.96
398.70	227.05
399.07	227.12
399.45	227.18
399.82	227.29
400.20	227.33
400.58	227.47
400.95	227.52
401.33	227.63
401.70	227.78
402.08	227.88
402.45	227.97
402.83	228.08
403.20	228.17
403.58	228.25
403.95	228.38
404.33	228.52
404.71	228.64
405.08	228.84
405.46	229.00
405.83	229.14
406.21	229.30
406.58	229.50
406.96	229.70
407.33	229.90
407.70	230.11
408.08	230.37
408.45	230.59
408.83	230.84
409.20	231.04
409.58	231.24
409.95	231.51
410.33	231.78
410.70	232.02
411.08	232.32
411.45	232.66
411.82	232.99
412.20	233.36
412.57	233.77
412.95	234.05
413.32	234.46
413.69	234.89
414.07	235.29
414.44	235.72
414.82	236.18
415.19	236.71
415.56	237.25
415.94	237.82
416.31	238.41
416.68	239.04
417.06	239.78
417.43	240.46
417.81	241.24
418.18	242.02
418.55	242.85
418.93	243.71
419.30	244.57
419.67	245.47
420.04	246.40
420.42	247.39
420.79	248.56
421.16	249.71
421.54	250.91
421.91	252.14
422.28	253.40
422.66	254.73
423.03	256.05
423.40	257.35
423.77	258.73
424.15	260.19
424.52	261.69
424.89	263.28
425.26	264.79
425.64	266.24
426.01	267.86
426.38	269.54
426.75	271.21
427.13	272.97
427.50	274.78
427.87	276.65
428.24	278.53
428.61	280.29
428.99	282.21
429.36	284.29
429.73	286.37
430.10	288.35
430.47	290.42
430.85	292.54
431.22	294.82
431.59	297.21
431.96	299.48
432.33	301.98
432.70	304.37
433.08	307.20
433.45	309.90
433.82	312.47
434.19	315.37
434.56	318.20
434.93	320.84
435.30	323.45
435.68	326.35
436.05	329.19
436.42	331.94
436.79	334.46
437.16	337.20
437.53	340.02
437.90	342.89
438.27	345.62
438.64	348.48
439.01	351.08
439.38	353.29
439.75	355.49
440.13	357.95
440.50	360.28
440.87	362.13
441.24	364.01
441.61	366.18
441.98	367.67
442.35	369.48
442.72	371.37
443.09	373.24
443.46	374.23
443.83	374.82
444.20	375.36
444.57	376.20
444.94	376.51
445.31	376.88
445.68	377.23
446.05	377.32
446.42	376.95
446.79	376.49
447.16	376.09
447.53	375.74
447.90	374.56
448.27	373.41
448.64	371.85
449.01	370.72
449.37	368.77
449.74	366.84
450.11	364.59
450.48	362.11
450.85	359.54
451.22	357.40
451.59	355.41
451.96	353.50
452.33	350.88
452.70	348.48
453.07	345.63
453.43	342.72
453.80	339.95
454.17	337.25
454.54	334.72
454.91	332.01
455.28	329.35
455.65	326.89
456.02	324.39
456.38	322.24
456.75	319.58
457.12	317.34
457.49	315.14
457.86	312.95
458.23	311.08
458.59	309.04
458.96	306.92
459.33	305.03
459.70	303.14
460.07	301.64
460.43	299.92
460.80	298.31
461.17	296.88
461.54	295.37
461.91	293.93
462.27	292.49
462.64	291.21
463.01	289.85
463.38	288.55
463.74	287.19
464.11	286.02
464.48	285.00
464.85	283.87
465.21	283.00
465.58	282.07
465.95	280.94
466.32	280.04
466.68	279.15
467.05	278.26
467.42	277.36
467.78	276.43
468.15	275.50
468.52	274.82
468.88	273.93
469.25	273.15
469.62	272.53
469.98	271.82
470.35	271.18
470.72	270.53
471.08	269.88
471.45	269.32
471.82	268.75
472.18	268.09
472.55	267.61
472.92	267.04
473.28	266.58
473.65	266.13
474.02	265.69
474.38	265.30
474.75	264.97
475.11	264.60
475.48	264.30
475.85	264.10
476.21	263.84
476.58	263.66
476.94	263.46
477.31	263.24
477.67	263.07
478.04	262.95
478.41	262.90
478.77	262.88
479.14	262.81
479.50	262.83
479.87	262.91
480.23	262.98
480.60	263.07
480.96	263.16
481.33	263.35
481.69	263.48
482.06	263.67
482.42	263.86
482.79	264.13
483.15	264.46
483.52	264.83
483.88	265.17
484.25	265.56
484.61	265.99
484.98	266.51
485.34	267.09
485.71	267.66
486.07	268.25
486.44	268.82
486.80	269.53
487.17	270.24
487.53	271.08
487.90	271.94
488.26	272.85
488.62	273.84
488.99	274.81
489.35	275.86
489.72	276.98
490.08	278.15
490.44	279.35
490.81	280.69
491.17	282.00
491.54	283.48
491.90	285.02
492.26	286.66
492.63	288.36
492.99	290.11
493.36	291.99
493.72	294.02
494.08	296.14
494.45	298.39
494.81	300.72
495.17	303.06
495.54	305.61
495.90	308.27
496.26	311.05
496.63	313.99
496.99	317.09
497.35	320.29
497.72	323.68
498.08	327.18
498.44	330.81
498.80	334.74
499.17	338.75
499.53	342.87
499.89	347.22
500.26	351.67
500.62	356.30
500.98	361.20
501.34	366.29
501.71	371.57
502.07	376.99
502.43	382.64
502.79	388.46
503.16	394.49
503.52	400.80
503.88	407.14
504.24	413.76
504.60	420.62
504.97	427.70
505.33	434.99
505.69	442.64
506.05	450.36
506.41	458.19
506.78	466.33
507.14	474.80
507.50	483.44
507.86	492.45
508.22	501.62
508.59	510.78
508.95	520.36
509.31	530.18
509.67	540.26
510.03	550.50
510.39	561.00
510.75	571.80
511.12	582.61
511.48	593.97
511.84	605.36
512.20	616.85
512.56	628.84
512.92	641.01
513.28	653.40
513.64	665.93
514.00	678.65
514.37	691.56
514.73	704.56
515.09	717.64
515.45	730.83
515.81	744.42
516.17	758.39
516.53	772.40
516.89	786.57
517.25	800.74
517.61	815.11
517.97	829.62
518.33	844.12
518.69	858.93
519.05	873.83
519.41	888.95
519.77	904.55
520.13	920.06
520.49	935.43
520.85	950.76
521.21	966.51
521.57	982.80
521.93	998.67
522.29	1015.06
522.65	1031.38
523.01	1047.74
523.37	1063.88
523.73	1080.22
524.09	1096.46
524.45	1112.83
524.81	1129.49
525.17	1146.36
525.53	1163.34
525.89	1180.25
526.25	1197.09
526.61	1213.59
526.97	1230.45
527.33	1246.95
527.68	1263.54
528.04	1280.19
528.40	1296.91
528.76	1314.05
529.12	1330.65
529.48	1347.58
529.84	1363.71
530.20	1380.37
530.56	1397.39
530.91	1414.85
531.27	1431.70
531.63	1448.21
531.99	1464.82
532.35	1480.93
532.71	1496.95
533.07	1513.44
533.42	1529.35
533.78	1545.58
534.14	1561.99
534.50	1577.35
534.86	1593.23
535.21	1608.48
535.57	1624.43
535.93	1639.96
536.29	1654.82
536.65	1670.00
537.00	1684.85
537.36	1700.37
537.72	1715.10
538.08	1729.63
538.44	1743.46
538.79	1757.47
539.15	1771.28
539.51	1785.19
539.87	1799.72
540.22	1813.55
540.58	1827.40
540.94	1840.92
541.29	1853.88
541.65	1866.62
542.01	1880.04
542.37	1892.54
542.72	1905.12
543.08	1917.02
543.44	1929.56
543.79	1940.76
544.15	1951.76
544.51	1963.44
544.87	1974.38
545.22	1985.25
545.58	1995.67
545.94	2005.47
546.29	2015.34
546.65	2025.16
547.01	2034.37
547.36	2043.02
547.72	2051.46
548.07	2059.09
548.43	2067.23
548.79	2075.22
549.14	2082.81
549.50	2090.22
549.86	2097.98
550.21	2105.26
550.57	2112.45
550.92	2119.00
551.28	2126.15
551.64	2133.17
551.99	2139.58
552.35	2145.74
552.70	2151.81
553.06	2157.60
553.41	2164.02
553.77	2169.89
554.13	2175.89
554.48	2181.97
554.84	2187.25
555.19	2192.61
555.55	2197.76
555.90	2202.10
556.26	2206.94
556.61	2211.65
556.97	2215.80
557.32	2219.77
557.68	2223.95
558.03	2228.15
558.39	2231.81
558.74	2236.41
559.10	2240.25
559.45	2243.82
559.81	2248.07
560.16	2251.74
560.52	2254.81
560.87	2258.09
561.23	2260.60
561.58	2263.43
561.94	2265.84
562.29	2268.24
562.64	2270.72
563.00	2273.35
563.35	2276.80
563.71	2279.75
564.06	2282.75
564.42	2285.43
564.77	2287.75
565.12	2289.68
565.48	2291.18
565.83	2292.93
566.19	2294.03
566.54	2294.89
566.89	2295.97
567.25	2296.28
567.60	2297.48
567.96	2299.05
568.31	2299.71
568.66	2300.70
569.02	2301.27
569.37	2301.40
569.72	2302.09
570.08	2302.03
570.43	2301.69
570.78	2300.82
571.14	2299.06
571.49	2297.50
571.84	2296.94
572.20	2295.53
572.55	2294.33
572.90	2292.75
573.26	2291.13
573.61	2289.27
573.96	2287.24
574.31	2283.93
574.67	2280.67
575.02	2276.95
575.37	2273.44
575.72	2269.40
576.08	2265.96
576.43	2262.35
576.78	2258.45
577.13	2255.02
577.49	2251.90
577.84	2248.25
578.19	2244.44
578.54	2240.67
578.90	2236.25
579.25	2230.57
579.60	2225.56
579.95	2220.37
580.30	2215.19
580.66	2210.00
581.01	2204.80
581.36	2199.69
581.71	2195.48
582.06	2191.01
582.42	2186.32
582.77	2180.91
583.12	2176.25
583.47	2171.26
583.82	2166.03
584.17	2160.74
584.53	2155.04
584.88	2149.13
585.23	2143.24
585.58	2137.62
585.93	2132.02
586.28	2127.22
586.63	2122.00
586.98	2116.77
587.34	2111.99
587.69	2107.03
588.04	2101.60
588.39	2095.90
588.74	2089.39
589.09	2083.03
589.44	2076.04
589.79	2069.73
590.14	2063.88
590.49	2057.22
590.84	2050.77
591.19	2044.58
591.54	2037.87
591.89	2030.33
592.25	2023.55
592.60	2016.13
592.95	2008.44
593.30	2001.01
593.65	1993.31
594.00	1986.14
594.35	1978.87
594.70	1970.73
595.05	1963.26
595.40	1955.91
595.75	1948.32
596.10	1941.97
596.45	1935.09
596.80	1928.85
597.15	1922.34
597.50	1915.16
597.85	1908.50
598.19	1901.74
598.54	1894.78
598.89	1888.27
599.24	1882.46
599.59	1875.57
599.94	1869.49
600.29	1863.13
600.64	1856.47
600.99	1848.79
601.34	1842.01
601.69	1834.97
602.04	1828.03
602.39	1820.72
602.74	1813.80
603.08	1806.95
603.43	1800.15
603.78	1792.88
604.13	1785.64
604.48	1778.18
604.83	1771.42
605.18	1764.39
605.53	1756.26
605.87	1748.20
606.22	1740.82
606.57	1732.92
606.92	1725.67
607.27	1718.43
607.62	1711.48
607.96	1704.26
608.31	1697.77
608.66	1689.99
609.01	1682.47
609.36	1675.00
609.70	1667.04
610.05	1658.90
610.40	1651.20
610.75	1642.99
611.10	1635.47
611.44	1627.22
611.79	1619.33
612.14	1610.66
612.49	1601.75
612.83	1593.60
613.18	1585.63
613.53	1577.59
613.88	1569.10
614.22	1560.90
614.57	1552.35
614.92	1544.45
615.27	1536.92
615.61	1528.67
615.96	1520.84
616.31	1513.28
616.65	1505.91
617.00	1498.34
617.35	1490.81
617.70	1482.50
618.04	1473.86
618.39	1465.55
618.74	1457.93
619.08	1449.61
619.43	1442.17
619.78	1435.28
620.12	1428.06
620.47	1420.45
620.82	1412.38
621.16	1405.04
621.51	1397.38
621.85	1389.91
622.20	1381.33
622.55	1373.11
622.89	1365.31
623.24	1357.75
623.59	1350.36
623.93	1342.92
624.28	1335.87
624.62	1328.41
624.97	1321.36
625.32	1314.85
625.66	1307.97
626.01	1300.83
626.35	1293.44
626.70	1285.68
627.04	1278.00
627.39	1270.45
627.73	1263.21
628.08	1256.32
628.43	1248.98
628.77	1241.68
629.12	1234.11
629.46	1227.05
629.81	1219.63
630.15	1212.56
630.50	1205.26
630.84	1197.16
631.19	1189.22
631.53	1181.81
631.88	1174.32
632.22	1166.78
632.57	1159.56
632.91	1152.06
633.26	1144.69
633.60	1137.48
633.95	1130.48
634.29	1123.48
634.64	1116.79
634.98	1109.40
635.32	1102.49
635.67	1096.05
636.01	1089.55
636.36	1082.88
636.70	1076.49
637.05	1070.01
637.39	1063.57
637.73	1057.05
638.08	1051.37
638.42	1045.51
638.77	1039.08
639.11	1032.53
639.45	1026.23
639.80	1019.61
640.14	1013.18
640.49	1006.74
640.83	1000.54
641.17	994.35
641.52	988.21
641.86	981.93
642.20	976.19
642.55	969.87
642.89	963.31
643.23	956.78
643.58	951.01
643.92	944.74
644.26	938.71
644.61	932.77
644.95	926.81
645.29	920.20
645.64	913.51
645.98	907.22
646.32	901.46
646.66	895.40
647.01	889.62
647.35	884.00
647.69	878.20
648.04	872.68
648.38	866.94
648.72	860.82
649.06	854.66
649.41	848.75
649.75	842.74
650.09	836.90
650.43	831.14
650.78	825.02
651.12	819.18
651.46	813.49
651.80	807.71
652.14	802.41
652.49	797.08
652.83	791.93
653.17	786.23
653.51	780.48
653.85	775.25
654.20	769.60
654.54	763.65
654.88	757.99
655.22	752.17
655.56	746.49
655.90	741.09
656.25	735.84
656.59	730.59
656.93	725.58
657.27	720.41
657.61	715.05
657.95	709.93
658.29	704.85
658.64	699.68
658.98	694.40
659.32	688.96
659.66	683.73
660.00	678.45
660.34	673.62
660.68	668.74
661.02	663.66
661.36	658.97
661.70	654.54
662.05	650.31
662.39	645.97
662.73	641.56
663.07	637.31
663.41	632.89
663.75	628.39
664.09	623.82
664.43	619.56
664.77	615.46
665.11	611.33
665.45	607.30
665.79	603.22
666.13	599.15
666.47	595.05
666.81	590.93
667.15	586.90
667.49	583.02
667.83	579.30
668.17	575.42
668.51	571.45
668.85	567.49
669.19	563.60
669.53	559.81
669.87	556.00
670.21	552.31
670.55	548.79
670.89	545.41
671.23	542.03
671.57	538.59
671.91	535.12
672.25	531.66
672.58	528.16
672.92	524.87
673.26	521.77
673.60	518.68
673.94	515.57
674.28	512.74
674.62	509.80
674.96	506.72
675.30	503.82
675.64	500.92
675.97	498.17
676.31	495.33
676.65	492.45
676.99	489.79
677.33	486.98
677.67	484.18
678.01	481.15
678.34	478.18
678.68	475.29
679.02	472.46
679.36	469.74
679.70	467.03
680.04	464.23
680.37	461.38
680.71	458.63
681.05	456.09
681.39	453.40
681.73	450.81
682.06	448.32
682.40	445.81
682.74	443.30
683.08	440.77
683.42	438.21
683.75	435.71
684.09	433.19
684.43	430.73
684.77	428.32
685.10	426.09
685.44	423.87
685.78	421.61
686.12	419.44
686.45	417.18
686.79	414.94
687.13	412.79
687.46	410.68
687.80	408.54
688.14	406.36
688.48	404.29
688.81	402.08
689.15	399.98
689.49	397.85
689.82	395.78
690.16	393.77
690.50	391.83
690.83	389.94
691.17	387.96
691.51	386.04
691.84	384.20
692.18	382.24
692.52	380.29
692.85	378.37
693.19	376.47
693.52	374.63
693.86	372.81
694.20	371.03
694.53	369.22
694.87	367.42
695.21	365.65
695.54	363.85
695.88	362.14
696.21	360.37
696.55	358.69
696.88	357.07
697.22	355.40
697.56	353.79
697.89	352.12
698.23	350.57
698.56	348.98
698.90	347.36
699.23	345.74
699.57	344.15
699.90	342.63
700.24	341.12
700.58	339.60
700.91	338.14
701.25	336.70
701.58	335.36
701.92	334.01
702.25	332.61
702.59	331.23
702.92	329.89
703.26	328.59
703.59	327.34
703.93	326.14
704.26	324.87
704.60	323.55
704.93	322.29
705.26	321.03
705.60	319.86
705.93	318.77
706.27	317.73
706.60	316.74
706.94	315.67
707.27	314.52
707.61	313.47
707.94	312.45
708.27	311.36
708.61	310.27
708.94	309.25
709.28	308.34
709.61	307.40
709.94	306.48
710.28	305.50
710.61	304.52
710.95	303.47
711.28	302.60
711.61	301.70
711.95	300.79
712.28	299.82
712.61	298.86
712.95	297.92
713.28	297.04
713.61	296.12
713.95	295.25
714.28	294.44
714.61	293.59
714.95	292.76
715.28	291.94
715.61	291.10
715.95	290.24
716.28	289.37
716.61	288.54
716.95	287.73
717.28	287.02
717.61	286.31
717.94	285.57
718.28	284.76
718.61	284.04
718.94	283.35
719.27	282.74
719.61	282.14
719.94	281.51
720.27	280.81
720.60	280.17
720.94	279.57
721.27	279.01
721.60	278.45
721.93	277.88
722.27	277.36
722.60	276.79
722.93	276.21
723.26	275.68
723.59	275.14
723.93	274.61
724.26	274.05
724.59	273.46
724.92	273.00
725.25	272.54
725.59	272.04
725.92	271.52
726.25	271.02
726.58	270.52
726.91	269.99
727.24	269.55
727.57	269.11
727.91	268.63
728.24	268.14
728.57	267.67
728.90	267.23
729.23	266.73
729.56	266.34
729.89	265.93
730.22	265.45
730.55	265.02
730.89	264.59
731.22	264.15
731.55	263.73
731.88	263.29
732.21	262.83
732.54	262.40
732.87	261.99
733.20	261.62
733.53	261.20
733.86	260.87
734.19	260.49
734.52	260.07
734.85	259.75
735.18	259.35
735.51	258.97
735.84	258.58
736.17	258.22
736.50	257.81
736.83	257.57
737.16	257.21
737.49	256.89
737.82	256.56
738.15	256.25
738.48	255.96
738.81	255.61
739.14	255.28
739.47	254.94
739.80	254.63
740.13	254.28
740.46	253.96
740.79	253.59
741.12	253.26
741.45	252.94
741.78	252.53
742.11	252.24
742.44	251.88
742.77	251.59
743.10	251.28
743.43	250.97
743.75	250.55
744.08	250.42
744.41	250.14
744.74	249.80
745.07	249.50
745.40	249.21
745.73	248.96
746.06	248.68
746.39	248.44
746.71	248.17
747.04	247.86
747.37	247.60
747.70	247.37
748.03	247.10
748.36	246.89
748.68	246.69
749.01	246.43
749.34	246.22
749.67	245.98
750.00	245.73
750.33	245.60
750.65	245.40
750.98	245.04
751.31	244.82
751.64	244.66
751.97	244.50
752.29	244.27
752.62	244.02
752.95	243.83
753.28	243.60
753.60	243.37
753.93	243.23
754.26	243.02
754.59	242.81
754.91	242.60
755.24	242.42
755.57	242.18
755.90	242.00
756.22	241.79
756.55	241.60
756.88	241.44
757.20	241.19
757.53	240.99
757.86	240.84
758.19	240.69
758.51	240.48
758.84	240.27
759.17	240.14
759.49	239.97
759.82	239.83
760.15	239.69
760.47	239.61
760.80	239.46
761.13	239.37
761.45	239.22
761.78	239.11
762.11	238.97
762.43	238.90
762.76	238.79
763.08	238.68
763.41	238.55
763.74	238.41
764.06	238.27
764.39	238.13
764.71	238.00
765.04	237.84
765.37	237.75
765.69	237.63
766.02	237.51
766.34	237.40
766.67	237.28
767.00	237.16
767.32	237.09
767.65	237.01
767.97	236.89
768.30	236.76
768.62	236.65
768.95	236.52
769.27	236.41
769.60	236.29
769.92	236.22
770.25	236.10
770.57	235.99
770.90	235.90
771.22	235.79
771.55	235.69
771.87	235.61
772.20	235.53
772.52	235.50
772.85	235.51
773.17	235.40
773.50	235.32
773.82	235.23
774.15	235.07
774.47	234.91
774.80	234.83
775.12	234.74
775.45	234.68
775.77	234.59
776.09	234.50
776.42	234.42
776.74	234.36
777.07	234.29
777.39	234.24
777.72	234.12
778.04	234.08
778.36	234.04
778.69	233.98
779.01	233.89
779.33	233.72
779.66	233.54
779.98	233.48
780.31	233.42
780.63	233.36
780.95	233.31
781.28	233.26
781.60	233.19
781.92	233.11
782.25	233.01
782.57	232.95
782.89	232.87
783.22	232.78
783.54	232.66
783.86	232.62
784.19	232.53
784.51	232.53
784.83	232.41
785.16	232.30
785.48	232.21
785.80	232.15
786.12	232.15
786.45	232.10
786.77	232.03
787.09	231.96
