SpectraSuite Data File
++++++++++++++++++++++++++++++++++++
Date: Fri Feb 01 18:07:56 EST 2013
User: group
Dark Spectrum Present: No
Reference Spectrum Present: No
Number of Sampled Component Spectra: 1
Spectrometers: USB2E7196
Integration Time (usec): 35000 (USB2E7196)
Spectra Averaged: 100 (USB2E7196)
Boxcar Smoothing: 10 (USB2E7196)
Correct for Electrical Dark: No (USB2E7196)
Strobe/Lamp Enabled: No (USB2E7196)
Correct for Detector Non-linearity: No (USB2E7196)
Correct for Stray Light: No (USB2E7196)
Number of Pixels in Processed Spectrum: 2048
>>>>>Begin Processed Spectral Data<<<<<
339.09	0.00
339.48	212.25
339.86	214.51
340.24	215.68
340.63	217.14
341.01	220.50
341.39	219.51
341.78	220.98
342.16	222.42
342.54	223.25
342.93	211.37
343.31	222.05
343.69	222.63
344.07	223.09
344.46	223.54
344.84	223.93
345.22	224.17
345.60	224.44
345.99	224.65
346.37	224.82
346.75	224.89
347.13	224.94
347.52	225.01
347.90	225.07
348.28	225.13
348.66	225.16
349.05	225.19
349.43	225.23
349.81	225.29
350.19	225.35
350.57	225.41
350.96	225.55
351.34	225.65
351.72	225.75
352.10	225.83
352.48	225.88
352.87	225.93
353.25	225.99
353.63	226.02
354.01	226.08
354.39	226.14
354.77	226.22
355.15	226.34
355.54	226.38
355.92	226.40
356.30	226.46
356.68	226.61
357.06	226.69
357.44	226.74
357.82	226.78
358.20	226.86
358.58	226.95
358.97	226.99
359.35	227.08
359.73	227.15
360.11	227.21
360.49	227.26
360.87	227.30
361.25	227.37
361.63	227.46
362.01	227.47
362.39	227.49
362.77	227.55
363.15	227.58
363.53	227.63
363.91	227.67
364.29	227.69
364.67	227.61
365.05	227.63
365.43	227.67
365.81	227.71
366.19	227.78
366.57	227.81
366.95	227.83
367.33	227.76
367.71	227.73
368.09	227.72
368.47	227.73
368.85	227.72
369.23	227.68
369.61	227.62
369.99	227.65
370.37	227.63
370.75	227.65
371.13	227.59
371.51	227.51
371.89	227.50
372.27	227.46
372.65	227.39
373.03	227.34
373.41	227.29
373.78	227.21
374.16	227.09
374.54	226.98
374.92	226.90
375.30	226.85
375.68	226.80
376.06	226.76
376.44	226.70
376.82	226.67
377.19	226.64
377.57	226.61
377.95	226.54
378.33	226.47
378.71	226.34
379.09	226.28
379.47	226.26
379.84	226.12
380.22	226.05
380.60	226.03
380.98	225.96
381.36	225.92
381.73	225.84
382.11	225.79
382.49	225.75
382.87	225.66
383.25	225.63
383.62	225.70
384.00	225.64
384.38	225.58
384.76	225.52
385.13	225.51
385.51	225.47
385.89	225.40
386.27	225.37
386.64	225.34
387.02	225.31
387.40	225.24
387.78	225.26
388.15	225.23
388.53	225.17
388.91	225.11
389.29	225.04
389.66	225.01
390.04	224.99
390.42	224.98
390.79	224.97
391.17	224.94
391.55	224.79
391.92	224.79
392.30	224.79
392.68	224.76
393.05	224.75
393.43	224.73
393.81	224.78
394.18	224.78
394.56	224.78
394.94	224.81
395.31	224.83
395.69	224.90
396.06	224.95
396.44	224.99
396.82	225.05
397.19	225.11
397.57	225.17
397.95	225.21
398.32	225.24
398.70	225.31
399.07	225.41
399.45	225.50
399.82	225.55
400.20	225.63
400.58	225.72
400.95	225.74
401.33	225.85
401.70	226.00
402.08	226.08
402.45	226.22
402.83	226.33
403.20	226.48
403.58	226.55
403.95	226.69
404.33	226.83
404.71	226.96
405.08	227.21
405.46	227.36
405.83	227.56
406.21	227.72
406.58	227.92
406.96	228.10
407.33	228.29
407.70	228.54
408.08	228.85
408.45	229.11
408.83	229.40
409.20	229.67
409.58	229.92
409.95	230.23
410.33	230.54
410.70	230.88
411.08	231.25
411.45	231.69
411.82	232.07
412.20	232.53
412.57	233.05
412.95	233.42
413.32	233.95
413.69	234.49
414.07	235.09
414.44	235.71
414.82	236.37
415.19	237.10
415.56	237.82
415.94	238.55
416.31	239.43
416.68	240.25
417.06	241.23
417.43	242.10
417.81	243.16
418.18	244.20
418.55	245.35
418.93	246.55
419.30	247.76
419.67	249.02
420.04	250.33
420.42	251.69
420.79	253.27
421.16	254.86
421.54	256.45
421.91	258.09
422.28	259.81
422.66	261.62
423.03	263.36
423.40	265.19
423.77	267.08
424.15	269.00
424.52	271.07
424.89	273.23
425.26	275.40
425.64	277.37
426.01	279.58
426.38	281.85
426.75	284.12
427.13	286.42
427.50	288.89
427.87	291.46
428.24	294.01
428.61	296.48
428.99	299.09
429.36	301.93
429.73	304.79
430.10	307.55
430.47	310.34
430.85	313.26
431.22	316.28
431.59	319.55
431.96	322.62
432.33	325.97
432.70	329.20
433.08	333.01
433.45	336.59
433.82	340.10
434.19	343.97
434.56	347.81
434.93	351.48
435.30	355.00
435.68	358.91
436.05	362.79
436.42	366.60
436.79	370.04
437.16	373.76
437.53	377.57
437.90	381.37
438.27	385.15
438.64	388.96
439.01	392.55
439.38	395.59
439.75	398.55
440.13	401.98
440.50	405.18
440.87	407.68
441.24	410.36
441.61	413.34
441.98	415.41
442.35	417.90
442.72	420.37
443.09	422.92
443.46	424.24
443.83	425.04
444.20	425.62
444.57	426.78
444.94	427.13
445.31	427.62
445.68	428.12
446.05	428.20
446.42	427.73
446.79	427.12
447.16	426.52
447.53	426.10
447.90	424.47
448.27	422.87
448.64	420.72
449.01	419.17
449.37	416.49
449.74	413.87
450.11	410.75
450.48	407.44
450.85	403.94
451.22	401.05
451.59	398.29
451.96	395.71
452.33	392.10
452.70	388.95
453.07	385.06
453.43	381.11
453.80	377.32
454.17	373.69
454.54	370.24
454.91	366.56
455.28	362.92
455.65	359.56
456.02	356.19
456.38	353.25
456.75	349.60
457.12	346.50
457.49	343.50
457.86	340.54
458.23	338.01
458.59	335.21
458.96	332.40
459.33	329.82
459.70	327.30
460.07	325.27
460.43	322.90
460.80	320.66
461.17	318.66
461.54	316.56
461.91	314.55
462.27	312.54
462.64	310.79
463.01	308.92
463.38	307.11
463.74	305.26
464.11	303.65
464.48	302.26
464.85	300.76
465.21	299.54
465.58	298.28
465.95	296.75
466.32	295.52
466.68	294.24
467.05	293.06
467.42	291.81
467.78	290.56
468.15	289.38
468.52	288.49
468.88	287.31
469.25	286.28
469.62	285.45
469.98	284.55
470.35	283.66
470.72	282.78
471.08	281.90
471.45	281.16
471.82	280.39
472.18	279.52
472.55	278.88
472.92	278.15
473.28	277.48
473.65	276.85
474.02	276.19
474.38	275.66
474.75	275.16
475.11	274.62
475.48	274.18
475.85	273.81
476.21	273.43
476.58	273.17
476.94	272.91
477.31	272.60
477.67	272.32
478.04	272.10
478.41	272.00
478.77	271.91
479.14	271.75
479.50	271.67
479.87	271.68
480.23	271.68
480.60	271.69
480.96	271.70
481.33	271.84
481.69	272.03
482.06	272.15
482.42	272.29
482.79	272.52
483.15	272.84
483.52	273.20
483.88	273.49
484.25	273.81
484.61	274.22
484.98	274.66
485.34	275.20
485.71	275.80
486.07	276.41
486.44	276.98
486.80	277.69
487.17	278.46
487.53	279.29
487.90	280.19
488.26	281.12
488.62	282.14
488.99	283.13
489.35	284.20
489.72	285.35
490.08	286.61
490.44	287.91
490.81	289.28
491.17	290.65
491.54	292.22
491.90	293.84
492.26	295.57
492.63	297.37
492.99	299.27
493.36	301.29
493.72	303.44
494.08	305.68
494.45	308.08
494.81	310.56
495.17	313.14
495.54	315.84
495.90	318.72
496.26	321.69
496.63	324.83
496.99	328.12
497.35	331.57
497.72	335.13
498.08	338.86
498.44	342.76
498.80	346.95
499.17	351.24
499.53	355.64
499.89	360.27
500.26	365.07
500.62	369.97
500.98	375.23
501.34	380.60
501.71	386.25
502.07	392.07
502.43	398.03
502.79	404.23
503.16	410.67
503.52	417.29
503.88	424.13
504.24	431.19
504.60	438.51
504.97	446.12
505.33	453.95
505.69	462.19
506.05	470.44
506.41	478.81
506.78	487.52
507.14	496.60
507.50	505.94
507.86	515.58
508.22	525.51
508.59	535.37
508.95	545.64
509.31	556.10
509.67	566.83
510.03	577.85
510.39	589.21
510.75	600.82
511.12	612.57
511.48	624.69
511.84	637.03
512.20	649.42
512.56	662.28
512.92	675.34
513.28	688.62
513.64	702.12
514.00	715.92
514.37	729.94
514.73	744.06
515.09	758.15
515.45	772.51
515.81	787.09
516.17	802.21
516.53	817.53
516.89	832.98
517.25	848.34
517.61	863.99
517.97	879.69
518.33	895.39
518.69	911.42
519.05	927.83
519.41	944.41
519.77	961.44
520.13	978.36
520.49	995.25
520.85	1012.15
521.21	1029.35
521.57	1047.17
521.93	1064.31
522.29	1082.22
522.65	1100.09
523.01	1117.88
523.37	1135.56
523.73	1153.45
524.09	1171.17
524.45	1189.02
524.81	1207.40
525.17	1225.92
525.53	1244.60
525.89	1263.36
526.25	1282.13
526.61	1300.15
526.97	1318.59
527.33	1336.82
527.68	1355.31
528.04	1373.60
528.40	1392.09
528.76	1411.14
529.12	1429.59
529.48	1448.66
529.84	1466.58
530.20	1485.21
530.56	1504.22
530.91	1523.86
531.27	1542.70
531.63	1561.22
531.99	1580.09
532.35	1598.20
532.71	1616.27
533.07	1634.63
533.42	1652.61
533.78	1670.86
534.14	1689.43
534.50	1707.06
534.86	1725.19
535.21	1742.41
535.57	1760.59
535.93	1778.15
536.29	1795.11
536.65	1812.30
537.00	1829.01
537.36	1846.63
537.72	1863.33
538.08	1880.10
538.44	1896.03
538.79	1912.14
539.15	1927.99
539.51	1943.77
539.87	1960.44
540.22	1976.47
540.58	1992.55
540.94	2008.22
541.29	2023.24
541.65	2038.28
542.01	2053.83
542.37	2068.60
542.72	2083.38
543.08	2097.49
543.44	2112.44
543.79	2126.00
544.15	2139.35
544.51	2153.61
544.87	2166.89
545.22	2180.08
545.58	2192.55
545.94	2204.56
546.29	2216.56
546.65	2228.89
547.01	2240.65
547.36	2251.56
547.72	2262.15
548.07	2272.16
548.43	2282.29
548.79	2292.58
549.14	2302.12
549.50	2311.43
549.86	2321.06
550.21	2330.51
550.57	2339.78
550.92	2348.36
551.28	2357.34
551.64	2366.44
551.99	2374.93
552.35	2383.20
552.70	2391.43
553.06	2399.48
553.41	2407.82
553.77	2415.81
554.13	2423.80
554.48	2431.85
554.84	2439.36
555.19	2446.35
555.55	2453.42
555.90	2459.68
556.26	2466.40
556.61	2473.02
556.97	2479.31
557.32	2485.22
557.68	2491.10
558.03	2497.05
558.39	2502.37
558.74	2508.91
559.10	2514.51
559.45	2519.73
559.81	2525.48
560.16	2530.82
560.52	2535.47
560.87	2540.48
561.23	2544.53
561.58	2548.76
561.94	2552.65
562.29	2556.20
562.64	2560.48
563.00	2564.37
563.35	2569.41
563.71	2573.77
564.06	2578.20
564.42	2582.31
564.77	2586.21
565.12	2589.94
565.48	2593.02
565.83	2596.22
566.19	2598.77
566.54	2600.53
566.89	2602.78
567.25	2604.43
567.60	2606.78
567.96	2609.60
568.31	2611.33
568.66	2613.67
569.02	2615.05
569.37	2616.29
569.72	2618.15
570.08	2619.22
570.43	2620.10
570.78	2620.42
571.14	2619.49
571.49	2618.82
571.84	2619.07
572.20	2618.55
572.55	2618.07
572.90	2617.07
573.26	2616.17
573.61	2614.65
573.96	2613.49
574.31	2610.76
574.67	2608.14
575.02	2604.71
575.37	2601.51
575.72	2597.85
576.08	2594.43
576.43	2591.44
576.78	2587.85
577.13	2584.77
577.49	2581.71
577.84	2578.37
578.19	2574.49
578.54	2571.10
578.90	2566.95
579.25	2561.10
579.60	2555.72
579.95	2550.27
580.30	2544.93
580.66	2539.42
581.01	2534.29
581.36	2529.13
581.71	2524.76
582.06	2519.92
582.42	2515.12
582.77	2509.48
583.12	2504.64
583.47	2499.74
583.82	2494.33
584.17	2488.68
584.53	2482.76
584.88	2476.56
585.23	2470.23
585.58	2464.20
585.93	2458.11
586.28	2452.75
586.63	2447.45
586.98	2441.79
587.34	2436.61
587.69	2431.32
588.04	2425.62
588.39	2419.34
588.74	2411.94
589.09	2405.05
589.44	2397.54
589.79	2390.76
590.14	2384.47
590.49	2377.04
590.84	2369.91
591.19	2363.27
591.54	2355.89
591.89	2347.65
592.25	2339.91
592.60	2331.71
592.95	2323.06
593.30	2314.73
593.65	2306.15
594.00	2297.95
594.35	2289.86
594.70	2280.67
595.05	2272.48
595.40	2263.99
595.75	2255.25
596.10	2248.34
596.45	2240.71
596.80	2233.67
597.15	2226.22
597.50	2218.19
597.85	2210.73
598.19	2202.95
598.54	2194.73
598.89	2187.14
599.24	2180.25
599.59	2172.68
599.94	2165.44
600.29	2158.26
600.64	2150.51
600.99	2141.94
601.34	2134.08
601.69	2125.95
602.04	2118.05
602.39	2109.50
602.74	2101.46
603.08	2093.66
603.43	2085.73
603.78	2077.08
604.13	2068.57
604.48	2060.02
604.83	2051.86
605.18	2043.87
605.53	2034.58
605.87	2025.18
606.22	2016.58
606.57	2007.16
606.92	1998.39
607.27	1989.98
607.62	1981.65
607.96	1973.13
608.31	1965.28
608.66	1956.29
609.01	1947.47
609.36	1938.39
609.70	1928.99
610.05	1919.63
610.40	1910.51
610.75	1900.64
611.10	1891.68
611.44	1881.74
611.79	1872.28
612.14	1861.99
612.49	1851.04
612.83	1841.12
613.18	1831.43
613.53	1821.90
613.88	1811.86
614.22	1802.15
614.57	1791.93
614.92	1782.53
615.27	1773.56
615.61	1763.84
615.96	1754.40
616.31	1745.27
616.65	1736.75
617.00	1727.83
617.35	1718.65
617.70	1708.94
618.04	1699.07
618.39	1689.23
618.74	1680.25
619.08	1670.38
619.43	1661.46
619.78	1653.30
620.12	1644.76
620.47	1635.92
620.82	1626.21
621.16	1617.33
621.51	1608.23
621.85	1599.20
622.20	1589.13
622.55	1579.34
622.89	1570.02
623.24	1560.84
623.59	1552.05
623.93	1543.14
624.28	1534.55
624.62	1525.73
624.97	1517.16
625.32	1509.06
625.66	1500.76
626.01	1492.42
626.35	1483.64
626.70	1474.50
627.04	1465.45
627.39	1456.37
627.73	1447.56
628.08	1439.47
628.43	1431.02
628.77	1422.42
629.12	1413.54
629.46	1405.15
629.81	1396.28
630.15	1387.62
630.50	1378.98
630.84	1369.33
631.19	1359.84
631.53	1350.94
631.88	1341.99
632.22	1333.00
632.57	1324.38
632.91	1315.47
633.26	1306.69
633.60	1298.03
633.95	1289.65
634.29	1281.28
634.64	1273.33
634.98	1264.72
635.32	1256.26
635.67	1248.35
636.01	1240.52
636.36	1232.55
636.70	1224.77
637.05	1217.02
637.39	1209.32
637.73	1201.70
638.08	1194.80
638.42	1187.76
638.77	1180.07
639.11	1172.35
639.45	1164.79
639.80	1156.94
640.14	1149.52
640.49	1141.80
640.83	1134.34
641.17	1126.99
641.52	1119.49
641.86	1111.88
642.20	1105.00
642.55	1097.47
642.89	1089.94
643.23	1082.16
643.58	1075.44
643.92	1068.26
644.26	1061.22
644.61	1054.16
644.95	1047.06
645.29	1039.44
645.64	1031.56
645.98	1024.18
646.32	1017.28
646.66	1010.34
647.01	1003.58
647.35	996.74
647.69	989.83
648.04	983.35
648.38	976.63
648.72	969.77
649.06	962.71
649.41	955.82
649.75	949.00
650.09	942.08
650.43	935.49
650.78	928.21
651.12	921.28
651.46	914.62
651.80	908.02
652.14	901.69
652.49	895.40
652.83	889.33
653.17	882.73
653.51	876.16
653.85	869.81
654.20	863.22
654.54	856.27
654.88	849.62
655.22	842.73
655.56	836.09
655.90	829.62
656.25	823.46
656.59	817.24
656.93	811.35
657.27	805.29
657.61	798.93
657.95	793.05
658.29	787.06
658.64	780.90
658.98	774.67
659.32	768.33
659.66	762.21
660.00	756.04
660.34	750.29
660.68	744.57
661.02	738.64
661.36	733.14
661.70	727.90
662.05	722.85
662.39	717.92
662.73	712.74
663.07	707.68
663.41	702.58
663.75	697.32
664.09	691.92
664.43	686.78
664.77	681.98
665.11	677.01
665.45	672.20
665.79	667.45
666.13	662.73
666.47	658.02
666.81	653.20
667.15	648.41
667.49	643.90
667.83	639.41
668.17	634.95
668.51	630.25
668.85	625.63
669.19	621.12
669.53	616.70
669.87	612.23
670.21	607.89
670.55	603.63
670.89	599.59
671.23	595.66
671.57	591.62
671.91	587.52
672.25	583.46
672.58	579.41
672.92	575.44
673.26	571.71
673.60	567.99
673.94	564.42
674.28	561.03
674.62	557.64
674.96	554.01
675.30	550.63
675.64	547.29
675.97	543.97
676.31	540.68
676.65	537.24
676.99	534.06
677.33	530.79
677.67	527.53
678.01	524.14
678.34	520.68
678.68	517.36
679.02	514.14
679.36	510.96
679.70	507.86
680.04	504.73
680.37	501.46
680.71	498.22
681.05	495.20
681.39	492.10
681.73	488.98
682.06	486.10
682.40	483.17
682.74	480.17
683.08	477.28
683.42	474.25
683.75	471.39
684.09	468.44
684.43	465.55
684.77	462.66
685.10	459.90
685.44	457.25
685.78	454.58
686.12	451.90
686.45	449.21
686.79	446.45
687.13	443.82
687.46	441.28
687.80	438.80
688.14	436.15
688.48	433.76
688.81	431.12
689.15	428.55
689.49	425.98
689.82	423.59
690.16	421.10
690.50	418.80
690.83	416.53
691.17	414.19
691.51	411.99
691.84	409.85
692.18	407.57
692.52	405.22
692.85	402.92
693.19	400.74
693.52	398.54
693.86	396.43
694.20	394.35
694.53	392.20
694.87	390.02
695.21	387.94
695.54	385.78
695.88	383.79
696.21	381.82
696.55	379.85
696.88	377.82
697.22	375.87
697.56	374.01
697.89	372.04
698.23	370.15
698.56	368.23
698.90	366.35
699.23	364.45
699.57	362.66
699.90	360.84
700.24	359.05
700.58	357.32
700.91	355.63
701.25	353.87
701.58	352.25
701.92	350.67
702.25	349.09
702.59	347.53
702.92	345.95
703.26	344.43
703.59	342.97
703.93	341.59
704.26	340.20
704.60	338.65
704.93	337.15
705.26	335.69
705.60	334.33
705.93	332.98
706.27	331.74
706.60	330.51
706.94	329.27
707.27	327.90
707.61	326.64
707.94	325.42
708.27	324.23
708.61	322.99
708.94	321.78
709.28	320.60
709.61	319.44
709.94	318.36
710.28	317.09
710.61	315.94
710.95	314.73
711.28	313.60
711.61	312.52
711.95	311.47
712.28	310.41
712.61	309.28
712.95	308.19
713.28	307.15
713.61	306.10
713.95	305.08
714.28	304.12
714.61	303.12
714.95	302.11
715.28	301.13
715.61	300.08
715.95	299.10
716.28	298.11
716.61	297.14
716.95	296.16
717.28	295.33
717.61	294.44
717.94	293.57
718.28	292.64
718.61	291.78
718.94	290.93
719.27	290.14
719.61	289.37
719.94	288.62
720.27	287.79
720.60	287.00
720.94	286.28
721.27	285.57
721.60	284.92
721.93	284.24
722.27	283.56
722.60	282.94
722.93	282.28
723.26	281.64
723.59	280.98
723.93	280.34
724.26	279.68
724.59	279.03
724.92	278.39
725.25	277.84
725.59	277.19
725.92	276.62
726.25	275.96
726.58	275.39
726.91	274.80
727.24	274.24
727.57	273.70
727.91	273.09
728.24	272.54
728.57	271.98
728.90	271.40
729.23	270.81
729.56	270.30
729.89	269.75
730.22	269.15
730.55	268.63
730.89	268.13
731.22	267.62
731.55	267.11
731.88	266.62
732.21	266.10
732.54	265.65
732.87	265.14
733.20	264.73
733.53	264.28
733.86	263.85
734.19	263.38
734.52	262.94
734.85	262.57
735.18	262.08
735.51	261.62
735.84	261.21
736.17	260.81
736.50	260.36
736.83	260.06
737.16	259.71
737.49	259.30
737.82	258.86
738.15	258.46
738.48	258.06
738.81	257.65
739.14	257.30
739.47	256.89
739.80	256.54
740.13	256.19
740.46	255.79
740.79	255.40
741.12	255.05
741.45	254.65
741.78	254.25
742.11	253.97
742.44	253.58
742.77	253.22
743.10	252.87
743.43	252.52
743.75	252.07
744.08	251.87
744.41	251.55
744.74	251.27
745.07	250.93
745.40	250.62
745.73	250.34
746.06	249.98
746.39	249.67
746.71	249.34
747.04	249.01
747.37	248.69
747.70	248.38
748.03	248.06
748.36	247.79
748.68	247.50
749.01	247.15
749.34	246.86
749.67	246.57
750.00	246.29
750.33	246.09
750.65	245.82
750.98	245.44
751.31	245.16
751.64	244.92
751.97	244.74
752.29	244.46
752.62	244.19
752.95	243.97
753.28	243.74
753.60	243.49
753.93	243.28
754.26	243.09
754.59	242.84
754.91	242.65
755.24	242.43
755.57	242.23
755.90	242.03
756.22	241.87
756.55	241.67
756.88	241.45
757.20	241.17
757.53	240.97
757.86	240.75
758.19	240.62
758.51	240.41
758.84	240.18
759.17	239.99
759.49	239.82
759.82	239.66
760.15	239.47
760.47	239.31
760.80	239.14
761.13	238.99
761.45	238.79
761.78	238.61
762.11	238.46
762.43	238.31
762.76	238.17
763.08	238.01
763.41	237.86
763.74	237.72
764.06	237.58
764.39	237.43
764.71	237.27
765.04	237.10
765.37	236.95
765.69	236.79
766.02	236.69
766.34	236.52
766.67	236.35
767.00	236.26
767.32	236.17
767.65	236.06
767.97	235.91
768.30	235.85
768.62	235.73
768.95	235.61
769.27	235.46
769.60	235.35
769.92	235.18
770.25	235.06
770.57	234.92
770.90	234.80
771.22	234.68
771.55	234.59
771.87	234.49
772.20	234.37
772.52	234.36
772.85	234.32
773.17	234.22
773.50	234.10
773.82	233.98
774.15	233.83
774.47	233.66
774.80	233.52
775.12	233.37
775.45	233.29
775.77	233.18
776.09	233.09
776.42	232.99
776.74	232.98
777.07	232.85
777.39	232.77
777.72	232.69
778.04	232.59
778.36	232.48
778.69	232.38
779.01	232.30
779.33	232.13
779.66	231.95
779.98	231.85
780.31	231.78
780.63	231.74
780.95	231.67
781.28	231.56
781.60	231.49
781.92	231.41
782.25	231.28
782.57	231.19
782.89	231.13
783.22	231.03
783.54	230.93
783.86	230.90
784.19	230.83
784.51	230.82
784.83	230.75
785.16	230.70
785.48	230.64
785.80	230.62
786.12	230.56
786.45	230.52
