SpectraSuite Data File
++++++++++++++++++++++++++++++++++++
Date: Fri Feb 01 15:37:56 EST 2013
User: group
Dark Spectrum Present: No
Reference Spectrum Present: No
Number of Sampled Component Spectra: 1
Spectrometers: USB2E7196
Integration Time (usec): 35000 (USB2E7196)
Spectra Averaged: 100 (USB2E7196)
Boxcar Smoothing: 10 (USB2E7196)
Correct for Electrical Dark: No (USB2E7196)
Strobe/Lamp Enabled: No (USB2E7196)
Correct for Detector Non-linearity: No (USB2E7196)
Correct for Stray Light: No (USB2E7196)
Number of Pixels in Processed Spectrum: 2048
>>>>>Begin Processed Spectral Data<<<<<
339.09	0.00
339.48	215.00
339.86	216.38
340.24	217.41
340.63	218.71
341.01	221.81
341.39	221.95
341.78	223.09
342.16	224.16
342.54	225.11
342.93	213.16
343.31	223.94
343.69	224.46
344.07	224.91
344.46	225.35
344.84	225.73
345.22	225.96
345.60	226.20
345.99	226.37
346.37	226.50
346.75	226.59
347.13	226.68
347.52	226.77
347.90	226.86
348.28	226.88
348.66	226.93
349.05	226.91
349.43	226.96
349.81	227.01
350.19	227.05
350.57	227.10
350.96	227.20
351.34	227.28
351.72	227.39
352.10	227.48
352.48	227.54
352.87	227.61
353.25	227.69
353.63	227.75
354.01	227.84
354.39	227.94
354.77	228.02
355.15	228.14
355.54	228.16
355.92	228.20
356.30	228.29
356.68	228.40
357.06	228.49
357.44	228.56
357.82	228.61
358.20	228.67
358.58	228.74
358.97	228.78
359.35	228.88
359.73	228.91
360.11	228.97
360.49	229.00
360.87	229.06
361.25	229.09
361.63	229.17
362.01	229.23
362.39	229.24
362.77	229.26
363.15	229.23
363.53	229.29
363.91	229.30
364.29	229.33
364.67	229.26
365.05	229.27
365.43	229.28
365.81	229.32
366.19	229.40
366.57	229.39
366.95	229.42
367.33	229.36
367.71	229.37
368.09	229.35
368.47	229.37
368.85	229.33
369.23	229.36
369.61	229.29
369.99	229.29
370.37	229.25
370.75	229.30
371.13	229.28
371.51	229.21
371.89	229.18
372.27	229.16
372.65	229.11
373.03	229.08
373.41	229.04
373.78	228.98
374.16	228.84
374.54	228.76
374.92	228.67
375.30	228.61
375.68	228.54
376.06	228.53
376.44	228.43
376.82	228.38
377.19	228.30
377.57	228.23
377.95	228.09
378.33	228.03
378.71	227.89
379.09	227.81
379.47	227.74
379.84	227.65
380.22	227.54
380.60	227.47
380.98	227.39
381.36	227.33
381.73	227.25
382.11	227.20
382.49	227.14
382.87	227.05
383.25	227.01
383.62	227.06
384.00	226.95
384.38	226.92
384.76	226.92
385.13	226.90
385.51	226.85
385.89	226.80
386.27	226.76
386.64	226.71
387.02	226.68
387.40	226.63
387.78	226.60
388.15	226.59
388.53	226.53
388.91	226.50
389.29	226.44
389.66	226.44
390.04	226.39
390.42	226.41
390.79	226.40
391.17	226.34
391.55	226.22
391.92	226.21
392.30	226.21
392.68	226.16
393.05	226.17
393.43	226.18
393.81	226.18
394.18	226.19
394.56	226.18
394.94	226.26
395.31	226.28
395.69	226.30
396.06	226.33
396.44	226.39
396.82	226.42
397.19	226.50
397.57	226.51
397.95	226.61
398.32	226.62
398.70	226.71
399.07	226.82
399.45	226.88
399.82	226.96
400.20	227.03
400.58	227.09
400.95	227.12
401.33	227.24
401.70	227.42
402.08	227.50
402.45	227.60
402.83	227.67
403.20	227.78
403.58	227.91
403.95	228.04
404.33	228.18
404.71	228.32
405.08	228.53
405.46	228.64
405.83	228.77
406.21	228.93
406.58	229.09
406.96	229.25
407.33	229.44
407.70	229.64
408.08	229.88
408.45	230.10
408.83	230.32
409.20	230.54
409.58	230.74
409.95	231.01
410.33	231.28
410.70	231.52
411.08	231.85
411.45	232.14
411.82	232.44
412.20	232.77
412.57	233.20
412.95	233.50
413.32	233.96
413.69	234.36
414.07	234.81
414.44	235.27
414.82	235.77
415.19	236.29
415.56	236.82
415.94	237.40
416.31	238.09
416.68	238.67
417.06	239.36
417.43	240.04
417.81	240.80
418.18	241.61
418.55	242.48
418.93	243.34
419.30	244.28
419.67	245.23
420.04	246.21
420.42	247.20
420.79	248.35
421.16	249.51
421.54	250.73
421.91	251.94
422.28	253.18
422.66	254.48
423.03	255.80
423.40	257.17
423.77	258.59
424.15	259.99
424.52	261.54
424.89	263.14
425.26	264.70
425.64	266.16
426.01	267.78
426.38	269.46
426.75	271.14
427.13	272.84
427.50	274.64
427.87	276.50
428.24	278.37
428.61	280.13
428.99	282.06
429.36	284.16
429.73	286.20
430.10	288.26
430.47	290.31
430.85	292.47
431.22	294.69
431.59	297.05
431.96	299.30
432.33	301.76
432.70	304.19
433.08	306.99
433.45	309.64
433.82	312.24
434.19	315.05
434.56	317.87
434.93	320.49
435.30	323.11
435.68	326.00
436.05	328.82
436.42	331.61
436.79	334.14
437.16	336.83
437.53	339.65
437.90	342.46
438.27	345.26
438.64	348.09
439.01	350.68
439.38	352.94
439.75	355.11
440.13	357.59
440.50	359.92
440.87	361.78
441.24	363.71
441.61	365.89
441.98	367.44
442.35	369.20
442.72	371.10
443.09	372.90
443.46	373.93
443.83	374.52
444.20	375.05
444.57	375.91
444.94	376.17
445.31	376.50
445.68	376.88
446.05	376.91
446.42	376.49
446.79	376.04
447.16	375.57
447.53	375.21
447.90	374.08
448.27	372.89
448.64	371.34
449.01	370.16
449.37	368.17
449.74	366.22
450.11	363.96
450.48	361.52
450.85	359.01
451.22	356.84
451.59	354.80
451.96	352.85
452.33	350.19
452.70	347.84
453.07	345.04
453.43	342.12
453.80	339.36
454.17	336.73
454.54	334.20
454.91	331.51
455.28	328.85
455.65	326.30
456.02	323.83
456.38	321.64
456.75	319.01
457.12	316.72
457.49	314.54
457.86	312.40
458.23	310.53
458.59	308.44
458.96	306.33
459.33	304.46
459.70	302.60
460.07	301.09
460.43	299.37
460.80	297.73
461.17	296.28
461.54	294.79
461.91	293.32
462.27	291.87
462.64	290.59
463.01	289.29
463.38	288.01
463.74	286.70
464.11	285.50
464.48	284.50
464.85	283.38
465.21	282.49
465.58	281.54
465.95	280.45
466.32	279.57
466.68	278.68
467.05	277.78
467.42	276.87
467.78	275.94
468.15	275.05
468.52	274.44
468.88	273.58
469.25	272.79
469.62	272.18
469.98	271.53
470.35	270.88
470.72	270.24
471.08	269.60
471.45	269.01
471.82	268.49
472.18	267.86
472.55	267.45
472.92	266.90
473.28	266.47
473.65	266.02
474.02	265.60
474.38	265.26
474.75	264.93
475.11	264.60
475.48	264.35
475.85	264.10
476.21	263.84
476.58	263.67
476.94	263.50
477.31	263.31
477.67	263.16
478.04	263.03
478.41	262.99
478.77	263.04
479.14	262.97
479.50	262.97
479.87	263.04
480.23	263.07
480.60	263.15
480.96	263.21
481.33	263.36
481.69	263.55
482.06	263.73
482.42	263.91
482.79	264.15
483.15	264.44
483.52	264.87
483.88	265.24
484.25	265.63
484.61	266.06
484.98	266.52
485.34	267.09
485.71	267.71
486.07	268.33
486.44	268.87
486.80	269.55
487.17	270.30
487.53	271.12
487.90	272.01
488.26	272.97
488.62	273.95
488.99	274.94
489.35	275.93
489.72	277.06
490.08	278.27
490.44	279.50
490.81	280.81
491.17	282.16
491.54	283.61
491.90	285.12
492.26	286.80
492.63	288.51
492.99	290.24
493.36	292.14
493.72	294.19
494.08	296.28
494.45	298.59
494.81	300.96
495.17	303.37
495.54	305.92
495.90	308.63
496.26	311.41
496.63	314.39
496.99	317.53
497.35	320.82
497.72	324.22
498.08	327.74
498.44	331.43
498.80	335.32
499.17	339.34
499.53	343.50
499.89	347.87
500.26	352.40
500.62	357.09
500.98	362.08
501.34	367.12
501.71	372.48
502.07	377.91
502.43	383.47
502.79	389.31
503.16	395.36
503.52	401.61
503.88	408.03
504.24	414.66
504.60	421.52
504.97	428.64
505.33	436.01
505.69	443.71
506.05	451.51
506.41	459.42
506.78	467.66
507.14	476.12
507.50	484.82
507.86	493.85
508.22	503.07
508.59	512.25
508.95	521.88
509.31	531.66
509.67	541.78
510.03	552.11
510.39	562.66
510.75	573.52
511.12	584.42
511.48	595.79
511.84	607.22
512.20	618.76
512.56	630.76
512.92	642.93
513.28	655.27
513.64	667.74
514.00	680.45
514.37	693.32
514.73	706.40
515.09	719.46
515.45	732.70
515.81	746.26
516.17	760.25
516.53	774.36
516.89	788.60
517.25	802.71
517.61	817.11
517.97	831.54
518.33	846.01
518.69	860.78
519.05	875.80
519.41	891.04
519.77	906.63
520.13	921.99
520.49	937.40
520.85	952.89
521.21	968.58
521.57	984.80
521.93	1000.57
522.29	1017.01
522.65	1033.29
523.01	1049.50
523.37	1065.53
523.73	1081.74
524.09	1097.84
524.45	1114.11
524.81	1130.88
525.17	1147.74
525.53	1164.70
525.89	1181.51
526.25	1198.42
526.61	1214.78
526.97	1231.52
527.33	1248.00
527.68	1264.69
528.04	1281.21
528.40	1297.82
528.76	1314.95
529.12	1331.55
529.48	1348.48
529.84	1364.50
530.20	1381.10
530.56	1398.25
530.91	1415.71
531.27	1432.42
531.63	1448.91
531.99	1465.61
532.35	1481.51
532.71	1497.39
533.07	1513.69
533.42	1529.57
533.78	1545.58
534.14	1561.77
534.50	1577.13
534.86	1593.05
535.21	1608.25
535.57	1624.20
535.93	1639.70
536.29	1654.47
536.65	1669.60
537.00	1684.43
537.36	1699.69
537.72	1714.35
538.08	1728.80
538.44	1742.68
538.79	1756.58
539.15	1770.33
539.51	1783.98
539.87	1798.42
540.22	1812.29
540.58	1826.06
540.94	1839.64
541.29	1852.56
541.65	1865.40
542.01	1878.67
542.37	1891.02
542.72	1903.44
543.08	1915.18
543.44	1927.71
543.79	1938.96
544.15	1949.99
544.51	1961.57
544.87	1972.67
545.22	1983.41
545.58	1993.65
545.94	2003.33
546.29	2013.24
546.65	2023.14
547.01	2032.43
547.36	2041.02
547.72	2049.42
548.07	2057.27
548.43	2065.45
548.79	2073.70
549.14	2081.21
549.50	2088.65
549.86	2096.27
550.21	2103.60
550.57	2110.75
550.92	2117.29
551.28	2124.37
551.64	2131.36
551.99	2137.91
552.35	2144.05
552.70	2150.35
553.06	2156.41
553.41	2162.86
553.77	2168.95
554.13	2175.02
554.48	2181.27
554.84	2186.70
555.19	2192.00
555.55	2197.05
555.90	2201.33
556.26	2205.98
556.61	2210.78
556.97	2214.84
557.32	2218.94
557.68	2223.12
558.03	2227.45
558.39	2231.17
558.74	2235.80
559.10	2239.71
559.45	2243.31
559.81	2247.67
560.16	2251.24
560.52	2254.42
560.87	2257.82
561.23	2260.45
561.58	2263.34
561.94	2265.80
562.29	2268.31
562.64	2271.04
563.00	2273.65
563.35	2277.26
563.71	2280.54
564.06	2283.71
564.42	2286.62
564.77	2289.21
565.12	2291.42
565.48	2293.29
565.83	2295.03
566.19	2296.39
566.54	2297.34
566.89	2298.42
567.25	2298.78
567.60	2300.14
567.96	2301.67
568.31	2302.41
568.66	2303.56
569.02	2304.01
569.37	2304.28
569.72	2305.07
570.08	2305.13
570.43	2305.26
570.78	2304.52
571.14	2302.81
571.49	2301.37
571.84	2301.09
572.20	2299.82
572.55	2298.79
572.90	2297.26
573.26	2295.92
573.61	2294.04
573.96	2292.15
574.31	2289.12
574.67	2286.13
575.02	2282.41
575.37	2279.10
575.72	2275.39
576.08	2272.01
576.43	2268.72
576.78	2265.02
577.13	2261.80
577.49	2258.59
577.84	2254.96
578.19	2251.16
578.54	2247.43
578.90	2243.11
579.25	2237.52
579.60	2232.58
579.95	2227.38
580.30	2222.32
580.66	2216.96
581.01	2212.04
581.36	2207.14
581.71	2203.02
582.06	2198.61
582.42	2194.09
582.77	2188.75
583.12	2183.99
583.47	2179.06
583.82	2174.10
584.17	2168.83
584.53	2163.47
584.88	2157.78
585.23	2151.97
585.58	2146.64
585.93	2141.27
586.28	2136.62
586.63	2131.51
586.98	2126.36
587.34	2121.73
587.69	2116.80
588.04	2111.54
588.39	2105.83
588.74	2099.35
589.09	2093.00
589.44	2086.19
589.79	2080.29
590.14	2074.71
590.49	2068.13
590.84	2061.88
591.19	2055.78
591.54	2049.28
591.89	2041.70
592.25	2034.94
592.60	2027.74
592.95	2020.04
593.30	2012.53
593.65	2004.82
594.00	1997.64
594.35	1990.40
594.70	1982.34
595.05	1974.93
595.40	1967.70
595.75	1960.21
596.10	1953.84
596.45	1947.18
596.80	1940.85
597.15	1934.09
597.50	1926.93
597.85	1920.59
598.19	1913.89
598.54	1906.69
598.89	1900.02
599.24	1894.11
599.59	1887.36
599.94	1881.22
600.29	1874.92
600.64	1868.43
600.99	1860.88
601.34	1854.05
601.69	1847.02
602.04	1840.05
602.39	1832.80
602.74	1825.87
603.08	1819.12
603.43	1812.34
603.78	1805.08
604.13	1797.90
604.48	1790.56
604.83	1783.64
605.18	1776.48
605.53	1768.29
605.87	1760.33
606.22	1753.10
606.57	1745.13
606.92	1737.79
607.27	1730.48
607.62	1723.48
607.96	1716.17
608.31	1709.67
608.66	1702.08
609.01	1694.62
609.36	1687.12
609.70	1679.06
610.05	1670.95
610.40	1663.17
610.75	1654.93
611.10	1647.19
611.44	1638.76
611.79	1630.79
612.14	1622.05
612.49	1612.92
612.83	1604.66
613.18	1596.45
613.53	1588.29
613.88	1579.78
614.22	1571.55
614.57	1562.96
614.92	1554.98
615.27	1547.38
615.61	1538.90
615.96	1530.85
616.31	1523.22
616.65	1515.79
617.00	1508.32
617.35	1500.80
617.70	1492.44
618.04	1483.90
618.39	1475.68
618.74	1468.11
619.08	1459.82
619.43	1452.25
619.78	1445.45
620.12	1438.30
620.47	1430.72
620.82	1422.53
621.16	1415.11
621.51	1407.48
621.85	1399.84
622.20	1391.22
622.55	1382.80
622.89	1375.00
623.24	1367.33
623.59	1359.88
623.93	1352.28
624.28	1344.90
624.62	1337.23
624.97	1330.06
625.32	1323.35
625.66	1316.34
626.01	1309.12
626.35	1301.68
626.70	1293.96
627.04	1286.11
627.39	1278.31
627.73	1271.03
628.08	1264.15
628.43	1256.77
628.77	1249.41
629.12	1241.94
629.46	1234.80
629.81	1227.48
630.15	1220.25
630.50	1212.85
630.84	1204.69
631.19	1196.89
631.53	1189.44
631.88	1181.94
632.22	1174.39
632.57	1167.18
632.91	1159.67
633.26	1152.30
633.60	1145.01
633.95	1138.02
634.29	1131.07
634.64	1124.39
634.98	1117.02
635.32	1109.84
635.67	1103.34
636.01	1096.66
636.36	1089.86
636.70	1083.43
637.05	1076.84
637.39	1070.42
637.73	1063.88
638.08	1057.97
638.42	1051.97
638.77	1045.57
639.11	1038.99
639.45	1032.54
639.80	1025.74
640.14	1019.25
640.49	1012.72
640.83	1006.44
641.17	1000.09
641.52	993.68
641.86	987.29
642.20	981.43
642.55	975.18
642.89	968.65
643.23	962.14
643.58	956.38
643.92	950.08
644.26	944.03
644.61	938.06
644.95	932.05
645.29	925.47
645.64	918.72
645.98	912.39
646.32	906.69
646.66	900.67
647.01	894.93
647.35	889.22
647.69	883.34
648.04	877.69
648.38	871.94
648.72	865.96
649.06	859.81
649.41	853.91
649.75	847.85
650.09	841.95
650.43	836.13
650.78	829.91
651.12	823.99
651.46	818.21
651.80	812.43
652.14	807.10
652.49	801.69
652.83	796.54
653.17	790.81
653.51	784.88
653.85	779.55
654.20	773.83
654.54	767.90
654.88	762.17
655.22	756.35
655.56	750.61
655.90	745.20
656.25	739.94
656.59	734.56
656.93	729.48
657.27	724.28
657.61	718.84
657.95	713.75
658.29	708.61
658.64	703.38
658.98	698.06
659.32	692.62
659.66	687.41
660.00	682.05
660.34	677.14
660.68	672.28
661.02	667.22
661.36	662.53
661.70	658.02
662.05	653.70
662.39	649.36
662.73	644.96
663.07	640.55
663.41	636.17
663.75	631.73
664.09	627.23
664.43	622.87
664.77	618.80
665.11	614.54
665.45	610.46
665.79	606.38
666.13	602.24
666.47	598.15
666.81	594.01
667.15	589.89
667.49	586.04
667.83	582.27
668.17	578.35
668.51	574.31
668.85	570.32
669.19	566.52
669.53	562.63
669.87	558.70
670.21	554.97
670.55	551.24
670.89	547.76
671.23	544.41
671.57	540.87
671.91	537.31
672.25	533.90
672.58	530.36
672.92	526.97
673.26	523.84
673.60	520.67
673.94	517.56
674.28	514.72
674.62	511.70
674.96	508.57
675.30	505.64
675.64	502.69
675.97	499.88
676.31	496.97
676.65	494.10
676.99	491.42
677.33	488.57
677.67	485.77
678.01	482.75
678.34	479.67
678.68	476.81
679.02	474.01
679.36	471.24
679.70	468.58
680.04	465.81
680.37	462.92
680.71	460.18
681.05	457.58
681.39	454.81
681.73	452.22
682.06	449.68
682.40	447.13
682.74	444.67
683.08	442.16
683.42	439.59
683.75	437.08
684.09	434.55
684.43	432.13
684.77	429.72
685.10	427.41
685.44	425.14
685.78	422.87
686.12	420.68
686.45	418.34
686.79	415.99
687.13	413.78
687.46	411.63
687.80	409.49
688.14	407.27
688.48	405.24
688.81	402.98
689.15	400.87
689.49	398.75
689.82	396.64
690.16	394.54
690.50	392.56
690.83	390.63
691.17	388.62
691.51	386.71
691.84	384.89
692.18	382.96
692.52	381.00
692.85	379.11
693.19	377.18
693.52	375.35
693.86	373.59
694.20	371.82
694.53	370.03
694.87	368.14
695.21	366.41
695.54	364.61
695.88	362.90
696.21	361.17
696.55	359.49
696.88	357.80
697.22	356.13
697.56	354.55
697.89	352.91
698.23	351.33
698.56	349.71
698.90	348.03
699.23	346.35
699.57	344.77
699.90	343.23
700.24	341.72
700.58	340.25
700.91	338.77
701.25	337.31
701.58	335.91
701.92	334.52
702.25	333.12
702.59	331.78
702.92	330.44
703.26	329.15
703.59	327.87
703.93	326.72
704.26	325.51
704.60	324.16
704.93	322.87
705.26	321.63
705.60	320.47
705.93	319.40
706.27	318.37
706.60	317.32
706.94	316.22
707.27	315.03
707.61	313.95
707.94	312.91
708.27	311.85
708.61	310.78
708.94	309.81
709.28	308.84
709.61	307.83
709.94	306.86
710.28	305.83
710.61	304.87
710.95	303.77
711.28	302.86
711.61	301.93
711.95	301.01
712.28	300.06
712.61	299.08
712.95	298.13
713.28	297.28
713.61	296.37
713.95	295.52
714.28	294.73
714.61	293.84
714.95	292.97
715.28	292.12
715.61	291.26
715.95	290.41
716.28	289.56
716.61	288.72
716.95	287.95
717.28	287.22
717.61	286.41
717.94	285.67
718.28	284.85
718.61	284.14
718.94	283.45
719.27	282.81
719.61	282.14
719.94	281.46
720.27	280.72
720.60	280.09
720.94	279.43
721.27	278.84
721.60	278.28
721.93	277.72
722.27	277.17
722.60	276.62
722.93	276.04
723.26	275.49
723.59	274.94
723.93	274.40
724.26	273.83
724.59	273.30
724.92	272.76
725.25	272.26
725.59	271.71
725.92	271.20
726.25	270.66
726.58	270.18
726.91	269.64
727.24	269.18
727.57	268.69
727.91	268.20
728.24	267.70
728.57	267.22
728.90	266.75
729.23	266.25
729.56	265.84
729.89	265.38
730.22	264.90
730.55	264.44
730.89	263.99
731.22	263.54
731.55	263.10
731.88	262.69
732.21	262.24
732.54	261.80
732.87	261.38
733.20	260.97
733.53	260.60
733.86	260.24
734.19	259.81
734.52	259.42
734.85	259.08
735.18	258.67
735.51	258.29
735.84	257.90
736.17	257.56
736.50	257.15
736.83	256.91
737.16	256.57
737.49	256.22
737.82	255.87
738.15	255.53
738.48	255.23
738.81	254.90
739.14	254.61
739.47	254.32
739.80	254.00
740.13	253.69
740.46	253.34
740.79	253.03
741.12	252.76
741.45	252.46
741.78	252.12
742.11	251.88
742.44	251.57
742.77	251.28
743.10	250.96
743.43	250.66
743.75	250.25
744.08	250.13
744.41	249.90
744.74	249.64
745.07	249.40
745.40	249.14
745.73	248.95
746.06	248.65
746.39	248.37
746.71	248.11
747.04	247.86
747.37	247.58
747.70	247.33
748.03	247.10
748.36	246.91
748.68	246.65
749.01	246.39
749.34	246.19
749.67	245.96
750.00	245.76
750.33	245.61
750.65	245.46
750.98	245.13
751.31	244.87
751.64	244.65
751.97	244.46
752.29	244.23
752.62	243.96
752.95	243.77
753.28	243.53
753.60	243.33
753.93	243.16
754.26	242.99
754.59	242.79
754.91	242.57
755.24	242.34
755.57	242.17
755.90	241.98
756.22	241.78
756.55	241.59
756.88	241.38
757.20	241.19
757.53	240.96
757.86	240.74
758.19	240.60
758.51	240.40
758.84	240.19
759.17	240.02
759.49	239.85
759.82	239.70
760.15	239.59
760.47	239.44
760.80	239.28
761.13	239.16
761.45	239.03
761.78	238.88
762.11	238.74
762.43	238.58
762.76	238.45
763.08	238.31
763.41	238.21
763.74	238.10
764.06	237.92
764.39	237.78
764.71	237.66
765.04	237.48
765.37	237.38
765.69	237.23
766.02	237.12
766.34	236.99
766.67	236.83
767.00	236.71
767.32	236.64
767.65	236.57
767.97	236.43
768.30	236.30
768.62	236.16
768.95	236.03
769.27	235.94
769.60	235.82
769.92	235.69
770.25	235.53
770.57	235.40
770.90	235.32
771.22	235.20
771.55	235.11
771.87	235.01
772.20	234.90
772.52	234.90
772.85	234.93
773.17	234.84
773.50	234.77
773.82	234.67
774.15	234.53
774.47	234.41
774.80	234.32
775.12	234.23
775.45	234.17
775.77	234.10
776.09	234.03
776.42	233.96
776.74	233.89
777.07	233.82
777.39	233.72
777.72	233.61
778.04	233.58
778.36	233.49
778.69	233.47
779.01	233.41
779.33	233.25
779.66	233.06
779.98	232.97
780.31	232.91
780.63	232.89
780.95	232.87
781.28	232.80
781.60	232.73
781.92	232.65
782.25	232.61
782.57	232.53
782.89	232.45
783.22	232.37
783.54	232.31
783.86	232.26
784.19	232.24
784.51	232.20
784.83	232.12
785.16	232.07
785.48	232.05
785.80	232.02
786.12	231.99
786.45	231.96
786.77	231.92
787.09	231.88
