SpectraSuite Data File
++++++++++++++++++++++++++++++++++++
Date: Fri Feb 01 16:11:03 EST 2013
User: group
Dark Spectrum Present: No
Reference Spectrum Present: No
Number of Sampled Component Spectra: 1
Spectrometers: USB2E7196
Integration Time (usec): 35000 (USB2E7196)
Spectra Averaged: 100 (USB2E7196)
Boxcar Smoothing: 10 (USB2E7196)
Correct for Electrical Dark: No (USB2E7196)
Strobe/Lamp Enabled: No (USB2E7196)
Correct for Detector Non-linearity: No (USB2E7196)
Correct for Stray Light: No (USB2E7196)
Number of Pixels in Processed Spectrum: 2048
>>>>>Begin Processed Spectral Data<<<<<
339.09	0.00
339.48	214.69
339.86	215.95
340.24	217.64
340.63	218.75
341.01	221.37
341.39	221.37
341.78	222.61
342.16	224.28
342.54	224.41
342.93	212.78
343.31	223.52
343.69	224.05
344.07	224.50
344.46	224.90
344.84	225.28
345.22	225.53
345.60	225.79
345.99	225.94
346.37	226.02
346.75	226.10
347.13	226.19
347.52	226.23
347.90	226.28
348.28	226.28
348.66	226.33
349.05	226.32
349.43	226.35
349.81	226.36
350.19	226.43
350.57	226.52
350.96	226.60
351.34	226.70
351.72	226.78
352.10	226.89
352.48	226.95
352.87	226.99
353.25	227.04
353.63	227.07
354.01	227.16
354.39	227.26
354.77	227.35
355.15	227.47
355.54	227.52
355.92	227.57
356.30	227.61
356.68	227.73
357.06	227.80
357.44	227.87
357.82	227.92
358.20	227.99
358.58	228.04
358.97	228.12
359.35	228.19
359.73	228.25
360.11	228.31
360.49	228.34
360.87	228.39
361.25	228.45
361.63	228.53
362.01	228.55
362.39	228.56
362.77	228.57
363.15	228.55
363.53	228.58
363.91	228.58
364.29	228.62
364.67	228.54
365.05	228.53
365.43	228.54
365.81	228.58
366.19	228.64
366.57	228.69
366.95	228.67
367.33	228.65
367.71	228.63
368.09	228.62
368.47	228.63
368.85	228.63
369.23	228.60
369.61	228.55
369.99	228.59
370.37	228.63
370.75	228.65
371.13	228.62
371.51	228.60
371.89	228.57
372.27	228.52
372.65	228.49
373.03	228.45
373.41	228.42
373.78	228.37
374.16	228.29
374.54	228.21
374.92	228.16
375.30	228.10
375.68	228.05
376.06	228.02
376.44	227.94
376.82	227.85
377.19	227.83
377.57	227.77
377.95	227.67
378.33	227.58
378.71	227.49
379.09	227.44
379.47	227.36
379.84	227.30
380.22	227.26
380.60	227.15
380.98	227.12
381.36	227.06
381.73	226.94
382.11	226.88
382.49	226.81
382.87	226.73
383.25	226.68
383.62	226.74
384.00	226.66
384.38	226.62
384.76	226.59
385.13	226.58
385.51	226.53
385.89	226.45
386.27	226.39
386.64	226.34
387.02	226.30
387.40	226.25
387.78	226.19
388.15	226.15
388.53	226.09
388.91	226.06
389.29	225.99
389.66	226.01
390.04	226.00
390.42	225.99
390.79	225.98
391.17	225.97
391.55	225.84
391.92	225.81
392.30	225.84
392.68	225.81
393.05	225.80
393.43	225.81
393.81	225.82
394.18	225.80
394.56	225.81
394.94	225.85
395.31	225.87
395.69	225.95
396.06	226.00
396.44	226.05
396.82	226.06
397.19	226.15
397.57	226.14
397.95	226.16
398.32	226.16
398.70	226.21
399.07	226.25
399.45	226.29
399.82	226.35
400.20	226.41
400.58	226.46
400.95	226.50
401.33	226.58
401.70	226.72
402.08	226.81
402.45	226.91
402.83	227.01
403.20	227.11
403.58	227.18
403.95	227.28
404.33	227.44
404.71	227.55
405.08	227.73
405.46	227.88
405.83	228.02
406.21	228.19
406.58	228.33
406.96	228.47
407.33	228.63
407.70	228.81
408.08	229.07
408.45	229.28
408.83	229.52
409.20	229.71
409.58	229.90
409.95	230.19
410.33	230.44
410.70	230.68
411.08	230.98
411.45	231.29
411.82	231.59
412.20	231.94
412.57	232.36
412.95	232.66
413.32	233.11
413.69	233.54
414.07	234.00
414.44	234.50
414.82	235.00
415.19	235.55
415.56	236.12
415.94	236.65
416.31	237.31
416.68	237.93
417.06	238.68
417.43	239.35
417.81	240.13
418.18	240.92
418.55	241.78
418.93	242.67
419.30	243.55
419.67	244.48
420.04	245.44
420.42	246.43
420.79	247.61
421.16	248.73
421.54	249.90
421.91	251.08
422.28	252.33
422.66	253.69
423.03	255.02
423.40	256.38
423.77	257.81
424.15	259.21
424.52	260.69
424.89	262.28
425.26	263.88
425.64	265.31
426.01	266.91
426.38	268.54
426.75	270.21
427.13	271.94
427.50	273.80
427.87	275.68
428.24	277.55
428.61	279.28
428.99	281.24
429.36	283.33
429.73	285.43
430.10	287.44
430.47	289.49
430.85	291.59
431.22	293.79
431.59	296.15
431.96	298.38
432.33	300.86
432.70	303.22
433.08	306.05
433.45	308.66
433.82	311.28
434.19	314.15
434.56	316.98
434.93	319.66
435.30	322.28
435.68	325.17
436.05	327.98
436.42	330.77
436.79	333.28
437.16	336.00
437.53	338.81
437.90	341.61
438.27	344.32
438.64	347.14
439.01	349.74
439.38	351.97
439.75	354.14
440.13	356.65
440.50	359.02
440.87	360.79
441.24	362.71
441.61	364.90
441.98	366.38
442.35	368.14
442.72	369.90
443.09	371.69
443.46	372.63
443.83	373.21
444.20	373.69
444.57	374.50
444.94	374.75
445.31	375.07
445.68	375.44
446.05	375.49
446.42	375.09
446.79	374.65
447.16	374.23
447.53	373.89
447.90	372.70
448.27	371.49
448.64	369.88
449.01	368.73
449.37	366.73
449.74	364.85
450.11	362.62
450.48	360.18
450.85	357.65
451.22	355.54
451.59	353.54
451.96	351.61
452.33	349.03
452.70	346.68
453.07	343.86
453.43	340.97
453.80	338.31
454.17	335.66
454.54	333.12
454.91	330.39
455.28	327.76
455.65	325.28
456.02	322.86
456.38	320.73
456.75	318.10
457.12	315.85
457.49	313.67
457.86	311.51
458.23	309.72
458.59	307.66
458.96	305.58
459.33	303.73
459.70	301.92
460.07	300.44
460.43	298.71
460.80	297.12
461.17	295.66
461.54	294.13
461.91	292.67
462.27	291.24
462.64	289.99
463.01	288.62
463.38	287.36
463.74	286.01
464.11	284.87
464.48	283.86
464.85	282.72
465.21	281.81
465.58	280.91
465.95	279.78
466.32	278.88
466.68	277.97
467.05	277.09
467.42	276.16
467.78	275.22
468.15	274.37
468.52	273.71
468.88	272.86
469.25	272.12
469.62	271.54
469.98	270.85
470.35	270.25
470.72	269.67
471.08	269.00
471.45	268.47
471.82	267.91
472.18	267.34
472.55	266.93
472.92	266.43
473.28	265.93
473.65	265.50
474.02	265.09
474.38	264.77
474.75	264.45
475.11	264.11
475.48	263.86
475.85	263.62
476.21	263.37
476.58	263.19
476.94	263.03
477.31	262.85
477.67	262.71
478.04	262.60
478.41	262.52
478.77	262.54
479.14	262.51
479.50	262.54
479.87	262.59
480.23	262.64
480.60	262.67
480.96	262.76
481.33	262.94
481.69	263.11
482.06	263.25
482.42	263.46
482.79	263.70
483.15	264.00
483.52	264.39
483.88	264.75
484.25	265.08
484.61	265.49
484.98	265.96
485.34	266.52
485.71	267.05
486.07	267.65
486.44	268.20
486.80	268.83
487.17	269.52
487.53	270.32
487.90	271.17
488.26	272.12
488.62	273.14
488.99	274.10
489.35	275.15
489.72	276.29
490.08	277.47
490.44	278.74
490.81	280.07
491.17	281.39
491.54	282.85
491.90	284.43
492.26	286.09
492.63	287.82
492.99	289.58
493.36	291.50
493.72	293.59
494.08	295.71
494.45	298.05
494.81	300.44
495.17	302.87
495.54	305.48
495.90	308.19
496.26	310.99
496.63	313.98
496.99	317.07
497.35	320.33
497.72	323.77
498.08	327.27
498.44	330.99
498.80	334.93
499.17	339.02
499.53	343.25
499.89	347.65
500.26	352.20
500.62	356.92
500.98	361.90
501.34	366.97
501.71	372.33
502.07	377.72
502.43	383.39
502.79	389.24
503.16	395.34
503.52	401.66
503.88	408.06
504.24	414.75
504.60	421.70
504.97	428.92
505.33	436.23
505.69	443.94
506.05	451.74
506.41	459.62
506.78	467.82
507.14	476.23
507.50	484.92
507.86	493.91
508.22	503.14
508.59	512.37
508.95	521.93
509.31	531.77
509.67	541.89
510.03	552.18
510.39	562.74
510.75	573.54
511.12	584.46
511.48	595.79
511.84	607.22
512.20	618.72
512.56	630.61
512.92	642.80
513.28	655.17
513.64	667.59
514.00	680.39
514.37	693.30
514.73	706.38
515.09	719.42
515.45	732.71
515.81	746.23
516.17	760.19
516.53	774.31
516.89	788.56
517.25	802.73
517.61	817.07
517.97	831.54
518.33	845.90
518.69	860.73
519.05	875.67
519.41	890.83
519.77	906.43
520.13	921.84
520.49	937.20
520.85	952.51
521.21	968.17
521.57	984.36
521.93	1000.07
522.29	1016.45
522.65	1032.65
523.01	1048.84
523.37	1064.84
523.73	1080.90
524.09	1096.99
524.45	1113.26
524.81	1129.89
525.17	1146.70
525.53	1163.54
525.89	1180.43
526.25	1197.12
526.61	1213.51
526.97	1230.20
527.33	1246.64
527.68	1263.20
528.04	1279.73
528.40	1296.36
528.76	1313.43
529.12	1329.91
529.48	1346.74
529.84	1362.62
530.20	1379.22
530.56	1396.17
530.91	1413.57
531.27	1430.31
531.63	1446.76
531.99	1463.25
532.35	1479.15
532.71	1495.06
533.07	1511.39
533.42	1527.18
533.78	1543.14
534.14	1559.32
534.50	1574.60
534.86	1590.28
535.21	1605.44
535.57	1621.16
535.93	1636.50
536.29	1651.16
536.65	1666.15
537.00	1680.78
537.36	1695.99
537.72	1710.38
538.08	1724.69
538.44	1738.31
538.79	1752.08
539.15	1765.54
539.51	1778.94
539.87	1793.13
540.22	1806.63
540.58	1820.09
540.94	1833.26
541.29	1846.04
541.65	1858.52
542.01	1871.56
542.37	1883.75
542.72	1896.02
543.08	1907.83
543.44	1920.23
543.79	1931.48
544.15	1942.54
544.51	1954.02
544.87	1964.99
545.22	1975.69
545.58	1985.87
545.94	1995.57
546.29	2005.40
546.65	2015.41
547.01	2024.78
547.36	2033.44
547.72	2041.90
548.07	2049.78
548.43	2057.95
548.79	2066.00
549.14	2073.61
549.50	2080.96
549.86	2088.74
550.21	2096.19
550.57	2103.43
550.92	2109.94
551.28	2116.91
551.64	2123.86
551.99	2130.42
552.35	2136.59
552.70	2142.95
553.06	2149.03
553.41	2155.38
553.77	2161.55
554.13	2167.49
554.48	2173.70
554.84	2179.33
555.19	2184.73
555.55	2190.01
555.90	2194.59
556.26	2199.58
556.61	2204.32
556.97	2208.69
557.32	2212.82
557.68	2216.93
558.03	2221.11
558.39	2224.90
558.74	2229.60
559.10	2233.47
559.45	2237.26
559.81	2241.52
560.16	2245.24
560.52	2248.44
560.87	2251.85
561.23	2254.43
561.58	2257.43
561.94	2259.97
562.29	2262.25
562.64	2264.87
563.00	2267.39
563.35	2270.93
563.71	2273.88
564.06	2277.19
564.42	2280.06
564.77	2282.64
565.12	2284.81
565.48	2286.63
565.83	2288.64
566.19	2290.02
566.54	2290.84
566.89	2292.10
567.25	2292.66
567.60	2294.12
567.96	2295.88
568.31	2296.78
568.66	2298.05
569.02	2298.67
569.37	2298.99
569.72	2300.00
570.08	2300.21
570.43	2300.25
570.78	2299.67
571.14	2298.22
571.49	2296.97
571.84	2296.54
572.20	2295.51
572.55	2294.46
572.90	2293.07
573.26	2291.46
573.61	2289.67
573.96	2288.13
574.31	2285.00
574.67	2282.03
575.02	2278.27
575.37	2274.83
575.72	2271.02
576.08	2267.60
576.43	2264.31
576.78	2260.76
577.13	2257.47
577.49	2254.39
577.84	2250.86
578.19	2247.09
578.54	2243.57
578.90	2239.23
579.25	2233.71
579.60	2228.71
579.95	2223.76
580.30	2218.63
580.66	2213.63
581.01	2208.72
581.36	2203.78
581.71	2199.79
582.06	2195.49
582.42	2191.12
582.77	2185.90
583.12	2181.38
583.47	2176.72
583.82	2171.68
584.17	2166.38
584.53	2160.91
584.88	2155.31
585.23	2149.56
585.58	2144.14
585.93	2138.74
586.28	2134.03
586.63	2129.04
586.98	2124.02
587.34	2119.38
587.69	2114.62
588.04	2109.39
588.39	2103.77
588.74	2097.22
589.09	2090.97
589.44	2084.23
589.79	2078.23
590.14	2072.67
590.49	2066.10
590.84	2059.65
591.19	2053.55
591.54	2047.12
591.89	2039.93
592.25	2033.17
592.60	2026.13
592.95	2018.65
593.30	2011.20
593.65	2003.71
594.00	1996.84
594.35	1989.54
594.70	1981.58
595.05	1974.40
595.40	1967.15
595.75	1959.65
596.10	1953.64
596.45	1947.07
596.80	1940.99
597.15	1934.33
597.50	1927.31
597.85	1921.10
598.19	1914.59
598.54	1907.59
598.89	1900.95
599.24	1894.91
599.59	1888.33
599.94	1882.10
600.29	1875.68
600.64	1869.22
600.99	1861.69
601.34	1854.83
601.69	1847.94
602.04	1841.15
602.39	1833.85
602.74	1827.06
603.08	1820.36
603.43	1813.49
603.78	1806.14
604.13	1798.90
604.48	1791.64
604.83	1784.89
605.18	1777.80
605.53	1769.70
605.87	1761.69
606.22	1754.39
606.57	1746.35
606.92	1738.82
607.27	1731.59
607.62	1724.68
607.96	1717.28
608.31	1710.67
608.66	1702.98
609.01	1695.29
609.36	1687.46
609.70	1679.27
610.05	1671.13
610.40	1663.40
610.75	1655.14
611.10	1647.39
611.44	1638.80
611.79	1630.81
612.14	1621.97
612.49	1612.69
612.83	1604.32
613.18	1596.23
613.53	1588.25
613.88	1579.77
614.22	1571.60
614.57	1563.03
614.92	1555.02
615.27	1547.59
615.61	1539.30
615.96	1531.25
616.31	1523.70
616.65	1516.52
617.00	1509.15
617.35	1501.56
617.70	1493.20
618.04	1484.71
618.39	1476.49
618.74	1469.00
619.08	1460.70
619.43	1453.10
619.78	1446.28
620.12	1439.12
620.47	1431.59
620.82	1423.37
621.16	1416.03
621.51	1408.39
621.85	1400.82
622.20	1392.38
622.55	1383.98
622.89	1376.11
623.24	1368.48
623.59	1360.96
623.93	1353.43
624.28	1346.15
624.62	1338.59
624.97	1331.43
625.32	1324.55
625.66	1317.56
626.01	1310.30
626.35	1302.85
626.70	1295.15
627.04	1287.50
627.39	1279.70
627.73	1272.33
628.08	1265.46
628.43	1258.18
628.77	1250.86
629.12	1243.26
629.46	1236.03
629.81	1228.68
630.15	1221.54
630.50	1214.23
630.84	1206.13
631.19	1198.14
631.53	1190.58
631.88	1182.95
632.22	1175.34
632.57	1168.15
632.91	1160.56
633.26	1153.15
633.60	1145.82
633.95	1138.73
634.29	1131.65
634.64	1125.07
634.98	1117.64
635.32	1110.42
635.67	1103.75
636.01	1097.16
636.36	1090.35
636.70	1083.82
637.05	1077.13
637.39	1070.58
637.73	1064.00
638.08	1058.10
638.42	1052.11
638.77	1045.68
639.11	1039.23
639.45	1032.93
639.80	1026.26
640.14	1019.92
640.49	1013.56
640.83	1007.32
641.17	1001.09
641.52	994.75
641.86	988.17
642.20	982.33
642.55	976.02
642.89	969.61
643.23	963.00
643.58	957.28
643.92	951.04
644.26	945.04
644.61	939.03
644.95	933.02
645.29	926.48
645.64	919.77
645.98	913.48
646.32	907.55
646.66	901.52
647.01	895.71
647.35	889.98
647.69	884.02
648.04	878.35
648.38	872.57
648.72	866.54
649.06	860.58
649.41	854.72
649.75	848.75
650.09	842.82
650.43	836.98
650.78	830.77
651.12	824.93
651.46	819.24
651.80	813.52
652.14	808.12
652.49	802.79
652.83	797.57
653.17	791.88
653.51	786.19
653.85	780.70
654.20	775.06
654.54	769.00
654.88	763.23
655.22	757.36
655.56	751.67
655.90	746.26
656.25	741.01
656.59	735.59
656.93	730.56
657.27	725.38
657.61	719.96
657.95	714.93
658.29	709.74
658.64	704.45
658.98	699.13
659.32	693.66
659.66	688.41
660.00	683.12
660.34	678.12
660.68	673.21
661.02	668.20
661.36	663.44
661.70	658.98
662.05	654.65
662.39	650.32
662.73	645.80
663.07	641.42
663.41	636.88
663.75	632.43
664.09	627.84
664.43	623.45
664.77	619.35
665.11	615.03
665.45	610.87
665.79	606.74
666.13	602.59
666.47	598.50
666.81	594.32
667.15	590.23
667.49	586.32
667.83	582.49
668.17	578.51
668.51	574.43
668.85	570.43
669.19	566.59
669.53	562.73
669.87	558.89
670.21	555.12
670.55	551.50
670.89	548.08
671.23	544.64
671.57	541.11
671.91	537.53
672.25	534.03
672.58	530.59
672.92	527.19
673.26	524.00
673.60	520.81
673.94	517.70
674.28	514.78
674.62	511.84
674.96	508.70
675.30	505.80
675.64	502.90
675.97	500.06
676.31	497.12
676.65	494.20
676.99	491.46
677.33	488.61
677.67	485.76
678.01	482.65
678.34	479.70
678.68	476.79
679.02	474.05
679.36	471.27
679.70	468.50
680.04	465.71
680.37	462.88
680.71	460.09
681.05	457.44
681.39	454.71
681.73	452.09
682.06	449.61
682.40	447.10
682.74	444.57
683.08	441.99
683.42	439.51
683.75	436.98
684.09	434.42
684.43	431.98
684.77	429.57
685.10	427.21
685.44	424.85
685.78	422.58
686.12	420.29
686.45	417.96
686.79	415.69
687.13	413.58
687.46	411.36
687.80	409.25
688.14	407.08
688.48	405.03
688.81	402.81
689.15	400.64
689.49	398.44
689.82	396.39
690.16	394.33
690.50	392.31
690.83	390.42
691.17	388.46
691.51	386.55
691.84	384.67
692.18	382.81
692.52	380.88
692.85	378.95
693.19	377.08
693.52	375.30
693.86	373.47
694.20	371.65
694.53	369.84
694.87	368.03
695.21	366.23
695.54	364.39
695.88	362.66
696.21	360.97
696.55	359.33
696.88	357.62
697.22	355.95
697.56	354.33
697.89	352.69
698.23	351.04
698.56	349.46
698.90	347.87
699.23	346.22
699.57	344.64
699.90	343.10
700.24	341.54
700.58	340.00
700.91	338.51
701.25	337.07
701.58	335.69
701.92	334.23
702.25	332.82
702.59	331.46
702.92	330.11
703.26	328.75
703.59	327.43
703.93	326.23
704.26	324.99
704.60	323.69
704.93	322.39
705.26	321.15
705.60	319.89
705.93	318.73
706.27	317.68
706.60	316.63
706.94	315.52
707.27	314.39
707.61	313.30
707.94	312.26
708.27	311.17
708.61	310.10
708.94	309.13
709.28	308.14
709.61	307.16
709.94	306.19
710.28	305.15
710.61	304.17
710.95	303.13
711.28	302.22
711.61	301.26
711.95	300.36
712.28	299.40
712.61	298.47
712.95	297.52
713.28	296.65
713.61	295.75
713.95	294.84
714.28	294.00
714.61	293.15
714.95	292.29
715.28	291.45
715.61	290.55
715.95	289.71
716.28	288.85
716.61	288.00
716.95	287.17
717.28	286.44
717.61	285.67
717.94	284.92
718.28	284.13
718.61	283.38
718.94	282.66
719.27	282.03
719.61	281.40
719.94	280.75
720.27	280.03
720.60	279.40
720.94	278.79
721.27	278.21
721.60	277.66
721.93	277.08
722.27	276.50
722.60	275.98
722.93	275.39
723.26	274.88
723.59	274.35
723.93	273.81
724.26	273.31
724.59	272.75
724.92	272.20
725.25	271.68
725.59	271.15
725.92	270.65
726.25	270.11
726.58	269.63
726.91	269.16
727.24	268.67
727.57	268.20
727.91	267.69
728.24	267.21
728.57	266.73
728.90	266.28
729.23	265.82
729.56	265.40
729.89	264.97
730.22	264.49
730.55	264.04
730.89	263.59
731.22	263.13
731.55	262.71
731.88	262.29
732.21	261.88
732.54	261.49
732.87	261.10
733.20	260.67
733.53	260.25
733.86	259.88
734.19	259.48
734.52	259.10
734.85	258.81
735.18	258.40
735.51	258.02
735.84	257.64
736.17	257.27
736.50	256.86
736.83	256.61
737.16	256.28
737.49	255.94
737.82	255.62
738.15	255.27
738.48	254.92
738.81	254.59
739.14	254.26
739.47	253.95
739.80	253.61
740.13	253.35
740.46	253.04
740.79	252.72
741.12	252.41
741.45	252.09
741.78	251.75
742.11	251.45
742.44	251.16
742.77	250.84
743.10	250.53
743.43	250.21
743.75	249.82
744.08	249.68
744.41	249.39
744.74	249.09
745.07	248.82
745.40	248.59
745.73	248.41
746.06	248.13
746.39	247.86
746.71	247.60
747.04	247.30
747.37	247.03
747.70	246.76
748.03	246.51
748.36	246.28
748.68	246.04
749.01	245.80
749.34	245.55
749.67	245.33
750.00	245.11
750.33	244.98
750.65	244.78
750.98	244.38
751.31	244.16
751.64	243.97
751.97	243.80
752.29	243.55
752.62	243.26
752.95	243.04
753.28	242.84
753.60	242.63
753.93	242.46
754.26	242.25
754.59	242.02
754.91	241.83
755.24	241.62
755.57	241.43
755.90	241.25
756.22	241.06
756.55	240.83
756.88	240.67
757.20	240.42
757.53	240.20
757.86	240.05
758.19	239.88
758.51	239.68
758.84	239.51
759.17	239.34
759.49	239.20
759.82	239.09
760.15	238.95
760.47	238.76
760.80	238.61
761.13	238.50
761.45	238.34
761.78	238.14
762.11	238.01
762.43	237.88
762.76	237.71
763.08	237.58
763.41	237.48
763.74	237.32
764.06	237.18
764.39	237.04
764.71	236.92
765.04	236.79
765.37	236.66
765.69	236.52
766.02	236.40
766.34	236.26
766.67	236.14
767.00	236.01
767.32	236.00
767.65	235.95
767.97	235.85
768.30	235.75
768.62	235.68
768.95	235.61
769.27	235.50
769.60	235.46
769.92	235.33
770.25	235.25
770.57	235.17
770.90	235.07
771.22	235.00
771.55	234.91
771.87	234.82
772.20	234.73
772.52	234.69
772.85	234.75
773.17	234.68
773.50	234.56
773.82	234.46
774.15	234.29
774.47	234.17
774.80	234.06
775.12	234.02
775.45	233.94
775.77	233.82
776.09	233.75
776.42	233.68
776.74	233.63
777.07	233.52
777.39	233.46
777.72	233.39
778.04	233.31
778.36	233.28
778.69	233.25
779.01	233.19
779.33	233.08
779.66	232.89
779.98	232.80
780.31	232.76
780.63	232.78
780.95	232.74
781.28	232.65
781.60	232.57
781.92	232.50
782.25	232.40
782.57	232.35
782.89	232.26
783.22	232.20
783.54	232.12
783.86	232.07
784.19	231.98
784.51	231.94
784.83	231.90
785.16	231.80
785.48	231.72
785.80	231.67
786.12	231.62
786.45	231.56
786.77	231.58
787.09	231.51
