SpectraSuite Data File
++++++++++++++++++++++++++++++++++++
Date: Fri Feb 01 16:07:54 EST 2013
User: group
Dark Spectrum Present: No
Reference Spectrum Present: No
Number of Sampled Component Spectra: 1
Spectrometers: USB2E7196
Integration Time (usec): 35000 (USB2E7196)
Spectra Averaged: 100 (USB2E7196)
Boxcar Smoothing: 10 (USB2E7196)
Correct for Electrical Dark: No (USB2E7196)
Strobe/Lamp Enabled: No (USB2E7196)
Correct for Detector Non-linearity: No (USB2E7196)
Correct for Stray Light: No (USB2E7196)
Number of Pixels in Processed Spectrum: 2048
>>>>>Begin Processed Spectral Data<<<<<
339.09	0.00
339.48	214.82
339.86	216.31
340.24	217.90
340.63	219.05
341.01	221.55
341.39	221.24
341.78	223.14
342.16	224.09
342.54	225.23
342.93	213.11
343.31	223.89
343.69	224.40
344.07	224.86
344.46	225.25
344.84	225.60
345.22	225.85
345.60	226.15
345.99	226.33
346.37	226.45
346.75	226.54
347.13	226.60
347.52	226.62
347.90	226.74
348.28	226.76
348.66	226.83
349.05	226.85
349.43	226.89
349.81	226.94
350.19	227.00
350.57	227.05
350.96	227.15
351.34	227.26
351.72	227.36
352.10	227.46
352.48	227.54
352.87	227.63
353.25	227.67
353.63	227.71
354.01	227.77
354.39	227.88
354.77	227.93
355.15	228.03
355.54	228.14
355.92	228.15
356.30	228.23
356.68	228.35
357.06	228.38
357.44	228.41
357.82	228.43
358.20	228.46
358.58	228.53
358.97	228.57
359.35	228.59
359.73	228.67
360.11	228.71
360.49	228.77
360.87	228.83
361.25	228.90
361.63	228.97
362.01	228.99
362.39	228.98
362.77	229.04
363.15	229.04
363.53	229.02
363.91	229.04
364.29	229.05
364.67	228.98
365.05	229.02
365.43	229.03
365.81	229.04
366.19	229.08
366.57	229.12
366.95	229.09
367.33	229.08
367.71	229.10
368.09	229.10
368.47	229.10
368.85	229.04
369.23	229.03
369.61	228.97
369.99	228.96
370.37	228.94
370.75	228.92
371.13	228.89
371.51	228.84
371.89	228.83
372.27	228.77
372.65	228.73
373.03	228.67
373.41	228.62
373.78	228.56
374.16	228.45
374.54	228.35
374.92	228.32
375.30	228.27
375.68	228.15
376.06	228.10
376.44	227.98
376.82	227.95
377.19	227.89
377.57	227.85
377.95	227.80
378.33	227.73
378.71	227.61
379.09	227.54
379.47	227.49
379.84	227.40
380.22	227.32
380.60	227.24
380.98	227.18
381.36	227.13
381.73	227.06
382.11	227.03
382.49	226.96
382.87	226.87
383.25	226.80
383.62	226.83
384.00	226.75
384.38	226.73
384.76	226.69
385.13	226.67
385.51	226.61
385.89	226.54
386.27	226.52
386.64	226.49
387.02	226.45
387.40	226.42
387.78	226.39
388.15	226.38
388.53	226.34
388.91	226.30
389.29	226.23
389.66	226.19
390.04	226.21
390.42	226.19
390.79	226.19
391.17	226.17
391.55	226.09
391.92	226.09
392.30	226.10
392.68	226.06
393.05	226.03
393.43	226.01
393.81	226.02
394.18	226.02
394.56	226.04
394.94	226.07
395.31	226.07
395.69	226.14
396.06	226.18
396.44	226.22
396.82	226.25
397.19	226.36
397.57	226.41
397.95	226.41
398.32	226.46
398.70	226.53
399.07	226.59
399.45	226.62
399.82	226.68
400.20	226.75
400.58	226.82
400.95	226.86
401.33	226.98
401.70	227.10
402.08	227.16
402.45	227.23
402.83	227.35
403.20	227.48
403.58	227.55
403.95	227.66
404.33	227.81
404.71	227.93
405.08	228.08
405.46	228.24
405.83	228.38
406.21	228.50
406.58	228.63
406.96	228.81
407.33	228.98
407.70	229.17
408.08	229.41
408.45	229.65
408.83	229.89
409.20	230.11
409.58	230.27
409.95	230.54
410.33	230.83
410.70	231.05
411.08	231.33
411.45	231.63
411.82	231.90
412.20	232.22
412.57	232.62
412.95	232.90
413.32	233.27
413.69	233.70
414.07	234.13
414.44	234.61
414.82	235.07
415.19	235.62
415.56	236.16
415.94	236.70
416.31	237.34
416.68	237.93
417.06	238.63
417.43	239.33
417.81	240.11
418.18	240.89
418.55	241.76
418.93	242.66
419.30	243.57
419.67	244.55
420.04	245.51
420.42	246.54
420.79	247.74
421.16	248.94
421.54	250.14
421.91	251.38
422.28	252.64
422.66	254.00
423.03	255.33
423.40	256.71
423.77	258.13
424.15	259.53
424.52	261.05
424.89	262.69
425.26	264.25
425.64	265.68
426.01	267.27
426.38	268.90
426.75	270.54
427.13	272.26
427.50	274.03
427.87	275.90
428.24	277.75
428.61	279.47
428.99	281.39
429.36	283.45
429.73	285.48
430.10	287.48
430.47	289.52
430.85	291.58
431.22	293.80
431.59	296.20
431.96	298.45
432.33	300.95
432.70	303.31
433.08	306.15
433.45	308.79
433.82	311.39
434.19	314.28
434.56	317.12
434.93	319.78
435.30	322.41
435.68	325.30
436.05	328.16
436.42	330.94
436.79	333.46
437.16	336.20
437.53	339.01
437.90	341.85
438.27	344.59
438.64	347.47
439.01	350.03
439.38	352.24
439.75	354.39
440.13	356.84
440.50	359.18
440.87	361.04
441.24	363.01
441.61	365.15
441.98	366.65
442.35	368.40
442.72	370.28
443.09	372.07
443.46	373.04
443.83	373.62
444.20	374.15
444.57	374.95
444.94	375.19
445.31	375.53
445.68	375.83
446.05	375.89
446.42	375.47
446.79	375.06
447.16	374.64
447.53	374.32
447.90	373.12
448.27	371.96
448.64	370.33
449.01	369.15
449.37	367.16
449.74	365.29
450.11	363.08
450.48	360.59
450.85	357.97
451.22	355.87
451.59	353.84
451.96	351.89
452.33	349.32
452.70	346.96
453.07	344.16
453.43	341.32
453.80	338.54
454.17	335.88
454.54	333.33
454.91	330.54
455.28	327.89
455.65	325.43
456.02	322.99
456.38	320.81
456.75	318.17
457.12	315.92
457.49	313.70
457.86	311.50
458.23	309.62
458.59	307.67
458.96	305.55
459.33	303.70
459.70	301.83
460.07	300.34
460.43	298.61
460.80	296.97
461.17	295.53
461.54	294.04
461.91	292.60
462.27	291.21
462.64	290.01
463.01	288.66
463.38	287.37
463.74	286.02
464.11	284.88
464.48	283.87
464.85	282.78
465.21	281.90
465.58	280.99
465.95	279.95
466.32	279.06
466.68	278.19
467.05	277.29
467.42	276.40
467.78	275.50
468.15	274.66
468.52	274.02
468.88	273.16
469.25	272.44
469.62	271.84
469.98	271.14
470.35	270.50
470.72	269.90
471.08	269.25
471.45	268.66
471.82	268.14
472.18	267.56
472.55	267.13
472.92	266.60
473.28	266.18
473.65	265.69
474.02	265.25
474.38	264.89
474.75	264.56
475.11	264.26
475.48	264.01
475.85	263.79
476.21	263.58
476.58	263.42
476.94	263.27
477.31	263.08
477.67	262.96
478.04	262.88
478.41	262.85
478.77	262.90
479.14	262.87
479.50	262.88
479.87	262.94
480.23	263.03
480.60	263.11
480.96	263.15
481.33	263.44
481.69	263.66
482.06	263.91
482.42	264.10
482.79	264.34
483.15	264.63
483.52	265.00
483.88	265.35
484.25	265.72
484.61	266.17
484.98	266.64
485.34	267.15
485.71	267.77
486.07	268.34
486.44	268.95
486.80	269.68
487.17	270.42
487.53	271.25
487.90	272.11
488.26	273.08
488.62	274.08
488.99	275.01
489.35	276.02
489.72	277.11
490.08	278.35
490.44	279.58
490.81	280.92
491.17	282.30
491.54	283.78
491.90	285.30
492.26	286.92
492.63	288.65
492.99	290.49
493.36	292.32
493.72	294.39
494.08	296.48
494.45	298.73
494.81	301.08
495.17	303.50
495.54	306.10
495.90	308.78
496.26	311.60
496.63	314.54
496.99	317.72
497.35	320.98
497.72	324.37
498.08	327.91
498.44	331.59
498.80	335.50
499.17	339.52
499.53	343.69
499.89	348.10
500.26	352.61
500.62	357.24
500.98	362.19
501.34	367.26
501.71	372.53
502.07	378.00
502.43	383.61
502.79	389.43
503.16	395.45
503.52	401.77
503.88	408.21
504.24	414.80
504.60	421.67
504.97	428.77
505.33	436.10
505.69	443.81
506.05	451.56
506.41	459.40
506.78	467.60
507.14	476.12
507.50	484.83
507.86	493.84
508.22	503.09
508.59	512.34
508.95	521.92
509.31	531.81
509.67	541.89
510.03	552.18
510.39	562.78
510.75	573.67
511.12	584.51
511.48	595.75
511.84	607.28
512.20	618.79
512.56	630.71
512.92	642.89
513.28	655.26
513.64	667.78
514.00	680.55
514.37	693.47
514.73	706.49
515.09	719.51
515.45	732.80
515.81	746.31
516.17	760.30
516.53	774.49
516.89	788.60
517.25	802.80
517.61	817.24
517.97	831.61
518.33	845.92
518.69	860.75
519.05	875.78
519.41	890.89
519.77	906.37
520.13	921.80
520.49	937.11
520.85	952.47
521.21	968.14
521.57	984.28
521.93	1000.01
522.29	1016.31
522.65	1032.57
523.01	1048.79
523.37	1064.72
523.73	1080.80
524.09	1096.65
524.45	1112.97
524.81	1129.60
525.17	1146.28
525.53	1163.13
525.89	1180.04
526.25	1196.74
526.61	1213.09
526.97	1229.83
527.33	1246.21
527.68	1262.79
528.04	1279.23
528.40	1295.80
528.76	1312.88
529.12	1329.46
529.48	1346.26
529.84	1362.31
530.20	1378.84
530.56	1395.73
530.91	1413.12
531.27	1429.85
531.63	1446.40
531.99	1462.87
532.35	1478.68
532.71	1494.56
533.07	1510.79
533.42	1526.59
533.78	1542.55
534.14	1558.74
534.50	1573.98
534.86	1589.84
535.21	1604.92
535.57	1620.81
535.93	1636.21
536.29	1650.85
536.65	1665.86
537.00	1680.56
537.36	1695.85
537.72	1710.29
538.08	1724.69
538.44	1738.49
538.79	1752.34
539.15	1766.01
539.51	1779.65
539.87	1793.95
540.22	1807.58
540.58	1821.23
540.94	1834.45
541.29	1847.27
541.65	1859.76
542.01	1872.93
542.37	1885.18
542.72	1897.53
543.08	1909.39
543.44	1921.66
543.79	1932.87
544.15	1943.75
544.51	1955.31
544.87	1965.99
545.22	1976.80
545.58	1986.90
545.94	1996.69
546.29	2006.58
546.65	2016.28
547.01	2025.52
547.36	2034.22
547.72	2042.62
548.07	2050.53
548.43	2058.61
548.79	2066.62
549.14	2074.27
549.50	2081.61
549.86	2089.38
550.21	2096.71
550.57	2103.76
550.92	2110.36
551.28	2117.44
551.64	2124.47
551.99	2130.87
552.35	2137.15
552.70	2143.26
553.06	2149.23
553.41	2155.60
553.77	2161.46
554.13	2167.43
554.48	2173.50
554.84	2179.00
555.19	2184.35
555.55	2189.45
555.90	2193.96
556.26	2198.89
556.61	2203.44
556.97	2207.77
557.32	2211.70
557.68	2215.87
558.03	2220.07
558.39	2223.82
558.74	2228.40
559.10	2232.39
559.45	2236.15
559.81	2240.33
560.16	2244.18
560.52	2247.38
560.87	2250.68
561.23	2253.45
561.58	2256.51
561.94	2259.24
562.29	2261.39
562.64	2264.07
563.00	2266.54
563.35	2270.10
563.71	2273.18
564.06	2276.45
564.42	2279.32
564.77	2282.01
565.12	2284.42
565.48	2286.39
565.83	2288.33
566.19	2289.71
566.54	2290.46
566.89	2291.56
567.25	2292.26
567.60	2293.46
567.96	2295.24
568.31	2296.08
568.66	2297.19
569.02	2297.82
569.37	2298.21
569.72	2299.34
570.08	2299.50
570.43	2299.66
570.78	2299.15
571.14	2297.64
571.49	2296.41
571.84	2296.04
572.20	2294.89
572.55	2293.61
572.90	2291.88
573.26	2290.45
573.61	2288.75
573.96	2287.19
574.31	2284.27
574.67	2281.33
575.02	2277.73
575.37	2274.45
575.72	2270.64
576.08	2267.22
576.43	2263.83
576.78	2260.01
577.13	2256.77
577.49	2253.61
577.84	2250.11
578.19	2246.32
578.54	2242.88
578.90	2238.73
579.25	2233.19
579.60	2228.30
579.95	2223.46
580.30	2218.62
580.66	2213.43
581.01	2208.43
581.36	2203.43
581.71	2199.34
582.06	2194.94
582.42	2190.54
582.77	2185.37
583.12	2180.94
583.47	2176.43
583.82	2171.59
584.17	2166.38
584.53	2160.94
584.88	2155.41
585.23	2149.73
585.58	2144.27
585.93	2138.65
586.28	2133.84
586.63	2128.82
586.98	2123.75
587.34	2119.10
587.69	2114.22
588.04	2109.05
588.39	2103.39
588.74	2096.93
589.09	2090.66
589.44	2083.88
589.79	2077.86
590.14	2072.01
590.49	2065.33
590.84	2058.89
591.19	2052.90
591.54	2046.41
591.89	2039.10
592.25	2032.23
592.60	2025.15
592.95	2017.63
593.30	2010.33
593.65	2002.74
594.00	1995.69
594.35	1988.36
594.70	1980.18
595.05	1973.14
595.40	1965.76
595.75	1958.33
596.10	1952.26
596.45	1945.57
596.80	1939.44
597.15	1932.75
597.50	1925.82
597.85	1919.35
598.19	1912.70
598.54	1905.65
598.89	1899.02
599.24	1892.99
599.59	1886.44
599.94	1880.11
600.29	1873.75
600.64	1867.04
600.99	1859.68
601.34	1852.72
601.69	1845.81
602.04	1838.97
602.39	1831.52
602.74	1824.74
603.08	1817.96
603.43	1811.14
603.78	1803.92
604.13	1796.73
604.48	1789.73
604.83	1782.97
605.18	1776.12
605.53	1768.21
605.87	1759.98
606.22	1752.83
606.57	1744.97
606.92	1737.75
607.27	1730.73
607.62	1723.87
607.96	1716.81
608.31	1710.30
608.66	1702.83
609.01	1695.43
609.36	1688.05
609.70	1680.10
610.05	1672.06
610.40	1664.46
610.75	1656.15
611.10	1648.49
611.44	1639.98
611.79	1631.82
612.14	1623.07
612.49	1613.91
612.83	1605.39
613.18	1597.38
613.53	1589.26
613.88	1580.82
614.22	1572.48
614.57	1563.73
614.92	1555.70
615.27	1548.24
615.61	1539.79
615.96	1531.82
616.31	1524.02
616.65	1516.56
617.00	1509.01
617.35	1501.31
617.70	1493.02
618.04	1484.66
618.39	1476.47
618.74	1469.10
619.08	1460.85
619.43	1453.23
619.78	1446.40
620.12	1439.33
620.47	1431.83
620.82	1423.62
621.16	1416.08
621.51	1408.33
621.85	1400.77
622.20	1392.24
622.55	1383.75
622.89	1375.86
623.24	1368.32
623.59	1360.85
623.93	1353.31
624.28	1346.11
624.62	1338.70
624.97	1331.43
625.32	1324.56
625.66	1317.59
626.01	1310.34
626.35	1302.97
626.70	1295.23
627.04	1287.39
627.39	1279.51
627.73	1272.10
628.08	1265.19
628.43	1258.01
628.77	1250.81
629.12	1243.23
629.46	1236.17
629.81	1228.76
630.15	1221.60
630.50	1214.09
630.84	1205.91
631.19	1197.96
631.53	1190.39
631.88	1182.72
632.22	1175.12
632.57	1167.81
632.91	1160.16
633.26	1152.68
633.60	1145.27
633.95	1138.15
634.29	1131.09
634.64	1124.50
634.98	1117.20
635.32	1110.03
635.67	1103.44
636.01	1096.56
636.36	1089.71
636.70	1083.19
637.05	1076.61
637.39	1070.11
637.73	1063.67
638.08	1057.81
638.42	1051.83
638.77	1045.38
639.11	1038.98
639.45	1032.62
639.80	1025.89
640.14	1019.56
640.49	1013.06
640.83	1006.67
641.17	1000.52
641.52	994.25
641.86	987.72
642.20	981.82
642.55	975.53
642.89	969.01
643.23	962.66
643.58	956.91
643.92	950.68
644.26	944.62
644.61	938.46
644.95	932.42
645.29	925.94
645.64	919.23
645.98	912.92
646.32	906.91
646.66	900.86
647.01	895.07
647.35	889.30
647.69	883.49
648.04	877.97
648.38	872.11
648.72	866.09
649.06	860.11
649.41	854.17
649.75	848.22
650.09	842.27
650.43	836.39
650.78	830.27
651.12	824.25
651.46	818.56
651.80	812.95
652.14	807.51
652.49	802.17
652.83	796.95
653.17	791.27
653.51	785.56
653.85	780.15
654.20	774.52
654.54	768.44
654.88	762.61
655.22	756.73
655.56	750.99
655.90	745.51
656.25	740.24
656.59	734.86
656.93	729.81
657.27	724.67
657.61	719.28
657.95	714.08
658.29	708.99
658.64	703.67
658.98	698.33
659.32	692.90
659.66	687.61
660.00	682.35
660.34	677.43
660.68	672.53
661.02	667.52
661.36	662.82
661.70	658.44
662.05	654.13
662.39	649.77
662.73	645.34
663.07	641.00
663.41	636.53
663.75	632.07
664.09	627.44
664.43	623.05
664.77	618.91
665.11	614.78
665.45	610.71
665.79	606.72
666.13	602.57
666.47	598.50
666.81	594.35
667.15	590.25
667.49	586.31
667.83	582.45
668.17	578.60
668.51	574.56
668.85	570.52
669.19	566.64
669.53	562.85
669.87	558.97
670.21	555.26
670.55	551.61
670.89	548.24
671.23	544.82
671.57	541.26
671.91	537.75
672.25	534.20
672.58	530.66
672.92	527.20
673.26	524.06
673.60	520.90
673.94	517.82
674.28	514.85
674.62	511.91
674.96	508.79
675.30	505.81
675.64	502.92
675.97	500.13
676.31	497.26
676.65	494.34
676.99	491.64
677.33	488.77
677.67	485.98
678.01	482.90
678.34	479.98
678.68	477.13
679.02	474.31
679.36	471.54
679.70	468.85
680.04	466.13
680.37	463.24
680.71	460.37
681.05	457.71
681.39	455.05
681.73	452.39
682.06	449.93
682.40	447.40
682.74	444.84
683.08	442.30
683.42	439.70
683.75	437.17
684.09	434.64
684.43	432.15
684.77	429.67
685.10	427.36
685.44	425.02
685.78	422.72
686.12	420.44
686.45	418.18
686.79	415.86
687.13	413.64
687.46	411.45
687.80	409.33
688.14	407.12
688.48	405.07
688.81	402.87
689.15	400.67
689.49	398.47
689.82	396.37
690.16	394.28
690.50	392.32
690.83	390.42
691.17	388.42
691.51	386.56
691.84	384.76
692.18	382.77
692.52	380.84
692.85	378.89
693.19	377.01
693.52	375.20
693.86	373.37
694.20	371.58
694.53	369.79
694.87	367.96
695.21	366.17
695.54	364.28
695.88	362.51
696.21	360.80
696.55	359.12
696.88	357.45
697.22	355.75
697.56	354.16
697.89	352.50
698.23	350.91
698.56	349.27
698.90	347.68
699.23	346.06
699.57	344.47
699.90	342.96
700.24	341.44
700.58	339.88
700.91	338.40
701.25	336.96
701.58	335.62
701.92	334.25
702.25	332.86
702.59	331.55
702.92	330.24
703.26	328.93
703.59	327.67
703.93	326.48
704.26	325.27
704.60	323.93
704.93	322.61
705.26	321.40
705.60	320.22
705.93	319.04
706.27	317.96
706.60	316.90
706.94	315.80
707.27	314.67
707.61	313.59
707.94	312.57
708.27	311.47
708.61	310.38
708.94	309.38
709.28	308.44
709.61	307.48
709.94	306.54
710.28	305.52
710.61	304.52
710.95	303.40
711.28	302.54
711.61	301.61
711.95	300.74
712.28	299.79
712.61	298.82
712.95	297.85
713.28	297.01
713.61	296.11
713.95	295.26
714.28	294.46
714.61	293.63
714.95	292.79
715.28	291.98
715.61	291.09
715.95	290.24
716.28	289.37
716.61	288.55
716.95	287.69
717.28	286.93
717.61	286.16
717.94	285.44
718.28	284.55
718.61	283.82
718.94	283.14
719.27	282.46
719.61	281.80
719.94	281.19
720.27	280.44
720.60	279.76
720.94	279.11
721.27	278.47
721.60	277.87
721.93	277.26
722.27	276.69
722.60	276.15
722.93	275.58
723.26	275.05
723.59	274.45
723.93	273.91
724.26	273.35
724.59	272.80
724.92	272.28
725.25	271.83
725.59	271.30
725.92	270.76
726.25	270.24
726.58	269.75
726.91	269.21
727.24	268.77
727.57	268.33
727.91	267.81
728.24	267.34
728.57	266.84
728.90	266.38
729.23	265.85
729.56	265.42
729.89	264.95
730.22	264.44
730.55	264.00
730.89	263.57
731.22	263.17
731.55	262.75
731.88	262.33
732.21	261.88
732.54	261.45
732.87	261.03
733.20	260.62
733.53	260.20
733.86	259.85
734.19	259.41
734.52	259.05
734.85	258.77
735.18	258.36
735.51	258.02
735.84	257.64
736.17	257.29
736.50	256.86
736.83	256.63
737.16	256.30
737.49	255.98
737.82	255.60
738.15	255.25
738.48	254.88
738.81	254.54
739.14	254.22
739.47	253.92
739.80	253.63
740.13	253.35
740.46	253.05
740.79	252.73
741.12	252.44
741.45	252.13
741.78	251.76
742.11	251.52
742.44	251.19
742.77	250.93
743.10	250.63
743.43	250.36
743.75	249.95
744.08	249.84
744.41	249.57
744.74	249.34
745.07	249.06
745.40	248.87
745.73	248.66
746.06	248.41
746.39	248.13
746.71	247.83
747.04	247.56
747.37	247.32
747.70	247.10
748.03	246.87
748.36	246.65
748.68	246.44
749.01	246.17
749.34	245.98
749.67	245.73
750.00	245.53
750.33	245.41
750.65	245.25
750.98	244.91
751.31	244.71
751.64	244.49
751.97	244.38
752.29	244.12
752.62	243.84
752.95	243.62
753.28	243.46
753.60	243.28
753.93	243.07
754.26	242.86
754.59	242.61
754.91	242.40
755.24	242.18
755.57	241.98
755.90	241.78
756.22	241.60
756.55	241.40
756.88	241.19
757.20	240.89
757.53	240.66
757.86	240.50
758.19	240.34
758.51	240.16
758.84	239.88
759.17	239.73
759.49	239.58
759.82	239.47
760.15	239.31
760.47	239.16
760.80	239.02
761.13	238.90
761.45	238.73
761.78	238.56
762.11	238.44
762.43	238.30
762.76	238.15
763.08	237.98
763.41	237.85
763.74	237.74
764.06	237.63
764.39	237.49
764.71	237.35
765.04	237.18
765.37	237.01
765.69	236.88
766.02	236.74
766.34	236.62
766.67	236.42
767.00	236.31
767.32	236.24
767.65	236.14
767.97	235.98
768.30	235.88
768.62	235.73
768.95	235.58
769.27	235.49
769.60	235.38
769.92	235.28
770.25	235.15
770.57	235.02
770.90	234.90
771.22	234.79
771.55	234.67
771.87	234.56
772.20	234.49
772.52	234.49
772.85	234.51
773.17	234.44
773.50	234.36
773.82	234.26
774.15	234.12
774.47	233.98
774.80	233.93
775.12	233.86
775.45	233.80
775.77	233.74
776.09	233.63
776.42	233.55
776.74	233.51
777.07	233.46
777.39	233.40
777.72	233.33
778.04	233.28
778.36	233.19
778.69	233.17
779.01	233.12
779.33	232.97
779.66	232.81
779.98	232.70
780.31	232.64
780.63	232.62
780.95	232.59
781.28	232.53
781.60	232.47
781.92	232.40
782.25	232.37
782.57	232.32
782.89	232.26
783.22	232.23
783.54	232.14
783.86	232.07
784.19	231.99
784.51	231.97
784.83	231.93
785.16	231.89
785.48	231.82
785.80	231.78
786.12	231.77
786.45	231.69
786.77	231.68
787.09	231.65
