SpectraSuite Data File
++++++++++++++++++++++++++++++++++++
Date: Fri Feb 01 16:58:23 EST 2013
User: group
Dark Spectrum Present: No
Reference Spectrum Present: No
Number of Sampled Component Spectra: 1
Spectrometers: USB2E7196
Integration Time (usec): 35000 (USB2E7196)
Spectra Averaged: 100 (USB2E7196)
Boxcar Smoothing: 10 (USB2E7196)
Correct for Electrical Dark: No (USB2E7196)
Strobe/Lamp Enabled: No (USB2E7196)
Correct for Detector Non-linearity: No (USB2E7196)
Correct for Stray Light: No (USB2E7196)
Number of Pixels in Processed Spectrum: 2048
>>>>>Begin Processed Spectral Data<<<<<
339.09	0.00
339.48	213.70
339.86	215.33
340.24	216.67
340.63	217.30
341.01	220.51
341.39	219.88
341.78	221.63
342.16	223.04
342.54	223.18
342.93	211.87
343.31	222.57
343.69	223.09
344.07	223.54
344.46	223.95
344.84	224.32
345.22	224.56
345.60	224.82
345.99	224.99
346.37	225.09
346.75	225.18
347.13	225.27
347.52	225.31
347.90	225.35
348.28	225.37
348.66	225.38
349.05	225.35
349.43	225.36
349.81	225.39
350.19	225.43
350.57	225.49
350.96	225.54
351.34	225.61
351.72	225.70
352.10	225.77
352.48	225.86
352.87	225.93
353.25	225.98
353.63	226.01
354.01	226.11
354.39	226.19
354.77	226.27
355.15	226.37
355.54	226.43
355.92	226.46
356.30	226.53
356.68	226.69
357.06	226.77
357.44	226.83
357.82	226.89
358.20	226.94
358.58	227.05
358.97	227.13
359.35	227.22
359.73	227.29
360.11	227.34
360.49	227.40
360.87	227.44
361.25	227.52
361.63	227.62
362.01	227.66
362.39	227.67
362.77	227.74
363.15	227.77
363.53	227.77
363.91	227.83
364.29	227.84
364.67	227.81
365.05	227.83
365.43	227.88
365.81	227.91
366.19	227.99
366.57	228.02
366.95	228.01
367.33	227.99
367.71	227.97
368.09	227.99
368.47	227.96
368.85	227.94
369.23	227.95
369.61	227.91
369.99	227.94
370.37	227.94
370.75	227.94
371.13	227.84
371.51	227.82
371.89	227.77
372.27	227.77
372.65	227.72
373.03	227.68
373.41	227.64
373.78	227.56
374.16	227.50
374.54	227.40
374.92	227.36
375.30	227.32
375.68	227.26
376.06	227.22
376.44	227.15
376.82	227.13
377.19	227.02
377.57	226.98
377.95	226.85
378.33	226.79
378.71	226.68
379.09	226.68
379.47	226.64
379.84	226.61
380.22	226.53
380.60	226.44
380.98	226.37
381.36	226.28
381.73	226.22
382.11	226.14
382.49	226.08
382.87	225.96
383.25	225.89
383.62	225.95
384.00	225.85
384.38	225.81
384.76	225.73
385.13	225.73
385.51	225.64
385.89	225.61
386.27	225.60
386.64	225.54
387.02	225.47
387.40	225.40
387.78	225.34
388.15	225.32
388.53	225.27
388.91	225.25
389.29	225.23
389.66	225.21
390.04	225.18
390.42	225.12
390.79	225.13
391.17	225.11
391.55	224.95
391.92	224.92
392.30	224.91
392.68	224.92
393.05	224.88
393.43	224.90
393.81	224.89
394.18	224.85
394.56	224.88
394.94	224.90
395.31	224.92
395.69	224.98
396.06	224.97
396.44	225.02
396.82	225.06
397.19	225.11
397.57	225.14
397.95	225.17
398.32	225.22
398.70	225.27
399.07	225.33
399.45	225.38
399.82	225.45
400.20	225.52
400.58	225.55
400.95	225.59
401.33	225.67
401.70	225.81
402.08	225.89
402.45	225.95
402.83	226.04
403.20	226.14
403.58	226.21
403.95	226.32
404.33	226.43
404.71	226.52
405.08	226.69
405.46	226.83
405.83	226.95
406.21	227.09
406.58	227.25
406.96	227.40
407.33	227.58
407.70	227.78
408.08	228.02
408.45	228.22
408.83	228.45
409.20	228.68
409.58	228.84
409.95	229.12
410.33	229.39
410.70	229.64
411.08	229.90
411.45	230.22
411.82	230.52
412.20	230.87
412.57	231.30
412.95	231.60
413.32	232.01
413.69	232.43
414.07	232.89
414.44	233.35
414.82	233.86
415.19	234.42
415.56	234.97
415.94	235.53
416.31	236.16
416.68	236.78
417.06	237.47
417.43	238.18
417.81	238.94
418.18	239.73
418.55	240.61
418.93	241.46
419.30	242.35
419.67	243.31
420.04	244.27
420.42	245.23
420.79	246.42
421.16	247.55
421.54	248.74
421.91	249.89
422.28	251.13
422.66	252.44
423.03	253.76
423.40	255.10
423.77	256.49
424.15	257.90
424.52	259.39
424.89	260.98
425.26	262.52
425.64	263.98
426.01	265.58
426.38	267.21
426.75	268.92
427.13	270.64
427.50	272.44
427.87	274.29
428.24	276.19
428.61	277.93
428.99	279.87
429.36	281.94
429.73	284.04
430.10	286.03
430.47	288.08
430.85	290.15
431.22	292.36
431.59	294.75
431.96	297.00
432.33	299.49
432.70	301.86
433.08	304.65
433.45	307.23
433.82	309.80
434.19	312.66
434.56	315.45
434.93	318.09
435.30	320.68
435.68	323.51
436.05	326.32
436.42	329.05
436.79	331.52
437.16	334.19
437.53	337.01
437.90	339.81
438.27	342.52
438.64	345.32
439.01	347.83
439.38	350.05
439.75	352.16
440.13	354.63
440.50	356.98
440.87	358.81
441.24	360.76
441.61	362.91
441.98	364.33
442.35	366.11
442.72	367.91
443.09	369.70
443.46	370.70
443.83	371.23
444.20	371.77
444.57	372.62
444.94	372.94
445.31	373.29
445.68	373.65
446.05	373.74
446.42	373.37
446.79	373.05
447.16	372.59
447.53	372.30
447.90	371.13
448.27	369.94
448.64	368.36
449.01	367.22
449.37	365.26
449.74	363.40
450.11	361.14
450.48	358.67
450.85	356.14
451.22	354.03
451.59	352.04
451.96	350.11
452.33	347.54
452.70	345.19
453.07	342.33
453.43	339.42
453.80	336.66
454.17	334.01
454.54	331.43
454.91	328.75
455.28	326.10
455.65	323.63
456.02	321.20
456.38	319.04
456.75	316.42
457.12	314.17
457.49	311.97
457.86	309.84
458.23	308.04
458.59	306.01
458.96	303.95
459.33	302.10
459.70	300.23
460.07	298.75
460.43	297.03
460.80	295.47
461.17	294.05
461.54	292.60
461.91	291.17
462.27	289.79
462.64	288.51
463.01	287.19
463.38	285.91
463.74	284.54
464.11	283.46
464.48	282.38
464.85	281.31
465.21	280.45
465.58	279.53
465.95	278.46
466.32	277.60
466.68	276.74
467.05	275.86
467.42	274.99
467.78	274.06
468.15	273.22
468.52	272.56
468.88	271.77
469.25	270.99
469.62	270.38
469.98	269.71
470.35	269.06
470.72	268.47
471.08	267.84
471.45	267.34
471.82	266.76
472.18	266.23
472.55	265.79
472.92	265.30
473.28	264.87
473.65	264.45
474.02	264.01
474.38	263.65
474.75	263.37
475.11	263.02
475.48	262.74
475.85	262.51
476.21	262.31
476.58	262.10
476.94	262.01
477.31	261.84
477.67	261.72
478.04	261.69
478.41	261.66
478.77	261.76
479.14	261.70
479.50	261.72
479.87	261.82
480.23	261.91
480.60	261.99
480.96	262.04
481.33	262.27
481.69	262.49
482.06	262.67
482.42	262.89
482.79	263.19
483.15	263.57
483.52	263.95
483.88	264.30
484.25	264.70
484.61	265.09
484.98	265.57
485.34	266.09
485.71	266.63
486.07	267.21
486.44	267.74
486.80	268.41
487.17	269.16
487.53	269.96
487.90	270.80
488.26	271.71
488.62	272.75
488.99	273.71
489.35	274.77
489.72	275.89
490.08	277.04
490.44	278.29
490.81	279.62
491.17	280.91
491.54	282.38
491.90	283.90
492.26	285.53
492.63	287.26
492.99	289.06
493.36	290.92
493.72	292.98
494.08	295.10
494.45	297.37
494.81	299.74
495.17	302.17
495.54	304.77
495.90	307.46
496.26	310.25
496.63	313.18
496.99	316.29
497.35	319.50
497.72	322.91
498.08	326.39
498.44	330.03
498.80	333.99
499.17	338.06
499.53	342.24
499.89	346.58
500.26	351.05
500.62	355.64
500.98	360.63
501.34	365.65
501.71	370.91
502.07	376.31
502.43	381.90
502.79	387.63
503.16	393.59
503.52	399.80
503.88	406.13
504.24	412.69
504.60	419.45
504.97	426.56
505.33	433.80
505.69	441.46
506.05	449.20
506.41	456.96
506.78	464.97
507.14	473.31
507.50	481.99
507.86	490.93
508.22	500.04
508.59	509.23
508.95	518.73
509.31	528.44
509.67	538.43
510.03	548.61
510.39	559.06
510.75	569.74
511.12	580.54
511.48	591.78
511.84	603.20
512.20	614.69
512.56	626.42
512.92	638.50
513.28	650.69
513.64	662.95
514.00	675.58
514.37	688.28
514.73	701.19
515.09	713.97
515.45	727.06
515.81	740.47
516.17	754.22
516.53	768.12
516.89	782.10
517.25	796.07
517.61	810.34
517.97	824.63
518.33	838.84
518.69	853.40
519.05	868.03
519.41	882.93
519.77	898.09
520.13	913.37
520.49	928.51
520.85	943.62
521.21	959.07
521.57	975.05
521.93	990.58
522.29	1006.64
522.65	1022.69
523.01	1038.67
523.37	1054.45
523.73	1070.30
524.09	1086.09
524.45	1102.04
524.81	1118.37
525.17	1134.81
525.53	1151.38
525.89	1167.98
526.25	1184.63
526.61	1200.81
526.97	1217.18
527.33	1233.45
527.68	1249.71
528.04	1265.88
528.40	1282.17
528.76	1298.96
529.12	1315.19
529.48	1331.86
529.84	1347.65
530.20	1363.93
530.56	1380.60
530.91	1397.66
531.27	1414.17
531.63	1430.31
531.99	1446.66
532.35	1462.40
532.71	1477.92
533.07	1493.72
533.42	1509.39
533.78	1525.00
534.14	1540.83
534.50	1555.87
534.86	1571.33
535.21	1586.18
535.57	1601.66
535.93	1616.83
536.29	1631.32
536.65	1646.03
537.00	1660.30
537.36	1675.27
537.72	1689.58
538.08	1703.80
538.44	1717.30
538.79	1730.86
539.15	1744.18
539.51	1757.64
539.87	1771.63
540.22	1785.10
540.58	1798.64
540.94	1811.62
541.29	1824.27
541.65	1836.78
542.01	1849.71
542.37	1861.89
542.72	1874.20
543.08	1885.81
543.44	1897.95
543.79	1908.94
544.15	1919.70
544.51	1931.22
544.87	1941.96
545.22	1952.55
545.58	1962.47
545.94	1972.03
546.29	1981.67
546.65	1991.54
547.01	2000.72
547.36	2009.22
547.72	2017.59
548.07	2025.35
548.43	2033.28
548.79	2041.06
549.14	2048.46
549.50	2055.66
549.86	2063.19
550.21	2070.38
550.57	2077.53
550.92	2084.17
551.28	2091.14
551.64	2098.24
551.99	2104.73
552.35	2110.83
552.70	2116.89
553.06	2122.88
553.41	2129.37
553.77	2135.35
554.13	2141.20
554.48	2147.30
554.84	2152.95
555.19	2158.06
555.55	2163.36
555.90	2167.89
556.26	2172.94
556.61	2177.72
556.97	2182.27
557.32	2186.44
557.68	2190.59
558.03	2194.89
558.39	2198.54
558.74	2203.24
559.10	2207.06
559.45	2210.72
559.81	2215.11
560.16	2219.06
560.52	2222.35
560.87	2225.65
561.23	2228.37
561.58	2231.41
561.94	2234.04
562.29	2236.38
562.64	2239.44
563.00	2241.94
563.35	2245.59
563.71	2248.71
564.06	2251.95
564.42	2254.89
564.77	2257.57
565.12	2259.98
565.48	2262.06
565.83	2264.22
566.19	2265.85
566.54	2266.77
566.89	2268.16
567.25	2268.88
567.60	2270.27
567.96	2272.14
568.31	2273.16
568.66	2274.61
569.02	2275.40
569.37	2275.78
569.72	2276.82
570.08	2277.06
570.43	2277.29
570.78	2277.00
571.14	2275.71
571.49	2274.53
571.84	2274.28
572.20	2273.26
572.55	2272.36
572.90	2270.78
573.26	2269.36
573.61	2267.64
573.96	2266.41
574.31	2263.47
574.67	2260.80
575.02	2257.43
575.37	2254.20
575.72	2250.70
576.08	2247.49
576.43	2244.34
576.78	2241.04
577.13	2237.96
577.49	2235.01
577.84	2231.81
578.19	2228.18
578.54	2224.90
578.90	2221.13
579.25	2215.70
579.60	2210.99
579.95	2206.18
580.30	2201.48
580.66	2196.65
581.01	2191.79
581.36	2186.94
581.71	2183.10
582.06	2178.75
582.42	2174.46
582.77	2169.59
583.12	2165.25
583.47	2160.68
583.82	2155.97
584.17	2150.86
584.53	2145.61
584.88	2140.15
585.23	2134.55
585.58	2129.29
585.93	2123.85
586.28	2119.03
586.63	2114.36
586.98	2109.52
587.34	2105.00
587.69	2100.35
588.04	2095.35
588.39	2089.91
588.74	2083.73
589.09	2077.56
589.44	2071.00
589.79	2065.09
590.14	2059.36
590.49	2052.79
590.84	2046.47
591.19	2040.57
591.54	2034.26
591.89	2027.13
592.25	2020.57
592.60	2013.58
592.95	2006.32
593.30	1999.23
593.65	1991.82
594.00	1984.85
594.35	1977.60
594.70	1969.61
595.05	1962.60
595.40	1955.38
595.75	1948.17
596.10	1942.04
596.45	1935.60
596.80	1929.62
597.15	1923.06
597.50	1916.24
597.85	1909.91
598.19	1903.52
598.54	1896.60
598.89	1890.05
599.24	1884.25
599.59	1877.73
599.94	1871.54
600.29	1865.23
600.64	1858.66
600.99	1851.35
601.34	1844.66
601.69	1837.85
602.04	1831.31
602.39	1824.05
602.74	1817.25
603.08	1810.59
603.43	1803.97
603.78	1796.79
604.13	1789.59
604.48	1782.53
604.83	1775.70
605.18	1768.94
605.53	1761.08
605.87	1753.13
606.22	1745.91
606.57	1738.05
606.92	1730.72
607.27	1723.77
607.62	1716.99
607.96	1709.92
608.31	1703.48
608.66	1695.95
609.01	1688.60
609.36	1681.11
609.70	1673.21
610.05	1665.29
610.40	1657.53
610.75	1649.26
611.10	1641.71
611.44	1633.36
611.79	1625.43
612.14	1616.97
612.49	1607.90
612.83	1599.49
613.18	1591.49
613.53	1583.47
613.88	1575.05
614.22	1566.80
614.57	1558.17
614.92	1550.17
615.27	1542.62
615.61	1534.36
615.96	1526.38
616.31	1518.78
616.65	1511.43
617.00	1503.83
617.35	1496.21
617.70	1488.07
618.04	1479.62
618.39	1471.36
618.74	1463.97
619.08	1455.69
619.43	1448.10
619.78	1441.17
620.12	1434.15
620.47	1426.61
620.82	1418.52
621.16	1411.07
621.51	1403.61
621.85	1395.98
622.20	1387.62
622.55	1379.35
622.89	1371.54
623.24	1363.95
623.59	1356.53
623.93	1348.99
624.28	1341.85
624.62	1334.44
624.97	1327.27
625.32	1320.50
625.66	1313.47
626.01	1306.17
626.35	1298.80
626.70	1291.05
627.04	1283.38
627.39	1275.57
627.73	1268.23
628.08	1261.38
628.43	1254.25
628.77	1246.92
629.12	1239.42
629.46	1232.11
629.81	1224.64
630.15	1217.43
630.50	1210.06
630.84	1201.86
631.19	1193.88
631.53	1186.35
631.88	1178.77
632.22	1171.26
632.57	1163.98
632.91	1156.47
633.26	1149.13
633.60	1141.85
633.95	1134.76
634.29	1127.73
634.64	1121.08
634.98	1113.77
635.32	1106.73
635.67	1099.90
636.01	1093.23
636.36	1086.45
636.70	1079.91
637.05	1073.31
637.39	1066.84
637.73	1060.41
638.08	1054.54
638.42	1048.56
638.77	1042.20
639.11	1035.57
639.45	1029.13
639.80	1022.51
640.14	1016.21
640.49	1009.69
640.83	1003.25
641.17	996.98
641.52	990.73
641.86	984.22
642.20	978.26
642.55	971.86
642.89	965.57
643.23	959.00
643.58	953.32
643.92	947.17
644.26	941.26
644.61	935.22
644.95	929.24
645.29	922.77
645.64	916.14
645.98	909.76
646.32	903.99
646.66	898.02
647.01	892.23
647.35	886.46
647.69	880.64
648.04	875.17
648.38	869.52
648.72	863.48
649.06	857.46
649.41	851.69
649.75	845.75
650.09	839.84
650.43	834.15
650.78	827.97
651.12	822.02
651.46	816.28
651.80	810.61
652.14	805.12
652.49	799.77
652.83	794.68
653.17	789.10
653.51	783.42
653.85	778.00
654.20	772.44
654.54	766.49
654.88	760.73
655.22	754.86
655.56	749.11
655.90	743.73
656.25	738.56
656.59	733.13
656.93	728.07
657.27	722.96
657.61	717.49
657.95	712.42
658.29	707.33
658.64	702.02
658.98	696.69
659.32	691.23
659.66	685.98
660.00	680.67
660.34	675.70
660.68	670.79
661.02	665.79
661.36	661.02
661.70	656.59
662.05	652.29
662.39	647.99
662.73	643.59
663.07	639.16
663.41	634.74
663.75	630.33
664.09	625.76
664.43	621.35
664.77	617.26
665.11	613.02
665.45	608.95
665.79	604.96
666.13	600.89
666.47	596.89
666.81	592.74
667.15	588.57
667.49	584.68
667.83	580.85
668.17	576.91
668.51	572.90
668.85	568.79
669.19	564.94
669.53	561.16
669.87	557.27
670.21	553.60
670.55	549.87
670.89	546.43
671.23	543.02
671.57	539.49
671.91	535.96
672.25	532.47
672.58	528.98
672.92	525.54
673.26	522.34
673.60	519.18
673.94	516.14
674.28	513.25
674.62	510.24
674.96	507.17
675.30	504.29
675.64	501.39
675.97	498.69
676.31	495.83
676.65	492.91
676.99	490.27
677.33	487.48
677.67	484.75
678.01	481.75
678.34	478.80
678.68	475.97
679.02	473.15
679.36	470.35
679.70	467.67
680.04	464.92
680.37	462.12
680.71	459.33
681.05	456.72
681.39	454.06
681.73	451.42
682.06	448.90
682.40	446.36
682.74	443.81
683.08	441.23
683.42	438.60
683.75	436.10
684.09	433.49
684.43	430.99
684.77	428.55
685.10	426.15
685.44	423.86
685.78	421.56
686.12	419.33
686.45	417.06
686.79	414.75
687.13	412.57
687.46	410.35
687.80	408.15
688.14	405.91
688.48	403.83
688.81	401.62
689.15	399.48
689.49	397.37
689.82	395.28
690.16	393.17
690.50	391.23
690.83	389.25
691.17	387.25
691.51	385.39
691.84	383.51
692.18	381.68
692.52	379.69
692.85	377.73
693.19	375.90
693.52	374.09
693.86	372.26
694.20	370.50
694.53	368.73
694.87	366.90
695.21	365.12
695.54	363.28
695.88	361.54
696.21	359.80
696.55	358.10
696.88	356.41
697.22	354.80
697.56	353.14
697.89	351.49
698.23	349.94
698.56	348.28
698.90	346.70
699.23	345.05
699.57	343.51
699.90	341.94
700.24	340.37
700.58	338.82
700.91	337.32
701.25	335.86
701.58	334.52
701.92	333.11
702.25	331.71
702.59	330.33
702.92	329.02
703.26	327.73
703.59	326.46
703.93	325.26
704.26	324.01
704.60	322.75
704.93	321.50
705.26	320.18
705.60	319.04
705.93	317.88
706.27	316.76
706.60	315.67
706.94	314.61
707.27	313.44
707.61	312.38
707.94	311.35
708.27	310.23
708.61	309.08
708.94	308.11
709.28	307.13
709.61	306.16
709.94	305.18
710.28	304.12
710.61	303.11
710.95	302.02
711.28	301.07
711.61	300.13
711.95	299.21
712.28	298.34
712.61	297.33
712.95	296.42
713.28	295.56
713.61	294.64
713.95	293.77
714.28	292.93
714.61	292.08
714.95	291.22
715.28	290.36
715.61	289.52
715.95	288.62
716.28	287.78
716.61	286.95
716.95	286.14
717.28	285.41
717.61	284.64
717.94	283.89
718.28	283.08
718.61	282.34
718.94	281.64
719.27	280.91
719.61	280.28
719.94	279.60
720.27	278.95
720.60	278.29
720.94	277.66
721.27	277.06
721.60	276.47
721.93	275.85
722.27	275.31
722.60	274.75
722.93	274.22
723.26	273.65
723.59	273.09
723.93	272.50
724.26	271.98
724.59	271.40
724.92	270.88
725.25	270.41
725.59	269.88
725.92	269.38
726.25	268.90
726.58	268.38
726.91	267.89
727.24	267.38
727.57	266.93
727.91	266.44
728.24	266.00
728.57	265.53
728.90	265.14
729.23	264.64
729.56	264.21
729.89	263.76
730.22	263.31
730.55	262.85
730.89	262.46
731.22	262.02
731.55	261.63
731.88	261.16
732.21	260.74
732.54	260.31
732.87	259.91
733.20	259.46
733.53	259.08
733.86	258.70
734.19	258.29
734.52	257.90
734.85	257.58
735.18	257.17
735.51	256.79
735.84	256.40
736.17	256.06
736.50	255.66
736.83	255.43
737.16	255.05
737.49	254.74
737.82	254.38
738.15	254.01
738.48	253.64
738.81	253.38
739.14	253.05
739.47	252.73
739.80	252.38
740.13	252.09
740.46	251.75
740.79	251.41
741.12	251.12
741.45	250.81
741.78	250.44
742.11	250.16
742.44	249.82
742.77	249.48
743.10	249.18
743.43	248.86
743.75	248.44
744.08	248.31
744.41	248.03
744.74	247.76
745.07	247.47
745.40	247.27
745.73	246.99
746.06	246.71
746.39	246.47
746.71	246.22
747.04	245.96
747.37	245.71
747.70	245.50
748.03	245.25
748.36	245.01
748.68	244.80
749.01	244.52
749.34	244.28
749.67	244.08
750.00	243.84
750.33	243.70
750.65	243.52
750.98	243.21
751.31	242.97
751.64	242.73
751.97	242.58
752.29	242.34
752.62	242.10
752.95	241.89
753.28	241.63
753.60	241.45
753.93	241.24
754.26	241.06
754.59	240.83
754.91	240.61
755.24	240.42
755.57	240.17
755.90	240.00
756.22	239.83
756.55	239.65
756.88	239.46
757.20	239.22
757.53	239.01
757.86	238.81
758.19	238.66
758.51	238.51
758.84	238.30
759.17	238.14
759.49	237.98
759.82	237.88
760.15	237.76
760.47	237.59
760.80	237.44
761.13	237.33
761.45	237.18
761.78	237.07
762.11	236.93
762.43	236.82
762.76	236.66
763.08	236.56
763.41	236.42
763.74	236.29
764.06	236.16
764.39	236.04
764.71	235.92
765.04	235.76
765.37	235.64
765.69	235.49
766.02	235.34
766.34	235.21
766.67	235.03
767.00	234.91
767.32	234.86
767.65	234.82
767.97	234.70
768.30	234.59
768.62	234.48
768.95	234.37
769.27	234.26
769.60	234.18
769.92	234.06
770.25	233.95
770.57	233.87
770.90	233.79
771.22	233.69
771.55	233.60
771.87	233.52
772.20	233.41
772.52	233.42
772.85	233.48
773.17	233.41
773.50	233.34
773.82	233.22
774.15	233.09
774.47	232.93
774.80	232.81
775.12	232.72
775.45	232.61
775.77	232.52
776.09	232.42
776.42	232.35
776.74	232.29
777.07	232.17
777.39	232.07
777.72	231.96
778.04	231.87
778.36	231.78
778.69	231.72
779.01	231.68
779.33	231.53
779.66	231.35
779.98	231.27
780.31	231.21
780.63	231.20
780.95	231.16
781.28	231.08
781.60	231.01
781.92	230.96
782.25	230.91
782.57	230.87
782.89	230.83
783.22	230.74
783.54	230.67
783.86	230.65
784.19	230.57
784.51	230.53
784.83	230.48
785.16	230.42
785.48	230.37
785.80	230.31
786.12	230.26
786.45	230.19
786.77	230.18
787.09	230.14
