SpectraSuite Data File
++++++++++++++++++++++++++++++++++++
Date: Fri Feb 01 16:05:54 EST 2013
User: group
Dark Spectrum Present: No
Reference Spectrum Present: No
Number of Sampled Component Spectra: 1
Spectrometers: USB2E7196
Integration Time (usec): 35000 (USB2E7196)
Spectra Averaged: 100 (USB2E7196)
Boxcar Smoothing: 10 (USB2E7196)
Correct for Electrical Dark: No (USB2E7196)
Strobe/Lamp Enabled: No (USB2E7196)
Correct for Detector Non-linearity: No (USB2E7196)
Correct for Stray Light: No (USB2E7196)
Number of Pixels in Processed Spectrum: 2048
>>>>>Begin Processed Spectral Data<<<<<
339.09	0.00
339.48	215.10
339.86	215.75
340.24	217.16
340.63	218.10
341.01	221.71
341.39	222.05
341.78	222.97
342.16	223.93
342.54	224.18
342.93	213.03
343.31	223.83
343.69	224.35
344.07	224.83
344.46	225.30
344.84	225.73
345.22	225.99
345.60	226.22
345.99	226.41
346.37	226.54
346.75	226.67
347.13	226.70
347.52	226.76
347.90	226.81
348.28	226.84
348.66	226.90
349.05	226.89
349.43	226.88
349.81	226.90
350.19	226.94
350.57	227.00
350.96	227.10
351.34	227.17
351.72	227.24
352.10	227.35
352.48	227.37
352.87	227.39
353.25	227.42
353.63	227.48
354.01	227.56
354.39	227.64
354.77	227.73
355.15	227.83
355.54	227.88
355.92	227.93
356.30	228.01
356.68	228.13
357.06	228.22
357.44	228.34
357.82	228.38
358.20	228.47
358.58	228.53
358.97	228.57
359.35	228.66
359.73	228.75
360.11	228.80
360.49	228.88
360.87	228.94
361.25	229.03
361.63	229.10
362.01	229.15
362.39	229.19
362.77	229.20
363.15	229.23
363.53	229.24
363.91	229.25
364.29	229.27
364.67	229.20
365.05	229.19
365.43	229.19
365.81	229.21
366.19	229.24
366.57	229.27
366.95	229.28
367.33	229.24
367.71	229.22
368.09	229.24
368.47	229.20
368.85	229.17
369.23	229.14
369.61	229.10
369.99	229.09
370.37	229.03
370.75	229.07
371.13	229.02
371.51	229.00
371.89	228.97
372.27	228.92
372.65	228.86
373.03	228.83
373.41	228.76
373.78	228.72
374.16	228.61
374.54	228.53
374.92	228.43
375.30	228.38
375.68	228.29
376.06	228.18
376.44	228.15
376.82	228.12
377.19	228.04
377.57	227.95
377.95	227.82
378.33	227.76
378.71	227.62
379.09	227.56
379.47	227.46
379.84	227.38
380.22	227.31
380.60	227.22
380.98	227.15
381.36	227.07
381.73	226.95
382.11	226.90
382.49	226.81
382.87	226.72
383.25	226.63
383.62	226.67
384.00	226.60
384.38	226.51
384.76	226.46
385.13	226.43
385.51	226.39
385.89	226.35
386.27	226.29
386.64	226.26
387.02	226.21
387.40	226.19
387.78	226.13
388.15	226.09
388.53	226.05
388.91	226.02
389.29	225.98
389.66	225.98
390.04	225.95
390.42	225.95
390.79	225.96
391.17	225.96
391.55	225.85
391.92	225.86
392.30	225.88
392.68	225.84
393.05	225.82
393.43	225.80
393.81	225.81
394.18	225.82
394.56	225.83
394.94	225.83
395.31	225.86
395.69	225.94
396.06	225.97
396.44	226.03
396.82	226.05
397.19	226.13
397.57	226.20
397.95	226.26
398.32	226.28
398.70	226.33
399.07	226.41
399.45	226.45
399.82	226.50
400.20	226.56
400.58	226.67
400.95	226.72
401.33	226.83
401.70	227.00
402.08	227.10
402.45	227.20
402.83	227.35
403.20	227.47
403.58	227.57
403.95	227.68
404.33	227.79
404.71	227.93
405.08	228.14
405.46	228.25
405.83	228.39
406.21	228.56
406.58	228.76
406.96	228.92
407.33	229.13
407.70	229.32
408.08	229.59
408.45	229.80
408.83	230.09
409.20	230.31
409.58	230.47
409.95	230.72
410.33	230.99
410.70	231.23
411.08	231.53
411.45	231.82
411.82	232.18
412.20	232.54
412.57	232.94
412.95	233.24
413.32	233.69
413.69	234.09
414.07	234.52
414.44	234.99
414.82	235.48
415.19	236.04
415.56	236.59
415.94	237.13
416.31	237.74
416.68	238.35
417.06	239.03
417.43	239.73
417.81	240.51
418.18	241.30
418.55	242.14
418.93	243.01
419.30	243.91
419.67	244.82
420.04	245.77
420.42	246.77
420.79	247.94
421.16	249.07
421.54	250.27
421.91	251.51
422.28	252.77
422.66	254.09
423.03	255.34
423.40	256.68
423.77	258.10
424.15	259.53
424.52	260.96
424.89	262.63
425.26	264.18
425.64	265.60
426.01	267.19
426.38	268.82
426.75	270.51
427.13	272.23
427.50	274.04
427.87	275.90
428.24	277.77
428.61	279.51
428.99	281.50
429.36	283.62
429.73	285.68
430.10	287.66
430.47	289.75
430.85	291.90
431.22	294.16
431.59	296.53
431.96	298.74
432.33	301.21
432.70	303.56
433.08	306.34
433.45	308.97
433.82	311.57
434.19	314.49
434.56	317.29
434.93	319.92
435.30	322.53
435.68	325.42
436.05	328.23
436.42	331.03
436.79	333.50
437.16	336.13
437.53	338.94
437.90	341.77
438.27	344.47
438.64	347.27
439.01	349.81
439.38	352.02
439.75	354.21
440.13	356.73
440.50	359.01
440.87	360.88
441.24	362.89
441.61	365.04
441.98	366.50
442.35	368.31
442.72	370.19
443.09	372.03
443.46	373.00
443.83	373.61
444.20	374.09
444.57	374.90
444.94	375.19
445.31	375.50
445.68	375.86
446.05	375.94
446.42	375.55
446.79	375.15
447.16	374.70
447.53	374.36
447.90	373.19
448.27	372.07
448.64	370.51
449.01	369.33
449.37	367.36
449.74	365.43
450.11	363.14
450.48	360.62
450.85	358.07
451.22	355.95
451.59	353.86
451.96	351.90
452.33	349.32
452.70	346.97
453.07	344.16
453.43	341.20
453.80	338.44
454.17	335.80
454.54	333.23
454.91	330.54
455.28	327.88
455.65	325.42
456.02	322.95
456.38	320.77
456.75	318.11
457.12	315.83
457.49	313.63
457.86	311.47
458.23	309.60
458.59	307.54
458.96	305.44
459.33	303.57
459.70	301.75
460.07	300.25
460.43	298.57
460.80	296.94
461.17	295.51
461.54	294.00
461.91	292.58
462.27	291.15
462.64	289.89
463.01	288.55
463.38	287.23
463.74	285.90
464.11	284.76
464.48	283.73
464.85	282.67
465.21	281.79
465.58	280.90
465.95	279.83
466.32	278.95
466.68	278.05
467.05	277.20
467.42	276.27
467.78	275.32
468.15	274.43
468.52	273.81
468.88	273.02
469.25	272.27
469.62	271.66
469.98	271.01
470.35	270.37
470.72	269.75
471.08	269.14
471.45	268.61
471.82	268.04
472.18	267.45
472.55	266.99
472.92	266.50
473.28	265.99
473.65	265.57
474.02	265.11
474.38	264.78
474.75	264.46
475.11	264.16
475.48	263.92
475.85	263.69
476.21	263.45
476.58	263.25
476.94	263.09
477.31	262.93
477.67	262.77
478.04	262.67
478.41	262.65
478.77	262.69
479.14	262.63
479.50	262.67
479.87	262.76
480.23	262.89
480.60	262.95
480.96	263.11
481.33	263.32
481.69	263.53
482.06	263.74
482.42	263.93
482.79	264.21
483.15	264.56
483.52	264.97
483.88	265.30
484.25	265.68
484.61	266.11
484.98	266.58
485.34	267.17
485.71	267.73
486.07	268.32
486.44	268.90
486.80	269.60
487.17	270.30
487.53	271.12
487.90	271.94
488.26	272.91
488.62	273.90
488.99	274.86
489.35	275.92
489.72	277.02
490.08	278.29
490.44	279.52
490.81	280.80
491.17	282.16
491.54	283.62
491.90	285.16
492.26	286.84
492.63	288.55
492.99	290.36
493.36	292.34
493.72	294.40
494.08	296.51
494.45	298.73
494.81	301.13
495.17	303.58
495.54	306.18
495.90	308.86
496.26	311.66
496.63	314.63
496.99	317.75
497.35	321.00
497.72	324.43
498.08	327.97
498.44	331.67
498.80	335.59
499.17	339.66
499.53	343.84
499.89	348.23
500.26	352.76
500.62	357.44
500.98	362.39
501.34	367.49
501.71	372.84
502.07	378.35
502.43	384.00
502.79	389.81
503.16	395.84
503.52	402.19
503.88	408.60
504.24	415.30
504.60	422.19
504.97	429.41
505.33	436.67
505.69	444.45
506.05	452.22
506.41	460.12
506.78	468.30
507.14	476.80
507.50	485.50
507.86	494.49
508.22	503.71
508.59	512.91
508.95	522.51
509.31	532.35
509.67	542.43
510.03	552.73
510.39	563.33
510.75	574.17
511.12	585.08
511.48	596.36
511.84	607.80
512.20	619.30
512.56	631.24
512.92	643.48
513.28	655.76
513.64	668.32
514.00	681.04
514.37	694.05
514.73	707.13
515.09	720.14
515.45	733.44
515.81	747.05
516.17	761.00
516.53	775.06
516.89	789.23
517.25	803.39
517.61	817.80
517.97	832.21
518.33	846.60
518.69	861.28
519.05	876.27
519.41	891.39
519.77	906.88
520.13	922.31
520.49	937.70
520.85	953.05
521.21	968.67
521.57	984.92
521.93	1000.62
522.29	1016.95
522.65	1033.26
523.01	1049.43
523.37	1065.40
523.73	1081.57
524.09	1097.68
524.45	1113.90
524.81	1130.55
525.17	1147.34
525.53	1164.20
525.89	1181.08
526.25	1197.99
526.61	1214.33
526.97	1231.09
527.33	1247.49
527.68	1264.04
528.04	1280.52
528.40	1297.12
528.76	1314.16
529.12	1330.57
529.48	1347.29
529.84	1363.21
530.20	1379.74
530.56	1396.71
530.91	1414.05
531.27	1430.80
531.63	1447.19
531.99	1463.77
532.35	1479.66
532.71	1495.44
533.07	1511.67
533.42	1527.59
533.78	1543.52
534.14	1559.84
534.50	1574.98
534.86	1590.85
535.21	1605.94
535.57	1621.66
535.93	1637.03
536.29	1651.76
536.65	1666.81
537.00	1681.65
537.36	1696.92
537.72	1711.39
538.08	1725.82
538.44	1739.58
538.79	1753.39
539.15	1767.01
539.51	1780.69
539.87	1795.00
540.22	1808.66
540.58	1822.36
540.94	1835.49
541.29	1848.37
541.65	1860.95
542.01	1874.21
542.37	1886.51
542.72	1898.98
543.08	1910.79
543.44	1923.16
543.79	1934.32
544.15	1945.38
544.51	1956.88
544.87	1967.79
545.22	1978.59
545.58	1988.79
545.94	1998.54
546.29	2008.40
546.65	2018.22
547.01	2027.45
547.36	2035.98
547.72	2044.51
548.07	2052.41
548.43	2060.67
548.79	2068.65
549.14	2076.21
549.50	2083.51
549.86	2091.12
550.21	2098.58
550.57	2105.73
550.92	2112.40
551.28	2119.52
551.64	2126.40
551.99	2132.87
552.35	2139.18
552.70	2145.39
553.06	2151.37
553.41	2157.70
553.77	2163.77
554.13	2169.87
554.48	2175.95
554.84	2181.60
555.19	2186.89
555.55	2192.09
555.90	2196.58
556.26	2201.43
556.61	2206.16
556.97	2210.57
557.32	2214.66
557.68	2218.49
558.03	2222.68
558.39	2226.26
558.74	2230.83
559.10	2234.86
559.45	2238.64
559.81	2242.88
560.16	2246.57
560.52	2249.78
560.87	2253.13
561.23	2255.74
561.58	2258.61
561.94	2261.23
562.29	2263.64
562.64	2266.18
563.00	2268.60
563.35	2272.09
563.71	2275.28
564.06	2278.52
564.42	2281.32
564.77	2284.05
565.12	2286.34
565.48	2288.28
565.83	2290.17
566.19	2291.62
566.54	2292.46
566.89	2293.57
567.25	2294.05
567.60	2295.32
567.96	2297.08
568.31	2297.95
568.66	2299.15
569.02	2299.72
569.37	2300.01
569.72	2300.85
570.08	2301.20
570.43	2301.35
570.78	2300.66
571.14	2299.10
571.49	2297.58
571.84	2297.13
572.20	2295.93
572.55	2294.86
572.90	2293.43
573.26	2292.13
573.61	2290.43
573.96	2288.68
574.31	2285.72
574.67	2282.86
575.02	2279.31
575.37	2275.85
575.72	2272.17
576.08	2268.67
576.43	2265.47
576.78	2261.76
577.13	2258.46
577.49	2255.29
577.84	2251.76
578.19	2248.12
578.54	2244.52
578.90	2240.49
579.25	2235.01
579.60	2230.06
579.95	2225.22
580.30	2220.18
580.66	2214.92
581.01	2209.81
581.36	2204.93
581.71	2200.69
582.06	2196.19
582.42	2191.79
582.77	2186.75
583.12	2182.09
583.47	2177.51
583.82	2172.57
584.17	2167.33
584.53	2161.88
584.88	2156.31
585.23	2150.60
585.58	2145.08
585.93	2139.57
586.28	2134.84
586.63	2129.90
586.98	2124.88
587.34	2120.10
587.69	2115.21
588.04	2109.99
588.39	2104.43
588.74	2098.09
589.09	2091.97
589.44	2085.27
589.79	2079.38
590.14	2073.63
590.49	2067.10
590.84	2060.64
591.19	2054.57
591.54	2048.28
591.89	2040.94
592.25	2034.09
592.60	2026.90
592.95	2019.29
593.30	2012.09
593.65	2004.43
594.00	1997.37
594.35	1990.08
594.70	1982.15
595.05	1974.95
595.40	1967.75
595.75	1960.29
596.10	1954.02
596.45	1947.31
596.80	1941.20
597.15	1934.42
597.50	1927.29
597.85	1920.87
598.19	1914.29
598.54	1907.10
598.89	1900.41
599.24	1894.68
599.59	1888.10
599.94	1881.86
600.29	1875.62
600.64	1868.96
600.99	1861.47
601.34	1854.64
601.69	1847.69
602.04	1840.78
602.39	1833.50
602.74	1826.70
603.08	1819.89
603.43	1813.22
603.78	1805.90
604.13	1798.58
604.48	1791.31
604.83	1784.55
605.18	1777.61
605.53	1769.59
605.87	1761.67
606.22	1754.39
606.57	1746.41
606.92	1738.97
607.27	1731.84
607.62	1724.98
607.96	1717.75
608.31	1711.17
608.66	1703.54
609.01	1696.09
609.36	1688.66
609.70	1680.56
610.05	1672.46
610.40	1664.84
610.75	1656.45
611.10	1648.79
611.44	1640.38
611.79	1632.44
612.14	1623.78
612.49	1614.66
612.83	1606.35
613.18	1598.26
613.53	1590.21
613.88	1581.55
614.22	1573.26
614.57	1564.62
614.92	1556.60
615.27	1549.03
615.61	1540.78
615.96	1532.74
616.31	1525.02
616.65	1517.56
617.00	1510.02
617.35	1502.38
617.70	1494.08
618.04	1485.69
618.39	1477.54
618.74	1469.87
619.08	1461.49
619.43	1453.81
619.78	1446.80
620.12	1439.60
620.47	1432.12
620.82	1423.98
621.16	1416.64
621.51	1409.08
621.85	1401.64
622.20	1392.97
622.55	1384.65
622.89	1376.79
623.24	1369.16
623.59	1361.70
623.93	1354.14
624.28	1346.94
624.62	1339.48
624.97	1332.35
625.32	1325.41
625.66	1318.39
626.01	1311.43
626.35	1303.99
626.70	1296.25
627.04	1288.50
627.39	1280.59
627.73	1273.06
628.08	1266.04
628.43	1258.76
628.77	1251.40
629.12	1243.85
629.46	1236.72
629.81	1229.26
630.15	1222.00
630.50	1214.54
630.84	1206.44
631.19	1198.45
631.53	1190.86
631.88	1183.09
632.22	1175.37
632.57	1168.17
632.91	1160.66
633.26	1153.04
633.60	1145.70
633.95	1138.59
634.29	1131.54
634.64	1124.94
634.98	1117.53
635.32	1110.45
635.67	1103.80
636.01	1097.15
636.36	1090.18
636.70	1083.68
637.05	1077.09
637.39	1070.57
637.73	1064.11
638.08	1058.28
638.42	1052.41
638.77	1046.01
639.11	1039.54
639.45	1033.12
639.80	1026.36
640.14	1019.88
640.49	1013.35
640.83	1007.01
641.17	1000.79
641.52	994.49
641.86	988.01
642.20	982.18
642.55	975.77
642.89	969.30
643.23	962.73
643.58	956.97
643.92	950.88
644.26	944.87
644.61	938.73
644.95	932.73
645.29	926.07
645.64	919.22
645.98	912.89
646.32	907.06
646.66	901.07
647.01	895.36
647.35	889.62
647.69	883.84
648.04	878.33
648.38	872.59
648.72	866.58
649.06	860.53
649.41	854.58
649.75	848.74
650.09	842.78
650.43	837.04
650.78	830.88
651.12	824.76
651.46	818.96
651.80	813.33
652.14	807.92
652.49	802.52
652.83	797.36
653.17	791.70
653.51	785.92
653.85	780.49
654.20	774.82
654.54	768.79
654.88	763.03
655.22	757.13
655.56	751.39
655.90	745.94
656.25	740.77
656.59	735.49
656.93	730.34
657.27	725.20
657.61	719.72
657.95	714.66
658.29	709.60
658.64	704.37
658.98	698.99
659.32	693.52
659.66	688.27
660.00	683.00
660.34	678.04
660.68	673.21
661.02	668.17
661.36	663.41
661.70	658.98
662.05	654.63
662.39	650.28
662.73	645.81
663.07	641.44
663.41	636.93
663.75	632.44
664.09	627.85
664.43	623.53
664.77	619.38
665.11	615.11
665.45	610.99
665.79	606.92
666.13	602.90
666.47	598.80
666.81	594.68
667.15	590.54
667.49	586.57
667.83	582.73
668.17	578.76
668.51	574.79
668.85	570.75
669.19	566.92
669.53	563.08
669.87	559.16
670.21	555.43
670.55	551.84
670.89	548.43
671.23	545.05
671.57	541.45
671.91	537.95
672.25	534.45
672.58	531.00
672.92	527.56
673.26	524.34
673.60	521.17
673.94	518.05
674.28	515.13
674.62	512.25
674.96	509.12
675.30	506.22
675.64	503.26
675.97	500.43
676.31	497.53
676.65	494.60
676.99	491.94
677.33	489.08
677.67	486.18
678.01	483.16
678.34	480.22
678.68	477.34
679.02	474.53
679.36	471.74
679.70	469.02
680.04	466.28
680.37	463.40
680.71	460.63
681.05	458.03
681.39	455.35
681.73	452.69
682.06	450.18
682.40	447.64
682.74	445.06
683.08	442.52
683.42	439.94
683.75	437.51
684.09	434.93
684.43	432.47
684.77	430.02
685.10	427.64
685.44	425.27
685.78	423.00
686.12	420.75
686.45	418.44
686.79	416.09
687.13	413.87
687.46	411.72
687.80	409.52
688.14	407.27
688.48	405.21
688.81	402.95
689.15	400.77
689.49	398.62
689.82	396.55
690.16	394.44
690.50	392.47
690.83	390.43
691.17	388.46
691.51	386.55
691.84	384.73
692.18	382.81
692.52	380.84
692.85	378.88
693.19	376.96
693.52	375.13
693.86	373.28
694.20	371.49
694.53	369.69
694.87	367.87
695.21	366.08
695.54	364.25
695.88	362.50
696.21	360.78
696.55	359.09
696.88	357.38
697.22	355.71
697.56	354.06
697.89	352.42
698.23	350.81
698.56	349.23
698.90	347.61
699.23	345.97
699.57	344.42
699.90	342.86
700.24	341.37
700.58	339.85
700.91	338.38
701.25	336.91
701.58	335.51
701.92	334.18
702.25	332.84
702.59	331.47
702.92	330.13
703.26	328.84
703.59	327.56
703.93	326.37
704.26	325.19
704.60	323.94
704.93	322.68
705.26	321.45
705.60	320.24
705.93	319.08
706.27	318.01
706.60	316.99
706.94	315.92
707.27	314.79
707.61	313.74
707.94	312.71
708.27	311.67
708.61	310.60
708.94	309.57
709.28	308.55
709.61	307.57
709.94	306.62
710.28	305.59
710.61	304.63
710.95	303.57
711.28	302.61
711.61	301.65
711.95	300.71
712.28	299.76
712.61	298.78
712.95	297.88
713.28	297.00
713.61	296.07
713.95	295.19
714.28	294.34
714.61	293.46
714.95	292.62
715.28	291.78
715.61	290.90
715.95	290.05
716.28	289.22
716.61	288.41
716.95	287.59
717.28	286.88
717.61	286.10
717.94	285.40
718.28	284.64
718.61	283.90
718.94	283.23
719.27	282.60
719.61	281.95
719.94	281.29
720.27	280.57
720.60	279.95
720.94	279.31
721.27	278.70
721.60	278.13
721.93	277.56
722.27	277.01
722.60	276.44
722.93	275.86
723.26	275.37
723.59	274.78
723.93	274.25
724.26	273.69
724.59	273.16
724.92	272.63
725.25	272.11
725.59	271.59
725.92	271.06
726.25	270.52
726.58	270.03
726.91	269.54
727.24	269.06
727.57	268.58
727.91	268.06
728.24	267.59
728.57	267.10
728.90	266.59
729.23	266.08
729.56	265.67
729.89	265.19
730.22	264.63
730.55	264.15
730.89	263.71
731.22	263.22
731.55	262.74
731.88	262.30
732.21	261.85
732.54	261.41
732.87	260.95
733.20	260.56
733.53	260.18
733.86	259.80
734.19	259.40
734.52	258.98
734.85	258.70
735.18	258.27
735.51	257.89
735.84	257.53
736.17	257.16
736.50	256.75
736.83	256.53
737.16	256.24
737.49	255.95
737.82	255.58
738.15	255.29
738.48	254.99
738.81	254.64
739.14	254.31
739.47	254.03
739.80	253.71
740.13	253.41
740.46	253.03
740.79	252.71
741.12	252.40
741.45	252.11
741.78	251.73
742.11	251.43
742.44	251.08
742.77	250.80
743.10	250.51
743.43	250.24
743.75	249.85
744.08	249.72
744.41	249.43
744.74	249.17
745.07	248.88
745.40	248.60
745.73	248.37
746.06	248.10
746.39	247.82
746.71	247.59
747.04	247.29
747.37	247.09
747.70	246.83
748.03	246.59
748.36	246.37
748.68	246.13
749.01	245.89
749.34	245.70
749.67	245.50
750.00	245.30
750.33	245.15
750.65	244.93
750.98	244.57
751.31	244.35
751.64	244.15
751.97	243.98
752.29	243.77
752.62	243.50
752.95	243.28
753.28	243.10
753.60	242.91
753.93	242.78
754.26	242.56
754.59	242.35
754.91	242.14
755.24	241.95
755.57	241.77
755.90	241.59
756.22	241.41
756.55	241.21
756.88	241.02
757.20	240.79
757.53	240.64
757.86	240.48
758.19	240.33
758.51	240.19
758.84	240.01
759.17	239.86
759.49	239.73
759.82	239.66
760.15	239.52
760.47	239.39
760.80	239.19
761.13	239.08
761.45	238.93
761.78	238.77
762.11	238.63
762.43	238.50
762.76	238.38
763.08	238.25
763.41	238.08
763.74	237.97
764.06	237.84
764.39	237.70
764.71	237.55
765.04	237.42
765.37	237.25
765.69	237.13
766.02	237.00
766.34	236.86
766.67	236.75
767.00	236.63
767.32	236.56
767.65	236.51
767.97	236.40
768.30	236.29
768.62	236.18
768.95	236.02
769.27	235.88
769.60	235.78
769.92	235.67
770.25	235.61
770.57	235.45
770.90	235.34
771.22	235.20
771.55	235.10
771.87	235.01
772.20	234.92
772.52	234.87
772.85	234.89
773.17	234.80
773.50	234.66
773.82	234.54
774.15	234.39
774.47	234.23
774.80	234.10
775.12	234.00
775.45	233.92
775.77	233.87
776.09	233.82
776.42	233.70
776.74	233.64
777.07	233.54
777.39	233.48
777.72	233.39
778.04	233.33
778.36	233.24
778.69	233.14
779.01	233.07
779.33	232.94
779.66	232.73
779.98	232.64
780.31	232.55
780.63	232.52
780.95	232.46
781.28	232.40
781.60	232.35
781.92	232.29
782.25	232.22
782.57	232.17
782.89	232.10
783.22	232.10
783.54	232.01
783.86	231.94
784.19	231.87
784.51	231.82
784.83	231.74
785.16	231.68
785.48	231.66
785.80	231.60
786.12	231.54
786.45	231.53
786.77	231.50
787.09	231.48
