SpectraSuite Data File
++++++++++++++++++++++++++++++++++++
Date: Fri Feb 01 17:27:05 EST 2013
User: group
Dark Spectrum Present: No
Reference Spectrum Present: No
Number of Sampled Component Spectra: 1
Spectrometers: USB2E7196
Integration Time (usec): 35000 (USB2E7196)
Spectra Averaged: 100 (USB2E7196)
Boxcar Smoothing: 10 (USB2E7196)
Correct for Electrical Dark: No (USB2E7196)
Strobe/Lamp Enabled: No (USB2E7196)
Correct for Detector Non-linearity: No (USB2E7196)
Correct for Stray Light: No (USB2E7196)
Number of Pixels in Processed Spectrum: 2048
>>>>>Begin Processed Spectral Data<<<<<
339.09	0.00
339.48	212.67
339.86	214.10
340.24	215.76
340.63	217.20
341.01	219.71
341.39	219.66
341.78	221.09
342.16	222.29
342.54	222.85
342.93	211.32
343.31	221.99
343.69	222.52
344.07	223.00
344.46	223.44
344.84	223.83
345.22	224.08
345.60	224.32
345.99	224.50
346.37	224.65
346.75	224.74
347.13	224.80
347.52	224.89
347.90	224.98
348.28	224.99
348.66	224.99
349.05	224.98
349.43	225.03
349.81	225.09
350.19	225.17
350.57	225.24
350.96	225.30
351.34	225.39
351.72	225.49
352.10	225.60
352.48	225.66
352.87	225.69
353.25	225.77
353.63	225.84
354.01	225.92
354.39	225.96
354.77	226.03
355.15	226.12
355.54	226.18
355.92	226.24
356.30	226.35
356.68	226.47
357.06	226.55
357.44	226.60
357.82	226.64
358.20	226.71
358.58	226.79
358.97	226.86
359.35	226.93
359.73	227.00
360.11	227.05
360.49	227.10
360.87	227.16
361.25	227.22
361.63	227.32
362.01	227.34
362.39	227.42
362.77	227.50
363.15	227.55
363.53	227.57
363.91	227.55
364.29	227.55
364.67	227.49
365.05	227.54
365.43	227.54
365.81	227.57
366.19	227.57
366.57	227.61
366.95	227.60
367.33	227.57
367.71	227.60
368.09	227.59
368.47	227.54
368.85	227.55
369.23	227.55
369.61	227.50
369.99	227.56
370.37	227.54
370.75	227.50
371.13	227.44
371.51	227.39
371.89	227.38
372.27	227.35
372.65	227.30
373.03	227.24
373.41	227.22
373.78	227.18
374.16	227.10
374.54	227.01
374.92	226.97
375.30	226.93
375.68	226.83
376.06	226.75
376.44	226.72
376.82	226.65
377.19	226.56
377.57	226.46
377.95	226.32
378.33	226.21
378.71	226.10
379.09	226.03
379.47	225.99
379.84	225.91
380.22	225.80
380.60	225.74
380.98	225.66
381.36	225.58
381.73	225.47
382.11	225.43
382.49	225.38
382.87	225.27
383.25	225.20
383.62	225.23
384.00	225.18
384.38	225.17
384.76	225.14
385.13	225.16
385.51	225.12
385.89	225.08
386.27	225.07
386.64	225.10
387.02	225.07
387.40	225.03
387.78	225.00
388.15	225.00
388.53	224.97
388.91	224.95
389.29	224.93
389.66	224.95
390.04	224.92
390.42	224.90
390.79	224.92
391.17	224.90
391.55	224.79
391.92	224.77
392.30	224.73
392.68	224.70
393.05	224.64
393.43	224.63
393.81	224.64
394.18	224.62
394.56	224.57
394.94	224.61
395.31	224.59
395.69	224.63
396.06	224.67
396.44	224.70
396.82	224.71
397.19	224.78
397.57	224.78
397.95	224.83
398.32	224.84
398.70	224.88
399.07	224.96
399.45	225.03
399.82	225.09
400.20	225.14
400.58	225.22
400.95	225.27
401.33	225.38
401.70	225.51
402.08	225.61
402.45	225.70
402.83	225.82
403.20	225.94
403.58	226.02
403.95	226.12
404.33	226.23
404.71	226.34
405.08	226.52
405.46	226.68
405.83	226.80
406.21	226.92
406.58	227.08
406.96	227.24
407.33	227.38
407.70	227.57
408.08	227.86
408.45	228.07
408.83	228.31
409.20	228.54
409.58	228.74
409.95	228.96
410.33	229.23
410.70	229.46
411.08	229.71
411.45	230.02
411.82	230.31
412.20	230.67
412.57	231.11
412.95	231.41
413.32	231.79
413.69	232.24
414.07	232.71
414.44	233.20
414.82	233.68
415.19	234.26
415.56	234.82
415.94	235.39
416.31	236.06
416.68	236.69
417.06	237.41
417.43	238.09
417.81	238.91
418.18	239.71
418.55	240.57
418.93	241.49
419.30	242.42
419.67	243.41
420.04	244.41
420.42	245.39
420.79	246.63
421.16	247.84
421.54	249.06
421.91	250.34
422.28	251.65
422.66	253.01
423.03	254.36
423.40	255.75
423.77	257.20
424.15	258.67
424.52	260.23
424.89	261.90
425.26	263.55
425.64	265.03
426.01	266.69
426.38	268.44
426.75	270.18
427.13	272.02
427.50	273.88
427.87	275.85
428.24	277.82
428.61	279.57
428.99	281.60
429.36	283.79
429.73	285.91
430.10	287.99
430.47	290.17
430.85	292.36
431.22	294.68
431.59	297.15
431.96	299.52
432.33	302.08
432.70	304.52
433.08	307.38
433.45	310.12
433.82	312.86
434.19	315.86
434.56	318.80
434.93	321.52
435.30	324.27
435.68	327.28
436.05	330.23
436.42	333.22
436.79	335.83
437.16	338.62
437.53	341.62
437.90	344.55
438.27	347.41
438.64	350.35
439.01	353.04
439.38	355.40
439.75	357.60
440.13	360.16
440.50	362.61
440.87	364.59
441.24	366.65
441.61	368.86
441.98	370.43
442.35	372.31
442.72	374.27
443.09	376.19
443.46	377.23
443.83	377.84
444.20	378.31
444.57	379.21
444.94	379.57
445.31	379.89
445.68	380.27
446.05	380.40
446.42	380.04
446.79	379.67
447.16	379.21
447.53	378.93
447.90	377.79
448.27	376.59
448.64	374.96
449.01	373.75
449.37	371.74
449.74	369.79
450.11	367.46
450.48	364.87
450.85	362.23
451.22	359.99
451.59	357.89
451.96	355.91
452.33	353.19
452.70	350.73
453.07	347.83
453.43	344.86
453.80	341.94
454.17	339.14
454.54	336.46
454.91	333.60
455.28	330.79
455.65	328.23
456.02	325.74
456.38	323.53
456.75	320.80
457.12	318.46
457.49	316.13
457.86	313.86
458.23	311.95
458.59	309.79
458.96	307.61
459.33	305.67
459.70	303.71
460.07	302.15
460.43	300.35
460.80	298.60
461.17	297.09
461.54	295.52
461.91	294.04
462.27	292.49
462.64	291.20
463.01	289.78
463.38	288.42
463.74	287.00
464.11	285.74
464.48	284.64
464.85	283.51
465.21	282.60
465.58	281.68
465.95	280.53
466.32	279.62
466.68	278.68
467.05	277.77
467.42	276.88
467.78	275.87
468.15	274.96
468.52	274.29
468.88	273.38
469.25	272.60
469.62	271.96
469.98	271.30
470.35	270.67
470.72	270.08
471.08	269.42
471.45	268.83
471.82	268.25
472.18	267.64
472.55	267.19
472.92	266.63
473.28	266.13
473.65	265.65
474.02	265.19
474.38	264.82
474.75	264.49
475.11	264.12
475.48	263.90
475.85	263.66
476.21	263.43
476.58	263.25
476.94	263.11
477.31	262.93
477.67	262.77
478.04	262.66
478.41	262.58
478.77	262.60
479.14	262.55
479.50	262.59
479.87	262.67
480.23	262.71
480.60	262.80
480.96	262.90
481.33	263.09
481.69	263.29
482.06	263.51
482.42	263.72
482.79	263.97
483.15	264.31
483.52	264.70
483.88	265.01
484.25	265.40
484.61	265.80
484.98	266.29
485.34	266.90
485.71	267.48
486.07	268.08
486.44	268.63
486.80	269.31
487.17	270.02
487.53	270.84
487.90	271.71
488.26	272.62
488.62	273.59
488.99	274.60
489.35	275.62
489.72	276.72
490.08	277.91
490.44	279.14
490.81	280.46
491.17	281.79
491.54	283.33
491.90	284.84
492.26	286.46
492.63	288.16
492.99	289.86
493.36	291.74
493.72	293.75
494.08	295.85
494.45	298.12
494.81	300.45
495.17	302.87
495.54	305.42
495.90	308.09
496.26	310.90
496.63	313.84
496.99	316.91
497.35	320.13
497.72	323.53
498.08	327.00
498.44	330.62
498.80	334.54
499.17	338.56
499.53	342.70
499.89	347.10
500.26	351.58
500.62	356.24
500.98	361.13
501.34	366.19
501.71	371.45
502.07	376.80
502.43	382.36
502.79	388.11
503.16	394.10
503.52	400.26
503.88	406.57
504.24	413.07
504.60	419.86
504.97	426.97
505.33	434.14
505.69	441.76
506.05	449.42
506.41	457.15
506.78	465.18
507.14	473.50
507.50	482.03
507.86	490.89
508.22	499.91
508.59	508.99
508.95	518.36
509.31	527.98
509.67	537.88
510.03	547.98
510.39	558.39
510.75	568.96
511.12	579.71
511.48	590.75
511.84	601.96
512.20	613.26
512.56	624.85
512.92	636.78
513.28	648.79
513.64	660.97
514.00	673.39
514.37	685.94
514.73	698.60
515.09	711.33
515.45	724.36
515.81	737.61
516.17	751.17
516.53	764.97
516.89	778.79
517.25	792.59
517.61	806.59
517.97	820.64
518.33	834.69
518.69	849.07
519.05	863.62
519.41	878.41
519.77	893.50
520.13	908.58
520.49	923.57
520.85	938.57
521.21	953.73
521.57	969.54
521.93	984.92
522.29	1000.79
522.65	1016.64
523.01	1032.34
523.37	1047.89
523.73	1063.65
524.09	1079.30
524.45	1095.06
524.81	1111.30
525.17	1127.60
525.53	1144.01
525.89	1160.39
526.25	1176.81
526.61	1192.71
526.97	1208.99
527.33	1225.08
527.68	1241.20
528.04	1257.22
528.40	1273.36
528.76	1290.06
529.12	1306.06
529.48	1322.52
529.84	1338.29
530.20	1354.41
530.56	1370.85
530.91	1387.82
531.27	1404.32
531.63	1420.32
531.99	1436.65
532.35	1452.29
532.71	1467.83
533.07	1483.67
533.42	1499.34
533.78	1515.02
534.14	1531.02
534.50	1546.03
534.86	1561.42
535.21	1576.30
535.57	1591.93
535.93	1607.17
536.29	1621.56
536.65	1636.37
537.00	1650.83
537.36	1665.85
537.72	1680.07
538.08	1694.33
538.44	1707.96
538.79	1721.53
539.15	1735.04
539.51	1748.50
539.87	1762.65
540.22	1776.07
540.58	1789.62
540.94	1802.56
541.29	1815.17
541.65	1827.75
542.01	1840.77
542.37	1853.11
542.72	1865.33
543.08	1876.94
543.44	1889.16
543.79	1900.47
544.15	1911.36
544.51	1922.94
544.87	1933.68
545.22	1944.62
545.58	1954.94
545.94	1964.76
546.29	1974.58
546.65	1984.56
547.01	1993.91
547.36	2002.62
547.72	2011.26
548.07	2019.37
548.43	2027.68
548.79	2035.75
549.14	2043.40
549.50	2050.88
549.86	2058.52
550.21	2066.08
550.57	2073.46
550.92	2080.28
551.28	2087.64
551.64	2094.98
551.99	2101.64
552.35	2108.09
552.70	2114.37
553.06	2120.57
553.41	2127.13
553.77	2133.32
554.13	2139.43
554.48	2145.78
554.84	2151.61
555.19	2157.19
555.55	2162.56
555.90	2167.48
556.26	2172.88
556.61	2177.92
556.97	2182.58
557.32	2187.15
557.68	2191.65
558.03	2196.16
558.39	2200.09
558.74	2205.00
559.10	2209.21
559.45	2213.29
559.81	2217.84
560.16	2222.06
560.52	2225.55
560.87	2229.25
561.23	2232.28
561.58	2235.38
561.94	2238.30
562.29	2240.75
562.64	2243.84
563.00	2246.64
563.35	2250.43
563.71	2253.90
564.06	2257.32
564.42	2260.74
564.77	2263.70
565.12	2266.40
565.48	2268.84
565.83	2271.17
566.19	2272.94
566.54	2274.17
566.89	2275.77
567.25	2277.05
567.60	2278.61
567.96	2280.80
568.31	2282.18
568.66	2283.81
569.02	2285.07
569.37	2285.70
569.72	2287.28
570.08	2288.06
570.43	2288.63
570.78	2288.54
571.14	2287.33
571.49	2286.38
571.84	2286.22
572.20	2285.55
572.55	2284.85
572.90	2283.63
573.26	2282.72
573.61	2281.20
573.96	2279.97
574.31	2277.35
574.67	2274.72
575.02	2271.46
575.37	2268.37
575.72	2264.94
576.08	2261.85
576.43	2258.79
576.78	2255.61
577.13	2252.72
577.49	2249.64
577.84	2246.54
578.19	2243.07
578.54	2239.94
578.90	2236.18
579.25	2231.05
579.60	2226.45
579.95	2221.74
580.30	2217.08
580.66	2212.34
581.01	2207.76
581.36	2203.16
581.71	2199.42
582.06	2195.37
582.42	2191.36
582.77	2186.56
583.12	2182.31
583.47	2178.07
583.82	2173.54
584.17	2168.60
584.53	2163.23
584.88	2157.99
585.23	2152.73
585.58	2147.46
585.93	2142.10
586.28	2137.54
586.63	2132.91
586.98	2128.10
587.34	2123.67
587.69	2119.03
588.04	2114.11
588.39	2108.65
588.74	2102.28
589.09	2096.20
589.44	2089.63
589.79	2083.59
590.14	2078.10
590.49	2071.67
590.84	2065.31
591.19	2059.54
591.54	2053.35
591.89	2046.37
592.25	2039.91
592.60	2032.80
592.95	2025.54
593.30	2018.51
593.65	2011.06
594.00	2003.99
594.35	1996.84
594.70	1988.85
595.05	1982.00
595.40	1974.66
595.75	1967.27
596.10	1961.39
596.45	1954.88
596.80	1948.84
597.15	1942.54
597.50	1935.84
597.85	1929.45
598.19	1923.03
598.54	1916.14
598.89	1909.52
599.24	1903.71
599.59	1897.27
599.94	1891.01
600.29	1884.76
600.64	1878.24
600.99	1871.00
601.34	1864.40
601.69	1857.39
602.04	1850.77
602.39	1843.33
602.74	1836.65
603.08	1830.10
603.43	1823.34
603.78	1816.17
604.13	1808.98
604.48	1801.87
604.83	1795.01
605.18	1788.32
605.53	1780.56
605.87	1772.50
606.22	1765.30
606.57	1757.30
606.92	1749.81
607.27	1742.69
607.62	1735.88
607.96	1728.65
608.31	1722.27
608.66	1714.65
609.01	1707.34
609.36	1699.85
609.70	1691.92
610.05	1683.84
610.40	1676.18
610.75	1668.03
611.10	1660.33
611.44	1651.75
611.79	1643.53
612.14	1634.74
612.49	1625.38
612.83	1616.75
613.18	1608.48
613.53	1600.49
613.88	1592.00
614.22	1583.61
614.57	1574.96
614.92	1566.82
615.27	1559.31
615.61	1550.83
615.96	1542.78
616.31	1534.97
616.65	1527.55
617.00	1519.81
617.35	1512.09
617.70	1503.64
618.04	1494.95
618.39	1486.50
618.74	1479.00
619.08	1470.67
619.43	1462.91
619.78	1455.82
620.12	1448.78
620.47	1441.23
620.82	1432.80
621.16	1425.27
621.51	1417.54
621.85	1409.78
622.20	1401.29
622.55	1392.77
622.89	1384.70
623.24	1376.83
623.59	1369.24
623.93	1361.57
624.28	1354.25
624.62	1346.69
624.97	1339.43
625.32	1332.54
625.66	1325.44
626.01	1318.22
626.35	1310.92
626.70	1303.15
627.04	1295.52
627.39	1287.50
627.73	1279.95
628.08	1273.07
628.43	1265.80
628.77	1258.52
629.12	1250.97
629.46	1243.64
629.81	1236.01
630.15	1228.81
630.50	1221.39
630.84	1213.25
631.19	1205.14
631.53	1197.50
631.88	1189.80
632.22	1182.14
632.57	1174.65
632.91	1167.05
633.26	1159.42
633.60	1151.83
633.95	1144.51
634.29	1137.30
634.64	1130.49
634.98	1123.09
635.32	1115.77
635.67	1108.99
636.01	1102.19
636.36	1095.34
636.70	1088.73
637.05	1082.16
637.39	1075.57
637.73	1069.02
638.08	1062.99
638.42	1057.02
638.77	1050.53
639.11	1043.97
639.45	1037.53
639.80	1030.97
640.14	1024.61
640.49	1018.10
640.83	1011.63
641.17	1005.49
641.52	999.17
641.86	992.66
642.20	986.76
642.55	980.28
642.89	973.80
643.23	967.08
643.58	961.25
643.92	954.99
644.26	948.98
644.61	942.84
644.95	936.84
645.29	930.29
645.64	923.50
645.98	917.17
646.32	911.10
646.66	905.08
647.01	899.21
647.35	893.46
647.69	887.55
648.04	882.07
648.38	876.23
648.72	870.28
649.06	864.22
649.41	858.30
649.75	852.49
650.09	846.55
650.43	840.86
650.78	834.67
651.12	828.71
651.46	822.91
651.80	817.23
652.14	811.75
652.49	806.34
652.83	801.09
653.17	795.46
653.51	789.84
653.85	784.39
654.20	778.81
654.54	772.74
654.88	766.93
655.22	761.02
655.56	755.24
655.90	749.70
656.25	744.48
656.59	739.12
656.93	734.05
657.27	728.90
657.61	723.49
657.95	718.36
658.29	713.21
658.64	707.85
658.98	702.46
659.32	697.01
659.66	691.86
660.00	686.55
660.34	681.52
660.68	676.54
661.02	671.45
661.36	666.65
661.70	662.10
662.05	657.68
662.39	653.38
662.73	648.89
663.07	644.46
663.41	639.95
663.75	635.46
664.09	630.79
664.43	626.34
664.77	622.23
665.11	618.02
665.45	613.87
665.79	609.87
666.13	605.80
666.47	601.63
666.81	597.41
667.15	593.32
667.49	589.33
667.83	585.41
668.17	581.49
668.51	577.40
668.85	573.39
669.19	569.54
669.53	565.63
669.87	561.83
670.21	558.15
670.55	554.50
670.89	551.02
671.23	547.53
671.57	543.92
671.91	540.35
672.25	536.69
672.58	533.17
672.92	529.69
673.26	526.43
673.60	523.26
673.94	520.19
674.28	517.18
674.62	514.27
674.96	511.25
675.30	508.34
675.64	505.38
675.97	502.54
676.31	499.67
676.65	496.72
676.99	493.94
677.33	491.04
677.67	488.23
678.01	485.16
678.34	482.23
678.68	479.32
679.02	476.47
679.36	473.71
679.70	470.98
680.04	468.22
680.37	465.39
680.71	462.58
681.05	459.86
681.39	457.17
681.73	454.51
682.06	451.97
682.40	449.38
682.74	446.87
683.08	444.29
683.42	441.66
683.75	439.20
684.09	436.56
684.43	434.07
684.77	431.55
685.10	429.20
685.44	426.82
685.78	424.56
686.12	422.25
686.45	419.96
686.79	417.65
687.13	415.39
687.46	413.18
687.80	410.92
688.14	408.65
688.48	406.58
688.81	404.32
689.15	402.09
689.49	399.92
689.82	397.77
690.16	395.66
690.50	393.65
690.83	391.66
691.17	389.69
691.51	387.70
691.84	385.84
692.18	383.94
692.52	381.99
692.85	379.94
693.19	378.05
693.52	376.17
693.86	374.29
694.20	372.49
694.53	370.72
694.87	368.89
695.21	367.08
695.54	365.16
695.88	363.38
696.21	361.68
696.55	360.03
696.88	358.35
697.22	356.66
697.56	355.02
697.89	353.37
698.23	351.79
698.56	350.17
698.90	348.54
699.23	346.84
699.57	345.24
699.90	343.74
700.24	342.17
700.58	340.65
700.91	339.18
701.25	337.70
701.58	336.24
701.92	334.89
702.25	333.51
702.59	332.16
702.92	330.82
703.26	329.43
703.59	328.10
703.93	326.87
704.26	325.60
704.60	324.31
704.93	322.99
705.26	321.71
705.60	320.54
705.93	319.36
706.27	318.32
706.60	317.25
706.94	316.14
707.27	314.98
707.61	313.82
707.94	312.74
708.27	311.64
708.61	310.57
708.94	309.49
709.28	308.50
709.61	307.55
709.94	306.56
710.28	305.54
710.61	304.55
710.95	303.43
711.28	302.50
711.61	301.52
711.95	300.61
712.28	299.64
712.61	298.61
712.95	297.62
713.28	296.66
713.61	295.78
713.95	294.88
714.28	294.03
714.61	293.21
714.95	292.33
715.28	291.49
715.61	290.53
715.95	289.74
716.28	288.85
716.61	287.96
716.95	287.10
717.28	286.36
717.61	285.57
717.94	284.85
718.28	283.99
718.61	283.25
718.94	282.50
719.27	281.84
719.61	281.19
719.94	280.54
720.27	279.84
720.60	279.13
720.94	278.47
721.27	277.83
721.60	277.22
721.93	276.61
722.27	276.02
722.60	275.49
722.93	274.89
723.26	274.37
723.59	273.79
723.93	273.22
724.26	272.61
724.59	272.03
724.92	271.46
725.25	271.02
725.59	270.47
725.92	269.97
726.25	269.40
726.58	268.86
726.91	268.37
727.24	267.90
727.57	267.43
727.91	266.90
728.24	266.43
728.57	265.93
728.90	265.46
729.23	264.98
729.56	264.55
729.89	264.04
730.22	263.51
730.55	263.03
730.89	262.63
731.22	262.20
731.55	261.80
731.88	261.38
732.21	260.87
732.54	260.45
732.87	259.99
733.20	259.61
733.53	259.27
733.86	258.88
734.19	258.45
734.52	258.05
734.85	257.77
735.18	257.39
735.51	257.04
735.84	256.67
736.17	256.31
736.50	255.89
736.83	255.64
737.16	255.33
737.49	255.04
737.82	254.65
738.15	254.30
738.48	253.90
738.81	253.56
739.14	253.29
739.47	252.98
739.80	252.69
740.13	252.38
740.46	252.06
740.79	251.74
741.12	251.42
741.45	251.13
741.78	250.73
742.11	250.43
742.44	250.05
742.77	249.77
743.10	249.46
743.43	249.17
743.75	248.79
744.08	248.66
744.41	248.37
744.74	248.11
745.07	247.82
745.40	247.59
745.73	247.38
746.06	247.05
746.39	246.79
746.71	246.51
747.04	246.23
747.37	245.95
747.70	245.66
748.03	245.44
748.36	245.22
748.68	245.01
749.01	244.76
749.34	244.58
749.67	244.32
750.00	244.10
750.33	243.96
750.65	243.76
750.98	243.38
751.31	243.16
751.64	242.94
751.97	242.77
752.29	242.58
752.62	242.27
752.95	242.10
753.28	241.87
753.60	241.65
753.93	241.45
754.26	241.25
754.59	241.03
754.91	240.78
755.24	240.57
755.57	240.38
755.90	240.15
756.22	239.92
756.55	239.73
756.88	239.49
757.20	239.19
757.53	238.95
757.86	238.76
758.19	238.60
758.51	238.44
758.84	238.27
759.17	238.02
759.49	237.86
759.82	237.74
760.15	237.59
760.47	237.43
760.80	237.22
761.13	237.11
761.45	236.97
761.78	236.81
762.11	236.64
762.43	236.46
762.76	236.33
763.08	236.21
763.41	236.05
763.74	235.95
764.06	235.83
764.39	235.71
764.71	235.55
765.04	235.37
765.37	235.24
765.69	235.07
766.02	234.96
766.34	234.85
766.67	234.67
767.00	234.56
767.32	234.53
767.65	234.53
767.97	234.36
768.30	234.23
768.62	234.13
768.95	234.02
769.27	233.92
769.60	233.84
769.92	233.72
770.25	233.64
770.57	233.51
770.90	233.38
771.22	233.29
771.55	233.20
771.87	233.14
772.20	233.01
772.52	233.02
772.85	233.05
773.17	232.98
773.50	232.86
773.82	232.76
774.15	232.63
774.47	232.47
774.80	232.41
775.12	232.31
775.45	232.24
775.77	232.18
776.09	232.15
776.42	232.09
776.74	232.04
777.07	231.93
777.39	231.90
777.72	231.85
778.04	231.79
778.36	231.73
778.69	231.65
779.01	231.58
779.33	231.43
779.66	231.26
779.98	231.17
780.31	231.16
780.63	231.15
780.95	231.08
781.28	231.03
781.60	230.98
781.92	230.94
782.25	230.87
782.57	230.83
782.89	230.75
783.22	230.67
783.54	230.59
783.86	230.57
784.19	230.49
784.51	230.44
784.83	230.39
785.16	230.34
785.48	230.29
785.80	230.25
786.12	230.22
786.45	230.18
786.77	230.13
787.09	230.07
