SpectraSuite Data File
++++++++++++++++++++++++++++++++++++
Date: Fri Feb 01 16:37:42 EST 2013
User: group
Dark Spectrum Present: No
Reference Spectrum Present: No
Number of Sampled Component Spectra: 1
Spectrometers: USB2E7196
Integration Time (usec): 35000 (USB2E7196)
Spectra Averaged: 100 (USB2E7196)
Boxcar Smoothing: 10 (USB2E7196)
Correct for Electrical Dark: No (USB2E7196)
Strobe/Lamp Enabled: No (USB2E7196)
Correct for Detector Non-linearity: No (USB2E7196)
Correct for Stray Light: No (USB2E7196)
Number of Pixels in Processed Spectrum: 2048
>>>>>Begin Processed Spectral Data<<<<<
339.09	0.00
339.48	213.41
339.86	215.00
340.24	216.21
340.63	217.83
341.01	220.54
341.39	220.82
341.78	221.45
342.16	223.27
342.54	223.34
342.93	212.06
343.31	222.78
343.69	223.35
344.07	223.81
344.46	224.27
344.84	224.65
345.22	224.88
345.60	225.13
345.99	225.34
346.37	225.49
346.75	225.61
347.13	225.70
347.52	225.75
347.90	225.87
348.28	225.91
348.66	225.96
349.05	225.94
349.43	225.95
349.81	226.00
350.19	226.06
350.57	226.15
350.96	226.21
351.34	226.31
351.72	226.40
352.10	226.54
352.48	226.61
352.87	226.67
353.25	226.79
353.63	226.84
354.01	226.96
354.39	227.02
354.77	227.09
355.15	227.20
355.54	227.25
355.92	227.29
356.30	227.35
356.68	227.47
357.06	227.56
357.44	227.66
357.82	227.71
358.20	227.75
358.58	227.80
358.97	227.89
359.35	227.94
359.73	228.01
360.11	228.04
360.49	228.06
360.87	228.11
361.25	228.15
361.63	228.21
362.01	228.23
362.39	228.24
362.77	228.31
363.15	228.32
363.53	228.37
363.91	228.39
364.29	228.39
364.67	228.26
365.05	228.27
365.43	228.25
365.81	228.29
366.19	228.33
366.57	228.33
366.95	228.29
367.33	228.28
367.71	228.24
368.09	228.24
368.47	228.25
368.85	228.22
369.23	228.22
369.61	228.16
369.99	228.16
370.37	228.14
370.75	228.12
371.13	228.04
371.51	227.96
371.89	227.91
372.27	227.87
372.65	227.84
373.03	227.80
373.41	227.78
373.78	227.72
374.16	227.61
374.54	227.52
374.92	227.48
375.30	227.40
375.68	227.32
376.06	227.27
376.44	227.17
376.82	227.09
377.19	227.02
377.57	226.95
377.95	226.83
378.33	226.74
378.71	226.63
379.09	226.57
379.47	226.49
379.84	226.42
380.22	226.34
380.60	226.28
380.98	226.20
381.36	226.11
381.73	226.01
382.11	225.99
382.49	225.97
382.87	225.89
383.25	225.85
383.62	225.89
384.00	225.82
384.38	225.79
384.76	225.80
385.13	225.79
385.51	225.74
385.89	225.72
386.27	225.69
386.64	225.66
387.02	225.66
387.40	225.65
387.78	225.60
388.15	225.57
388.53	225.54
388.91	225.52
389.29	225.48
389.66	225.48
390.04	225.47
390.42	225.47
390.79	225.49
391.17	225.47
391.55	225.35
391.92	225.32
392.30	225.33
392.68	225.30
393.05	225.28
393.43	225.28
393.81	225.28
394.18	225.28
394.56	225.31
394.94	225.30
395.31	225.33
395.69	225.38
396.06	225.42
396.44	225.46
396.82	225.47
397.19	225.58
397.57	225.59
397.95	225.62
398.32	225.61
398.70	225.65
399.07	225.74
399.45	225.82
399.82	225.89
400.20	225.93
400.58	225.97
400.95	225.99
401.33	226.06
401.70	226.20
402.08	226.30
402.45	226.34
402.83	226.49
403.20	226.57
403.58	226.65
403.95	226.75
404.33	226.91
404.71	227.06
405.08	227.21
405.46	227.33
405.83	227.45
406.21	227.59
406.58	227.74
406.96	227.86
407.33	228.03
407.70	228.24
408.08	228.49
408.45	228.75
408.83	228.98
409.20	229.21
409.58	229.37
409.95	229.61
410.33	229.90
410.70	230.12
411.08	230.43
411.45	230.75
411.82	231.07
412.20	231.43
412.57	231.85
412.95	232.11
413.32	232.56
413.69	232.96
414.07	233.42
414.44	233.88
414.82	234.35
415.19	234.87
415.56	235.38
415.94	235.94
416.31	236.56
416.68	237.20
417.06	237.91
417.43	238.60
417.81	239.36
418.18	240.14
418.55	240.95
418.93	241.76
419.30	242.64
419.67	243.59
420.04	244.50
420.42	245.46
420.79	246.67
421.16	247.77
421.54	249.00
421.91	250.19
422.28	251.43
422.66	252.75
423.03	254.04
423.40	255.37
423.77	256.78
424.15	258.18
424.52	259.63
424.89	261.20
425.26	262.73
425.64	264.18
426.01	265.75
426.38	267.43
426.75	269.14
427.13	270.87
427.50	272.65
427.87	274.55
428.24	276.37
428.61	278.08
428.99	280.02
429.36	282.07
429.73	284.14
430.10	286.17
430.47	288.25
430.85	290.38
431.22	292.62
431.59	294.99
431.96	297.26
432.33	299.76
432.70	302.17
433.08	304.95
433.45	307.59
433.82	310.21
434.19	313.09
434.56	315.88
434.93	318.49
435.30	321.04
435.68	323.90
436.05	326.76
436.42	329.53
436.79	332.03
437.16	334.75
437.53	337.51
437.90	340.25
438.27	342.94
438.64	345.74
439.01	348.25
439.38	350.42
439.75	352.54
440.13	354.98
440.50	357.29
440.87	359.13
441.24	361.05
441.61	363.19
441.98	364.66
442.35	366.50
442.72	368.39
443.09	370.24
443.46	371.18
443.83	371.74
444.20	372.30
444.57	373.17
444.94	373.41
445.31	373.77
445.68	374.16
446.05	374.28
446.42	373.95
446.79	373.60
447.16	373.17
447.53	372.82
447.90	371.67
448.27	370.48
448.64	368.96
449.01	367.80
449.37	365.83
449.74	363.91
450.11	361.63
450.48	359.11
450.85	356.56
451.22	354.44
451.59	352.44
451.96	350.48
452.33	347.87
452.70	345.54
453.07	342.72
453.43	339.85
453.80	337.08
454.17	334.38
454.54	331.84
454.91	329.16
455.28	326.51
455.65	324.06
456.02	321.67
456.38	319.50
456.75	316.85
457.12	314.62
457.49	312.42
457.86	310.28
458.23	308.49
458.59	306.47
458.96	304.40
459.33	302.60
459.70	300.78
460.07	299.29
460.43	297.61
460.80	296.02
461.17	294.59
461.54	293.12
461.91	291.71
462.27	290.29
462.64	289.03
463.01	287.73
463.38	286.44
463.74	285.07
464.11	283.93
464.48	282.93
464.85	281.82
465.21	281.01
465.58	280.06
465.95	278.95
466.32	278.07
466.68	277.20
467.05	276.26
467.42	275.36
467.78	274.44
468.15	273.57
468.52	272.93
468.88	272.07
469.25	271.30
469.62	270.70
469.98	270.03
470.35	269.41
470.72	268.83
471.08	268.20
471.45	267.66
471.82	267.12
472.18	266.54
472.55	266.14
472.92	265.63
473.28	265.21
473.65	264.79
474.02	264.38
474.38	263.99
474.75	263.73
475.11	263.40
475.48	263.17
475.85	262.92
476.21	262.68
476.58	262.54
476.94	262.38
477.31	262.17
477.67	262.03
478.04	261.89
478.41	261.80
478.77	261.84
479.14	261.82
479.50	261.82
479.87	261.94
480.23	261.98
480.60	262.04
480.96	262.10
481.33	262.33
481.69	262.53
482.06	262.73
482.42	262.90
482.79	263.20
483.15	263.48
483.52	263.88
483.88	264.22
484.25	264.59
484.61	265.01
484.98	265.49
485.34	266.07
485.71	266.67
486.07	267.27
486.44	267.82
486.80	268.52
487.17	269.25
487.53	270.03
487.90	270.87
488.26	271.84
488.62	272.83
488.99	273.77
489.35	274.82
489.72	276.00
490.08	277.23
490.44	278.43
490.81	279.77
491.17	281.14
491.54	282.65
491.90	284.17
492.26	285.85
492.63	287.61
492.99	289.35
493.36	291.26
493.72	293.36
494.08	295.46
494.45	297.70
494.81	300.11
495.17	302.55
495.54	305.14
495.90	307.83
496.26	310.62
496.63	313.60
496.99	316.70
497.35	319.95
497.72	323.29
498.08	326.80
498.44	330.49
498.80	334.40
499.17	338.46
499.53	342.68
499.89	347.09
500.26	351.61
500.62	356.36
500.98	361.35
501.34	366.47
501.71	371.82
502.07	377.28
502.43	382.87
502.79	388.73
503.16	394.79
503.52	401.10
503.88	407.54
504.24	414.19
504.60	421.08
504.97	428.24
505.33	435.59
505.69	443.32
506.05	451.13
506.41	459.00
506.78	467.13
507.14	475.55
507.50	484.29
507.86	493.29
508.22	502.44
508.59	511.67
508.95	521.25
509.31	531.09
509.67	541.23
510.03	551.53
510.39	562.08
510.75	572.85
511.12	583.71
511.48	595.06
511.84	606.46
512.20	617.96
512.56	629.85
512.92	642.02
513.28	654.41
513.64	666.82
514.00	679.54
514.37	692.47
514.73	705.48
515.09	718.41
515.45	731.72
515.81	745.26
516.17	759.17
516.53	773.26
516.89	787.37
517.25	801.45
517.61	815.79
517.97	830.20
518.33	844.62
518.69	859.37
519.05	874.17
519.41	889.25
519.77	904.75
520.13	920.19
520.49	935.50
520.85	950.73
521.21	966.39
521.57	982.49
521.93	998.09
522.29	1014.30
522.65	1030.45
523.01	1046.51
523.37	1062.49
523.73	1078.57
524.09	1094.50
524.45	1110.67
524.81	1127.13
525.17	1143.82
525.53	1160.57
525.89	1177.32
526.25	1194.04
526.61	1210.45
526.97	1227.19
527.33	1243.60
527.68	1260.04
528.04	1276.43
528.40	1292.86
528.76	1309.96
529.12	1326.36
529.48	1343.28
529.84	1359.33
530.20	1375.91
530.56	1392.69
530.91	1409.90
531.27	1426.51
531.63	1442.91
531.99	1459.46
532.35	1475.40
532.71	1491.12
533.07	1507.21
533.42	1523.07
533.78	1539.05
534.14	1555.10
534.50	1570.17
534.86	1585.81
535.21	1600.87
535.57	1616.68
535.93	1632.08
536.29	1646.51
536.65	1661.42
537.00	1675.85
537.36	1690.99
537.72	1705.20
538.08	1719.61
538.44	1733.28
538.79	1747.12
539.15	1760.61
539.51	1774.12
539.87	1788.34
540.22	1801.92
540.58	1815.47
540.94	1828.48
541.29	1840.99
541.65	1853.45
542.01	1866.52
542.37	1878.84
542.72	1890.97
543.08	1902.56
543.44	1914.80
543.79	1925.93
544.15	1936.94
544.51	1948.47
544.87	1959.28
545.22	1970.21
545.58	1980.30
545.94	1989.98
546.29	1999.72
546.65	2009.60
547.01	2018.89
547.36	2027.60
547.72	2036.09
548.07	2044.03
548.43	2052.15
548.79	2060.08
549.14	2067.71
549.50	2075.02
549.86	2082.59
550.21	2089.77
550.57	2097.00
550.92	2103.61
551.28	2110.65
551.64	2117.64
551.99	2124.16
552.35	2130.28
552.70	2136.42
553.06	2142.45
553.41	2148.82
553.77	2154.83
554.13	2160.69
554.48	2166.59
554.84	2172.08
555.19	2177.23
555.55	2182.48
555.90	2187.01
556.26	2192.16
556.61	2196.77
556.97	2201.25
557.32	2205.37
557.68	2209.69
558.03	2213.83
558.39	2217.43
558.74	2222.02
559.10	2225.92
559.45	2229.57
559.81	2233.79
560.16	2237.55
560.52	2240.73
560.87	2244.08
561.23	2246.63
561.58	2249.58
561.94	2252.22
562.29	2254.53
562.64	2257.42
563.00	2259.83
563.35	2263.34
563.71	2266.53
564.06	2269.69
564.42	2272.54
564.77	2275.14
565.12	2277.54
565.48	2279.66
565.83	2281.66
566.19	2283.23
566.54	2284.08
566.89	2285.41
567.25	2286.19
567.60	2287.48
567.96	2289.32
568.31	2290.17
568.66	2291.49
569.02	2292.21
569.37	2292.67
569.72	2293.52
570.08	2293.72
570.43	2293.82
570.78	2293.35
571.14	2291.68
571.49	2290.37
571.84	2289.92
572.20	2288.83
572.55	2287.76
572.90	2286.00
573.26	2284.59
573.61	2282.79
573.96	2281.22
574.31	2278.28
574.67	2275.45
575.02	2271.85
575.37	2268.36
575.72	2264.78
576.08	2261.32
576.43	2257.93
576.78	2254.32
577.13	2251.05
577.49	2247.80
577.84	2244.45
578.19	2240.70
578.54	2237.28
578.90	2233.26
579.25	2227.87
579.60	2223.06
579.95	2218.16
580.30	2213.26
580.66	2208.17
581.01	2203.20
581.36	2198.24
581.71	2194.14
582.06	2189.82
582.42	2185.63
582.77	2180.65
583.12	2176.05
583.47	2171.52
583.82	2166.73
584.17	2161.49
584.53	2156.17
584.88	2150.68
585.23	2145.12
585.58	2139.63
585.93	2134.15
586.28	2129.28
586.63	2124.28
586.98	2119.20
587.34	2114.57
587.69	2109.82
588.04	2104.84
588.39	2099.34
588.74	2092.97
589.09	2086.78
589.44	2080.00
589.79	2073.75
590.14	2067.97
590.49	2061.48
590.84	2055.11
591.19	2049.16
591.54	2042.74
591.89	2035.57
592.25	2028.87
592.60	2021.61
592.95	2014.20
593.30	2007.01
593.65	1999.50
594.00	1992.48
594.35	1985.28
594.70	1977.15
595.05	1970.18
595.40	1962.75
595.75	1955.33
596.10	1949.36
596.45	1942.77
596.80	1936.62
597.15	1930.26
597.50	1923.53
597.85	1917.10
598.19	1910.54
598.54	1903.70
598.89	1897.13
599.24	1891.24
599.59	1884.87
599.94	1878.68
600.29	1872.47
600.64	1865.73
600.99	1858.53
601.34	1851.88
601.69	1844.92
602.04	1838.23
602.39	1830.93
602.74	1824.37
603.08	1817.66
603.43	1810.78
603.78	1803.58
604.13	1796.36
604.48	1789.10
604.83	1782.07
605.18	1775.26
605.53	1767.30
605.87	1759.09
606.22	1751.99
606.57	1744.00
606.92	1736.48
607.27	1729.42
607.62	1722.58
607.96	1715.58
608.31	1709.11
608.66	1701.41
609.01	1693.99
609.36	1686.50
609.70	1678.37
610.05	1670.30
610.40	1662.68
610.75	1654.36
611.10	1646.69
611.44	1638.21
611.79	1630.25
612.14	1621.71
612.49	1612.55
612.83	1604.20
613.18	1596.09
613.53	1587.87
613.88	1579.38
614.22	1571.19
614.57	1562.54
614.92	1554.40
615.27	1546.90
615.61	1538.60
615.96	1530.60
616.31	1522.92
616.65	1515.53
617.00	1507.98
617.35	1500.12
617.70	1491.78
618.04	1483.47
618.39	1475.24
618.74	1467.80
619.08	1459.42
619.43	1451.75
619.78	1444.82
620.12	1437.65
620.47	1430.16
620.82	1422.06
621.16	1414.64
621.51	1406.96
621.85	1399.22
622.20	1390.82
622.55	1382.38
622.89	1374.48
623.24	1366.84
623.59	1359.36
623.93	1351.81
624.28	1344.63
624.62	1337.41
624.97	1330.26
625.32	1323.41
625.66	1316.35
626.01	1309.18
626.35	1301.94
626.70	1294.16
627.04	1286.57
627.39	1278.79
627.73	1271.41
628.08	1264.50
628.43	1257.33
628.77	1250.04
629.12	1242.55
629.46	1235.39
629.81	1227.96
630.15	1220.67
630.50	1213.33
630.84	1205.21
631.19	1197.24
631.53	1189.65
631.88	1181.96
632.22	1174.37
632.57	1166.99
632.91	1159.41
633.26	1151.98
633.60	1144.41
633.95	1137.25
634.29	1130.09
634.64	1123.40
634.98	1116.12
635.32	1108.96
635.67	1102.21
636.01	1095.55
636.36	1088.77
636.70	1082.12
637.05	1075.48
637.39	1069.09
637.73	1062.62
638.08	1056.78
638.42	1050.81
638.77	1044.47
639.11	1037.93
639.45	1031.50
639.80	1024.92
640.14	1018.63
640.49	1012.13
640.83	1005.93
641.17	999.78
641.52	993.49
641.86	986.95
642.20	981.07
642.55	974.65
642.89	968.31
643.23	961.67
643.58	956.06
643.92	949.94
644.26	944.03
644.61	937.95
644.95	931.97
645.29	925.43
645.64	918.75
645.98	912.31
646.32	906.37
646.66	900.37
647.01	894.53
647.35	888.86
647.69	883.02
648.04	877.47
648.38	871.71
648.72	865.76
649.06	859.76
649.41	853.84
649.75	848.08
650.09	842.09
650.43	836.41
650.78	830.19
651.12	824.19
651.46	818.44
651.80	812.68
652.14	807.22
652.49	801.81
652.83	796.64
653.17	791.05
653.51	785.33
653.85	779.88
654.20	774.25
654.54	768.21
654.88	762.36
655.22	756.44
655.56	750.67
655.90	745.14
656.25	739.99
656.59	734.61
656.93	729.43
657.27	724.30
657.61	718.77
657.95	713.65
658.29	708.65
658.64	703.31
658.98	698.01
659.32	692.51
659.66	687.33
660.00	682.08
660.34	677.13
660.68	672.29
661.02	667.23
661.36	662.55
661.70	658.03
662.05	653.76
662.39	649.41
662.73	645.01
663.07	640.68
663.41	636.17
663.75	631.72
664.09	627.17
664.43	622.76
664.77	618.77
665.11	614.56
665.45	610.37
665.79	606.37
666.13	602.24
666.47	598.18
666.81	594.03
667.15	589.93
667.49	585.93
667.83	582.02
668.17	578.08
668.51	574.06
668.85	570.03
669.19	566.13
669.53	562.39
669.87	558.57
670.21	554.85
670.55	551.23
670.89	547.73
671.23	544.26
671.57	540.70
671.91	537.20
672.25	533.66
672.58	530.17
672.92	526.72
673.26	523.51
673.60	520.38
673.94	517.25
674.28	514.29
674.62	511.42
674.96	508.37
675.30	505.49
675.64	502.57
675.97	499.80
676.31	496.91
676.65	493.93
676.99	491.22
677.33	488.36
677.67	485.55
678.01	482.56
678.34	479.65
678.68	476.80
679.02	473.96
679.36	471.21
679.70	468.45
680.04	465.65
680.37	462.84
680.71	460.02
681.05	457.37
681.39	454.66
681.73	451.96
682.06	449.42
682.40	446.90
682.74	444.30
683.08	441.68
683.42	439.08
683.75	436.56
684.09	433.93
684.43	431.43
684.77	428.95
685.10	426.57
685.44	424.22
685.78	421.91
686.12	419.55
686.45	417.24
686.79	414.95
687.13	412.83
687.46	410.65
687.80	408.45
688.14	406.20
688.48	404.15
688.81	401.96
689.15	399.77
689.49	397.55
689.82	395.53
690.16	393.47
690.50	391.53
690.83	389.63
691.17	387.67
691.51	385.77
691.84	383.95
692.18	382.03
692.52	380.12
692.85	378.16
693.19	376.34
693.52	374.47
693.86	372.65
694.20	370.81
694.53	369.05
694.87	367.22
695.21	365.42
695.54	363.57
695.88	361.81
696.21	360.14
696.55	358.47
696.88	356.71
697.22	355.01
697.56	353.36
697.89	351.69
698.23	350.12
698.56	348.50
698.90	346.96
699.23	345.36
699.57	343.80
699.90	342.32
700.24	340.76
700.58	339.26
700.91	337.79
701.25	336.36
701.58	334.98
701.92	333.66
702.25	332.32
702.59	330.94
702.92	329.64
703.26	328.36
703.59	327.10
703.93	325.99
704.26	324.76
704.60	323.52
704.93	322.27
705.26	321.04
705.60	319.84
705.93	318.66
706.27	317.60
706.60	316.55
706.94	315.43
707.27	314.33
707.61	313.27
707.94	312.21
708.27	311.14
708.61	310.02
708.94	309.02
709.28	308.05
709.61	307.09
709.94	306.14
710.28	305.10
710.61	304.12
710.95	303.01
711.28	302.09
711.61	301.14
711.95	300.23
712.28	299.25
712.61	298.29
712.95	297.36
713.28	296.46
713.61	295.56
713.95	294.70
714.28	293.84
714.61	292.99
714.95	292.19
715.28	291.31
715.61	290.42
715.95	289.54
716.28	288.69
716.61	287.87
716.95	287.01
717.28	286.26
717.61	285.49
717.94	284.73
718.28	283.97
718.61	283.21
718.94	282.51
719.27	281.87
719.61	281.23
719.94	280.54
720.27	279.82
720.60	279.14
720.94	278.50
721.27	277.87
721.60	277.24
721.93	276.63
722.27	276.07
722.60	275.53
722.93	274.98
723.26	274.41
723.59	273.84
723.93	273.30
724.26	272.73
724.59	272.17
724.92	271.63
725.25	271.11
725.59	270.56
725.92	270.00
726.25	269.46
726.58	268.94
726.91	268.46
727.24	267.97
727.57	267.49
727.91	266.95
728.24	266.51
728.57	266.06
728.90	265.60
729.23	265.10
729.56	264.71
729.89	264.20
730.22	263.71
730.55	263.24
730.89	262.81
731.22	262.36
731.55	261.93
731.88	261.52
732.21	261.10
732.54	260.67
732.87	260.27
733.20	259.89
733.53	259.48
733.86	259.06
734.19	258.67
734.52	258.26
734.85	257.96
735.18	257.55
735.51	257.15
735.84	256.78
736.17	256.42
736.50	255.97
736.83	255.74
737.16	255.43
737.49	255.09
737.82	254.75
738.15	254.41
738.48	254.03
738.81	253.71
739.14	253.39
739.47	253.10
739.80	252.82
740.13	252.50
740.46	252.17
740.79	251.88
741.12	251.58
741.45	251.30
741.78	250.99
742.11	250.76
742.44	250.46
742.77	250.14
743.10	249.87
743.43	249.57
743.75	249.16
744.08	248.98
744.41	248.71
744.74	248.45
745.07	248.18
745.40	247.98
745.73	247.76
746.06	247.47
746.39	247.23
746.71	246.96
747.04	246.71
747.37	246.48
747.70	246.22
748.03	245.99
748.36	245.77
748.68	245.49
749.01	245.20
749.34	244.99
749.67	244.80
750.00	244.59
750.33	244.49
750.65	244.31
750.98	243.98
751.31	243.78
751.64	243.60
751.97	243.44
752.29	243.20
752.62	242.97
752.95	242.83
753.28	242.61
753.60	242.41
753.93	242.23
754.26	242.05
754.59	241.83
754.91	241.62
755.24	241.41
755.57	241.24
755.90	241.06
756.22	240.86
756.55	240.66
756.88	240.46
757.20	240.19
757.53	240.01
757.86	239.85
758.19	239.71
758.51	239.53
758.84	239.29
759.17	239.12
759.49	238.96
759.82	238.81
760.15	238.62
760.47	238.44
760.80	238.29
761.13	238.16
761.45	238.04
761.78	237.88
762.11	237.74
762.43	237.59
762.76	237.47
763.08	237.34
763.41	237.15
763.74	237.03
764.06	236.89
764.39	236.73
764.71	236.58
765.04	236.43
765.37	236.29
765.69	236.18
766.02	236.05
766.34	235.90
766.67	235.73
767.00	235.64
767.32	235.57
767.65	235.48
767.97	235.35
768.30	235.25
768.62	235.15
768.95	235.03
769.27	234.92
769.60	234.80
769.92	234.67
770.25	234.57
770.57	234.45
770.90	234.35
771.22	234.27
771.55	234.16
771.87	234.04
772.20	233.94
772.52	233.93
772.85	233.97
773.17	233.91
773.50	233.77
773.82	233.66
774.15	233.51
774.47	233.37
774.80	233.27
775.12	233.15
775.45	233.07
775.77	232.97
776.09	232.88
776.42	232.78
776.74	232.74
777.07	232.66
777.39	232.57
777.72	232.50
778.04	232.40
778.36	232.33
778.69	232.25
779.01	232.20
779.33	232.03
779.66	231.83
779.98	231.73
780.31	231.73
780.63	231.74
780.95	231.72
781.28	231.67
781.60	231.59
781.92	231.51
782.25	231.45
782.57	231.39
782.89	231.34
783.22	231.30
783.54	231.22
783.86	231.17
784.19	231.10
784.51	231.07
784.83	231.05
785.16	231.00
785.48	230.98
785.80	230.90
786.12	230.87
786.45	230.88
786.77	230.86
787.09	230.76
