SpectraSuite Data File
++++++++++++++++++++++++++++++++++++
Date: Fri Feb 01 15:51:36 EST 2013
User: group
Dark Spectrum Present: No
Reference Spectrum Present: No
Number of Sampled Component Spectra: 1
Spectrometers: USB2E7196
Integration Time (usec): 35000 (USB2E7196)
Spectra Averaged: 100 (USB2E7196)
Boxcar Smoothing: 10 (USB2E7196)
Correct for Electrical Dark: No (USB2E7196)
Strobe/Lamp Enabled: No (USB2E7196)
Correct for Detector Non-linearity: No (USB2E7196)
Correct for Stray Light: No (USB2E7196)
Number of Pixels in Processed Spectrum: 2048
>>>>>Begin Processed Spectral Data<<<<<
339.09	0.00
339.48	214.95
339.86	216.24
340.24	216.95
340.63	218.57
341.01	221.91
341.39	221.70
341.78	222.99
342.16	224.36
342.54	224.51
342.93	212.98
343.31	223.74
343.69	224.28
344.07	224.74
344.46	225.18
344.84	225.57
345.22	225.79
345.60	226.04
345.99	226.21
346.37	226.32
346.75	226.43
347.13	226.49
347.52	226.57
347.90	226.62
348.28	226.67
348.66	226.73
349.05	226.74
349.43	226.78
349.81	226.83
350.19	226.86
350.57	226.89
350.96	226.94
351.34	227.01
351.72	227.06
352.10	227.15
352.48	227.24
352.87	227.28
353.25	227.36
353.63	227.43
354.01	227.51
354.39	227.59
354.77	227.68
355.15	227.82
355.54	227.86
355.92	227.94
356.30	228.04
356.68	228.19
357.06	228.26
357.44	228.33
357.82	228.39
358.20	228.50
358.58	228.62
358.97	228.70
359.35	228.78
359.73	228.88
360.11	228.92
360.49	228.96
360.87	229.05
361.25	229.11
361.63	229.20
362.01	229.25
362.39	229.29
362.77	229.32
363.15	229.33
363.53	229.38
363.91	229.40
364.29	229.40
364.67	229.31
365.05	229.34
365.43	229.37
365.81	229.40
366.19	229.42
366.57	229.44
366.95	229.45
367.33	229.46
367.71	229.47
368.09	229.53
368.47	229.54
368.85	229.52
369.23	229.52
369.61	229.47
369.99	229.47
370.37	229.47
370.75	229.48
371.13	229.42
371.51	229.37
371.89	229.36
372.27	229.33
372.65	229.32
373.03	229.25
373.41	229.19
373.78	229.11
374.16	228.99
374.54	228.92
374.92	228.85
375.30	228.80
375.68	228.71
376.06	228.61
376.44	228.53
376.82	228.43
377.19	228.34
377.57	228.25
377.95	228.14
378.33	228.04
378.71	227.95
379.09	227.90
379.47	227.85
379.84	227.73
380.22	227.64
380.60	227.53
380.98	227.48
381.36	227.38
381.73	227.32
382.11	227.25
382.49	227.14
382.87	227.03
383.25	226.95
383.62	226.99
384.00	226.92
384.38	226.86
384.76	226.86
385.13	226.83
385.51	226.76
385.89	226.72
386.27	226.68
386.64	226.62
387.02	226.54
387.40	226.48
387.78	226.43
388.15	226.39
388.53	226.37
388.91	226.32
389.29	226.31
389.66	226.32
390.04	226.29
390.42	226.29
390.79	226.31
391.17	226.31
391.55	226.18
391.92	226.14
392.30	226.14
392.68	226.11
393.05	226.10
393.43	226.12
393.81	226.11
394.18	226.10
394.56	226.14
394.94	226.17
395.31	226.17
395.69	226.24
396.06	226.27
396.44	226.30
396.82	226.34
397.19	226.40
397.57	226.42
397.95	226.48
398.32	226.50
398.70	226.57
399.07	226.61
399.45	226.70
399.82	226.80
400.20	226.84
400.58	226.95
400.95	226.99
401.33	227.09
401.70	227.24
402.08	227.34
402.45	227.42
402.83	227.55
403.20	227.70
403.58	227.83
403.95	227.97
404.33	228.09
404.71	228.22
405.08	228.42
405.46	228.53
405.83	228.69
406.21	228.89
406.58	229.07
406.96	229.25
407.33	229.42
407.70	229.56
408.08	229.87
408.45	230.07
408.83	230.30
409.20	230.47
409.58	230.66
409.95	230.92
410.33	231.20
410.70	231.47
411.08	231.71
411.45	232.00
411.82	232.31
412.20	232.67
412.57	233.11
412.95	233.40
413.32	233.81
413.69	234.20
414.07	234.60
414.44	235.03
414.82	235.50
415.19	236.02
415.56	236.59
415.94	237.12
416.31	237.77
416.68	238.40
417.06	239.14
417.43	239.82
417.81	240.61
418.18	241.37
418.55	242.20
418.93	243.09
419.30	243.95
419.67	244.87
420.04	245.81
420.42	246.77
420.79	247.93
421.16	249.07
421.54	250.25
421.91	251.45
422.28	252.74
422.66	254.07
423.03	255.38
423.40	256.71
423.77	258.11
424.15	259.49
424.52	260.98
424.89	262.62
425.26	264.16
425.64	265.62
426.01	267.17
426.38	268.79
426.75	270.46
427.13	272.23
427.50	274.02
427.87	275.91
428.24	277.77
428.61	279.51
428.99	281.45
429.36	283.55
429.73	285.62
430.10	287.62
430.47	289.67
430.85	291.80
431.22	294.03
431.59	296.40
431.96	298.68
432.33	301.15
432.70	303.49
433.08	306.29
433.45	308.89
433.82	311.54
434.19	314.44
434.56	317.23
434.93	319.86
435.30	322.51
435.68	325.40
436.05	328.23
436.42	331.08
436.79	333.63
437.16	336.34
437.53	339.19
437.90	341.99
438.27	344.78
438.64	347.57
439.01	350.13
439.38	352.35
439.75	354.51
440.13	356.98
440.50	359.33
440.87	361.19
441.24	363.18
441.61	365.32
441.98	366.84
442.35	368.67
442.72	370.53
443.09	372.33
443.46	373.35
443.83	373.93
444.20	374.42
444.57	375.20
444.94	375.48
445.31	375.79
445.68	376.17
446.05	376.18
446.42	375.81
446.79	375.43
447.16	374.96
447.53	374.61
447.90	373.49
448.27	372.32
448.64	370.73
449.01	369.54
449.37	367.59
449.74	365.64
450.11	363.38
450.48	360.92
450.85	358.36
451.22	356.21
451.59	354.22
451.96	352.22
452.33	349.64
452.70	347.32
453.07	344.54
453.43	341.60
453.80	338.90
454.17	336.22
454.54	333.69
454.91	331.02
455.28	328.33
455.65	325.83
456.02	323.35
456.38	321.22
456.75	318.58
457.12	316.30
457.49	314.10
457.86	311.92
458.23	310.06
458.59	308.03
458.96	305.94
459.33	304.07
459.70	302.21
460.07	300.72
460.43	298.96
460.80	297.30
461.17	295.88
461.54	294.34
461.91	292.94
462.27	291.48
462.64	290.21
463.01	288.90
463.38	287.60
463.74	286.27
464.11	285.09
464.48	284.09
464.85	282.98
465.21	282.07
465.58	281.15
465.95	280.10
466.32	279.16
466.68	278.24
467.05	277.34
467.42	276.48
467.78	275.56
468.15	274.68
468.52	274.02
468.88	273.17
469.25	272.42
469.62	271.75
469.98	271.08
470.35	270.49
470.72	269.90
471.08	269.26
471.45	268.72
471.82	268.18
472.18	267.57
472.55	267.18
472.92	266.72
473.28	266.29
473.65	265.79
474.02	265.37
474.38	265.02
474.75	264.67
475.11	264.30
475.48	264.07
475.85	263.85
476.21	263.63
476.58	263.45
476.94	263.28
477.31	263.14
477.67	262.97
478.04	262.81
478.41	262.74
478.77	262.79
479.14	262.73
479.50	262.75
479.87	262.82
480.23	262.86
480.60	262.92
480.96	263.02
481.33	263.24
481.69	263.47
482.06	263.67
482.42	263.92
482.79	264.21
483.15	264.50
483.52	264.91
483.88	265.27
484.25	265.69
484.61	266.13
484.98	266.58
485.34	267.20
485.71	267.82
486.07	268.45
486.44	269.00
486.80	269.70
487.17	270.42
487.53	271.26
487.90	272.12
488.26	273.07
488.62	274.04
488.99	275.00
489.35	276.00
489.72	277.13
490.08	278.29
490.44	279.54
490.81	280.87
491.17	282.23
491.54	283.67
491.90	285.22
492.26	286.87
492.63	288.61
492.99	290.37
493.36	292.28
493.72	294.35
494.08	296.47
494.45	298.73
494.81	301.06
495.17	303.47
495.54	306.03
495.90	308.72
496.26	311.49
496.63	314.48
496.99	317.60
497.35	320.89
497.72	324.28
498.08	327.77
498.44	331.44
498.80	335.36
499.17	339.44
499.53	343.54
499.89	347.94
500.26	352.44
500.62	357.10
500.98	362.03
501.34	367.06
501.71	372.40
502.07	377.84
502.43	383.49
502.79	389.33
503.16	395.43
503.52	401.70
503.88	408.16
504.24	414.81
504.60	421.72
504.97	428.83
505.33	436.16
505.69	443.93
506.05	451.71
506.41	459.56
506.78	467.71
507.14	476.22
507.50	484.89
507.86	493.98
508.22	503.16
508.59	512.45
508.95	522.05
509.31	531.80
509.67	541.89
510.03	552.19
510.39	562.67
510.75	573.53
511.12	584.51
511.48	595.77
511.84	607.24
512.20	618.75
512.56	630.68
512.92	642.85
513.28	655.12
513.64	667.61
514.00	680.36
514.37	693.34
514.73	706.34
515.09	719.37
515.45	732.64
515.81	746.21
516.17	760.11
516.53	774.21
516.89	788.43
517.25	802.58
517.61	817.02
517.97	831.57
518.33	845.84
518.69	860.58
519.05	875.56
519.41	890.66
519.77	906.20
520.13	921.65
520.49	937.09
520.85	952.54
521.21	968.34
521.57	984.56
521.93	1000.16
522.29	1016.58
522.65	1032.81
523.01	1048.96
523.37	1064.96
523.73	1081.20
524.09	1097.26
524.45	1113.54
524.81	1130.11
525.17	1146.99
525.53	1163.90
525.89	1180.81
526.25	1197.62
526.61	1214.01
526.97	1230.72
527.33	1247.20
527.68	1263.84
528.04	1280.36
528.40	1296.91
528.76	1313.83
529.12	1330.56
529.48	1347.60
529.84	1363.60
530.20	1380.26
530.56	1397.30
530.91	1414.67
531.27	1431.44
531.63	1447.94
531.99	1464.47
532.35	1480.43
532.71	1496.29
533.07	1512.36
533.42	1528.21
533.78	1544.22
534.14	1560.53
534.50	1575.92
534.86	1591.71
535.21	1606.85
535.57	1622.62
535.93	1638.07
536.29	1652.80
536.65	1667.71
537.00	1682.33
537.36	1697.63
537.72	1712.11
538.08	1726.54
538.44	1740.37
538.79	1754.14
539.15	1767.75
539.51	1781.46
539.87	1795.94
540.22	1809.51
540.58	1823.47
540.94	1836.89
541.29	1849.72
541.65	1862.33
542.01	1875.45
542.37	1887.81
542.72	1900.22
543.08	1911.92
543.44	1924.40
543.79	1935.69
544.15	1946.69
544.51	1958.29
544.87	1969.20
545.22	1980.06
545.58	1990.18
545.94	1999.92
546.29	2009.83
546.65	2019.73
547.01	2029.01
547.36	2037.73
547.72	2046.24
548.07	2054.02
548.43	2062.07
548.79	2070.16
549.14	2077.71
549.50	2085.05
549.86	2092.73
550.21	2100.02
550.57	2107.34
550.92	2113.93
551.28	2121.02
551.64	2128.10
551.99	2134.52
552.35	2140.70
552.70	2146.88
553.06	2152.90
553.41	2159.18
553.77	2165.26
554.13	2171.38
554.48	2177.54
554.84	2182.88
555.19	2188.36
555.55	2193.42
555.90	2197.99
556.26	2202.77
556.61	2207.41
556.97	2211.77
557.32	2215.81
557.68	2219.89
558.03	2224.18
558.39	2227.87
558.74	2232.52
559.10	2236.36
559.45	2240.07
559.81	2244.39
560.16	2248.09
560.52	2251.52
560.87	2255.03
561.23	2257.57
561.58	2260.42
561.94	2262.97
562.29	2265.31
562.64	2267.78
563.00	2270.38
563.35	2273.97
563.71	2277.19
564.06	2280.59
564.42	2283.40
564.77	2286.01
565.12	2288.34
565.48	2290.21
565.83	2292.21
566.19	2293.47
566.54	2294.45
566.89	2295.68
567.25	2296.24
567.60	2297.73
567.96	2299.22
568.31	2300.16
568.66	2301.28
569.02	2301.89
569.37	2302.17
569.72	2303.04
570.08	2303.13
570.43	2303.23
570.78	2302.55
571.14	2300.97
571.49	2299.66
571.84	2299.22
572.20	2298.07
572.55	2296.98
572.90	2295.38
573.26	2293.88
573.61	2292.13
573.96	2290.29
574.31	2287.31
574.67	2284.30
575.02	2280.57
575.37	2277.07
575.72	2273.10
576.08	2269.98
576.43	2266.59
576.78	2262.95
577.13	2259.91
577.49	2256.87
577.84	2253.31
578.19	2249.61
578.54	2245.98
578.90	2241.58
579.25	2236.09
579.60	2230.98
579.95	2225.93
580.30	2221.01
580.66	2215.80
581.01	2210.86
581.36	2205.86
581.71	2201.68
582.06	2197.24
582.42	2192.77
582.77	2187.63
583.12	2183.16
583.47	2178.15
583.82	2173.19
584.17	2167.92
584.53	2162.30
584.88	2156.60
585.23	2150.75
585.58	2145.21
585.93	2139.73
586.28	2134.98
586.63	2129.93
586.98	2124.98
587.34	2120.43
587.69	2115.51
588.04	2110.19
588.39	2104.50
588.74	2098.06
589.09	2091.79
589.44	2084.89
589.79	2078.90
590.14	2073.41
590.49	2066.75
590.84	2060.49
591.19	2054.38
591.54	2047.95
591.89	2040.58
592.25	2033.79
592.60	2026.72
592.95	2019.21
593.30	2011.96
593.65	2004.37
594.00	1997.34
594.35	1990.18
594.70	1982.09
595.05	1974.81
595.40	1967.47
595.75	1959.99
596.10	1953.72
596.45	1947.07
596.80	1941.03
597.15	1934.41
597.50	1927.14
597.85	1920.79
598.19	1914.02
598.54	1906.93
598.89	1900.21
599.24	1894.31
599.59	1887.67
599.94	1881.40
600.29	1875.01
600.64	1868.28
600.99	1860.79
601.34	1854.09
601.69	1847.06
602.04	1840.12
602.39	1832.80
602.74	1826.06
603.08	1819.34
603.43	1812.62
603.78	1805.36
604.13	1798.11
604.48	1790.75
604.83	1783.89
605.18	1776.83
605.53	1768.96
605.87	1761.03
606.22	1753.81
606.57	1745.86
606.92	1738.61
607.27	1731.41
607.62	1724.44
607.96	1717.19
608.31	1710.71
608.66	1702.85
609.01	1695.23
609.36	1687.59
609.70	1679.56
610.05	1671.60
610.40	1663.91
610.75	1655.66
611.10	1647.85
611.44	1639.51
611.79	1631.47
612.14	1622.84
612.49	1613.66
612.83	1605.37
613.18	1597.26
613.53	1589.16
613.88	1580.66
614.22	1572.35
614.57	1563.85
614.92	1555.87
615.27	1548.35
615.61	1539.84
615.96	1531.99
616.31	1524.43
616.65	1517.05
617.00	1509.46
617.35	1501.67
617.70	1493.24
618.04	1484.72
618.39	1476.58
618.74	1468.86
619.08	1460.71
619.43	1453.06
619.78	1446.17
620.12	1438.77
620.47	1431.21
620.82	1423.01
621.16	1415.59
621.51	1407.92
621.85	1400.38
622.20	1391.79
622.55	1383.38
622.89	1375.60
623.24	1367.92
623.59	1360.50
623.93	1353.14
624.28	1345.96
624.62	1338.46
624.97	1331.33
625.32	1324.67
625.66	1317.57
626.01	1310.46
626.35	1302.98
626.70	1295.27
627.04	1287.61
627.39	1279.94
627.73	1272.47
628.08	1265.64
628.43	1258.34
628.77	1251.03
629.12	1243.33
629.46	1236.25
629.81	1228.94
630.15	1221.70
630.50	1214.26
630.84	1206.08
631.19	1198.08
631.53	1190.54
631.88	1182.95
632.22	1175.31
632.57	1167.88
632.91	1160.38
633.26	1153.04
633.60	1145.62
633.95	1138.53
634.29	1131.53
634.64	1124.90
634.98	1117.60
635.32	1110.41
635.67	1103.78
636.01	1097.15
636.36	1090.40
636.70	1083.85
637.05	1077.18
637.39	1070.72
637.73	1064.19
638.08	1058.31
638.42	1052.32
638.77	1046.00
639.11	1039.37
639.45	1033.02
639.80	1026.37
640.14	1019.95
640.49	1013.35
640.83	1007.04
641.17	1000.84
641.52	994.39
641.86	987.82
642.20	981.87
642.55	975.62
642.89	969.12
643.23	962.57
643.58	956.77
643.92	950.53
644.26	944.51
644.61	938.51
644.95	932.56
645.29	925.87
645.64	919.10
645.98	912.75
646.32	906.94
646.66	900.94
647.01	895.17
647.35	889.51
647.69	883.63
648.04	878.12
648.38	872.26
648.72	866.30
649.06	860.36
649.41	854.46
649.75	848.44
650.09	842.51
650.43	836.70
650.78	830.58
651.12	824.66
651.46	818.89
651.80	813.08
652.14	807.64
652.49	802.34
652.83	797.21
653.17	791.41
653.51	785.67
653.85	780.26
654.20	774.57
654.54	768.57
654.88	762.83
655.22	756.85
655.56	751.23
655.90	745.80
656.25	740.43
656.59	735.14
656.93	730.07
657.27	724.88
657.61	719.46
657.95	714.32
658.29	709.20
658.64	703.96
658.98	698.72
659.32	693.28
659.66	688.00
660.00	682.64
660.34	677.73
660.68	672.84
661.02	667.75
661.36	663.05
661.70	658.50
662.05	654.18
662.39	649.87
662.73	645.40
663.07	640.99
663.41	636.53
663.75	632.04
664.09	627.40
664.43	623.03
664.77	618.88
665.11	614.62
665.45	610.53
665.79	606.46
666.13	602.28
666.47	598.21
666.81	594.07
667.15	590.04
667.49	586.12
667.83	582.31
668.17	578.42
668.51	574.34
668.85	570.31
669.19	566.48
669.53	562.66
669.87	558.75
670.21	555.08
670.55	551.51
670.89	548.10
671.23	544.72
671.57	541.21
671.91	537.69
672.25	534.17
672.58	530.69
672.92	527.27
673.26	524.09
673.60	520.90
673.94	517.81
674.28	514.84
674.62	511.88
674.96	508.75
675.30	505.80
675.64	502.94
675.97	500.13
676.31	497.21
676.65	494.29
676.99	491.58
677.33	488.60
677.67	485.79
678.01	482.72
678.34	479.73
678.68	476.91
679.02	474.07
679.36	471.36
679.70	468.65
680.04	465.89
680.37	463.08
680.71	460.26
681.05	457.66
681.39	454.95
681.73	452.31
682.06	449.83
682.40	447.30
682.74	444.76
683.08	442.28
683.42	439.67
683.75	437.17
684.09	434.60
684.43	432.23
684.77	429.74
685.10	427.43
685.44	425.12
685.78	422.79
686.12	420.54
686.45	418.24
686.79	415.90
687.13	413.75
687.46	411.53
687.80	409.44
688.14	407.21
688.48	405.16
688.81	402.94
689.15	400.76
689.49	398.60
689.82	396.51
690.16	394.41
690.50	392.52
690.83	390.62
691.17	388.65
691.51	386.73
691.84	384.95
692.18	383.02
692.52	381.02
692.85	379.17
693.19	377.33
693.52	375.48
693.86	373.67
694.20	371.85
694.53	370.08
694.87	368.27
695.21	366.51
695.54	364.70
695.88	362.98
696.21	361.30
696.55	359.65
696.88	357.97
697.22	356.31
697.56	354.67
697.89	353.01
698.23	351.43
698.56	349.83
698.90	348.22
699.23	346.55
699.57	345.02
699.90	343.42
700.24	341.82
700.58	340.28
700.91	338.82
701.25	337.35
701.58	335.99
701.92	334.63
702.25	333.22
702.59	331.91
702.92	330.58
703.26	329.24
703.59	327.94
703.93	326.76
704.26	325.53
704.60	324.21
704.93	322.93
705.26	321.69
705.60	320.50
705.93	319.30
706.27	318.27
706.60	317.20
706.94	316.12
707.27	315.01
707.61	313.93
707.94	312.87
708.27	311.81
708.61	310.72
708.94	309.65
709.28	308.69
709.61	307.66
709.94	306.74
710.28	305.69
710.61	304.70
710.95	303.60
711.28	302.69
711.61	301.73
711.95	300.81
712.28	299.83
712.61	298.83
712.95	297.94
713.28	297.05
713.61	296.13
713.95	295.22
714.28	294.38
714.61	293.53
714.95	292.67
715.28	291.81
715.61	290.93
715.95	290.09
716.28	289.20
716.61	288.39
716.95	287.52
717.28	286.75
717.61	286.00
717.94	285.25
718.28	284.44
718.61	283.72
718.94	282.99
719.27	282.32
719.61	281.68
719.94	280.98
720.27	280.28
720.60	279.66
720.94	279.06
721.27	278.47
721.60	277.89
721.93	277.32
722.27	276.80
722.60	276.25
722.93	275.66
723.26	275.16
723.59	274.59
723.93	274.05
724.26	273.55
724.59	272.98
724.92	272.46
725.25	271.98
725.59	271.45
725.92	270.95
726.25	270.47
726.58	269.93
726.91	269.40
727.24	268.93
727.57	268.46
727.91	267.92
728.24	267.44
728.57	266.97
728.90	266.53
729.23	266.02
729.56	265.59
729.89	265.14
730.22	264.64
730.55	264.18
730.89	263.73
731.22	263.26
731.55	262.86
731.88	262.45
732.21	262.00
732.54	261.58
732.87	261.17
733.20	260.80
733.53	260.45
733.86	260.09
734.19	259.70
734.52	259.33
734.85	259.05
735.18	258.65
735.51	258.29
735.84	257.89
736.17	257.58
736.50	257.17
736.83	256.94
737.16	256.62
737.49	256.30
737.82	255.96
738.15	255.63
738.48	255.26
738.81	254.92
739.14	254.57
739.47	254.27
739.80	253.98
740.13	253.65
740.46	253.34
740.79	253.06
741.12	252.73
741.45	252.43
741.78	252.10
742.11	251.82
742.44	251.48
742.77	251.16
743.10	250.80
743.43	250.51
743.75	250.09
744.08	249.94
744.41	249.66
744.74	249.41
745.07	249.14
745.40	248.92
745.73	248.68
746.06	248.44
746.39	248.20
746.71	247.94
747.04	247.68
747.37	247.41
747.70	247.15
748.03	246.92
748.36	246.67
748.68	246.44
749.01	246.18
749.34	245.95
749.67	245.73
750.00	245.51
750.33	245.38
750.65	245.20
750.98	244.86
751.31	244.62
751.64	244.40
751.97	244.22
752.29	244.00
752.62	243.74
752.95	243.54
753.28	243.29
753.60	243.04
753.93	242.83
754.26	242.63
754.59	242.41
754.91	242.21
755.24	242.01
755.57	241.79
755.90	241.59
756.22	241.40
756.55	241.21
756.88	241.04
757.20	240.76
757.53	240.54
757.86	240.36
758.19	240.20
758.51	240.03
758.84	239.82
759.17	239.62
759.49	239.45
759.82	239.33
760.15	239.18
760.47	239.03
760.80	238.87
761.13	238.71
761.45	238.55
761.78	238.42
762.11	238.25
762.43	238.06
762.76	237.92
763.08	237.77
763.41	237.65
763.74	237.49
764.06	237.36
764.39	237.25
764.71	237.12
765.04	236.97
765.37	236.84
765.69	236.72
766.02	236.59
766.34	236.47
766.67	236.30
767.00	236.20
767.32	236.13
767.65	236.09
767.97	235.99
768.30	235.87
768.62	235.72
768.95	235.64
769.27	235.58
769.60	235.51
769.92	235.41
770.25	235.32
770.57	235.20
770.90	235.07
771.22	234.94
771.55	234.82
771.87	234.72
772.20	234.63
772.52	234.64
772.85	234.67
773.17	234.58
773.50	234.48
773.82	234.38
774.15	234.26
774.47	234.07
774.80	233.97
775.12	233.89
775.45	233.80
775.77	233.68
776.09	233.58
776.42	233.48
776.74	233.44
777.07	233.39
777.39	233.34
777.72	233.29
778.04	233.27
778.36	233.22
778.69	233.18
779.01	233.14
779.33	232.98
779.66	232.80
779.98	232.75
780.31	232.70
780.63	232.69
780.95	232.64
781.28	232.62
781.60	232.56
781.92	232.50
782.25	232.46
782.57	232.40
782.89	232.36
783.22	232.32
783.54	232.24
783.86	232.14
784.19	232.08
784.51	232.06
784.83	231.98
785.16	231.88
785.48	231.82
785.80	231.73
786.12	231.68
786.45	231.66
786.77	231.59
787.09	231.54
