SpectraSuite Data File
++++++++++++++++++++++++++++++++++++
Date: Fri Feb 01 17:17:36 EST 2013
User: group
Dark Spectrum Present: No
Reference Spectrum Present: No
Number of Sampled Component Spectra: 1
Spectrometers: USB2E7196
Integration Time (usec): 35000 (USB2E7196)
Spectra Averaged: 100 (USB2E7196)
Boxcar Smoothing: 10 (USB2E7196)
Correct for Electrical Dark: No (USB2E7196)
Strobe/Lamp Enabled: No (USB2E7196)
Correct for Detector Non-linearity: No (USB2E7196)
Correct for Stray Light: No (USB2E7196)
Number of Pixels in Processed Spectrum: 2048
>>>>>Begin Processed Spectral Data<<<<<
339.09	0.00
339.48	213.56
339.86	214.64
340.24	216.08
340.63	217.41
341.01	220.92
341.39	220.47
341.78	221.79
342.16	222.97
342.54	223.15
342.93	211.74
343.31	222.45
343.69	222.95
344.07	223.43
344.46	223.86
344.84	224.23
345.22	224.44
345.60	224.67
345.99	224.83
346.37	224.94
346.75	225.03
347.13	225.12
347.52	225.15
347.90	225.22
348.28	225.22
348.66	225.29
349.05	225.27
349.43	225.33
349.81	225.36
350.19	225.41
350.57	225.44
350.96	225.49
351.34	225.55
351.72	225.61
352.10	225.69
352.48	225.71
352.87	225.76
353.25	225.82
353.63	225.87
354.01	225.94
354.39	226.01
354.77	226.08
355.15	226.15
355.54	226.18
355.92	226.19
356.30	226.26
356.68	226.35
357.06	226.40
357.44	226.41
357.82	226.45
358.20	226.51
358.58	226.60
358.97	226.64
359.35	226.68
359.73	226.76
360.11	226.76
360.49	226.88
360.87	226.95
361.25	226.99
361.63	227.04
362.01	227.04
362.39	227.04
362.77	227.09
363.15	227.08
363.53	227.10
363.91	227.13
364.29	227.12
364.67	227.04
365.05	227.06
365.43	227.09
365.81	227.13
366.19	227.19
366.57	227.18
366.95	227.21
367.33	227.21
367.71	227.21
368.09	227.24
368.47	227.17
368.85	227.13
369.23	227.13
369.61	227.08
369.99	227.14
370.37	227.15
370.75	227.15
371.13	227.12
371.51	227.07
371.89	227.03
372.27	227.01
372.65	226.98
373.03	226.92
373.41	226.88
373.78	226.83
374.16	226.70
374.54	226.66
374.92	226.59
375.30	226.54
375.68	226.47
376.06	226.43
376.44	226.39
376.82	226.34
377.19	226.27
377.57	226.20
377.95	226.08
378.33	226.02
378.71	225.88
379.09	225.81
379.47	225.79
379.84	225.74
380.22	225.70
380.60	225.65
380.98	225.60
381.36	225.52
381.73	225.45
382.11	225.44
382.49	225.37
382.87	225.32
383.25	225.26
383.62	225.35
384.00	225.29
384.38	225.28
384.76	225.25
385.13	225.25
385.51	225.26
385.89	225.20
386.27	225.15
386.64	225.18
387.02	225.16
387.40	225.09
387.78	225.07
388.15	225.02
388.53	224.97
388.91	224.96
389.29	224.94
389.66	224.90
390.04	224.87
390.42	224.89
390.79	224.88
391.17	224.90
391.55	224.75
391.92	224.72
392.30	224.70
392.68	224.68
393.05	224.67
393.43	224.65
393.81	224.69
394.18	224.69
394.56	224.68
394.94	224.69
395.31	224.73
395.69	224.79
396.06	224.88
396.44	224.95
396.82	224.93
397.19	225.07
397.57	225.12
397.95	225.16
398.32	225.17
398.70	225.22
399.07	225.24
399.45	225.29
399.82	225.35
400.20	225.39
400.58	225.45
400.95	225.48
401.33	225.57
401.70	225.71
402.08	225.81
402.45	225.90
402.83	226.04
403.20	226.14
403.58	226.22
403.95	226.32
404.33	226.42
404.71	226.56
405.08	226.68
405.46	226.79
405.83	226.93
406.21	227.11
406.58	227.26
406.96	227.44
407.33	227.63
407.70	227.84
408.08	228.10
408.45	228.30
408.83	228.54
409.20	228.72
409.58	228.88
409.95	229.10
410.33	229.40
410.70	229.62
411.08	229.91
411.45	230.20
411.82	230.47
412.20	230.80
412.57	231.22
412.95	231.53
413.32	231.93
413.69	232.35
414.07	232.73
414.44	233.21
414.82	233.68
415.19	234.21
415.56	234.76
415.94	235.29
416.31	235.97
416.68	236.57
417.06	237.31
417.43	238.00
417.81	238.79
418.18	239.55
418.55	240.42
418.93	241.34
419.30	242.27
419.67	243.25
420.04	244.25
420.42	245.27
420.79	246.46
421.16	247.65
421.54	248.87
421.91	250.13
422.28	251.43
422.66	252.82
423.03	254.15
423.40	255.53
423.77	257.02
424.15	258.48
424.52	260.03
424.89	261.69
425.26	263.31
425.64	264.80
426.01	266.43
426.38	268.14
426.75	269.86
427.13	271.61
427.50	273.51
427.87	275.45
428.24	277.34
428.61	279.14
428.99	281.17
429.36	283.32
429.73	285.46
430.10	287.56
430.47	289.68
430.85	291.90
431.22	294.17
431.59	296.64
431.96	298.94
432.33	301.55
432.70	303.99
433.08	306.91
433.45	309.65
433.82	312.34
434.19	315.27
434.56	318.14
434.93	320.89
435.30	323.56
435.68	326.54
436.05	329.48
436.42	332.36
436.79	334.91
437.16	337.68
437.53	340.61
437.90	343.48
438.27	346.35
438.64	349.22
439.01	351.97
439.38	354.26
439.75	356.53
440.13	359.06
440.50	361.46
440.87	363.34
441.24	365.35
441.61	367.61
441.98	369.21
442.35	371.09
442.72	373.01
443.09	374.89
443.46	375.92
443.83	376.57
444.20	377.10
444.57	378.03
444.94	378.40
445.31	378.75
445.68	379.10
446.05	379.18
446.42	378.84
446.79	378.38
447.16	377.92
447.53	377.62
447.90	376.45
448.27	375.26
448.64	373.64
449.01	372.50
449.37	370.45
449.74	368.47
450.11	366.18
450.48	363.65
450.85	361.05
451.22	358.86
451.59	356.78
451.96	354.80
452.33	352.14
452.70	349.71
453.07	346.82
453.43	343.84
453.80	340.95
454.17	338.16
454.54	335.54
454.91	332.76
455.28	329.99
455.65	327.44
456.02	324.91
456.38	322.68
456.75	319.89
457.12	317.59
457.49	315.31
457.86	313.02
458.23	311.09
458.59	308.97
458.96	306.81
459.33	304.89
459.70	303.01
460.07	301.45
460.43	299.67
460.80	298.00
461.17	296.53
461.54	295.01
461.91	293.58
462.27	292.03
462.64	290.70
463.01	289.27
463.38	287.89
463.74	286.50
464.11	285.30
464.48	284.30
464.85	283.18
465.21	282.29
465.58	281.38
465.95	280.28
466.32	279.33
466.68	278.40
467.05	277.44
467.42	276.47
467.78	275.46
468.15	274.56
468.52	273.90
468.88	273.05
469.25	272.23
469.62	271.61
469.98	270.97
470.35	270.35
470.72	269.73
471.08	269.12
471.45	268.58
471.82	268.02
472.18	267.37
472.55	266.92
472.92	266.37
473.28	265.90
473.65	265.42
474.02	264.99
474.38	264.60
474.75	264.29
475.11	263.92
475.48	263.67
475.85	263.44
476.21	263.16
476.58	262.94
476.94	262.81
477.31	262.59
477.67	262.44
478.04	262.32
478.41	262.29
478.77	262.35
479.14	262.28
479.50	262.30
479.87	262.40
480.23	262.46
480.60	262.55
480.96	262.61
481.33	262.84
481.69	263.03
482.06	263.26
482.42	263.51
482.79	263.80
483.15	264.13
483.52	264.50
483.88	264.85
484.25	265.25
484.61	265.68
484.98	266.16
485.34	266.72
485.71	267.31
486.07	267.91
486.44	268.44
486.80	269.17
487.17	269.91
487.53	270.70
487.90	271.56
488.26	272.53
488.62	273.57
488.99	274.53
489.35	275.57
489.72	276.69
490.08	277.83
490.44	279.06
490.81	280.42
491.17	281.78
491.54	283.28
491.90	284.81
492.26	286.48
492.63	288.23
492.99	290.02
493.36	291.92
493.72	294.02
494.08	296.14
494.45	298.37
494.81	300.73
495.17	303.17
495.54	305.75
495.90	308.37
496.26	311.14
496.63	314.11
496.99	317.22
497.35	320.45
497.72	323.89
498.08	327.39
498.44	331.09
498.80	334.98
499.17	339.01
499.53	343.17
499.89	347.45
500.26	351.88
500.62	356.54
500.98	361.49
501.34	366.48
501.71	371.78
502.07	377.21
502.43	382.75
502.79	388.49
503.16	394.52
503.52	400.73
503.88	407.08
504.24	413.62
504.60	420.40
504.97	427.52
505.33	434.72
505.69	442.36
506.05	450.01
506.41	457.80
506.78	465.82
507.14	474.15
507.50	482.79
507.86	491.74
508.22	500.85
508.59	509.95
508.95	519.33
509.31	528.98
509.67	538.93
510.03	549.04
510.39	559.46
510.75	570.08
511.12	580.87
511.48	592.00
511.84	603.33
512.20	614.66
512.56	626.29
512.92	638.26
513.28	650.47
513.64	662.69
514.00	675.19
514.37	687.93
514.73	700.72
515.09	713.44
515.45	726.50
515.81	739.78
516.17	753.47
516.53	767.37
516.89	781.32
517.25	795.22
517.61	809.51
517.97	823.62
518.33	837.74
518.69	852.17
519.05	866.79
519.41	881.59
519.77	896.86
520.13	912.11
520.49	927.28
520.85	942.28
521.21	957.58
521.57	973.46
521.93	988.78
522.29	1004.79
522.65	1020.75
523.01	1036.59
523.37	1052.33
523.73	1068.09
524.09	1083.85
524.45	1099.80
524.81	1116.09
525.17	1132.38
525.53	1148.88
525.89	1165.38
526.25	1181.94
526.61	1197.89
526.97	1214.51
527.33	1230.65
527.68	1246.91
528.04	1263.01
528.40	1279.25
528.76	1296.09
529.12	1312.37
529.48	1329.07
529.84	1344.79
530.20	1361.14
530.56	1377.70
530.91	1394.70
531.27	1411.22
531.63	1427.43
531.99	1443.70
532.35	1459.34
532.71	1475.01
533.07	1491.05
533.42	1506.75
533.78	1522.58
534.14	1538.68
534.50	1553.66
534.86	1569.19
535.21	1584.12
535.57	1599.63
535.93	1614.82
536.29	1629.27
536.65	1644.12
537.00	1658.51
537.36	1673.67
537.72	1687.80
538.08	1702.19
538.44	1715.79
538.79	1729.47
539.15	1742.83
539.51	1756.36
539.87	1770.49
540.22	1783.98
540.58	1797.59
540.94	1810.66
541.29	1823.11
541.65	1835.66
542.01	1848.62
542.37	1860.79
542.72	1873.07
543.08	1884.99
543.44	1897.36
543.79	1908.67
544.15	1919.43
544.51	1931.09
544.87	1942.09
545.22	1953.04
545.58	1963.19
545.94	1972.98
546.29	1982.93
546.65	1992.88
547.01	2002.22
547.36	2011.03
547.72	2019.63
548.07	2027.63
548.43	2035.96
548.79	2044.03
549.14	2051.76
549.50	2059.16
549.86	2066.92
550.21	2074.34
550.57	2081.52
550.92	2088.24
551.28	2095.54
551.64	2102.92
551.99	2109.55
552.35	2115.80
552.70	2122.15
553.06	2128.40
553.41	2135.01
553.77	2141.14
554.13	2147.23
554.48	2153.40
554.84	2159.26
555.19	2164.66
555.55	2170.15
555.90	2174.83
556.26	2180.36
556.61	2185.18
556.97	2189.95
557.32	2194.48
557.68	2198.79
558.03	2203.30
558.39	2207.20
558.74	2211.87
559.10	2215.96
559.45	2219.77
559.81	2224.19
560.16	2228.28
560.52	2231.68
560.87	2235.34
561.23	2238.31
561.58	2241.63
561.94	2244.65
562.29	2247.03
562.64	2250.16
563.00	2252.87
563.35	2256.55
563.71	2259.71
564.06	2263.16
564.42	2266.27
564.77	2269.12
565.12	2271.97
565.48	2274.29
565.83	2276.58
566.19	2278.44
566.54	2279.61
566.89	2281.28
567.25	2282.29
567.60	2283.80
567.96	2285.93
568.31	2287.01
568.66	2288.58
569.02	2289.47
569.37	2290.06
569.72	2291.51
570.08	2292.03
570.43	2292.35
570.78	2292.36
571.14	2291.29
571.49	2290.41
571.84	2290.27
572.20	2289.55
572.55	2288.72
572.90	2287.27
573.26	2286.23
573.61	2284.61
573.96	2283.35
574.31	2280.84
574.67	2278.24
575.02	2275.03
575.37	2271.84
575.72	2268.44
576.08	2265.12
576.43	2261.87
576.78	2258.71
577.13	2255.49
577.49	2252.42
577.84	2249.40
578.19	2245.90
578.54	2242.66
578.90	2238.89
579.25	2233.60
579.60	2229.03
579.95	2224.32
580.30	2219.61
580.66	2214.65
581.01	2209.92
581.36	2205.23
581.71	2201.23
582.06	2197.15
582.42	2193.02
582.77	2188.18
583.12	2183.77
583.47	2179.57
583.82	2175.23
584.17	2170.18
584.53	2164.97
584.88	2159.77
585.23	2154.39
585.58	2148.92
585.93	2143.62
586.28	2138.76
586.63	2134.13
586.98	2129.02
587.34	2124.38
587.69	2119.65
588.04	2114.73
588.39	2109.40
588.74	2103.05
589.09	2097.02
589.44	2090.53
589.79	2084.50
590.14	2079.05
590.49	2072.74
590.84	2066.34
591.19	2060.46
591.54	2054.00
591.89	2047.11
592.25	2040.58
592.60	2033.29
592.95	2026.18
593.30	2018.96
593.65	2011.54
594.00	2004.53
594.35	1997.48
594.70	1989.63
595.05	1982.89
595.40	1975.65
595.75	1968.22
596.10	1962.30
596.45	1955.68
596.80	1949.47
597.15	1943.12
597.50	1936.23
597.85	1929.93
598.19	1923.38
598.54	1916.48
598.89	1910.04
599.24	1903.97
599.59	1897.47
599.94	1891.37
600.29	1885.08
600.64	1878.51
600.99	1871.28
601.34	1864.47
601.69	1857.47
602.04	1850.65
602.39	1843.28
602.74	1836.60
603.08	1830.03
603.43	1823.26
603.78	1815.99
604.13	1808.89
604.48	1801.70
604.83	1794.75
605.18	1787.99
605.53	1780.18
605.87	1772.04
606.22	1764.74
606.57	1757.06
606.92	1749.45
607.27	1742.34
607.62	1735.53
607.96	1728.42
608.31	1721.99
608.66	1714.55
609.01	1707.15
609.36	1699.76
609.70	1691.69
610.05	1683.62
610.40	1675.92
610.75	1667.47
611.10	1659.79
611.44	1651.20
611.79	1643.04
612.14	1634.43
612.49	1625.13
612.83	1616.67
613.18	1608.47
613.53	1600.32
613.88	1591.62
614.22	1583.31
614.57	1574.46
614.92	1566.18
615.27	1558.57
615.61	1550.15
615.96	1541.95
616.31	1534.12
616.65	1526.64
617.00	1518.98
617.35	1511.14
617.70	1502.80
618.04	1494.39
618.39	1486.05
618.74	1478.49
619.08	1470.06
619.43	1462.33
619.78	1455.10
620.12	1447.88
620.47	1440.43
620.82	1432.21
621.16	1424.63
621.51	1416.94
621.85	1409.29
622.20	1400.78
622.55	1392.36
622.89	1384.38
623.24	1376.61
623.59	1369.06
623.93	1361.42
624.28	1354.06
624.62	1346.64
624.97	1339.31
625.32	1332.38
625.66	1325.31
626.01	1318.04
626.35	1310.77
626.70	1302.90
627.04	1295.37
627.39	1287.41
627.73	1279.86
628.08	1272.95
628.43	1265.67
628.77	1258.41
629.12	1250.93
629.46	1243.70
629.81	1236.06
630.15	1228.65
630.50	1221.23
630.84	1213.12
631.19	1205.02
631.53	1197.46
631.88	1189.72
632.22	1182.04
632.57	1174.66
632.91	1167.05
633.26	1159.63
633.60	1151.93
633.95	1144.69
634.29	1137.38
634.64	1130.69
634.98	1123.28
635.32	1116.00
635.67	1109.31
636.01	1102.48
636.36	1095.62
636.70	1089.03
637.05	1082.48
637.39	1075.98
637.73	1069.44
638.08	1063.42
638.42	1057.43
638.77	1050.88
639.11	1044.36
639.45	1037.93
639.80	1031.27
640.14	1024.90
640.49	1018.34
640.83	1012.06
641.17	1005.90
641.52	999.61
641.86	993.04
642.20	987.16
642.55	980.74
642.89	974.25
643.23	967.56
643.58	961.70
643.92	955.43
644.26	949.36
644.61	943.27
644.95	937.22
645.29	930.66
645.64	923.95
645.98	917.74
646.32	911.69
646.66	905.54
647.01	899.69
647.35	893.98
647.69	888.01
648.04	882.46
648.38	876.61
648.72	870.67
649.06	864.68
649.41	858.66
649.75	852.71
650.09	846.73
650.43	840.98
650.78	834.86
651.12	828.89
651.46	823.05
651.80	817.34
652.14	811.87
652.49	806.51
652.83	801.27
653.17	795.60
653.51	789.94
653.85	784.54
654.20	778.86
654.54	772.71
654.88	766.95
655.22	760.97
655.56	755.23
655.90	749.69
656.25	744.43
656.59	739.06
656.93	734.01
657.27	728.90
657.61	723.41
657.95	718.24
658.29	713.10
658.64	707.78
658.98	702.39
659.32	696.91
659.66	691.66
660.00	686.40
660.34	681.34
660.68	676.36
661.02	671.30
661.36	666.56
661.70	662.08
662.05	657.70
662.39	653.45
662.73	648.91
663.07	644.47
663.41	639.95
663.75	635.47
664.09	630.78
664.43	626.35
664.77	622.30
665.11	618.08
665.45	613.91
665.79	609.88
666.13	605.78
666.47	601.65
666.81	597.50
667.15	593.29
667.49	589.36
667.83	585.44
668.17	581.48
668.51	577.43
668.85	573.34
669.19	569.43
669.53	565.51
669.87	561.65
670.21	557.91
670.55	554.19
670.89	550.74
671.23	547.32
671.57	543.66
671.91	540.11
672.25	536.49
672.58	532.91
672.92	529.45
673.26	526.19
673.60	523.03
673.94	519.86
674.28	516.94
674.62	513.95
674.96	510.88
675.30	507.96
675.64	505.01
675.97	502.20
676.31	499.32
676.65	496.33
676.99	493.60
677.33	490.71
677.67	487.93
678.01	484.89
678.34	481.88
678.68	479.03
679.02	476.12
679.36	473.35
679.70	470.64
680.04	467.88
680.37	465.00
680.71	462.16
681.05	459.50
681.39	456.71
681.73	454.02
682.06	451.49
682.40	448.90
682.74	446.31
683.08	443.75
683.42	441.12
683.75	438.65
684.09	435.99
684.43	433.50
684.77	431.05
685.10	428.67
685.44	426.36
685.78	424.05
686.12	421.79
686.45	419.49
686.79	417.16
687.13	414.91
687.46	412.72
687.80	410.52
688.14	408.28
688.48	406.24
688.81	403.98
689.15	401.78
689.49	399.60
689.82	397.51
690.16	395.36
690.50	393.40
690.83	391.39
691.17	389.42
691.51	387.52
691.84	385.58
692.18	383.65
692.52	381.68
692.85	379.66
693.19	377.75
693.52	375.84
693.86	374.01
694.20	372.22
694.53	370.40
694.87	368.55
695.21	366.75
695.54	364.83
695.88	363.08
696.21	361.35
696.55	359.64
696.88	357.94
697.22	356.23
697.56	354.55
697.89	352.92
698.23	351.30
698.56	349.66
698.90	348.07
699.23	346.38
699.57	344.81
699.90	343.28
700.24	341.74
700.58	340.26
700.91	338.71
701.25	337.21
701.58	335.88
701.92	334.51
702.25	333.13
702.59	331.77
702.92	330.37
703.26	329.03
703.59	327.74
703.93	326.51
704.26	325.35
704.60	324.04
704.93	322.74
705.26	321.47
705.60	320.25
705.93	319.07
706.27	318.09
706.60	316.96
706.94	315.88
707.27	314.71
707.61	313.62
707.94	312.57
708.27	311.47
708.61	310.35
708.94	309.26
709.28	308.22
709.61	307.23
709.94	306.31
710.28	305.30
710.61	304.29
710.95	303.23
711.28	302.19
711.61	301.22
711.95	300.32
712.28	299.41
712.61	298.42
712.95	297.47
713.28	296.53
713.61	295.63
713.95	294.75
714.28	293.94
714.61	293.04
714.95	292.20
715.28	291.32
715.61	290.41
715.95	289.58
716.28	288.75
716.61	287.89
716.95	287.07
717.28	286.31
717.61	285.50
717.94	284.71
718.28	283.95
718.61	283.25
718.94	282.50
719.27	281.82
719.61	281.17
719.94	280.50
720.27	279.73
720.60	279.06
720.94	278.39
721.27	277.75
721.60	277.15
721.93	276.57
722.27	276.04
722.60	275.51
722.93	274.94
723.26	274.40
723.59	273.87
723.93	273.29
724.26	272.73
724.59	272.20
724.92	271.71
725.25	271.23
725.59	270.68
725.92	270.21
726.25	269.66
726.58	269.16
726.91	268.68
727.24	268.23
727.57	267.74
727.91	267.20
728.24	266.73
728.57	266.25
728.90	265.75
729.23	265.22
729.56	264.78
729.89	264.28
730.22	263.78
730.55	263.30
730.89	262.85
731.22	262.44
731.55	261.97
731.88	261.52
732.21	261.03
732.54	260.64
732.87	260.20
733.20	259.81
733.53	259.43
733.86	259.02
734.19	258.61
734.52	258.20
734.85	257.93
735.18	257.51
735.51	257.13
735.84	256.76
736.17	256.42
736.50	255.96
736.83	255.74
737.16	255.38
737.49	255.04
737.82	254.70
738.15	254.31
738.48	254.00
738.81	253.63
739.14	253.31
739.47	252.93
739.80	252.58
740.13	252.24
740.46	251.88
740.79	251.52
741.12	251.19
741.45	250.92
741.78	250.55
742.11	250.27
742.44	249.94
742.77	249.63
743.10	249.33
743.43	249.09
743.75	248.70
744.08	248.57
744.41	248.28
744.74	247.98
745.07	247.66
745.40	247.40
745.73	247.18
746.06	246.91
746.39	246.69
746.71	246.45
747.04	246.18
747.37	245.91
747.70	245.67
748.03	245.44
748.36	245.22
748.68	244.96
749.01	244.69
749.34	244.47
749.67	244.25
750.00	244.01
750.33	243.83
750.65	243.60
750.98	243.26
751.31	243.04
751.64	242.82
751.97	242.68
752.29	242.49
752.62	242.24
752.95	242.04
753.28	241.80
753.60	241.56
753.93	241.39
754.26	241.22
754.59	241.00
754.91	240.79
755.24	240.57
755.57	240.40
755.90	240.21
756.22	240.03
756.55	239.83
756.88	239.63
757.20	239.39
757.53	239.18
757.86	238.99
758.19	238.82
758.51	238.67
758.84	238.45
759.17	238.26
759.49	238.11
759.82	237.99
760.15	237.83
760.47	237.68
760.80	237.53
761.13	237.42
761.45	237.26
761.78	237.12
762.11	236.96
762.43	236.81
762.76	236.68
763.08	236.54
763.41	236.42
763.74	236.31
764.06	236.17
764.39	236.01
764.71	235.89
765.04	235.73
765.37	235.60
765.69	235.46
766.02	235.33
766.34	235.20
766.67	235.02
767.00	234.90
767.32	234.84
767.65	234.77
767.97	234.59
768.30	234.49
768.62	234.36
768.95	234.22
769.27	234.09
769.60	233.96
769.92	233.82
770.25	233.70
770.57	233.56
770.90	233.49
771.22	233.37
771.55	233.24
771.87	233.16
772.20	233.04
772.52	233.04
772.85	233.11
773.17	232.97
773.50	232.89
773.82	232.79
774.15	232.64
774.47	232.49
774.80	232.42
775.12	232.32
775.45	232.23
775.77	232.17
776.09	232.13
776.42	232.08
776.74	232.03
777.07	231.94
777.39	231.91
777.72	231.77
778.04	231.75
778.36	231.69
778.69	231.62
779.01	231.57
779.33	231.41
779.66	231.17
779.98	231.11
780.31	231.07
780.63	231.06
780.95	231.03
781.28	230.98
781.60	230.90
781.92	230.84
782.25	230.79
782.57	230.73
782.89	230.62
783.22	230.53
783.54	230.47
783.86	230.44
784.19	230.34
784.51	230.35
784.83	230.29
785.16	230.24
785.48	230.21
785.80	230.19
786.12	230.17
786.45	230.12
786.77	230.08
787.09	230.00
