SpectraSuite Data File
++++++++++++++++++++++++++++++++++++
Date: Fri Feb 01 16:41:54 EST 2013
User: group
Dark Spectrum Present: No
Reference Spectrum Present: No
Number of Sampled Component Spectra: 1
Spectrometers: USB2E7196
Integration Time (usec): 35000 (USB2E7196)
Spectra Averaged: 100 (USB2E7196)
Boxcar Smoothing: 10 (USB2E7196)
Correct for Electrical Dark: No (USB2E7196)
Strobe/Lamp Enabled: No (USB2E7196)
Correct for Detector Non-linearity: No (USB2E7196)
Correct for Stray Light: No (USB2E7196)
Number of Pixels in Processed Spectrum: 2048
>>>>>Begin Processed Spectral Data<<<<<
339.09	0.00
339.48	213.47
339.86	214.66
340.24	216.05
340.63	217.38
341.01	220.19
341.39	220.15
341.78	221.67
342.16	222.78
342.54	223.41
342.93	211.93
343.31	222.65
343.69	223.17
344.07	223.66
344.46	224.11
344.84	224.51
345.22	224.79
345.60	225.06
345.99	225.23
346.37	225.36
346.75	225.47
347.13	225.52
347.52	225.57
347.90	225.66
348.28	225.67
348.66	225.69
349.05	225.68
349.43	225.71
349.81	225.77
350.19	225.79
350.57	225.85
350.96	225.90
351.34	226.01
351.72	226.12
352.10	226.21
352.48	226.27
352.87	226.32
353.25	226.40
353.63	226.44
354.01	226.54
354.39	226.63
354.77	226.69
355.15	226.79
355.54	226.85
355.92	226.88
356.30	226.97
356.68	227.09
357.06	227.16
357.44	227.19
357.82	227.23
358.20	227.29
358.58	227.36
358.97	227.44
359.35	227.49
359.73	227.57
360.11	227.62
360.49	227.66
360.87	227.74
361.25	227.74
361.63	227.85
362.01	227.88
362.39	227.92
362.77	228.00
363.15	228.04
363.53	228.06
363.91	228.10
364.29	228.13
364.67	228.07
365.05	228.09
365.43	228.14
365.81	228.17
366.19	228.21
366.57	228.20
366.95	228.21
367.33	228.16
367.71	228.13
368.09	228.15
368.47	228.15
368.85	228.11
369.23	228.14
369.61	228.05
369.99	228.08
370.37	228.05
370.75	228.02
371.13	227.93
371.51	227.90
371.89	227.84
372.27	227.80
372.65	227.76
373.03	227.72
373.41	227.67
373.78	227.60
374.16	227.46
374.54	227.43
374.92	227.36
375.30	227.28
375.68	227.19
376.06	227.10
376.44	227.07
376.82	226.99
377.19	226.90
377.57	226.84
377.95	226.72
378.33	226.66
378.71	226.58
379.09	226.53
379.47	226.46
379.84	226.43
380.22	226.33
380.60	226.24
380.98	226.18
381.36	226.08
381.73	226.02
382.11	226.03
382.49	225.95
382.87	225.87
383.25	225.84
383.62	225.91
384.00	225.84
384.38	225.74
384.76	225.71
385.13	225.68
385.51	225.62
385.89	225.56
386.27	225.49
386.64	225.41
387.02	225.37
387.40	225.34
387.78	225.27
388.15	225.26
388.53	225.21
388.91	225.16
389.29	225.16
389.66	225.15
390.04	225.08
390.42	225.14
390.79	225.11
391.17	225.12
391.55	224.98
391.92	225.01
392.30	225.04
392.68	225.01
393.05	225.00
393.43	225.03
393.81	225.04
394.18	225.02
394.56	225.06
394.94	225.08
395.31	225.09
395.69	225.13
396.06	225.18
396.44	225.22
396.82	225.24
397.19	225.32
397.57	225.33
397.95	225.40
398.32	225.36
398.70	225.43
399.07	225.47
399.45	225.55
399.82	225.59
400.20	225.62
400.58	225.70
400.95	225.74
401.33	225.86
401.70	226.02
402.08	226.14
402.45	226.25
402.83	226.36
403.20	226.44
403.58	226.52
403.95	226.61
404.33	226.74
404.71	226.86
405.08	227.01
405.46	227.12
405.83	227.25
406.21	227.38
406.58	227.52
406.96	227.67
407.33	227.84
407.70	228.03
408.08	228.31
408.45	228.55
408.83	228.77
409.20	228.96
409.58	229.14
409.95	229.41
410.33	229.65
410.70	229.87
411.08	230.18
411.45	230.50
411.82	230.82
412.20	231.16
412.57	231.56
412.95	231.85
413.32	232.27
413.69	232.66
414.07	233.09
414.44	233.54
414.82	234.03
415.19	234.59
415.56	235.15
415.94	235.66
416.31	236.29
416.68	236.92
417.06	237.63
417.43	238.29
417.81	239.02
418.18	239.79
418.55	240.67
418.93	241.52
419.30	242.45
419.67	243.37
420.04	244.33
420.42	245.32
420.79	246.54
421.16	247.71
421.54	248.92
421.91	250.17
422.28	251.42
422.66	252.74
423.03	254.02
423.40	255.32
423.77	256.73
424.15	258.15
424.52	259.62
424.89	261.19
425.26	262.75
425.64	264.22
426.01	265.84
426.38	267.46
426.75	269.15
427.13	270.83
427.50	272.65
427.87	274.52
428.24	276.36
428.61	278.07
428.99	280.00
429.36	282.10
429.73	284.11
430.10	286.15
430.47	288.20
430.85	290.27
431.22	292.48
431.59	294.83
431.96	297.02
432.33	299.50
432.70	301.86
433.08	304.66
433.45	307.27
433.82	309.82
434.19	312.67
434.56	315.41
434.93	318.04
435.30	320.59
435.68	323.44
436.05	326.25
436.42	328.99
436.79	331.47
437.16	334.14
437.53	336.99
437.90	339.74
438.27	342.49
438.64	345.29
439.01	347.84
439.38	350.05
439.75	352.15
440.13	354.60
440.50	356.93
440.87	358.70
441.24	360.64
441.61	362.75
441.98	364.24
442.35	366.04
442.72	367.85
443.09	369.64
443.46	370.65
443.83	371.21
444.20	371.71
444.57	372.58
444.94	372.84
445.31	373.15
445.68	373.52
446.05	373.58
446.42	373.25
446.79	372.91
447.16	372.51
447.53	372.29
447.90	371.18
448.27	370.04
448.64	368.52
449.01	367.37
449.37	365.44
449.74	363.60
450.11	361.40
450.48	358.98
450.85	356.47
451.22	354.35
451.59	352.39
451.96	350.46
452.33	347.84
452.70	345.54
453.07	342.72
453.43	339.81
453.80	337.09
454.17	334.44
454.54	331.87
454.91	329.18
455.28	326.52
455.65	324.02
456.02	321.59
456.38	319.42
456.75	316.79
457.12	314.56
457.49	312.33
457.86	310.14
458.23	308.31
458.59	306.29
458.96	304.21
459.33	302.34
459.70	300.50
460.07	299.07
460.43	297.30
460.80	295.71
461.17	294.36
461.54	292.82
461.91	291.41
462.27	289.97
462.64	288.72
463.01	287.39
463.38	286.12
463.74	284.76
464.11	283.63
464.48	282.58
464.85	281.52
465.21	280.65
465.58	279.79
465.95	278.70
466.32	277.83
466.68	276.99
467.05	276.13
467.42	275.29
467.78	274.31
468.15	273.47
468.52	272.83
468.88	271.96
469.25	271.23
469.62	270.59
469.98	269.94
470.35	269.34
470.72	268.77
471.08	268.13
471.45	267.61
471.82	267.07
472.18	266.54
472.55	266.08
472.92	265.57
473.28	265.08
473.65	264.66
474.02	264.23
474.38	263.83
474.75	263.49
475.11	263.15
475.48	262.91
475.85	262.68
476.21	262.47
476.58	262.29
476.94	262.15
477.31	261.99
477.67	261.85
478.04	261.73
478.41	261.65
478.77	261.69
479.14	261.62
479.50	261.64
479.87	261.69
480.23	261.79
480.60	261.86
480.96	261.96
481.33	262.17
481.69	262.38
482.06	262.61
482.42	262.82
482.79	263.10
483.15	263.41
483.52	263.80
483.88	264.15
484.25	264.53
484.61	264.95
484.98	265.41
485.34	265.96
485.71	266.53
486.07	267.11
486.44	267.67
486.80	268.41
487.17	269.15
487.53	269.96
487.90	270.83
488.26	271.77
488.62	272.80
488.99	273.79
489.35	274.82
489.72	275.93
490.08	277.15
490.44	278.34
490.81	279.68
491.17	281.03
491.54	282.50
491.90	284.06
492.26	285.73
492.63	287.46
492.99	289.22
493.36	291.14
493.72	293.23
494.08	295.34
494.45	297.56
494.81	299.92
495.17	302.35
495.54	304.91
495.90	307.58
496.26	310.37
496.63	313.33
496.99	316.48
497.35	319.75
497.72	323.15
498.08	326.74
498.44	330.42
498.80	334.39
499.17	338.51
499.53	342.69
499.89	347.06
500.26	351.58
500.62	356.27
500.98	361.24
501.34	366.30
501.71	371.64
502.07	377.08
502.43	382.72
502.79	388.54
503.16	394.60
503.52	400.90
503.88	407.31
504.24	413.93
504.60	420.78
504.97	427.90
505.33	435.18
505.69	442.89
506.05	450.68
506.41	458.50
506.78	466.60
507.14	474.99
507.50	483.72
507.86	492.71
508.22	501.89
508.59	511.09
508.95	520.66
509.31	530.46
509.67	540.56
510.03	550.76
510.39	561.31
510.75	572.05
511.12	582.96
511.48	594.16
511.84	605.58
512.20	617.09
512.56	628.99
512.92	641.14
513.28	653.42
513.64	665.83
514.00	678.53
514.37	691.45
514.73	704.50
515.09	717.43
515.45	730.69
515.81	744.24
516.17	758.16
516.53	772.21
516.89	786.27
517.25	800.35
517.61	814.78
517.97	829.08
518.33	843.46
518.69	858.15
519.05	873.05
519.41	888.07
519.77	903.47
520.13	918.78
520.49	934.08
520.85	949.35
521.21	964.86
521.57	980.91
521.93	996.50
522.29	1012.70
522.65	1028.92
523.01	1044.97
523.37	1060.90
523.73	1076.89
524.09	1092.80
524.45	1108.90
524.81	1125.48
525.17	1142.18
525.53	1158.86
525.89	1175.59
526.25	1192.26
526.61	1208.65
526.97	1225.27
527.33	1241.60
527.68	1258.13
528.04	1274.50
528.40	1290.93
528.76	1307.82
529.12	1324.29
529.48	1341.01
529.84	1356.93
530.20	1373.33
530.56	1390.09
530.91	1407.32
531.27	1424.02
531.63	1440.44
531.99	1456.90
532.35	1472.70
532.71	1488.48
533.07	1504.70
533.42	1520.56
533.78	1536.52
534.14	1552.53
534.50	1567.77
534.86	1583.50
535.21	1598.43
535.57	1614.19
535.93	1629.43
536.29	1644.20
536.65	1659.11
537.00	1673.66
537.36	1688.79
537.72	1703.17
538.08	1717.50
538.44	1731.10
538.79	1744.86
539.15	1758.26
539.51	1771.91
539.87	1786.10
540.22	1799.53
540.58	1813.06
540.94	1825.93
541.29	1838.45
541.65	1850.90
542.01	1863.97
542.37	1876.28
542.72	1888.58
543.08	1900.24
543.44	1912.58
543.79	1923.78
544.15	1934.53
544.51	1946.15
544.87	1956.98
545.22	1967.82
545.58	1977.97
545.94	1987.81
546.29	1997.49
546.65	2007.28
547.01	2016.42
547.36	2025.07
547.72	2033.41
548.07	2041.43
548.43	2049.64
548.79	2057.51
549.14	2065.07
549.50	2072.23
549.86	2079.52
550.21	2086.77
550.57	2093.85
550.92	2100.34
551.28	2107.26
551.64	2114.38
551.99	2120.74
552.35	2126.84
552.70	2132.70
553.06	2138.70
553.41	2144.95
553.77	2150.85
554.13	2156.88
554.48	2162.88
554.84	2168.43
555.19	2173.56
555.55	2178.73
555.90	2183.35
556.26	2188.54
556.61	2193.31
556.97	2197.73
557.32	2202.07
557.68	2206.20
558.03	2210.38
558.39	2214.14
558.74	2218.83
559.10	2222.64
559.45	2226.36
559.81	2230.62
560.16	2234.51
560.52	2237.67
560.87	2240.88
561.23	2243.58
561.58	2246.39
561.94	2249.02
562.29	2251.08
562.64	2254.10
563.00	2256.46
563.35	2259.93
563.71	2262.83
564.06	2265.72
564.42	2268.60
564.77	2271.11
565.12	2273.54
565.48	2275.57
565.83	2277.50
566.19	2278.96
566.54	2279.79
566.89	2281.05
567.25	2281.85
567.60	2283.11
567.96	2284.80
568.31	2285.70
568.66	2286.91
569.02	2287.64
569.37	2288.23
569.72	2289.54
570.08	2289.75
570.43	2289.80
570.78	2289.37
571.14	2288.04
571.49	2286.88
571.84	2286.57
572.20	2285.74
572.55	2284.65
572.90	2283.03
573.26	2281.79
573.61	2279.79
573.96	2278.32
574.31	2275.27
574.67	2272.28
575.02	2268.78
575.37	2265.45
575.72	2261.93
576.08	2258.48
576.43	2254.99
576.78	2251.42
577.13	2248.06
577.49	2244.79
577.84	2241.63
578.19	2237.71
578.54	2234.18
578.90	2230.24
579.25	2224.90
579.60	2220.14
579.95	2215.42
580.30	2210.64
580.66	2205.50
581.01	2200.65
581.36	2195.80
581.71	2191.87
582.06	2187.71
582.42	2183.45
582.77	2178.37
583.12	2173.85
583.47	2169.45
583.82	2164.89
584.17	2159.46
584.53	2154.19
584.88	2148.77
585.23	2143.06
585.58	2137.78
585.93	2132.26
586.28	2127.37
586.63	2122.50
586.98	2117.17
587.34	2112.33
587.69	2107.40
588.04	2102.30
588.39	2096.84
588.74	2090.43
589.09	2084.32
589.44	2077.48
589.79	2071.38
590.14	2065.80
590.49	2059.35
590.84	2052.93
591.19	2047.01
591.54	2040.78
591.89	2033.53
592.25	2026.87
592.60	2019.61
592.95	2012.26
593.30	2005.10
593.65	1997.58
594.00	1990.38
594.35	1983.26
594.70	1975.30
595.05	1968.37
595.40	1961.04
595.75	1953.48
596.10	1947.49
596.45	1940.96
596.80	1934.97
597.15	1928.52
597.50	1921.74
597.85	1915.20
598.19	1908.71
598.54	1901.87
598.89	1895.38
599.24	1889.42
599.59	1882.90
599.94	1876.71
600.29	1870.41
600.64	1863.87
600.99	1856.63
601.34	1849.86
601.69	1842.83
602.04	1836.13
602.39	1828.83
602.74	1822.17
603.08	1815.65
603.43	1808.82
603.78	1801.41
604.13	1794.15
604.48	1787.02
604.83	1780.11
605.18	1773.53
605.53	1765.62
605.87	1757.44
606.22	1750.11
606.57	1742.18
606.92	1734.69
607.27	1727.70
607.62	1720.86
607.96	1713.78
608.31	1707.45
608.66	1700.00
609.01	1692.55
609.36	1684.97
609.70	1676.96
610.05	1668.96
610.40	1661.36
610.75	1653.13
611.10	1645.48
611.44	1637.04
611.79	1629.03
612.14	1620.44
612.49	1611.20
612.83	1602.82
613.18	1594.72
613.53	1586.79
613.88	1578.30
614.22	1570.07
614.57	1561.42
614.92	1553.45
615.27	1545.98
615.61	1537.63
615.96	1529.62
616.31	1521.97
616.65	1514.66
617.00	1507.19
617.35	1499.46
617.70	1491.21
618.04	1482.78
618.39	1474.58
618.74	1467.10
619.08	1458.73
619.43	1451.06
619.78	1444.11
620.12	1437.01
620.47	1429.51
620.82	1421.20
621.16	1413.73
621.51	1406.13
621.85	1398.56
622.20	1390.01
622.55	1381.58
622.89	1373.64
623.24	1365.94
623.59	1358.55
623.93	1351.10
624.28	1343.73
624.62	1336.33
624.97	1329.10
625.32	1322.29
625.66	1315.25
626.01	1308.10
626.35	1300.91
626.70	1293.14
627.04	1285.42
627.39	1277.61
627.73	1270.25
628.08	1263.37
628.43	1256.19
628.77	1248.98
629.12	1241.50
629.46	1234.40
629.81	1226.87
630.15	1219.67
630.50	1212.37
630.84	1204.30
631.19	1196.30
631.53	1188.82
631.88	1181.17
632.22	1173.62
632.57	1166.31
632.91	1158.76
633.26	1151.26
633.60	1143.63
633.95	1136.45
634.29	1129.39
634.64	1122.63
634.98	1115.24
635.32	1108.16
635.67	1101.56
636.01	1094.94
636.36	1088.20
636.70	1081.62
637.05	1075.17
637.39	1068.71
637.73	1062.18
638.08	1056.25
638.42	1050.21
638.77	1043.83
639.11	1037.36
639.45	1031.00
639.80	1024.31
640.14	1018.06
640.49	1011.63
640.83	1005.44
641.17	999.35
641.52	993.06
641.86	986.67
642.20	980.85
642.55	974.45
642.89	968.03
643.23	961.34
643.58	955.52
643.92	949.35
644.26	943.39
644.61	937.32
644.95	931.32
645.29	924.89
645.64	918.25
645.98	911.91
646.32	905.94
646.66	899.90
647.01	894.14
647.35	888.40
647.69	882.49
648.04	876.87
648.38	871.02
648.72	865.13
649.06	859.12
649.41	853.21
649.75	847.32
650.09	841.36
650.43	835.57
650.78	829.39
651.12	823.48
651.46	817.60
651.80	811.99
652.14	806.57
652.49	801.13
652.83	796.01
653.17	790.43
653.51	784.82
653.85	779.34
654.20	773.77
654.54	767.74
654.88	762.00
655.22	756.16
655.56	750.51
655.90	744.98
656.25	739.71
656.59	734.35
656.93	729.24
657.27	724.11
657.61	718.74
657.95	713.63
658.29	708.50
658.64	703.29
658.98	697.84
659.32	692.40
659.66	687.22
660.00	681.92
660.34	676.92
660.68	671.94
661.02	666.94
661.36	662.25
661.70	657.76
662.05	653.40
662.39	649.15
662.73	644.65
663.07	640.21
663.41	635.79
663.75	631.34
664.09	626.81
664.43	622.43
664.77	618.34
665.11	614.14
665.45	610.04
665.79	605.92
666.13	601.88
666.47	597.76
666.81	593.54
667.15	589.43
667.49	585.49
667.83	581.62
668.17	577.66
668.51	573.59
668.85	569.57
669.19	565.68
669.53	561.84
669.87	558.04
670.21	554.38
670.55	550.72
670.89	547.24
671.23	543.79
671.57	540.23
671.91	536.75
672.25	533.22
672.58	529.66
672.92	526.27
673.26	523.05
673.60	519.92
673.94	516.83
674.28	513.83
674.62	510.93
674.96	507.89
675.30	505.05
675.64	502.15
675.97	499.37
676.31	496.57
676.65	493.60
676.99	490.89
677.33	488.04
677.67	485.30
678.01	482.32
678.34	479.37
678.68	476.49
679.02	473.64
679.36	470.89
679.70	468.20
680.04	465.46
680.37	462.65
680.71	459.85
681.05	457.25
681.39	454.59
681.73	451.88
682.06	449.33
682.40	446.76
682.74	444.16
683.08	441.56
683.42	438.93
683.75	436.50
684.09	433.96
684.43	431.50
684.77	429.00
685.10	426.66
685.44	424.35
685.78	422.13
686.12	419.84
686.45	417.53
686.79	415.21
687.13	413.02
687.46	410.84
687.80	408.64
688.14	406.38
688.48	404.36
688.81	402.16
689.15	400.02
689.49	397.84
689.82	395.76
690.16	393.70
690.50	391.79
690.83	389.81
691.17	387.76
691.51	385.78
691.84	383.93
692.18	382.00
692.52	380.04
692.85	378.03
693.19	376.18
693.52	374.34
693.86	372.54
694.20	370.75
694.53	368.92
694.87	367.07
695.21	365.26
695.54	363.36
695.88	361.62
696.21	359.89
696.55	358.20
696.88	356.49
697.22	354.83
697.56	353.16
697.89	351.51
698.23	349.99
698.56	348.42
698.90	346.82
699.23	345.18
699.57	343.61
699.90	342.08
700.24	340.52
700.58	339.00
700.91	337.51
701.25	336.05
701.58	334.69
701.92	333.38
702.25	331.99
702.59	330.65
702.92	329.32
703.26	328.02
703.59	326.73
703.93	325.56
704.26	324.29
704.60	323.01
704.93	321.73
705.26	320.43
705.60	319.22
705.93	318.05
706.27	316.95
706.60	315.86
706.94	314.79
707.27	313.67
707.61	312.59
707.94	311.55
708.27	310.40
708.61	309.29
708.94	308.23
709.28	307.22
709.61	306.22
709.94	305.24
710.28	304.23
710.61	303.26
710.95	302.19
711.28	301.30
711.61	300.34
711.95	299.42
712.28	298.54
712.61	297.58
712.95	296.63
713.28	295.79
713.61	294.90
713.95	294.01
714.28	293.17
714.61	292.30
714.95	291.44
715.28	290.66
715.61	289.81
715.95	288.98
716.28	288.17
716.61	287.36
716.95	286.56
717.28	285.83
717.61	285.07
717.94	284.33
718.28	283.52
718.61	282.78
718.94	282.07
719.27	281.40
719.61	280.77
719.94	280.15
720.27	279.45
720.60	278.79
720.94	278.13
721.27	277.54
721.60	276.99
721.93	276.40
722.27	275.83
722.60	275.27
722.93	274.72
723.26	274.17
723.59	273.63
723.93	273.08
724.26	272.50
724.59	271.95
724.92	271.43
725.25	270.94
725.59	270.44
725.92	269.94
726.25	269.41
726.58	268.88
726.91	268.36
727.24	267.87
727.57	267.36
727.91	266.89
728.24	266.40
728.57	265.90
728.90	265.44
729.23	264.91
729.56	264.48
729.89	263.98
730.22	263.53
730.55	263.08
730.89	262.61
731.22	262.16
731.55	261.69
731.88	261.28
732.21	260.81
732.54	260.38
732.87	259.96
733.20	259.51
733.53	259.13
733.86	258.72
734.19	258.31
734.52	257.94
734.85	257.65
735.18	257.25
735.51	256.86
735.84	256.46
736.17	256.17
736.50	255.78
736.83	255.58
737.16	255.22
737.49	254.87
737.82	254.50
738.15	254.21
738.48	253.89
738.81	253.52
739.14	253.22
739.47	252.92
739.80	252.59
740.13	252.32
740.46	251.96
740.79	251.65
741.12	251.38
741.45	251.07
741.78	250.69
742.11	250.39
742.44	250.08
742.77	249.80
743.10	249.46
743.43	249.15
743.75	248.74
744.08	248.61
744.41	248.33
744.74	248.10
745.07	247.79
745.40	247.58
745.73	247.36
746.06	247.09
746.39	246.84
746.71	246.57
747.04	246.30
747.37	246.07
747.70	245.83
748.03	245.58
748.36	245.38
748.68	245.16
749.01	244.92
749.34	244.70
749.67	244.49
750.00	244.30
750.33	244.13
750.65	243.87
750.98	243.51
751.31	243.31
751.64	243.10
751.97	242.93
752.29	242.70
752.62	242.45
752.95	242.25
753.28	242.00
753.60	241.80
753.93	241.62
754.26	241.42
754.59	241.20
754.91	240.96
755.24	240.75
755.57	240.53
755.90	240.34
756.22	240.17
756.55	239.93
756.88	239.72
757.20	239.49
757.53	239.33
757.86	239.13
758.19	238.97
758.51	238.81
758.84	238.60
759.17	238.42
759.49	238.26
759.82	238.14
760.15	238.02
760.47	237.89
760.80	237.72
761.13	237.61
761.45	237.49
761.78	237.37
762.11	237.22
762.43	237.09
762.76	236.97
763.08	236.82
763.41	236.73
763.74	236.59
764.06	236.45
764.39	236.32
764.71	236.18
765.04	236.02
765.37	235.86
765.69	235.73
766.02	235.59
766.34	235.46
766.67	235.28
767.00	235.16
767.32	235.09
767.65	235.06
767.97	234.91
768.30	234.77
768.62	234.65
768.95	234.51
769.27	234.40
769.60	234.28
769.92	234.16
770.25	233.99
770.57	233.92
770.90	233.79
771.22	233.68
771.55	233.61
771.87	233.52
772.20	233.41
772.52	233.37
772.85	233.40
773.17	233.32
773.50	233.24
773.82	233.14
774.15	232.96
774.47	232.80
774.80	232.70
775.12	232.60
775.45	232.50
775.77	232.45
776.09	232.37
776.42	232.30
776.74	232.25
777.07	232.21
777.39	232.13
777.72	232.05
778.04	232.00
778.36	231.89
778.69	231.84
779.01	231.80
779.33	231.69
779.66	231.52
779.98	231.43
780.31	231.36
780.63	231.30
780.95	231.28
781.28	231.18
781.60	231.12
781.92	231.06
782.25	230.99
782.57	230.93
782.89	230.85
783.22	230.77
783.54	230.69
783.86	230.64
784.19	230.53
784.51	230.52
784.83	230.47
785.16	230.46
785.48	230.40
785.80	230.37
786.12	230.30
786.45	230.25
786.77	230.22
787.09	230.14
