SpectraSuite Data File
++++++++++++++++++++++++++++++++++++
Date: Fri Feb 01 16:31:54 EST 2013
User: group
Dark Spectrum Present: No
Reference Spectrum Present: No
Number of Sampled Component Spectra: 1
Spectrometers: USB2E7196
Integration Time (usec): 35000 (USB2E7196)
Spectra Averaged: 100 (USB2E7196)
Boxcar Smoothing: 10 (USB2E7196)
Correct for Electrical Dark: No (USB2E7196)
Strobe/Lamp Enabled: No (USB2E7196)
Correct for Detector Non-linearity: No (USB2E7196)
Correct for Stray Light: No (USB2E7196)
Number of Pixels in Processed Spectrum: 2048
>>>>>Begin Processed Spectral Data<<<<<
339.09	0.00
339.48	213.97
339.86	215.19
340.24	216.60
340.63	218.01
341.01	220.73
341.39	220.80
341.78	221.66
342.16	222.95
342.54	224.52
342.93	212.17
343.31	222.90
343.69	223.43
344.07	223.89
344.46	224.33
344.84	224.72
345.22	224.96
345.60	225.16
345.99	225.40
346.37	225.56
346.75	225.60
347.13	225.66
347.52	225.71
347.90	225.75
348.28	225.76
348.66	225.78
349.05	225.78
349.43	225.81
349.81	225.83
350.19	225.89
350.57	225.97
350.96	226.05
351.34	226.12
351.72	226.20
352.10	226.32
352.48	226.38
352.87	226.43
353.25	226.49
353.63	226.59
354.01	226.62
354.39	226.62
354.77	226.71
355.15	226.83
355.54	226.91
355.92	226.93
356.30	227.02
356.68	227.19
357.06	227.27
357.44	227.32
357.82	227.40
358.20	227.48
358.58	227.50
358.97	227.60
359.35	227.66
359.73	227.73
360.11	227.80
360.49	227.87
360.87	227.92
361.25	228.02
361.63	228.09
362.01	228.14
362.39	228.23
362.77	228.25
363.15	228.27
363.53	228.32
363.91	228.37
364.29	228.38
364.67	228.30
365.05	228.33
365.43	228.40
365.81	228.41
366.19	228.50
366.57	228.57
366.95	228.56
367.33	228.58
367.71	228.59
368.09	228.60
368.47	228.59
368.85	228.57
369.23	228.56
369.61	228.53
369.99	228.55
370.37	228.55
370.75	228.63
371.13	228.58
371.51	228.52
371.89	228.50
372.27	228.48
372.65	228.45
373.03	228.40
373.41	228.34
373.78	228.28
374.16	228.15
374.54	228.07
374.92	227.98
375.30	227.93
375.68	227.85
376.06	227.80
376.44	227.73
376.82	227.66
377.19	227.57
377.57	227.50
377.95	227.41
378.33	227.33
378.71	227.20
379.09	227.16
379.47	227.10
379.84	227.03
380.22	226.97
380.60	226.88
380.98	226.83
381.36	226.77
381.73	226.70
382.11	226.64
382.49	226.57
382.87	226.52
383.25	226.44
383.62	226.52
384.00	226.40
384.38	226.33
384.76	226.30
385.13	226.26
385.51	226.23
385.89	226.14
386.27	226.09
386.64	226.06
387.02	226.02
387.40	225.98
387.78	225.93
388.15	225.88
388.53	225.84
388.91	225.83
389.29	225.76
389.66	225.73
390.04	225.67
390.42	225.66
390.79	225.65
391.17	225.66
391.55	225.50
391.92	225.50
392.30	225.52
392.68	225.48
393.05	225.49
393.43	225.48
393.81	225.52
394.18	225.51
394.56	225.53
394.94	225.55
395.31	225.56
395.69	225.62
396.06	225.65
396.44	225.69
396.82	225.68
397.19	225.78
397.57	225.80
397.95	225.87
398.32	225.90
398.70	225.92
399.07	225.98
399.45	226.04
399.82	226.10
400.20	226.14
400.58	226.24
400.95	226.27
401.33	226.35
401.70	226.47
402.08	226.55
402.45	226.62
402.83	226.73
403.20	226.83
403.58	226.93
403.95	227.05
404.33	227.20
404.71	227.30
405.08	227.45
405.46	227.58
405.83	227.73
406.21	227.85
406.58	228.00
406.96	228.11
407.33	228.30
407.70	228.49
408.08	228.74
408.45	228.89
408.83	229.12
409.20	229.33
409.58	229.54
409.95	229.78
410.33	230.02
410.70	230.25
411.08	230.49
411.45	230.79
411.82	231.07
412.20	231.38
412.57	231.80
412.95	232.10
413.32	232.54
413.69	232.94
414.07	233.44
414.44	233.93
414.82	234.44
415.19	234.97
415.56	235.50
415.94	236.04
416.31	236.71
416.68	237.30
417.06	238.01
417.43	238.68
417.81	239.47
418.18	240.28
418.55	241.13
418.93	242.04
419.30	242.95
419.67	243.94
420.04	244.91
420.42	245.90
420.79	247.11
421.16	248.25
421.54	249.46
421.91	250.65
422.28	251.92
422.66	253.22
423.03	254.53
423.40	255.89
423.77	257.32
424.15	258.77
424.52	260.28
424.89	261.89
425.26	263.44
425.64	264.88
426.01	266.44
426.38	268.10
426.75	269.79
427.13	271.52
427.50	273.28
427.87	275.14
428.24	276.99
428.61	278.69
428.99	280.61
429.36	282.66
429.73	284.68
430.10	286.69
430.47	288.75
430.85	290.86
431.22	293.07
431.59	295.41
431.96	297.65
432.33	300.12
432.70	302.47
433.08	305.30
433.45	307.93
433.82	310.56
434.19	313.44
434.56	316.24
434.93	318.83
435.30	321.42
435.68	324.28
436.05	327.10
436.42	329.92
436.79	332.46
437.16	335.12
437.53	337.97
437.90	340.73
438.27	343.47
438.64	346.28
439.01	348.87
439.38	351.08
439.75	353.25
440.13	355.79
440.50	358.11
440.87	359.87
441.24	361.83
441.61	363.94
441.98	365.43
442.35	367.17
442.72	369.04
443.09	370.85
443.46	371.86
443.83	372.44
444.20	372.88
444.57	373.69
444.94	373.99
445.31	374.32
445.68	374.64
446.05	374.69
446.42	374.23
446.79	373.85
447.16	373.42
447.53	373.07
447.90	371.87
448.27	370.70
448.64	369.11
449.01	367.94
449.37	365.98
449.74	364.07
450.11	361.84
450.48	359.39
450.85	356.86
451.22	354.72
451.59	352.69
451.96	350.82
452.33	348.22
452.70	345.86
453.07	343.00
453.43	340.15
453.80	337.45
454.17	334.82
454.54	332.22
454.91	329.52
455.28	326.83
455.65	324.34
456.02	321.91
456.38	319.80
456.75	317.12
457.12	314.90
457.49	312.71
457.86	310.54
458.23	308.67
458.59	306.67
458.96	304.59
459.33	302.76
459.70	300.89
460.07	299.38
460.43	297.73
460.80	296.17
461.17	294.73
461.54	293.21
461.91	291.81
462.27	290.40
462.64	289.19
463.01	287.90
463.38	286.64
463.74	285.29
464.11	284.17
464.48	283.21
464.85	282.15
465.21	281.29
465.58	280.39
465.95	279.38
466.32	278.44
466.68	277.58
467.05	276.70
467.42	275.85
467.78	274.98
468.15	274.11
468.52	273.44
468.88	272.64
469.25	271.89
469.62	271.31
469.98	270.66
470.35	270.02
470.72	269.42
471.08	268.77
471.45	268.26
471.82	267.73
472.18	267.13
472.55	266.67
472.92	266.17
473.28	265.71
473.65	265.20
474.02	264.81
474.38	264.49
474.75	264.16
475.11	263.81
475.48	263.53
475.85	263.29
476.21	263.07
476.58	262.90
476.94	262.81
477.31	262.64
477.67	262.51
478.04	262.45
478.41	262.40
478.77	262.45
479.14	262.41
479.50	262.46
479.87	262.53
480.23	262.61
480.60	262.70
480.96	262.83
481.33	263.07
481.69	263.29
482.06	263.43
482.42	263.66
482.79	263.91
483.15	264.25
483.52	264.63
483.88	265.02
484.25	265.40
484.61	265.79
484.98	266.24
485.34	266.81
485.71	267.37
486.07	268.02
486.44	268.60
486.80	269.27
487.17	269.98
487.53	270.80
487.90	271.66
488.26	272.58
488.62	273.56
488.99	274.55
489.35	275.58
489.72	276.73
490.08	277.96
490.44	279.22
490.81	280.53
491.17	281.86
491.54	283.30
491.90	284.83
492.26	286.48
492.63	288.23
492.99	290.00
493.36	291.86
493.72	293.82
494.08	295.90
494.45	298.17
494.81	300.50
495.17	302.94
495.54	305.55
495.90	308.22
496.26	311.05
496.63	313.98
496.99	317.10
497.35	320.34
497.72	323.71
498.08	327.19
498.44	330.85
498.80	334.80
499.17	338.86
499.53	343.03
499.89	347.37
500.26	351.86
500.62	356.54
500.98	361.55
501.34	366.65
501.71	371.99
502.07	377.44
502.43	383.10
502.79	388.91
503.16	394.92
503.52	401.19
503.88	407.59
504.24	414.26
504.60	421.17
504.97	428.31
505.33	435.67
505.69	443.38
506.05	451.16
506.41	459.01
506.78	467.20
507.14	475.72
507.50	484.52
507.86	493.58
508.22	502.76
508.59	511.92
508.95	521.45
509.31	531.28
509.67	541.41
510.03	551.71
510.39	562.19
510.75	573.01
511.12	583.95
511.48	595.17
511.84	606.58
512.20	618.10
512.56	629.98
512.92	642.19
513.28	654.52
513.64	667.02
514.00	679.70
514.37	692.61
514.73	705.60
515.09	718.61
515.45	731.82
515.81	745.43
516.17	759.50
516.53	773.70
516.89	787.78
517.25	801.92
517.61	816.30
517.97	830.89
518.33	845.27
518.69	860.00
519.05	875.03
519.41	890.18
519.77	905.72
520.13	921.13
520.49	936.40
520.85	951.87
521.21	967.55
521.57	983.74
521.93	999.35
522.29	1015.69
522.65	1031.79
523.01	1047.93
523.37	1063.87
523.73	1079.87
524.09	1095.90
524.45	1112.23
524.81	1128.80
525.17	1145.55
525.53	1162.35
525.89	1179.21
526.25	1195.92
526.61	1212.17
526.97	1228.77
527.33	1245.10
527.68	1261.73
528.04	1278.07
528.40	1294.48
528.76	1311.39
529.12	1327.91
529.48	1344.78
529.84	1360.62
530.20	1377.19
530.56	1394.17
530.91	1411.53
531.27	1428.09
531.63	1444.48
531.99	1460.88
532.35	1476.70
532.71	1492.50
533.07	1508.53
533.42	1524.31
533.78	1540.23
534.14	1556.51
534.50	1571.85
534.86	1587.57
535.21	1602.51
535.57	1618.37
535.93	1633.71
536.29	1648.45
536.65	1663.36
537.00	1677.91
537.36	1693.30
537.72	1707.73
538.08	1721.93
538.44	1735.57
538.79	1749.43
539.15	1762.95
539.51	1776.50
539.87	1790.71
540.22	1804.28
540.58	1817.97
540.94	1831.20
541.29	1844.05
541.65	1856.57
542.01	1869.51
542.37	1881.74
542.72	1894.07
543.08	1905.84
543.44	1918.02
543.79	1929.10
544.15	1940.09
544.51	1951.73
544.87	1962.33
545.22	1973.15
545.58	1983.37
545.94	1993.14
546.29	2002.99
546.65	2012.70
547.01	2021.94
547.36	2030.47
547.72	2038.83
548.07	2046.41
548.43	2054.49
548.79	2062.43
549.14	2069.87
549.50	2077.24
549.86	2084.82
550.21	2092.13
550.57	2099.19
550.92	2105.84
551.28	2112.78
551.64	2119.76
551.99	2126.12
552.35	2132.37
552.70	2138.37
553.06	2144.28
553.41	2150.50
553.77	2156.39
554.13	2162.48
554.48	2168.57
554.84	2174.20
555.19	2179.51
555.55	2184.78
555.90	2189.17
556.26	2194.05
556.61	2198.70
556.97	2202.94
557.32	2207.16
557.68	2211.27
558.03	2215.66
558.39	2219.31
558.74	2224.14
559.10	2227.93
559.45	2231.62
559.81	2235.96
560.16	2239.83
560.52	2243.13
560.87	2246.54
561.23	2249.26
561.58	2252.15
561.94	2254.83
562.29	2257.16
562.64	2259.92
563.00	2262.55
563.35	2266.10
563.71	2269.16
564.06	2272.40
564.42	2275.41
564.77	2277.89
565.12	2280.10
565.48	2281.93
565.83	2283.89
566.19	2285.16
566.54	2286.25
566.89	2287.43
567.25	2288.08
567.60	2289.43
567.96	2291.25
568.31	2292.26
568.66	2293.51
569.02	2294.14
569.37	2294.47
569.72	2295.42
570.08	2295.54
570.43	2295.74
570.78	2295.23
571.14	2293.76
571.49	2292.59
571.84	2292.30
572.20	2291.23
572.55	2290.37
572.90	2288.85
573.26	2287.55
573.61	2285.83
573.96	2284.11
574.31	2281.17
574.67	2278.20
575.02	2274.76
575.37	2271.30
575.72	2267.44
576.08	2264.06
576.43	2261.02
576.78	2257.40
577.13	2254.20
577.49	2251.27
577.84	2247.89
578.19	2244.35
578.54	2240.84
578.90	2236.61
579.25	2231.18
579.60	2226.38
579.95	2221.49
580.30	2216.62
580.66	2211.49
581.01	2206.68
581.36	2201.75
581.71	2197.72
582.06	2193.45
582.42	2188.82
582.77	2183.68
583.12	2179.25
583.47	2174.62
583.82	2169.61
584.17	2164.29
584.53	2158.91
584.88	2153.39
585.23	2147.54
585.58	2142.04
585.93	2136.75
586.28	2132.07
586.63	2127.03
586.98	2122.03
587.34	2117.23
587.69	2112.24
588.04	2107.07
588.39	2101.42
588.74	2095.01
589.09	2088.93
589.44	2082.12
589.79	2076.22
590.14	2070.77
590.49	2064.27
590.84	2057.97
591.19	2051.98
591.54	2045.84
591.89	2038.52
592.25	2031.62
592.60	2024.58
592.95	2017.02
593.30	2009.63
593.65	2002.05
594.00	1995.05
594.35	1987.74
594.70	1979.80
595.05	1972.82
595.40	1965.61
595.75	1958.21
596.10	1952.14
596.45	1945.49
596.80	1939.27
597.15	1932.77
597.50	1925.52
597.85	1919.09
598.19	1912.46
598.54	1905.29
598.89	1898.50
599.24	1892.72
599.59	1886.16
599.94	1880.01
600.29	1873.74
600.64	1867.19
600.99	1859.79
601.34	1853.06
601.69	1846.25
602.04	1839.44
602.39	1832.00
602.74	1825.10
603.08	1818.41
603.43	1811.70
603.78	1804.35
604.13	1797.24
604.48	1789.96
604.83	1783.14
605.18	1776.13
605.53	1768.15
605.87	1760.22
606.22	1753.13
606.57	1745.09
606.92	1737.79
607.27	1730.67
607.62	1723.88
607.96	1716.75
608.31	1710.31
608.66	1702.58
609.01	1695.07
609.36	1687.57
609.70	1679.68
610.05	1671.74
610.40	1664.09
610.75	1655.76
611.10	1648.11
611.44	1639.73
611.79	1631.74
612.14	1623.19
612.49	1614.15
612.83	1605.88
613.18	1597.79
613.53	1589.60
613.88	1581.16
614.22	1572.87
614.57	1564.13
614.92	1555.91
615.27	1548.29
615.61	1539.82
615.96	1531.86
616.31	1524.17
616.65	1516.86
617.00	1509.33
617.35	1501.75
617.70	1493.43
618.04	1484.88
618.39	1476.64
618.74	1469.04
619.08	1460.73
619.43	1453.06
619.78	1446.13
620.12	1438.95
620.47	1431.40
620.82	1423.29
621.16	1415.86
621.51	1408.31
621.85	1400.68
622.20	1392.28
622.55	1383.93
622.89	1376.17
623.24	1368.58
623.59	1361.16
623.93	1353.57
624.28	1346.29
624.62	1338.65
624.97	1331.39
625.32	1324.69
625.66	1317.70
626.01	1310.51
626.35	1303.09
626.70	1295.32
627.04	1287.54
627.39	1279.73
627.73	1272.32
628.08	1265.43
628.43	1258.18
628.77	1250.74
629.12	1243.26
629.46	1236.02
629.81	1228.59
630.15	1221.29
630.50	1213.80
630.84	1205.52
631.19	1197.63
631.53	1189.99
631.88	1182.44
632.22	1174.80
632.57	1167.39
632.91	1159.81
633.26	1152.37
633.60	1144.86
633.95	1137.79
634.29	1130.78
634.64	1124.17
634.98	1116.81
635.32	1109.58
635.67	1102.88
636.01	1096.23
636.36	1089.36
636.70	1082.84
637.05	1076.20
637.39	1069.73
637.73	1063.23
638.08	1057.42
638.42	1051.42
638.77	1045.09
639.11	1038.53
639.45	1032.13
639.80	1025.49
640.14	1019.13
640.49	1012.63
640.83	1006.39
641.17	1000.16
641.52	993.79
641.86	987.16
642.20	981.32
642.55	975.04
642.89	968.56
643.23	962.02
643.58	956.26
643.92	950.10
644.26	943.97
644.61	937.99
644.95	931.91
645.29	925.31
645.64	918.53
645.98	912.16
646.32	906.31
646.66	900.35
647.01	894.57
647.35	888.72
647.69	882.92
648.04	877.43
648.38	871.55
648.72	865.54
649.06	859.58
649.41	853.65
649.75	847.68
650.09	841.79
650.43	836.03
650.78	829.88
651.12	823.95
651.46	818.33
651.80	812.54
652.14	807.20
652.49	801.84
652.83	796.73
653.17	791.03
653.51	785.37
653.85	780.03
654.20	774.41
654.54	768.55
654.88	762.71
655.22	756.80
655.56	751.23
655.90	745.85
656.25	740.64
656.59	735.31
656.93	730.23
657.27	725.03
657.61	719.59
657.95	714.49
658.29	709.42
658.64	704.20
658.98	698.92
659.32	693.50
659.66	688.38
660.00	683.06
660.34	678.11
660.68	673.17
661.02	668.13
661.36	663.44
661.70	658.93
662.05	654.67
662.39	650.35
662.73	645.89
663.07	641.51
663.41	637.01
663.75	632.47
664.09	627.89
664.43	623.53
664.77	619.43
665.11	615.15
665.45	611.03
665.79	606.91
666.13	602.78
666.47	598.71
666.81	594.51
667.15	590.34
667.49	586.36
667.83	582.56
668.17	578.54
668.51	574.41
668.85	570.37
669.19	566.49
669.53	562.70
669.87	558.76
670.21	555.04
670.55	551.38
670.89	548.01
671.23	544.58
671.57	541.03
671.91	537.41
672.25	533.93
672.58	530.38
672.92	526.96
673.26	523.77
673.60	520.58
673.94	517.46
674.28	514.59
674.62	511.68
674.96	508.50
675.30	505.63
675.64	502.71
675.97	499.95
676.31	497.08
676.65	494.12
676.99	491.43
677.33	488.55
677.67	485.74
678.01	482.66
678.34	479.66
678.68	476.79
679.02	474.07
679.36	471.32
679.70	468.63
680.04	465.90
680.37	463.02
680.71	460.23
681.05	457.58
681.39	454.80
681.73	452.17
682.06	449.62
682.40	447.06
682.74	444.53
683.08	441.92
683.42	439.28
683.75	436.75
684.09	434.18
684.43	431.69
684.77	429.21
685.10	426.84
685.44	424.55
685.78	422.26
686.12	419.95
686.45	417.62
686.79	415.22
687.13	412.98
687.46	410.82
687.80	408.68
688.14	406.44
688.48	404.40
688.81	402.16
689.15	400.00
689.49	397.84
689.82	395.76
690.16	393.69
690.50	391.74
690.83	389.84
691.17	387.87
691.51	385.96
691.84	384.10
692.18	382.18
692.52	380.20
692.85	378.23
693.19	376.36
693.52	374.54
693.86	372.78
694.20	370.97
694.53	369.15
694.87	367.27
695.21	365.48
695.54	363.64
695.88	361.90
696.21	360.14
696.55	358.43
696.88	356.71
697.22	355.07
697.56	353.47
697.89	351.78
698.23	350.20
698.56	348.61
698.90	347.06
699.23	345.41
699.57	343.91
699.90	342.40
700.24	340.85
700.58	339.32
700.91	337.84
701.25	336.41
701.58	335.04
701.92	333.65
702.25	332.28
702.59	330.93
702.92	329.61
703.26	328.39
703.59	327.10
703.93	325.94
704.26	324.67
704.60	323.35
704.93	322.10
705.26	320.80
705.60	319.60
705.93	318.40
706.27	317.37
706.60	316.28
706.94	315.19
707.27	314.09
707.61	313.04
707.94	312.02
708.27	310.93
708.61	309.90
708.94	308.91
709.28	307.94
709.61	306.95
709.94	306.04
710.28	305.01
710.61	304.08
710.95	303.02
711.28	302.12
711.61	301.19
711.95	300.29
712.28	299.39
712.61	298.45
712.95	297.56
713.28	296.67
713.61	295.80
713.95	294.94
714.28	294.08
714.61	293.22
714.95	292.35
715.28	291.55
715.61	290.63
715.95	289.76
716.28	288.89
716.61	288.07
716.95	287.21
717.28	286.43
717.61	285.65
717.94	284.89
718.28	284.11
718.61	283.38
718.94	282.67
719.27	282.00
719.61	281.35
719.94	280.67
720.27	279.94
720.60	279.25
720.94	278.60
721.27	277.98
721.60	277.35
721.93	276.73
722.27	276.16
722.60	275.64
722.93	275.09
723.26	274.53
723.59	273.98
723.93	273.44
724.26	272.89
724.59	272.29
724.92	271.73
725.25	271.18
725.59	270.64
725.92	270.12
726.25	269.61
726.58	269.09
726.91	268.57
727.24	268.10
727.57	267.62
727.91	267.09
728.24	266.65
728.57	266.13
728.90	265.66
729.23	265.16
729.56	264.69
729.89	264.18
730.22	263.71
730.55	263.23
730.89	262.76
731.22	262.32
731.55	261.90
731.88	261.51
732.21	261.08
732.54	260.64
732.87	260.21
733.20	259.79
733.53	259.39
733.86	259.04
734.19	258.62
734.52	258.25
734.85	257.95
735.18	257.52
735.51	257.21
735.84	256.87
736.17	256.50
736.50	256.06
736.83	255.85
737.16	255.52
737.49	255.23
737.82	254.87
738.15	254.53
738.48	254.20
738.81	253.88
739.14	253.56
739.47	253.26
739.80	252.94
740.13	252.64
740.46	252.34
740.79	251.99
741.12	251.72
741.45	251.42
741.78	251.11
742.11	250.84
742.44	250.53
742.77	250.29
743.10	250.01
743.43	249.78
743.75	249.42
744.08	249.27
744.41	248.98
744.74	248.75
745.07	248.47
745.40	248.26
745.73	248.04
746.06	247.82
746.39	247.57
746.71	247.30
747.04	247.05
747.37	246.77
747.70	246.51
748.03	246.30
748.36	246.07
748.68	245.84
749.01	245.58
749.34	245.35
749.67	245.08
750.00	244.88
750.33	244.75
750.65	244.52
750.98	244.19
751.31	243.98
751.64	243.79
751.97	243.66
752.29	243.45
752.62	243.21
752.95	242.99
753.28	242.76
753.60	242.57
753.93	242.41
754.26	242.23
754.59	242.05
754.91	241.79
755.24	241.60
755.57	241.37
755.90	241.19
756.22	240.96
756.55	240.75
756.88	240.49
757.20	240.23
757.53	239.98
757.86	239.80
758.19	239.64
758.51	239.44
758.84	239.21
759.17	239.00
759.49	238.80
759.82	238.68
760.15	238.55
760.47	238.39
760.80	238.18
761.13	238.05
761.45	237.85
761.78	237.73
762.11	237.57
762.43	237.40
762.76	237.22
763.08	237.09
763.41	236.97
763.74	236.83
764.06	236.69
764.39	236.61
764.71	236.45
765.04	236.29
765.37	236.15
765.69	236.01
766.02	235.87
766.34	235.75
766.67	235.52
767.00	235.39
767.32	235.30
767.65	235.24
767.97	235.10
768.30	235.00
768.62	234.88
768.95	234.75
769.27	234.63
769.60	234.58
769.92	234.44
770.25	234.32
770.57	234.21
770.90	234.06
771.22	233.93
771.55	233.81
771.87	233.71
772.20	233.61
772.52	233.59
772.85	233.61
773.17	233.53
773.50	233.46
773.82	233.39
774.15	233.23
774.47	233.05
774.80	232.95
775.12	232.85
775.45	232.75
775.77	232.67
776.09	232.61
776.42	232.51
776.74	232.47
777.07	232.38
777.39	232.35
777.72	232.28
778.04	232.23
778.36	232.18
778.69	232.14
779.01	232.06
779.33	231.92
779.66	231.75
779.98	231.67
780.31	231.62
780.63	231.60
780.95	231.58
781.28	231.58
781.60	231.53
781.92	231.47
782.25	231.43
782.57	231.40
782.89	231.35
783.22	231.30
783.54	231.22
783.86	231.18
784.19	231.11
784.51	231.12
784.83	231.06
785.16	231.00
785.48	230.96
785.80	230.92
786.12	230.88
786.45	230.85
786.77	230.82
787.09	230.78
