SpectraSuite Data File
++++++++++++++++++++++++++++++++++++
Date: Fri Feb 01 15:53:29 EST 2013
User: group
Dark Spectrum Present: No
Reference Spectrum Present: No
Number of Sampled Component Spectra: 1
Spectrometers: USB2E7196
Integration Time (usec): 35000 (USB2E7196)
Spectra Averaged: 100 (USB2E7196)
Boxcar Smoothing: 10 (USB2E7196)
Correct for Electrical Dark: No (USB2E7196)
Strobe/Lamp Enabled: No (USB2E7196)
Correct for Detector Non-linearity: No (USB2E7196)
Correct for Stray Light: No (USB2E7196)
Number of Pixels in Processed Spectrum: 2048
>>>>>Begin Processed Spectral Data<<<<<
339.09	0.00
339.48	214.66
339.86	216.35
340.24	217.62
340.63	218.69
341.01	221.11
341.39	221.60
341.78	222.92
342.16	224.32
342.54	224.60
342.93	212.96
343.31	223.73
343.69	224.26
344.07	224.71
344.46	225.09
344.84	225.48
345.22	225.72
345.60	225.97
345.99	226.15
346.37	226.25
346.75	226.33
347.13	226.41
347.52	226.46
347.90	226.51
348.28	226.56
348.66	226.62
349.05	226.62
349.43	226.65
349.81	226.65
350.19	226.73
350.57	226.80
350.96	226.85
351.34	226.92
351.72	227.03
352.10	227.12
352.48	227.25
352.87	227.31
353.25	227.43
353.63	227.50
354.01	227.55
354.39	227.65
354.77	227.76
355.15	227.85
355.54	227.95
355.92	228.01
356.30	228.11
356.68	228.26
357.06	228.34
357.44	228.41
357.82	228.52
358.20	228.60
358.58	228.63
358.97	228.73
359.35	228.82
359.73	228.90
360.11	228.95
360.49	229.01
360.87	229.07
361.25	229.12
361.63	229.20
362.01	229.26
362.39	229.29
362.77	229.34
363.15	229.39
363.53	229.42
363.91	229.44
364.29	229.43
364.67	229.34
365.05	229.37
365.43	229.39
365.81	229.38
366.19	229.39
366.57	229.44
366.95	229.41
367.33	229.39
367.71	229.34
368.09	229.32
368.47	229.31
368.85	229.28
369.23	229.24
369.61	229.20
369.99	229.21
370.37	229.21
370.75	229.22
371.13	229.13
371.51	229.06
371.89	229.00
372.27	228.96
372.65	228.92
373.03	228.87
373.41	228.80
373.78	228.76
374.16	228.67
374.54	228.60
374.92	228.55
375.30	228.47
375.68	228.42
376.06	228.39
376.44	228.28
376.82	228.18
377.19	228.14
377.57	228.03
377.95	227.90
378.33	227.80
378.71	227.66
379.09	227.62
379.47	227.60
379.84	227.55
380.22	227.51
380.60	227.39
380.98	227.32
381.36	227.26
381.73	227.19
382.11	227.14
382.49	227.09
382.87	227.00
383.25	226.95
383.62	227.00
384.00	226.91
384.38	226.87
384.76	226.88
385.13	226.85
385.51	226.78
385.89	226.74
386.27	226.72
386.64	226.71
387.02	226.64
387.40	226.55
387.78	226.49
388.15	226.44
388.53	226.42
388.91	226.41
389.29	226.37
389.66	226.34
390.04	226.32
390.42	226.29
390.79	226.31
391.17	226.31
391.55	226.18
391.92	226.18
392.30	226.17
392.68	226.15
393.05	226.11
393.43	226.15
393.81	226.16
394.18	226.13
394.56	226.13
394.94	226.16
395.31	226.21
395.69	226.26
396.06	226.29
396.44	226.31
396.82	226.33
397.19	226.43
397.57	226.46
397.95	226.48
398.32	226.48
398.70	226.50
399.07	226.54
399.45	226.57
399.82	226.63
400.20	226.68
400.58	226.74
400.95	226.79
401.33	226.90
401.70	227.03
402.08	227.14
402.45	227.21
402.83	227.33
403.20	227.42
403.58	227.51
403.95	227.64
404.33	227.81
404.71	227.92
405.08	228.10
405.46	228.25
405.83	228.42
406.21	228.58
406.58	228.76
406.96	228.95
407.33	229.15
407.70	229.34
408.08	229.59
408.45	229.80
408.83	230.06
409.20	230.27
409.58	230.45
409.95	230.71
410.33	231.03
410.70	231.27
411.08	231.56
411.45	231.86
411.82	232.16
412.20	232.49
412.57	232.91
412.95	233.18
413.32	233.62
413.69	234.02
414.07	234.47
414.44	234.94
414.82	235.42
415.19	236.00
415.56	236.53
415.94	237.14
416.31	237.80
416.68	238.42
417.06	239.14
417.43	239.81
417.81	240.58
418.18	241.31
418.55	242.17
418.93	243.06
419.30	243.99
419.67	244.93
420.04	245.89
420.42	246.88
420.79	248.06
421.16	249.19
421.54	250.43
421.91	251.67
422.28	252.91
422.66	254.22
423.03	255.51
423.40	256.87
423.77	258.25
424.15	259.63
424.52	261.16
424.89	262.78
425.26	264.35
425.64	265.81
426.01	267.43
426.38	269.09
426.75	270.72
427.13	272.41
427.50	274.23
427.87	276.09
428.24	277.97
428.61	279.72
428.99	281.63
429.36	283.65
429.73	285.71
430.10	287.73
430.47	289.81
430.85	291.95
431.22	294.18
431.59	296.56
431.96	298.83
432.33	301.27
432.70	303.60
433.08	306.40
433.45	309.07
433.82	311.67
434.19	314.54
434.56	317.34
434.93	319.97
435.30	322.56
435.68	325.45
436.05	328.25
436.42	331.01
436.79	333.51
437.16	336.25
437.53	339.04
437.90	341.86
438.27	344.56
438.64	347.36
439.01	349.96
439.38	352.16
439.75	354.32
440.13	356.83
440.50	359.19
440.87	361.02
441.24	362.93
441.61	365.09
441.98	366.59
442.35	368.38
442.72	370.24
443.09	372.04
443.46	373.03
443.83	373.60
444.20	374.13
444.57	375.01
444.94	375.27
445.31	375.60
445.68	375.89
446.05	375.99
446.42	375.65
446.79	375.22
447.16	374.80
447.53	374.47
447.90	373.24
448.27	372.07
448.64	370.47
449.01	369.34
449.37	367.34
449.74	365.41
450.11	363.16
450.48	360.72
450.85	358.19
451.22	356.06
451.59	354.07
451.96	352.16
452.33	349.55
452.70	347.21
453.07	344.39
453.43	341.54
453.80	338.74
454.17	336.05
454.54	333.52
454.91	330.79
455.28	328.11
455.65	325.67
456.02	323.21
456.38	321.10
456.75	318.42
457.12	316.18
457.49	313.96
457.86	311.86
458.23	309.98
458.59	307.95
458.96	305.85
459.33	304.04
459.70	302.18
460.07	300.71
460.43	298.99
460.80	297.41
461.17	295.98
461.54	294.51
461.91	293.09
462.27	291.62
462.64	290.37
463.01	289.05
463.38	287.81
463.74	286.46
464.11	285.30
464.48	284.33
464.85	283.25
465.21	282.43
465.58	281.48
465.95	280.39
466.32	279.49
466.68	278.62
467.05	277.68
467.42	276.79
467.78	275.83
468.15	274.98
468.52	274.30
468.88	273.45
469.25	272.68
469.62	272.06
469.98	271.41
470.35	270.80
470.72	270.23
471.08	269.57
471.45	269.01
471.82	268.48
472.18	267.87
472.55	267.44
472.92	266.91
473.28	266.48
473.65	266.04
474.02	265.61
474.38	265.20
474.75	264.88
475.11	264.54
475.48	264.25
475.85	264.02
476.21	263.79
476.58	263.60
476.94	263.47
477.31	263.29
477.67	263.16
478.04	263.09
478.41	263.01
478.77	263.03
479.14	263.01
479.50	263.00
479.87	263.06
480.23	263.16
480.60	263.23
480.96	263.27
481.33	263.52
481.69	263.73
482.06	263.95
482.42	264.18
482.79	264.42
483.15	264.75
483.52	265.14
483.88	265.47
484.25	265.88
484.61	266.30
484.98	266.74
485.34	267.29
485.71	267.86
486.07	268.44
486.44	269.01
486.80	269.67
487.17	270.41
487.53	271.20
487.90	272.01
488.26	272.93
488.62	273.93
488.99	274.88
489.35	275.90
489.72	277.04
490.08	278.21
490.44	279.48
490.81	280.80
491.17	282.16
491.54	283.67
491.90	285.19
492.26	286.85
492.63	288.59
492.99	290.38
493.36	292.29
493.72	294.35
494.08	296.47
494.45	298.74
494.81	301.10
495.17	303.52
495.54	306.10
495.90	308.80
496.26	311.62
496.63	314.62
496.99	317.78
497.35	321.00
497.72	324.41
498.08	327.89
498.44	331.59
498.80	335.47
499.17	339.47
499.53	343.67
499.89	348.09
500.26	352.62
500.62	357.29
500.98	362.26
501.34	367.33
501.71	372.65
502.07	378.10
502.43	383.79
502.79	389.63
503.16	395.74
503.52	402.02
503.88	408.43
504.24	415.01
504.60	421.90
504.97	429.08
505.33	436.39
505.69	444.14
506.05	451.93
506.41	459.81
506.78	468.05
507.14	476.43
507.50	485.14
507.86	494.13
508.22	503.32
508.59	512.43
508.95	522.02
509.31	531.83
509.67	541.87
510.03	552.11
510.39	562.68
510.75	573.42
511.12	584.22
511.48	595.51
511.84	606.96
512.20	618.48
512.56	630.32
512.92	642.55
513.28	654.88
513.64	667.35
514.00	680.05
514.37	692.97
514.73	706.08
515.09	719.16
515.45	732.50
515.81	746.19
516.17	760.21
516.53	774.39
516.89	788.60
517.25	802.83
517.61	817.27
517.97	831.74
518.33	846.24
518.69	861.13
519.05	876.10
519.41	891.22
519.77	906.73
520.13	922.28
520.49	937.65
520.85	953.03
521.21	968.70
521.57	984.94
521.93	1000.61
522.29	1016.99
522.65	1033.18
523.01	1049.39
523.37	1065.38
523.73	1081.56
524.09	1097.62
524.45	1113.86
524.81	1130.43
525.17	1147.19
525.53	1164.12
525.89	1181.02
526.25	1197.85
526.61	1214.25
526.97	1231.07
527.33	1247.57
527.68	1264.14
528.04	1280.61
528.40	1297.25
528.76	1314.35
529.12	1330.94
529.48	1347.95
529.84	1363.90
530.20	1380.46
530.56	1397.46
530.91	1414.78
531.27	1431.53
531.63	1447.96
531.99	1464.48
532.35	1480.50
532.71	1496.47
533.07	1512.62
533.42	1528.40
533.78	1544.37
534.14	1560.58
534.50	1575.87
534.86	1591.66
535.21	1606.74
535.57	1622.60
535.93	1637.97
536.29	1652.72
536.65	1667.78
537.00	1682.42
537.36	1697.81
537.72	1712.24
538.08	1726.57
538.44	1740.37
538.79	1754.17
539.15	1767.80
539.51	1781.62
539.87	1795.94
540.22	1809.47
540.58	1823.21
540.94	1836.52
541.29	1849.38
541.65	1862.05
542.01	1875.20
542.37	1887.55
542.72	1899.93
543.08	1911.65
543.44	1924.18
543.79	1935.31
544.15	1946.31
544.51	1957.94
544.87	1968.87
545.22	1979.67
545.58	1989.91
545.94	1999.57
546.29	2009.44
546.65	2019.41
547.01	2028.62
547.36	2037.30
547.72	2045.85
548.07	2053.71
548.43	2061.96
548.79	2070.07
549.14	2077.75
549.50	2085.03
549.86	2092.61
550.21	2100.00
550.57	2107.09
550.92	2113.52
551.28	2120.64
551.64	2127.61
551.99	2134.01
552.35	2140.12
552.70	2146.37
553.06	2152.36
553.41	2158.77
553.77	2164.69
554.13	2170.56
554.48	2176.69
554.84	2182.16
555.19	2187.51
555.55	2192.65
555.90	2197.03
556.26	2201.90
556.61	2206.66
556.97	2210.97
557.32	2215.09
557.68	2219.32
558.03	2223.75
558.39	2227.51
558.74	2232.11
559.10	2235.98
559.45	2239.66
559.81	2243.87
560.16	2247.76
560.52	2250.98
560.87	2254.36
561.23	2257.17
561.58	2260.21
561.94	2262.57
562.29	2264.98
562.64	2267.64
563.00	2270.26
563.35	2273.77
563.71	2276.81
564.06	2279.90
564.42	2282.70
564.77	2285.12
565.12	2287.22
565.48	2289.10
565.83	2291.07
566.19	2292.26
566.54	2293.20
566.89	2294.34
567.25	2294.96
567.60	2296.17
567.96	2297.70
568.31	2298.49
568.66	2299.63
569.02	2300.19
569.37	2300.62
569.72	2301.49
570.08	2301.64
570.43	2301.65
570.78	2301.03
571.14	2299.52
571.49	2298.09
571.84	2297.95
572.20	2296.97
572.55	2295.99
572.90	2294.38
573.26	2292.80
573.61	2291.31
573.96	2289.60
574.31	2286.62
574.67	2283.59
575.02	2279.97
575.37	2276.66
575.72	2272.95
576.08	2269.62
576.43	2266.24
576.78	2262.53
577.13	2259.34
577.49	2256.22
577.84	2252.69
578.19	2249.03
578.54	2245.37
578.90	2241.20
579.25	2235.57
579.60	2230.56
579.95	2225.58
580.30	2220.66
580.66	2215.57
581.01	2210.56
581.36	2205.56
581.71	2201.38
582.06	2196.98
582.42	2192.38
582.77	2187.07
583.12	2182.50
583.47	2177.73
583.82	2172.87
584.17	2167.70
584.53	2162.13
584.88	2156.43
585.23	2150.76
585.58	2145.16
585.93	2139.78
586.28	2135.06
586.63	2130.06
586.98	2125.17
587.34	2120.48
587.69	2115.50
588.04	2110.25
588.39	2104.73
588.74	2098.35
589.09	2092.24
589.44	2085.45
589.79	2079.54
590.14	2074.08
590.49	2067.56
590.84	2061.20
591.19	2055.11
591.54	2048.72
591.89	2041.33
592.25	2034.51
592.60	2027.24
592.95	2019.76
593.30	2012.29
593.65	2004.62
594.00	1997.46
594.35	1990.10
594.70	1982.08
595.05	1974.87
595.40	1967.66
595.75	1960.04
596.10	1953.77
596.45	1947.09
596.80	1940.98
597.15	1934.39
597.50	1927.21
597.85	1920.79
598.19	1914.06
598.54	1906.96
598.89	1900.32
599.24	1894.41
599.59	1887.75
599.94	1881.63
600.29	1875.37
600.64	1868.82
600.99	1861.47
601.34	1854.61
601.69	1847.69
602.04	1840.71
602.39	1833.38
602.74	1826.36
603.08	1819.51
603.43	1812.81
603.78	1805.45
604.13	1798.21
604.48	1790.91
604.83	1784.13
605.18	1777.06
605.53	1769.10
605.87	1761.09
606.22	1753.90
606.57	1746.01
606.92	1738.68
607.27	1731.52
607.62	1724.54
607.96	1717.22
608.31	1710.50
608.66	1702.87
609.01	1695.17
609.36	1687.64
609.70	1679.56
610.05	1671.67
610.40	1664.13
610.75	1655.70
611.10	1647.94
611.44	1639.50
611.79	1631.49
612.14	1622.83
612.49	1613.65
612.83	1605.25
613.18	1597.12
613.53	1589.00
613.88	1580.44
614.22	1572.19
614.57	1563.54
614.92	1555.42
615.27	1547.87
615.61	1539.53
615.96	1531.59
616.31	1524.05
616.65	1516.74
617.00	1509.25
617.35	1501.48
617.70	1493.00
618.04	1484.43
618.39	1476.26
618.74	1468.62
619.08	1460.28
619.43	1452.66
619.78	1445.69
620.12	1438.46
620.47	1430.95
620.82	1422.73
621.16	1415.41
621.51	1407.74
621.85	1400.07
622.20	1391.55
622.55	1383.29
622.89	1375.53
623.24	1367.84
623.59	1360.50
623.93	1352.80
624.28	1345.54
624.62	1338.04
624.97	1330.88
625.32	1324.22
625.66	1317.14
626.01	1310.09
626.35	1302.67
626.70	1294.90
627.04	1287.29
627.39	1279.62
627.73	1272.20
628.08	1265.27
628.43	1257.81
628.77	1250.52
629.12	1243.02
629.46	1235.85
629.81	1228.40
630.15	1221.07
630.50	1213.69
630.84	1205.41
631.19	1197.68
631.53	1190.12
631.88	1182.58
632.22	1175.12
632.57	1167.87
632.91	1160.34
633.26	1152.84
633.60	1145.47
633.95	1138.43
634.29	1131.34
634.64	1124.52
634.98	1117.15
635.32	1109.94
635.67	1103.47
636.01	1096.80
636.36	1089.88
636.70	1083.45
637.05	1076.89
637.39	1070.54
637.73	1063.96
638.08	1058.09
638.42	1052.14
638.77	1045.78
639.11	1039.14
639.45	1032.68
639.80	1026.01
640.14	1019.60
640.49	1013.10
640.83	1006.66
641.17	1000.35
641.52	994.02
641.86	987.67
642.20	981.77
642.55	975.51
642.89	969.04
643.23	962.48
643.58	956.80
643.92	950.55
644.26	944.45
644.61	938.37
644.95	932.42
645.29	925.86
645.64	918.97
645.98	912.58
646.32	906.79
646.66	900.74
647.01	894.96
647.35	889.24
647.69	883.32
648.04	877.89
648.38	872.14
648.72	866.12
649.06	860.00
649.41	854.12
649.75	848.15
650.09	842.22
650.43	836.36
650.78	830.21
651.12	824.31
651.46	818.56
651.80	812.76
652.14	807.39
652.49	801.99
652.83	796.91
653.17	791.21
653.51	785.45
653.85	780.07
654.20	774.37
654.54	768.43
654.88	762.78
655.22	756.92
655.56	751.18
655.90	745.80
656.25	740.60
656.59	735.27
656.93	730.19
657.27	725.00
657.61	719.63
657.95	714.52
658.29	709.40
658.64	704.19
658.98	698.92
659.32	693.41
659.66	688.20
660.00	682.77
660.34	677.86
660.68	672.92
661.02	667.85
661.36	663.19
661.70	658.64
662.05	654.29
662.39	649.96
662.73	645.53
663.07	641.05
663.41	636.59
663.75	632.04
664.09	627.44
664.43	623.02
664.77	618.88
665.11	614.62
665.45	610.44
665.79	606.34
666.13	602.19
666.47	598.11
666.81	593.92
667.15	589.84
667.49	585.98
667.83	582.24
668.17	578.31
668.51	574.15
668.85	570.15
669.19	566.26
669.53	562.38
669.87	558.47
670.21	554.79
670.55	551.15
670.89	547.82
671.23	544.41
671.57	540.86
671.91	537.34
672.25	533.84
672.58	530.35
672.92	527.03
673.26	523.92
673.60	520.74
673.94	517.68
674.28	514.83
674.62	511.88
674.96	508.74
675.30	505.88
675.64	502.96
675.97	500.19
676.31	497.28
676.65	494.40
676.99	491.74
677.33	488.94
677.67	486.14
678.01	483.10
678.34	480.06
678.68	477.15
679.02	474.39
679.36	471.62
679.70	468.92
680.04	466.14
680.37	463.21
680.71	460.46
681.05	457.86
681.39	455.10
681.73	452.38
682.06	449.84
682.40	447.27
682.74	444.77
683.08	442.26
683.42	439.71
683.75	437.21
684.09	434.64
684.43	432.15
684.77	429.67
685.10	427.29
685.44	425.05
685.78	422.81
686.12	420.52
686.45	418.26
686.79	415.95
687.13	413.76
687.46	411.64
687.80	409.51
688.14	407.28
688.48	405.25
688.81	403.08
689.15	400.98
689.49	398.81
689.82	396.71
690.16	394.61
690.50	392.68
690.83	390.71
691.17	388.76
691.51	386.84
691.84	384.99
692.18	383.07
692.52	381.08
692.85	379.18
693.19	377.32
693.52	375.48
693.86	373.67
694.20	371.90
694.53	370.12
694.87	368.29
695.21	366.54
695.54	364.70
695.88	362.96
696.21	361.28
696.55	359.59
696.88	357.95
697.22	356.30
697.56	354.66
697.89	353.03
698.23	351.46
698.56	349.84
698.90	348.22
699.23	346.56
699.57	344.98
699.90	343.43
700.24	341.85
700.58	340.29
700.91	338.83
701.25	337.33
701.58	335.92
701.92	334.52
702.25	333.12
702.59	331.74
702.92	330.40
703.26	329.01
703.59	327.73
703.93	326.55
704.26	325.25
704.60	323.95
704.93	322.66
705.26	321.37
705.60	320.25
705.93	319.10
706.27	318.05
706.60	317.04
706.94	315.92
707.27	314.82
707.61	313.77
707.94	312.71
708.27	311.62
708.61	310.50
708.94	309.49
709.28	308.51
709.61	307.57
709.94	306.63
710.28	305.66
710.61	304.67
710.95	303.58
711.28	302.74
711.61	301.76
711.95	300.83
712.28	299.87
712.61	298.87
712.95	297.95
713.28	297.08
713.61	296.18
713.95	295.30
714.28	294.52
714.61	293.67
714.95	292.82
715.28	291.98
715.61	291.14
715.95	290.28
716.28	289.42
716.61	288.58
716.95	287.75
717.28	286.99
717.61	286.24
717.94	285.50
718.28	284.67
718.61	283.97
718.94	283.30
719.27	282.65
719.61	282.03
719.94	281.36
720.27	280.61
720.60	279.93
720.94	279.30
721.27	278.69
721.60	278.12
721.93	277.52
722.27	276.98
722.60	276.44
722.93	275.87
723.26	275.33
723.59	274.75
723.93	274.19
724.26	273.64
724.59	273.08
724.92	272.54
725.25	272.04
725.59	271.50
725.92	270.99
726.25	270.51
726.58	269.98
726.91	269.45
727.24	269.01
727.57	268.57
727.91	268.06
728.24	267.57
728.57	267.04
728.90	266.61
729.23	266.10
729.56	265.70
729.89	265.25
730.22	264.75
730.55	264.31
730.89	263.88
731.22	263.42
731.55	262.95
731.88	262.55
732.21	262.14
732.54	261.71
732.87	261.29
733.20	260.86
733.53	260.50
733.86	260.18
734.19	259.77
734.52	259.39
734.85	259.11
735.18	258.71
735.51	258.37
735.84	257.98
736.17	257.64
736.50	257.21
736.83	256.97
737.16	256.68
737.49	256.34
737.82	255.99
738.15	255.66
738.48	255.34
738.81	255.00
739.14	254.68
739.47	254.37
739.80	254.04
740.13	253.73
740.46	253.38
740.79	253.04
741.12	252.74
741.45	252.38
741.78	252.01
742.11	251.69
742.44	251.37
742.77	251.08
743.10	250.75
743.43	250.44
743.75	250.07
744.08	249.92
744.41	249.63
744.74	249.38
745.07	249.09
745.40	248.84
745.73	248.58
746.06	248.29
746.39	248.03
746.71	247.77
747.04	247.46
747.37	247.23
747.70	246.99
748.03	246.73
748.36	246.51
748.68	246.25
749.01	246.00
749.34	245.75
749.67	245.54
750.00	245.32
750.33	245.16
750.65	244.93
750.98	244.58
751.31	244.36
751.64	244.14
751.97	244.01
752.29	243.82
752.62	243.60
752.95	243.42
753.28	243.22
753.60	243.03
753.93	242.87
754.26	242.66
754.59	242.46
754.91	242.25
755.24	242.08
755.57	241.91
755.90	241.73
756.22	241.55
756.55	241.33
756.88	241.13
757.20	240.87
757.53	240.70
757.86	240.53
758.19	240.41
758.51	240.21
758.84	240.00
759.17	239.83
759.49	239.67
759.82	239.53
760.15	239.38
760.47	239.23
760.80	239.04
761.13	238.90
761.45	238.73
761.78	238.58
762.11	238.44
762.43	238.27
762.76	238.13
763.08	238.03
763.41	237.91
763.74	237.81
764.06	237.70
764.39	237.55
764.71	237.38
765.04	237.22
765.37	237.11
765.69	236.99
766.02	236.82
766.34	236.68
766.67	236.52
767.00	236.42
767.32	236.34
767.65	236.32
767.97	236.20
768.30	236.07
768.62	235.99
768.95	235.85
769.27	235.78
769.60	235.66
769.92	235.51
770.25	235.39
770.57	235.25
770.90	235.13
771.22	235.01
771.55	234.93
771.87	234.84
772.20	234.73
772.52	234.71
772.85	234.75
773.17	234.69
773.50	234.61
773.82	234.50
774.15	234.37
774.47	234.21
774.80	234.16
775.12	234.06
775.45	233.98
775.77	233.96
776.09	233.85
776.42	233.79
776.74	233.79
777.07	233.70
777.39	233.64
777.72	233.62
778.04	233.57
778.36	233.50
778.69	233.42
779.01	233.37
779.33	233.24
779.66	233.08
779.98	233.00
780.31	232.91
780.63	232.91
780.95	232.86
781.28	232.78
781.60	232.69
781.92	232.67
782.25	232.59
782.57	232.52
782.89	232.48
783.22	232.42
783.54	232.32
783.86	232.27
784.19	232.22
784.51	232.18
784.83	232.12
785.16	232.07
785.48	232.01
785.80	231.96
786.12	231.93
786.45	231.87
786.77	231.84
787.09	231.77
