SpectraSuite Data File
++++++++++++++++++++++++++++++++++++
Date: Fri Feb 01 17:42:27 EST 2013
User: group
Dark Spectrum Present: No
Reference Spectrum Present: No
Number of Sampled Component Spectra: 1
Spectrometers: USB2E7196
Integration Time (usec): 35000 (USB2E7196)
Spectra Averaged: 100 (USB2E7196)
Boxcar Smoothing: 10 (USB2E7196)
Correct for Electrical Dark: No (USB2E7196)
Strobe/Lamp Enabled: No (USB2E7196)
Correct for Detector Non-linearity: No (USB2E7196)
Correct for Stray Light: No (USB2E7196)
Number of Pixels in Processed Spectrum: 2048
>>>>>Begin Processed Spectral Data<<<<<
339.09	0.00
339.48	212.15
339.86	213.43
340.24	215.28
340.63	216.93
341.01	220.32
341.39	219.70
341.78	220.62
342.16	221.63
342.54	222.75
342.93	211.00
343.31	221.67
343.69	222.21
344.07	222.71
344.46	223.15
344.84	223.57
345.22	223.78
345.60	224.03
345.99	224.21
346.37	224.39
346.75	224.48
347.13	224.59
347.52	224.65
347.90	224.70
348.28	224.75
348.66	224.80
349.05	224.77
349.43	224.79
349.81	224.82
350.19	224.88
350.57	224.94
350.96	225.03
351.34	225.09
351.72	225.18
352.10	225.27
352.48	225.32
352.87	225.31
353.25	225.34
353.63	225.38
354.01	225.45
354.39	225.52
354.77	225.58
355.15	225.65
355.54	225.70
355.92	225.72
356.30	225.77
356.68	225.89
357.06	225.99
357.44	226.07
357.82	226.13
358.20	226.17
358.58	226.21
358.97	226.26
359.35	226.35
359.73	226.42
360.11	226.44
360.49	226.52
360.87	226.58
361.25	226.66
361.63	226.74
362.01	226.79
362.39	226.78
362.77	226.82
363.15	226.87
363.53	226.88
363.91	226.93
364.29	226.93
364.67	226.85
365.05	226.84
365.43	226.86
365.81	226.88
366.19	226.93
366.57	226.97
366.95	226.96
367.33	226.92
367.71	226.92
368.09	226.94
368.47	226.91
368.85	226.89
369.23	226.91
369.61	226.84
369.99	226.85
370.37	226.84
370.75	226.86
371.13	226.81
371.51	226.77
371.89	226.78
372.27	226.72
372.65	226.69
373.03	226.69
373.41	226.64
373.78	226.58
374.16	226.52
374.54	226.46
374.92	226.42
375.30	226.39
375.68	226.33
376.06	226.28
376.44	226.21
376.82	226.18
377.19	226.12
377.57	226.07
377.95	225.99
378.33	225.95
378.71	225.82
379.09	225.79
379.47	225.77
379.84	225.69
380.22	225.64
380.60	225.60
380.98	225.50
381.36	225.47
381.73	225.40
382.11	225.36
382.49	225.34
382.87	225.29
383.25	225.21
383.62	225.26
384.00	225.19
384.38	225.15
384.76	225.11
385.13	225.08
385.51	225.03
385.89	224.96
386.27	224.93
386.64	224.91
387.02	224.86
387.40	224.81
387.78	224.79
388.15	224.75
388.53	224.67
388.91	224.67
389.29	224.62
389.66	224.61
390.04	224.57
390.42	224.53
390.79	224.51
391.17	224.50
391.55	224.39
391.92	224.38
392.30	224.41
392.68	224.40
393.05	224.39
393.43	224.41
393.81	224.43
394.18	224.39
394.56	224.43
394.94	224.47
395.31	224.47
395.69	224.53
396.06	224.56
396.44	224.60
396.82	224.58
397.19	224.64
397.57	224.69
397.95	224.75
398.32	224.77
398.70	224.85
399.07	224.94
399.45	225.00
399.82	225.07
400.20	225.09
400.58	225.11
400.95	225.14
401.33	225.25
401.70	225.38
402.08	225.47
402.45	225.57
402.83	225.64
403.20	225.75
403.58	225.80
403.95	225.93
404.33	226.06
404.71	226.23
405.08	226.45
405.46	226.53
405.83	226.69
406.21	226.86
406.58	226.99
406.96	227.14
407.33	227.34
407.70	227.57
408.08	227.90
408.45	228.14
408.83	228.37
409.20	228.59
409.58	228.77
409.95	229.07
410.33	229.37
410.70	229.63
411.08	229.97
411.45	230.30
411.82	230.61
412.20	231.04
412.57	231.48
412.95	231.81
413.32	232.29
413.69	232.74
414.07	233.25
414.44	233.80
414.82	234.38
415.19	234.99
415.56	235.64
415.94	236.25
416.31	236.99
416.68	237.70
417.06	238.53
417.43	239.35
417.81	240.23
418.18	241.13
418.55	242.13
418.93	243.16
419.30	244.20
419.67	245.35
420.04	246.48
420.42	247.67
420.79	249.05
421.16	250.45
421.54	251.84
421.91	253.24
422.28	254.73
422.66	256.29
423.03	257.82
423.40	259.38
423.77	261.05
424.15	262.75
424.52	264.53
424.89	266.39
425.26	268.20
425.64	269.88
426.01	271.78
426.38	273.74
426.75	275.70
427.13	277.72
427.50	279.81
427.87	281.96
428.24	284.15
428.61	286.21
428.99	288.44
429.36	290.90
429.73	293.31
430.10	295.67
430.47	298.09
430.85	300.58
431.22	303.21
431.59	305.99
431.96	308.64
432.33	311.62
432.70	314.46
433.08	317.75
433.45	320.91
433.82	323.97
434.19	327.34
434.56	330.67
434.93	333.83
435.30	336.89
435.68	340.32
436.05	343.68
436.42	346.95
436.79	349.93
437.16	353.14
437.53	356.55
437.90	359.91
438.27	363.10
438.64	366.43
439.01	369.48
439.38	372.12
439.75	374.68
440.13	377.58
440.50	380.31
440.87	382.49
441.24	384.77
441.61	387.32
441.98	389.10
442.35	391.19
442.72	393.35
443.09	395.51
443.46	396.69
443.83	397.38
444.20	398.03
444.57	399.06
444.94	399.45
445.31	399.83
445.68	400.23
446.05	400.38
446.42	399.96
446.79	399.47
447.16	398.98
447.53	398.64
447.90	397.31
448.27	396.00
448.64	394.17
449.01	392.84
449.37	390.59
449.74	388.39
450.11	385.76
450.48	382.97
450.85	380.02
451.22	377.53
451.59	375.15
451.96	372.83
452.33	369.76
452.70	366.95
453.07	363.64
453.43	360.21
453.80	356.99
454.17	353.83
454.54	350.86
454.91	347.63
455.28	344.42
455.65	341.45
456.02	338.52
456.38	335.99
456.75	332.80
457.12	330.09
457.49	327.47
457.86	324.93
458.23	322.68
458.59	320.24
458.96	317.76
459.33	315.60
459.70	313.42
460.07	311.61
460.43	309.57
460.80	307.62
461.17	305.91
461.54	304.07
461.91	302.39
462.27	300.65
462.64	299.18
463.01	297.58
463.38	296.05
463.74	294.44
464.11	293.10
464.48	291.93
464.85	290.60
465.21	289.56
465.58	288.46
465.95	287.15
466.32	286.11
466.68	285.07
467.05	283.97
467.42	282.91
467.78	281.82
468.15	280.77
468.52	279.96
468.88	278.92
469.25	278.02
469.62	277.25
469.98	276.47
470.35	275.72
470.72	275.00
471.08	274.20
471.45	273.57
471.82	272.88
472.18	272.15
472.55	271.65
472.92	270.99
473.28	270.46
473.65	269.93
474.02	269.38
474.38	268.90
474.75	268.50
475.11	268.09
475.48	267.72
475.85	267.43
476.21	267.19
476.58	266.98
476.94	266.82
477.31	266.63
477.67	266.42
478.04	266.27
478.41	266.19
478.77	266.23
479.14	266.15
479.50	266.15
479.87	266.21
480.23	266.26
480.60	266.32
480.96	266.31
481.33	266.50
481.69	266.68
482.06	266.85
482.42	267.04
482.79	267.26
483.15	267.60
483.52	267.96
483.88	268.26
484.25	268.66
484.61	269.05
484.98	269.48
485.34	270.04
485.71	270.64
486.07	271.22
486.44	271.78
486.80	272.44
487.17	273.12
487.53	273.92
487.90	274.77
488.26	275.74
488.62	276.77
488.99	277.75
489.35	278.81
489.72	279.96
490.08	281.14
490.44	282.40
490.81	283.76
491.17	285.10
491.54	286.58
491.90	288.13
492.26	289.79
492.63	291.52
492.99	293.28
493.36	295.15
493.72	297.26
494.08	299.43
494.45	301.71
494.81	304.14
495.17	306.65
495.54	309.26
495.90	311.99
496.26	314.83
496.63	317.80
496.99	320.92
497.35	324.16
497.72	327.65
498.08	331.24
498.44	334.93
498.80	338.97
499.17	343.13
499.53	347.35
499.89	351.83
500.26	356.42
500.62	361.19
500.98	366.26
501.34	371.40
501.71	376.78
502.07	382.35
502.43	388.04
502.79	393.96
503.16	400.12
503.52	406.46
503.88	412.97
504.24	419.77
504.60	426.81
504.97	434.16
505.33	441.65
505.69	449.51
506.05	457.47
506.41	465.44
506.78	473.74
507.14	482.37
507.50	491.20
507.86	500.39
508.22	509.78
508.59	519.11
508.95	528.81
509.31	538.82
509.67	549.11
510.03	559.60
510.39	570.35
510.75	581.39
511.12	592.60
511.48	604.12
511.84	615.83
512.20	627.55
512.56	639.66
512.92	652.02
513.28	664.55
513.64	677.18
514.00	690.23
514.37	703.47
514.73	716.79
515.09	730.01
515.45	743.58
515.81	757.41
516.17	771.69
516.53	786.15
516.89	800.67
517.25	815.09
517.61	829.89
517.97	844.76
518.33	859.44
518.69	874.45
519.05	889.71
519.41	905.11
519.77	920.95
520.13	936.80
520.49	952.62
520.85	968.33
521.21	984.39
521.57	1001.02
521.93	1017.24
522.29	1033.96
522.65	1050.78
523.01	1067.37
523.37	1083.88
523.73	1100.53
524.09	1117.14
524.45	1133.78
524.81	1150.92
525.17	1168.06
525.53	1185.38
525.89	1202.78
526.25	1220.25
526.61	1237.32
526.97	1254.71
527.33	1271.86
527.68	1288.98
528.04	1306.00
528.40	1323.27
528.76	1341.04
529.12	1358.20
529.48	1375.66
529.84	1392.35
530.20	1409.55
530.56	1427.20
530.91	1445.33
531.27	1462.90
531.63	1480.00
531.99	1497.37
532.35	1514.11
532.71	1530.86
533.07	1547.62
533.42	1564.28
533.78	1581.13
534.14	1598.03
534.50	1614.11
534.86	1630.60
535.21	1646.66
535.57	1663.40
535.93	1679.53
536.29	1695.05
536.65	1710.97
537.00	1726.46
537.36	1742.64
537.72	1757.84
538.08	1773.13
538.44	1787.70
538.79	1802.35
539.15	1816.72
539.51	1831.33
539.87	1846.52
540.22	1861.03
540.58	1875.76
540.94	1889.86
541.29	1903.52
541.65	1917.05
542.01	1931.20
542.37	1944.62
542.72	1957.95
543.08	1970.60
543.44	1984.07
543.79	1996.44
544.15	2008.32
544.51	2020.93
544.87	2032.74
545.22	2044.76
545.58	2056.07
545.94	2066.84
546.29	2077.70
546.65	2088.72
547.01	2099.04
547.36	2108.88
547.72	2118.60
548.07	2127.75
548.43	2137.02
548.79	2145.88
549.14	2154.72
549.50	2163.08
549.86	2171.62
550.21	2179.85
550.57	2188.07
550.92	2195.68
551.28	2203.76
551.64	2211.92
551.99	2219.37
552.35	2226.76
552.70	2233.85
553.06	2240.79
553.41	2248.13
553.77	2255.10
554.13	2262.15
554.48	2269.18
554.84	2275.82
555.19	2281.74
555.55	2287.75
555.90	2293.21
556.26	2299.33
556.61	2304.80
556.97	2310.16
557.32	2315.37
557.68	2320.50
558.03	2325.69
558.39	2330.26
558.74	2335.65
559.10	2340.31
559.45	2344.83
559.81	2349.78
560.16	2354.45
560.52	2358.62
560.87	2363.01
561.23	2366.54
561.58	2370.13
561.94	2373.60
562.29	2376.47
562.64	2380.44
563.00	2383.77
563.35	2388.06
563.71	2391.94
564.06	2395.92
564.42	2399.56
564.77	2402.91
565.12	2406.21
565.48	2409.00
565.83	2411.67
566.19	2414.05
566.54	2415.62
566.89	2417.61
567.25	2418.90
567.60	2420.77
567.96	2423.23
568.31	2424.78
568.66	2426.61
569.02	2427.92
569.37	2428.84
569.72	2430.39
570.08	2430.92
570.43	2431.64
570.78	2431.82
571.14	2430.73
571.49	2429.97
571.84	2430.12
572.20	2429.48
572.55	2428.69
572.90	2427.32
573.26	2426.39
573.61	2424.82
573.96	2423.93
574.31	2421.21
574.67	2418.68
575.02	2415.40
575.37	2412.17
575.72	2408.61
576.08	2405.33
576.43	2402.20
576.78	2399.03
577.13	2395.91
577.49	2392.98
577.84	2389.77
578.19	2386.10
578.54	2382.84
578.90	2378.86
579.25	2373.33
579.60	2368.56
579.95	2363.89
580.30	2359.05
580.66	2353.99
581.01	2349.10
581.36	2343.84
581.71	2340.00
582.06	2335.77
582.42	2331.75
582.77	2326.45
583.12	2321.90
583.47	2317.55
583.82	2312.78
584.17	2307.33
584.53	2301.97
584.88	2296.36
585.23	2290.73
585.58	2285.20
585.93	2279.47
586.28	2274.35
586.63	2269.40
586.98	2264.16
587.34	2259.15
587.69	2254.29
588.04	2249.13
588.39	2243.38
588.74	2236.74
589.09	2230.34
589.44	2223.47
589.79	2216.85
590.14	2211.09
590.49	2204.23
590.84	2197.36
591.19	2191.14
591.54	2184.41
591.89	2176.94
592.25	2169.88
592.60	2162.16
592.95	2154.36
593.30	2146.75
593.65	2138.92
594.00	2131.43
594.35	2123.83
594.70	2115.26
595.05	2107.85
595.40	2100.06
595.75	2092.22
596.10	2085.81
596.45	2078.81
596.80	2072.20
597.15	2065.40
597.50	2058.32
597.85	2051.46
598.19	2044.58
598.54	2037.32
598.89	2030.45
599.24	2024.08
599.59	2017.22
599.94	2010.57
600.29	2003.71
600.64	1996.81
600.99	1989.08
601.34	1981.94
601.69	1974.57
602.04	1967.50
602.39	1959.62
602.74	1952.37
603.08	1945.31
603.43	1937.94
603.78	1930.07
604.13	1922.34
604.48	1914.77
604.83	1907.33
605.18	1900.16
605.53	1891.71
605.87	1882.97
606.22	1874.93
606.57	1866.47
606.92	1858.32
607.27	1850.72
607.62	1843.38
607.96	1835.70
608.31	1828.81
608.66	1820.75
609.01	1812.61
609.36	1804.48
609.70	1795.93
610.05	1787.27
610.40	1778.91
610.75	1770.24
611.10	1762.07
611.44	1752.89
611.79	1743.94
612.14	1734.49
612.49	1724.55
612.83	1715.37
613.18	1706.47
613.53	1697.81
613.88	1688.45
614.22	1679.50
614.57	1670.00
614.92	1661.36
615.27	1653.21
615.61	1644.20
615.96	1635.37
616.31	1627.01
616.65	1618.92
617.00	1610.77
617.35	1602.45
617.70	1593.33
618.04	1584.13
618.39	1575.00
618.74	1567.00
619.08	1558.17
619.43	1550.01
619.78	1542.37
620.12	1534.76
620.47	1526.72
620.82	1517.75
621.16	1509.61
621.51	1501.35
621.85	1493.04
622.20	1483.86
622.55	1474.68
622.89	1466.03
623.24	1457.61
623.59	1449.46
623.93	1441.32
624.28	1433.23
624.62	1425.02
624.97	1417.26
625.32	1409.63
625.66	1402.07
626.01	1394.12
626.35	1386.21
626.70	1377.72
627.04	1369.43
627.39	1360.93
627.73	1352.73
628.08	1345.37
628.43	1337.68
628.77	1329.85
629.12	1321.78
629.46	1313.90
629.81	1305.62
630.15	1297.59
630.50	1289.69
630.84	1280.97
631.19	1272.37
631.53	1264.17
631.88	1255.96
632.22	1247.77
632.57	1239.95
632.91	1231.68
633.26	1223.67
633.60	1215.43
633.95	1207.58
634.29	1199.83
634.64	1192.40
634.98	1184.58
635.32	1176.80
635.67	1169.54
636.01	1162.24
636.36	1154.99
636.70	1147.89
637.05	1140.80
637.39	1133.90
637.73	1126.81
638.08	1120.44
638.42	1113.86
638.77	1106.98
639.11	1100.00
639.45	1093.07
639.80	1085.90
640.14	1079.08
640.49	1072.06
640.83	1065.29
641.17	1058.73
641.52	1052.01
641.86	1045.10
642.20	1038.79
642.55	1031.88
642.89	1024.90
643.23	1017.67
643.58	1011.40
643.92	1004.78
644.26	998.49
644.61	991.93
644.95	985.47
645.29	978.37
645.64	971.19
645.98	964.31
646.32	957.78
646.66	951.18
647.01	944.95
647.35	938.85
647.69	932.52
648.04	926.56
648.38	920.34
648.72	913.88
649.06	907.45
649.41	900.97
649.75	894.63
650.09	888.24
650.43	882.12
650.78	875.47
651.12	869.04
651.46	862.81
651.80	856.72
652.14	850.89
652.49	845.17
652.83	839.55
653.17	833.61
653.51	827.61
653.85	821.86
654.20	815.83
654.54	809.35
654.88	803.06
655.22	796.69
655.56	790.52
655.90	784.63
656.25	779.00
656.59	773.33
656.93	767.84
657.27	762.39
657.61	756.52
657.95	750.99
658.29	745.56
658.64	739.85
658.98	734.12
659.32	728.24
659.66	722.65
660.00	717.06
660.34	711.70
660.68	706.35
661.02	700.95
661.36	695.86
661.70	691.06
662.05	686.47
662.39	681.81
662.73	676.98
663.07	672.22
663.41	667.38
663.75	662.50
664.09	657.55
664.43	652.77
664.77	648.44
665.11	643.96
665.45	639.47
665.79	635.15
666.13	630.72
666.47	626.32
666.81	621.89
667.15	617.41
667.49	613.15
667.83	608.97
668.17	604.72
668.51	600.39
668.85	596.04
669.19	591.84
669.53	587.77
669.87	583.67
670.21	579.73
670.55	575.82
670.89	572.18
671.23	568.53
671.57	564.77
671.91	560.98
672.25	557.14
672.58	553.35
672.92	549.61
673.26	546.07
673.60	542.65
673.94	539.27
674.28	536.11
674.62	532.94
674.96	529.71
675.30	526.60
675.64	523.43
675.97	520.41
676.31	517.39
676.65	514.25
676.99	511.29
677.33	508.18
677.67	505.10
678.01	501.84
678.34	498.65
678.68	495.51
679.02	492.48
679.36	489.51
679.70	486.56
680.04	483.62
680.37	480.69
680.71	477.70
681.05	474.86
681.39	471.94
681.73	469.09
682.06	466.38
682.40	463.62
682.74	460.87
683.08	458.09
683.42	455.28
683.75	452.56
684.09	449.77
684.43	447.10
684.77	444.49
685.10	441.99
685.44	439.51
685.78	437.08
686.12	434.67
686.45	432.22
686.79	429.83
687.13	427.44
687.46	425.08
687.80	422.73
688.14	420.29
688.48	418.10
688.81	415.68
689.15	413.34
689.49	410.99
689.82	408.76
690.16	406.46
690.50	404.30
690.83	402.20
691.17	400.06
691.51	398.02
691.84	396.06
692.18	393.99
692.52	391.94
692.85	389.78
693.19	387.74
693.52	385.74
693.86	383.67
694.20	381.74
694.53	379.81
694.87	377.84
695.21	375.92
695.54	373.94
695.88	372.06
696.21	370.20
696.55	368.45
696.88	366.65
697.22	364.82
697.56	363.06
697.89	361.27
698.23	359.58
698.56	357.82
698.90	356.06
699.23	354.27
699.57	352.57
699.90	350.95
700.24	349.26
700.58	347.60
700.91	346.05
701.25	344.51
701.58	343.02
701.92	341.51
702.25	340.03
702.59	338.57
702.92	337.14
703.26	335.69
703.59	334.31
703.93	333.01
704.26	331.74
704.60	330.37
704.93	329.01
705.26	327.69
705.60	326.37
705.93	325.10
706.27	323.97
706.60	322.80
706.94	321.61
707.27	320.35
707.61	319.16
707.94	318.05
708.27	316.86
708.61	315.65
708.94	314.61
709.28	313.56
709.61	312.50
709.94	311.48
710.28	310.39
710.61	309.31
710.95	308.14
711.28	307.15
711.61	306.12
711.95	305.13
712.28	304.09
712.61	303.06
712.95	302.03
713.28	301.06
713.61	300.10
713.95	299.13
714.28	298.28
714.61	297.35
714.95	296.44
715.28	295.52
715.61	294.58
715.95	293.59
716.28	292.64
716.61	291.72
716.95	290.82
717.28	290.05
717.61	289.19
717.94	288.40
718.28	287.50
718.61	286.70
718.94	285.96
719.27	285.22
719.61	284.52
719.94	283.83
720.27	283.05
720.60	282.24
720.94	281.56
721.27	280.90
721.60	280.35
721.93	279.66
722.27	279.04
722.60	278.44
722.93	277.83
723.26	277.29
723.59	276.71
723.93	276.09
724.26	275.48
724.59	274.91
724.92	274.32
725.25	273.83
725.59	273.26
725.92	272.67
726.25	272.14
726.58	271.61
726.91	271.07
727.24	270.55
727.57	270.08
727.91	269.53
728.24	269.01
728.57	268.44
728.90	267.96
729.23	267.47
729.56	267.01
729.89	266.48
730.22	265.93
730.55	265.42
730.89	264.94
731.22	264.49
731.55	264.01
731.88	263.53
732.21	263.06
732.54	262.61
732.87	262.16
733.20	261.71
733.53	261.27
733.86	260.88
734.19	260.44
734.52	260.04
734.85	259.69
735.18	259.21
735.51	258.83
735.84	258.37
736.17	257.97
736.50	257.52
736.83	257.29
737.16	256.93
737.49	256.54
737.82	256.16
738.15	255.76
738.48	255.38
738.81	255.03
739.14	254.65
739.47	254.30
739.80	253.99
740.13	253.63
740.46	253.29
740.79	252.94
741.12	252.60
741.45	252.27
741.78	251.89
742.11	251.57
742.44	251.20
742.77	250.92
743.10	250.58
743.43	250.26
743.75	249.82
744.08	249.68
744.41	249.41
744.74	249.13
745.07	248.81
745.40	248.54
745.73	248.31
746.06	248.01
746.39	247.70
746.71	247.36
747.04	247.06
747.37	246.76
747.70	246.49
748.03	246.22
748.36	246.02
748.68	245.75
749.01	245.51
749.34	245.31
749.67	245.08
750.00	244.87
750.33	244.68
750.65	244.45
750.98	244.03
751.31	243.76
751.64	243.56
751.97	243.40
752.29	243.16
752.62	242.85
752.95	242.59
753.28	242.38
753.60	242.21
753.93	242.04
754.26	241.86
754.59	241.58
754.91	241.36
755.24	241.07
755.57	240.89
755.90	240.68
756.22	240.45
756.55	240.21
756.88	239.99
757.20	239.74
757.53	239.52
757.86	239.36
758.19	239.27
758.51	239.07
758.84	238.83
759.17	238.65
759.49	238.51
759.82	238.39
760.15	238.24
760.47	238.04
760.80	237.87
761.13	237.72
761.45	237.62
761.78	237.47
762.11	237.37
762.43	237.20
762.76	237.08
763.08	236.93
763.41	236.78
763.74	236.66
764.06	236.50
764.39	236.38
764.71	236.24
765.04	235.99
765.37	235.85
765.69	235.69
766.02	235.52
766.34	235.37
766.67	235.20
767.00	235.09
767.32	235.00
767.65	234.91
767.97	234.76
768.30	234.62
768.62	234.48
768.95	234.30
769.27	234.15
769.60	234.04
769.92	233.90
770.25	233.76
770.57	233.60
770.90	233.50
771.22	233.38
771.55	233.28
771.87	233.17
772.20	233.06
772.52	233.04
772.85	233.08
773.17	232.98
773.50	232.87
773.82	232.75
774.15	232.63
774.47	232.45
774.80	232.32
775.12	232.20
775.45	232.11
775.77	232.04
776.09	231.94
776.42	231.81
776.74	231.75
777.07	231.67
777.39	231.61
777.72	231.52
778.04	231.46
778.36	231.35
778.69	231.32
779.01	231.22
779.33	231.06
779.66	230.85
779.98	230.76
780.31	230.70
780.63	230.65
780.95	230.59
781.28	230.55
781.60	230.50
781.92	230.43
782.25	230.37
782.57	230.27
782.89	230.20
783.22	230.14
783.54	230.05
783.86	229.99
784.19	229.89
784.51	229.86
784.83	229.78
785.16	229.73
785.48	229.67
785.80	229.68
786.12	229.66
786.45	229.63
786.77	229.60
