SpectraSuite Data File
++++++++++++++++++++++++++++++++++++
Date: Fri Feb 01 17:07:32 EST 2013
User: group
Dark Spectrum Present: No
Reference Spectrum Present: No
Number of Sampled Component Spectra: 1
Spectrometers: USB2E7196
Integration Time (usec): 35000 (USB2E7196)
Spectra Averaged: 100 (USB2E7196)
Boxcar Smoothing: 10 (USB2E7196)
Correct for Electrical Dark: No (USB2E7196)
Strobe/Lamp Enabled: No (USB2E7196)
Correct for Detector Non-linearity: No (USB2E7196)
Correct for Stray Light: No (USB2E7196)
Number of Pixels in Processed Spectrum: 2048
>>>>>Begin Processed Spectral Data<<<<<
339.09	0.00
339.48	213.57
339.86	214.26
340.24	216.04
340.63	217.72
341.01	220.03
341.39	220.07
341.78	221.07
342.16	222.32
342.54	222.48
342.93	211.42
343.31	222.10
343.69	222.59
344.07	223.06
344.46	223.46
344.84	223.83
345.22	224.08
345.60	224.32
345.99	224.50
346.37	224.64
346.75	224.77
347.13	224.82
347.52	224.87
347.90	224.94
348.28	225.00
348.66	225.04
349.05	225.01
349.43	225.05
349.81	225.12
350.19	225.14
350.57	225.21
350.96	225.27
351.34	225.36
351.72	225.48
352.10	225.59
352.48	225.68
352.87	225.72
353.25	225.76
353.63	225.82
354.01	225.91
354.39	226.00
354.77	226.07
355.15	226.22
355.54	226.30
355.92	226.37
356.30	226.44
356.68	226.57
357.06	226.66
357.44	226.73
357.82	226.80
358.20	226.92
358.58	226.96
358.97	227.03
359.35	227.14
359.73	227.22
360.11	227.29
360.49	227.34
360.87	227.40
361.25	227.49
361.63	227.60
362.01	227.68
362.39	227.72
362.77	227.78
363.15	227.79
363.53	227.86
363.91	227.89
364.29	227.93
364.67	227.86
365.05	227.90
365.43	227.96
365.81	228.00
366.19	228.06
366.57	228.16
366.95	228.17
367.33	228.14
367.71	228.15
368.09	228.14
368.47	228.17
368.85	228.16
369.23	228.20
369.61	228.14
369.99	228.11
370.37	228.08
370.75	228.14
371.13	228.09
371.51	228.04
371.89	227.98
372.27	227.94
372.65	227.94
373.03	227.89
373.41	227.83
373.78	227.76
374.16	227.68
374.54	227.57
374.92	227.52
375.30	227.47
375.68	227.38
376.06	227.35
376.44	227.28
376.82	227.22
377.19	227.15
377.57	227.09
377.95	227.02
378.33	226.98
378.71	226.82
379.09	226.82
379.47	226.77
379.84	226.71
380.22	226.65
380.60	226.55
380.98	226.48
381.36	226.42
381.73	226.34
382.11	226.26
382.49	226.23
382.87	226.12
383.25	226.07
383.62	226.11
384.00	226.00
384.38	225.94
384.76	225.90
385.13	225.85
385.51	225.81
385.89	225.75
386.27	225.68
386.64	225.64
387.02	225.57
387.40	225.51
387.78	225.48
388.15	225.40
388.53	225.36
388.91	225.30
389.29	225.25
389.66	225.24
390.04	225.21
390.42	225.17
390.79	225.16
391.17	225.13
391.55	225.00
391.92	225.02
392.30	225.00
392.68	225.00
393.05	224.98
393.43	224.95
393.81	224.94
394.18	224.93
394.56	224.93
394.94	224.94
395.31	224.91
395.69	224.95
396.06	225.03
396.44	225.06
396.82	225.07
397.19	225.13
397.57	225.14
397.95	225.18
398.32	225.20
398.70	225.28
399.07	225.32
399.45	225.37
399.82	225.42
400.20	225.49
400.58	225.56
400.95	225.60
401.33	225.70
401.70	225.83
402.08	225.92
402.45	225.98
402.83	226.08
403.20	226.20
403.58	226.28
403.95	226.39
404.33	226.53
404.71	226.69
405.08	226.85
405.46	226.97
405.83	227.13
406.21	227.28
406.58	227.43
406.96	227.60
407.33	227.80
407.70	227.94
408.08	228.18
408.45	228.36
408.83	228.62
409.20	228.86
409.58	229.04
409.95	229.26
410.33	229.58
410.70	229.80
411.08	230.09
411.45	230.37
411.82	230.67
412.20	231.02
412.57	231.42
412.95	231.70
413.32	232.13
413.69	232.51
414.07	232.92
414.44	233.38
414.82	233.82
415.19	234.34
415.56	234.90
415.94	235.43
416.31	236.07
416.68	236.69
417.06	237.36
417.43	238.04
417.81	238.82
418.18	239.60
418.55	240.45
418.93	241.31
419.30	242.23
419.67	243.13
420.04	244.08
420.42	245.07
420.79	246.28
421.16	247.43
421.54	248.64
421.91	249.89
422.28	251.13
422.66	252.48
423.03	253.79
423.40	255.14
423.77	256.54
424.15	257.96
424.52	259.38
424.89	261.00
425.26	262.56
425.64	264.01
426.01	265.57
426.38	267.21
426.75	268.87
427.13	270.55
427.50	272.35
427.87	274.20
428.24	276.01
428.61	277.72
428.99	279.64
429.36	281.76
429.73	283.77
430.10	285.81
430.47	287.82
430.85	289.91
431.22	292.12
431.59	294.48
431.96	296.70
432.33	299.20
432.70	301.53
433.08	304.29
433.45	306.89
433.82	309.46
434.19	312.31
434.56	315.09
434.93	317.69
435.30	320.28
435.68	323.12
436.05	325.94
436.42	328.69
436.79	331.16
437.16	333.75
437.53	336.60
437.90	339.34
438.27	342.07
438.64	344.89
439.01	347.45
439.38	349.65
439.75	351.81
440.13	354.26
440.50	356.54
440.87	358.38
441.24	360.32
441.61	362.49
441.98	363.98
442.35	365.83
442.72	367.73
443.09	369.59
443.46	370.59
443.83	371.18
444.20	371.73
444.57	372.61
444.94	372.95
445.31	373.25
445.68	373.65
446.05	373.74
446.42	373.37
446.79	372.94
447.16	372.54
447.53	372.24
447.90	371.10
448.27	370.04
448.64	368.49
449.01	367.35
449.37	365.42
449.74	363.55
450.11	361.32
450.48	358.90
450.85	356.36
451.22	354.27
451.59	352.30
451.96	350.39
452.33	347.80
452.70	345.45
453.07	342.66
453.43	339.79
453.80	337.06
454.17	334.40
454.54	331.88
454.91	329.18
455.28	326.54
455.65	324.08
456.02	321.60
456.38	319.48
456.75	316.87
457.12	314.63
457.49	312.44
457.86	310.27
458.23	308.43
458.59	306.45
458.96	304.38
459.33	302.54
459.70	300.67
460.07	299.15
460.43	297.46
460.80	295.89
461.17	294.45
461.54	292.97
461.91	291.59
462.27	290.19
462.64	288.94
463.01	287.60
463.38	286.33
463.74	284.99
464.11	283.79
464.48	282.78
464.85	281.67
465.21	280.82
465.58	279.91
465.95	278.78
466.32	277.85
466.68	276.99
467.05	276.11
467.42	275.23
467.78	274.32
468.15	273.47
468.52	272.80
468.88	271.95
469.25	271.22
469.62	270.59
469.98	269.91
470.35	269.30
470.72	268.68
471.08	268.05
471.45	267.56
471.82	267.05
472.18	266.45
472.55	266.02
472.92	265.50
473.28	265.04
473.65	264.62
474.02	264.16
474.38	263.77
474.75	263.46
475.11	263.14
475.48	262.88
475.85	262.66
476.21	262.45
476.58	262.27
476.94	262.10
477.31	261.93
477.67	261.80
478.04	261.70
478.41	261.66
478.77	261.72
479.14	261.64
479.50	261.65
479.87	261.68
480.23	261.78
480.60	261.85
480.96	261.93
481.33	262.13
481.69	262.35
482.06	262.56
482.42	262.77
482.79	263.01
483.15	263.31
483.52	263.66
483.88	264.01
484.25	264.37
484.61	264.82
484.98	265.29
485.34	265.86
485.71	266.42
486.07	267.03
486.44	267.56
486.80	268.26
487.17	269.00
487.53	269.88
487.90	270.71
488.26	271.67
488.62	272.70
488.99	273.69
489.35	274.72
489.72	275.79
490.08	276.98
490.44	278.21
490.81	279.59
491.17	280.95
491.54	282.40
491.90	283.92
492.26	285.55
492.63	287.26
492.99	289.04
493.36	290.96
493.72	292.99
494.08	295.11
494.45	297.37
494.81	299.74
495.17	302.18
495.54	304.76
495.90	307.44
496.26	310.21
496.63	313.13
496.99	316.23
497.35	319.51
497.72	322.91
498.08	326.43
498.44	330.08
498.80	333.99
499.17	338.01
499.53	342.19
499.89	346.57
500.26	351.08
500.62	355.75
500.98	360.64
501.34	365.71
501.71	371.01
502.07	376.42
502.43	382.00
502.79	387.75
503.16	393.76
503.52	399.94
503.88	406.32
504.24	412.89
504.60	419.80
504.97	426.87
505.33	434.07
505.69	441.71
506.05	449.38
506.41	457.15
506.78	465.21
507.14	473.61
507.50	482.17
507.86	491.10
508.22	500.15
508.59	509.36
508.95	518.86
509.31	528.51
509.67	538.44
510.03	548.62
510.39	559.06
510.75	569.71
511.12	580.47
511.48	591.59
511.84	602.88
512.20	614.14
512.56	625.88
512.92	637.91
513.28	650.08
513.64	662.37
514.00	674.88
514.37	687.63
514.73	700.44
515.09	713.25
515.45	726.30
515.81	739.67
516.17	753.30
516.53	767.16
516.89	781.05
517.25	795.03
517.61	809.17
517.97	823.31
518.33	837.45
518.69	852.00
519.05	866.69
519.41	881.56
519.77	896.79
520.13	911.97
520.49	926.98
520.85	942.00
521.21	957.36
521.57	973.21
521.93	988.55
522.29	1004.59
522.65	1020.51
523.01	1036.27
523.37	1051.86
523.73	1067.62
524.09	1083.26
524.45	1099.21
524.81	1115.43
525.17	1131.75
525.53	1148.27
525.89	1164.76
526.25	1181.15
526.61	1197.11
526.97	1213.43
527.33	1229.51
527.68	1245.64
528.04	1261.72
528.40	1277.88
528.76	1294.55
529.12	1310.70
529.48	1327.26
529.84	1342.86
530.20	1359.03
530.56	1375.74
530.91	1392.74
531.27	1409.10
531.63	1425.19
531.99	1441.34
532.35	1456.97
532.71	1472.52
533.07	1488.32
533.42	1503.85
533.78	1519.58
534.14	1535.45
534.50	1550.42
534.86	1565.90
535.21	1580.84
535.57	1596.35
535.93	1611.52
536.29	1625.85
536.65	1640.54
537.00	1654.86
537.36	1669.81
537.72	1684.06
538.08	1698.07
538.44	1711.58
538.79	1725.18
539.15	1738.42
539.51	1751.84
539.87	1765.75
540.22	1779.12
540.58	1792.59
540.94	1805.53
541.29	1818.05
541.65	1830.48
542.01	1843.48
542.37	1855.48
542.72	1867.45
543.08	1878.89
543.44	1890.93
543.79	1902.01
544.15	1912.79
544.51	1924.12
544.87	1934.75
545.22	1945.31
545.58	1955.29
545.94	1964.82
546.29	1974.41
546.65	1984.20
547.01	1993.23
547.36	2001.66
547.72	2010.01
548.07	2017.74
548.43	2025.63
548.79	2033.37
549.14	2040.71
549.50	2047.72
549.86	2055.21
550.21	2062.38
550.57	2069.54
550.92	2076.08
551.28	2082.95
551.64	2089.95
551.99	2096.41
552.35	2102.49
552.70	2108.63
553.06	2114.69
553.41	2121.01
553.77	2127.03
554.13	2132.94
554.48	2139.13
554.84	2144.86
555.19	2150.10
555.55	2155.20
555.90	2159.87
556.26	2164.88
556.61	2169.55
556.97	2174.17
557.32	2178.48
557.68	2182.70
558.03	2187.09
558.39	2190.75
558.74	2195.48
559.10	2199.45
559.45	2203.21
559.81	2207.65
560.16	2211.50
560.52	2214.78
560.87	2218.32
561.23	2221.03
561.58	2224.00
561.94	2226.58
562.29	2228.84
562.64	2231.86
563.00	2234.62
563.35	2238.01
563.71	2241.18
564.06	2244.53
564.42	2247.32
564.77	2250.08
565.12	2252.48
565.48	2254.54
565.83	2256.70
566.19	2258.31
566.54	2259.20
566.89	2260.60
567.25	2261.35
567.60	2262.55
567.96	2264.35
568.31	2265.13
568.66	2266.57
569.02	2267.37
569.37	2267.91
569.72	2269.04
570.08	2269.09
570.43	2269.29
570.78	2269.16
571.14	2267.87
571.49	2266.66
571.84	2266.61
572.20	2265.60
572.55	2264.80
572.90	2263.35
573.26	2262.12
573.61	2260.46
573.96	2258.94
574.31	2256.09
574.67	2253.36
575.02	2250.10
575.37	2246.93
575.72	2243.61
576.08	2240.34
576.43	2237.32
576.78	2233.92
577.13	2230.91
577.49	2228.05
577.84	2224.75
578.19	2221.23
578.54	2217.96
578.90	2214.17
579.25	2208.82
579.60	2204.02
579.95	2199.34
580.30	2194.61
580.66	2189.66
581.01	2184.92
581.36	2180.37
581.71	2176.46
582.06	2172.27
582.42	2168.19
582.77	2163.25
583.12	2158.87
583.47	2154.48
583.82	2149.71
584.17	2144.70
584.53	2139.37
584.88	2134.02
585.23	2128.61
585.58	2123.27
585.93	2117.97
586.28	2113.31
586.63	2108.49
586.98	2103.71
587.34	2099.26
587.69	2094.63
588.04	2089.63
588.39	2084.28
588.74	2078.00
589.09	2072.09
589.44	2065.49
589.79	2059.58
590.14	2054.10
590.49	2047.67
590.84	2041.46
591.19	2035.59
591.54	2029.32
591.89	2022.43
592.25	2016.04
592.60	2008.94
592.95	2001.76
593.30	1994.62
593.65	1987.22
594.00	1980.30
594.35	1973.19
594.70	1965.21
595.05	1958.20
595.40	1951.26
595.75	1944.03
596.10	1938.12
596.45	1931.68
596.80	1925.63
597.15	1919.32
597.50	1912.49
597.85	1906.36
598.19	1899.97
598.54	1893.22
598.89	1886.79
599.24	1880.95
599.59	1874.34
599.94	1868.26
600.29	1862.11
600.64	1855.70
600.99	1848.48
601.34	1841.92
601.69	1835.08
602.04	1828.49
602.39	1821.35
602.74	1814.58
603.08	1807.88
603.43	1801.23
603.78	1793.94
604.13	1786.97
604.48	1779.73
604.83	1772.91
605.18	1766.12
605.53	1758.26
605.87	1750.27
606.22	1743.10
606.57	1735.24
606.92	1728.01
607.27	1720.99
607.62	1714.15
607.96	1707.10
608.31	1700.73
608.66	1693.31
609.01	1685.92
609.36	1678.39
609.70	1670.40
610.05	1662.56
610.40	1654.93
610.75	1646.65
611.10	1639.09
611.44	1630.74
611.79	1622.93
612.14	1614.47
612.49	1605.25
612.83	1596.82
613.18	1588.77
613.53	1580.89
613.88	1572.45
614.22	1564.21
614.57	1555.70
614.92	1547.68
615.27	1540.11
615.61	1531.81
615.96	1523.86
616.31	1516.31
616.65	1508.93
617.00	1501.45
617.35	1493.53
617.70	1485.33
618.04	1476.94
618.39	1468.71
618.74	1461.25
619.08	1452.93
619.43	1445.35
619.78	1438.45
620.12	1431.41
620.47	1423.97
620.82	1415.64
621.16	1408.23
621.51	1400.60
621.85	1393.01
622.20	1384.57
622.55	1376.26
622.89	1368.38
623.24	1360.71
623.59	1353.30
623.93	1345.87
624.28	1338.69
624.62	1331.37
624.97	1324.26
625.32	1317.57
625.66	1310.63
626.01	1303.45
626.35	1296.20
626.70	1288.49
627.04	1280.86
627.39	1273.07
627.73	1265.73
628.08	1259.03
628.43	1251.84
628.77	1244.59
629.12	1237.15
629.46	1230.12
629.81	1222.67
630.15	1215.52
630.50	1208.11
630.84	1199.96
631.19	1192.02
631.53	1184.49
631.88	1176.95
632.22	1169.42
632.57	1162.08
632.91	1154.60
633.26	1147.30
633.60	1139.83
633.95	1132.69
634.29	1125.76
634.64	1119.14
634.98	1111.78
635.32	1104.65
635.67	1098.03
636.01	1091.38
636.36	1084.61
636.70	1077.93
637.05	1071.40
637.39	1064.95
637.73	1058.49
638.08	1052.60
638.42	1046.73
638.77	1040.36
639.11	1033.86
639.45	1027.42
639.80	1020.74
640.14	1014.44
640.49	1007.93
640.83	1001.71
641.17	995.60
641.52	989.31
641.86	982.85
642.20	977.00
642.55	970.58
642.89	964.16
643.23	957.64
643.58	951.93
643.92	945.83
644.26	939.91
644.61	933.85
644.95	927.92
645.29	921.36
645.64	914.68
645.98	908.37
646.32	902.49
646.66	896.54
647.01	890.86
647.35	885.09
647.69	879.24
648.04	873.71
648.38	867.93
648.72	861.98
649.06	855.93
649.41	850.13
649.75	844.29
650.09	838.44
650.43	832.70
650.78	826.54
651.12	820.60
651.46	814.86
651.80	809.22
652.14	803.88
652.49	798.69
652.83	793.46
653.17	787.85
653.51	782.18
653.85	776.87
654.20	771.29
654.54	765.29
654.88	759.55
655.22	753.61
655.56	747.93
655.90	742.48
656.25	737.39
656.59	732.03
656.93	727.04
657.27	721.85
657.61	716.48
657.95	711.41
658.29	706.35
658.64	701.06
658.98	695.73
659.32	690.22
659.66	685.02
660.00	679.81
660.34	674.81
660.68	669.97
661.02	664.96
661.36	660.28
661.70	655.79
662.05	651.47
662.39	647.26
662.73	642.87
663.07	638.49
663.41	634.02
663.75	629.56
664.09	624.95
664.43	620.63
664.77	616.53
665.11	612.29
665.45	608.16
665.79	604.19
666.13	600.10
666.47	596.00
666.81	591.86
667.15	587.77
667.49	583.93
667.83	580.03
668.17	576.09
668.51	572.06
668.85	568.13
669.19	564.31
669.53	560.52
669.87	556.69
670.21	553.03
670.55	549.38
670.89	545.96
671.23	542.54
671.57	539.01
671.91	535.49
672.25	532.00
672.58	528.53
672.92	525.10
673.26	521.98
673.60	518.90
673.94	515.84
674.28	512.95
674.62	510.06
674.96	507.00
675.30	504.08
675.64	501.17
675.97	498.38
676.31	495.53
676.65	492.57
676.99	489.81
677.33	486.91
677.67	484.13
678.01	481.20
678.34	478.28
678.68	475.37
679.02	472.60
679.36	469.85
679.70	467.16
680.04	464.40
680.37	461.52
680.71	458.75
681.05	456.05
681.39	453.35
681.73	450.65
682.06	448.17
682.40	445.68
682.74	443.12
683.08	440.56
683.42	437.93
683.75	435.41
684.09	432.86
684.43	430.43
684.77	427.96
685.10	425.56
685.44	423.30
685.78	421.07
686.12	418.82
686.45	416.56
686.79	414.21
687.13	412.05
687.46	409.86
687.80	407.65
688.14	405.48
688.48	403.46
688.81	401.27
689.15	399.11
689.49	396.95
689.82	394.89
690.16	392.82
690.50	390.90
690.83	389.01
691.17	387.04
691.51	385.15
691.84	383.33
692.18	381.44
692.52	379.41
692.85	377.46
693.19	375.55
693.52	373.70
693.86	371.94
694.20	370.11
694.53	368.36
694.87	366.56
695.21	364.77
695.54	362.88
695.88	361.18
696.21	359.45
696.55	357.78
696.88	356.11
697.22	354.45
697.56	352.82
697.89	351.15
698.23	349.57
698.56	347.94
698.90	346.41
699.23	344.74
699.57	343.19
699.90	341.63
700.24	340.09
700.58	338.57
700.91	337.10
701.25	335.65
701.58	334.30
701.92	332.87
702.25	331.53
702.59	330.15
702.92	328.82
703.26	327.50
703.59	326.18
703.93	324.95
704.26	323.72
704.60	322.41
704.93	321.15
705.26	319.91
705.60	318.76
705.93	317.54
706.27	316.52
706.60	315.48
706.94	314.41
707.27	313.30
707.61	312.20
707.94	311.13
708.27	310.04
708.61	308.94
708.94	307.95
709.28	306.95
709.61	306.02
709.94	305.05
710.28	304.05
710.61	303.08
710.95	302.03
711.28	301.14
711.61	300.21
711.95	299.30
712.28	298.32
712.61	297.29
712.95	296.34
713.28	295.46
713.61	294.57
713.95	293.70
714.28	292.85
714.61	292.04
714.95	291.23
715.28	290.43
715.61	289.56
715.95	288.70
716.28	287.86
716.61	287.04
716.95	286.22
717.28	285.46
717.61	284.73
717.94	284.02
718.28	283.20
718.61	282.48
718.94	281.78
719.27	281.20
719.61	280.59
719.94	279.95
720.27	279.22
720.60	278.54
720.94	277.93
721.27	277.32
721.60	276.77
721.93	276.20
722.27	275.64
722.60	275.07
722.93	274.54
723.26	274.04
723.59	273.46
723.93	272.94
724.26	272.42
724.59	271.82
724.92	271.26
725.25	270.78
725.59	270.25
725.92	269.74
726.25	269.19
726.58	268.69
726.91	268.21
727.24	267.73
727.57	267.26
727.91	266.72
728.24	266.27
728.57	265.75
728.90	265.30
729.23	264.79
729.56	264.41
729.89	263.91
730.22	263.39
730.55	262.95
730.89	262.51
731.22	262.07
731.55	261.66
731.88	261.23
732.21	260.77
732.54	260.36
732.87	259.91
733.20	259.53
733.53	259.14
733.86	258.75
734.19	258.38
734.52	258.02
734.85	257.74
735.18	257.31
735.51	256.95
735.84	256.54
736.17	256.21
736.50	255.78
736.83	255.59
737.16	255.26
737.49	254.94
737.82	254.58
738.15	254.25
738.48	253.91
738.81	253.58
739.14	253.24
739.47	252.93
739.80	252.61
740.13	252.30
740.46	251.95
740.79	251.59
741.12	251.30
741.45	250.97
741.78	250.62
742.11	250.34
742.44	249.99
742.77	249.71
743.10	249.38
743.43	249.10
743.75	248.65
744.08	248.52
744.41	248.25
744.74	247.95
745.07	247.66
745.40	247.42
745.73	247.18
746.06	246.93
746.39	246.67
746.71	246.41
747.04	246.14
747.37	245.87
747.70	245.62
748.03	245.34
748.36	245.11
748.68	244.85
749.01	244.60
749.34	244.34
749.67	244.10
750.00	243.89
750.33	243.74
750.65	243.54
750.98	243.14
751.31	242.91
751.64	242.73
751.97	242.58
752.29	242.34
752.62	242.09
752.95	241.88
753.28	241.64
753.60	241.43
753.93	241.21
754.26	241.04
754.59	240.85
754.91	240.68
755.24	240.46
755.57	240.29
755.90	240.13
756.22	239.97
756.55	239.77
756.88	239.57
757.20	239.32
757.53	239.12
757.86	238.99
758.19	238.83
758.51	238.66
758.84	238.45
759.17	238.30
759.49	238.15
759.82	238.04
760.15	237.88
760.47	237.74
760.80	237.59
761.13	237.46
761.45	237.28
761.78	237.13
762.11	237.00
762.43	236.85
762.76	236.71
763.08	236.59
763.41	236.47
763.74	236.35
764.06	236.22
764.39	236.12
764.71	235.92
765.04	235.76
765.37	235.63
765.69	235.50
766.02	235.38
766.34	235.25
766.67	235.12
767.00	235.05
767.32	235.00
767.65	234.95
767.97	234.84
768.30	234.74
768.62	234.62
768.95	234.49
769.27	234.37
769.60	234.25
769.92	234.13
770.25	234.01
770.57	233.88
770.90	233.76
771.22	233.63
771.55	233.56
771.87	233.48
772.20	233.36
772.52	233.30
772.85	233.34
773.17	233.25
773.50	233.11
773.82	233.00
774.15	232.86
774.47	232.73
774.80	232.61
775.12	232.52
775.45	232.45
775.77	232.38
776.09	232.30
776.42	232.24
776.74	232.20
777.07	232.13
777.39	232.06
777.72	232.01
778.04	231.97
778.36	231.88
778.69	231.84
779.01	231.79
779.33	231.67
779.66	231.46
779.98	231.39
780.31	231.32
780.63	231.33
780.95	231.26
781.28	231.19
781.60	231.15
781.92	231.09
782.25	231.03
782.57	230.96
782.89	230.92
783.22	230.83
783.54	230.72
783.86	230.66
784.19	230.61
784.51	230.56
784.83	230.52
785.16	230.48
785.48	230.42
785.80	230.38
786.12	230.31
786.45	230.25
786.77	230.19
787.09	230.12
