SpectraSuite Data File
++++++++++++++++++++++++++++++++++++
Date: Fri Feb 01 16:32:12 EST 2013
User: group
Dark Spectrum Present: No
Reference Spectrum Present: No
Number of Sampled Component Spectra: 1
Spectrometers: USB2E7196
Integration Time (usec): 35000 (USB2E7196)
Spectra Averaged: 100 (USB2E7196)
Boxcar Smoothing: 10 (USB2E7196)
Correct for Electrical Dark: No (USB2E7196)
Strobe/Lamp Enabled: No (USB2E7196)
Correct for Detector Non-linearity: No (USB2E7196)
Correct for Stray Light: No (USB2E7196)
Number of Pixels in Processed Spectrum: 2048
>>>>>Begin Processed Spectral Data<<<<<
339.09	0.00
339.48	213.77
339.86	215.28
340.24	216.95
340.63	218.40
341.01	220.97
341.39	220.73
341.78	221.66
342.16	223.46
342.54	223.67
342.93	212.20
343.31	222.92
343.69	223.44
344.07	223.91
344.46	224.29
344.84	224.63
345.22	224.84
345.60	225.07
345.99	225.31
346.37	225.44
346.75	225.55
347.13	225.62
347.52	225.68
347.90	225.74
348.28	225.78
348.66	225.83
349.05	225.84
349.43	225.93
349.81	225.96
350.19	226.00
350.57	226.05
350.96	226.17
351.34	226.27
351.72	226.35
352.10	226.45
352.48	226.54
352.87	226.62
353.25	226.69
353.63	226.77
354.01	226.81
354.39	226.88
354.77	226.95
355.15	227.04
355.54	227.09
355.92	227.15
356.30	227.22
356.68	227.34
357.06	227.39
357.44	227.40
357.82	227.47
358.20	227.52
358.58	227.57
358.97	227.59
359.35	227.66
359.73	227.75
360.11	227.77
360.49	227.85
360.87	227.88
361.25	227.96
361.63	228.03
362.01	228.09
362.39	228.11
362.77	228.15
363.15	228.19
363.53	228.22
363.91	228.25
364.29	228.26
364.67	228.18
365.05	228.20
365.43	228.25
365.81	228.29
366.19	228.35
366.57	228.36
366.95	228.38
367.33	228.36
367.71	228.34
368.09	228.35
368.47	228.36
368.85	228.36
369.23	228.37
369.61	228.31
369.99	228.32
370.37	228.30
370.75	228.31
371.13	228.25
371.51	228.20
371.89	228.17
372.27	228.13
372.65	228.11
373.03	228.08
373.41	228.03
373.78	227.93
374.16	227.84
374.54	227.78
374.92	227.69
375.30	227.64
375.68	227.58
376.06	227.56
376.44	227.47
376.82	227.43
377.19	227.35
377.57	227.30
377.95	227.20
378.33	227.12
378.71	227.03
379.09	227.00
379.47	226.95
379.84	226.86
380.22	226.79
380.60	226.70
380.98	226.66
381.36	226.62
381.73	226.58
382.11	226.54
382.49	226.52
382.87	226.47
383.25	226.39
383.62	226.45
384.00	226.34
384.38	226.27
384.76	226.25
385.13	226.24
385.51	226.17
385.89	226.12
386.27	226.07
386.64	226.02
387.02	225.95
387.40	225.90
387.78	225.90
388.15	225.88
388.53	225.85
388.91	225.80
389.29	225.73
389.66	225.73
390.04	225.67
390.42	225.66
390.79	225.66
391.17	225.68
391.55	225.54
391.92	225.57
392.30	225.56
392.68	225.51
393.05	225.51
393.43	225.54
393.81	225.54
394.18	225.54
394.56	225.59
394.94	225.67
395.31	225.68
395.69	225.72
396.06	225.73
396.44	225.74
396.82	225.76
397.19	225.85
397.57	225.87
397.95	225.94
398.32	225.94
398.70	225.98
399.07	226.03
399.45	226.10
399.82	226.14
400.20	226.21
400.58	226.28
400.95	226.30
401.33	226.39
401.70	226.55
402.08	226.63
402.45	226.69
402.83	226.74
403.20	226.84
403.58	226.90
403.95	227.04
404.33	227.16
404.71	227.26
405.08	227.45
405.46	227.54
405.83	227.68
406.21	227.81
406.58	227.95
406.96	228.12
407.33	228.27
407.70	228.46
408.08	228.71
408.45	228.94
408.83	229.15
409.20	229.34
409.58	229.50
409.95	229.74
410.33	230.03
410.70	230.31
411.08	230.59
411.45	230.89
411.82	231.17
412.20	231.53
412.57	231.93
412.95	232.22
413.32	232.64
413.69	233.04
414.07	233.50
414.44	233.98
414.82	234.43
415.19	235.01
415.56	235.60
415.94	236.12
416.31	236.78
416.68	237.42
417.06	238.12
417.43	238.78
417.81	239.56
418.18	240.32
418.55	241.18
418.93	242.06
419.30	243.00
419.67	243.97
420.04	244.94
420.42	245.96
420.79	247.15
421.16	248.31
421.54	249.52
421.91	250.74
422.28	251.99
422.66	253.33
423.03	254.62
423.40	255.91
423.77	257.35
424.15	258.72
424.52	260.19
424.89	261.80
425.26	263.35
425.64	264.80
426.01	266.39
426.38	268.00
426.75	269.67
427.13	271.38
427.50	273.19
427.87	275.08
428.24	276.89
428.61	278.62
428.99	280.57
429.36	282.68
429.73	284.71
430.10	286.71
430.47	288.78
430.85	290.88
431.22	293.10
431.59	295.48
431.96	297.73
432.33	300.23
432.70	302.61
433.08	305.43
433.45	308.08
433.82	310.70
434.19	313.58
434.56	316.39
434.93	319.02
435.30	321.57
435.68	324.41
436.05	327.29
436.42	330.09
436.79	332.55
437.16	335.23
437.53	338.05
437.90	340.89
438.27	343.61
438.64	346.44
439.01	349.04
439.38	351.24
439.75	353.44
440.13	355.90
440.50	358.22
440.87	360.04
441.24	361.99
441.61	364.10
441.98	365.58
442.35	367.34
442.72	369.15
443.09	370.98
443.46	371.96
443.83	372.49
444.20	372.92
444.57	373.78
444.94	374.07
445.31	374.36
445.68	374.72
446.05	374.78
446.42	374.41
446.79	373.99
447.16	373.51
447.53	373.22
447.90	372.02
448.27	370.85
448.64	369.26
449.01	368.06
449.37	366.09
449.74	364.20
450.11	361.98
450.48	359.57
450.85	357.05
451.22	354.96
451.59	352.96
451.96	351.07
452.33	348.46
452.70	346.06
453.07	343.27
453.43	340.35
453.80	337.56
454.17	334.85
454.54	332.29
454.91	329.58
455.28	326.87
455.65	324.43
456.02	322.03
456.38	319.93
456.75	317.30
457.12	315.08
457.49	312.84
457.86	310.68
458.23	308.77
458.59	306.70
458.96	304.60
459.33	302.74
459.70	300.89
460.07	299.40
460.43	297.71
460.80	296.09
461.17	294.67
461.54	293.21
461.91	291.84
462.27	290.40
462.64	289.20
463.01	287.86
463.38	286.58
463.74	285.19
464.11	284.06
464.48	283.04
464.85	281.93
465.21	281.09
465.58	280.15
465.95	279.14
466.32	278.26
466.68	277.40
467.05	276.53
467.42	275.65
467.78	274.77
468.15	273.91
468.52	273.30
468.88	272.43
469.25	271.66
469.62	271.03
469.98	270.39
470.35	269.73
470.72	269.15
471.08	268.51
471.45	267.99
471.82	267.46
472.18	266.88
472.55	266.49
472.92	265.95
473.28	265.55
473.65	265.10
474.02	264.66
474.38	264.30
474.75	264.00
475.11	263.64
475.48	263.38
475.85	263.18
476.21	262.96
476.58	262.82
476.94	262.70
477.31	262.54
477.67	262.39
478.04	262.32
478.41	262.25
478.77	262.29
479.14	262.25
479.50	262.25
479.87	262.32
480.23	262.40
480.60	262.54
480.96	262.63
481.33	262.87
481.69	263.11
482.06	263.30
482.42	263.49
482.79	263.77
483.15	264.09
483.52	264.45
483.88	264.80
484.25	265.18
484.61	265.64
484.98	266.10
485.34	266.62
485.71	267.23
486.07	267.87
486.44	268.46
486.80	269.13
487.17	269.86
487.53	270.68
487.90	271.51
488.26	272.42
488.62	273.41
488.99	274.31
489.35	275.37
489.72	276.51
490.08	277.72
490.44	279.00
490.81	280.32
491.17	281.68
491.54	283.16
491.90	284.68
492.26	286.30
492.63	288.03
492.99	289.83
493.36	291.72
493.72	293.74
494.08	295.83
494.45	298.11
494.81	300.49
495.17	302.91
495.54	305.49
495.90	308.18
496.26	310.97
496.63	313.97
496.99	317.08
497.35	320.35
497.72	323.75
498.08	327.23
498.44	330.91
498.80	334.83
499.17	338.88
499.53	343.09
499.89	347.54
500.26	352.04
500.62	356.71
500.98	361.71
501.34	366.79
501.71	372.15
502.07	377.57
502.43	383.22
502.79	389.06
503.16	395.14
503.52	401.41
503.88	407.83
504.24	414.50
504.60	421.42
504.97	428.55
505.33	435.84
505.69	443.58
506.05	451.36
506.41	459.19
506.78	467.37
507.14	475.83
507.50	484.49
507.86	493.53
508.22	502.77
508.59	511.93
508.95	521.51
509.31	531.32
509.67	541.45
510.03	551.71
510.39	562.26
510.75	573.04
511.12	583.97
511.48	595.25
511.84	606.68
512.20	618.12
512.56	629.98
512.92	642.22
513.28	654.45
513.64	666.90
514.00	679.65
514.37	692.59
514.73	705.60
515.09	718.70
515.45	731.97
515.81	745.51
516.17	759.58
516.53	773.69
516.89	787.80
517.25	801.86
517.61	816.26
517.97	830.68
518.33	845.03
518.69	859.80
519.05	874.69
519.41	889.82
519.77	905.32
520.13	920.80
520.49	936.08
520.85	951.50
521.21	967.15
521.57	983.27
521.93	998.92
522.29	1015.27
522.65	1031.36
523.01	1047.41
523.37	1063.37
523.73	1079.31
524.09	1095.30
524.45	1111.62
524.81	1128.19
525.17	1144.93
525.53	1161.76
525.89	1178.54
526.25	1195.26
526.61	1211.58
526.97	1228.24
527.33	1244.68
527.68	1261.23
528.04	1277.68
528.40	1294.23
528.76	1311.13
529.12	1327.67
529.48	1344.50
529.84	1360.42
530.20	1376.96
530.56	1393.95
530.91	1411.29
531.27	1428.02
531.63	1444.49
531.99	1460.89
532.35	1476.74
532.71	1492.46
533.07	1508.53
533.42	1524.43
533.78	1540.30
534.14	1556.52
534.50	1571.82
534.86	1587.49
535.21	1602.53
535.57	1618.31
535.93	1633.74
536.29	1648.52
536.65	1663.45
537.00	1678.02
537.36	1693.27
537.72	1707.77
538.08	1722.11
538.44	1735.74
538.79	1749.58
539.15	1763.03
539.51	1776.61
539.87	1790.97
540.22	1804.67
540.58	1818.39
540.94	1831.53
541.29	1844.31
541.65	1856.82
542.01	1869.86
542.37	1882.16
542.72	1894.39
543.08	1906.15
543.44	1918.43
543.79	1929.57
544.15	1940.40
544.51	1952.00
544.87	1962.78
545.22	1973.53
545.58	1983.59
545.94	1993.33
546.29	2003.04
546.65	2012.95
547.01	2022.09
547.36	2030.63
547.72	2038.95
548.07	2046.73
548.43	2054.81
548.79	2062.82
549.14	2070.26
549.50	2077.43
549.86	2084.96
550.21	2092.32
550.57	2099.29
550.92	2105.74
551.28	2112.69
551.64	2119.77
551.99	2126.28
552.35	2132.29
552.70	2138.30
553.06	2144.34
553.41	2150.67
553.77	2156.58
554.13	2162.67
554.48	2168.79
554.84	2174.24
555.19	2179.55
555.55	2184.65
555.90	2189.16
556.26	2194.05
556.61	2198.89
556.97	2203.18
557.32	2207.41
557.68	2211.59
558.03	2215.92
558.39	2219.64
558.74	2224.33
559.10	2228.26
559.45	2231.93
559.81	2236.37
560.16	2240.19
560.52	2243.41
560.87	2246.91
561.23	2249.77
561.58	2252.63
561.94	2255.28
562.29	2257.70
562.64	2260.39
563.00	2263.02
563.35	2266.55
563.71	2269.70
564.06	2272.84
564.42	2275.73
564.77	2278.23
565.12	2280.61
565.48	2282.51
565.83	2284.39
566.19	2285.57
566.54	2286.53
566.89	2287.48
567.25	2288.04
567.60	2289.36
567.96	2291.07
568.31	2291.93
568.66	2292.87
569.02	2293.50
569.37	2293.92
569.72	2294.91
570.08	2295.20
570.43	2295.38
570.78	2294.97
571.14	2293.43
571.49	2292.33
571.84	2292.17
572.20	2291.11
572.55	2290.03
572.90	2288.55
573.26	2287.29
573.61	2285.77
573.96	2284.14
574.31	2281.44
574.67	2278.58
575.02	2275.08
575.37	2271.94
575.72	2268.05
576.08	2264.84
576.43	2261.40
576.78	2257.69
577.13	2254.61
577.49	2251.52
577.84	2248.02
578.19	2244.32
578.54	2240.96
578.90	2236.63
579.25	2231.14
579.60	2226.21
579.95	2221.26
580.30	2216.30
580.66	2211.16
581.01	2206.36
581.36	2201.50
581.71	2197.38
582.06	2192.93
582.42	2188.52
582.77	2183.31
583.12	2178.91
583.47	2174.29
583.82	2169.50
584.17	2164.42
584.53	2158.92
584.88	2153.37
585.23	2147.71
585.58	2142.26
585.93	2136.77
586.28	2132.12
586.63	2127.19
586.98	2122.21
587.34	2117.54
587.69	2112.64
588.04	2107.42
588.39	2101.81
588.74	2095.25
589.09	2089.21
589.44	2082.46
589.79	2076.50
590.14	2070.92
590.49	2064.37
590.84	2058.10
591.19	2052.21
591.54	2045.72
591.89	2038.41
592.25	2031.60
592.60	2024.43
592.95	2016.85
593.30	2009.58
593.65	2002.08
594.00	1994.97
594.35	1987.79
594.70	1979.91
595.05	1972.98
595.40	1965.89
595.75	1958.35
596.10	1952.39
596.45	1945.69
596.80	1939.70
597.15	1933.17
597.50	1926.13
597.85	1919.84
598.19	1913.15
598.54	1906.04
598.89	1899.47
599.24	1893.71
599.59	1887.00
599.94	1880.87
600.29	1874.61
600.64	1867.93
600.99	1860.53
601.34	1853.79
601.69	1846.86
602.04	1839.98
602.39	1832.61
602.74	1825.75
603.08	1819.04
603.43	1812.19
603.78	1804.83
604.13	1797.59
604.48	1790.32
604.83	1783.44
605.18	1776.39
605.53	1768.53
605.87	1760.63
606.22	1753.31
606.57	1745.30
606.92	1738.13
607.27	1730.93
607.62	1723.96
607.96	1716.87
608.31	1710.31
608.66	1702.81
609.01	1695.23
609.36	1687.71
609.70	1679.65
610.05	1671.64
610.40	1663.99
610.75	1655.66
611.10	1647.88
611.44	1639.63
611.79	1631.55
612.14	1622.84
612.49	1613.61
612.83	1605.18
613.18	1596.98
613.53	1589.05
613.88	1580.41
614.22	1572.03
614.57	1563.39
614.92	1555.48
615.27	1547.85
615.61	1539.45
615.96	1531.39
616.31	1523.79
616.65	1516.35
617.00	1508.81
617.35	1501.07
617.70	1492.75
618.04	1484.31
618.39	1476.17
618.74	1468.41
619.08	1460.16
619.43	1452.55
619.78	1445.79
620.12	1438.62
620.47	1431.15
620.82	1422.91
621.16	1415.60
621.51	1408.01
621.85	1400.45
622.20	1391.88
622.55	1383.41
622.89	1375.55
623.24	1367.90
623.59	1360.50
623.93	1352.92
624.28	1345.78
624.62	1338.26
624.97	1331.07
625.32	1324.34
625.66	1317.30
626.01	1310.14
626.35	1302.64
626.70	1295.03
627.04	1287.24
627.39	1279.47
627.73	1272.03
628.08	1265.12
628.43	1257.88
628.77	1250.58
629.12	1243.00
629.46	1235.90
629.81	1228.66
630.15	1221.46
630.50	1214.02
630.84	1205.89
631.19	1198.03
631.53	1190.55
631.88	1182.99
632.22	1175.38
632.57	1168.03
632.91	1160.58
633.26	1153.15
633.60	1145.81
633.95	1138.64
634.29	1131.63
634.64	1124.93
634.98	1117.57
635.32	1110.31
635.67	1103.68
636.01	1096.98
636.36	1090.18
636.70	1083.61
637.05	1076.99
637.39	1070.41
637.73	1063.93
638.08	1058.01
638.42	1051.98
638.77	1045.46
639.11	1038.96
639.45	1032.54
639.80	1025.86
640.14	1019.47
640.49	1012.97
640.83	1006.60
641.17	1000.28
641.52	993.99
641.86	987.53
642.20	981.61
642.55	975.41
642.89	968.89
643.23	962.36
643.58	956.60
643.92	950.46
644.26	944.28
644.61	938.37
644.95	932.29
645.29	925.69
645.64	918.97
645.98	912.57
646.32	906.67
646.66	900.67
647.01	894.87
647.35	889.09
647.69	883.30
648.04	877.84
648.38	872.10
648.72	866.06
649.06	860.03
649.41	854.17
649.75	848.17
650.09	842.20
650.43	836.44
650.78	830.28
651.12	824.25
651.46	818.63
651.80	812.84
652.14	807.47
652.49	802.08
652.83	796.84
653.17	791.17
653.51	785.49
653.85	780.11
654.20	774.42
654.54	768.36
654.88	762.57
655.22	756.67
655.56	750.95
655.90	745.45
656.25	740.19
656.59	734.87
656.93	729.82
657.27	724.66
657.61	719.27
657.95	714.17
658.29	709.10
658.64	703.90
658.98	698.56
659.32	693.13
659.66	687.93
660.00	682.65
660.34	677.66
660.68	672.71
661.02	667.70
661.36	663.01
661.70	658.58
662.05	654.21
662.39	649.88
662.73	645.37
663.07	641.04
663.41	636.57
663.75	632.01
664.09	627.34
664.43	623.03
664.77	618.84
665.11	614.63
665.45	610.49
665.79	606.36
666.13	602.30
666.47	598.17
666.81	594.05
667.15	589.92
667.49	586.07
667.83	582.22
668.17	578.26
668.51	574.18
668.85	570.19
669.19	566.36
669.53	562.54
669.87	558.73
670.21	555.01
670.55	551.36
670.89	547.96
671.23	544.58
671.57	541.04
671.91	537.54
672.25	534.00
672.58	530.49
672.92	527.10
673.26	523.93
673.60	520.76
673.94	517.62
674.28	514.75
674.62	511.84
674.96	508.69
675.30	505.80
675.64	502.91
675.97	500.08
676.31	497.25
676.65	494.26
676.99	491.58
677.33	488.73
677.67	485.94
678.01	482.92
678.34	479.98
678.68	477.09
679.02	474.26
679.36	471.56
679.70	468.81
680.04	466.06
680.37	463.12
680.71	460.33
681.05	457.69
681.39	454.90
681.73	452.20
682.06	449.77
682.40	447.20
682.74	444.67
683.08	442.09
683.42	439.48
683.75	437.04
684.09	434.48
684.43	432.01
684.77	429.51
685.10	427.16
685.44	424.86
685.78	422.58
686.12	420.28
686.45	417.95
686.79	415.65
687.13	413.45
687.46	411.32
687.80	409.16
688.14	407.00
688.48	405.00
688.81	402.72
689.15	400.49
689.49	398.33
689.82	396.24
690.16	394.23
690.50	392.28
690.83	390.35
691.17	388.36
691.51	386.47
691.84	384.63
692.18	382.66
692.52	380.67
692.85	378.72
693.19	376.87
693.52	375.03
693.86	373.17
694.20	371.40
694.53	369.59
694.87	367.75
695.21	365.95
695.54	364.13
695.88	362.43
696.21	360.77
696.55	359.05
696.88	357.39
697.22	355.62
697.56	353.95
697.89	352.24
698.23	350.64
698.56	349.01
698.90	347.41
699.23	345.80
699.57	344.19
699.90	342.63
700.24	341.07
700.58	339.51
700.91	338.05
701.25	336.55
701.58	335.19
701.92	333.81
702.25	332.38
702.59	330.97
702.92	329.61
703.26	328.26
703.59	326.97
703.93	325.76
704.26	324.53
704.60	323.24
704.93	321.93
705.26	320.61
705.60	319.43
705.93	318.28
706.27	317.20
706.60	316.18
706.94	315.09
707.27	313.96
707.61	312.93
707.94	311.91
708.27	310.86
708.61	309.73
708.94	308.72
709.28	307.76
709.61	306.84
709.94	305.88
710.28	304.87
710.61	303.88
710.95	302.77
711.28	301.84
711.61	300.89
711.95	299.98
712.28	299.10
712.61	298.09
712.95	297.15
713.28	296.27
713.61	295.38
713.95	294.49
714.28	293.66
714.61	292.79
714.95	291.92
715.28	291.02
715.61	290.17
715.95	289.31
716.28	288.42
716.61	287.56
716.95	286.73
717.28	285.98
717.61	285.21
717.94	284.45
718.28	283.69
718.61	282.98
718.94	282.31
719.27	281.63
719.61	281.00
719.94	280.35
720.27	279.66
720.60	279.00
720.94	278.39
721.27	277.76
721.60	277.20
721.93	276.60
722.27	276.10
722.60	275.56
722.93	274.98
723.26	274.51
723.59	273.96
723.93	273.43
724.26	272.86
724.59	272.29
724.92	271.76
725.25	271.25
725.59	270.75
725.92	270.24
726.25	269.72
726.58	269.22
726.91	268.73
727.24	268.26
727.57	267.79
727.91	267.28
728.24	266.83
728.57	266.35
728.90	265.89
729.23	265.38
729.56	264.93
729.89	264.48
730.22	263.97
730.55	263.52
730.89	263.10
731.22	262.70
731.55	262.30
731.88	261.89
732.21	261.46
732.54	261.03
732.87	260.63
733.20	260.24
733.53	259.87
733.86	259.51
734.19	259.11
734.52	258.70
734.85	258.40
735.18	257.98
735.51	257.61
735.84	257.23
736.17	256.87
736.50	256.50
736.83	256.29
737.16	255.94
737.49	255.56
737.82	255.22
738.15	254.88
738.48	254.56
738.81	254.23
739.14	253.91
739.47	253.60
739.80	253.28
740.13	252.97
740.46	252.63
740.79	252.29
741.12	251.97
741.45	251.66
741.78	251.34
742.11	251.03
742.44	250.68
742.77	250.41
743.10	250.11
743.43	249.80
743.75	249.38
744.08	249.23
744.41	248.97
744.74	248.70
745.07	248.41
745.40	248.16
745.73	247.94
746.06	247.66
746.39	247.37
746.71	247.09
747.04	246.80
747.37	246.52
747.70	246.25
748.03	245.98
748.36	245.76
748.68	245.50
749.01	245.30
749.34	245.09
749.67	244.83
750.00	244.62
750.33	244.43
750.65	244.21
750.98	243.86
751.31	243.62
751.64	243.42
751.97	243.23
752.29	243.00
752.62	242.69
752.95	242.46
753.28	242.25
753.60	242.03
753.93	241.85
754.26	241.65
754.59	241.42
754.91	241.21
755.24	240.98
755.57	240.76
755.90	240.54
756.22	240.36
756.55	240.17
756.88	239.97
757.20	239.79
757.53	239.60
757.86	239.44
758.19	239.29
758.51	239.11
758.84	238.90
759.17	238.73
759.49	238.62
759.82	238.52
760.15	238.37
760.47	238.23
760.80	238.04
761.13	237.92
761.45	237.77
761.78	237.62
762.11	237.52
762.43	237.39
762.76	237.24
763.08	237.11
763.41	237.02
763.74	236.89
764.06	236.71
764.39	236.58
764.71	236.43
765.04	236.31
765.37	236.15
765.69	236.06
766.02	235.93
766.34	235.80
766.67	235.67
767.00	235.56
767.32	235.54
767.65	235.50
767.97	235.39
768.30	235.32
768.62	235.23
768.95	235.09
769.27	234.99
769.60	234.94
769.92	234.80
770.25	234.66
770.57	234.56
770.90	234.49
771.22	234.41
771.55	234.32
771.87	234.22
772.20	234.15
772.52	234.14
772.85	234.21
773.17	234.12
773.50	234.02
773.82	233.93
774.15	233.80
774.47	233.70
774.80	233.60
775.12	233.52
775.45	233.43
775.77	233.37
776.09	233.29
776.42	233.18
776.74	233.14
777.07	233.04
777.39	232.97
777.72	232.87
778.04	232.82
778.36	232.80
778.69	232.74
779.01	232.67
779.33	232.50
779.66	232.27
779.98	232.21
780.31	232.16
780.63	232.15
780.95	232.05
781.28	231.94
781.60	231.86
781.92	231.80
782.25	231.73
782.57	231.66
782.89	231.57
783.22	231.52
783.54	231.46
783.86	231.43
784.19	231.33
784.51	231.32
784.83	231.21
785.16	231.09
785.48	231.03
785.80	230.99
786.12	230.92
786.45	230.89
786.77	230.86
787.09	230.77
