SpectraSuite Data File
++++++++++++++++++++++++++++++++++++
Date: Fri Feb 01 14:57:38 EST 2013
User: group
Dark Spectrum Present: No
Reference Spectrum Present: No
Number of Sampled Component Spectra: 1
Spectrometers: USB2E7196
Integration Time (usec): 35000 (USB2E7196)
Spectra Averaged: 100 (USB2E7196)
Boxcar Smoothing: 10 (USB2E7196)
Correct for Electrical Dark: No (USB2E7196)
Strobe/Lamp Enabled: No (USB2E7196)
Correct for Detector Non-linearity: No (USB2E7196)
Correct for Stray Light: No (USB2E7196)
Number of Pixels in Processed Spectrum: 2048
>>>>>Begin Processed Spectral Data<<<<<
339.09	0.00
339.48	216.19
339.86	216.46
340.24	217.84
340.63	219.87
341.01	221.95
341.39	221.97
341.78	223.38
342.16	224.69
342.54	225.86
342.93	213.65
343.31	224.46
343.69	224.95
344.07	225.42
344.46	225.84
344.84	226.19
345.22	226.46
345.60	226.70
345.99	226.90
346.37	227.03
346.75	227.12
347.13	227.18
347.52	227.26
347.90	227.33
348.28	227.34
348.66	227.38
349.05	227.34
349.43	227.38
349.81	227.42
350.19	227.47
350.57	227.53
350.96	227.59
351.34	227.66
351.72	227.76
352.10	227.88
352.48	227.95
352.87	228.00
353.25	228.07
353.63	228.14
354.01	228.20
354.39	228.28
354.77	228.35
355.15	228.44
355.54	228.47
355.92	228.52
356.30	228.55
356.68	228.68
357.06	228.78
357.44	228.83
357.82	228.89
358.20	228.96
358.58	228.98
358.97	229.06
359.35	229.13
359.73	229.20
360.11	229.24
360.49	229.30
360.87	229.35
361.25	229.40
361.63	229.46
362.01	229.50
362.39	229.54
362.77	229.57
363.15	229.63
363.53	229.70
363.91	229.73
364.29	229.77
364.67	229.70
365.05	229.72
365.43	229.73
365.81	229.74
366.19	229.79
366.57	229.83
366.95	229.80
367.33	229.77
367.71	229.73
368.09	229.73
368.47	229.73
368.85	229.71
369.23	229.68
369.61	229.66
369.99	229.66
370.37	229.61
370.75	229.63
371.13	229.55
371.51	229.47
371.89	229.40
372.27	229.36
372.65	229.32
373.03	229.23
373.41	229.15
373.78	229.08
374.16	228.96
374.54	228.87
374.92	228.81
375.30	228.76
375.68	228.68
376.06	228.58
376.44	228.47
376.82	228.40
377.19	228.33
377.57	228.22
377.95	228.12
378.33	228.03
378.71	227.85
379.09	227.75
379.47	227.72
379.84	227.65
380.22	227.57
380.60	227.50
380.98	227.43
381.36	227.37
381.73	227.30
382.11	227.27
382.49	227.22
382.87	227.13
383.25	227.06
383.62	227.05
384.00	226.99
384.38	226.92
384.76	226.87
385.13	226.85
385.51	226.79
385.89	226.73
386.27	226.69
386.64	226.67
387.02	226.63
387.40	226.55
387.78	226.51
388.15	226.47
388.53	226.43
388.91	226.36
389.29	226.31
389.66	226.30
390.04	226.25
390.42	226.20
390.79	226.19
391.17	226.19
391.55	226.15
391.92	226.10
392.30	226.12
392.68	226.08
393.05	226.07
393.43	226.08
393.81	226.11
394.18	226.12
394.56	226.16
394.94	226.22
395.31	226.21
395.69	226.27
396.06	226.32
396.44	226.35
396.82	226.42
397.19	226.55
397.57	226.57
397.95	226.63
398.32	226.72
398.70	226.78
399.07	226.85
399.45	226.90
399.82	227.02
400.20	227.10
400.58	227.22
400.95	227.28
401.33	227.42
401.70	227.58
402.08	227.68
402.45	227.79
402.83	227.90
403.20	228.08
403.58	228.20
403.95	228.32
404.33	228.46
404.71	228.60
405.08	228.77
405.46	228.94
405.83	229.13
406.21	229.29
406.58	229.48
406.96	229.66
407.33	229.84
407.70	230.07
408.08	230.36
408.45	230.60
408.83	230.87
409.20	231.07
409.58	231.25
409.95	231.51
410.33	231.79
410.70	232.02
411.08	232.29
411.45	232.58
411.82	232.92
412.20	233.29
412.57	233.72
412.95	234.02
413.32	234.45
413.69	234.84
414.07	235.29
414.44	235.75
414.82	236.22
415.19	236.79
415.56	237.33
415.94	237.87
416.31	238.48
416.68	239.09
417.06	239.80
417.43	240.47
417.81	241.25
418.18	242.03
418.55	242.89
418.93	243.77
419.30	244.69
419.67	245.60
420.04	246.53
420.42	247.50
420.79	248.71
421.16	249.84
421.54	251.00
421.91	252.22
422.28	253.49
422.66	254.84
423.03	256.09
423.40	257.41
423.77	258.83
424.15	260.26
424.52	261.73
424.89	263.31
425.26	264.84
425.64	266.30
426.01	267.88
426.38	269.56
426.75	271.27
427.13	272.96
427.50	274.77
427.87	276.64
428.24	278.52
428.61	280.25
428.99	282.15
429.36	284.26
429.73	286.29
430.10	288.30
430.47	290.35
430.85	292.49
431.22	294.76
431.59	297.10
431.96	299.34
432.33	301.82
432.70	304.26
433.08	307.12
433.45	309.75
433.82	312.37
434.19	315.25
434.56	318.05
434.93	320.76
435.30	323.38
435.68	326.31
436.05	329.14
436.42	331.93
436.79	334.48
437.16	337.22
437.53	340.09
437.90	342.92
438.27	345.67
438.64	348.51
439.01	351.08
439.38	353.30
439.75	355.48
440.13	357.99
440.50	360.33
440.87	362.15
441.24	364.09
441.61	366.24
441.98	367.74
442.35	369.48
442.72	371.32
443.09	373.15
443.46	374.11
443.83	374.72
444.20	375.19
444.57	376.04
444.94	376.32
445.31	376.64
445.68	377.01
446.05	377.04
446.42	376.66
446.79	376.22
447.16	375.82
447.53	375.51
447.90	374.39
448.27	373.25
448.64	371.63
449.01	370.52
449.37	368.57
449.74	366.67
450.11	364.47
450.48	362.01
450.85	359.46
451.22	357.33
451.59	355.29
451.96	353.38
452.33	350.77
452.70	348.39
453.07	345.53
453.43	342.65
453.80	339.91
454.17	337.24
454.54	334.76
454.91	332.03
455.28	329.37
455.65	326.85
456.02	324.35
456.38	322.24
456.75	319.54
457.12	317.29
457.49	315.07
457.86	312.92
458.23	311.08
458.59	309.03
458.96	306.96
459.33	305.11
459.70	303.27
460.07	301.76
460.43	300.06
460.80	298.47
461.17	297.00
461.54	295.52
461.91	294.10
462.27	292.59
462.64	291.37
463.01	289.96
463.38	288.65
463.74	287.28
464.11	286.12
464.48	285.10
464.85	283.96
465.21	283.06
465.58	282.11
465.95	280.95
466.32	280.04
466.68	279.14
467.05	278.22
467.42	277.27
467.78	276.33
468.15	275.43
468.52	274.71
468.88	273.84
469.25	273.03
469.62	272.39
469.98	271.70
470.35	271.04
470.72	270.43
471.08	269.75
471.45	269.17
471.82	268.57
472.18	267.94
472.55	267.47
472.92	266.94
473.28	266.42
473.65	265.95
474.02	265.52
474.38	265.10
474.75	264.75
475.11	264.42
475.48	264.16
475.85	263.89
476.21	263.67
476.58	263.46
476.94	263.29
477.31	263.08
477.67	262.92
478.04	262.76
478.41	262.67
478.77	262.75
479.14	262.67
479.50	262.67
479.87	262.77
480.23	262.86
480.60	262.91
480.96	263.01
481.33	263.21
481.69	263.38
482.06	263.58
482.42	263.78
482.79	264.01
483.15	264.29
483.52	264.69
483.88	265.06
484.25	265.44
484.61	265.84
484.98	266.31
485.34	266.87
485.71	267.44
486.07	268.06
486.44	268.54
486.80	269.24
487.17	269.98
487.53	270.75
487.90	271.59
488.26	272.52
488.62	273.53
488.99	274.45
489.35	275.48
489.72	276.60
490.08	277.80
490.44	279.02
490.81	280.36
491.17	281.72
491.54	283.20
491.90	284.74
492.26	286.41
492.63	288.14
492.99	289.92
493.36	291.84
493.72	293.87
494.08	296.02
494.45	298.25
494.81	300.64
495.17	303.07
495.54	305.63
495.90	308.30
496.26	311.08
496.63	314.06
496.99	317.22
497.35	320.42
497.72	323.81
498.08	327.31
498.44	330.96
498.80	334.87
499.17	338.85
499.53	342.99
499.89	347.33
500.26	351.78
500.62	356.44
500.98	361.38
501.34	366.45
501.71	371.72
502.07	377.21
502.43	382.75
502.79	388.59
503.16	394.61
503.52	400.83
503.88	407.25
504.24	413.90
504.60	420.74
504.97	427.85
505.33	435.15
505.69	442.89
506.05	450.66
506.41	458.52
506.78	466.70
507.14	475.14
507.50	483.84
507.86	492.86
508.22	501.99
508.59	511.17
508.95	520.70
509.31	530.48
509.67	540.50
510.03	550.79
510.39	561.35
510.75	572.18
511.12	583.13
511.48	594.34
511.84	605.68
512.20	617.18
512.56	629.17
512.92	641.33
513.28	653.64
513.64	666.06
514.00	678.76
514.37	691.67
514.73	704.77
515.09	717.80
515.45	731.09
515.81	744.69
516.17	758.57
516.53	772.71
516.89	786.89
517.25	801.12
517.61	815.54
517.97	829.89
518.33	844.32
518.69	859.13
519.05	874.21
519.41	889.48
519.77	905.02
520.13	920.40
520.49	935.78
520.85	951.18
521.21	966.98
521.57	983.16
521.93	999.00
522.29	1015.36
522.65	1031.64
523.01	1047.96
523.37	1064.04
523.73	1080.42
524.09	1096.54
524.45	1112.87
524.81	1129.51
525.17	1146.47
525.53	1163.62
525.89	1180.46
526.25	1197.33
526.61	1213.70
526.97	1230.50
527.33	1247.04
527.68	1263.82
528.04	1280.38
528.40	1297.01
528.76	1314.18
529.12	1330.81
529.48	1347.67
529.84	1363.81
530.20	1380.57
530.56	1397.62
530.91	1415.19
531.27	1431.91
531.63	1448.48
531.99	1465.22
532.35	1481.34
532.71	1497.27
533.07	1513.56
533.42	1529.63
533.78	1545.65
534.14	1561.92
534.50	1577.38
534.86	1593.40
535.21	1608.58
535.57	1624.63
535.93	1640.24
536.29	1654.98
536.65	1670.24
537.00	1685.22
537.36	1700.60
537.72	1715.14
538.08	1729.72
538.44	1743.48
538.79	1757.60
539.15	1771.60
539.51	1785.39
539.87	1799.80
540.22	1813.60
540.58	1827.45
540.94	1840.89
541.29	1854.06
541.65	1866.97
542.01	1880.34
542.37	1892.69
542.72	1905.26
543.08	1917.20
543.44	1929.81
543.79	1941.23
544.15	1952.30
544.51	1963.86
544.87	1975.01
545.22	1985.96
545.58	1996.05
545.94	2005.94
546.29	2015.76
546.65	2025.45
547.01	2034.66
547.36	2043.46
547.72	2051.83
548.07	2059.68
548.43	2067.88
548.79	2075.97
549.14	2083.48
549.50	2090.85
549.86	2098.71
550.21	2106.00
550.57	2113.07
550.92	2119.58
551.28	2126.72
551.64	2133.69
551.99	2140.32
552.35	2146.36
552.70	2152.51
553.06	2158.55
553.41	2164.92
553.77	2170.97
554.13	2176.94
554.48	2183.07
554.84	2188.33
555.19	2193.79
555.55	2198.73
555.90	2203.20
556.26	2207.90
556.61	2212.63
556.97	2216.75
557.32	2220.64
557.68	2224.82
558.03	2229.23
558.39	2232.92
558.74	2237.53
559.10	2241.30
559.45	2244.77
559.81	2249.02
560.16	2252.56
560.52	2255.69
560.87	2259.11
561.23	2261.64
561.58	2264.55
561.94	2267.08
562.29	2269.51
562.64	2272.14
563.00	2274.83
563.35	2278.28
563.71	2281.19
564.06	2284.31
564.42	2287.10
564.77	2289.40
565.12	2291.36
565.48	2292.91
565.83	2294.50
566.19	2295.47
566.54	2296.51
566.89	2297.58
567.25	2297.95
567.60	2299.26
567.96	2300.72
568.31	2301.22
568.66	2302.13
569.02	2302.55
569.37	2302.82
569.72	2303.46
570.08	2303.14
570.43	2302.89
570.78	2301.99
571.14	2300.36
571.49	2298.80
571.84	2298.41
572.20	2297.16
572.55	2295.97
572.90	2294.27
573.26	2292.68
573.61	2291.00
573.96	2288.82
574.31	2285.64
574.67	2282.45
575.02	2278.66
575.37	2275.16
575.72	2271.23
576.08	2267.84
576.43	2264.39
576.78	2260.53
577.13	2257.27
577.49	2254.27
577.84	2250.71
578.19	2246.95
578.54	2243.24
578.90	2238.98
579.25	2233.21
579.60	2228.13
579.95	2223.04
580.30	2217.97
580.66	2212.81
581.01	2207.56
581.36	2202.73
581.71	2198.43
582.06	2194.01
582.42	2189.43
582.77	2184.06
583.12	2179.31
583.47	2174.35
583.82	2169.17
584.17	2163.64
584.53	2157.98
584.88	2152.21
585.23	2146.28
585.58	2140.65
585.93	2135.10
586.28	2130.21
586.63	2124.86
586.98	2119.68
587.34	2114.83
587.69	2109.94
588.04	2104.41
588.39	2098.62
588.74	2092.07
589.09	2085.72
589.44	2078.67
589.79	2072.61
590.14	2066.91
590.49	2060.28
590.84	2053.83
591.19	2047.70
591.54	2041.09
591.89	2033.54
592.25	2026.61
592.60	2019.34
592.95	2011.63
593.30	2004.09
593.65	1996.30
594.00	1989.35
594.35	1981.97
594.70	1973.83
595.05	1966.37
595.40	1959.14
595.75	1951.52
596.10	1944.99
596.45	1938.11
596.80	1931.90
597.15	1925.24
597.50	1917.93
597.85	1911.45
598.19	1904.72
598.54	1897.56
598.89	1891.00
599.24	1885.12
599.59	1878.32
599.94	1871.94
600.29	1865.59
600.64	1859.02
600.99	1851.56
601.34	1844.58
601.69	1837.53
602.04	1830.60
602.39	1823.17
602.74	1816.26
603.08	1809.55
603.43	1802.84
603.78	1795.52
604.13	1788.21
604.48	1780.68
604.83	1773.98
605.18	1766.83
605.53	1758.76
605.87	1750.73
606.22	1743.37
606.57	1735.45
606.92	1728.07
607.27	1720.90
607.62	1714.03
607.96	1706.62
608.31	1699.97
608.66	1692.40
609.01	1685.02
609.36	1677.50
609.70	1669.54
610.05	1661.38
610.40	1653.73
610.75	1645.28
611.10	1637.62
611.44	1629.36
611.79	1621.46
612.14	1612.73
612.49	1603.85
612.83	1595.63
613.18	1587.63
613.53	1579.68
613.88	1571.16
614.22	1563.01
614.57	1554.54
614.92	1546.54
615.27	1539.02
615.61	1530.68
615.96	1522.69
616.31	1515.00
616.65	1507.63
617.00	1500.16
617.35	1492.72
617.70	1484.40
618.04	1476.11
618.39	1468.04
618.74	1460.36
619.08	1452.05
619.43	1444.47
619.78	1437.46
620.12	1430.19
620.47	1422.61
620.82	1414.48
621.16	1407.09
621.51	1399.41
621.85	1391.81
622.20	1383.18
622.55	1375.02
622.89	1367.32
623.24	1359.88
623.59	1352.60
623.93	1345.15
624.28	1337.89
624.62	1330.28
624.97	1323.22
625.32	1316.52
625.66	1309.52
626.01	1302.39
626.35	1294.95
626.70	1287.38
627.04	1279.74
627.39	1272.07
627.73	1264.70
628.08	1257.73
628.43	1250.40
628.77	1243.12
629.12	1235.65
629.46	1228.56
629.81	1221.19
630.15	1213.98
630.50	1206.54
630.84	1198.37
631.19	1190.54
631.53	1183.24
631.88	1175.74
632.22	1168.10
632.57	1160.79
632.91	1153.32
633.26	1146.04
633.60	1138.82
633.95	1131.81
634.29	1124.75
634.64	1118.15
634.98	1110.87
635.32	1103.87
635.67	1097.45
636.01	1090.95
636.36	1084.13
636.70	1077.77
637.05	1071.20
637.39	1064.75
637.73	1058.33
638.08	1052.52
638.42	1046.57
638.77	1040.07
639.11	1033.61
639.45	1027.35
639.80	1020.76
640.14	1014.35
640.49	1007.87
640.83	1001.62
641.17	995.33
641.52	989.05
641.86	982.71
642.20	976.98
642.55	970.86
642.89	964.30
643.23	957.77
643.58	952.10
643.92	945.80
644.26	939.67
644.61	933.79
644.95	927.72
645.29	921.17
645.64	914.41
645.98	908.04
646.32	902.24
646.66	896.21
647.01	890.45
647.35	884.73
647.69	878.91
648.04	873.46
648.38	867.74
648.72	861.79
649.06	855.75
649.41	849.83
649.75	843.68
650.09	837.75
650.43	831.94
650.78	825.76
651.12	819.93
651.46	814.30
651.80	808.43
652.14	803.06
652.49	797.65
652.83	792.50
653.17	786.89
653.51	781.05
653.85	775.68
654.20	770.03
654.54	764.11
654.88	758.33
655.22	752.40
655.56	746.71
655.90	741.32
656.25	736.07
656.59	730.77
656.93	725.80
657.27	720.69
657.61	715.31
657.95	710.24
658.29	705.14
658.64	699.92
658.98	694.76
659.32	689.33
659.66	684.23
660.00	678.96
660.34	674.06
660.68	669.28
661.02	664.24
661.36	659.58
661.70	655.12
662.05	650.89
662.39	646.62
662.73	642.34
663.07	638.00
663.41	633.63
663.75	629.21
664.09	624.70
664.43	620.39
664.77	616.31
665.11	612.10
665.45	608.03
665.79	604.08
666.13	599.93
666.47	595.84
666.81	591.66
667.15	587.57
667.49	583.72
667.83	579.98
668.17	576.12
668.51	572.06
668.85	568.11
669.19	564.32
669.53	560.54
669.87	556.62
670.21	552.96
670.55	549.30
670.89	545.81
671.23	542.37
671.57	538.89
671.91	535.40
672.25	531.95
672.58	528.49
672.92	525.13
673.26	522.03
673.60	518.95
673.94	515.91
674.28	513.12
674.62	510.24
674.96	507.12
675.30	504.25
675.64	501.37
675.97	498.65
676.31	495.77
676.65	492.83
676.99	490.10
677.33	487.26
677.67	484.48
678.01	481.48
678.34	478.52
678.68	475.70
679.02	472.92
679.36	470.20
679.70	467.51
680.04	464.73
680.37	461.87
680.71	459.11
681.05	456.46
681.39	453.78
681.73	451.11
682.06	448.59
682.40	446.01
682.74	443.49
683.08	440.94
683.42	438.35
683.75	435.89
684.09	433.39
684.43	430.95
684.77	428.55
685.10	426.25
685.44	424.05
685.78	421.75
686.12	419.50
686.45	417.25
686.79	414.98
687.13	412.79
687.46	410.61
687.80	408.42
688.14	406.27
688.48	404.19
688.81	401.94
689.15	399.80
689.49	397.69
689.82	395.66
690.16	393.59
690.50	391.67
690.83	389.73
691.17	387.79
691.51	385.89
691.84	384.01
692.18	382.09
692.52	380.05
692.85	378.17
693.19	376.32
693.52	374.57
693.86	372.74
694.20	371.00
694.53	369.23
694.87	367.45
695.21	365.68
695.54	363.85
695.88	362.16
696.21	360.47
696.55	358.84
696.88	357.15
697.22	355.49
697.56	353.86
697.89	352.21
698.23	350.58
698.56	348.97
698.90	347.37
699.23	345.74
699.57	344.22
699.90	342.67
700.24	341.11
700.58	339.50
700.91	338.01
701.25	336.59
701.58	335.22
701.92	333.86
702.25	332.47
702.59	331.12
702.92	329.79
703.26	328.51
703.59	327.20
703.93	326.04
704.26	324.86
704.60	323.56
704.93	322.32
705.26	321.12
705.60	319.99
705.93	318.85
706.27	317.87
706.60	316.82
706.94	315.75
707.27	314.63
707.61	313.58
707.94	312.59
708.27	311.47
708.61	310.43
708.94	309.45
709.28	308.51
709.61	307.59
709.94	306.66
710.28	305.66
710.61	304.75
710.95	303.70
711.28	302.78
711.61	301.84
711.95	300.91
712.28	299.97
712.61	298.95
712.95	298.04
713.28	297.14
713.61	296.24
713.95	295.35
714.28	294.57
714.61	293.75
714.95	292.91
715.28	292.08
715.61	291.22
715.95	290.35
716.28	289.46
716.61	288.63
716.95	287.86
717.28	287.15
717.61	286.35
717.94	285.62
718.28	284.81
718.61	284.13
718.94	283.48
719.27	282.82
719.61	282.22
719.94	281.56
720.27	280.88
720.60	280.21
720.94	279.60
721.27	279.00
721.60	278.44
721.93	277.84
722.27	277.32
722.60	276.74
722.93	276.21
723.26	275.66
723.59	275.09
723.93	274.49
724.26	273.92
724.59	273.38
724.92	272.84
725.25	272.36
725.59	271.86
725.92	271.36
726.25	270.83
726.58	270.31
726.91	269.79
727.24	269.30
727.57	268.82
727.91	268.32
728.24	267.84
728.57	267.35
728.90	266.92
729.23	266.40
729.56	265.95
729.89	265.47
730.22	265.02
730.55	264.58
730.89	264.12
731.22	263.66
731.55	263.22
731.88	262.82
732.21	262.36
732.54	261.88
732.87	261.43
733.20	261.03
733.53	260.67
733.86	260.30
734.19	259.90
734.52	259.52
734.85	259.18
735.18	258.76
735.51	258.37
735.84	257.95
736.17	257.60
736.50	257.24
736.83	257.02
737.16	256.67
737.49	256.32
737.82	256.00
738.15	255.67
738.48	255.31
738.81	254.92
739.14	254.64
739.47	254.36
739.80	254.07
740.13	253.77
740.46	253.42
740.79	253.10
741.12	252.78
741.45	252.46
741.78	252.12
742.11	251.84
742.44	251.53
742.77	251.28
743.10	250.93
743.43	250.62
743.75	250.24
744.08	250.11
744.41	249.84
744.74	249.55
745.07	249.28
745.40	249.06
745.73	248.87
746.06	248.58
746.39	248.31
746.71	248.07
747.04	247.77
747.37	247.53
747.70	247.29
748.03	247.07
748.36	246.88
748.68	246.65
749.01	246.43
749.34	246.21
749.67	245.96
750.00	245.80
750.33	245.65
750.65	245.44
750.98	245.11
751.31	244.94
751.64	244.76
751.97	244.62
752.29	244.39
752.62	244.14
752.95	243.94
753.28	243.73
753.60	243.51
753.93	243.38
754.26	243.21
754.59	242.98
754.91	242.78
755.24	242.58
755.57	242.42
755.90	242.23
756.22	242.05
756.55	241.84
756.88	241.66
757.20	241.43
757.53	241.24
757.86	241.05
758.19	240.85
758.51	240.67
758.84	240.46
759.17	240.31
759.49	240.18
759.82	240.05
760.15	239.92
760.47	239.78
760.80	239.60
761.13	239.44
761.45	239.32
761.78	239.19
762.11	239.06
762.43	238.90
762.76	238.75
763.08	238.60
763.41	238.49
763.74	238.34
764.06	238.21
764.39	238.07
764.71	237.94
765.04	237.81
765.37	237.67
765.69	237.53
766.02	237.39
766.34	237.24
766.67	237.09
767.00	237.00
767.32	236.92
767.65	236.88
767.97	236.75
768.30	236.64
768.62	236.51
768.95	236.36
769.27	236.27
769.60	236.20
769.92	236.09
770.25	235.96
770.57	235.83
770.90	235.74
771.22	235.62
771.55	235.53
771.87	235.42
772.20	235.29
772.52	235.28
772.85	235.29
773.17	235.20
773.50	235.11
773.82	234.97
774.15	234.82
774.47	234.65
774.80	234.58
775.12	234.48
775.45	234.39
775.77	234.31
776.09	234.20
776.42	234.10
776.74	234.07
777.07	234.00
777.39	233.95
777.72	233.83
778.04	233.77
778.36	233.68
778.69	233.62
779.01	233.59
779.33	233.42
779.66	233.26
779.98	233.15
780.31	233.12
780.63	233.08
780.95	233.03
781.28	232.96
781.60	232.86
781.92	232.80
782.25	232.75
782.57	232.70
782.89	232.66
783.22	232.59
783.54	232.51
783.86	232.48
784.19	232.41
784.51	232.41
784.83	232.36
785.16	232.32
785.48	232.30
785.80	232.25
786.12	232.19
786.45	232.15
786.77	232.15
787.09	232.08
