SpectraSuite Data File
++++++++++++++++++++++++++++++++++++
Date: Fri Feb 01 17:43:05 EST 2013
User: group
Dark Spectrum Present: No
Reference Spectrum Present: No
Number of Sampled Component Spectra: 1
Spectrometers: USB2E7196
Integration Time (usec): 35000 (USB2E7196)
Spectra Averaged: 100 (USB2E7196)
Boxcar Smoothing: 10 (USB2E7196)
Correct for Electrical Dark: No (USB2E7196)
Strobe/Lamp Enabled: No (USB2E7196)
Correct for Detector Non-linearity: No (USB2E7196)
Correct for Stray Light: No (USB2E7196)
Number of Pixels in Processed Spectrum: 2048
>>>>>Begin Processed Spectral Data<<<<<
339.09	0.00
339.48	212.37
339.86	214.11
340.24	215.06
340.63	217.15
341.01	219.65
341.39	219.26
341.78	220.88
342.16	222.10
342.54	221.97
342.93	210.98
343.31	221.61
343.69	222.14
344.07	222.58
344.46	223.01
344.84	223.37
345.22	223.61
345.60	223.87
345.99	224.05
346.37	224.18
346.75	224.29
347.13	224.36
347.52	224.39
347.90	224.47
348.28	224.51
348.66	224.59
349.05	224.55
349.43	224.57
349.81	224.62
350.19	224.68
350.57	224.75
350.96	224.79
351.34	224.89
351.72	224.98
352.10	225.09
352.48	225.18
352.87	225.22
353.25	225.27
353.63	225.31
354.01	225.35
354.39	225.43
354.77	225.51
355.15	225.62
355.54	225.70
355.92	225.71
356.30	225.76
356.68	225.87
357.06	225.96
357.44	226.05
357.82	226.11
358.20	226.17
358.58	226.22
358.97	226.31
359.35	226.38
359.73	226.45
360.11	226.52
360.49	226.58
360.87	226.64
361.25	226.69
361.63	226.77
362.01	226.84
362.39	226.92
362.77	226.96
363.15	226.99
363.53	227.02
363.91	227.06
364.29	227.12
364.67	227.06
365.05	227.10
365.43	227.12
365.81	227.15
366.19	227.19
366.57	227.23
366.95	227.23
367.33	227.22
367.71	227.22
368.09	227.19
368.47	227.16
368.85	227.14
369.23	227.17
369.61	227.10
369.99	227.11
370.37	227.05
370.75	227.05
371.13	226.99
371.51	226.97
371.89	226.97
372.27	226.91
372.65	226.89
373.03	226.81
373.41	226.77
373.78	226.74
374.16	226.66
374.54	226.59
374.92	226.55
375.30	226.50
375.68	226.42
376.06	226.39
376.44	226.37
376.82	226.34
377.19	226.25
377.57	226.24
377.95	226.16
378.33	226.11
378.71	226.00
379.09	225.96
379.47	225.88
379.84	225.81
380.22	225.76
380.60	225.69
380.98	225.65
381.36	225.53
381.73	225.41
382.11	225.36
382.49	225.28
382.87	225.21
383.25	225.16
383.62	225.26
384.00	225.21
384.38	225.15
384.76	225.12
385.13	225.12
385.51	225.08
385.89	225.03
386.27	224.98
386.64	224.94
387.02	224.87
387.40	224.81
387.78	224.79
388.15	224.74
388.53	224.70
388.91	224.62
389.29	224.63
389.66	224.64
390.04	224.60
390.42	224.58
390.79	224.55
391.17	224.51
391.55	224.38
391.92	224.34
392.30	224.35
392.68	224.30
393.05	224.27
393.43	224.25
393.81	224.24
394.18	224.22
394.56	224.25
394.94	224.29
395.31	224.31
395.69	224.34
396.06	224.37
396.44	224.40
396.82	224.44
397.19	224.50
397.57	224.55
397.95	224.59
398.32	224.58
398.70	224.65
399.07	224.74
399.45	224.77
399.82	224.83
400.20	224.86
400.58	224.94
400.95	224.99
401.33	225.09
401.70	225.21
402.08	225.32
402.45	225.44
402.83	225.52
403.20	225.63
403.58	225.72
403.95	225.83
404.33	225.98
404.71	226.13
405.08	226.30
405.46	226.44
405.83	226.62
406.21	226.79
406.58	226.96
406.96	227.12
407.33	227.33
407.70	227.53
408.08	227.84
408.45	228.08
408.83	228.32
409.20	228.56
409.58	228.77
409.95	229.06
410.33	229.34
410.70	229.62
411.08	229.97
411.45	230.33
411.82	230.71
412.20	231.07
412.57	231.55
412.95	231.94
413.32	232.40
413.69	232.89
414.07	233.42
414.44	233.96
414.82	234.53
415.19	235.17
415.56	235.84
415.94	236.47
416.31	237.26
416.68	237.99
417.06	238.86
417.43	239.65
417.81	240.56
418.18	241.47
418.55	242.50
418.93	243.56
419.30	244.65
419.67	245.81
420.04	246.98
420.42	248.15
420.79	249.52
421.16	250.93
421.54	252.35
421.91	253.79
422.28	255.29
422.66	256.88
423.03	258.44
423.40	260.06
423.77	261.77
424.15	263.44
424.52	265.23
424.89	267.16
425.26	269.10
425.64	270.81
426.01	272.74
426.38	274.71
426.75	276.69
427.13	278.76
427.50	280.92
427.87	283.16
428.24	285.38
428.61	287.47
428.99	289.77
429.36	292.29
429.73	294.77
430.10	297.20
430.47	299.67
430.85	302.23
431.22	304.93
431.59	307.73
431.96	310.47
432.33	313.45
432.70	316.25
433.08	319.57
433.45	322.78
433.82	325.90
434.19	329.41
434.56	332.77
434.93	335.87
435.30	338.99
435.68	342.45
436.05	345.82
436.42	349.19
436.79	352.22
437.16	355.49
437.53	358.92
437.90	362.29
438.27	365.61
438.64	369.01
439.01	372.12
439.38	374.84
439.75	377.39
440.13	380.36
440.50	383.18
440.87	385.39
441.24	387.66
441.61	390.26
441.98	392.05
442.35	394.24
442.72	396.52
443.09	398.65
443.46	399.88
443.83	400.67
444.20	401.33
444.57	402.32
444.94	402.62
445.31	403.03
445.68	403.46
446.05	403.56
446.42	403.08
446.79	402.59
447.16	402.05
447.53	401.73
447.90	400.38
448.27	399.02
448.64	397.19
449.01	395.91
449.37	393.57
449.74	391.29
450.11	388.58
450.48	385.64
450.85	382.64
451.22	380.10
451.59	377.62
451.96	375.29
452.33	372.19
452.70	369.37
453.07	365.99
453.43	362.53
453.80	359.16
454.17	355.97
454.54	352.93
454.91	349.68
455.28	346.44
455.65	343.45
456.02	340.48
456.38	337.86
456.75	334.59
457.12	331.86
457.49	329.17
457.86	326.58
458.23	324.32
458.59	321.85
458.96	319.29
459.33	317.07
459.70	314.79
460.07	312.99
460.43	310.90
460.80	308.94
461.17	307.18
461.54	305.41
461.91	303.67
462.27	301.84
462.64	300.30
463.01	298.70
463.38	297.11
463.74	295.44
464.11	294.03
464.48	292.83
464.85	291.52
465.21	290.43
465.58	289.27
465.95	287.94
466.32	286.89
466.68	285.82
467.05	284.78
467.42	283.69
467.78	282.56
468.15	281.53
468.52	280.74
468.88	279.69
469.25	278.78
469.62	278.00
469.98	277.22
470.35	276.49
470.72	275.76
471.08	274.99
471.45	274.38
471.82	273.73
472.18	273.02
472.55	272.47
472.92	271.86
473.28	271.30
473.65	270.77
474.02	270.18
474.38	269.75
474.75	269.32
475.11	268.88
475.48	268.53
475.85	268.26
476.21	267.95
476.58	267.77
476.94	267.55
477.31	267.33
477.67	267.15
478.04	266.97
478.41	266.85
478.77	266.87
479.14	266.72
479.50	266.68
479.87	266.73
480.23	266.77
480.60	266.81
480.96	266.90
481.33	267.10
481.69	267.33
482.06	267.47
482.42	267.62
482.79	267.87
483.15	268.19
483.52	268.56
483.88	268.90
484.25	269.22
484.61	269.65
484.98	270.09
485.34	270.63
485.71	271.23
486.07	271.84
486.44	272.40
486.80	273.12
487.17	273.84
487.53	274.66
487.90	275.54
488.26	276.48
488.62	277.46
488.99	278.43
489.35	279.47
489.72	280.62
490.08	281.86
490.44	283.13
490.81	284.45
491.17	285.79
491.54	287.30
491.90	288.91
492.26	290.55
492.63	292.35
492.99	294.15
493.36	296.07
493.72	298.14
494.08	300.28
494.45	302.58
494.81	305.03
495.17	307.49
495.54	310.10
495.90	312.84
496.26	315.73
496.63	318.81
496.99	322.02
497.35	325.34
497.72	328.86
498.08	332.46
498.44	336.24
498.80	340.25
499.17	344.37
499.53	348.63
499.89	353.12
500.26	357.69
500.62	362.48
500.98	367.56
501.34	372.77
501.71	378.20
502.07	383.78
502.43	389.47
502.79	395.44
503.16	401.69
503.52	408.12
503.88	414.65
504.24	421.37
504.60	428.40
504.97	435.74
505.33	443.19
505.69	451.07
506.05	459.07
506.41	467.13
506.78	475.50
507.14	484.23
507.50	493.17
507.86	502.40
508.22	511.81
508.59	521.30
508.95	531.10
509.31	541.14
509.67	551.54
510.03	562.09
510.39	572.96
510.75	583.96
511.12	595.14
511.48	606.79
511.84	618.62
512.20	630.40
512.56	642.62
512.92	655.14
513.28	667.84
513.64	680.65
514.00	693.75
514.37	707.04
514.73	720.43
515.09	733.82
515.45	747.57
515.81	761.56
516.17	775.95
516.53	790.44
516.89	805.15
517.25	819.79
517.61	834.65
517.97	849.58
518.33	864.52
518.69	879.86
519.05	895.31
519.41	910.89
519.77	926.97
520.13	942.99
520.49	958.89
520.85	974.82
521.21	990.97
521.57	1007.67
521.93	1023.93
522.29	1040.89
522.65	1057.84
523.01	1074.57
523.37	1091.40
523.73	1108.17
524.09	1124.96
524.45	1141.79
524.81	1158.95
525.17	1176.49
525.53	1193.98
525.89	1211.46
526.25	1228.93
526.61	1245.93
526.97	1263.38
527.33	1280.57
527.68	1297.83
528.04	1315.00
528.40	1332.24
528.76	1350.13
529.12	1367.55
529.48	1385.40
529.84	1402.11
530.20	1419.40
530.56	1437.19
530.91	1455.21
531.27	1472.76
531.63	1490.17
531.99	1507.56
532.35	1524.58
532.71	1541.22
533.07	1558.43
533.42	1575.39
533.78	1592.48
534.14	1609.81
534.50	1626.19
534.86	1643.02
535.21	1659.27
535.57	1676.10
535.93	1692.62
536.29	1708.40
536.65	1724.47
537.00	1739.98
537.36	1756.50
537.72	1771.98
538.08	1787.59
538.44	1802.29
538.79	1817.23
539.15	1831.75
539.51	1846.63
539.87	1862.10
540.22	1876.96
540.58	1891.69
540.94	1905.86
541.29	1919.67
541.65	1933.35
542.01	1947.74
542.37	1961.28
542.72	1974.77
543.08	1987.76
543.44	2001.39
543.79	2013.88
544.15	2025.94
544.51	2038.85
544.87	2050.80
545.22	2062.96
545.58	2074.26
545.94	2085.45
546.29	2096.56
546.65	2107.78
547.01	2118.31
547.36	2128.10
547.72	2137.79
548.07	2146.95
548.43	2156.40
548.79	2165.31
549.14	2174.16
549.50	2182.42
549.86	2190.97
550.21	2199.31
550.57	2207.83
550.92	2215.64
551.28	2223.74
551.64	2232.06
551.99	2239.64
552.35	2247.01
552.70	2254.22
553.06	2261.36
553.41	2268.74
553.77	2275.72
554.13	2282.65
554.48	2289.77
554.84	2296.59
555.19	2302.72
555.55	2309.00
555.90	2314.51
556.26	2320.90
556.61	2326.59
556.97	2332.22
557.32	2337.65
557.68	2343.01
558.03	2348.20
558.39	2352.69
558.74	2358.36
559.10	2363.21
559.45	2367.84
559.81	2372.81
560.16	2377.62
560.52	2381.76
560.87	2386.09
561.23	2389.67
561.58	2393.51
561.94	2396.92
562.29	2399.82
562.64	2403.71
563.00	2407.10
563.35	2411.49
563.71	2415.28
564.06	2419.13
564.42	2422.84
564.77	2426.40
565.12	2429.61
565.48	2432.38
565.83	2435.29
566.19	2437.40
566.54	2438.93
566.89	2440.92
567.25	2442.45
567.60	2444.47
567.96	2447.13
568.31	2448.65
568.66	2450.72
569.02	2452.09
569.37	2453.18
569.72	2454.83
570.08	2455.60
570.43	2456.08
570.78	2456.28
571.14	2455.25
571.49	2454.42
571.84	2454.53
572.20	2453.89
572.55	2453.26
572.90	2451.84
573.26	2450.88
573.61	2449.51
573.96	2448.44
574.31	2445.79
574.67	2443.29
575.02	2439.95
575.37	2436.61
575.72	2433.16
576.08	2429.74
576.43	2426.50
576.78	2423.28
577.13	2420.19
577.49	2417.01
577.84	2413.97
578.19	2410.30
578.54	2407.10
578.90	2403.37
579.25	2397.82
579.60	2392.84
579.95	2387.93
580.30	2383.12
580.66	2377.99
581.01	2372.98
581.36	2367.92
581.71	2364.10
582.06	2359.80
582.42	2355.43
582.77	2350.31
583.12	2345.87
583.47	2341.46
583.82	2336.68
584.17	2331.30
584.53	2325.72
584.88	2320.25
585.23	2314.45
585.58	2308.84
585.93	2303.09
586.28	2297.87
586.63	2292.88
586.98	2287.65
587.34	2282.74
587.69	2277.68
588.04	2272.29
588.39	2266.53
588.74	2259.77
589.09	2253.09
589.44	2245.99
589.79	2239.53
590.14	2233.42
590.49	2226.36
590.84	2219.44
591.19	2213.04
591.54	2206.09
591.89	2198.54
592.25	2191.54
592.60	2183.95
592.95	2176.09
593.30	2168.31
593.65	2160.41
594.00	2152.65
594.35	2145.01
594.70	2136.45
595.05	2129.21
595.40	2121.47
595.75	2113.54
596.10	2107.14
596.45	2100.07
596.80	2093.41
597.15	2086.59
597.50	2079.46
597.85	2072.56
598.19	2065.55
598.54	2058.28
598.89	2051.30
599.24	2044.90
599.59	2037.82
599.94	2030.93
600.29	2024.01
600.64	2017.01
600.99	2009.01
601.34	2001.81
601.69	1994.08
602.04	1986.66
602.39	1978.50
602.74	1971.18
603.08	1963.97
603.43	1956.41
603.78	1948.49
604.13	1940.73
604.48	1932.89
604.83	1925.27
605.18	1918.05
605.53	1909.54
605.87	1900.68
606.22	1892.68
606.57	1884.03
606.92	1875.71
607.27	1868.07
607.62	1860.70
607.96	1852.88
608.31	1846.06
608.66	1837.88
609.01	1829.95
609.36	1821.95
609.70	1813.31
610.05	1804.43
610.40	1796.02
610.75	1787.13
611.10	1778.89
611.44	1769.64
611.79	1760.82
612.14	1751.37
612.49	1741.12
612.83	1731.89
613.18	1722.98
613.53	1714.13
613.88	1704.81
614.22	1695.83
614.57	1686.28
614.92	1677.40
615.27	1669.25
615.61	1660.00
615.96	1651.14
616.31	1642.54
616.65	1634.26
617.00	1625.88
617.35	1617.42
617.70	1608.42
618.04	1599.16
618.39	1589.93
618.74	1581.71
619.08	1572.51
619.43	1564.15
619.78	1556.55
620.12	1548.69
620.47	1540.46
620.82	1531.46
621.16	1523.25
621.51	1514.79
621.85	1506.34
622.20	1497.06
622.55	1487.68
622.89	1478.90
623.24	1470.46
623.59	1462.26
623.93	1454.01
624.28	1446.02
624.62	1437.85
624.97	1429.86
625.32	1422.19
625.66	1414.40
626.01	1406.41
626.35	1398.52
626.70	1390.01
627.04	1381.57
627.39	1372.90
627.73	1364.68
628.08	1357.11
628.43	1349.13
628.77	1341.26
629.12	1333.15
629.46	1325.17
629.81	1316.94
630.15	1308.93
630.50	1300.80
630.84	1291.89
631.19	1283.07
631.53	1274.76
631.88	1266.46
632.22	1258.10
632.57	1250.16
632.91	1241.95
633.26	1233.87
633.60	1225.49
633.95	1217.56
634.29	1209.76
634.64	1202.33
634.98	1194.32
635.32	1186.51
635.67	1179.26
636.01	1171.91
636.36	1164.50
636.70	1157.36
637.05	1150.21
637.39	1143.14
637.73	1136.14
638.08	1129.63
638.42	1123.04
638.77	1116.01
639.11	1108.87
639.45	1101.87
639.80	1094.66
640.14	1087.68
640.49	1080.64
640.83	1073.80
641.17	1067.13
641.52	1060.28
641.86	1053.37
642.20	1046.93
642.55	1039.89
642.89	1032.84
643.23	1025.62
643.58	1019.29
643.92	1012.63
644.26	1006.14
644.61	999.49
644.95	992.95
645.29	985.87
645.64	978.56
645.98	971.69
646.32	965.12
646.66	958.60
647.01	952.22
647.35	946.08
647.69	939.59
648.04	933.53
648.38	927.17
648.72	920.75
649.06	914.17
649.41	907.79
649.75	901.47
650.09	895.03
650.43	888.75
650.78	882.09
651.12	875.51
651.46	869.23
651.80	863.16
652.14	857.22
652.49	851.44
652.83	845.83
653.17	839.75
653.51	833.63
653.85	827.68
654.20	821.64
654.54	815.08
654.88	808.76
655.22	802.35
655.56	796.12
655.90	790.07
656.25	784.37
656.59	778.57
656.93	772.97
657.27	767.37
657.61	761.53
657.95	755.91
658.29	750.40
658.64	744.62
658.98	738.72
659.32	732.77
659.66	727.07
660.00	721.40
660.34	715.97
660.68	710.64
661.02	705.18
661.36	700.03
661.70	695.16
662.05	690.53
662.39	685.97
662.73	681.15
663.07	676.44
663.41	671.69
663.75	666.84
664.09	661.96
664.43	657.15
664.77	652.72
665.11	648.14
665.45	643.66
665.79	639.36
666.13	634.97
666.47	630.49
666.81	626.00
667.15	621.47
667.49	617.23
667.83	613.02
668.17	608.77
668.51	604.41
668.85	600.07
669.19	595.83
669.53	591.60
669.87	587.46
670.21	583.42
670.55	579.36
670.89	575.56
671.23	571.82
671.57	568.02
671.91	564.14
672.25	560.34
672.58	556.54
672.92	552.74
673.26	549.25
673.60	545.86
673.94	542.51
674.28	539.39
674.62	536.25
674.96	532.93
675.30	529.80
675.64	526.60
675.97	523.51
676.31	520.45
676.65	517.28
676.99	514.29
677.33	511.18
677.67	508.16
678.01	504.98
678.34	501.74
678.68	498.63
679.02	495.62
679.36	492.59
679.70	489.59
680.04	486.66
680.37	483.62
680.71	480.59
681.05	477.74
681.39	474.76
681.73	471.80
682.06	469.12
682.40	466.30
682.74	463.53
683.08	460.80
683.42	457.90
683.75	455.17
684.09	452.42
684.43	449.72
684.77	447.03
685.10	444.46
685.44	441.89
685.78	439.38
686.12	436.82
686.45	434.34
686.79	431.92
687.13	429.49
687.46	427.12
687.80	424.74
688.14	422.26
688.48	419.98
688.81	417.58
689.15	415.15
689.49	412.84
689.82	410.57
690.16	408.21
690.50	406.06
690.83	403.97
691.17	401.74
691.51	399.69
691.84	397.67
692.18	395.57
692.52	393.49
692.85	391.35
693.19	389.39
693.52	387.41
693.86	385.37
694.20	383.38
694.53	381.42
694.87	379.42
695.21	377.48
695.54	375.48
695.88	373.55
696.21	371.71
696.55	369.83
696.88	367.95
697.22	366.12
697.56	364.38
697.89	362.55
698.23	360.84
698.56	359.09
698.90	357.37
699.23	355.58
699.57	353.86
699.90	352.19
700.24	350.49
700.58	348.83
700.91	347.21
701.25	345.67
701.58	344.20
701.92	342.72
702.25	341.22
702.59	339.77
702.92	338.33
703.26	336.90
703.59	335.56
703.93	334.31
704.26	333.01
704.60	331.62
704.93	330.20
705.26	328.84
705.60	327.50
705.93	326.20
706.27	325.06
706.60	323.95
706.94	322.74
707.27	321.51
707.61	320.29
707.94	319.17
708.27	317.91
708.61	316.71
708.94	315.57
709.28	314.47
709.61	313.40
709.94	312.33
710.28	311.22
710.61	310.10
710.95	308.91
711.28	307.86
711.61	306.84
711.95	305.86
712.28	304.78
712.61	303.75
712.95	302.75
713.28	301.74
713.61	300.66
713.95	299.72
714.28	298.80
714.61	297.85
714.95	296.92
715.28	296.04
715.61	295.04
715.95	294.13
716.28	293.24
716.61	292.30
716.95	291.41
717.28	290.55
717.61	289.69
717.94	288.89
718.28	288.02
718.61	287.15
718.94	286.36
719.27	285.72
719.61	285.02
719.94	284.25
720.27	283.49
720.60	282.80
720.94	282.10
721.27	281.46
721.60	280.84
721.93	280.19
722.27	279.52
722.60	278.96
722.93	278.30
723.26	277.68
723.59	277.12
723.93	276.54
724.26	275.93
724.59	275.32
724.92	274.75
725.25	274.21
725.59	273.67
725.92	273.14
726.25	272.54
726.58	271.97
726.91	271.46
727.24	270.89
727.57	270.39
727.91	269.81
728.24	269.25
728.57	268.74
728.90	268.26
729.23	267.78
729.56	267.29
729.89	266.77
730.22	266.23
730.55	265.71
730.89	265.23
731.22	264.78
731.55	264.31
731.88	263.85
732.21	263.39
732.54	262.91
732.87	262.45
733.20	261.99
733.53	261.56
733.86	261.16
734.19	260.76
734.52	260.34
734.85	260.00
735.18	259.58
735.51	259.19
735.84	258.77
736.17	258.38
736.50	257.97
736.83	257.71
737.16	257.37
737.49	257.01
737.82	256.62
738.15	256.25
738.48	255.87
738.81	255.48
739.14	255.10
739.47	254.80
739.80	254.45
740.13	254.15
740.46	253.77
740.79	253.42
741.12	253.08
741.45	252.71
741.78	252.33
742.11	252.01
742.44	251.60
742.77	251.28
743.10	250.96
743.43	250.60
743.75	250.19
744.08	250.00
744.41	249.69
744.74	249.41
745.07	249.10
745.40	248.83
745.73	248.57
746.06	248.28
746.39	247.96
746.71	247.66
747.04	247.34
747.37	247.07
747.70	246.81
748.03	246.52
748.36	246.31
748.68	246.05
749.01	245.79
749.34	245.57
749.67	245.28
750.00	245.02
750.33	244.85
750.65	244.63
750.98	244.27
751.31	244.03
751.64	243.79
751.97	243.60
752.29	243.36
752.62	243.09
752.95	242.87
753.28	242.64
753.60	242.42
753.93	242.23
754.26	242.02
754.59	241.77
754.91	241.55
755.24	241.29
755.57	241.09
755.90	240.85
756.22	240.65
756.55	240.44
756.88	240.22
757.20	239.97
757.53	239.76
757.86	239.56
758.19	239.40
758.51	239.20
758.84	238.99
759.17	238.83
759.49	238.67
759.82	238.51
760.15	238.33
760.47	238.16
760.80	237.95
761.13	237.81
761.45	237.61
761.78	237.46
762.11	237.30
762.43	237.17
762.76	237.06
763.08	236.90
763.41	236.77
763.74	236.63
764.06	236.48
764.39	236.31
764.71	236.16
765.04	236.01
765.37	235.85
765.69	235.66
766.02	235.49
766.34	235.36
766.67	235.21
767.00	235.11
767.32	235.04
767.65	235.01
767.97	234.88
768.30	234.78
768.62	234.67
768.95	234.57
769.27	234.42
769.60	234.31
769.92	234.19
770.25	234.05
770.57	233.92
770.90	233.83
771.22	233.72
771.55	233.63
771.87	233.52
772.20	233.44
772.52	233.44
772.85	233.47
773.17	233.34
773.50	233.23
773.82	233.14
774.15	233.00
774.47	232.86
774.80	232.76
775.12	232.66
775.45	232.52
775.77	232.46
776.09	232.37
776.42	232.31
776.74	232.24
777.07	232.17
777.39	232.10
777.72	232.03
778.04	231.95
778.36	231.88
778.69	231.83
779.01	231.76
779.33	231.57
779.66	231.36
779.98	231.25
780.31	231.19
780.63	231.12
780.95	231.10
781.28	230.99
781.60	230.93
781.92	230.86
782.25	230.81
782.57	230.71
782.89	230.64
783.22	230.54
783.54	230.48
783.86	230.44
784.19	230.38
784.51	230.33
784.83	230.27
785.16	230.20
785.48	230.12
785.80	230.04
786.12	230.05
786.45	230.01
786.77	230.00
