SpectraSuite Data File
++++++++++++++++++++++++++++++++++++
Date: Fri Feb 01 16:08:48 EST 2013
User: group
Dark Spectrum Present: No
Reference Spectrum Present: No
Number of Sampled Component Spectra: 1
Spectrometers: USB2E7196
Integration Time (usec): 35000 (USB2E7196)
Spectra Averaged: 100 (USB2E7196)
Boxcar Smoothing: 10 (USB2E7196)
Correct for Electrical Dark: No (USB2E7196)
Strobe/Lamp Enabled: No (USB2E7196)
Correct for Detector Non-linearity: No (USB2E7196)
Correct for Stray Light: No (USB2E7196)
Number of Pixels in Processed Spectrum: 2048
>>>>>Begin Processed Spectral Data<<<<<
339.09	0.00
339.48	214.67
339.86	215.85
340.24	217.65
340.63	219.57
341.01	221.64
341.39	221.44
341.78	223.06
342.16	224.12
342.54	225.16
342.93	213.12
343.31	223.91
343.69	224.46
344.07	224.95
344.46	225.38
344.84	225.71
345.22	225.94
345.60	226.19
345.99	226.37
346.37	226.48
346.75	226.55
347.13	226.59
347.52	226.66
347.90	226.70
348.28	226.74
348.66	226.78
349.05	226.77
349.43	226.78
349.81	226.84
350.19	226.86
350.57	226.90
350.96	226.96
351.34	227.00
351.72	227.05
352.10	227.10
352.48	227.14
352.87	227.17
353.25	227.21
353.63	227.26
354.01	227.28
354.39	227.36
354.77	227.43
355.15	227.53
355.54	227.58
355.92	227.60
356.30	227.63
356.68	227.76
357.06	227.82
357.44	227.85
357.82	227.87
358.20	227.94
358.58	227.99
358.97	228.05
359.35	228.12
359.73	228.21
360.11	228.26
360.49	228.33
360.87	228.41
361.25	228.46
361.63	228.55
362.01	228.60
362.39	228.60
362.77	228.64
363.15	228.68
363.53	228.72
363.91	228.75
364.29	228.80
364.67	228.72
365.05	228.75
365.43	228.78
365.81	228.81
366.19	228.85
366.57	228.89
366.95	228.88
367.33	228.84
367.71	228.83
368.09	228.85
368.47	228.83
368.85	228.78
369.23	228.79
369.61	228.71
369.99	228.75
370.37	228.77
370.75	228.78
371.13	228.73
371.51	228.68
371.89	228.63
372.27	228.60
372.65	228.55
373.03	228.48
373.41	228.45
373.78	228.39
374.16	228.30
374.54	228.23
374.92	228.18
375.30	228.13
375.68	228.04
376.06	228.00
376.44	227.95
376.82	227.93
377.19	227.88
377.57	227.84
377.95	227.74
378.33	227.66
378.71	227.58
379.09	227.53
379.47	227.48
379.84	227.39
380.22	227.31
380.60	227.26
380.98	227.22
381.36	227.15
381.73	227.10
382.11	227.04
382.49	226.97
382.87	226.88
383.25	226.85
383.62	226.92
384.00	226.82
384.38	226.73
384.76	226.68
385.13	226.66
385.51	226.62
385.89	226.54
386.27	226.50
386.64	226.46
387.02	226.40
387.40	226.39
387.78	226.41
388.15	226.39
388.53	226.34
388.91	226.27
389.29	226.23
389.66	226.22
390.04	226.20
390.42	226.22
390.79	226.23
391.17	226.22
391.55	226.13
391.92	226.13
392.30	226.18
392.68	226.15
393.05	226.16
393.43	226.16
393.81	226.21
394.18	226.19
394.56	226.20
394.94	226.22
395.31	226.21
395.69	226.22
396.06	226.25
396.44	226.26
396.82	226.28
397.19	226.36
397.57	226.38
397.95	226.41
398.32	226.41
398.70	226.48
399.07	226.50
399.45	226.55
399.82	226.62
400.20	226.70
400.58	226.73
400.95	226.75
401.33	226.83
401.70	226.93
402.08	227.01
402.45	227.07
402.83	227.18
403.20	227.24
403.58	227.33
403.95	227.47
404.33	227.60
404.71	227.72
405.08	227.91
405.46	228.01
405.83	228.17
406.21	228.31
406.58	228.43
406.96	228.65
407.33	228.79
407.70	228.97
408.08	229.18
408.45	229.45
408.83	229.68
409.20	229.90
409.58	230.11
409.95	230.39
410.33	230.68
410.70	230.94
411.08	231.27
411.45	231.57
411.82	231.87
412.20	232.23
412.57	232.67
412.95	232.94
413.32	233.35
413.69	233.73
414.07	234.16
414.44	234.66
414.82	235.10
415.19	235.65
415.56	236.20
415.94	236.72
416.31	237.33
416.68	237.96
417.06	238.68
417.43	239.34
417.81	240.10
418.18	240.86
418.55	241.67
418.93	242.53
419.30	243.42
419.67	244.37
420.04	245.33
420.42	246.30
420.79	247.48
421.16	248.67
421.54	249.87
421.91	251.09
422.28	252.33
422.66	253.67
423.03	254.95
423.40	256.28
423.77	257.73
424.15	259.15
424.52	260.64
424.89	262.25
425.26	263.76
425.64	265.22
426.01	266.85
426.38	268.53
426.75	270.22
427.13	271.94
427.50	273.74
427.87	275.63
428.24	277.53
428.61	279.25
428.99	281.21
429.36	283.33
429.73	285.41
430.10	287.43
430.47	289.52
430.85	291.67
431.22	293.93
431.59	296.28
431.96	298.53
432.33	300.99
432.70	303.36
433.08	306.18
433.45	308.82
433.82	311.39
434.19	314.24
434.56	317.03
434.93	319.70
435.30	322.34
435.68	325.18
436.05	327.98
436.42	330.80
436.79	333.31
437.16	336.03
437.53	338.86
437.90	341.68
438.27	344.38
438.64	347.15
439.01	349.72
439.38	352.01
439.75	354.19
440.13	356.71
440.50	359.03
440.87	360.82
441.24	362.76
441.61	364.89
441.98	366.40
442.35	368.17
442.72	370.00
443.09	371.76
443.46	372.76
443.83	373.33
444.20	373.81
444.57	374.58
444.94	374.84
445.31	375.14
445.68	375.48
446.05	375.54
446.42	375.18
446.79	374.76
447.16	374.28
447.53	373.93
447.90	372.77
448.27	371.60
448.64	370.07
449.01	368.92
449.37	366.99
449.74	365.08
450.11	362.83
450.48	360.39
450.85	357.86
451.22	355.76
451.59	353.74
451.96	351.80
452.33	349.24
452.70	346.89
453.07	344.04
453.43	341.17
453.80	338.42
454.17	335.77
454.54	333.20
454.91	330.51
455.28	327.83
455.65	325.31
456.02	322.87
456.38	320.75
456.75	318.10
457.12	315.82
457.49	313.60
457.86	311.46
458.23	309.64
458.59	307.65
458.96	305.56
459.33	303.68
459.70	301.86
460.07	300.33
460.43	298.62
460.80	297.04
461.17	295.58
461.54	294.10
461.91	292.63
462.27	291.20
462.64	289.96
463.01	288.64
463.38	287.36
463.74	286.00
464.11	284.83
464.48	283.85
464.85	282.79
465.21	281.93
465.58	281.02
465.95	279.90
466.32	278.99
466.68	278.10
467.05	277.28
467.42	276.39
467.78	275.50
468.15	274.67
468.52	274.01
468.88	273.19
469.25	272.43
469.62	271.85
469.98	271.22
470.35	270.59
470.72	270.00
471.08	269.36
471.45	268.82
471.82	268.30
472.18	267.73
472.55	267.32
472.92	266.82
473.28	266.39
473.65	265.97
474.02	265.54
474.38	265.14
474.75	264.79
475.11	264.47
475.48	264.23
475.85	263.98
476.21	263.75
476.58	263.55
476.94	263.39
477.31	263.24
477.67	263.06
478.04	262.96
478.41	262.91
478.77	263.00
479.14	263.00
479.50	263.02
479.87	263.07
480.23	263.13
480.60	263.20
480.96	263.29
481.33	263.49
481.69	263.69
482.06	263.92
482.42	264.15
482.79	264.43
483.15	264.75
483.52	265.14
483.88	265.49
484.25	265.88
484.61	266.31
484.98	266.75
485.34	267.33
485.71	267.91
486.07	268.51
486.44	269.05
486.80	269.72
487.17	270.45
487.53	271.20
487.90	272.06
488.26	272.99
488.62	274.00
488.99	274.99
489.35	276.02
489.72	277.10
490.08	278.30
490.44	279.49
490.81	280.80
491.17	282.17
491.54	283.65
491.90	285.21
492.26	286.86
492.63	288.62
492.99	290.36
493.36	292.23
493.72	294.27
494.08	296.38
494.45	298.60
494.81	300.95
495.17	303.42
495.54	305.96
495.90	308.66
496.26	311.41
496.63	314.38
496.99	317.48
497.35	320.76
497.72	324.14
498.08	327.66
498.44	331.32
498.80	335.23
499.17	339.27
499.53	343.46
499.89	347.87
500.26	352.34
500.62	357.07
500.98	362.09
501.34	367.18
501.71	372.45
502.07	377.91
502.43	383.51
502.79	389.38
503.16	395.45
503.52	401.70
503.88	408.11
504.24	414.75
504.60	421.61
504.97	428.74
505.33	436.10
505.69	443.84
506.05	451.61
506.41	459.47
506.78	467.62
507.14	476.02
507.50	484.70
507.86	493.70
508.22	502.91
508.59	512.08
508.95	521.63
509.31	531.51
509.67	541.62
510.03	551.93
510.39	562.48
510.75	573.31
511.12	584.32
511.48	595.60
511.84	607.01
512.20	618.54
512.56	630.51
512.92	642.70
513.28	655.11
513.64	667.54
514.00	680.29
514.37	693.33
514.73	706.38
515.09	719.41
515.45	732.75
515.81	746.27
516.17	760.27
516.53	774.40
516.89	788.49
517.25	802.68
517.61	817.10
517.97	831.51
518.33	845.92
518.69	860.65
519.05	875.58
519.41	890.67
519.77	906.17
520.13	921.57
520.49	936.83
520.85	952.12
521.21	967.78
521.57	983.82
521.93	999.44
522.29	1015.82
522.65	1032.02
523.01	1048.12
523.37	1064.05
523.73	1080.14
524.09	1096.19
524.45	1112.51
524.81	1129.17
525.17	1145.90
525.53	1162.71
525.89	1179.46
526.25	1196.11
526.61	1212.50
526.97	1229.23
527.33	1245.64
527.68	1262.20
528.04	1278.59
528.40	1295.07
528.76	1312.06
529.12	1328.69
529.48	1345.45
529.84	1361.41
530.20	1378.08
530.56	1395.14
530.91	1412.62
531.27	1429.33
531.63	1445.72
531.99	1462.24
532.35	1477.99
532.71	1493.87
533.07	1510.21
533.42	1526.17
533.78	1542.22
534.14	1558.51
534.50	1573.84
534.86	1589.64
535.21	1604.74
535.57	1620.72
535.93	1636.24
536.29	1650.98
536.65	1665.99
537.00	1680.80
537.36	1696.01
537.72	1710.40
538.08	1724.82
538.44	1738.42
538.79	1752.21
539.15	1765.81
539.51	1779.44
539.87	1793.72
540.22	1807.32
540.58	1820.98
540.94	1834.04
541.29	1846.77
541.65	1859.28
542.01	1872.42
542.37	1884.82
542.72	1897.21
543.08	1908.86
543.44	1921.13
543.79	1932.46
544.15	1943.41
544.51	1954.94
544.87	1966.04
545.22	1976.74
545.58	1986.74
545.94	1996.49
546.29	2006.30
546.65	2016.10
547.01	2025.32
547.36	2033.99
547.72	2042.42
548.07	2050.14
548.43	2058.42
548.79	2066.54
549.14	2074.10
549.50	2081.27
549.86	2088.74
550.21	2095.93
550.57	2103.07
550.92	2109.69
551.28	2116.63
551.64	2123.64
551.99	2130.02
552.35	2136.02
552.70	2142.31
553.06	2148.40
553.41	2154.87
553.77	2160.98
554.13	2167.16
554.48	2173.30
554.84	2178.91
555.19	2184.16
555.55	2189.31
555.90	2193.79
556.26	2198.59
556.61	2203.16
556.97	2207.65
557.32	2211.80
557.68	2215.98
558.03	2220.23
558.39	2223.89
558.74	2228.63
559.10	2232.49
559.45	2236.24
559.81	2240.46
560.16	2244.25
560.52	2247.27
560.87	2250.60
561.23	2253.19
561.58	2256.10
561.94	2258.57
562.29	2260.92
562.64	2263.68
563.00	2266.27
563.35	2269.68
563.71	2272.83
564.06	2276.10
564.42	2278.90
564.77	2281.61
565.12	2283.92
565.48	2285.94
565.83	2287.92
566.19	2289.05
566.54	2289.94
566.89	2291.11
567.25	2291.67
567.60	2292.96
567.96	2294.80
568.31	2295.57
568.66	2296.56
569.02	2297.04
569.37	2297.48
569.72	2298.28
570.08	2298.39
570.43	2298.52
570.78	2298.11
571.14	2296.61
571.49	2295.47
571.84	2295.12
572.20	2293.84
572.55	2292.83
572.90	2291.24
573.26	2289.83
573.61	2288.29
573.96	2286.60
574.31	2283.67
574.67	2280.85
575.02	2277.15
575.37	2273.78
575.72	2270.09
576.08	2266.86
576.43	2263.53
576.78	2259.99
577.13	2256.87
577.49	2253.82
577.84	2250.36
578.19	2246.64
578.54	2242.96
578.90	2238.72
579.25	2233.20
579.60	2228.21
579.95	2223.09
580.30	2218.18
580.66	2213.04
581.01	2208.03
581.36	2203.15
581.71	2199.09
582.06	2194.75
582.42	2190.53
582.77	2185.28
583.12	2180.88
583.47	2176.32
583.82	2171.59
584.17	2166.36
584.53	2160.81
584.88	2155.27
585.23	2149.53
585.58	2144.06
585.93	2138.73
586.28	2133.97
586.63	2128.92
586.98	2124.07
587.34	2119.48
587.69	2114.50
588.04	2109.23
588.39	2103.68
588.74	2097.28
589.09	2091.07
589.44	2084.05
589.79	2077.86
590.14	2072.30
590.49	2065.67
590.84	2059.28
591.19	2053.19
591.54	2046.55
591.89	2039.35
592.25	2032.50
592.60	2025.36
592.95	2017.79
593.30	2010.41
593.65	2002.83
594.00	1995.78
594.35	1988.61
594.70	1980.65
595.05	1973.59
595.40	1966.38
595.75	1958.86
596.10	1952.66
596.45	1946.00
596.80	1939.94
597.15	1933.37
597.50	1926.34
597.85	1919.77
598.19	1913.07
598.54	1905.88
598.89	1899.41
599.24	1893.45
599.59	1886.79
599.94	1880.50
600.29	1874.14
600.64	1867.63
600.99	1860.28
601.34	1853.51
601.69	1846.46
602.04	1839.70
602.39	1832.36
602.74	1825.55
603.08	1818.89
603.43	1812.15
603.78	1804.69
604.13	1797.64
604.48	1790.31
604.83	1783.51
605.18	1776.68
605.53	1768.71
605.87	1760.73
606.22	1753.39
606.57	1745.47
606.92	1738.17
607.27	1731.01
607.62	1724.12
607.96	1716.94
608.31	1710.38
608.66	1702.87
609.01	1695.27
609.36	1687.56
609.70	1679.59
610.05	1671.55
610.40	1663.81
610.75	1655.47
611.10	1647.85
611.44	1639.36
611.79	1631.54
612.14	1622.79
612.49	1613.65
612.83	1605.38
613.18	1597.33
613.53	1589.29
613.88	1580.65
614.22	1572.39
614.57	1563.77
614.92	1555.80
615.27	1548.27
615.61	1539.78
615.96	1531.67
616.31	1524.04
616.65	1516.75
617.00	1509.16
617.35	1501.43
617.70	1493.14
618.04	1484.65
618.39	1476.36
618.74	1468.72
619.08	1460.28
619.43	1452.77
619.78	1445.82
620.12	1438.59
620.47	1430.99
620.82	1422.85
621.16	1415.50
621.51	1407.93
621.85	1400.38
622.20	1391.87
622.55	1383.39
622.89	1375.61
623.24	1368.06
623.59	1360.69
623.93	1353.08
624.28	1345.80
624.62	1338.21
624.97	1330.95
625.32	1324.25
625.66	1317.33
626.01	1310.19
626.35	1302.69
626.70	1294.84
627.04	1287.09
627.39	1279.33
627.73	1272.01
628.08	1265.08
628.43	1257.84
628.77	1250.39
629.12	1242.81
629.46	1235.58
629.81	1228.12
630.15	1220.91
630.50	1213.49
630.84	1205.29
631.19	1197.42
631.53	1189.90
631.88	1182.47
632.22	1174.96
632.57	1167.52
632.91	1159.91
633.26	1152.56
633.60	1145.29
633.95	1138.20
634.29	1131.16
634.64	1124.48
634.98	1117.01
635.32	1109.85
635.67	1103.21
636.01	1096.57
636.36	1089.75
636.70	1083.21
637.05	1076.63
637.39	1070.18
637.73	1063.66
638.08	1057.78
638.42	1051.72
638.77	1045.29
639.11	1038.66
639.45	1032.22
639.80	1025.67
640.14	1019.34
640.49	1012.79
640.83	1006.48
641.17	1000.28
641.52	993.92
641.86	987.45
642.20	981.62
642.55	975.19
642.89	968.68
643.23	962.14
643.58	956.34
643.92	950.23
644.26	944.25
644.61	938.18
644.95	932.14
645.29	925.52
645.64	918.80
645.98	912.46
646.32	906.68
646.66	900.63
647.01	894.77
647.35	889.07
647.69	883.22
648.04	877.64
648.38	871.88
648.72	865.85
649.06	859.82
649.41	854.08
649.75	848.18
650.09	842.33
650.43	836.57
650.78	830.47
651.12	824.51
651.46	818.76
651.80	813.02
652.14	807.63
652.49	802.29
652.83	797.15
653.17	791.45
653.51	785.70
653.85	780.32
654.20	774.62
654.54	768.62
654.88	762.80
655.22	756.94
655.56	751.25
655.90	745.86
656.25	740.61
656.59	735.21
656.93	730.16
657.27	724.97
657.61	719.59
657.95	714.53
658.29	709.48
658.64	704.18
658.98	698.82
659.32	693.35
659.66	688.19
660.00	682.83
660.34	677.92
660.68	672.97
661.02	667.95
661.36	663.34
661.70	658.82
662.05	654.49
662.39	650.19
662.73	645.73
663.07	641.40
663.41	636.95
663.75	632.40
664.09	627.79
664.43	623.41
664.77	619.27
665.11	615.00
665.45	610.84
665.79	606.76
666.13	602.66
666.47	598.56
666.81	594.40
667.15	590.28
667.49	586.35
667.83	582.57
668.17	578.68
668.51	574.60
668.85	570.57
669.19	566.77
669.53	562.86
669.87	558.99
670.21	555.27
670.55	551.59
670.89	548.13
671.23	544.73
671.57	541.24
671.91	537.68
672.25	534.10
672.58	530.54
672.92	527.14
673.26	523.95
673.60	520.82
673.94	517.70
674.28	514.80
674.62	511.86
674.96	508.74
675.30	505.78
675.64	502.78
675.97	500.01
676.31	497.10
676.65	494.20
676.99	491.46
677.33	488.64
677.67	485.81
678.01	482.82
678.34	479.88
678.68	476.96
679.02	474.07
679.36	471.35
679.70	468.65
680.04	465.90
680.37	463.02
680.71	460.21
681.05	457.61
681.39	454.93
681.73	452.24
682.06	449.72
682.40	447.20
682.74	444.71
683.08	442.15
683.42	439.58
683.75	437.11
684.09	434.56
684.43	431.99
684.77	429.58
685.10	427.19
685.44	424.84
685.78	422.58
686.12	420.34
686.45	418.04
686.79	415.70
687.13	413.52
687.46	411.38
687.80	409.24
688.14	406.97
688.48	404.91
688.81	402.75
689.15	400.60
689.49	398.40
689.82	396.34
690.16	394.23
690.50	392.25
690.83	390.29
691.17	388.28
691.51	386.41
691.84	384.58
692.18	382.65
692.52	380.70
692.85	378.74
693.19	376.92
693.52	375.06
693.86	373.30
694.20	371.49
694.53	369.73
694.87	367.89
695.21	366.12
695.54	364.30
695.88	362.56
696.21	360.88
696.55	359.18
696.88	357.51
697.22	355.88
697.56	354.31
697.89	352.66
698.23	351.08
698.56	349.50
698.90	347.86
699.23	346.29
699.57	344.75
699.90	343.19
700.24	341.64
700.58	340.15
700.91	338.69
701.25	337.20
701.58	335.81
701.92	334.45
702.25	333.10
702.59	331.74
702.92	330.42
703.26	329.10
703.59	327.86
703.93	326.65
704.26	325.39
704.60	324.06
704.93	322.81
705.26	321.59
705.60	320.38
705.93	319.26
706.27	318.18
706.60	317.09
706.94	316.03
707.27	314.91
707.61	313.84
707.94	312.79
708.27	311.70
708.61	310.58
708.94	309.55
709.28	308.56
709.61	307.57
709.94	306.57
710.28	305.54
710.61	304.55
710.95	303.45
711.28	302.56
711.61	301.62
711.95	300.70
712.28	299.73
712.61	298.74
712.95	297.80
713.28	296.89
713.61	296.00
713.95	295.12
714.28	294.26
714.61	293.42
714.95	292.57
715.28	291.76
715.61	290.93
715.95	290.07
716.28	289.21
716.61	288.38
716.95	287.56
717.28	286.80
717.61	286.01
717.94	285.29
718.28	284.44
718.61	283.72
718.94	283.00
719.27	282.34
719.61	281.71
719.94	281.06
720.27	280.36
720.60	279.69
720.94	279.08
721.27	278.45
721.60	277.85
721.93	277.24
722.27	276.68
722.60	276.12
722.93	275.54
723.26	275.00
723.59	274.41
723.93	273.87
724.26	273.35
724.59	272.79
724.92	272.28
725.25	271.84
725.59	271.29
725.92	270.84
726.25	270.33
726.58	269.84
726.91	269.32
727.24	268.86
727.57	268.39
727.91	267.89
728.24	267.47
728.57	267.01
728.90	266.57
729.23	266.11
729.56	265.69
729.89	265.22
730.22	264.69
730.55	264.25
730.89	263.84
731.22	263.37
731.55	262.95
731.88	262.56
732.21	262.14
732.54	261.71
732.87	261.28
733.20	260.86
733.53	260.52
733.86	260.13
734.19	259.73
734.52	259.38
734.85	259.06
735.18	258.65
735.51	258.28
735.84	257.90
736.17	257.55
736.50	257.10
736.83	256.88
737.16	256.62
737.49	256.30
737.82	255.94
738.15	255.63
738.48	255.32
738.81	254.95
739.14	254.60
739.47	254.28
739.80	253.96
740.13	253.67
740.46	253.31
740.79	252.99
741.12	252.67
741.45	252.34
741.78	252.02
742.11	251.74
742.44	251.39
742.77	251.11
743.10	250.79
743.43	250.53
743.75	250.14
744.08	249.97
744.41	249.68
744.74	249.40
745.07	249.10
745.40	248.84
745.73	248.62
746.06	248.32
746.39	248.09
746.71	247.78
747.04	247.48
747.37	247.22
747.70	246.95
748.03	246.70
748.36	246.42
748.68	246.14
749.01	245.88
749.34	245.68
749.67	245.44
750.00	245.18
750.33	244.99
750.65	244.75
750.98	244.39
751.31	244.15
751.64	243.92
751.97	243.73
752.29	243.48
752.62	243.20
752.95	242.98
753.28	242.73
753.60	242.54
753.93	242.36
754.26	242.13
754.59	241.93
754.91	241.70
755.24	241.54
755.57	241.33
755.90	241.13
756.22	240.92
756.55	240.70
756.88	240.52
757.20	240.27
757.53	240.09
757.86	239.92
758.19	239.80
758.51	239.61
758.84	239.39
759.17	239.24
759.49	239.07
759.82	238.93
760.15	238.75
760.47	238.60
760.80	238.39
761.13	238.28
761.45	238.11
761.78	237.97
762.11	237.82
762.43	237.70
762.76	237.54
763.08	237.40
763.41	237.30
763.74	237.18
764.06	237.08
764.39	236.93
764.71	236.80
765.04	236.64
765.37	236.53
765.69	236.44
766.02	236.32
766.34	236.23
766.67	236.09
767.00	236.03
767.32	235.97
767.65	235.95
767.97	235.82
768.30	235.74
768.62	235.66
768.95	235.53
769.27	235.43
769.60	235.34
769.92	235.23
770.25	235.13
770.57	235.01
770.90	234.92
771.22	234.81
771.55	234.74
771.87	234.70
772.20	234.60
772.52	234.62
772.85	234.62
773.17	234.57
773.50	234.52
773.82	234.43
774.15	234.33
774.47	234.17
774.80	234.10
775.12	234.01
775.45	233.88
775.77	233.84
776.09	233.76
776.42	233.71
776.74	233.65
777.07	233.58
777.39	233.57
777.72	233.49
778.04	233.46
778.36	233.39
778.69	233.32
779.01	233.27
779.33	233.09
779.66	232.92
779.98	232.82
780.31	232.75
780.63	232.73
780.95	232.69
781.28	232.65
781.60	232.59
781.92	232.55
782.25	232.55
782.57	232.46
782.89	232.42
783.22	232.33
783.54	232.24
783.86	232.16
784.19	232.06
784.51	232.02
784.83	232.01
785.16	231.94
785.48	231.88
785.80	231.82
786.12	231.77
786.45	231.71
786.77	231.65
787.09	231.59
