SpectraSuite Data File
++++++++++++++++++++++++++++++++++++
Date: Fri Feb 01 17:10:39 EST 2013
User: group
Dark Spectrum Present: No
Reference Spectrum Present: No
Number of Sampled Component Spectra: 1
Spectrometers: USB2E7196
Integration Time (usec): 35000 (USB2E7196)
Spectra Averaged: 100 (USB2E7196)
Boxcar Smoothing: 10 (USB2E7196)
Correct for Electrical Dark: No (USB2E7196)
Strobe/Lamp Enabled: No (USB2E7196)
Correct for Detector Non-linearity: No (USB2E7196)
Correct for Stray Light: No (USB2E7196)
Number of Pixels in Processed Spectrum: 2048
>>>>>Begin Processed Spectral Data<<<<<
339.09	0.00
339.48	213.73
339.86	215.34
340.24	216.25
340.63	217.82
341.01	220.29
341.39	220.49
341.78	222.07
342.16	222.64
342.54	223.77
342.93	211.91
343.31	222.63
343.69	223.14
344.07	223.56
344.46	223.98
344.84	224.36
345.22	224.59
345.60	224.83
345.99	225.01
346.37	225.14
346.75	225.21
347.13	225.24
347.52	225.25
347.90	225.33
348.28	225.30
348.66	225.34
349.05	225.31
349.43	225.38
349.81	225.42
350.19	225.49
350.57	225.47
350.96	225.52
351.34	225.53
351.72	225.59
352.10	225.68
352.48	225.77
352.87	225.81
353.25	225.86
353.63	225.90
354.01	225.91
354.39	225.98
354.77	226.05
355.15	226.16
355.54	226.22
355.92	226.21
356.30	226.31
356.68	226.41
357.06	226.48
357.44	226.50
357.82	226.52
358.20	226.60
358.58	226.69
358.97	226.75
359.35	226.87
359.73	226.98
360.11	227.04
360.49	227.06
360.87	227.12
361.25	227.20
361.63	227.28
362.01	227.35
362.39	227.37
362.77	227.40
363.15	227.45
363.53	227.49
363.91	227.54
364.29	227.56
364.67	227.48
365.05	227.50
365.43	227.54
365.81	227.60
366.19	227.64
366.57	227.69
366.95	227.70
367.33	227.67
367.71	227.67
368.09	227.68
368.47	227.70
368.85	227.65
369.23	227.65
369.61	227.60
369.99	227.62
370.37	227.59
370.75	227.65
371.13	227.61
371.51	227.59
371.89	227.56
372.27	227.54
372.65	227.50
373.03	227.46
373.41	227.44
373.78	227.37
374.16	227.28
374.54	227.22
374.92	227.14
375.30	227.11
375.68	227.05
376.06	226.99
376.44	226.91
376.82	226.90
377.19	226.82
377.57	226.77
377.95	226.69
378.33	226.64
378.71	226.49
379.09	226.42
379.47	226.35
379.84	226.28
380.22	226.22
380.60	226.15
380.98	226.09
381.36	226.00
381.73	225.93
382.11	225.87
382.49	225.80
382.87	225.74
383.25	225.66
383.62	225.72
384.00	225.64
384.38	225.60
384.76	225.56
385.13	225.56
385.51	225.52
385.89	225.49
386.27	225.46
386.64	225.42
387.02	225.40
387.40	225.33
387.78	225.31
388.15	225.28
388.53	225.25
388.91	225.20
389.29	225.17
389.66	225.17
390.04	225.15
390.42	225.13
390.79	225.12
391.17	225.09
391.55	224.97
391.92	224.94
392.30	224.95
392.68	224.90
393.05	224.87
393.43	224.87
393.81	224.84
394.18	224.78
394.56	224.81
394.94	224.83
395.31	224.87
395.69	224.90
396.06	224.92
396.44	224.94
396.82	224.97
397.19	225.06
397.57	225.06
397.95	225.09
398.32	225.09
398.70	225.15
399.07	225.21
399.45	225.25
399.82	225.35
400.20	225.38
400.58	225.43
400.95	225.46
401.33	225.52
401.70	225.65
402.08	225.79
402.45	225.84
402.83	225.94
403.20	226.04
403.58	226.11
403.95	226.24
404.33	226.35
404.71	226.49
405.08	226.65
405.46	226.78
405.83	226.95
406.21	227.11
406.58	227.28
406.96	227.41
407.33	227.57
407.70	227.74
408.08	227.98
408.45	228.21
408.83	228.43
409.20	228.62
409.58	228.81
409.95	229.06
410.33	229.33
410.70	229.54
411.08	229.83
411.45	230.13
411.82	230.46
412.20	230.84
412.57	231.23
412.95	231.52
413.32	231.95
413.69	232.36
414.07	232.79
414.44	233.28
414.82	233.80
415.19	234.37
415.56	234.95
415.94	235.47
416.31	236.12
416.68	236.75
417.06	237.50
417.43	238.18
417.81	238.95
418.18	239.76
418.55	240.64
418.93	241.52
419.30	242.45
419.67	243.36
420.04	244.33
420.42	245.35
420.79	246.56
421.16	247.72
421.54	248.91
421.91	250.15
422.28	251.40
422.66	252.73
423.03	254.03
423.40	255.39
423.77	256.85
424.15	258.27
424.52	259.78
424.89	261.38
425.26	262.96
425.64	264.42
426.01	266.05
426.38	267.70
426.75	269.36
427.13	271.07
427.50	272.89
427.87	274.77
428.24	276.60
428.61	278.28
428.99	280.20
429.36	282.30
429.73	284.35
430.10	286.38
430.47	288.43
430.85	290.54
431.22	292.69
431.59	295.01
431.96	297.25
432.33	299.71
432.70	302.11
433.08	304.94
433.45	307.57
433.82	310.13
434.19	313.01
434.56	315.84
434.93	318.50
435.30	321.12
435.68	323.99
436.05	326.83
436.42	329.67
436.79	332.21
437.16	334.93
437.53	337.75
437.90	340.53
438.27	343.28
438.64	346.13
439.01	348.79
439.38	351.08
439.75	353.24
440.13	355.74
440.50	358.08
440.87	359.89
441.24	361.88
441.61	364.03
441.98	365.53
442.35	367.29
442.72	369.13
443.09	370.96
443.46	371.96
443.83	372.54
444.20	373.06
444.57	373.91
444.94	374.20
445.31	374.53
445.68	374.89
446.05	374.96
446.42	374.58
446.79	374.15
447.16	373.74
447.53	373.43
447.90	372.28
448.27	371.07
448.64	369.49
449.01	368.30
449.37	366.33
449.74	364.47
450.11	362.29
450.48	359.86
450.85	357.35
451.22	355.22
451.59	353.24
451.96	351.28
452.33	348.67
452.70	346.27
453.07	343.45
453.43	340.55
453.80	337.77
454.17	335.11
454.54	332.58
454.91	329.84
455.28	327.20
455.65	324.73
456.02	322.33
456.38	320.15
456.75	317.47
457.12	315.26
457.49	313.00
457.86	310.75
458.23	308.86
458.59	306.81
458.96	304.70
459.33	302.79
459.70	300.92
460.07	299.42
460.43	297.72
460.80	296.11
461.17	294.68
461.54	293.18
461.91	291.72
462.27	290.26
462.64	289.01
463.01	287.64
463.38	286.33
463.74	284.92
464.11	283.76
464.48	282.79
464.85	281.69
465.21	280.84
465.58	279.96
465.95	278.84
466.32	277.91
466.68	277.02
467.05	276.13
467.42	275.25
467.78	274.31
468.15	273.43
468.52	272.81
468.88	271.98
469.25	271.26
469.62	270.62
469.98	269.96
470.35	269.31
470.72	268.71
471.08	268.07
471.45	267.57
471.82	267.07
472.18	266.46
472.55	266.00
472.92	265.45
473.28	265.02
473.65	264.61
474.02	264.16
474.38	263.84
474.75	263.56
475.11	263.24
475.48	262.99
475.85	262.77
476.21	262.53
476.58	262.32
476.94	262.18
477.31	262.08
477.67	261.96
478.04	261.83
478.41	261.79
478.77	261.86
479.14	261.79
479.50	261.79
479.87	261.87
480.23	261.97
480.60	262.07
480.96	262.13
481.33	262.37
481.69	262.55
482.06	262.69
482.42	262.87
482.79	263.13
483.15	263.44
483.52	263.85
483.88	264.19
484.25	264.61
484.61	265.02
484.98	265.43
485.34	265.99
485.71	266.60
486.07	267.21
486.44	267.78
486.80	268.53
487.17	269.27
487.53	270.09
487.90	270.96
488.26	271.88
488.62	272.89
488.99	273.84
489.35	274.93
489.72	276.08
490.08	277.33
490.44	278.56
490.81	279.89
491.17	281.20
491.54	282.69
491.90	284.20
492.26	285.83
492.63	287.58
492.99	289.35
493.36	291.25
493.72	293.27
494.08	295.38
494.45	297.58
494.81	299.95
495.17	302.41
495.54	304.96
495.90	307.66
496.26	310.47
496.63	313.43
496.99	316.57
497.35	319.82
497.72	323.23
498.08	326.73
498.44	330.43
498.80	334.38
499.17	338.44
499.53	342.60
499.89	347.02
500.26	351.55
500.62	356.22
500.98	361.14
501.34	366.22
501.71	371.55
502.07	376.99
502.43	382.56
502.79	388.31
503.16	394.37
503.52	400.61
503.88	406.93
504.24	413.53
504.60	420.33
504.97	427.41
505.33	434.68
505.69	442.38
506.05	450.14
506.41	457.96
506.78	466.04
507.14	474.42
507.50	483.05
507.86	491.92
508.22	501.02
508.59	510.11
508.95	519.56
509.31	529.30
509.67	539.24
510.03	549.43
510.39	559.87
510.75	570.44
511.12	581.17
511.48	592.36
511.84	603.66
512.20	614.99
512.56	626.78
512.92	638.74
513.28	650.94
513.64	663.12
514.00	675.66
514.37	688.41
514.73	701.29
515.09	714.10
515.45	727.22
515.81	740.55
516.17	754.32
516.53	768.28
516.89	782.20
517.25	796.15
517.61	810.31
517.97	824.57
518.33	838.78
518.69	853.39
519.05	868.08
519.41	883.02
519.77	898.22
520.13	913.39
520.49	928.45
520.85	943.46
521.21	958.81
521.57	974.67
521.93	990.19
522.29	1006.26
522.65	1022.21
523.01	1038.06
523.37	1053.75
523.73	1069.66
524.09	1085.25
524.45	1101.19
524.81	1117.43
525.17	1133.83
525.53	1150.32
525.89	1166.81
526.25	1183.21
526.61	1199.21
526.97	1215.62
527.33	1231.82
527.68	1247.94
528.04	1264.15
528.40	1280.38
528.76	1297.16
529.12	1313.48
529.48	1329.86
529.84	1345.54
530.20	1361.81
530.56	1378.42
530.91	1395.52
531.27	1411.92
531.63	1428.22
531.99	1444.45
532.35	1460.25
532.71	1475.76
533.07	1491.72
533.42	1507.41
533.78	1523.16
534.14	1539.07
534.50	1554.01
534.86	1569.55
535.21	1584.49
535.57	1600.01
535.93	1615.14
536.29	1629.63
536.65	1644.14
537.00	1658.59
537.36	1673.57
537.72	1687.82
538.08	1701.87
538.44	1715.26
538.79	1728.75
539.15	1741.92
539.51	1755.31
539.87	1769.24
540.22	1782.74
540.58	1796.12
540.94	1808.93
541.29	1821.33
541.65	1833.79
542.01	1846.76
542.37	1858.71
542.72	1870.84
543.08	1882.32
543.44	1894.45
543.79	1905.56
544.15	1916.52
544.51	1927.87
544.87	1938.59
545.22	1949.27
545.58	1959.42
545.94	1969.18
546.29	1979.08
546.65	1989.02
547.01	1998.24
547.36	2006.91
547.72	2015.31
548.07	2023.11
548.43	2031.45
548.79	2039.54
549.14	2047.04
549.50	2054.24
549.86	2061.85
550.21	2069.24
550.57	2076.64
550.92	2083.33
551.28	2090.37
551.64	2097.43
551.99	2104.02
552.35	2110.20
552.70	2116.26
553.06	2122.25
553.41	2128.64
553.77	2134.49
554.13	2140.48
554.48	2146.65
554.84	2152.25
555.19	2157.64
555.55	2163.02
555.90	2167.66
556.26	2172.75
556.61	2177.56
556.97	2182.17
557.32	2186.54
557.68	2190.70
558.03	2194.93
558.39	2198.68
558.74	2203.33
559.10	2207.25
559.45	2211.02
559.81	2215.47
560.16	2219.47
560.52	2222.94
560.87	2226.54
561.23	2229.51
561.58	2232.51
561.94	2235.19
562.29	2237.51
562.64	2240.45
563.00	2243.01
563.35	2246.52
563.71	2249.76
564.06	2253.09
564.42	2256.08
564.77	2258.82
565.12	2261.44
565.48	2263.57
565.83	2265.69
566.19	2267.37
566.54	2268.53
566.89	2269.92
567.25	2270.64
567.60	2272.04
567.96	2273.93
568.31	2274.84
568.66	2276.10
569.02	2277.10
569.37	2277.66
569.72	2278.93
570.08	2279.23
570.43	2279.67
570.78	2279.34
571.14	2278.10
571.49	2277.05
571.84	2276.94
572.20	2276.16
572.55	2275.31
572.90	2274.01
573.26	2272.85
573.61	2271.31
573.96	2269.85
574.31	2267.14
574.67	2264.46
575.02	2261.09
575.37	2257.82
575.72	2254.38
576.08	2251.14
576.43	2247.84
576.78	2244.47
577.13	2241.40
577.49	2238.42
577.84	2235.03
578.19	2231.40
578.54	2227.91
578.90	2224.00
579.25	2218.62
579.60	2213.90
579.95	2209.10
580.30	2204.21
580.66	2199.27
581.01	2194.33
581.36	2189.60
581.71	2185.75
582.06	2181.69
582.42	2177.48
582.77	2172.70
583.12	2168.37
583.47	2164.09
583.82	2159.52
584.17	2154.49
584.53	2149.33
584.88	2143.97
585.23	2138.59
585.58	2133.43
585.93	2128.14
586.28	2123.40
586.63	2118.57
586.98	2113.58
587.34	2108.90
587.69	2104.27
588.04	2099.33
588.39	2094.02
588.74	2087.79
589.09	2081.80
589.44	2075.13
589.79	2069.28
590.14	2063.61
590.49	2057.20
590.84	2050.83
591.19	2044.96
591.54	2038.69
591.89	2031.64
592.25	2025.13
592.60	2018.06
592.95	2010.64
593.30	2003.70
593.65	1996.30
594.00	1989.37
594.35	1982.27
594.70	1974.54
595.05	1967.67
595.40	1960.54
595.75	1953.23
596.10	1947.38
596.45	1940.80
596.80	1934.94
597.15	1928.59
597.50	1921.90
597.85	1915.55
598.19	1909.20
598.54	1902.40
598.89	1895.98
599.24	1889.99
599.59	1883.62
599.94	1877.49
600.29	1871.31
600.64	1864.73
600.99	1857.52
601.34	1850.89
601.69	1844.06
602.04	1837.40
602.39	1830.00
602.74	1823.24
603.08	1816.60
603.43	1809.73
603.78	1802.49
604.13	1795.32
604.48	1788.27
604.83	1781.47
605.18	1774.68
605.53	1766.78
605.87	1758.76
606.22	1751.37
606.57	1743.37
606.92	1735.68
607.27	1728.60
607.62	1721.89
607.96	1714.69
608.31	1708.27
608.66	1700.80
609.01	1693.37
609.36	1685.81
609.70	1677.93
610.05	1669.93
610.40	1662.26
610.75	1653.94
611.10	1646.31
611.44	1637.72
611.79	1629.55
612.14	1620.88
612.49	1611.72
612.83	1603.26
613.18	1595.09
613.53	1587.19
613.88	1578.85
614.22	1570.73
614.57	1562.02
614.92	1554.05
615.27	1546.62
615.61	1538.24
615.96	1530.19
616.31	1522.48
616.65	1515.07
617.00	1507.51
617.35	1499.76
617.70	1491.58
618.04	1483.27
618.39	1475.14
618.74	1467.63
619.08	1459.33
619.43	1451.82
619.78	1444.96
620.12	1437.83
620.47	1430.28
620.82	1422.04
621.16	1414.52
621.51	1406.98
621.85	1399.40
622.20	1390.80
622.55	1382.39
622.89	1374.58
623.24	1366.89
623.59	1359.58
623.93	1352.01
624.28	1344.81
624.62	1337.41
624.97	1330.26
625.32	1323.37
625.66	1316.27
626.01	1309.24
626.35	1301.85
626.70	1294.10
627.04	1286.42
627.39	1278.68
627.73	1271.40
628.08	1264.49
628.43	1257.41
628.77	1250.13
629.12	1242.73
629.46	1235.59
629.81	1228.11
630.15	1220.88
630.50	1213.51
630.84	1205.42
631.19	1197.54
631.53	1189.98
631.88	1182.39
632.22	1174.65
632.57	1167.34
632.91	1159.84
633.26	1152.41
633.60	1145.02
633.95	1137.75
634.29	1130.56
634.64	1123.88
634.98	1116.53
635.32	1109.44
635.67	1102.65
636.01	1095.95
636.36	1089.12
636.70	1082.55
637.05	1076.01
637.39	1069.50
637.73	1063.03
638.08	1057.07
638.42	1051.19
638.77	1044.87
639.11	1038.35
639.45	1031.92
639.80	1025.29
640.14	1018.84
640.49	1012.28
640.83	1005.94
641.17	999.80
641.52	993.47
641.86	986.96
642.20	981.04
642.55	974.66
642.89	968.37
643.23	961.77
643.58	955.99
643.92	949.88
644.26	943.89
644.61	937.81
644.95	931.81
645.29	925.26
645.64	918.46
645.98	912.04
646.32	906.10
646.66	900.13
647.01	894.42
647.35	888.80
647.69	882.94
648.04	877.42
648.38	871.66
648.72	865.80
649.06	859.81
649.41	853.93
649.75	848.05
650.09	842.00
650.43	836.21
650.78	830.06
651.12	823.98
651.46	818.29
651.80	812.65
652.14	807.26
652.49	801.90
652.83	796.72
653.17	791.17
653.51	785.54
653.85	780.15
654.20	774.49
654.54	768.50
654.88	762.73
655.22	756.81
655.56	751.06
655.90	745.55
656.25	740.32
656.59	734.92
656.93	729.78
657.27	724.62
657.61	719.25
657.95	714.14
658.29	709.09
658.64	703.67
658.98	698.32
659.32	692.81
659.66	687.57
660.00	682.28
660.34	677.25
660.68	672.25
661.02	667.19
661.36	662.46
661.70	657.92
662.05	653.61
662.39	649.37
662.73	644.95
663.07	640.55
663.41	636.05
663.75	631.63
664.09	627.07
664.43	622.70
664.77	618.63
665.11	614.33
665.45	610.20
665.79	606.22
666.13	602.10
666.47	598.04
666.81	593.89
667.15	589.74
667.49	585.80
667.83	581.99
668.17	578.02
668.51	573.94
668.85	569.87
669.19	566.01
669.53	562.13
669.87	558.24
670.21	554.57
670.55	550.95
670.89	547.51
671.23	544.11
671.57	540.58
671.91	537.06
672.25	533.57
672.58	530.10
672.92	526.64
673.26	523.45
673.60	520.27
673.94	517.14
674.28	514.25
674.62	511.33
674.96	508.26
675.30	505.43
675.64	502.55
675.97	499.73
676.31	496.85
676.65	493.96
676.99	491.28
677.33	488.39
677.67	485.62
678.01	482.59
678.34	479.60
678.68	476.79
679.02	473.94
679.36	471.21
679.70	468.49
680.04	465.83
680.37	462.96
680.71	460.17
681.05	457.57
681.39	454.83
681.73	452.20
682.06	449.71
682.40	447.14
682.74	444.60
683.08	442.12
683.42	439.51
683.75	436.99
684.09	434.41
684.43	431.98
684.77	429.48
685.10	427.19
685.44	424.87
685.78	422.55
686.12	420.29
686.45	417.94
686.79	415.68
687.13	413.48
687.46	411.35
687.80	409.18
688.14	406.97
688.48	404.88
688.81	402.61
689.15	400.48
689.49	398.35
689.82	396.22
690.16	394.10
690.50	392.15
690.83	390.23
691.17	388.20
691.51	386.30
691.84	384.50
692.18	382.53
692.52	380.59
692.85	378.66
693.19	376.83
693.52	374.99
693.86	373.11
694.20	371.31
694.53	369.46
694.87	367.61
695.21	365.80
695.54	363.96
695.88	362.23
696.21	360.47
696.55	358.75
696.88	357.08
697.22	355.40
697.56	353.72
697.89	352.07
698.23	350.50
698.56	348.85
698.90	347.22
699.23	345.56
699.57	344.01
699.90	342.43
700.24	340.84
700.58	339.31
700.91	337.83
701.25	336.34
701.58	334.97
701.92	333.59
702.25	332.20
702.59	330.85
702.92	329.50
703.26	328.14
703.59	326.86
703.93	325.63
704.26	324.38
704.60	323.07
704.93	321.76
705.26	320.49
705.60	319.32
705.93	318.13
706.27	317.08
706.60	315.99
706.94	314.90
707.27	313.77
707.61	312.70
707.94	311.65
708.27	310.55
708.61	309.45
708.94	308.42
709.28	307.42
709.61	306.42
709.94	305.45
710.28	304.47
710.61	303.45
710.95	302.37
711.28	301.43
711.61	300.49
711.95	299.59
712.28	298.67
712.61	297.65
712.95	296.72
713.28	295.82
713.61	294.86
713.95	293.97
714.28	293.09
714.61	292.19
714.95	291.34
715.28	290.49
715.61	289.63
715.95	288.82
716.28	287.96
716.61	287.16
716.95	286.35
717.28	285.58
717.61	284.83
717.94	284.09
718.28	283.29
718.61	282.58
718.94	281.86
719.27	281.20
719.61	280.57
719.94	279.90
720.27	279.19
720.60	278.53
720.94	277.92
721.27	277.34
721.60	276.82
721.93	276.19
722.27	275.65
722.60	275.06
722.93	274.49
723.26	273.96
723.59	273.43
723.93	272.89
724.26	272.33
724.59	271.80
724.92	271.28
725.25	270.82
725.59	270.31
725.92	269.81
726.25	269.28
726.58	268.79
726.91	268.30
727.24	267.86
727.57	267.42
727.91	266.91
728.24	266.44
728.57	265.95
728.90	265.51
729.23	264.99
729.56	264.59
729.89	264.13
730.22	263.66
730.55	263.17
730.89	262.71
731.22	262.27
731.55	261.84
731.88	261.42
732.21	260.97
732.54	260.51
732.87	260.09
733.20	259.70
733.53	259.32
733.86	258.94
734.19	258.53
734.52	258.13
734.85	257.82
735.18	257.41
735.51	257.03
735.84	256.64
736.17	256.30
736.50	255.90
736.83	255.66
737.16	255.33
737.49	255.00
737.82	254.64
738.15	254.29
738.48	253.91
738.81	253.60
739.14	253.28
739.47	253.01
739.80	252.67
740.13	252.38
740.46	252.05
740.79	251.73
741.12	251.43
741.45	251.13
741.78	250.75
742.11	250.45
742.44	250.12
742.77	249.87
743.10	249.59
743.43	249.26
743.75	248.87
744.08	248.69
744.41	248.42
744.74	248.17
745.07	247.92
745.40	247.70
745.73	247.47
746.06	247.19
746.39	246.91
746.71	246.67
747.04	246.36
747.37	246.09
747.70	245.86
748.03	245.59
748.36	245.38
748.68	245.15
749.01	244.94
749.34	244.74
749.67	244.51
750.00	244.25
750.33	244.13
750.65	243.91
750.98	243.58
751.31	243.35
751.64	243.17
751.97	242.98
752.29	242.72
752.62	242.48
752.95	242.28
753.28	242.06
753.60	241.87
753.93	241.71
754.26	241.52
754.59	241.28
754.91	241.09
755.24	240.85
755.57	240.71
755.90	240.47
756.22	240.28
756.55	240.05
756.88	239.90
757.20	239.63
757.53	239.45
757.86	239.28
758.19	239.15
758.51	238.96
758.84	238.76
759.17	238.63
759.49	238.44
759.82	238.31
760.15	238.15
760.47	237.97
760.80	237.79
761.13	237.65
761.45	237.51
761.78	237.34
762.11	237.18
762.43	237.04
762.76	236.92
763.08	236.81
763.41	236.68
763.74	236.55
764.06	236.42
764.39	236.28
764.71	236.13
765.04	235.96
765.37	235.83
765.69	235.67
766.02	235.54
766.34	235.44
766.67	235.27
767.00	235.17
767.32	235.11
767.65	235.07
767.97	234.95
768.30	234.86
768.62	234.77
768.95	234.68
769.27	234.56
769.60	234.44
769.92	234.30
770.25	234.16
770.57	234.02
770.90	233.93
771.22	233.83
771.55	233.75
771.87	233.67
772.20	233.55
772.52	233.56
772.85	233.58
773.17	233.48
773.50	233.39
773.82	233.27
774.15	233.11
774.47	232.95
774.80	232.85
775.12	232.73
775.45	232.65
775.77	232.53
776.09	232.44
776.42	232.37
776.74	232.32
777.07	232.26
777.39	232.22
777.72	232.13
778.04	232.06
778.36	231.95
778.69	231.88
779.01	231.86
779.33	231.68
779.66	231.48
779.98	231.41
780.31	231.35
780.63	231.36
780.95	231.33
781.28	231.27
781.60	231.20
781.92	231.12
782.25	231.05
782.57	230.99
782.89	230.89
783.22	230.81
783.54	230.70
783.86	230.63
784.19	230.52
784.51	230.47
784.83	230.41
785.16	230.33
785.48	230.25
785.80	230.16
786.12	230.13
786.45	230.07
786.77	230.04
787.09	229.96
