SpectraSuite Data File
++++++++++++++++++++++++++++++++++++
Date: Fri Feb 01 16:16:14 EST 2013
User: group
Dark Spectrum Present: No
Reference Spectrum Present: No
Number of Sampled Component Spectra: 1
Spectrometers: USB2E7196
Integration Time (usec): 35000 (USB2E7196)
Spectra Averaged: 100 (USB2E7196)
Boxcar Smoothing: 10 (USB2E7196)
Correct for Electrical Dark: No (USB2E7196)
Strobe/Lamp Enabled: No (USB2E7196)
Correct for Detector Non-linearity: No (USB2E7196)
Correct for Stray Light: No (USB2E7196)
Number of Pixels in Processed Spectrum: 2048
>>>>>Begin Processed Spectral Data<<<<<
339.09	0.00
339.48	214.00
339.86	216.12
340.24	217.34
340.63	218.48
341.01	221.25
341.39	220.90
341.78	222.01
342.16	223.88
342.54	224.43
342.93	212.64
343.31	223.36
343.69	223.90
344.07	224.35
344.46	224.76
344.84	225.16
345.22	225.41
345.60	225.65
345.99	225.87
346.37	225.98
346.75	226.06
347.13	226.09
347.52	226.13
347.90	226.13
348.28	226.16
348.66	226.23
349.05	226.24
349.43	226.28
349.81	226.29
350.19	226.32
350.57	226.35
350.96	226.41
351.34	226.49
351.72	226.58
352.10	226.63
352.48	226.70
352.87	226.71
353.25	226.74
353.63	226.79
354.01	226.84
354.39	226.94
354.77	227.00
355.15	227.13
355.54	227.17
355.92	227.24
356.30	227.31
356.68	227.42
357.06	227.45
357.44	227.51
357.82	227.61
358.20	227.69
358.58	227.72
358.97	227.80
359.35	227.84
359.73	227.90
360.11	227.97
360.49	228.00
360.87	228.05
361.25	228.10
361.63	228.20
362.01	228.20
362.39	228.21
362.77	228.24
363.15	228.27
363.53	228.28
363.91	228.31
364.29	228.32
364.67	228.25
365.05	228.29
365.43	228.30
365.81	228.31
366.19	228.31
366.57	228.37
366.95	228.36
367.33	228.32
367.71	228.30
368.09	228.34
368.47	228.32
368.85	228.29
369.23	228.26
369.61	228.20
369.99	228.23
370.37	228.19
370.75	228.23
371.13	228.14
371.51	228.09
371.89	228.05
372.27	228.02
372.65	227.95
373.03	227.87
373.41	227.81
373.78	227.74
374.16	227.67
374.54	227.59
374.92	227.51
375.30	227.46
375.68	227.38
376.06	227.31
376.44	227.22
376.82	227.18
377.19	227.14
377.57	227.05
377.95	226.96
378.33	226.92
378.71	226.77
379.09	226.73
379.47	226.71
379.84	226.64
380.22	226.58
380.60	226.56
380.98	226.49
381.36	226.44
381.73	226.36
382.11	226.31
382.49	226.22
382.87	226.19
383.25	226.17
383.62	226.22
384.00	226.16
384.38	226.16
384.76	226.13
385.13	226.10
385.51	226.08
385.89	225.99
386.27	225.94
386.64	225.93
387.02	225.90
387.40	225.83
387.78	225.81
388.15	225.76
388.53	225.71
388.91	225.68
389.29	225.63
389.66	225.65
390.04	225.62
390.42	225.65
390.79	225.61
391.17	225.59
391.55	225.48
391.92	225.48
392.30	225.47
392.68	225.44
393.05	225.46
393.43	225.46
393.81	225.50
394.18	225.51
394.56	225.51
394.94	225.55
395.31	225.57
395.69	225.62
396.06	225.66
396.44	225.68
396.82	225.71
397.19	225.83
397.57	225.84
397.95	225.88
398.32	225.91
398.70	225.96
399.07	226.05
399.45	226.12
399.82	226.14
400.20	226.25
400.58	226.34
400.95	226.37
401.33	226.46
401.70	226.62
402.08	226.69
402.45	226.81
402.83	226.92
403.20	227.01
403.58	227.09
403.95	227.22
404.33	227.32
404.71	227.47
405.08	227.63
405.46	227.75
405.83	227.92
406.21	228.07
406.58	228.24
406.96	228.37
407.33	228.56
407.70	228.76
408.08	228.99
408.45	229.19
408.83	229.42
409.20	229.64
409.58	229.81
409.95	230.08
410.33	230.31
410.70	230.56
411.08	230.86
411.45	231.15
411.82	231.45
412.20	231.86
412.57	232.28
412.95	232.60
413.32	233.00
413.69	233.40
414.07	233.82
414.44	234.31
414.82	234.78
415.19	235.31
415.56	235.87
415.94	236.37
416.31	237.00
416.68	237.61
417.06	238.32
417.43	239.02
417.81	239.77
418.18	240.54
418.55	241.35
418.93	242.26
419.30	243.15
419.67	244.08
420.04	245.01
420.42	245.97
420.79	247.12
421.16	248.27
421.54	249.46
421.91	250.68
422.28	251.91
422.66	253.25
423.03	254.58
423.40	255.94
423.77	257.36
424.15	258.78
424.52	260.27
424.89	261.88
425.26	263.38
425.64	264.85
426.01	266.48
426.38	268.15
426.75	269.76
427.13	271.49
427.50	273.29
427.87	275.14
428.24	277.02
428.61	278.78
428.99	280.71
429.36	282.82
429.73	284.89
430.10	286.89
430.47	288.96
430.85	291.08
431.22	293.30
431.59	295.66
431.96	297.91
432.33	300.42
432.70	302.78
433.08	305.63
433.45	308.25
433.82	310.84
434.19	313.71
434.56	316.59
434.93	319.26
435.30	321.88
435.68	324.83
436.05	327.66
436.42	330.43
436.79	332.97
437.16	335.61
437.53	338.44
437.90	341.27
438.27	343.96
438.64	346.76
439.01	349.33
439.38	351.57
439.75	353.73
440.13	356.17
440.50	358.51
440.87	360.33
441.24	362.22
441.61	364.41
441.98	365.92
442.35	367.69
442.72	369.50
443.09	371.32
443.46	372.32
443.83	372.92
444.20	373.43
444.57	374.24
444.94	374.49
445.31	374.80
445.68	375.14
446.05	375.23
446.42	374.85
446.79	374.44
447.16	373.97
447.53	373.64
447.90	372.48
448.27	371.31
448.64	369.72
449.01	368.66
449.37	366.62
449.74	364.71
450.11	362.46
450.48	360.00
450.85	357.45
451.22	355.25
451.59	353.19
451.96	351.25
452.33	348.68
452.70	346.36
453.07	343.56
453.43	340.68
453.80	337.90
454.17	335.24
454.54	332.66
454.91	329.97
455.28	327.31
455.65	324.86
456.02	322.42
456.38	320.29
456.75	317.62
457.12	315.37
457.49	313.14
457.86	310.97
458.23	309.14
458.59	307.10
458.96	305.02
459.33	303.20
459.70	301.32
460.07	299.83
460.43	298.14
460.80	296.50
461.17	295.05
461.54	293.57
461.91	292.14
462.27	290.69
462.64	289.51
463.01	288.15
463.38	286.86
463.74	285.49
464.11	284.33
464.48	283.31
464.85	282.24
465.21	281.41
465.58	280.52
465.95	279.41
466.32	278.55
466.68	277.66
467.05	276.77
467.42	275.92
467.78	274.97
468.15	274.11
468.52	273.51
468.88	272.67
469.25	271.92
469.62	271.33
469.98	270.70
470.35	270.02
470.72	269.43
471.08	268.76
471.45	268.25
471.82	267.74
472.18	267.15
472.55	266.73
472.92	266.19
473.28	265.74
473.65	265.34
474.02	264.88
474.38	264.53
474.75	264.23
475.11	263.89
475.48	263.66
475.85	263.43
476.21	263.20
476.58	263.02
476.94	262.90
477.31	262.72
477.67	262.57
478.04	262.49
478.41	262.50
478.77	262.56
479.14	262.52
479.50	262.52
479.87	262.60
480.23	262.67
480.60	262.79
480.96	262.89
481.33	263.10
481.69	263.31
482.06	263.52
482.42	263.73
482.79	263.96
483.15	264.28
483.52	264.68
483.88	265.00
484.25	265.41
484.61	265.81
484.98	266.26
485.34	266.86
485.71	267.43
486.07	268.01
486.44	268.58
486.80	269.26
487.17	270.01
487.53	270.80
487.90	271.68
488.26	272.62
488.62	273.62
488.99	274.59
489.35	275.62
489.72	276.75
490.08	277.91
490.44	279.16
490.81	280.51
491.17	281.82
491.54	283.29
491.90	284.84
492.26	286.48
492.63	288.24
492.99	289.96
493.36	291.85
493.72	293.87
494.08	295.99
494.45	298.22
494.81	300.62
495.17	303.09
495.54	305.65
495.90	308.33
496.26	311.10
496.63	314.07
496.99	317.18
497.35	320.44
497.72	323.88
498.08	327.39
498.44	331.05
498.80	335.00
499.17	339.09
499.53	343.28
499.89	347.66
500.26	352.20
500.62	356.90
500.98	361.90
501.34	366.98
501.71	372.30
502.07	377.74
502.43	383.29
502.79	389.07
503.16	395.10
503.52	401.31
503.88	407.70
504.24	414.33
504.60	421.22
504.97	428.40
505.33	435.70
505.69	443.45
506.05	451.24
506.41	459.09
506.78	467.24
507.14	475.68
507.50	484.36
507.86	493.34
508.22	502.58
508.59	511.78
508.95	521.39
509.31	531.22
509.67	541.43
510.03	551.78
510.39	562.30
510.75	573.13
511.12	584.16
511.48	595.46
511.84	606.88
512.20	618.49
512.56	630.35
512.92	642.52
513.28	654.87
513.64	667.33
514.00	680.11
514.37	693.07
514.73	706.12
515.09	719.18
515.45	732.48
515.81	746.04
516.17	759.99
516.53	774.12
516.89	788.29
517.25	802.38
517.61	816.79
517.97	831.31
518.33	845.71
518.69	860.46
519.05	875.52
519.41	890.72
519.77	906.22
520.13	921.78
520.49	937.15
520.85	952.47
521.21	968.15
521.57	984.31
521.93	999.94
522.29	1016.30
522.65	1032.60
523.01	1048.78
523.37	1064.83
523.73	1080.99
524.09	1097.04
524.45	1113.33
524.81	1129.94
525.17	1146.66
525.53	1163.52
525.89	1180.41
526.25	1197.18
526.61	1213.47
526.97	1230.19
527.33	1246.53
527.68	1262.94
528.04	1279.44
528.40	1296.06
528.76	1313.04
529.12	1329.54
529.48	1346.51
529.84	1362.41
530.20	1379.01
530.56	1396.02
530.91	1413.33
531.27	1429.92
531.63	1446.43
531.99	1462.93
532.35	1478.84
532.71	1494.67
533.07	1510.83
533.42	1526.55
533.78	1542.41
534.14	1558.79
534.50	1574.08
534.86	1589.87
535.21	1605.00
535.57	1620.82
535.93	1636.24
536.29	1651.02
536.65	1666.02
537.00	1680.58
537.36	1695.87
537.72	1710.16
538.08	1724.47
538.44	1738.17
538.79	1752.10
539.15	1765.60
539.51	1779.08
539.87	1793.30
540.22	1807.05
540.58	1820.81
540.94	1834.15
541.29	1847.08
541.65	1859.51
542.01	1872.57
542.37	1884.87
542.72	1897.19
543.08	1908.88
543.44	1921.19
543.79	1932.25
544.15	1943.18
544.51	1954.75
544.87	1965.77
545.22	1976.52
545.58	1986.62
545.94	1996.29
546.29	2006.05
546.65	2015.88
547.01	2025.19
547.36	2033.89
547.72	2042.15
548.07	2049.88
548.43	2057.87
548.79	2065.83
549.14	2073.41
549.50	2080.70
549.86	2088.39
550.21	2095.74
550.57	2102.87
550.92	2109.44
551.28	2116.52
551.64	2123.48
551.99	2129.98
552.35	2136.01
552.70	2142.25
553.06	2148.27
553.41	2154.62
553.77	2160.72
554.13	2166.68
554.48	2172.89
554.84	2178.32
555.19	2183.62
555.55	2188.80
555.90	2193.43
556.26	2198.25
556.61	2202.93
556.97	2207.24
557.32	2211.31
557.68	2215.44
558.03	2219.64
558.39	2223.41
558.74	2228.08
559.10	2232.03
559.45	2235.74
559.81	2240.07
560.16	2243.90
560.52	2247.25
560.87	2250.74
561.23	2253.34
561.58	2256.38
561.94	2258.77
562.29	2261.15
562.64	2263.88
563.00	2266.52
563.35	2270.04
563.71	2273.26
564.06	2276.41
564.42	2279.45
564.77	2281.99
565.12	2284.21
565.48	2286.19
565.83	2288.04
566.19	2289.24
566.54	2290.14
566.89	2291.15
567.25	2291.73
567.60	2293.00
567.96	2294.65
568.31	2295.47
568.66	2296.58
569.02	2297.25
569.37	2297.71
569.72	2298.74
570.08	2298.88
570.43	2298.80
570.78	2298.25
571.14	2296.63
571.49	2295.50
571.84	2295.03
572.20	2294.05
572.55	2293.12
572.90	2291.71
573.26	2290.35
573.61	2288.79
573.96	2287.19
574.31	2284.47
574.67	2281.57
575.02	2278.03
575.37	2274.51
575.72	2270.76
576.08	2267.59
576.43	2264.23
576.78	2260.62
577.13	2257.44
577.49	2254.32
577.84	2250.96
578.19	2247.32
578.54	2243.90
578.90	2239.56
579.25	2234.12
579.60	2229.13
579.95	2224.19
580.30	2219.25
580.66	2214.03
581.01	2209.13
581.36	2204.18
581.71	2200.10
582.06	2195.66
582.42	2191.18
582.77	2186.12
583.12	2181.63
583.47	2176.71
583.82	2171.70
584.17	2166.54
584.53	2160.97
584.88	2155.34
585.23	2149.63
585.58	2144.16
585.93	2138.73
586.28	2134.18
586.63	2129.18
586.98	2124.17
587.34	2119.40
587.69	2114.42
588.04	2109.26
588.39	2103.73
588.74	2097.34
589.09	2091.10
589.44	2084.23
589.79	2078.33
590.14	2072.80
590.49	2066.19
590.84	2059.77
591.19	2053.77
591.54	2047.30
591.89	2040.06
592.25	2033.44
592.60	2026.31
592.95	2018.73
593.30	2011.38
593.65	2003.64
594.00	1996.56
594.35	1989.28
594.70	1981.36
595.05	1974.18
595.40	1966.82
595.75	1959.24
596.10	1953.05
596.45	1946.31
596.80	1940.32
597.15	1933.75
597.50	1926.70
597.85	1920.33
598.19	1913.91
598.54	1906.73
598.89	1900.00
599.24	1894.00
599.59	1887.36
599.94	1881.13
600.29	1874.74
600.64	1868.11
600.99	1860.81
601.34	1854.08
601.69	1847.23
602.04	1840.35
602.39	1833.07
602.74	1826.35
603.08	1819.65
603.43	1812.93
603.78	1805.59
604.13	1798.32
604.48	1790.96
604.83	1783.93
605.18	1777.00
605.53	1768.97
605.87	1761.09
606.22	1753.93
606.57	1745.99
606.92	1738.69
607.27	1731.54
607.62	1724.66
607.96	1717.48
608.31	1710.90
608.66	1703.23
609.01	1695.68
609.36	1688.16
609.70	1680.07
610.05	1672.07
610.40	1664.39
610.75	1656.10
611.10	1648.43
611.44	1639.99
611.79	1632.04
612.14	1623.56
612.49	1614.47
612.83	1606.15
613.18	1598.03
613.53	1589.95
613.88	1581.55
614.22	1573.23
614.57	1564.66
614.92	1556.63
615.27	1549.13
615.61	1540.66
615.96	1532.66
616.31	1525.00
616.65	1517.61
617.00	1510.01
617.35	1502.36
617.70	1494.03
618.04	1485.49
618.39	1477.28
618.74	1469.73
619.08	1461.40
619.43	1453.75
619.78	1446.79
620.12	1439.61
620.47	1432.08
620.82	1423.94
621.16	1416.33
621.51	1408.70
621.85	1401.05
622.20	1392.46
622.55	1383.86
622.89	1376.11
623.24	1368.42
623.59	1360.87
623.93	1353.32
624.28	1346.24
624.62	1338.62
624.97	1331.49
625.32	1324.81
625.66	1317.81
626.01	1310.65
626.35	1303.14
626.70	1295.44
627.04	1287.65
627.39	1279.83
627.73	1272.48
628.08	1265.47
628.43	1258.41
628.77	1251.11
629.12	1243.57
629.46	1236.60
629.81	1229.23
630.15	1221.90
630.50	1214.51
630.84	1206.37
631.19	1198.42
631.53	1190.87
631.88	1183.30
632.22	1175.63
632.57	1168.29
632.91	1160.71
633.26	1153.20
633.60	1145.87
633.95	1138.65
634.29	1131.57
634.64	1124.86
634.98	1117.54
635.32	1110.34
635.67	1103.62
636.01	1096.92
636.36	1090.07
636.70	1083.47
637.05	1076.97
637.39	1070.52
637.73	1063.94
638.08	1057.99
638.42	1051.96
638.77	1045.50
639.11	1038.95
639.45	1032.49
639.80	1025.76
640.14	1019.33
640.49	1012.81
640.83	1006.57
641.17	1000.30
641.52	993.93
641.86	987.44
642.20	981.50
642.55	975.27
642.89	968.81
643.23	962.32
643.58	956.54
643.92	950.33
644.26	944.23
644.61	938.19
644.95	932.15
645.29	925.60
645.64	918.96
645.98	912.56
646.32	906.67
646.66	900.72
647.01	894.94
647.35	889.31
647.69	883.50
648.04	877.92
648.38	872.27
648.72	866.24
649.06	860.20
649.41	854.33
649.75	848.41
650.09	842.48
650.43	836.68
650.78	830.53
651.12	824.48
651.46	818.83
651.80	813.15
652.14	807.87
652.49	802.52
652.83	797.30
653.17	791.60
653.51	785.88
653.85	780.43
654.20	774.84
654.54	768.84
654.88	763.06
655.22	757.08
655.56	751.37
655.90	746.02
656.25	740.88
656.59	735.55
656.93	730.42
657.27	725.25
657.61	719.84
657.95	714.75
658.29	709.71
658.64	704.38
658.98	699.00
659.32	693.47
659.66	688.29
660.00	682.95
660.34	678.03
660.68	673.16
661.02	668.06
661.36	663.26
661.70	658.70
662.05	654.35
662.39	650.11
662.73	645.60
663.07	641.20
663.41	636.66
663.75	632.10
664.09	627.56
664.43	623.15
664.77	618.97
665.11	614.72
665.45	610.56
665.79	606.54
666.13	602.44
666.47	598.36
666.81	594.15
667.15	590.02
667.49	586.04
667.83	582.21
668.17	578.34
668.51	574.31
668.85	570.29
669.19	566.48
669.53	562.56
669.87	558.63
670.21	554.87
670.55	551.23
670.89	547.79
671.23	544.26
671.57	540.74
671.91	537.16
672.25	533.60
672.58	530.10
672.92	526.64
673.26	523.43
673.60	520.28
673.94	517.16
674.28	514.30
674.62	511.38
674.96	508.21
675.30	505.28
675.64	502.33
675.97	499.50
676.31	496.55
676.65	493.61
676.99	490.88
677.33	488.03
677.67	485.22
678.01	482.18
678.34	479.27
678.68	476.43
679.02	473.67
679.36	470.90
679.70	468.22
680.04	465.44
680.37	462.59
680.71	459.80
681.05	457.22
681.39	454.45
681.73	451.83
682.06	449.36
682.40	446.84
682.74	444.30
683.08	441.79
683.42	439.25
683.75	436.76
684.09	434.22
684.43	431.74
684.77	429.30
685.10	426.99
685.44	424.72
685.78	422.37
686.12	420.09
686.45	417.80
686.79	415.45
687.13	413.24
687.46	411.06
687.80	408.93
688.14	406.68
688.48	404.66
688.81	402.43
689.15	400.28
689.49	398.10
689.82	396.02
690.16	393.94
690.50	391.96
690.83	390.06
691.17	388.12
691.51	386.21
691.84	384.40
692.18	382.46
692.52	380.46
692.85	378.60
693.19	376.72
693.52	374.90
693.86	373.10
694.20	371.40
694.53	369.64
694.87	367.72
695.21	365.93
695.54	364.05
695.88	362.30
696.21	360.58
696.55	358.87
696.88	357.18
697.22	355.52
697.56	353.93
697.89	352.25
698.23	350.66
698.56	349.11
698.90	347.49
699.23	345.84
699.57	344.27
699.90	342.73
700.24	341.20
700.58	339.67
700.91	338.17
701.25	336.69
701.58	335.28
701.92	333.97
702.25	332.61
702.59	331.27
702.92	329.95
703.26	328.62
703.59	327.40
703.93	326.19
704.26	325.01
704.60	323.71
704.93	322.44
705.26	321.17
705.60	319.92
705.93	318.74
706.27	317.65
706.60	316.59
706.94	315.48
707.27	314.35
707.61	313.28
707.94	312.28
708.27	311.14
708.61	310.08
708.94	309.03
709.28	308.04
709.61	307.04
709.94	306.06
710.28	305.04
710.61	304.03
710.95	302.96
711.28	302.02
711.61	301.03
711.95	300.11
712.28	299.17
712.61	298.22
712.95	297.35
713.28	296.52
713.61	295.62
713.95	294.70
714.28	293.84
714.61	292.94
714.95	292.05
715.28	291.20
715.61	290.28
715.95	289.40
716.28	288.51
716.61	287.66
716.95	286.82
717.28	286.07
717.61	285.30
717.94	284.60
718.28	283.75
718.61	283.02
718.94	282.30
719.27	281.63
719.61	280.96
719.94	280.25
720.27	279.50
720.60	278.83
720.94	278.18
721.27	277.60
721.60	277.01
721.93	276.37
722.27	275.85
722.60	275.32
722.93	274.79
723.26	274.26
723.59	273.71
723.93	273.20
724.26	272.63
724.59	272.06
724.92	271.51
725.25	271.07
725.59	270.54
725.92	270.02
726.25	269.51
726.58	269.06
726.91	268.55
727.24	268.09
727.57	267.61
727.91	267.14
728.24	266.64
728.57	266.20
728.90	265.79
729.23	265.27
729.56	264.87
729.89	264.39
730.22	263.91
730.55	263.45
730.89	263.00
731.22	262.59
731.55	262.19
731.88	261.74
732.21	261.27
732.54	260.90
732.87	260.53
733.20	260.12
733.53	259.71
733.86	259.33
734.19	258.95
734.52	258.54
734.85	258.24
735.18	257.88
735.51	257.51
735.84	257.15
736.17	256.87
736.50	256.47
736.83	256.26
737.16	255.95
737.49	255.68
737.82	255.35
738.15	255.02
738.48	254.68
738.81	254.39
739.14	254.08
739.47	253.74
739.80	253.44
740.13	253.14
740.46	252.81
740.79	252.49
741.12	252.16
741.45	251.88
741.78	251.52
742.11	251.22
742.44	250.89
742.77	250.60
743.10	250.27
743.43	249.97
743.75	249.57
744.08	249.39
744.41	249.11
744.74	248.83
745.07	248.54
745.40	248.31
745.73	248.09
746.06	247.82
746.39	247.56
746.71	247.25
747.04	247.00
747.37	246.75
747.70	246.53
748.03	246.31
748.36	246.08
748.68	245.82
749.01	245.52
749.34	245.32
749.67	245.07
750.00	244.84
750.33	244.70
750.65	244.47
750.98	244.14
751.31	243.93
751.64	243.74
751.97	243.59
752.29	243.37
752.62	243.10
752.95	242.90
753.28	242.68
753.60	242.47
753.93	242.27
754.26	242.06
754.59	241.82
754.91	241.59
755.24	241.41
755.57	241.23
755.90	241.09
756.22	240.87
756.55	240.66
756.88	240.45
757.20	240.22
757.53	240.00
757.86	239.84
758.19	239.65
758.51	239.44
758.84	239.20
759.17	239.00
759.49	238.83
759.82	238.68
760.15	238.55
760.47	238.41
760.80	238.25
761.13	238.12
761.45	237.92
761.78	237.80
762.11	237.65
762.43	237.47
762.76	237.33
763.08	237.23
763.41	237.08
763.74	236.96
764.06	236.77
764.39	236.66
764.71	236.53
765.04	236.39
765.37	236.25
765.69	236.14
766.02	236.02
766.34	235.87
766.67	235.72
767.00	235.61
767.32	235.55
767.65	235.51
767.97	235.38
768.30	235.30
768.62	235.19
768.95	235.05
769.27	234.98
769.60	234.89
769.92	234.73
770.25	234.64
770.57	234.50
770.90	234.43
771.22	234.33
771.55	234.24
771.87	234.14
772.20	234.05
772.52	234.03
772.85	234.05
773.17	233.99
773.50	233.91
773.82	233.79
774.15	233.62
774.47	233.47
774.80	233.39
775.12	233.32
775.45	233.22
775.77	233.16
776.09	233.09
776.42	233.04
776.74	233.02
777.07	232.95
777.39	232.94
777.72	232.83
778.04	232.79
778.36	232.72
778.69	232.69
779.01	232.64
779.33	232.51
779.66	232.36
779.98	232.27
780.31	232.22
780.63	232.17
780.95	232.16
781.28	232.11
781.60	232.02
781.92	231.97
782.25	231.91
782.57	231.86
782.89	231.77
783.22	231.68
783.54	231.59
783.86	231.53
784.19	231.47
784.51	231.44
784.83	231.35
785.16	231.27
785.48	231.21
785.80	231.14
786.12	231.10
786.45	231.01
786.77	231.01
787.09	230.97
