SpectraSuite Data File
++++++++++++++++++++++++++++++++++++
Date: Fri Feb 01 15:47:11 EST 2013
User: group
Dark Spectrum Present: No
Reference Spectrum Present: No
Number of Sampled Component Spectra: 1
Spectrometers: USB2E7196
Integration Time (usec): 35000 (USB2E7196)
Spectra Averaged: 100 (USB2E7196)
Boxcar Smoothing: 10 (USB2E7196)
Correct for Electrical Dark: No (USB2E7196)
Strobe/Lamp Enabled: No (USB2E7196)
Correct for Detector Non-linearity: No (USB2E7196)
Correct for Stray Light: No (USB2E7196)
Number of Pixels in Processed Spectrum: 2048
>>>>>Begin Processed Spectral Data<<<<<
339.09	0.00
339.48	214.82
339.86	216.39
340.24	217.24
340.63	219.16
341.01	221.65
341.39	222.53
341.78	223.31
342.16	224.14
342.54	225.07
342.93	213.17
343.31	223.95
343.69	224.48
344.07	224.93
344.46	225.37
344.84	225.73
345.22	225.97
345.60	226.20
345.99	226.35
346.37	226.47
346.75	226.57
347.13	226.62
347.52	226.67
347.90	226.73
348.28	226.73
348.66	226.76
349.05	226.75
349.43	226.79
349.81	226.79
350.19	226.83
350.57	226.86
350.96	226.92
351.34	226.99
351.72	227.07
352.10	227.18
352.48	227.25
352.87	227.32
353.25	227.37
353.63	227.39
354.01	227.51
354.39	227.58
354.77	227.65
355.15	227.78
355.54	227.83
355.92	227.88
356.30	227.94
356.68	228.08
357.06	228.18
357.44	228.26
357.82	228.33
358.20	228.41
358.58	228.50
358.97	228.56
359.35	228.64
359.73	228.72
360.11	228.78
360.49	228.81
360.87	228.85
361.25	228.90
361.63	228.99
362.01	229.00
362.39	229.04
362.77	229.09
363.15	229.09
363.53	229.14
363.91	229.17
364.29	229.21
364.67	229.14
365.05	229.11
365.43	229.11
365.81	229.14
366.19	229.15
366.57	229.17
366.95	229.15
367.33	229.09
367.71	229.04
368.09	229.01
368.47	228.99
368.85	228.96
369.23	228.97
369.61	228.90
369.99	228.89
370.37	228.90
370.75	228.91
371.13	228.84
371.51	228.80
371.89	228.77
372.27	228.77
372.65	228.78
373.03	228.75
373.41	228.70
373.78	228.66
374.16	228.57
374.54	228.47
374.92	228.42
375.30	228.39
375.68	228.37
376.06	228.31
376.44	228.26
376.82	228.22
377.19	228.17
377.57	228.13
377.95	228.05
378.33	227.95
378.71	227.81
379.09	227.76
379.47	227.70
379.84	227.60
380.22	227.48
380.60	227.38
380.98	227.32
381.36	227.25
381.73	227.16
382.11	227.11
382.49	227.08
382.87	227.02
383.25	226.96
383.62	226.99
384.00	226.98
384.38	226.94
384.76	226.89
385.13	226.88
385.51	226.81
385.89	226.74
386.27	226.71
386.64	226.73
387.02	226.71
387.40	226.69
387.78	226.69
388.15	226.69
388.53	226.66
388.91	226.66
389.29	226.65
389.66	226.67
390.04	226.68
390.42	226.69
390.79	226.66
391.17	226.66
391.55	226.56
391.92	226.57
392.30	226.55
392.68	226.51
393.05	226.51
393.43	226.52
393.81	226.55
394.18	226.55
394.56	226.55
394.94	226.58
395.31	226.58
395.69	226.63
396.06	226.65
396.44	226.69
396.82	226.68
397.19	226.72
397.57	226.74
397.95	226.77
398.32	226.78
398.70	226.84
399.07	226.90
399.45	226.93
399.82	226.96
400.20	227.04
400.58	227.13
400.95	227.17
401.33	227.28
401.70	227.44
402.08	227.52
402.45	227.60
402.83	227.67
403.20	227.80
403.58	227.86
403.95	227.95
404.33	228.08
404.71	228.22
405.08	228.44
405.46	228.54
405.83	228.69
406.21	228.83
406.58	228.98
406.96	229.16
407.33	229.31
407.70	229.49
408.08	229.76
408.45	229.96
408.83	230.19
409.20	230.39
409.58	230.55
409.95	230.80
410.33	231.07
410.70	231.31
411.08	231.56
411.45	231.89
411.82	232.23
412.20	232.58
412.57	232.98
412.95	233.26
413.32	233.71
413.69	234.09
414.07	234.50
414.44	234.99
414.82	235.44
415.19	236.03
415.56	236.56
415.94	237.08
416.31	237.72
416.68	238.35
417.06	239.05
417.43	239.74
417.81	240.51
418.18	241.27
418.55	242.14
418.93	243.05
419.30	243.95
419.67	244.88
420.04	245.85
420.42	246.85
420.79	248.02
421.16	249.15
421.54	250.36
421.91	251.60
422.28	252.89
422.66	254.25
423.03	255.53
423.40	256.91
423.77	258.36
424.15	259.79
424.52	261.27
424.89	262.87
425.26	264.45
425.64	265.91
426.01	267.51
426.38	269.15
426.75	270.86
427.13	272.56
427.50	274.36
427.87	276.23
428.24	278.08
428.61	279.81
428.99	281.77
429.36	283.91
429.73	285.97
430.10	287.97
430.47	289.99
430.85	292.14
431.22	294.39
431.59	296.73
431.96	298.95
432.33	301.44
432.70	303.88
433.08	306.68
433.45	309.34
433.82	311.98
434.19	314.90
434.56	317.68
434.93	320.38
435.30	323.02
435.68	325.93
436.05	328.76
436.42	331.58
436.79	334.07
437.16	336.78
437.53	339.63
437.90	342.41
438.27	345.20
438.64	348.04
439.01	350.63
439.38	352.89
439.75	355.13
440.13	357.61
440.50	359.92
440.87	361.76
441.24	363.67
441.61	365.78
441.98	367.28
442.35	369.07
442.72	370.84
443.09	372.63
443.46	373.61
443.83	374.19
444.20	374.69
444.57	375.55
444.94	375.81
445.31	376.17
445.68	376.55
446.05	376.63
446.42	376.22
446.79	375.80
447.16	375.36
447.53	375.00
447.90	373.88
448.27	372.69
448.64	371.09
449.01	369.98
449.37	368.04
449.74	366.07
450.11	363.82
450.48	361.40
450.85	358.85
451.22	356.68
451.59	354.65
451.96	352.70
452.33	350.05
452.70	347.65
453.07	344.80
453.43	341.89
453.80	339.10
454.17	336.41
454.54	333.84
454.91	331.12
455.28	328.43
455.65	325.90
456.02	323.49
456.38	321.37
456.75	318.69
457.12	316.39
457.49	314.18
457.86	312.00
458.23	310.12
458.59	308.08
458.96	306.02
459.33	304.18
459.70	302.31
460.07	300.82
460.43	299.13
460.80	297.50
461.17	296.05
461.54	294.55
461.91	293.14
462.27	291.71
462.64	290.42
463.01	289.05
463.38	287.76
463.74	286.35
464.11	285.20
464.48	284.19
464.85	283.10
465.21	282.28
465.58	281.40
465.95	280.33
466.32	279.44
466.68	278.53
467.05	277.66
467.42	276.80
467.78	275.89
468.15	275.03
468.52	274.39
468.88	273.56
469.25	272.82
469.62	272.21
469.98	271.52
470.35	270.91
470.72	270.34
471.08	269.70
471.45	269.17
471.82	268.59
472.18	267.97
472.55	267.58
472.92	267.04
473.28	266.54
473.65	266.09
474.02	265.62
474.38	265.24
474.75	264.91
475.11	264.58
475.48	264.33
475.85	264.06
476.21	263.82
476.58	263.64
476.94	263.49
477.31	263.33
477.67	263.21
478.04	263.08
478.41	263.00
478.77	263.03
479.14	263.00
479.50	263.04
479.87	263.10
480.23	263.15
480.60	263.23
480.96	263.34
481.33	263.55
481.69	263.76
482.06	263.98
482.42	264.17
482.79	264.41
483.15	264.72
483.52	265.16
483.88	265.54
484.25	265.90
484.61	266.32
484.98	266.80
485.34	267.35
485.71	267.94
486.07	268.60
486.44	269.14
486.80	269.84
487.17	270.56
487.53	271.37
487.90	272.26
488.26	273.22
488.62	274.21
488.99	275.19
489.35	276.23
489.72	277.35
490.08	278.59
490.44	279.83
490.81	281.14
491.17	282.48
491.54	283.92
491.90	285.47
492.26	287.12
492.63	288.80
492.99	290.59
493.36	292.50
493.72	294.49
494.08	296.64
494.45	298.90
494.81	301.27
495.17	303.70
495.54	306.23
495.90	308.90
496.26	311.70
496.63	314.67
496.99	317.77
497.35	321.06
497.72	324.42
498.08	327.91
498.44	331.59
498.80	335.53
499.17	339.53
499.53	343.72
499.89	348.09
500.26	352.59
500.62	357.24
500.98	362.22
501.34	367.29
501.71	372.60
502.07	378.02
502.43	383.63
502.79	389.47
503.16	395.57
503.52	401.83
503.88	408.22
504.24	414.87
504.60	421.74
504.97	428.81
505.33	436.14
505.69	443.83
506.05	451.68
506.41	459.54
506.78	467.70
507.14	476.18
507.50	484.90
507.86	493.94
508.22	503.16
508.59	512.34
508.95	521.93
509.31	531.70
509.67	541.79
510.03	552.08
510.39	562.65
510.75	573.43
511.12	584.30
511.48	595.58
511.84	607.01
512.20	618.50
512.56	630.46
512.92	642.65
513.28	655.06
513.64	667.48
514.00	680.14
514.37	693.11
514.73	706.19
515.09	719.21
515.45	732.59
515.81	746.18
516.17	760.25
516.53	774.42
516.89	788.68
517.25	802.88
517.61	817.30
517.97	831.71
518.33	846.11
518.69	860.96
519.05	876.01
519.41	891.19
519.77	906.72
520.13	922.13
520.49	937.46
520.85	952.92
521.21	968.69
521.57	985.02
521.93	1000.79
522.29	1017.21
522.65	1033.48
523.01	1049.66
523.37	1065.74
523.73	1081.85
524.09	1097.96
524.45	1114.31
524.81	1131.02
525.17	1147.88
525.53	1164.76
525.89	1181.85
526.25	1198.73
526.61	1215.20
526.97	1232.04
527.33	1248.60
527.68	1265.33
528.04	1281.90
528.40	1298.54
528.76	1315.54
529.12	1332.17
529.48	1349.11
529.84	1365.07
530.20	1381.70
530.56	1398.73
530.91	1416.09
531.27	1432.87
531.63	1449.31
531.99	1465.82
532.35	1481.70
532.71	1497.41
533.07	1513.68
533.42	1529.44
533.78	1545.45
534.14	1561.80
534.50	1577.11
534.86	1592.94
535.21	1608.04
535.57	1623.94
535.93	1639.26
536.29	1654.04
536.65	1668.99
537.00	1683.73
537.36	1698.93
537.72	1713.50
538.08	1727.88
538.44	1741.54
538.79	1755.40
539.15	1769.07
539.51	1782.75
539.87	1797.12
540.22	1811.14
540.58	1824.98
540.94	1838.30
541.29	1851.12
541.65	1863.65
542.01	1876.80
542.37	1889.14
542.72	1901.65
543.08	1913.44
543.44	1925.91
543.79	1937.23
544.15	1948.27
544.51	1959.80
544.87	1970.80
545.22	1981.52
545.58	1991.70
545.94	2001.73
546.29	2011.54
546.65	2021.43
547.01	2030.62
547.36	2039.33
547.72	2047.65
548.07	2055.42
548.43	2063.60
548.79	2071.77
549.14	2079.27
549.50	2086.54
549.86	2094.23
550.21	2101.49
550.57	2108.58
550.92	2115.11
551.28	2122.10
551.64	2129.18
551.99	2135.73
552.35	2141.94
552.70	2148.09
553.06	2154.04
553.41	2160.22
553.77	2166.32
554.13	2172.27
554.48	2178.51
554.84	2183.99
555.19	2189.35
555.55	2194.56
555.90	2199.01
556.26	2203.82
556.61	2208.56
556.97	2212.79
557.32	2216.91
557.68	2221.02
558.03	2225.41
558.39	2229.13
558.74	2233.86
559.10	2237.77
559.45	2241.48
559.81	2245.84
560.16	2249.80
560.52	2253.12
560.87	2256.55
561.23	2259.16
561.58	2262.19
561.94	2264.66
562.29	2267.05
562.64	2269.70
563.00	2272.29
563.35	2275.77
563.71	2278.91
564.06	2282.08
564.42	2285.01
564.77	2287.47
565.12	2289.82
565.48	2291.67
565.83	2293.63
566.19	2294.78
566.54	2295.69
566.89	2296.75
567.25	2297.29
567.60	2298.41
567.96	2300.00
568.31	2300.99
568.66	2302.06
569.02	2302.66
569.37	2303.01
569.72	2303.88
570.08	2303.96
570.43	2304.06
570.78	2303.26
571.14	2301.70
571.49	2300.47
571.84	2300.18
572.20	2299.01
572.55	2297.83
572.90	2296.23
573.26	2294.66
573.61	2292.95
573.96	2290.98
574.31	2288.01
574.67	2285.03
575.02	2281.45
575.37	2278.03
575.72	2274.02
576.08	2270.75
576.43	2267.34
576.78	2263.64
577.13	2260.59
577.49	2257.47
577.84	2253.95
578.19	2250.36
578.54	2246.61
578.90	2242.23
579.25	2236.66
579.60	2231.93
579.95	2226.98
580.30	2222.15
580.66	2216.97
581.01	2212.03
581.36	2207.35
581.71	2203.13
582.06	2198.47
582.42	2194.07
582.77	2188.87
583.12	2184.33
583.47	2179.55
583.82	2174.53
584.17	2169.18
584.53	2163.51
584.88	2157.84
585.23	2151.95
585.58	2146.45
585.93	2141.02
586.28	2136.29
586.63	2131.13
586.98	2125.97
587.34	2121.23
587.69	2116.16
588.04	2110.94
588.39	2105.24
588.74	2098.60
589.09	2092.48
589.44	2085.75
589.79	2079.79
590.14	2074.29
590.49	2067.67
590.84	2061.40
591.19	2055.39
591.54	2049.01
591.89	2041.51
592.25	2034.74
592.60	2027.60
592.95	2020.02
593.30	2012.72
593.65	2005.09
594.00	1998.07
594.35	1990.75
594.70	1982.88
595.05	1975.64
595.40	1968.42
595.75	1960.95
596.10	1954.68
596.45	1947.88
596.80	1941.85
597.15	1935.09
597.50	1927.73
597.85	1921.34
598.19	1914.52
598.54	1907.28
598.89	1900.62
599.24	1894.85
599.59	1888.12
599.94	1881.74
600.29	1875.38
600.64	1868.79
600.99	1861.40
601.34	1854.55
601.69	1847.59
602.04	1840.55
602.39	1833.19
602.74	1826.27
603.08	1819.56
603.43	1812.89
603.78	1805.55
604.13	1798.25
604.48	1790.87
604.83	1784.12
605.18	1776.98
605.53	1768.99
605.87	1761.05
606.22	1753.85
606.57	1745.88
606.92	1738.56
607.27	1731.44
607.62	1724.43
607.96	1717.08
608.31	1710.44
608.66	1702.80
609.01	1695.18
609.36	1687.46
609.70	1679.32
610.05	1671.22
610.40	1663.42
610.75	1655.05
611.10	1647.35
611.44	1638.91
611.79	1630.97
612.14	1622.21
612.49	1613.15
612.83	1604.74
613.18	1596.69
613.53	1588.65
613.88	1580.06
614.22	1571.77
614.57	1563.28
614.92	1555.42
615.27	1547.79
615.61	1539.44
615.96	1531.55
616.31	1523.96
616.65	1516.68
617.00	1509.19
617.35	1501.55
617.70	1493.12
618.04	1484.63
618.39	1476.44
618.74	1468.84
619.08	1460.57
619.43	1453.11
619.78	1446.30
620.12	1439.15
620.47	1431.52
620.82	1423.35
621.16	1416.04
621.51	1408.54
621.85	1400.91
622.20	1392.25
622.55	1383.91
622.89	1376.05
623.24	1368.35
623.59	1360.99
623.93	1353.49
624.28	1346.33
624.62	1338.82
624.97	1331.77
625.32	1325.05
625.66	1318.00
626.01	1310.84
626.35	1303.23
626.70	1295.43
627.04	1287.53
627.39	1279.73
627.73	1272.40
628.08	1265.39
628.43	1257.96
628.77	1250.50
629.12	1242.93
629.46	1235.85
629.81	1228.53
630.15	1221.24
630.50	1213.83
630.84	1205.53
631.19	1197.55
631.53	1190.02
631.88	1182.49
632.22	1174.87
632.57	1167.56
632.91	1160.05
633.26	1152.54
633.60	1145.24
633.95	1138.16
634.29	1131.20
634.64	1124.60
634.98	1117.20
635.32	1109.99
635.67	1103.46
636.01	1096.74
636.36	1089.91
636.70	1083.38
637.05	1076.73
637.39	1070.35
637.73	1063.87
638.08	1058.10
638.42	1052.07
638.77	1045.66
639.11	1039.00
639.45	1032.59
639.80	1025.77
640.14	1019.38
640.49	1012.90
640.83	1006.58
641.17	1000.21
641.52	993.80
641.86	987.33
642.20	981.46
642.55	975.20
642.89	968.65
643.23	962.18
643.58	956.37
643.92	950.17
644.26	944.10
644.61	938.00
644.95	931.91
645.29	925.24
645.64	918.50
645.98	912.15
646.32	906.38
646.66	900.38
647.01	894.68
647.35	888.89
647.69	883.08
648.04	877.52
648.38	871.81
648.72	865.85
649.06	859.74
649.41	853.82
649.75	847.88
650.09	841.89
650.43	836.06
650.78	829.85
651.12	823.93
651.46	818.21
651.80	812.44
652.14	807.05
652.49	801.73
652.83	796.67
653.17	790.87
653.51	785.15
653.85	779.74
654.20	774.11
654.54	768.24
654.88	762.54
655.22	756.72
655.56	751.03
655.90	745.63
656.25	740.39
656.59	735.04
656.93	729.94
657.27	724.83
657.61	719.41
657.95	714.39
658.29	709.29
658.64	704.04
658.98	698.79
659.32	693.33
659.66	688.07
660.00	682.68
660.34	677.76
660.68	672.84
661.02	667.80
661.36	663.04
661.70	658.46
662.05	654.05
662.39	649.77
662.73	645.38
663.07	640.98
663.41	636.56
663.75	632.07
664.09	627.47
664.43	623.09
664.77	619.03
665.11	614.73
665.45	610.62
665.79	606.60
666.13	602.50
666.47	598.47
666.81	594.31
667.15	590.21
667.49	586.32
667.83	582.48
668.17	578.60
668.51	574.56
668.85	570.55
669.19	566.68
669.53	562.78
669.87	558.85
670.21	555.20
670.55	551.55
670.89	548.17
671.23	544.75
671.57	541.25
671.91	537.69
672.25	534.28
672.58	530.74
672.92	527.36
673.26	524.14
673.60	520.93
673.94	517.89
674.28	515.03
674.62	512.10
674.96	509.00
675.30	506.07
675.64	503.17
675.97	500.42
676.31	497.58
676.65	494.67
676.99	491.98
677.33	489.09
677.67	486.30
678.01	483.24
678.34	480.32
678.68	477.47
679.02	474.65
679.36	471.89
679.70	469.11
680.04	466.35
680.37	463.51
680.71	460.71
681.05	458.08
681.39	455.32
681.73	452.69
682.06	450.19
682.40	447.62
682.74	445.12
683.08	442.56
683.42	439.97
683.75	437.52
684.09	434.98
684.43	432.51
684.77	430.05
685.10	427.74
685.44	425.42
685.78	423.10
686.12	420.82
686.45	418.50
686.79	416.24
687.13	413.97
687.46	411.80
687.80	409.65
688.14	407.42
688.48	405.39
688.81	403.16
689.15	400.97
689.49	398.83
689.82	396.69
690.16	394.58
690.50	392.65
690.83	390.66
691.17	388.66
691.51	386.73
691.84	384.83
692.18	382.87
692.52	380.86
692.85	378.88
693.19	376.97
693.52	375.10
693.86	373.30
694.20	371.56
694.53	369.78
694.87	367.94
695.21	366.15
695.54	364.31
695.88	362.58
696.21	360.88
696.55	359.19
696.88	357.52
697.22	355.86
697.56	354.21
697.89	352.51
698.23	350.89
698.56	349.30
698.90	347.72
699.23	346.11
699.57	344.58
699.90	343.10
700.24	341.58
700.58	340.05
700.91	338.54
701.25	337.08
701.58	335.69
701.92	334.32
702.25	332.89
702.59	331.51
702.92	330.15
703.26	328.83
703.59	327.58
703.93	326.39
704.26	325.14
704.60	323.81
704.93	322.60
705.26	321.37
705.60	320.19
705.93	319.04
706.27	317.99
706.60	316.89
706.94	315.78
707.27	314.65
707.61	313.65
707.94	312.66
708.27	311.56
708.61	310.47
708.94	309.48
709.28	308.53
709.61	307.59
709.94	306.64
710.28	305.62
710.61	304.60
710.95	303.54
711.28	302.66
711.61	301.73
711.95	300.80
712.28	299.87
712.61	298.88
712.95	297.95
713.28	297.05
713.61	296.18
713.95	295.30
714.28	294.47
714.61	293.58
714.95	292.72
715.28	291.89
715.61	291.05
715.95	290.19
716.28	289.33
716.61	288.52
716.95	287.74
717.28	287.00
717.61	286.26
717.94	285.52
718.28	284.71
718.61	283.97
718.94	283.30
719.27	282.63
719.61	282.00
719.94	281.30
720.27	280.59
720.60	279.96
720.94	279.32
721.27	278.70
721.60	278.15
721.93	277.52
722.27	276.93
722.60	276.37
722.93	275.79
723.26	275.26
723.59	274.68
723.93	274.13
724.26	273.62
724.59	273.06
724.92	272.54
725.25	272.01
725.59	271.51
725.92	270.98
726.25	270.45
726.58	269.93
726.91	269.46
727.24	269.00
727.57	268.49
727.91	268.00
728.24	267.56
728.57	267.05
728.90	266.62
729.23	266.17
729.56	265.72
729.89	265.23
730.22	264.75
730.55	264.25
730.89	263.77
731.22	263.28
731.55	262.83
731.88	262.42
732.21	261.99
732.54	261.53
732.87	261.14
733.20	260.75
733.53	260.37
733.86	260.01
734.19	259.61
734.52	259.24
734.85	258.94
735.18	258.52
735.51	258.19
735.84	257.80
736.17	257.44
736.50	257.06
736.83	256.89
737.16	256.58
737.49	256.29
737.82	255.96
738.15	255.65
738.48	255.28
738.81	254.95
739.14	254.65
739.47	254.37
739.80	254.04
740.13	253.72
740.46	253.40
740.79	253.09
741.12	252.76
741.45	252.44
741.78	252.05
742.11	251.80
742.44	251.43
742.77	251.17
743.10	250.83
743.43	250.55
743.75	250.13
744.08	249.96
744.41	249.68
744.74	249.41
745.07	249.15
745.40	248.97
745.73	248.75
746.06	248.46
746.39	248.17
746.71	247.92
747.04	247.68
747.37	247.44
747.70	247.18
748.03	246.98
748.36	246.76
748.68	246.57
749.01	246.31
749.34	246.12
749.67	245.85
750.00	245.67
750.33	245.53
750.65	245.36
750.98	245.01
751.31	244.82
751.64	244.60
751.97	244.43
752.29	244.19
752.62	243.94
752.95	243.78
753.28	243.62
753.60	243.43
753.93	243.27
754.26	243.06
754.59	242.82
754.91	242.59
755.24	242.39
755.57	242.20
755.90	242.02
756.22	241.84
756.55	241.64
756.88	241.41
757.20	241.18
757.53	240.97
757.86	240.82
758.19	240.68
758.51	240.54
758.84	240.32
759.17	240.16
759.49	240.01
759.82	239.89
760.15	239.74
760.47	239.57
760.80	239.35
761.13	239.27
761.45	239.13
761.78	238.97
762.11	238.80
762.43	238.64
762.76	238.48
763.08	238.37
763.41	238.27
763.74	238.17
764.06	238.01
764.39	237.86
764.71	237.74
765.04	237.57
765.37	237.44
765.69	237.30
766.02	237.15
766.34	236.99
766.67	236.82
767.00	236.70
767.32	236.63
767.65	236.59
767.97	236.46
768.30	236.34
768.62	236.23
768.95	236.10
769.27	235.98
769.60	235.88
769.92	235.72
770.25	235.60
770.57	235.48
770.90	235.36
771.22	235.27
771.55	235.13
771.87	235.05
772.20	234.93
772.52	234.89
772.85	234.91
773.17	234.81
773.50	234.70
773.82	234.58
774.15	234.46
774.47	234.32
774.80	234.17
775.12	234.12
775.45	234.04
775.77	234.00
776.09	233.92
776.42	233.85
776.74	233.82
777.07	233.75
777.39	233.67
777.72	233.62
778.04	233.52
778.36	233.46
778.69	233.38
779.01	233.33
779.33	233.22
779.66	233.03
779.98	233.00
780.31	232.93
780.63	232.96
780.95	232.91
781.28	232.82
781.60	232.79
781.92	232.72
782.25	232.65
782.57	232.58
782.89	232.54
783.22	232.47
783.54	232.36
783.86	232.31
784.19	232.24
784.51	232.21
784.83	232.16
785.16	232.09
785.48	232.04
785.80	231.99
786.12	231.95
786.45	231.91
786.77	231.84
787.09	231.81
