SpectraSuite Data File
++++++++++++++++++++++++++++++++++++
Date: Fri Feb 01 15:01:16 EST 2013
User: group
Dark Spectrum Present: No
Reference Spectrum Present: No
Number of Sampled Component Spectra: 1
Spectrometers: USB2E7196
Integration Time (usec): 35000 (USB2E7196)
Spectra Averaged: 100 (USB2E7196)
Boxcar Smoothing: 10 (USB2E7196)
Correct for Electrical Dark: No (USB2E7196)
Strobe/Lamp Enabled: No (USB2E7196)
Correct for Detector Non-linearity: No (USB2E7196)
Correct for Stray Light: No (USB2E7196)
Number of Pixels in Processed Spectrum: 2048
>>>>>Begin Processed Spectral Data<<<<<
339.09	0.00
339.48	215.25
339.86	217.03
340.24	218.17
340.63	219.71
341.01	222.55
341.39	222.52
341.78	223.55
342.16	225.57
342.54	225.49
342.93	213.82
343.31	224.64
343.69	225.17
344.07	225.64
344.46	226.05
344.84	226.45
345.22	226.67
345.60	226.90
345.99	227.08
346.37	227.17
346.75	227.27
347.13	227.30
347.52	227.38
347.90	227.46
348.28	227.47
348.66	227.49
349.05	227.45
349.43	227.51
349.81	227.56
350.19	227.61
350.57	227.62
350.96	227.69
351.34	227.75
351.72	227.85
352.10	227.91
352.48	227.94
352.87	227.96
353.25	228.01
353.63	228.10
354.01	228.14
354.39	228.20
354.77	228.27
355.15	228.37
355.54	228.41
355.92	228.40
356.30	228.47
356.68	228.64
357.06	228.71
357.44	228.76
357.82	228.80
358.20	228.85
358.58	228.91
358.97	228.94
359.35	229.02
359.73	229.07
360.11	229.11
360.49	229.19
360.87	229.26
361.25	229.32
361.63	229.34
362.01	229.42
362.39	229.47
362.77	229.50
363.15	229.53
363.53	229.58
363.91	229.59
364.29	229.59
364.67	229.49
365.05	229.49
365.43	229.51
365.81	229.49
366.19	229.54
366.57	229.58
366.95	229.58
367.33	229.53
367.71	229.53
368.09	229.53
368.47	229.51
368.85	229.44
369.23	229.40
369.61	229.36
369.99	229.32
370.37	229.24
370.75	229.23
371.13	229.13
371.51	229.05
371.89	229.04
372.27	229.00
372.65	228.91
373.03	228.86
373.41	228.78
373.78	228.71
374.16	228.59
374.54	228.47
374.92	228.41
375.30	228.34
375.68	228.28
376.06	228.23
376.44	228.17
376.82	228.09
377.19	228.01
377.57	227.93
377.95	227.84
378.33	227.79
378.71	227.67
379.09	227.61
379.47	227.54
379.84	227.44
380.22	227.37
380.60	227.31
380.98	227.23
381.36	227.18
381.73	227.11
382.11	227.10
382.49	227.03
382.87	226.96
383.25	226.89
383.62	226.92
384.00	226.83
384.38	226.74
384.76	226.71
385.13	226.70
385.51	226.64
385.89	226.55
386.27	226.52
386.64	226.48
387.02	226.47
387.40	226.40
387.78	226.37
388.15	226.34
388.53	226.31
388.91	226.30
389.29	226.24
389.66	226.24
390.04	226.20
390.42	226.22
390.79	226.21
391.17	226.20
391.55	226.09
391.92	226.08
392.30	226.12
392.68	226.10
393.05	226.12
393.43	226.16
393.81	226.22
394.18	226.19
394.56	226.24
394.94	226.28
395.31	226.33
395.69	226.36
396.06	226.43
396.44	226.49
396.82	226.56
397.19	226.66
397.57	226.71
397.95	226.80
398.32	226.81
398.70	226.86
399.07	226.99
399.45	227.04
399.82	227.13
400.20	227.23
400.58	227.31
400.95	227.36
401.33	227.47
401.70	227.61
402.08	227.73
402.45	227.80
402.83	227.92
403.20	228.03
403.58	228.13
403.95	228.25
404.33	228.37
404.71	228.48
405.08	228.67
405.46	228.79
405.83	228.91
406.21	229.07
406.58	229.22
406.96	229.38
407.33	229.56
407.70	229.74
408.08	229.98
408.45	230.22
408.83	230.45
409.20	230.65
409.58	230.84
409.95	231.14
410.33	231.42
410.70	231.68
411.08	232.01
411.45	232.36
411.82	232.65
412.20	233.00
412.57	233.39
412.95	233.70
413.32	234.11
413.69	234.51
414.07	234.95
414.44	235.41
414.82	235.86
415.19	236.39
415.56	236.96
415.94	237.52
416.31	238.15
416.68	238.83
417.06	239.54
417.43	240.21
417.81	240.97
418.18	241.76
418.55	242.59
418.93	243.47
419.30	244.31
419.67	245.28
420.04	246.22
420.42	247.24
420.79	248.45
421.16	249.61
421.54	250.80
421.91	251.99
422.28	253.27
422.66	254.58
423.03	255.93
423.40	257.27
423.77	258.65
424.15	260.07
424.52	261.52
424.89	263.12
425.26	264.66
425.64	266.09
426.01	267.69
426.38	269.33
426.75	270.96
427.13	272.71
427.50	274.53
427.87	276.42
428.24	278.26
428.61	279.96
428.99	281.93
429.36	284.05
429.73	286.14
430.10	288.14
430.47	290.23
430.85	292.33
431.22	294.55
431.59	296.98
431.96	299.27
432.33	301.73
432.70	304.15
433.08	306.96
433.45	309.63
433.82	312.23
434.19	315.16
434.56	318.01
434.93	320.66
435.30	323.27
435.68	326.19
436.05	329.07
436.42	331.92
436.79	334.47
437.16	337.13
437.53	340.00
437.90	342.89
438.27	345.62
438.64	348.48
439.01	351.12
439.38	353.39
439.75	355.53
440.13	358.04
440.50	360.35
440.87	362.21
441.24	364.17
441.61	366.39
441.98	367.86
442.35	369.70
442.72	371.60
443.09	373.41
443.46	374.42
443.83	375.00
444.20	375.50
444.57	376.32
444.94	376.64
445.31	376.97
445.68	377.26
446.05	377.35
446.42	376.97
446.79	376.56
447.16	376.06
447.53	375.77
447.90	374.61
448.27	373.47
448.64	371.93
449.01	370.78
449.37	368.82
449.74	366.97
450.11	364.67
450.48	362.17
450.85	359.64
451.22	357.47
451.59	355.45
451.96	353.49
452.33	350.87
452.70	348.50
453.07	345.65
453.43	342.80
453.80	340.00
454.17	337.33
454.54	334.73
454.91	332.00
455.28	329.30
455.65	326.87
456.02	324.44
456.38	322.28
456.75	319.58
457.12	317.27
457.49	315.00
457.86	312.83
458.23	310.97
458.59	308.89
458.96	306.80
459.33	304.94
459.70	303.08
460.07	301.58
460.43	299.88
460.80	298.25
461.17	296.79
461.54	295.33
461.91	293.88
462.27	292.45
462.64	291.21
463.01	289.83
463.38	288.50
463.74	287.07
464.11	285.87
464.48	284.85
464.85	283.72
465.21	282.85
465.58	281.94
465.95	280.85
466.32	279.95
466.68	279.05
467.05	278.13
467.42	277.23
467.78	276.27
468.15	275.37
468.52	274.71
468.88	273.83
469.25	273.04
469.62	272.40
469.98	271.70
470.35	271.03
470.72	270.44
471.08	269.77
471.45	269.24
471.82	268.70
472.18	268.10
472.55	267.70
472.92	267.16
473.28	266.67
473.65	266.21
474.02	265.77
474.38	265.39
474.75	265.05
475.11	264.68
475.48	264.42
475.85	264.17
476.21	263.92
476.58	263.75
476.94	263.61
477.31	263.46
477.67	263.33
478.04	263.24
478.41	263.18
478.77	263.16
479.14	263.05
479.50	263.05
479.87	263.09
480.23	263.12
480.60	263.14
480.96	263.23
481.33	263.45
481.69	263.65
482.06	263.82
482.42	264.02
482.79	264.28
483.15	264.55
483.52	264.93
483.88	265.31
484.25	265.67
484.61	266.08
484.98	266.50
485.34	267.05
485.71	267.61
486.07	268.19
486.44	268.79
486.80	269.51
487.17	270.25
487.53	271.04
487.90	271.91
488.26	272.90
488.62	273.90
488.99	274.84
489.35	275.86
489.72	276.99
490.08	278.16
490.44	279.39
490.81	280.73
491.17	282.04
491.54	283.48
491.90	284.99
492.26	286.59
492.63	288.29
492.99	290.02
493.36	291.90
493.72	293.90
494.08	295.98
494.45	298.24
494.81	300.55
495.17	303.00
495.54	305.52
495.90	308.19
496.26	311.00
496.63	313.90
496.99	316.96
497.35	320.18
497.72	323.55
498.08	327.05
498.44	330.72
498.80	334.61
499.17	338.58
499.53	342.75
499.89	347.14
500.26	351.67
500.62	356.30
500.98	361.23
501.34	366.30
501.71	371.56
502.07	376.98
502.43	382.58
502.79	388.34
503.16	394.38
503.52	400.55
503.88	406.86
504.24	413.50
504.60	420.42
504.97	427.53
505.33	434.89
505.69	442.57
506.05	450.36
506.41	458.19
506.78	466.33
507.14	474.74
507.50	483.40
507.86	492.38
508.22	501.57
508.59	510.73
508.95	520.29
509.31	530.16
509.67	540.23
510.03	550.52
510.39	561.03
510.75	571.82
511.12	582.81
511.48	594.12
511.84	605.56
512.20	617.07
512.56	629.01
512.92	641.13
513.28	653.42
513.64	665.82
514.00	678.62
514.37	691.59
514.73	704.70
515.09	717.86
515.45	731.14
515.81	744.79
516.17	758.82
516.53	773.00
516.89	787.18
517.25	801.38
517.61	815.87
517.97	830.43
518.33	844.86
518.69	859.65
519.05	874.70
519.41	889.89
519.77	905.47
520.13	921.02
520.49	936.48
520.85	952.02
521.21	967.80
521.57	984.07
521.93	999.95
522.29	1016.37
522.65	1032.57
523.01	1048.87
523.37	1064.94
523.73	1081.19
524.09	1097.26
524.45	1113.75
524.81	1130.52
525.17	1147.46
525.53	1164.48
525.89	1181.42
526.25	1198.34
526.61	1214.77
526.97	1231.59
527.33	1248.08
527.68	1264.76
528.04	1281.30
528.40	1298.03
528.76	1315.30
529.12	1331.95
529.48	1348.90
529.84	1364.98
530.20	1381.79
530.56	1398.99
530.91	1416.44
531.27	1433.33
531.63	1450.01
531.99	1466.60
532.35	1482.54
532.71	1498.47
533.07	1514.75
533.42	1530.76
533.78	1546.87
534.14	1563.21
534.50	1578.62
534.86	1594.63
535.21	1609.81
535.57	1625.86
535.93	1641.36
536.29	1656.03
536.65	1671.33
537.00	1686.16
537.36	1701.58
537.72	1716.12
538.08	1730.49
538.44	1744.34
538.79	1758.23
539.15	1772.06
539.51	1785.83
539.87	1800.29
540.22	1814.11
540.58	1827.96
540.94	1841.50
541.29	1854.53
541.65	1867.33
542.01	1880.73
542.37	1893.06
542.72	1905.67
543.08	1917.52
543.44	1930.07
543.79	1941.46
544.15	1952.31
544.51	1963.83
544.87	1974.92
545.22	1985.78
545.58	1996.01
545.94	2005.95
546.29	2015.94
546.65	2025.68
547.01	2034.93
547.36	2043.75
547.72	2052.21
548.07	2060.00
548.43	2068.19
548.79	2076.15
549.14	2083.66
549.50	2091.01
549.86	2098.71
550.21	2105.88
550.57	2113.02
550.92	2119.49
551.28	2126.53
551.64	2133.61
551.99	2140.34
552.35	2146.47
552.70	2152.58
553.06	2158.60
553.41	2164.94
553.77	2170.99
554.13	2177.03
554.48	2183.11
554.84	2188.32
555.19	2193.51
555.55	2198.71
555.90	2203.08
556.26	2207.92
556.61	2212.72
556.97	2216.82
557.32	2221.02
557.68	2225.14
558.03	2229.47
558.39	2233.19
558.74	2237.86
559.10	2241.77
559.45	2245.35
559.81	2249.58
560.16	2253.35
560.52	2256.52
560.87	2259.91
561.23	2262.31
561.58	2265.31
561.94	2267.78
562.29	2270.37
562.64	2273.09
563.00	2275.77
563.35	2279.22
563.71	2282.34
564.06	2285.44
564.42	2288.38
564.77	2290.69
565.12	2292.84
565.48	2294.53
565.83	2296.16
566.19	2297.30
566.54	2298.07
566.89	2299.01
567.25	2299.46
567.60	2300.79
567.96	2302.22
568.31	2302.82
568.66	2303.85
569.02	2304.19
569.37	2304.37
569.72	2304.98
570.08	2304.78
570.43	2304.53
570.78	2303.79
571.14	2302.07
571.49	2300.50
571.84	2300.03
572.20	2298.76
572.55	2297.63
572.90	2295.98
573.26	2294.57
573.61	2292.77
573.96	2290.78
574.31	2287.68
574.67	2284.45
575.02	2280.58
575.37	2277.13
575.72	2273.24
576.08	2269.90
576.43	2266.58
576.78	2262.81
577.13	2259.54
577.49	2256.42
577.84	2252.76
578.19	2248.93
578.54	2245.02
578.90	2240.76
579.25	2234.95
579.60	2229.89
579.95	2224.72
580.30	2219.72
580.66	2214.48
581.01	2209.53
581.36	2204.50
581.71	2200.11
582.06	2195.50
582.42	2190.92
582.77	2185.59
583.12	2180.82
583.47	2175.93
583.82	2170.66
584.17	2165.35
584.53	2159.60
584.88	2153.79
585.23	2147.97
585.58	2142.32
585.93	2136.83
586.28	2131.97
586.63	2126.81
586.98	2121.65
587.34	2116.84
587.69	2111.67
588.04	2106.22
588.39	2100.17
588.74	2093.65
589.09	2087.45
589.44	2080.43
589.79	2074.27
590.14	2068.56
590.49	2061.96
590.84	2055.48
591.19	2049.39
591.54	2042.77
591.89	2035.36
592.25	2028.55
592.60	2021.13
592.95	2013.45
593.30	2005.92
593.65	1998.04
594.00	1991.00
594.35	1983.66
594.70	1975.58
595.05	1968.13
595.40	1960.81
595.75	1953.38
596.10	1946.94
596.45	1940.09
596.80	1933.94
597.15	1927.18
597.50	1919.85
597.85	1913.31
598.19	1906.46
598.54	1899.31
598.89	1892.65
599.24	1886.67
599.59	1879.79
599.94	1873.59
600.29	1867.34
600.64	1860.83
600.99	1853.45
601.34	1846.44
601.69	1839.43
602.04	1832.50
602.39	1825.23
602.74	1818.31
603.08	1811.45
603.43	1804.82
603.78	1797.60
604.13	1790.32
604.48	1783.11
604.83	1776.39
605.18	1769.34
605.53	1761.38
605.87	1753.29
606.22	1746.07
606.57	1738.08
606.92	1730.91
607.27	1723.69
607.62	1716.56
607.96	1709.20
608.31	1702.59
608.66	1694.98
609.01	1687.38
609.36	1679.80
609.70	1671.86
610.05	1663.80
610.40	1656.07
610.75	1647.71
611.10	1639.98
611.44	1631.69
611.79	1623.68
612.14	1615.06
612.49	1605.91
612.83	1597.60
613.18	1589.48
613.53	1581.34
613.88	1572.99
614.22	1564.60
614.57	1556.09
614.92	1548.07
615.27	1540.58
615.61	1532.20
615.96	1524.27
616.31	1516.71
616.65	1509.34
617.00	1501.77
617.35	1494.11
617.70	1485.83
618.04	1477.36
618.39	1469.16
618.74	1461.64
619.08	1453.40
619.43	1445.82
619.78	1438.94
620.12	1431.70
620.47	1424.35
620.82	1416.24
621.16	1408.77
621.51	1401.26
621.85	1393.67
622.20	1385.23
622.55	1376.92
622.89	1369.16
623.24	1361.63
623.59	1354.27
623.93	1346.81
624.28	1339.61
624.62	1332.27
624.97	1325.08
625.32	1318.47
625.66	1311.58
626.01	1304.40
626.35	1297.00
626.70	1289.41
627.04	1281.80
627.39	1274.13
627.73	1266.66
628.08	1259.79
628.43	1252.59
628.77	1245.23
629.12	1237.62
629.46	1230.44
629.81	1223.07
630.15	1215.86
630.50	1208.41
630.84	1200.22
631.19	1192.28
631.53	1184.91
631.88	1177.29
632.22	1169.75
632.57	1162.35
632.91	1154.76
633.26	1147.42
633.60	1140.09
633.95	1132.93
634.29	1125.97
634.64	1119.30
634.98	1111.99
635.32	1104.87
635.67	1098.29
636.01	1091.71
636.36	1084.98
636.70	1078.66
637.05	1072.13
637.39	1065.82
637.73	1059.34
638.08	1053.65
638.42	1047.69
638.77	1041.25
639.11	1034.70
639.45	1028.39
639.80	1021.81
640.14	1015.44
640.49	1008.84
640.83	1002.53
641.17	996.30
641.52	989.88
641.86	983.54
642.20	977.65
642.55	971.42
642.89	964.92
643.23	958.49
643.58	952.82
643.92	946.59
644.26	940.51
644.61	934.52
644.95	928.47
645.29	921.76
645.64	915.06
645.98	908.78
646.32	903.02
646.66	896.98
647.01	891.18
647.35	885.48
647.69	879.76
648.04	874.23
648.38	868.53
648.72	862.53
649.06	856.47
649.41	850.66
649.75	844.67
650.09	838.80
650.43	833.01
650.78	826.84
651.12	820.87
651.46	815.21
651.80	809.40
652.14	804.03
652.49	798.75
652.83	793.67
653.17	787.93
653.51	782.21
653.85	776.85
654.20	771.23
654.54	765.28
654.88	759.58
655.22	753.82
655.56	748.10
655.90	742.77
656.25	737.56
656.59	732.26
656.93	727.15
657.27	721.95
657.61	716.50
657.95	711.46
658.29	706.43
658.64	701.22
658.98	695.97
659.32	690.63
659.66	685.44
660.00	680.14
660.34	675.25
660.68	670.38
661.02	665.38
661.36	660.71
661.70	656.25
662.05	651.95
662.39	647.55
662.73	643.15
663.07	638.79
663.41	634.33
663.75	629.85
664.09	625.37
664.43	621.03
664.77	617.02
665.11	612.75
665.45	608.65
665.79	604.62
666.13	600.53
666.47	596.44
666.81	592.29
667.15	588.18
667.49	584.32
667.83	580.55
668.17	576.67
668.51	572.61
668.85	568.55
669.19	564.67
669.53	560.88
669.87	557.04
670.21	553.29
670.55	549.68
670.89	546.28
671.23	542.87
671.57	539.38
671.91	535.84
672.25	532.39
672.58	528.86
672.92	525.50
673.26	522.39
673.60	519.25
673.94	516.13
674.28	513.28
674.62	510.27
674.96	507.17
675.30	504.21
675.64	501.31
675.97	498.62
676.31	495.78
676.65	492.83
676.99	490.11
677.33	487.33
677.67	484.55
678.01	481.49
678.34	478.45
678.68	475.58
679.02	472.77
679.36	470.05
679.70	467.34
680.04	464.52
680.37	461.57
680.71	458.81
681.05	456.21
681.39	453.45
681.73	450.86
682.06	448.27
682.40	445.79
682.74	443.22
683.08	440.69
683.42	438.12
683.75	435.67
684.09	433.12
684.43	430.64
684.77	428.20
685.10	425.92
685.44	423.72
685.78	421.47
686.12	419.27
686.45	416.99
686.79	414.71
687.13	412.55
687.46	410.47
687.80	408.35
688.14	406.18
688.48	404.15
688.81	401.88
689.15	399.80
689.49	397.70
689.82	395.68
690.16	393.57
690.50	391.60
690.83	389.67
691.17	387.73
691.51	385.92
691.84	384.06
692.18	382.17
692.52	380.16
692.85	378.19
693.19	376.29
693.52	374.48
693.86	372.66
694.20	370.89
694.53	369.09
694.87	367.26
695.21	365.49
695.54	363.75
695.88	362.07
696.21	360.33
696.55	358.64
696.88	356.97
697.22	355.33
697.56	353.73
697.89	352.06
698.23	350.51
698.56	348.87
698.90	347.28
699.23	345.58
699.57	344.10
699.90	342.60
700.24	341.09
700.58	339.58
700.91	338.13
701.25	336.70
701.58	335.32
701.92	333.98
702.25	332.61
702.59	331.21
702.92	329.90
703.26	328.63
703.59	327.37
703.93	326.22
704.26	325.04
704.60	323.76
704.93	322.53
705.26	321.24
705.60	320.10
705.93	318.97
706.27	317.98
706.60	316.91
706.94	315.88
707.27	314.75
707.61	313.72
707.94	312.71
708.27	311.68
708.61	310.66
708.94	309.63
709.28	308.66
709.61	307.70
709.94	306.78
710.28	305.75
710.61	304.78
710.95	303.72
711.28	302.79
711.61	301.85
711.95	300.97
712.28	300.06
712.61	299.09
712.95	298.12
713.28	297.23
713.61	296.37
713.95	295.47
714.28	294.65
714.61	293.74
714.95	292.92
715.28	292.06
715.61	291.16
715.95	290.31
716.28	289.48
716.61	288.67
716.95	287.83
717.28	287.12
717.61	286.33
717.94	285.61
718.28	284.81
718.61	284.07
718.94	283.37
719.27	282.69
719.61	282.05
719.94	281.40
720.27	280.69
720.60	279.99
720.94	279.37
721.27	278.76
721.60	278.19
721.93	277.56
722.27	276.98
722.60	276.40
722.93	275.85
723.26	275.33
723.59	274.78
723.93	274.22
724.26	273.66
724.59	273.14
724.92	272.64
725.25	272.15
725.59	271.63
725.92	271.10
726.25	270.62
726.58	270.09
726.91	269.62
727.24	269.12
727.57	268.64
727.91	268.10
728.24	267.63
728.57	267.17
728.90	266.73
729.23	266.24
729.56	265.82
729.89	265.39
730.22	264.86
730.55	264.39
730.89	263.95
731.22	263.47
731.55	263.01
731.88	262.53
732.21	262.09
732.54	261.68
732.87	261.29
733.20	260.87
733.53	260.48
733.86	260.10
734.19	259.73
734.52	259.36
734.85	259.11
735.18	258.69
735.51	258.33
735.84	257.92
736.17	257.55
736.50	257.16
736.83	256.88
737.16	256.57
737.49	256.23
737.82	255.89
738.15	255.59
738.48	255.27
738.81	254.97
739.14	254.67
739.47	254.36
739.80	254.06
740.13	253.75
740.46	253.45
740.79	253.11
741.12	252.79
741.45	252.48
741.78	252.11
742.11	251.90
742.44	251.57
742.77	251.34
743.10	251.08
743.43	250.78
743.75	250.43
744.08	250.29
744.41	250.02
744.74	249.79
745.07	249.52
745.40	249.26
745.73	249.03
746.06	248.73
746.39	248.45
746.71	248.15
747.04	247.91
747.37	247.67
747.70	247.44
748.03	247.22
748.36	247.03
748.68	246.79
749.01	246.51
749.34	246.30
749.67	246.07
750.00	245.82
750.33	245.66
750.65	245.44
750.98	245.10
751.31	244.89
751.64	244.70
751.97	244.51
752.29	244.34
752.62	244.06
752.95	243.87
753.28	243.69
753.60	243.50
753.93	243.33
754.26	243.15
754.59	242.95
754.91	242.76
755.24	242.55
755.57	242.37
755.90	242.17
756.22	241.97
756.55	241.76
756.88	241.57
757.20	241.36
757.53	241.17
757.86	241.00
758.19	240.87
758.51	240.66
758.84	240.48
759.17	240.28
759.49	240.14
759.82	240.00
760.15	239.85
760.47	239.69
760.80	239.47
761.13	239.34
761.45	239.20
761.78	239.05
762.11	238.88
762.43	238.72
762.76	238.61
763.08	238.48
763.41	238.38
763.74	238.26
764.06	238.12
764.39	237.97
764.71	237.83
765.04	237.67
765.37	237.55
765.69	237.41
766.02	237.30
766.34	237.19
766.67	237.06
767.00	236.96
767.32	236.89
767.65	236.88
767.97	236.73
768.30	236.58
768.62	236.45
768.95	236.35
769.27	236.23
769.60	236.10
769.92	235.97
770.25	235.86
770.57	235.71
770.90	235.60
771.22	235.51
771.55	235.44
771.87	235.34
772.20	235.23
772.52	235.21
772.85	235.18
773.17	235.09
773.50	234.97
773.82	234.82
774.15	234.70
774.47	234.49
774.80	234.42
775.12	234.35
775.45	234.25
775.77	234.15
776.09	234.10
776.42	233.99
776.74	233.96
777.07	233.86
777.39	233.82
777.72	233.75
778.04	233.69
778.36	233.58
778.69	233.52
779.01	233.47
779.33	233.32
779.66	233.19
779.98	233.12
780.31	233.08
780.63	233.09
780.95	233.05
781.28	233.01
781.60	232.93
781.92	232.89
782.25	232.87
782.57	232.82
782.89	232.74
783.22	232.72
783.54	232.62
783.86	232.59
784.19	232.51
784.51	232.48
784.83	232.42
785.16	232.38
785.48	232.36
785.80	232.29
786.12	232.26
786.45	232.19
786.77	232.16
787.09	232.11
