SpectraSuite Data File
++++++++++++++++++++++++++++++++++++
Date: Fri Feb 01 15:36:07 EST 2013
User: group
Dark Spectrum Present: No
Reference Spectrum Present: No
Number of Sampled Component Spectra: 1
Spectrometers: USB2E7196
Integration Time (usec): 35000 (USB2E7196)
Spectra Averaged: 100 (USB2E7196)
Boxcar Smoothing: 10 (USB2E7196)
Correct for Electrical Dark: No (USB2E7196)
Strobe/Lamp Enabled: No (USB2E7196)
Correct for Detector Non-linearity: No (USB2E7196)
Correct for Stray Light: No (USB2E7196)
Number of Pixels in Processed Spectrum: 2048
>>>>>Begin Processed Spectral Data<<<<<
339.09	0.00
339.48	214.74
339.86	216.74
340.24	217.70
340.63	219.06
341.01	222.22
341.39	222.08
341.78	222.92
342.16	224.66
342.54	224.84
342.93	213.21
343.31	223.99
343.69	224.54
344.07	224.99
344.46	225.42
344.84	225.81
345.22	226.02
345.60	226.24
345.99	226.43
346.37	226.54
346.75	226.65
347.13	226.73
347.52	226.81
347.90	226.85
348.28	226.87
348.66	226.93
349.05	226.92
349.43	227.01
349.81	227.07
350.19	227.14
350.57	227.19
350.96	227.29
351.34	227.35
351.72	227.43
352.10	227.54
352.48	227.60
352.87	227.66
353.25	227.76
353.63	227.84
354.01	227.92
354.39	228.02
354.77	228.08
355.15	228.17
355.54	228.22
355.92	228.28
356.30	228.36
356.68	228.51
357.06	228.56
357.44	228.59
357.82	228.64
358.20	228.68
358.58	228.71
358.97	228.79
359.35	228.87
359.73	228.96
360.11	228.99
360.49	229.07
360.87	229.09
361.25	229.15
361.63	229.21
362.01	229.24
362.39	229.27
362.77	229.30
363.15	229.33
363.53	229.38
363.91	229.38
364.29	229.40
364.67	229.30
365.05	229.33
365.43	229.34
365.81	229.34
366.19	229.34
366.57	229.39
366.95	229.35
367.33	229.32
367.71	229.28
368.09	229.26
368.47	229.22
368.85	229.23
369.23	229.20
369.61	229.14
369.99	229.13
370.37	229.10
370.75	229.09
371.13	229.05
371.51	228.98
371.89	228.94
372.27	228.91
372.65	228.87
373.03	228.79
373.41	228.73
373.78	228.70
374.16	228.64
374.54	228.54
374.92	228.47
375.30	228.39
375.68	228.33
376.06	228.26
376.44	228.19
376.82	228.09
377.19	228.00
377.57	227.94
377.95	227.82
378.33	227.73
378.71	227.61
379.09	227.56
379.47	227.50
379.84	227.45
380.22	227.34
380.60	227.27
380.98	227.23
381.36	227.16
381.73	227.09
382.11	227.04
382.49	227.01
382.87	226.96
383.25	226.92
383.62	226.99
384.00	226.92
384.38	226.85
384.76	226.82
385.13	226.84
385.51	226.77
385.89	226.75
386.27	226.71
386.64	226.70
387.02	226.64
387.40	226.61
387.78	226.59
388.15	226.57
388.53	226.54
388.91	226.49
389.29	226.47
389.66	226.46
390.04	226.41
390.42	226.40
390.79	226.39
391.17	226.35
391.55	226.20
391.92	226.19
392.30	226.21
392.68	226.19
393.05	226.17
393.43	226.19
393.81	226.19
394.18	226.20
394.56	226.22
394.94	226.22
395.31	226.22
395.69	226.26
396.06	226.32
396.44	226.36
396.82	226.40
397.19	226.47
397.57	226.49
397.95	226.57
398.32	226.59
398.70	226.67
399.07	226.76
399.45	226.86
399.82	226.95
400.20	227.03
400.58	227.14
400.95	227.16
401.33	227.26
401.70	227.44
402.08	227.54
402.45	227.65
402.83	227.79
403.20	227.89
403.58	227.97
403.95	228.08
404.33	228.20
404.71	228.32
405.08	228.49
405.46	228.63
405.83	228.81
406.21	228.97
406.58	229.14
406.96	229.32
407.33	229.50
407.70	229.71
408.08	229.96
408.45	230.16
408.83	230.43
409.20	230.63
409.58	230.76
409.95	231.01
410.33	231.24
410.70	231.47
411.08	231.76
411.45	232.07
411.82	232.39
412.20	232.75
412.57	233.15
412.95	233.44
413.32	233.86
413.69	234.25
414.07	234.69
414.44	235.12
414.82	235.58
415.19	236.07
415.56	236.57
415.94	237.09
416.31	237.71
416.68	238.31
417.06	239.03
417.43	239.71
417.81	240.48
418.18	241.26
418.55	242.14
418.93	243.04
419.30	243.92
419.67	244.86
420.04	245.83
420.42	246.82
420.79	247.99
421.16	249.12
421.54	250.30
421.91	251.48
422.28	252.75
422.66	254.13
423.03	255.47
423.40	256.78
423.77	258.22
424.15	259.62
424.52	261.14
424.89	262.73
425.26	264.30
425.64	265.74
426.01	267.33
426.38	268.97
426.75	270.65
427.13	272.40
427.50	274.20
427.87	276.13
428.24	278.02
428.61	279.78
428.99	281.72
429.36	283.87
429.73	285.99
430.10	288.02
430.47	290.07
430.85	292.20
431.22	294.51
431.59	296.91
431.96	299.16
432.33	301.64
432.70	304.06
433.08	306.93
433.45	309.55
433.82	312.23
434.19	315.15
434.56	317.99
434.93	320.65
435.30	323.29
435.68	326.13
436.05	328.96
436.42	331.78
436.79	334.32
437.16	337.01
437.53	339.86
437.90	342.62
438.27	345.33
438.64	348.14
439.01	350.72
439.38	352.96
439.75	355.14
440.13	357.61
440.50	359.97
440.87	361.81
441.24	363.78
441.61	365.91
441.98	367.38
442.35	369.18
442.72	371.02
443.09	372.85
443.46	373.87
443.83	374.47
444.20	374.97
444.57	375.80
444.94	376.09
445.31	376.40
445.68	376.83
446.05	376.96
446.42	376.57
446.79	376.15
447.16	375.72
447.53	375.43
447.90	374.30
448.27	373.13
448.64	371.53
449.01	370.40
449.37	368.43
449.74	366.52
450.11	364.26
450.48	361.80
450.85	359.24
451.22	357.05
451.59	355.04
451.96	353.09
452.33	350.50
452.70	348.11
453.07	345.27
453.43	342.34
453.80	339.55
454.17	336.87
454.54	334.34
454.91	331.56
455.28	328.89
455.65	326.37
456.02	323.88
456.38	321.72
456.75	319.04
457.12	316.83
457.49	314.61
457.86	312.40
458.23	310.54
458.59	308.50
458.96	306.40
459.33	304.50
459.70	302.63
460.07	301.09
460.43	299.36
460.80	297.71
461.17	296.26
461.54	294.72
461.91	293.30
462.27	291.86
462.64	290.63
463.01	289.26
463.38	287.96
463.74	286.60
464.11	285.39
464.48	284.34
464.85	283.18
465.21	282.30
465.58	281.39
465.95	280.29
466.32	279.33
466.68	278.43
467.05	277.55
467.42	276.65
467.78	275.72
468.15	274.84
468.52	274.15
468.88	273.25
469.25	272.49
469.62	271.86
469.98	271.15
470.35	270.54
470.72	269.90
471.08	269.25
471.45	268.71
471.82	268.19
472.18	267.60
472.55	267.15
472.92	266.63
473.28	266.14
473.65	265.73
474.02	265.30
474.38	264.90
474.75	264.56
475.11	264.23
475.48	263.97
475.85	263.76
476.21	263.56
476.58	263.41
476.94	263.26
477.31	263.09
477.67	262.95
478.04	262.82
478.41	262.79
478.77	262.80
479.14	262.75
479.50	262.76
479.87	262.84
480.23	262.95
480.60	263.01
480.96	263.12
481.33	263.30
481.69	263.53
482.06	263.74
482.42	264.00
482.79	264.28
483.15	264.61
483.52	264.98
483.88	265.35
484.25	265.73
484.61	266.18
484.98	266.61
485.34	267.22
485.71	267.83
486.07	268.46
486.44	269.07
486.80	269.80
487.17	270.56
487.53	271.40
487.90	272.25
488.26	273.18
488.62	274.18
488.99	275.18
489.35	276.22
489.72	277.32
490.08	278.52
490.44	279.72
490.81	281.06
491.17	282.42
491.54	283.88
491.90	285.47
492.26	287.12
492.63	288.85
492.99	290.60
493.36	292.48
493.72	294.53
494.08	296.61
494.45	298.80
494.81	301.15
495.17	303.56
495.54	306.14
495.90	308.84
496.26	311.61
496.63	314.56
496.99	317.68
497.35	320.96
497.72	324.36
498.08	327.92
498.44	331.57
498.80	335.50
499.17	339.53
499.53	343.67
499.89	348.04
500.26	352.56
500.62	357.24
500.98	362.21
501.34	367.27
501.71	372.58
502.07	378.08
502.43	383.69
502.79	389.46
503.16	395.52
503.52	401.79
503.88	408.23
504.24	414.81
504.60	421.68
504.97	428.80
505.33	436.16
505.69	443.86
506.05	451.61
506.41	459.48
506.78	467.64
507.14	476.03
507.50	484.78
507.86	493.81
508.22	502.99
508.59	512.15
508.95	521.76
509.31	531.65
509.67	541.77
510.03	552.03
510.39	562.66
510.75	573.37
511.12	584.29
511.48	595.51
511.84	606.94
512.20	618.50
512.56	630.47
512.92	642.57
513.28	654.91
513.64	667.41
514.00	680.11
514.37	693.05
514.73	706.17
515.09	719.27
515.45	732.54
515.81	746.17
516.17	760.21
516.53	774.27
516.89	788.53
517.25	802.71
517.61	817.18
517.97	831.62
518.33	846.13
518.69	860.95
519.05	876.11
519.41	891.39
519.77	906.89
520.13	922.38
520.49	937.82
520.85	953.26
521.21	969.01
521.57	985.32
521.93	1001.21
522.29	1017.58
522.65	1033.77
523.01	1050.16
523.37	1066.15
523.73	1082.33
524.09	1098.54
524.45	1114.78
524.81	1131.48
525.17	1148.37
525.53	1165.28
525.89	1182.18
526.25	1199.07
526.61	1215.33
526.97	1232.05
527.33	1248.57
527.68	1265.31
528.04	1281.97
528.40	1298.64
528.76	1315.78
529.12	1332.34
529.48	1349.22
529.84	1365.35
530.20	1382.07
530.56	1399.08
530.91	1416.63
531.27	1433.47
531.63	1449.95
531.99	1466.51
532.35	1482.45
532.71	1498.35
533.07	1514.63
533.42	1530.67
533.78	1546.80
534.14	1563.16
534.50	1578.50
534.86	1594.38
535.21	1609.48
535.57	1625.35
535.93	1640.86
536.29	1655.54
536.65	1670.65
537.00	1685.43
537.36	1700.75
537.72	1715.29
538.08	1729.59
538.44	1743.46
538.79	1757.35
539.15	1771.15
539.51	1784.90
539.87	1799.30
540.22	1812.96
540.58	1826.90
540.94	1840.21
541.29	1853.21
541.65	1866.01
542.01	1879.32
542.37	1891.71
542.72	1904.12
543.08	1915.90
543.44	1928.18
543.79	1939.49
544.15	1950.45
544.51	1961.97
544.87	1972.94
545.22	1983.72
545.58	1993.99
545.94	2003.65
546.29	2013.54
546.65	2023.25
547.01	2032.49
547.36	2041.33
547.72	2049.84
548.07	2057.50
548.43	2065.70
548.79	2073.62
549.14	2081.18
549.50	2088.61
549.86	2096.40
550.21	2103.81
550.57	2110.98
550.92	2117.64
551.28	2124.78
551.64	2131.93
551.99	2138.43
552.35	2144.52
552.70	2150.66
553.06	2156.56
553.41	2163.02
553.77	2168.99
554.13	2175.09
554.48	2181.16
554.84	2186.44
555.19	2191.90
555.55	2197.12
555.90	2201.56
556.26	2206.52
556.61	2211.21
556.97	2215.44
557.32	2219.56
557.68	2223.67
558.03	2227.95
558.39	2231.72
558.74	2236.28
559.10	2240.04
559.45	2243.73
559.81	2248.06
560.16	2251.92
560.52	2255.21
560.87	2258.52
561.23	2261.22
561.58	2264.32
561.94	2266.96
562.29	2269.46
562.64	2272.10
563.00	2274.73
563.35	2278.22
563.71	2281.24
564.06	2284.40
564.42	2287.15
564.77	2289.58
565.12	2291.73
565.48	2293.50
565.83	2295.26
566.19	2296.60
566.54	2297.59
566.89	2298.73
567.25	2299.42
567.60	2300.74
567.96	2302.54
568.31	2303.42
568.66	2304.55
569.02	2304.97
569.37	2305.33
569.72	2306.06
570.08	2306.14
570.43	2306.08
570.78	2305.36
571.14	2303.68
571.49	2302.34
571.84	2302.10
572.20	2300.96
572.55	2299.95
572.90	2298.54
573.26	2297.20
573.61	2295.49
573.96	2293.62
574.31	2290.73
574.67	2287.50
575.02	2283.90
575.37	2280.50
575.72	2276.56
576.08	2273.29
576.43	2269.90
576.78	2266.13
577.13	2262.92
577.49	2259.75
577.84	2256.24
578.19	2252.50
578.54	2248.88
578.90	2244.60
579.25	2238.89
579.60	2233.76
579.95	2228.59
580.30	2223.48
580.66	2218.33
581.01	2213.35
581.36	2208.38
581.71	2203.99
582.06	2199.54
582.42	2194.86
582.77	2189.29
583.12	2184.58
583.47	2179.77
583.82	2174.60
584.17	2169.34
584.53	2163.83
584.88	2158.05
585.23	2152.22
585.58	2146.71
585.93	2141.18
586.28	2136.34
586.63	2131.29
586.98	2126.19
587.34	2121.59
587.69	2116.65
588.04	2111.13
588.39	2105.48
588.74	2099.05
589.09	2092.96
589.44	2086.15
589.79	2080.22
590.14	2074.79
590.49	2068.37
590.84	2061.81
591.19	2055.92
591.54	2049.38
591.89	2041.87
592.25	2035.03
592.60	2027.74
592.95	2020.03
593.30	2012.69
593.65	2005.08
594.00	1998.06
594.35	1990.83
594.70	1982.83
595.05	1975.51
595.40	1968.36
595.75	1960.71
596.10	1954.36
596.45	1947.56
596.80	1941.34
597.15	1934.55
597.50	1927.27
597.85	1920.80
598.19	1914.14
598.54	1907.10
598.89	1900.50
599.24	1894.58
599.59	1888.01
599.94	1881.85
600.29	1875.53
600.64	1868.99
600.99	1861.45
601.34	1854.46
601.69	1847.55
602.04	1840.42
602.39	1833.06
602.74	1826.22
603.08	1819.55
603.43	1812.92
603.78	1805.63
604.13	1798.47
604.48	1791.29
604.83	1784.50
605.18	1777.37
605.53	1769.37
605.87	1761.06
606.22	1753.79
606.57	1745.91
606.92	1738.52
607.27	1731.33
607.62	1724.48
607.96	1717.10
608.31	1710.51
608.66	1702.92
609.01	1695.33
609.36	1687.90
609.70	1679.95
610.05	1671.80
610.40	1663.88
610.75	1655.49
611.10	1647.70
611.44	1639.37
611.79	1631.25
612.14	1622.51
612.49	1613.37
612.83	1605.05
613.18	1597.09
613.53	1588.85
613.88	1580.25
614.22	1571.89
614.57	1563.37
614.92	1555.24
615.27	1547.68
615.61	1539.27
615.96	1531.26
616.31	1523.52
616.65	1516.03
617.00	1508.44
617.35	1500.77
617.70	1492.54
618.04	1484.11
618.39	1475.94
618.74	1468.15
619.08	1459.94
619.43	1452.30
619.78	1445.43
620.12	1438.16
620.47	1430.59
620.82	1422.57
621.16	1415.20
621.51	1407.69
621.85	1399.99
622.20	1391.45
622.55	1383.14
622.89	1375.32
623.24	1367.67
623.59	1360.33
623.93	1352.90
624.28	1345.64
624.62	1338.14
624.97	1330.89
625.32	1324.07
625.66	1317.02
626.01	1309.87
626.35	1302.32
626.70	1294.62
627.04	1286.87
627.39	1279.08
627.73	1271.73
628.08	1264.68
628.43	1257.27
628.77	1249.75
629.12	1242.14
629.46	1234.98
629.81	1227.46
630.15	1220.25
630.50	1212.80
630.84	1204.62
631.19	1196.62
631.53	1189.04
631.88	1181.40
632.22	1173.81
632.57	1166.57
632.91	1159.08
633.26	1151.69
633.60	1144.38
633.95	1137.34
634.29	1130.21
634.64	1123.52
634.98	1116.12
635.32	1108.96
635.67	1102.44
636.01	1095.91
636.36	1089.20
636.70	1082.63
637.05	1076.15
637.39	1069.72
637.73	1063.27
638.08	1057.37
638.42	1051.49
638.77	1045.05
639.11	1038.51
639.45	1032.16
639.80	1025.39
640.14	1018.91
640.49	1012.34
640.83	1006.05
641.17	999.79
641.52	993.57
641.86	987.23
642.20	981.37
642.55	975.20
642.89	968.74
643.23	962.14
643.58	956.30
643.92	950.16
644.26	943.99
644.61	937.92
644.95	931.85
645.29	925.26
645.64	918.47
645.98	912.19
646.32	906.34
646.66	900.33
647.01	894.62
647.35	888.90
647.69	883.11
648.04	877.60
648.38	871.78
648.72	865.78
649.06	859.61
649.41	853.72
649.75	847.72
650.09	841.72
650.43	835.98
650.78	829.86
651.12	824.00
651.46	818.33
651.80	812.62
652.14	807.29
652.49	801.95
652.83	796.82
653.17	791.04
653.51	785.31
653.85	779.88
654.20	774.21
654.54	768.19
654.88	762.43
655.22	756.52
655.56	750.92
655.90	745.42
656.25	740.20
656.59	734.89
656.93	729.82
657.27	724.69
657.61	719.28
657.95	714.10
658.29	708.97
658.64	703.72
658.98	698.39
659.32	692.88
659.66	687.64
660.00	682.28
660.34	677.42
660.68	672.53
661.02	667.52
661.36	662.79
661.70	658.38
662.05	654.05
662.39	649.71
662.73	645.19
663.07	640.81
663.41	636.39
663.75	631.82
664.09	627.19
664.43	622.83
664.77	618.75
665.11	614.52
665.45	610.44
665.79	606.33
666.13	602.25
666.47	598.14
666.81	593.95
667.15	589.88
667.49	586.04
667.83	582.23
668.17	578.29
668.51	574.22
668.85	570.20
669.19	566.29
669.53	562.42
669.87	558.48
670.21	554.84
670.55	551.19
670.89	547.82
671.23	544.42
671.57	540.88
671.91	537.24
672.25	533.79
672.58	530.22
672.92	526.82
673.26	523.66
673.60	520.54
673.94	517.45
674.28	514.52
674.62	511.49
674.96	508.39
675.30	505.45
675.64	502.46
675.97	499.66
676.31	496.77
676.65	493.86
676.99	491.21
677.33	488.31
677.67	485.47
678.01	482.41
678.34	479.43
678.68	476.55
679.02	473.72
679.36	470.94
679.70	468.25
680.04	465.53
680.37	462.60
680.71	459.80
681.05	457.17
681.39	454.42
681.73	451.75
682.06	449.26
682.40	446.73
682.74	444.27
683.08	441.73
683.42	439.20
683.75	436.77
684.09	434.21
684.43	431.78
684.77	429.33
685.10	426.97
685.44	424.67
685.78	422.38
686.12	420.22
686.45	417.98
686.79	415.70
687.13	413.50
687.46	411.33
687.80	409.19
688.14	406.99
688.48	404.98
688.81	402.79
689.15	400.62
689.49	398.51
689.82	396.43
690.16	394.37
690.50	392.39
690.83	390.41
691.17	388.49
691.51	386.57
691.84	384.78
692.18	382.89
692.52	380.93
692.85	378.99
693.19	377.12
693.52	375.28
693.86	373.49
694.20	371.79
694.53	370.08
694.87	368.29
695.21	366.51
695.54	364.73
695.88	363.00
696.21	361.25
696.55	359.60
696.88	357.91
697.22	356.27
697.56	354.69
697.89	353.03
698.23	351.38
698.56	349.77
698.90	348.15
699.23	346.51
699.57	344.97
699.90	343.44
700.24	341.93
700.58	340.40
700.91	338.90
701.25	337.40
701.58	335.97
701.92	334.63
702.25	333.27
702.59	331.86
702.92	330.54
703.26	329.27
703.59	327.92
703.93	326.77
704.26	325.55
704.60	324.24
704.93	322.99
705.26	321.78
705.60	320.60
705.93	319.42
706.27	318.36
706.60	317.27
706.94	316.23
707.27	315.03
707.61	313.95
707.94	312.88
708.27	311.76
708.61	310.69
708.94	309.64
709.28	308.64
709.61	307.71
709.94	306.77
710.28	305.72
710.61	304.76
710.95	303.64
711.28	302.71
711.61	301.77
711.95	300.84
712.28	299.86
712.61	298.90
712.95	297.95
713.28	297.07
713.61	296.17
713.95	295.25
714.28	294.43
714.61	293.58
714.95	292.76
715.28	291.89
715.61	291.03
715.95	290.16
716.28	289.32
716.61	288.47
716.95	287.65
717.28	286.91
717.61	286.15
717.94	285.42
718.28	284.58
718.61	283.80
718.94	283.12
719.27	282.46
719.61	281.82
719.94	281.16
720.27	280.44
720.60	279.77
720.94	279.13
721.27	278.54
721.60	277.95
721.93	277.32
722.27	276.80
722.60	276.24
722.93	275.70
723.26	275.15
723.59	274.60
723.93	274.09
724.26	273.54
724.59	273.02
724.92	272.49
725.25	272.03
725.59	271.57
725.92	271.03
726.25	270.54
726.58	270.04
726.91	269.56
727.24	269.09
727.57	268.69
727.91	268.22
728.24	267.78
728.57	267.29
728.90	266.86
729.23	266.39
729.56	265.96
729.89	265.47
730.22	264.96
730.55	264.52
730.89	264.06
731.22	263.64
731.55	263.20
731.88	262.80
732.21	262.38
732.54	261.92
732.87	261.54
733.20	261.12
733.53	260.74
733.86	260.38
734.19	259.99
734.52	259.60
734.85	259.27
735.18	258.84
735.51	258.45
735.84	258.06
736.17	257.71
736.50	257.33
736.83	257.14
737.16	256.85
737.49	256.48
737.82	256.12
738.15	255.78
738.48	255.43
738.81	255.11
739.14	254.75
739.47	254.44
739.80	254.12
740.13	253.84
740.46	253.48
740.79	253.13
741.12	252.81
741.45	252.49
741.78	252.13
742.11	251.85
742.44	251.57
742.77	251.29
743.10	251.00
743.43	250.69
743.75	250.27
744.08	250.09
744.41	249.82
744.74	249.53
745.07	249.22
745.40	248.95
745.73	248.72
746.06	248.48
746.39	248.23
746.71	247.92
747.04	247.63
747.37	247.37
747.70	247.14
748.03	246.90
748.36	246.66
748.68	246.43
749.01	246.17
749.34	245.89
749.67	245.70
750.00	245.46
750.33	245.26
750.65	245.06
750.98	244.73
751.31	244.50
751.64	244.31
751.97	244.15
752.29	243.90
752.62	243.60
752.95	243.36
753.28	243.11
753.60	242.94
753.93	242.79
754.26	242.61
754.59	242.35
754.91	242.11
755.24	241.92
755.57	241.70
755.90	241.50
756.22	241.31
756.55	241.08
756.88	240.86
757.20	240.65
757.53	240.43
757.86	240.23
758.19	240.07
758.51	239.87
758.84	239.64
759.17	239.50
759.49	239.34
759.82	239.22
760.15	239.09
760.47	238.93
760.80	238.71
761.13	238.58
761.45	238.43
761.78	238.27
762.11	238.10
762.43	237.95
762.76	237.83
763.08	237.72
763.41	237.60
763.74	237.50
764.06	237.35
764.39	237.24
764.71	237.13
765.04	237.02
765.37	236.89
765.69	236.79
766.02	236.64
766.34	236.53
766.67	236.38
767.00	236.26
767.32	236.20
767.65	236.17
767.97	236.04
768.30	235.97
768.62	235.89
768.95	235.77
769.27	235.70
769.60	235.62
769.92	235.50
770.25	235.36
770.57	235.27
770.90	235.17
771.22	235.07
771.55	235.00
771.87	234.91
772.20	234.84
772.52	234.87
772.85	234.91
773.17	234.84
773.50	234.77
773.82	234.71
774.15	234.60
774.47	234.44
774.80	234.37
775.12	234.31
775.45	234.25
775.77	234.23
776.09	234.16
776.42	234.08
776.74	234.06
777.07	234.04
777.39	233.99
777.72	233.91
778.04	233.84
778.36	233.75
778.69	233.68
779.01	233.64
779.33	233.43
779.66	233.29
779.98	233.24
780.31	233.20
780.63	233.16
780.95	233.14
781.28	233.07
781.60	233.00
781.92	232.95
782.25	232.87
782.57	232.79
782.89	232.73
783.22	232.67
783.54	232.57
783.86	232.50
784.19	232.42
784.51	232.40
784.83	232.36
785.16	232.32
785.48	232.26
785.80	232.19
786.12	232.18
786.45	232.10
786.77	232.08
787.09	232.00
