SpectraSuite Data File
++++++++++++++++++++++++++++++++++++
Date: Fri Feb 01 16:47:21 EST 2013
User: group
Dark Spectrum Present: No
Reference Spectrum Present: No
Number of Sampled Component Spectra: 1
Spectrometers: USB2E7196
Integration Time (usec): 35000 (USB2E7196)
Spectra Averaged: 100 (USB2E7196)
Boxcar Smoothing: 10 (USB2E7196)
Correct for Electrical Dark: No (USB2E7196)
Strobe/Lamp Enabled: No (USB2E7196)
Correct for Detector Non-linearity: No (USB2E7196)
Correct for Stray Light: No (USB2E7196)
Number of Pixels in Processed Spectrum: 2048
>>>>>Begin Processed Spectral Data<<<<<
339.09	0.00
339.48	213.31
339.86	214.97
340.24	216.36
340.63	217.83
341.01	219.99
341.39	220.01
341.78	221.94
342.16	222.89
342.54	223.12
342.93	211.79
343.31	222.50
343.69	223.04
344.07	223.50
344.46	223.89
344.84	224.23
345.22	224.48
345.60	224.74
345.99	224.87
346.37	224.95
346.75	225.07
347.13	225.13
347.52	225.18
347.90	225.24
348.28	225.25
348.66	225.24
349.05	225.23
349.43	225.24
349.81	225.25
350.19	225.30
350.57	225.35
350.96	225.41
351.34	225.46
351.72	225.53
352.10	225.61
352.48	225.69
352.87	225.78
353.25	225.83
353.63	225.87
354.01	225.97
354.39	226.08
354.77	226.14
355.15	226.23
355.54	226.28
355.92	226.34
356.30	226.43
356.68	226.59
357.06	226.70
357.44	226.73
357.82	226.80
358.20	226.86
358.58	226.90
358.97	226.95
359.35	227.05
359.73	227.14
360.11	227.22
360.49	227.29
360.87	227.34
361.25	227.44
361.63	227.52
362.01	227.54
362.39	227.61
362.77	227.68
363.15	227.68
363.53	227.74
363.91	227.76
364.29	227.80
364.67	227.70
365.05	227.69
365.43	227.75
365.81	227.79
366.19	227.87
366.57	227.92
366.95	227.94
367.33	227.93
367.71	227.94
368.09	227.93
368.47	227.92
368.85	227.89
369.23	227.88
369.61	227.84
369.99	227.87
370.37	227.86
370.75	227.85
371.13	227.86
371.51	227.82
371.89	227.80
372.27	227.76
372.65	227.74
373.03	227.71
373.41	227.64
373.78	227.60
374.16	227.51
374.54	227.46
374.92	227.41
375.30	227.36
375.68	227.26
376.06	227.22
376.44	227.15
376.82	227.12
377.19	227.05
377.57	227.00
377.95	226.91
378.33	226.84
378.71	226.70
379.09	226.64
379.47	226.58
379.84	226.49
380.22	226.41
380.60	226.33
380.98	226.29
381.36	226.24
381.73	226.17
382.11	226.10
382.49	226.02
382.87	225.95
383.25	225.89
383.62	225.95
384.00	225.87
384.38	225.82
384.76	225.77
385.13	225.75
385.51	225.72
385.89	225.68
386.27	225.63
386.64	225.63
387.02	225.57
387.40	225.50
387.78	225.49
388.15	225.47
388.53	225.45
388.91	225.38
389.29	225.37
389.66	225.39
390.04	225.39
390.42	225.38
390.79	225.37
391.17	225.33
391.55	225.19
391.92	225.20
392.30	225.20
392.68	225.19
393.05	225.16
393.43	225.16
393.81	225.16
394.18	225.13
394.56	225.13
394.94	225.14
395.31	225.15
395.69	225.19
396.06	225.22
396.44	225.23
396.82	225.27
397.19	225.31
397.57	225.29
397.95	225.29
398.32	225.31
398.70	225.34
399.07	225.42
399.45	225.46
399.82	225.50
400.20	225.56
400.58	225.62
400.95	225.67
401.33	225.75
401.70	225.85
402.08	225.94
402.45	226.04
402.83	226.16
403.20	226.29
403.58	226.39
403.95	226.50
404.33	226.61
404.71	226.72
405.08	226.89
405.46	227.00
405.83	227.18
406.21	227.33
406.58	227.49
406.96	227.65
407.33	227.84
407.70	228.01
408.08	228.26
408.45	228.49
408.83	228.71
409.20	228.94
409.58	229.13
409.95	229.38
410.33	229.66
410.70	229.85
411.08	230.10
411.45	230.39
411.82	230.70
412.20	231.09
412.57	231.50
412.95	231.78
413.32	232.20
413.69	232.60
414.07	233.03
414.44	233.50
414.82	233.97
415.19	234.53
415.56	235.09
415.94	235.62
416.31	236.23
416.68	236.85
417.06	237.52
417.43	238.22
417.81	238.99
418.18	239.74
418.55	240.63
418.93	241.53
419.30	242.42
419.67	243.33
420.04	244.26
420.42	245.26
420.79	246.47
421.16	247.60
421.54	248.78
421.91	250.01
422.28	251.24
422.66	252.58
423.03	253.88
423.40	255.18
423.77	256.59
424.15	258.01
424.52	259.49
424.89	261.10
425.26	262.63
425.64	264.03
426.01	265.60
426.38	267.20
426.75	268.86
427.13	270.58
427.50	272.42
427.87	274.28
428.24	276.12
428.61	277.83
428.99	279.75
429.36	281.85
429.73	283.85
430.10	285.87
430.47	287.92
430.85	290.03
431.22	292.25
431.59	294.59
431.96	296.81
432.33	299.27
432.70	301.60
433.08	304.41
433.45	307.07
433.82	309.67
434.19	312.53
434.56	315.31
434.93	317.95
435.30	320.49
435.68	323.35
436.05	326.16
436.42	328.91
436.79	331.41
437.16	334.09
437.53	336.94
437.90	339.70
438.27	342.39
438.64	345.18
439.01	347.77
439.38	349.97
439.75	352.10
440.13	354.57
440.50	356.88
440.87	358.66
441.24	360.60
441.61	362.81
441.98	364.30
442.35	366.08
442.72	367.93
443.09	369.76
443.46	370.71
443.83	371.30
444.20	371.81
444.57	372.69
444.94	372.97
445.31	373.27
445.68	373.66
446.05	373.78
446.42	373.41
446.79	372.99
447.16	372.58
447.53	372.25
447.90	371.11
448.27	369.99
448.64	368.48
449.01	367.36
449.37	365.34
449.74	363.45
450.11	361.26
450.48	358.80
450.85	356.27
451.22	354.19
451.59	352.18
451.96	350.28
452.33	347.66
452.70	345.34
453.07	342.56
453.43	339.66
453.80	336.93
454.17	334.25
454.54	331.74
454.91	329.01
455.28	326.38
455.65	323.92
456.02	321.51
456.38	319.34
456.75	316.71
457.12	314.49
457.49	312.30
457.86	310.12
458.23	308.28
458.59	306.29
458.96	304.21
459.33	302.38
459.70	300.50
460.07	299.03
460.43	297.34
460.80	295.72
461.17	294.30
461.54	292.77
461.91	291.35
462.27	289.93
462.64	288.71
463.01	287.45
463.38	286.17
463.74	284.81
464.11	283.62
464.48	282.57
464.85	281.44
465.21	280.58
465.58	279.68
465.95	278.60
466.32	277.68
466.68	276.80
467.05	275.91
467.42	275.06
467.78	274.14
468.15	273.25
468.52	272.59
468.88	271.75
469.25	271.02
469.62	270.43
469.98	269.76
470.35	269.13
470.72	268.47
471.08	267.81
471.45	267.29
471.82	266.82
472.18	266.25
472.55	265.85
472.92	265.33
473.28	264.87
473.65	264.45
474.02	264.03
474.38	263.64
474.75	263.33
475.11	262.98
475.48	262.71
475.85	262.52
476.21	262.32
476.58	262.14
476.94	262.03
477.31	261.87
477.67	261.71
478.04	261.57
478.41	261.54
478.77	261.62
479.14	261.53
479.50	261.54
479.87	261.64
480.23	261.73
480.60	261.85
480.96	261.99
481.33	262.19
481.69	262.41
482.06	262.62
482.42	262.82
482.79	263.10
483.15	263.43
483.52	263.78
483.88	264.11
484.25	264.51
484.61	264.88
484.98	265.29
485.34	265.88
485.71	266.51
486.07	267.11
486.44	267.67
486.80	268.41
487.17	269.14
487.53	269.93
487.90	270.76
488.26	271.69
488.62	272.65
488.99	273.64
489.35	274.66
489.72	275.80
490.08	276.98
490.44	278.20
490.81	279.54
491.17	280.92
491.54	282.42
491.90	283.97
492.26	285.64
492.63	287.43
492.99	289.24
493.36	291.14
493.72	293.17
494.08	295.26
494.45	297.46
494.81	299.82
495.17	302.25
495.54	304.85
495.90	307.55
496.26	310.36
496.63	313.28
496.99	316.40
497.35	319.67
497.72	323.10
498.08	326.62
498.44	330.31
498.80	334.22
499.17	338.27
499.53	342.40
499.89	346.74
500.26	351.26
500.62	355.93
500.98	360.91
501.34	365.99
501.71	371.36
502.07	376.82
502.43	382.37
502.79	388.20
503.16	394.27
503.52	400.56
503.88	406.88
504.24	413.56
504.60	420.42
504.97	427.52
505.33	434.84
505.69	442.55
506.05	450.28
506.41	458.14
506.78	466.22
507.14	474.63
507.50	483.27
507.86	492.24
508.22	501.36
508.59	510.57
508.95	520.10
509.31	529.88
509.67	539.93
510.03	550.18
510.39	560.71
510.75	571.39
511.12	582.24
511.48	593.57
511.84	604.97
512.20	616.41
512.56	628.33
512.92	640.38
513.28	652.63
513.64	664.98
514.00	677.59
514.37	690.48
514.73	703.49
515.09	716.47
515.45	729.64
515.81	743.11
516.17	756.94
516.53	770.98
516.89	785.02
517.25	799.07
517.61	813.40
517.97	827.75
518.33	842.14
518.69	856.84
519.05	871.73
519.41	886.70
519.77	902.14
520.13	917.44
520.49	932.75
520.85	947.94
521.21	963.51
521.57	979.52
521.93	995.16
522.29	1011.32
522.65	1027.38
523.01	1043.46
523.37	1059.50
523.73	1075.55
524.09	1091.35
524.45	1107.46
524.81	1123.95
525.17	1140.56
525.53	1157.16
525.89	1173.86
526.25	1190.47
526.61	1206.77
526.97	1223.42
527.33	1239.74
527.68	1256.12
528.04	1272.48
528.40	1288.99
528.76	1305.86
529.12	1322.39
529.48	1339.08
529.84	1354.95
530.20	1371.42
530.56	1388.05
530.91	1405.16
531.27	1421.75
531.63	1438.12
531.99	1454.65
532.35	1470.49
532.71	1486.20
533.07	1502.40
533.42	1518.25
533.78	1534.24
534.14	1550.12
534.50	1565.20
534.86	1580.81
535.21	1595.81
535.57	1611.51
535.93	1626.68
536.29	1641.41
536.65	1656.26
537.00	1670.79
537.36	1686.00
537.72	1700.38
538.08	1714.78
538.44	1728.50
538.79	1742.17
539.15	1755.66
539.51	1769.19
539.87	1783.36
540.22	1797.05
540.58	1810.61
540.94	1823.59
541.29	1836.14
541.65	1848.86
542.01	1861.90
542.37	1874.23
542.72	1886.58
543.08	1898.20
543.44	1910.42
543.79	1921.48
544.15	1932.30
544.51	1943.80
544.87	1954.49
545.22	1965.34
545.58	1975.46
545.94	1985.05
546.29	1994.84
546.65	2004.66
547.01	2013.85
547.36	2022.39
547.72	2030.72
548.07	2038.72
548.43	2046.69
548.79	2054.58
549.14	2061.90
549.50	2069.08
549.86	2076.47
550.21	2083.71
550.57	2090.73
550.92	2097.44
551.28	2104.47
551.64	2111.57
551.99	2117.94
552.35	2124.17
552.70	2130.26
553.06	2136.06
553.41	2142.35
553.77	2148.21
554.13	2154.16
554.48	2160.17
554.84	2165.71
555.19	2170.86
555.55	2175.78
555.90	2180.38
556.26	2185.33
556.61	2190.06
556.97	2194.51
557.32	2198.66
557.68	2202.67
558.03	2207.00
558.39	2210.58
558.74	2215.13
559.10	2219.01
559.45	2222.85
559.81	2227.03
560.16	2230.84
560.52	2234.29
560.87	2237.73
561.23	2240.48
561.58	2243.42
561.94	2245.95
562.29	2248.30
562.64	2251.09
563.00	2253.62
563.35	2257.06
563.71	2260.22
564.06	2263.32
564.42	2266.25
564.77	2268.92
565.12	2271.42
565.48	2273.44
565.83	2275.53
566.19	2276.93
566.54	2277.72
566.89	2278.76
567.25	2279.43
567.60	2280.72
567.96	2282.56
568.31	2283.31
568.66	2284.50
569.02	2285.21
569.37	2285.66
569.72	2286.60
570.08	2286.87
570.43	2287.04
570.78	2286.66
571.14	2285.17
571.49	2283.85
571.84	2283.52
572.20	2282.53
572.55	2281.48
572.90	2279.88
573.26	2278.56
573.61	2276.92
573.96	2275.45
574.31	2272.67
574.67	2269.81
575.02	2266.21
575.37	2262.78
575.72	2259.26
576.08	2255.81
576.43	2252.53
576.78	2248.99
577.13	2245.83
577.49	2242.73
577.84	2239.19
578.19	2235.49
578.54	2232.12
578.90	2228.34
579.25	2222.81
579.60	2217.96
579.95	2213.08
580.30	2208.25
580.66	2203.07
581.01	2198.21
581.36	2193.28
581.71	2189.21
582.06	2184.98
582.42	2180.66
582.77	2175.50
583.12	2171.04
583.47	2166.66
583.82	2161.82
584.17	2156.73
584.53	2151.38
584.88	2145.86
585.23	2140.47
585.58	2135.00
585.93	2129.46
586.28	2124.53
586.63	2119.77
586.98	2114.79
587.34	2109.99
587.69	2105.16
588.04	2099.98
588.39	2094.53
588.74	2088.23
589.09	2082.25
589.44	2075.56
589.79	2069.60
590.14	2064.03
590.49	2057.51
590.84	2051.16
591.19	2045.27
591.54	2038.89
591.89	2031.65
592.25	2025.09
592.60	2017.82
592.95	2010.52
593.30	2003.35
593.65	1995.84
594.00	1988.67
594.35	1981.45
594.70	1973.70
595.05	1966.77
595.40	1959.70
595.75	1952.14
596.10	1946.19
596.45	1939.56
596.80	1933.46
597.15	1927.03
597.50	1920.40
597.85	1913.99
598.19	1907.54
598.54	1900.72
598.89	1894.19
599.24	1888.44
599.59	1881.90
599.94	1875.87
600.29	1869.53
600.64	1863.01
600.99	1855.89
601.34	1849.31
601.69	1842.43
602.04	1835.72
602.39	1828.24
602.74	1821.61
603.08	1815.08
603.43	1808.27
603.78	1800.95
604.13	1793.76
604.48	1786.57
604.83	1779.60
605.18	1772.85
605.53	1764.94
605.87	1756.75
606.22	1749.58
606.57	1741.60
606.92	1734.13
607.27	1727.11
607.62	1720.32
607.96	1713.21
608.31	1706.71
608.66	1699.14
609.01	1691.56
609.36	1684.08
609.70	1676.39
610.05	1668.34
610.40	1660.68
610.75	1652.42
611.10	1645.01
611.44	1636.58
611.79	1628.61
612.14	1619.99
612.49	1610.79
612.83	1602.38
613.18	1594.46
613.53	1586.35
613.88	1577.92
614.22	1569.81
614.57	1561.19
614.92	1553.23
615.27	1545.66
615.61	1537.31
615.96	1529.28
616.31	1521.70
616.65	1514.27
617.00	1506.56
617.35	1498.82
617.70	1490.54
618.04	1482.08
618.39	1473.74
618.74	1466.23
619.08	1457.95
619.43	1450.22
619.78	1443.31
620.12	1436.21
620.47	1428.64
620.82	1420.47
621.16	1412.93
621.51	1405.26
621.85	1397.62
622.20	1389.18
622.55	1380.82
622.89	1372.96
623.24	1365.36
623.59	1358.04
623.93	1350.53
624.28	1343.39
624.62	1335.89
624.97	1328.74
625.32	1321.91
625.66	1314.89
626.01	1307.78
626.35	1300.42
626.70	1292.74
627.04	1285.19
627.39	1277.33
627.73	1269.94
628.08	1263.08
628.43	1255.93
628.77	1248.65
629.12	1241.10
629.46	1233.95
629.81	1226.46
630.15	1219.22
630.50	1211.80
630.84	1203.57
631.19	1195.63
631.53	1187.98
631.88	1180.46
632.22	1172.81
632.57	1165.55
632.91	1158.00
633.26	1150.62
633.60	1143.11
633.95	1136.03
634.29	1128.79
634.64	1122.29
634.98	1114.93
635.32	1107.75
635.67	1101.08
636.01	1094.42
636.36	1087.66
636.70	1081.03
637.05	1074.52
637.39	1068.04
637.73	1061.70
638.08	1055.84
638.42	1049.82
638.77	1043.50
639.11	1036.97
639.45	1030.59
639.80	1024.01
640.14	1017.63
640.49	1011.16
640.83	1004.85
641.17	998.60
641.52	992.27
641.86	985.59
642.20	979.64
642.55	973.29
642.89	966.86
643.23	960.31
643.58	954.56
643.92	948.45
644.26	942.55
644.61	936.50
644.95	930.42
645.29	923.97
645.64	917.30
645.98	910.97
646.32	905.05
646.66	898.98
647.01	893.20
647.35	887.45
647.69	881.49
648.04	875.97
648.38	870.22
648.72	864.30
649.06	858.31
649.41	852.49
649.75	846.63
650.09	840.66
650.43	834.95
650.78	828.81
651.12	822.85
651.46	817.09
651.80	811.42
652.14	806.03
652.49	800.54
652.83	795.35
653.17	789.72
653.51	784.13
653.85	778.88
654.20	773.22
654.54	767.24
654.88	761.52
655.22	755.68
655.56	750.01
655.90	744.57
656.25	739.37
656.59	734.08
656.93	729.09
657.27	723.99
657.61	718.47
657.95	713.36
658.29	708.24
658.64	702.92
658.98	697.61
659.32	692.16
659.66	687.03
660.00	681.83
660.34	676.85
660.68	671.86
661.02	666.78
661.36	662.06
661.70	657.60
662.05	653.26
662.39	649.02
662.73	644.55
663.07	640.17
663.41	635.77
663.75	631.32
664.09	626.66
664.43	622.27
664.77	618.19
665.11	613.92
665.45	609.76
665.79	605.72
666.13	601.58
666.47	597.49
666.81	593.37
667.15	589.20
667.49	585.29
667.83	581.44
668.17	577.47
668.51	573.40
668.85	569.37
669.19	565.54
669.53	561.67
669.87	557.83
670.21	554.12
670.55	550.45
670.89	546.89
671.23	543.46
671.57	540.02
671.91	536.46
672.25	532.98
672.58	529.48
672.92	526.02
673.26	522.82
673.60	519.69
673.94	516.57
674.28	513.57
674.62	510.62
674.96	507.48
675.30	504.60
675.64	501.74
675.97	498.91
676.31	496.08
676.65	493.11
676.99	490.41
677.33	487.55
677.67	484.74
678.01	481.77
678.34	478.82
678.68	475.89
679.02	473.12
679.36	470.32
679.70	467.63
680.04	464.90
680.37	462.07
680.71	459.24
681.05	456.61
681.39	453.96
681.73	451.29
682.06	448.84
682.40	446.34
682.74	443.78
683.08	441.25
683.42	438.59
683.75	436.12
684.09	433.53
684.43	431.10
684.77	428.63
685.10	426.26
685.44	423.93
685.78	421.62
686.12	419.38
686.45	417.12
686.79	414.84
687.13	412.68
687.46	410.51
687.80	408.38
688.14	406.16
688.48	404.10
688.81	401.90
689.15	399.77
689.49	397.53
689.82	395.41
690.16	393.36
690.50	391.45
690.83	389.48
691.17	387.49
691.51	385.61
691.84	383.75
692.18	381.86
692.52	379.90
692.85	377.98
693.19	376.10
693.52	374.27
693.86	372.45
694.20	370.61
694.53	368.79
694.87	366.96
695.21	365.15
695.54	363.26
695.88	361.51
696.21	359.76
696.55	358.10
696.88	356.43
697.22	354.70
697.56	353.05
697.89	351.44
698.23	349.87
698.56	348.24
698.90	346.65
699.23	344.99
699.57	343.45
699.90	341.87
700.24	340.31
700.58	338.81
700.91	337.34
701.25	335.91
701.58	334.59
701.92	333.19
702.25	331.81
702.59	330.51
702.92	329.20
703.26	327.86
703.59	326.54
703.93	325.37
704.26	324.16
704.60	322.85
704.93	321.58
705.26	320.28
705.60	319.06
705.93	317.88
706.27	316.83
706.60	315.75
706.94	314.74
707.27	313.62
707.61	312.51
707.94	311.43
708.27	310.33
708.61	309.21
708.94	308.24
709.28	307.31
709.61	306.36
709.94	305.39
710.28	304.37
710.61	303.44
710.95	302.38
711.28	301.47
711.61	300.55
711.95	299.65
712.28	298.76
712.61	297.81
712.95	296.91
713.28	296.04
713.61	295.16
713.95	294.22
714.28	293.37
714.61	292.53
714.95	291.68
715.28	290.84
715.61	289.96
715.95	289.05
716.28	288.17
716.61	287.31
716.95	286.47
717.28	285.75
717.61	284.97
717.94	284.21
718.28	283.38
718.61	282.64
718.94	281.90
719.27	281.23
719.61	280.56
719.94	279.88
720.27	279.15
720.60	278.45
720.94	277.82
721.27	277.22
721.60	276.63
721.93	276.05
722.27	275.49
722.60	274.95
722.93	274.37
723.26	273.85
723.59	273.29
723.93	272.76
724.26	272.22
724.59	271.66
724.92	271.13
725.25	270.65
725.59	270.11
725.92	269.62
726.25	269.10
726.58	268.64
726.91	268.16
727.24	267.71
727.57	267.28
727.91	266.77
728.24	266.29
728.57	265.81
728.90	265.31
729.23	264.83
729.56	264.40
729.89	263.94
730.22	263.41
730.55	262.96
730.89	262.51
731.22	262.03
731.55	261.60
731.88	261.19
732.21	260.76
732.54	260.35
732.87	259.90
733.20	259.51
733.53	259.15
733.86	258.77
734.19	258.38
734.52	257.97
734.85	257.70
735.18	257.28
735.51	256.93
735.84	256.58
736.17	256.26
736.50	255.83
736.83	255.62
737.16	255.33
737.49	254.99
737.82	254.64
738.15	254.36
738.48	254.01
738.81	253.67
739.14	253.36
739.47	253.02
739.80	252.73
740.13	252.42
740.46	252.05
740.79	251.75
741.12	251.45
741.45	251.17
741.78	250.81
742.11	250.56
742.44	250.21
742.77	249.92
743.10	249.61
743.43	249.32
743.75	248.96
744.08	248.84
744.41	248.59
744.74	248.36
745.07	248.08
745.40	247.83
745.73	247.61
746.06	247.32
746.39	247.08
746.71	246.79
747.04	246.52
747.37	246.25
747.70	246.01
748.03	245.73
748.36	245.48
748.68	245.23
749.01	244.98
749.34	244.76
749.67	244.53
750.00	244.29
750.33	244.15
750.65	243.92
750.98	243.52
751.31	243.30
751.64	243.06
751.97	242.89
752.29	242.67
752.62	242.40
752.95	242.20
753.28	241.99
753.60	241.78
753.93	241.61
754.26	241.43
754.59	241.17
754.91	240.97
755.24	240.75
755.57	240.56
755.90	240.36
756.22	240.14
756.55	239.94
756.88	239.75
757.20	239.48
757.53	239.24
757.86	239.08
758.19	238.91
758.51	238.71
758.84	238.50
759.17	238.35
759.49	238.18
759.82	238.07
760.15	237.90
760.47	237.79
760.80	237.60
761.13	237.48
761.45	237.34
761.78	237.20
762.11	237.06
762.43	236.90
762.76	236.77
763.08	236.62
763.41	236.49
763.74	236.36
764.06	236.23
764.39	236.13
764.71	235.97
765.04	235.78
765.37	235.67
765.69	235.56
766.02	235.40
766.34	235.29
766.67	235.15
767.00	235.02
767.32	234.93
767.65	234.85
767.97	234.74
768.30	234.64
768.62	234.51
768.95	234.38
769.27	234.26
769.60	234.14
769.92	234.03
770.25	233.91
770.57	233.75
770.90	233.61
771.22	233.49
771.55	233.43
771.87	233.39
772.20	233.26
772.52	233.21
772.85	233.24
773.17	233.14
773.50	233.02
773.82	232.92
774.15	232.80
774.47	232.66
774.80	232.56
775.12	232.44
775.45	232.40
775.77	232.33
776.09	232.28
776.42	232.23
776.74	232.18
777.07	232.14
777.39	232.08
777.72	232.03
778.04	231.98
778.36	231.89
778.69	231.78
779.01	231.73
779.33	231.59
779.66	231.43
779.98	231.35
780.31	231.31
780.63	231.28
780.95	231.22
781.28	231.17
781.60	231.07
781.92	231.02
782.25	230.95
782.57	230.89
782.89	230.81
783.22	230.72
783.54	230.66
783.86	230.62
784.19	230.60
784.51	230.64
784.83	230.54
785.16	230.52
785.48	230.47
785.80	230.41
786.12	230.36
786.45	230.30
786.77	230.29
787.09	230.24
