SpectraSuite Data File
++++++++++++++++++++++++++++++++++++
Date: Fri Feb 01 15:58:09 EST 2013
User: group
Dark Spectrum Present: No
Reference Spectrum Present: No
Number of Sampled Component Spectra: 1
Spectrometers: USB2E7196
Integration Time (usec): 35000 (USB2E7196)
Spectra Averaged: 100 (USB2E7196)
Boxcar Smoothing: 10 (USB2E7196)
Correct for Electrical Dark: No (USB2E7196)
Strobe/Lamp Enabled: No (USB2E7196)
Correct for Detector Non-linearity: No (USB2E7196)
Correct for Stray Light: No (USB2E7196)
Number of Pixels in Processed Spectrum: 2048
>>>>>Begin Processed Spectral Data<<<<<
339.09	0.00
339.48	214.64
339.86	216.50
340.24	218.39
340.63	219.88
341.01	222.24
341.39	222.07
341.78	222.99
342.16	224.38
342.54	225.30
342.93	213.45
343.31	224.23
343.69	224.77
344.07	225.20
344.46	225.58
344.84	225.90
345.22	226.13
345.60	226.37
345.99	226.58
346.37	226.72
346.75	226.81
347.13	226.88
347.52	226.93
347.90	226.95
348.28	226.97
348.66	227.00
349.05	226.99
349.43	227.00
349.81	227.02
350.19	227.05
350.57	227.07
350.96	227.14
351.34	227.20
351.72	227.27
352.10	227.38
352.48	227.46
352.87	227.51
353.25	227.54
353.63	227.63
354.01	227.66
354.39	227.73
354.77	227.79
355.15	227.90
355.54	227.96
355.92	228.01
356.30	228.06
356.68	228.15
357.06	228.20
357.44	228.22
357.82	228.26
358.20	228.30
358.58	228.35
358.97	228.40
359.35	228.48
359.73	228.56
360.11	228.63
360.49	228.67
360.87	228.74
361.25	228.79
361.63	228.84
362.01	228.86
362.39	228.89
362.77	228.90
363.15	228.87
363.53	228.89
363.91	228.92
364.29	228.94
364.67	228.87
365.05	228.87
365.43	228.90
365.81	228.94
366.19	229.02
366.57	229.07
366.95	229.07
367.33	229.02
367.71	229.03
368.09	229.02
368.47	229.02
368.85	228.99
369.23	229.03
369.61	228.96
369.99	228.96
370.37	228.93
370.75	229.00
371.13	228.93
371.51	228.90
371.89	228.88
372.27	228.88
372.65	228.87
373.03	228.84
373.41	228.83
373.78	228.78
374.16	228.68
374.54	228.58
374.92	228.53
375.30	228.48
375.68	228.40
376.06	228.35
376.44	228.28
376.82	228.25
377.19	228.15
377.57	228.11
377.95	228.05
378.33	227.99
378.71	227.86
379.09	227.86
379.47	227.77
379.84	227.68
380.22	227.60
380.60	227.52
380.98	227.48
381.36	227.41
381.73	227.32
382.11	227.25
382.49	227.20
382.87	227.13
383.25	227.09
383.62	227.13
384.00	227.05
384.38	227.01
384.76	226.98
385.13	226.99
385.51	226.93
385.89	226.89
386.27	226.85
386.64	226.78
387.02	226.73
387.40	226.71
387.78	226.72
388.15	226.67
388.53	226.64
388.91	226.61
389.29	226.57
389.66	226.56
390.04	226.54
390.42	226.56
390.79	226.57
391.17	226.57
391.55	226.47
391.92	226.46
392.30	226.42
392.68	226.38
393.05	226.31
393.43	226.33
393.81	226.32
394.18	226.33
394.56	226.37
394.94	226.41
395.31	226.42
395.69	226.47
396.06	226.52
396.44	226.55
396.82	226.55
397.19	226.64
397.57	226.69
397.95	226.76
398.32	226.75
398.70	226.79
399.07	226.86
399.45	226.91
399.82	226.97
400.20	227.03
400.58	227.11
400.95	227.19
401.33	227.25
401.70	227.38
402.08	227.48
402.45	227.57
402.83	227.68
403.20	227.77
403.58	227.86
403.95	227.99
404.33	228.16
404.71	228.30
405.08	228.47
405.46	228.59
405.83	228.71
406.21	228.86
406.58	229.02
406.96	229.17
407.33	229.33
407.70	229.51
408.08	229.80
408.45	230.03
408.83	230.28
409.20	230.49
409.58	230.69
409.95	230.93
410.33	231.19
410.70	231.37
411.08	231.70
411.45	231.98
411.82	232.26
412.20	232.57
412.57	232.99
412.95	233.27
413.32	233.67
413.69	234.10
414.07	234.55
414.44	235.02
414.82	235.47
415.19	236.07
415.56	236.61
415.94	237.14
416.31	237.76
416.68	238.36
417.06	239.09
417.43	239.78
417.81	240.57
418.18	241.34
418.55	242.22
418.93	243.10
419.30	244.00
419.67	244.96
420.04	245.94
420.42	246.91
420.79	248.08
421.16	249.25
421.54	250.44
421.91	251.63
422.28	252.91
422.66	254.27
423.03	255.51
423.40	256.90
423.77	258.31
424.15	259.72
424.52	261.24
424.89	262.86
425.26	264.42
425.64	265.88
426.01	267.52
426.38	269.18
426.75	270.84
427.13	272.58
427.50	274.36
427.87	276.20
428.24	278.08
428.61	279.83
428.99	281.79
429.36	283.87
429.73	285.94
430.10	287.93
430.47	289.99
430.85	292.13
431.22	294.33
431.59	296.69
431.96	298.91
432.33	301.39
432.70	303.74
433.08	306.54
433.45	309.13
433.82	311.70
434.19	314.61
434.56	317.41
434.93	320.08
435.30	322.72
435.68	325.62
436.05	328.44
436.42	331.23
436.79	333.73
437.16	336.38
437.53	339.22
437.90	342.04
438.27	344.79
438.64	347.65
439.01	350.26
439.38	352.51
439.75	354.70
440.13	357.13
440.50	359.44
440.87	361.29
441.24	363.26
441.61	365.41
441.98	366.85
442.35	368.65
442.72	370.52
443.09	372.26
443.46	373.21
443.83	373.81
444.20	374.28
444.57	375.08
444.94	375.42
445.31	375.72
445.68	376.08
446.05	376.16
446.42	375.67
446.79	375.25
447.16	374.81
447.53	374.51
447.90	373.44
448.27	372.31
448.64	370.72
449.01	369.51
449.37	367.55
449.74	365.67
450.11	363.40
450.48	360.90
450.85	358.38
451.22	356.25
451.59	354.21
451.96	352.30
452.33	349.69
452.70	347.29
453.07	344.49
453.43	341.54
453.80	338.75
454.17	336.09
454.54	333.51
454.91	330.76
455.28	328.05
455.65	325.48
456.02	323.04
456.38	320.88
456.75	318.24
457.12	315.97
457.49	313.76
457.86	311.61
458.23	309.73
458.59	307.73
458.96	305.67
459.33	303.79
459.70	301.92
460.07	300.43
460.43	298.70
460.80	297.10
461.17	295.70
461.54	294.23
461.91	292.82
462.27	291.39
462.64	290.18
463.01	288.84
463.38	287.57
463.74	286.22
464.11	285.06
464.48	284.09
464.85	283.02
465.21	282.13
465.58	281.21
465.95	280.13
466.32	279.22
466.68	278.33
467.05	277.47
467.42	276.61
467.78	275.68
468.15	274.86
468.52	274.17
468.88	273.30
469.25	272.53
469.62	271.95
469.98	271.30
470.35	270.71
470.72	270.14
471.08	269.51
471.45	268.95
471.82	268.42
472.18	267.83
472.55	267.37
472.92	266.88
473.28	266.40
473.65	265.95
474.02	265.55
474.38	265.19
474.75	264.89
475.11	264.55
475.48	264.31
475.85	264.07
476.21	263.91
476.58	263.75
476.94	263.60
477.31	263.44
477.67	263.30
478.04	263.19
478.41	263.17
478.77	263.18
479.14	263.14
479.50	263.14
479.87	263.17
480.23	263.26
480.60	263.29
480.96	263.40
481.33	263.62
481.69	263.82
482.06	263.98
482.42	264.19
482.79	264.44
483.15	264.75
483.52	265.16
483.88	265.50
484.25	265.91
484.61	266.36
484.98	266.80
485.34	267.37
485.71	267.91
486.07	268.49
486.44	269.06
486.80	269.74
487.17	270.48
487.53	271.31
487.90	272.13
488.26	273.09
488.62	274.07
488.99	275.05
489.35	276.05
489.72	277.22
490.08	278.39
490.44	279.64
490.81	280.97
491.17	282.26
491.54	283.68
491.90	285.22
492.26	286.84
492.63	288.59
492.99	290.38
493.36	292.31
493.72	294.34
494.08	296.47
494.45	298.72
494.81	301.07
495.17	303.52
495.54	306.12
495.90	308.81
496.26	311.64
496.63	314.58
496.99	317.70
497.35	320.97
497.72	324.34
498.08	327.84
498.44	331.50
498.80	335.43
499.17	339.47
499.53	343.63
499.89	348.01
500.26	352.45
500.62	357.13
500.98	362.05
501.34	367.14
501.71	372.46
502.07	377.89
502.43	383.54
502.79	389.33
503.16	395.37
503.52	401.66
503.88	408.07
504.24	414.73
504.60	421.63
504.97	428.71
505.33	436.03
505.69	443.74
506.05	451.50
506.41	459.43
506.78	467.66
507.14	476.07
507.50	484.79
507.86	493.85
508.22	503.02
508.59	512.25
508.95	521.83
509.31	531.68
509.67	541.81
510.03	552.04
510.39	562.64
510.75	573.47
511.12	584.38
511.48	595.60
511.84	607.08
512.20	618.60
512.56	630.56
512.92	642.91
513.28	655.23
513.64	667.83
514.00	680.56
514.37	693.47
514.73	706.62
515.09	719.66
515.45	732.97
515.81	746.54
516.17	760.57
516.53	774.68
516.89	788.76
517.25	802.86
517.61	817.40
517.97	831.76
518.33	846.16
518.69	860.93
519.05	875.96
519.41	891.08
519.77	906.61
520.13	922.07
520.49	937.30
520.85	952.71
521.21	968.35
521.57	984.42
521.93	1000.19
522.29	1016.47
522.65	1032.67
523.01	1048.86
523.37	1064.85
523.73	1080.93
524.09	1096.95
524.45	1113.33
524.81	1130.09
525.17	1146.81
525.53	1163.69
525.89	1180.48
526.25	1197.34
526.61	1213.70
526.97	1230.47
527.33	1246.89
527.68	1263.47
528.04	1279.87
528.40	1296.48
528.76	1313.45
529.12	1330.06
529.48	1346.78
529.84	1362.88
530.20	1379.50
530.56	1396.46
530.91	1413.95
531.27	1430.70
531.63	1447.16
531.99	1463.73
532.35	1479.52
532.71	1495.35
533.07	1511.70
533.42	1527.54
533.78	1543.46
534.14	1559.86
534.50	1575.19
534.86	1591.06
535.21	1606.23
535.57	1622.15
535.93	1637.58
536.29	1652.33
536.65	1667.35
537.00	1682.17
537.36	1697.38
537.72	1711.79
538.08	1726.16
538.44	1739.82
538.79	1753.62
539.15	1767.23
539.51	1780.76
539.87	1795.14
540.22	1808.82
540.58	1822.35
540.94	1835.67
541.29	1848.60
541.65	1861.02
542.01	1874.19
542.37	1886.49
542.72	1898.74
543.08	1910.54
543.44	1922.80
543.79	1934.07
544.15	1945.08
544.51	1956.58
544.87	1967.56
545.22	1978.40
545.58	1988.60
545.94	1998.30
546.29	2008.06
546.65	2017.93
547.01	2027.23
547.36	2035.83
547.72	2044.38
548.07	2052.36
548.43	2060.54
548.79	2068.62
549.14	2076.11
549.50	2083.34
549.86	2090.90
550.21	2098.29
550.57	2105.35
550.92	2111.94
551.28	2118.99
551.64	2126.06
551.99	2132.60
552.35	2138.66
552.70	2144.76
553.06	2150.77
553.41	2157.12
553.77	2163.25
554.13	2169.33
554.48	2175.48
554.84	2180.87
555.19	2186.09
555.55	2191.24
555.90	2195.68
556.26	2200.37
556.61	2205.19
556.97	2209.43
557.32	2213.61
557.68	2217.71
558.03	2221.97
558.39	2225.77
558.74	2230.31
559.10	2234.00
559.45	2237.69
559.81	2241.96
560.16	2245.72
560.52	2248.98
560.87	2252.44
561.23	2255.04
561.58	2257.90
561.94	2260.51
562.29	2262.98
562.64	2265.67
563.00	2268.20
563.35	2271.82
563.71	2275.00
564.06	2278.21
564.42	2281.08
564.77	2283.56
565.12	2285.88
565.48	2287.87
565.83	2289.63
566.19	2290.97
566.54	2291.99
566.89	2293.11
567.25	2293.60
567.60	2295.07
567.96	2296.71
568.31	2297.67
568.66	2298.81
569.02	2299.49
569.37	2299.60
569.72	2300.47
570.08	2300.61
570.43	2300.62
570.78	2300.04
571.14	2298.49
571.49	2297.12
571.84	2296.90
572.20	2295.83
572.55	2294.74
572.90	2293.36
573.26	2291.87
573.61	2290.21
573.96	2288.54
574.31	2285.47
574.67	2282.77
575.02	2279.03
575.37	2275.73
575.72	2271.74
576.08	2268.37
576.43	2264.98
576.78	2261.38
577.13	2258.23
577.49	2255.10
577.84	2251.73
578.19	2247.96
578.54	2244.31
578.90	2240.14
579.25	2234.52
579.60	2229.50
579.95	2224.56
580.30	2219.39
580.66	2214.47
581.01	2209.49
581.36	2204.49
581.71	2200.47
582.06	2195.87
582.42	2191.51
582.77	2186.13
583.12	2181.66
583.47	2176.93
583.82	2171.93
584.17	2166.94
584.53	2161.47
584.88	2155.91
585.23	2150.10
585.58	2144.61
585.93	2139.19
586.28	2134.35
586.63	2129.30
586.98	2124.18
587.34	2119.45
587.69	2114.59
588.04	2109.33
588.39	2103.72
588.74	2097.26
589.09	2091.12
589.44	2084.30
589.79	2078.24
590.14	2072.73
590.49	2066.14
590.84	2059.88
591.19	2053.96
591.54	2047.28
591.89	2039.87
592.25	2032.93
592.60	2025.67
592.95	2018.17
593.30	2010.77
593.65	2003.31
594.00	1996.23
594.35	1989.17
594.70	1981.14
595.05	1973.81
595.40	1966.50
595.75	1958.90
596.10	1952.75
596.45	1946.00
596.80	1939.98
597.15	1933.37
597.50	1926.30
597.85	1920.03
598.19	1913.32
598.54	1906.08
598.89	1899.40
599.24	1893.55
599.59	1886.92
599.94	1880.83
600.29	1874.46
600.64	1868.00
600.99	1860.57
601.34	1853.78
601.69	1846.71
602.04	1839.85
602.39	1832.65
602.74	1825.73
603.08	1819.18
603.43	1812.47
603.78	1805.23
604.13	1797.81
604.48	1790.45
604.83	1783.52
605.18	1776.31
605.53	1768.42
605.87	1760.48
606.22	1753.37
606.57	1745.39
606.92	1738.21
607.27	1730.88
607.62	1723.96
607.96	1716.58
608.31	1709.90
608.66	1702.27
609.01	1694.69
609.36	1687.14
609.70	1679.07
610.05	1671.18
610.40	1663.31
610.75	1654.85
611.10	1646.98
611.44	1638.69
611.79	1630.84
612.14	1622.12
612.49	1613.08
612.83	1604.64
613.18	1596.57
613.53	1588.42
613.88	1579.94
614.22	1571.51
614.57	1562.94
614.92	1554.87
615.27	1547.30
615.61	1538.96
615.96	1530.96
616.31	1523.49
616.65	1516.03
617.00	1508.39
617.35	1500.71
617.70	1492.42
618.04	1483.85
618.39	1475.72
618.74	1468.16
619.08	1459.72
619.43	1452.24
619.78	1445.28
620.12	1438.01
620.47	1430.31
620.82	1422.17
621.16	1414.68
621.51	1407.16
621.85	1399.61
622.20	1391.13
622.55	1382.80
622.89	1374.97
623.24	1367.36
623.59	1359.94
623.93	1352.51
624.28	1345.35
624.62	1337.70
624.97	1330.48
625.32	1323.86
625.66	1316.96
626.01	1309.75
626.35	1302.45
626.70	1294.77
627.04	1287.01
627.39	1279.22
627.73	1271.96
628.08	1265.14
628.43	1257.87
628.77	1250.45
629.12	1242.88
629.46	1235.70
629.81	1228.37
630.15	1221.15
630.50	1213.73
630.84	1205.45
631.19	1197.48
631.53	1189.88
631.88	1182.42
632.22	1174.97
632.57	1167.68
632.91	1160.02
633.26	1152.60
633.60	1145.20
633.95	1138.06
634.29	1131.10
634.64	1124.53
634.98	1117.12
635.32	1109.84
635.67	1103.24
636.01	1096.59
636.36	1089.83
636.70	1083.38
637.05	1076.70
637.39	1070.25
637.73	1063.71
638.08	1057.96
638.42	1051.98
638.77	1045.53
639.11	1038.92
639.45	1032.49
639.80	1025.84
640.14	1019.43
640.49	1012.91
640.83	1006.48
641.17	1000.13
641.52	993.73
641.86	987.21
642.20	981.49
642.55	975.26
642.89	968.79
643.23	962.35
643.58	956.55
643.92	950.28
644.26	944.30
644.61	938.27
644.95	932.28
645.29	925.53
645.64	918.82
645.98	912.56
646.32	906.75
646.66	900.74
647.01	894.99
647.35	889.26
647.69	883.37
648.04	877.88
648.38	872.09
648.72	866.09
649.06	860.13
649.41	854.21
649.75	848.19
650.09	842.28
650.43	836.39
650.78	830.23
651.12	824.29
651.46	818.53
651.80	812.70
652.14	807.30
652.49	802.03
652.83	796.88
653.17	791.20
653.51	785.43
653.85	779.98
654.20	774.29
654.54	768.31
654.88	762.58
655.22	756.64
655.56	750.98
655.90	745.61
656.25	740.28
656.59	734.92
656.93	729.79
657.27	724.62
657.61	719.28
657.95	714.19
658.29	709.08
658.64	703.86
658.98	698.61
659.32	693.18
659.66	687.94
660.00	682.59
660.34	677.63
660.68	672.72
661.02	667.69
661.36	662.95
661.70	658.46
662.05	654.11
662.39	649.84
662.73	645.36
663.07	640.98
663.41	636.52
663.75	632.00
664.09	627.42
664.43	623.05
664.77	618.89
665.11	614.65
665.45	610.61
665.79	606.54
666.13	602.45
666.47	598.33
666.81	594.18
667.15	590.08
667.49	586.20
667.83	582.42
668.17	578.55
668.51	574.48
668.85	570.46
669.19	566.60
669.53	562.77
669.87	558.92
670.21	555.19
670.55	551.51
670.89	548.07
671.23	544.70
671.57	541.13
671.91	537.57
672.25	534.06
672.58	530.44
672.92	527.05
673.26	523.84
673.60	520.74
673.94	517.62
674.28	514.66
674.62	511.72
674.96	508.58
675.30	505.62
675.64	502.69
675.97	499.93
676.31	497.07
676.65	494.15
676.99	491.44
677.33	488.62
677.67	485.92
678.01	482.91
678.34	479.92
678.68	477.09
679.02	474.32
679.36	471.57
679.70	468.90
680.04	466.12
680.37	463.28
680.71	460.48
681.05	457.89
681.39	455.18
681.73	452.52
682.06	450.00
682.40	447.47
682.74	444.94
683.08	442.36
683.42	439.83
683.75	437.32
684.09	434.74
684.43	432.22
684.77	429.71
685.10	427.39
685.44	425.14
685.78	422.87
686.12	420.62
686.45	418.36
686.79	416.02
687.13	413.76
687.46	411.60
687.80	409.43
688.14	407.20
688.48	405.19
688.81	402.96
689.15	400.80
689.49	398.66
689.82	396.59
690.16	394.53
690.50	392.53
690.83	390.55
691.17	388.64
691.51	386.75
691.84	384.88
692.18	382.90
692.52	380.90
692.85	378.97
693.19	377.06
693.52	375.21
693.86	373.41
694.20	371.66
694.53	369.87
694.87	368.01
695.21	366.24
695.54	364.39
695.88	362.67
696.21	360.97
696.55	359.25
696.88	357.58
697.22	355.90
697.56	354.30
697.89	352.65
698.23	350.98
698.56	349.35
698.90	347.76
699.23	346.18
699.57	344.59
699.90	343.03
700.24	341.48
700.58	339.94
700.91	338.46
701.25	337.00
701.58	335.60
701.92	334.23
702.25	332.87
702.59	331.50
702.92	330.15
703.26	328.82
703.59	327.54
703.93	326.36
704.26	325.11
704.60	323.83
704.93	322.59
705.26	321.40
705.60	320.24
705.93	319.10
706.27	318.04
706.60	317.00
706.94	315.95
707.27	314.87
707.61	313.81
707.94	312.80
708.27	311.74
708.61	310.70
708.94	309.70
709.28	308.71
709.61	307.78
709.94	306.87
710.28	305.84
710.61	304.86
710.95	303.80
711.28	302.90
711.61	301.93
711.95	301.01
712.28	300.05
712.61	299.05
712.95	298.09
713.28	297.22
713.61	296.31
713.95	295.39
714.28	294.51
714.61	293.62
714.95	292.76
715.28	291.90
715.61	290.96
715.95	290.10
716.28	289.25
716.61	288.41
716.95	287.58
717.28	286.87
717.61	286.13
717.94	285.37
718.28	284.61
718.61	283.86
718.94	283.16
719.27	282.50
719.61	281.86
719.94	281.21
720.27	280.47
720.60	279.79
720.94	279.17
721.27	278.59
721.60	278.04
721.93	277.47
722.27	276.92
722.60	276.35
722.93	275.79
723.26	275.23
723.59	274.64
723.93	274.07
724.26	273.53
724.59	272.94
724.92	272.42
725.25	271.86
725.59	271.35
725.92	270.84
726.25	270.34
726.58	269.82
726.91	269.36
727.24	268.90
727.57	268.47
727.91	267.96
728.24	267.47
728.57	266.96
728.90	266.48
729.23	265.97
729.56	265.58
729.89	265.09
730.22	264.64
730.55	264.17
730.89	263.75
731.22	263.28
731.55	262.89
731.88	262.46
732.21	262.07
732.54	261.68
732.87	261.28
733.20	260.85
733.53	260.45
733.86	260.03
734.19	259.64
734.52	259.22
734.85	258.88
735.18	258.46
735.51	258.09
735.84	257.74
736.17	257.41
736.50	256.99
736.83	256.78
737.16	256.42
737.49	256.11
737.82	255.78
738.15	255.47
738.48	255.14
738.81	254.80
739.14	254.49
739.47	254.15
739.80	253.77
740.13	253.48
740.46	253.17
740.79	252.86
741.12	252.57
741.45	252.28
741.78	251.96
742.11	251.70
742.44	251.41
742.77	251.08
743.10	250.74
743.43	250.44
743.75	250.02
744.08	249.87
744.41	249.59
744.74	249.25
745.07	248.93
745.40	248.66
745.73	248.41
746.06	248.13
746.39	247.89
746.71	247.66
747.04	247.39
747.37	247.16
747.70	246.91
748.03	246.63
748.36	246.42
748.68	246.22
749.01	245.95
749.34	245.73
749.67	245.56
750.00	245.38
750.33	245.26
750.65	245.09
750.98	244.78
751.31	244.59
751.64	244.42
751.97	244.27
752.29	244.06
752.62	243.83
752.95	243.59
753.28	243.35
753.60	243.19
753.93	243.02
754.26	242.82
754.59	242.59
754.91	242.39
755.24	242.17
755.57	241.97
755.90	241.76
756.22	241.55
756.55	241.34
756.88	241.13
757.20	240.85
757.53	240.64
757.86	240.46
758.19	240.27
758.51	240.09
758.84	239.89
759.17	239.70
759.49	239.53
759.82	239.43
760.15	239.33
760.47	239.12
760.80	238.94
761.13	238.82
761.45	238.66
761.78	238.51
762.11	238.35
762.43	238.20
762.76	238.08
763.08	237.95
763.41	237.80
763.74	237.67
764.06	237.56
764.39	237.40
764.71	237.23
765.04	237.07
765.37	236.95
765.69	236.82
766.02	236.70
766.34	236.60
766.67	236.44
767.00	236.28
767.32	236.24
767.65	236.19
767.97	236.07
768.30	235.98
768.62	235.87
768.95	235.73
769.27	235.62
769.60	235.50
769.92	235.36
770.25	235.25
770.57	235.10
770.90	234.96
771.22	234.87
771.55	234.83
771.87	234.76
772.20	234.66
772.52	234.65
772.85	234.66
773.17	234.55
773.50	234.47
773.82	234.35
774.15	234.20
774.47	234.07
774.80	233.94
775.12	233.85
775.45	233.78
775.77	233.72
776.09	233.64
776.42	233.56
776.74	233.51
777.07	233.44
777.39	233.38
777.72	233.32
778.04	233.30
778.36	233.21
778.69	233.16
779.01	233.12
779.33	232.96
779.66	232.81
779.98	232.75
780.31	232.70
780.63	232.70
780.95	232.67
781.28	232.60
781.60	232.52
781.92	232.48
782.25	232.45
782.57	232.38
782.89	232.33
783.22	232.27
783.54	232.22
783.86	232.20
784.19	232.15
784.51	232.13
784.83	232.04
785.16	231.98
785.48	231.90
785.80	231.81
786.12	231.80
786.45	231.73
786.77	231.70
787.09	231.62
