SpectraSuite Data File
++++++++++++++++++++++++++++++++++++
Date: Fri Feb 01 16:17:50 EST 2013
User: group
Dark Spectrum Present: No
Reference Spectrum Present: No
Number of Sampled Component Spectra: 1
Spectrometers: USB2E7196
Integration Time (usec): 35000 (USB2E7196)
Spectra Averaged: 100 (USB2E7196)
Boxcar Smoothing: 10 (USB2E7196)
Correct for Electrical Dark: No (USB2E7196)
Strobe/Lamp Enabled: No (USB2E7196)
Correct for Detector Non-linearity: No (USB2E7196)
Correct for Stray Light: No (USB2E7196)
Number of Pixels in Processed Spectrum: 2048
>>>>>Begin Processed Spectral Data<<<<<
339.09	0.00
339.48	214.48
339.86	215.33
340.24	216.93
340.63	218.35
341.01	220.82
341.39	220.85
341.78	222.22
342.16	223.62
342.54	223.60
342.93	212.40
343.31	223.13
343.69	223.67
344.07	224.16
344.46	224.59
344.84	225.00
345.22	225.25
345.60	225.51
345.99	225.72
346.37	225.87
346.75	226.00
347.13	226.08
347.52	226.13
347.90	226.18
348.28	226.21
348.66	226.27
349.05	226.25
349.43	226.32
349.81	226.37
350.19	226.45
350.57	226.49
350.96	226.59
351.34	226.68
351.72	226.74
352.10	226.84
352.48	226.90
352.87	226.95
353.25	227.01
353.63	227.09
354.01	227.14
354.39	227.19
354.77	227.27
355.15	227.38
355.54	227.45
355.92	227.50
356.30	227.59
356.68	227.72
357.06	227.78
357.44	227.81
357.82	227.90
358.20	227.99
358.58	228.07
358.97	228.10
359.35	228.17
359.73	228.27
360.11	228.30
360.49	228.38
360.87	228.42
361.25	228.48
361.63	228.54
362.01	228.58
362.39	228.60
362.77	228.62
363.15	228.60
363.53	228.63
363.91	228.66
364.29	228.69
364.67	228.57
365.05	228.59
365.43	228.61
365.81	228.62
366.19	228.66
366.57	228.69
366.95	228.66
367.33	228.59
367.71	228.57
368.09	228.56
368.47	228.51
368.85	228.47
369.23	228.46
369.61	228.42
369.99	228.39
370.37	228.37
370.75	228.41
371.13	228.36
371.51	228.31
371.89	228.27
372.27	228.20
372.65	228.17
373.03	228.12
373.41	228.05
373.78	227.96
374.16	227.82
374.54	227.70
374.92	227.63
375.30	227.61
375.68	227.48
376.06	227.42
376.44	227.34
376.82	227.24
377.19	227.14
377.57	227.07
377.95	226.99
378.33	226.92
378.71	226.73
379.09	226.68
379.47	226.61
379.84	226.50
380.22	226.45
380.60	226.35
380.98	226.27
381.36	226.22
381.73	226.16
382.11	226.10
382.49	226.03
382.87	225.95
383.25	225.88
383.62	225.94
384.00	225.88
384.38	225.86
384.76	225.84
385.13	225.82
385.51	225.79
385.89	225.74
386.27	225.69
386.64	225.68
387.02	225.66
387.40	225.63
387.78	225.61
388.15	225.55
388.53	225.56
388.91	225.59
389.29	225.54
389.66	225.52
390.04	225.51
390.42	225.53
390.79	225.52
391.17	225.51
391.55	225.44
391.92	225.47
392.30	225.43
392.68	225.41
393.05	225.42
393.43	225.41
393.81	225.46
394.18	225.47
394.56	225.50
394.94	225.52
395.31	225.53
395.69	225.59
396.06	225.67
396.44	225.71
396.82	225.68
397.19	225.79
397.57	225.84
397.95	225.89
398.32	225.93
398.70	226.01
399.07	226.11
399.45	226.12
399.82	226.16
400.20	226.23
400.58	226.36
400.95	226.40
401.33	226.49
401.70	226.60
402.08	226.69
402.45	226.79
402.83	226.92
403.20	227.02
403.58	227.12
403.95	227.23
404.33	227.39
404.71	227.56
405.08	227.71
405.46	227.82
405.83	227.99
406.21	228.12
406.58	228.29
406.96	228.45
407.33	228.65
407.70	228.85
408.08	229.11
408.45	229.28
408.83	229.50
409.20	229.72
409.58	229.87
409.95	230.15
410.33	230.40
410.70	230.63
411.08	230.96
411.45	231.25
411.82	231.54
412.20	231.85
412.57	232.26
412.95	232.54
413.32	232.96
413.69	233.35
414.07	233.78
414.44	234.27
414.82	234.73
415.19	235.28
415.56	235.79
415.94	236.35
416.31	237.03
416.68	237.68
417.06	238.38
417.43	239.08
417.81	239.80
418.18	240.58
418.55	241.42
418.93	242.24
419.30	243.15
419.67	244.08
420.04	245.03
420.42	246.00
420.79	247.16
421.16	248.30
421.54	249.54
421.91	250.76
422.28	251.98
422.66	253.32
423.03	254.62
423.40	255.97
423.77	257.38
424.15	258.75
424.52	260.21
424.89	261.87
425.26	263.41
425.64	264.88
426.01	266.45
426.38	268.09
426.75	269.77
427.13	271.49
427.50	273.28
427.87	275.17
428.24	277.06
428.61	278.80
428.99	280.70
429.36	282.74
429.73	284.78
430.10	286.83
430.47	288.86
430.85	290.98
431.22	293.21
431.59	295.57
431.96	297.80
432.33	300.31
432.70	302.65
433.08	305.53
433.45	308.16
433.82	310.79
434.19	313.71
434.56	316.54
434.93	319.21
435.30	321.85
435.68	324.74
436.05	327.57
436.42	330.39
436.79	332.99
437.16	335.69
437.53	338.54
437.90	341.35
438.27	344.12
438.64	346.99
439.01	349.61
439.38	351.87
439.75	354.08
440.13	356.54
440.50	358.93
440.87	360.74
441.24	362.70
441.61	364.88
441.98	366.40
442.35	368.16
442.72	370.01
443.09	371.80
443.46	372.76
443.83	373.34
444.20	373.85
444.57	374.64
444.94	374.94
445.31	375.28
445.68	375.65
446.05	375.67
446.42	375.26
446.79	374.82
447.16	374.37
447.53	374.04
447.90	372.87
448.27	371.62
448.64	370.01
449.01	368.84
449.37	366.86
449.74	364.90
450.11	362.66
450.48	360.19
450.85	357.68
451.22	355.59
451.59	353.57
451.96	351.62
452.33	349.01
452.70	346.67
453.07	343.85
453.43	340.89
453.80	338.17
454.17	335.50
454.54	332.96
454.91	330.21
455.28	327.49
455.65	325.03
456.02	322.62
456.38	320.49
456.75	317.83
457.12	315.57
457.49	313.39
457.86	311.25
458.23	309.38
458.59	307.33
458.96	305.23
459.33	303.37
459.70	301.52
460.07	300.02
460.43	298.29
460.80	296.67
461.17	295.23
461.54	293.72
461.91	292.29
462.27	290.87
462.64	289.58
463.01	288.25
463.38	286.96
463.74	285.57
464.11	284.38
464.48	283.38
464.85	282.27
465.21	281.40
465.58	280.46
465.95	279.35
466.32	278.44
466.68	277.48
467.05	276.57
467.42	275.65
467.78	274.69
468.15	273.84
468.52	273.19
468.88	272.35
469.25	271.58
469.62	270.93
469.98	270.20
470.35	269.58
470.72	268.98
471.08	268.33
471.45	267.83
471.82	267.31
472.18	266.67
472.55	266.19
472.92	265.68
473.28	265.21
473.65	264.77
474.02	264.36
474.38	264.04
474.75	263.72
475.11	263.40
475.48	263.19
475.85	262.92
476.21	262.69
476.58	262.52
476.94	262.37
477.31	262.24
477.67	262.09
478.04	261.99
478.41	261.97
478.77	262.02
479.14	261.94
479.50	261.97
479.87	262.06
480.23	262.23
480.60	262.29
480.96	262.39
481.33	262.62
481.69	262.83
482.06	263.04
482.42	263.25
482.79	263.49
483.15	263.79
483.52	264.22
483.88	264.59
484.25	265.00
484.61	265.42
484.98	265.90
485.34	266.51
485.71	267.14
486.07	267.74
486.44	268.34
486.80	269.09
487.17	269.80
487.53	270.64
487.90	271.48
488.26	272.45
488.62	273.42
488.99	274.42
489.35	275.46
489.72	276.60
490.08	277.81
490.44	279.10
490.81	280.45
491.17	281.77
491.54	283.23
491.90	284.75
492.26	286.45
492.63	288.21
492.99	289.96
493.36	291.86
493.72	293.88
494.08	295.98
494.45	298.20
494.81	300.65
495.17	303.08
495.54	305.64
495.90	308.30
496.26	311.12
496.63	314.06
496.99	317.22
497.35	320.46
497.72	323.82
498.08	327.34
498.44	330.97
498.80	334.91
499.17	338.93
499.53	343.08
499.89	347.42
500.26	351.89
500.62	356.59
500.98	361.55
501.34	366.71
501.71	372.06
502.07	377.49
502.43	383.07
502.79	388.91
503.16	394.99
503.52	401.31
503.88	407.70
504.24	414.31
504.60	421.16
504.97	428.27
505.33	435.67
505.69	443.39
506.05	451.22
506.41	459.17
506.78	467.40
507.14	475.90
507.50	484.61
507.86	493.65
508.22	502.78
508.59	512.04
508.95	521.59
509.31	531.34
509.67	541.50
510.03	551.78
510.39	562.35
510.75	573.15
511.12	584.04
511.48	595.41
511.84	606.90
512.20	618.30
512.56	630.34
512.92	642.52
513.28	654.88
513.64	667.30
514.00	679.99
514.37	692.95
514.73	705.99
515.09	719.00
515.45	732.34
515.81	745.95
516.17	759.95
516.53	774.06
516.89	788.25
517.25	802.33
517.61	816.72
517.97	831.17
518.33	845.54
518.69	860.35
519.05	875.22
519.41	890.40
519.77	905.98
520.13	921.36
520.49	936.69
520.85	952.12
521.21	967.75
521.57	983.86
521.93	999.50
522.29	1015.83
522.65	1032.16
523.01	1048.30
523.37	1064.36
523.73	1080.44
524.09	1096.45
524.45	1112.74
524.81	1129.39
525.17	1146.14
525.53	1163.05
525.89	1179.90
526.25	1196.69
526.61	1213.08
526.97	1229.74
527.33	1246.20
527.68	1262.79
528.04	1279.18
528.40	1295.63
528.76	1312.82
529.12	1329.43
529.48	1346.32
529.84	1362.34
530.20	1378.89
530.56	1395.80
530.91	1413.19
531.27	1429.80
531.63	1446.23
531.99	1462.59
532.35	1478.45
532.71	1494.40
533.07	1510.51
533.42	1526.40
533.78	1542.51
534.14	1558.71
534.50	1574.01
534.86	1589.89
535.21	1604.85
535.57	1620.75
535.93	1636.24
536.29	1650.82
536.65	1665.78
537.00	1680.44
537.36	1695.61
537.72	1710.01
538.08	1724.44
538.44	1738.07
538.79	1752.04
539.15	1765.70
539.51	1779.57
539.87	1793.89
540.22	1807.45
540.58	1821.13
540.94	1834.28
541.29	1847.00
541.65	1859.74
542.01	1872.82
542.37	1885.01
542.72	1897.50
543.08	1909.29
543.44	1921.66
543.79	1932.86
544.15	1943.88
544.51	1955.50
544.87	1966.48
545.22	1977.37
545.58	1987.54
545.94	1997.29
546.29	2006.93
546.65	2016.72
547.01	2025.92
547.36	2034.60
547.72	2042.98
548.07	2050.86
548.43	2059.06
548.79	2066.93
549.14	2074.40
549.50	2081.82
549.86	2089.49
550.21	2096.71
550.57	2103.90
550.92	2110.39
551.28	2117.35
551.64	2124.42
551.99	2130.75
552.35	2136.80
552.70	2142.85
553.06	2148.76
553.41	2155.09
553.77	2161.29
554.13	2167.28
554.48	2173.40
554.84	2178.88
555.19	2184.21
555.55	2189.40
555.90	2193.90
556.26	2198.79
556.61	2203.44
556.97	2207.63
557.32	2211.78
557.68	2215.96
558.03	2220.22
558.39	2223.95
558.74	2228.73
559.10	2232.54
559.45	2236.33
559.81	2240.76
560.16	2244.63
560.52	2247.96
560.87	2251.38
561.23	2254.04
561.58	2257.11
561.94	2259.68
562.29	2261.98
562.64	2264.67
563.00	2267.08
563.35	2270.61
563.71	2273.89
564.06	2277.14
564.42	2280.10
564.77	2282.54
565.12	2284.84
565.48	2286.69
565.83	2288.52
566.19	2289.90
566.54	2290.70
566.89	2291.79
567.25	2292.31
567.60	2293.54
567.96	2295.28
568.31	2296.15
568.66	2297.36
569.02	2297.97
569.37	2298.26
569.72	2299.24
570.08	2299.53
570.43	2299.71
570.78	2299.20
571.14	2297.63
571.49	2296.37
571.84	2296.11
572.20	2295.09
572.55	2294.19
572.90	2292.69
573.26	2291.20
573.61	2289.44
573.96	2287.83
574.31	2285.05
574.67	2282.17
575.02	2278.79
575.37	2275.44
575.72	2271.77
576.08	2268.42
576.43	2265.08
576.78	2261.49
577.13	2258.50
577.49	2255.37
577.84	2251.98
578.19	2248.30
578.54	2244.84
578.90	2240.68
579.25	2235.10
579.60	2230.07
579.95	2225.06
580.30	2220.08
580.66	2215.18
581.01	2210.30
581.36	2205.46
581.71	2201.29
582.06	2196.76
582.42	2192.17
582.77	2186.99
583.12	2182.43
583.47	2177.69
583.82	2172.73
584.17	2167.47
584.53	2161.84
584.88	2156.29
585.23	2150.46
585.58	2144.86
585.93	2139.35
586.28	2134.64
586.63	2129.63
586.98	2124.80
587.34	2120.10
587.69	2115.22
588.04	2109.99
588.39	2104.23
588.74	2097.68
589.09	2091.55
589.44	2084.85
589.79	2078.92
590.14	2073.28
590.49	2066.68
590.84	2060.34
591.19	2054.30
591.54	2047.88
591.89	2040.50
592.25	2033.70
592.60	2026.64
592.95	2019.15
593.30	2011.82
593.65	2004.20
594.00	1997.32
594.35	1989.96
594.70	1981.92
595.05	1974.88
595.40	1967.59
595.75	1960.32
596.10	1954.22
596.45	1947.52
596.80	1941.44
597.15	1934.84
597.50	1927.73
597.85	1921.41
598.19	1914.78
598.54	1907.68
598.89	1901.21
599.24	1895.38
599.59	1888.80
599.94	1882.56
600.29	1876.25
600.64	1869.69
600.99	1862.33
601.34	1855.41
601.69	1848.65
602.04	1841.81
602.39	1834.48
602.74	1827.68
603.08	1820.95
603.43	1814.32
603.78	1806.94
604.13	1799.66
604.48	1792.36
604.83	1785.56
605.18	1778.58
605.53	1770.55
605.87	1762.61
606.22	1755.29
606.57	1747.34
606.92	1739.95
607.27	1732.84
607.62	1726.01
607.96	1718.80
608.31	1712.14
608.66	1704.49
609.01	1696.88
609.36	1689.41
609.70	1681.23
610.05	1673.10
610.40	1665.44
610.75	1657.13
611.10	1649.52
611.44	1641.19
611.79	1633.18
612.14	1624.52
612.49	1615.25
612.83	1606.92
613.18	1598.82
613.53	1590.70
613.88	1582.05
614.22	1573.79
614.57	1565.08
614.92	1556.98
615.27	1549.35
615.61	1541.02
615.96	1533.03
616.31	1525.41
616.65	1518.00
617.00	1510.43
617.35	1502.82
617.70	1494.45
618.04	1485.83
618.39	1477.57
618.74	1469.93
619.08	1461.72
619.43	1454.04
619.78	1447.13
620.12	1439.93
620.47	1432.46
620.82	1424.33
621.16	1417.08
621.51	1409.46
621.85	1401.85
622.20	1393.40
622.55	1385.04
622.89	1377.12
623.24	1369.49
623.59	1362.08
623.93	1354.48
624.28	1347.25
624.62	1339.66
624.97	1332.43
625.32	1325.63
625.66	1318.61
626.01	1311.46
626.35	1303.80
626.70	1296.11
627.04	1288.40
627.39	1280.61
627.73	1273.15
628.08	1266.14
628.43	1258.77
628.77	1251.33
629.12	1243.78
629.46	1236.60
629.81	1229.19
630.15	1221.99
630.50	1214.59
630.84	1206.31
631.19	1198.41
631.53	1191.01
631.88	1183.53
632.22	1175.91
632.57	1168.59
632.91	1160.94
633.26	1153.46
633.60	1146.09
633.95	1139.03
634.29	1131.94
634.64	1125.21
634.98	1117.83
635.32	1110.58
635.67	1104.02
636.01	1097.44
636.36	1090.63
636.70	1084.08
637.05	1077.49
637.39	1071.04
637.73	1064.51
638.08	1058.68
638.42	1052.60
638.77	1046.12
639.11	1039.45
639.45	1033.03
639.80	1026.44
640.14	1020.14
640.49	1013.65
640.83	1007.46
641.17	1001.09
641.52	994.71
641.86	988.27
642.20	982.39
642.55	976.19
642.89	969.68
643.23	963.11
643.58	957.43
643.92	951.31
644.26	945.21
644.61	939.14
644.95	933.05
645.29	926.42
645.64	919.71
645.98	913.35
646.32	907.55
646.66	901.53
647.01	895.66
647.35	889.88
647.69	884.04
648.04	878.43
648.38	872.70
648.72	866.72
649.06	860.65
649.41	854.81
649.75	848.80
650.09	842.86
650.43	837.04
650.78	830.79
651.12	824.81
651.46	819.09
651.80	813.28
652.14	807.90
652.49	802.53
652.83	797.33
653.17	791.61
653.51	785.90
653.85	780.42
654.20	774.84
654.54	768.88
654.88	763.08
655.22	757.18
655.56	751.51
655.90	746.09
656.25	740.84
656.59	735.43
656.93	730.38
657.27	725.22
657.61	719.76
657.95	714.67
658.29	709.49
658.64	704.28
658.98	698.98
659.32	693.51
659.66	688.30
660.00	682.93
660.34	677.97
660.68	672.97
661.02	668.03
661.36	663.26
661.70	658.74
662.05	654.38
662.39	650.08
662.73	645.58
663.07	641.25
663.41	636.79
663.75	632.30
664.09	627.71
664.43	623.32
664.77	619.22
665.11	614.88
665.45	610.72
665.79	606.59
666.13	602.48
666.47	598.38
666.81	594.16
667.15	590.10
667.49	586.18
667.83	582.35
668.17	578.34
668.51	574.22
668.85	570.16
669.19	566.32
669.53	562.44
669.87	558.55
670.21	554.80
670.55	551.16
670.89	547.75
671.23	544.31
671.57	540.76
671.91	537.21
672.25	533.75
672.58	530.26
672.92	526.77
673.26	523.55
673.60	520.44
673.94	517.35
674.28	514.44
674.62	511.54
674.96	508.48
675.30	505.56
675.64	502.65
675.97	499.87
676.31	497.02
676.65	494.04
676.99	491.36
677.33	488.47
677.67	485.62
678.01	482.49
678.34	479.52
678.68	476.68
679.02	473.82
679.36	471.04
679.70	468.32
680.04	465.64
680.37	462.75
680.71	459.89
681.05	457.28
681.39	454.56
681.73	451.88
682.06	449.37
682.40	446.83
682.74	444.36
683.08	441.82
683.42	439.20
683.75	436.75
684.09	434.17
684.43	431.73
684.77	429.29
685.10	427.04
685.44	424.75
685.78	422.44
686.12	420.20
686.45	417.90
686.79	415.57
687.13	413.33
687.46	411.22
687.80	409.10
688.14	406.86
688.48	404.85
688.81	402.57
689.15	400.40
689.49	398.26
689.82	396.17
690.16	394.09
690.50	392.19
690.83	390.23
691.17	388.24
691.51	386.36
691.84	384.50
692.18	382.55
692.52	380.52
692.85	378.57
693.19	376.65
693.52	374.82
693.86	372.99
694.20	371.26
694.53	369.46
694.87	367.59
695.21	365.78
695.54	363.95
695.88	362.21
696.21	360.47
696.55	358.80
696.88	357.14
697.22	355.47
697.56	353.82
697.89	352.17
698.23	350.58
698.56	348.94
698.90	347.38
699.23	345.73
699.57	344.19
699.90	342.68
700.24	341.17
700.58	339.64
700.91	338.18
701.25	336.64
701.58	335.32
701.92	333.97
702.25	332.65
702.59	331.25
702.92	329.94
703.26	328.66
703.59	327.38
703.93	326.16
704.26	324.92
704.60	323.58
704.93	322.27
705.26	321.05
705.60	319.84
705.93	318.65
706.27	317.60
706.60	316.50
706.94	315.42
707.27	314.27
707.61	313.20
707.94	312.17
708.27	311.13
708.61	309.96
708.94	308.95
709.28	307.92
709.61	306.94
709.94	306.00
710.28	304.98
710.61	303.96
710.95	302.85
711.28	301.96
711.61	301.03
711.95	300.13
712.28	299.14
712.61	298.16
712.95	297.21
713.28	296.29
713.61	295.43
713.95	294.55
714.28	293.69
714.61	292.82
714.95	291.96
715.28	291.12
715.61	290.26
715.95	289.36
716.28	288.53
716.61	287.70
716.95	286.87
717.28	286.09
717.61	285.31
717.94	284.61
718.28	283.81
718.61	283.09
718.94	282.42
719.27	281.76
719.61	281.12
719.94	280.47
720.27	279.79
720.60	279.11
720.94	278.45
721.27	277.88
721.60	277.33
721.93	276.72
722.27	276.16
722.60	275.61
722.93	275.07
723.26	274.54
723.59	273.96
723.93	273.42
724.26	272.88
724.59	272.37
724.92	271.81
725.25	271.32
725.59	270.79
725.92	270.25
726.25	269.78
726.58	269.33
726.91	268.86
727.24	268.42
727.57	267.97
727.91	267.46
728.24	267.00
728.57	266.50
728.90	266.09
729.23	265.60
729.56	265.16
729.89	264.71
730.22	264.21
730.55	263.73
730.89	263.29
731.22	262.84
731.55	262.39
731.88	262.01
732.21	261.59
732.54	261.17
732.87	260.75
733.20	260.33
733.53	259.93
733.86	259.53
734.19	259.10
734.52	258.72
734.85	258.44
735.18	258.04
735.51	257.69
735.84	257.30
736.17	256.94
736.50	256.55
736.83	256.32
737.16	256.00
737.49	255.69
737.82	255.37
738.15	255.05
738.48	254.72
738.81	254.37
739.14	254.04
739.47	253.71
739.80	253.44
740.13	253.15
740.46	252.80
740.79	252.47
741.12	252.16
741.45	251.84
741.78	251.46
742.11	251.18
742.44	250.80
742.77	250.49
743.10	250.18
743.43	249.89
743.75	249.49
744.08	249.34
744.41	249.06
744.74	248.78
745.07	248.48
745.40	248.23
745.73	247.97
746.06	247.66
746.39	247.39
746.71	247.07
747.04	246.76
747.37	246.50
747.70	246.26
748.03	245.99
748.36	245.79
748.68	245.51
749.01	245.23
749.34	245.06
749.67	244.83
750.00	244.64
750.33	244.45
750.65	244.22
750.98	243.86
751.31	243.61
751.64	243.38
751.97	243.22
752.29	242.99
752.62	242.76
752.95	242.57
753.28	242.35
753.60	242.15
753.93	241.99
754.26	241.78
754.59	241.54
754.91	241.32
755.24	241.04
755.57	240.87
755.90	240.70
756.22	240.48
756.55	240.26
756.88	240.04
757.20	239.81
757.53	239.64
757.86	239.49
758.19	239.35
758.51	239.17
758.84	238.93
759.17	238.75
759.49	238.56
759.82	238.42
760.15	238.32
760.47	238.18
760.80	238.02
761.13	237.91
761.45	237.74
761.78	237.60
762.11	237.50
762.43	237.35
762.76	237.21
763.08	237.08
763.41	236.98
763.74	236.86
764.06	236.73
764.39	236.57
764.71	236.46
765.04	236.32
765.37	236.22
765.69	236.12
766.02	235.99
766.34	235.91
766.67	235.76
767.00	235.64
767.32	235.59
767.65	235.54
767.97	235.45
768.30	235.37
768.62	235.28
768.95	235.17
769.27	235.06
769.60	234.95
769.92	234.86
770.25	234.72
770.57	234.61
770.90	234.51
771.22	234.40
771.55	234.29
771.87	234.20
772.20	234.11
772.52	234.11
772.85	234.20
773.17	234.09
773.50	234.02
773.82	233.93
774.15	233.78
774.47	233.64
774.80	233.51
775.12	233.40
775.45	233.31
775.77	233.25
776.09	233.22
776.42	233.14
776.74	233.10
777.07	233.01
777.39	232.94
777.72	232.86
778.04	232.83
778.36	232.76
778.69	232.68
779.01	232.59
779.33	232.44
779.66	232.23
779.98	232.17
780.31	232.06
780.63	232.01
780.95	231.95
781.28	231.87
781.60	231.82
781.92	231.77
782.25	231.73
782.57	231.63
782.89	231.52
783.22	231.43
783.54	231.35
783.86	231.32
784.19	231.24
784.51	231.21
784.83	231.09
785.16	231.02
785.48	230.96
785.80	230.93
786.12	230.87
786.45	230.79
786.77	230.77
787.09	230.77
