SpectraSuite Data File
++++++++++++++++++++++++++++++++++++
Date: Fri Feb 01 15:46:42 EST 2013
User: group
Dark Spectrum Present: No
Reference Spectrum Present: No
Number of Sampled Component Spectra: 1
Spectrometers: USB2E7196
Integration Time (usec): 35000 (USB2E7196)
Spectra Averaged: 100 (USB2E7196)
Boxcar Smoothing: 10 (USB2E7196)
Correct for Electrical Dark: No (USB2E7196)
Strobe/Lamp Enabled: No (USB2E7196)
Correct for Detector Non-linearity: No (USB2E7196)
Correct for Stray Light: No (USB2E7196)
Number of Pixels in Processed Spectrum: 2048
>>>>>Begin Processed Spectral Data<<<<<
339.09	0.00
339.48	214.97
339.86	216.18
340.24	217.34
340.63	219.16
341.01	221.57
341.39	221.48
341.78	222.82
342.16	224.40
342.54	224.63
342.93	213.01
343.31	223.81
343.69	224.35
344.07	224.82
344.46	225.25
344.84	225.62
345.22	225.89
345.60	226.15
345.99	226.35
346.37	226.47
346.75	226.60
347.13	226.64
347.52	226.70
347.90	226.75
348.28	226.80
348.66	226.87
349.05	226.88
349.43	226.93
349.81	227.01
350.19	227.05
350.57	227.10
350.96	227.20
351.34	227.28
351.72	227.37
352.10	227.46
352.48	227.53
352.87	227.59
353.25	227.64
353.63	227.70
354.01	227.77
354.39	227.87
354.77	227.92
355.15	228.07
355.54	228.16
355.92	228.20
356.30	228.27
356.68	228.39
357.06	228.47
357.44	228.51
357.82	228.57
358.20	228.67
358.58	228.74
358.97	228.80
359.35	228.86
359.73	228.95
360.11	229.00
360.49	229.07
360.87	229.10
361.25	229.15
361.63	229.22
362.01	229.28
362.39	229.30
362.77	229.35
363.15	229.37
363.53	229.36
363.91	229.42
364.29	229.44
364.67	229.38
365.05	229.41
365.43	229.44
365.81	229.45
366.19	229.46
366.57	229.55
366.95	229.53
367.33	229.53
367.71	229.50
368.09	229.50
368.47	229.47
368.85	229.47
369.23	229.48
369.61	229.40
369.99	229.36
370.37	229.34
370.75	229.33
371.13	229.28
371.51	229.23
371.89	229.20
372.27	229.18
372.65	229.15
373.03	229.10
373.41	229.03
373.78	228.98
374.16	228.88
374.54	228.76
374.92	228.65
375.30	228.59
375.68	228.54
376.06	228.49
376.44	228.43
376.82	228.39
377.19	228.31
377.57	228.27
377.95	228.16
378.33	228.08
378.71	227.97
379.09	227.89
379.47	227.82
379.84	227.64
380.22	227.56
380.60	227.46
380.98	227.38
381.36	227.30
381.73	227.22
382.11	227.16
382.49	227.08
382.87	227.00
383.25	226.91
383.62	226.92
384.00	226.85
384.38	226.79
384.76	226.74
385.13	226.73
385.51	226.67
385.89	226.64
386.27	226.58
386.64	226.56
387.02	226.51
387.40	226.46
387.78	226.51
388.15	226.48
388.53	226.44
388.91	226.42
389.29	226.39
389.66	226.36
390.04	226.34
390.42	226.33
390.79	226.33
391.17	226.32
391.55	226.21
391.92	226.20
392.30	226.20
392.68	226.15
393.05	226.12
393.43	226.12
393.81	226.12
394.18	226.10
394.56	226.08
394.94	226.13
395.31	226.14
395.69	226.19
396.06	226.19
396.44	226.24
396.82	226.27
397.19	226.41
397.57	226.44
397.95	226.51
398.32	226.55
398.70	226.66
399.07	226.73
399.45	226.76
399.82	226.81
400.20	226.86
400.58	226.97
400.95	227.02
401.33	227.16
401.70	227.29
402.08	227.41
402.45	227.52
402.83	227.66
403.20	227.76
403.58	227.85
403.95	228.02
404.33	228.16
404.71	228.27
405.08	228.42
405.46	228.56
405.83	228.71
406.21	228.85
406.58	229.02
406.96	229.20
407.33	229.42
407.70	229.64
408.08	229.92
408.45	230.13
408.83	230.38
409.20	230.60
409.58	230.79
409.95	231.10
410.33	231.37
410.70	231.61
411.08	231.91
411.45	232.20
411.82	232.51
412.20	232.86
412.57	233.27
412.95	233.57
413.32	233.98
413.69	234.40
414.07	234.87
414.44	235.32
414.82	235.79
415.19	236.38
415.56	236.94
415.94	237.48
416.31	238.12
416.68	238.71
417.06	239.40
417.43	240.08
417.81	240.83
418.18	241.62
418.55	242.45
418.93	243.34
419.30	244.22
419.67	245.16
420.04	246.11
420.42	247.11
420.79	248.28
421.16	249.44
421.54	250.62
421.91	251.84
422.28	253.09
422.66	254.43
423.03	255.66
423.40	256.98
423.77	258.39
424.15	259.83
424.52	261.34
424.89	262.95
425.26	264.53
425.64	265.97
426.01	267.54
426.38	269.19
426.75	270.91
427.13	272.68
427.50	274.49
427.87	276.34
428.24	278.19
428.61	279.94
428.99	281.87
429.36	283.98
429.73	286.03
430.10	288.01
430.47	290.07
430.85	292.21
431.22	294.43
431.59	296.84
431.96	299.08
432.33	301.57
432.70	303.95
433.08	306.77
433.45	309.43
433.82	312.05
434.19	314.95
434.56	317.69
434.93	320.33
435.30	322.91
435.68	325.83
436.05	328.67
436.42	331.45
436.79	333.99
437.16	336.68
437.53	339.53
437.90	342.38
438.27	345.13
438.64	347.97
439.01	350.63
439.38	352.82
439.75	354.97
440.13	357.50
440.50	359.84
440.87	361.66
441.24	363.62
441.61	365.79
441.98	367.29
442.35	369.11
442.72	370.95
443.09	372.77
443.46	373.76
443.83	374.44
444.20	374.98
444.57	375.83
444.94	376.10
445.31	376.44
445.68	376.79
446.05	376.86
446.42	376.43
446.79	376.00
447.16	375.58
447.53	375.29
447.90	374.12
448.27	372.98
448.64	371.37
449.01	370.17
449.37	368.21
449.74	366.28
450.11	364.05
450.48	361.61
450.85	359.09
451.22	356.96
451.59	354.90
451.96	352.96
452.33	350.33
452.70	347.99
453.07	345.12
453.43	342.23
453.80	339.48
454.17	336.83
454.54	334.30
454.91	331.54
455.28	328.86
455.65	326.34
456.02	323.84
456.38	321.71
456.75	319.07
457.12	316.82
457.49	314.60
457.86	312.42
458.23	310.54
458.59	308.50
458.96	306.39
459.33	304.50
459.70	302.66
460.07	301.17
460.43	299.46
460.80	297.86
461.17	296.41
461.54	294.88
461.91	293.44
462.27	291.96
462.64	290.68
463.01	289.28
463.38	288.01
463.74	286.68
464.11	285.52
464.48	284.51
464.85	283.39
465.21	282.52
465.58	281.61
465.95	280.51
466.32	279.61
466.68	278.70
467.05	277.79
467.42	276.88
467.78	275.94
468.15	275.07
468.52	274.44
468.88	273.59
469.25	272.80
469.62	272.20
469.98	271.48
470.35	270.87
470.72	270.30
471.08	269.63
471.45	269.09
471.82	268.52
472.18	267.90
472.55	267.44
472.92	266.94
473.28	266.41
473.65	265.93
474.02	265.46
474.38	265.08
474.75	264.79
475.11	264.41
475.48	264.11
475.85	263.84
476.21	263.54
476.58	263.35
476.94	263.22
477.31	263.01
477.67	262.91
478.04	262.79
478.41	262.74
478.77	262.74
479.14	262.64
479.50	262.65
479.87	262.74
480.23	262.80
480.60	262.82
480.96	262.99
481.33	263.21
481.69	263.41
482.06	263.59
482.42	263.77
482.79	264.01
483.15	264.35
483.52	264.73
483.88	265.11
484.25	265.46
484.61	265.92
484.98	266.35
485.34	266.93
485.71	267.51
486.07	268.11
486.44	268.69
486.80	269.40
487.17	270.14
487.53	270.99
487.90	271.87
488.26	272.85
488.62	273.84
488.99	274.84
489.35	275.88
489.72	277.01
490.08	278.22
490.44	279.49
490.81	280.83
491.17	282.20
491.54	283.71
491.90	285.28
492.26	286.93
492.63	288.74
492.99	290.51
493.36	292.45
493.72	294.50
494.08	296.66
494.45	298.91
494.81	301.28
495.17	303.72
495.54	306.29
495.90	308.98
496.26	311.76
496.63	314.74
496.99	317.84
497.35	321.13
497.72	324.54
498.08	328.02
498.44	331.70
498.80	335.62
499.17	339.67
499.53	343.87
499.89	348.23
500.26	352.70
500.62	357.35
500.98	362.32
501.34	367.41
501.71	372.76
502.07	378.24
502.43	383.89
502.79	389.69
503.16	395.77
503.52	402.04
503.88	408.45
504.24	415.07
504.60	422.01
504.97	429.16
505.33	436.49
505.69	444.25
506.05	452.03
506.41	459.97
506.78	468.13
507.14	476.54
507.50	485.26
507.86	494.31
508.22	503.51
508.59	512.69
508.95	522.30
509.31	532.10
509.67	542.21
510.03	552.47
510.39	563.03
510.75	573.93
511.12	584.87
511.48	596.18
511.84	607.68
512.20	619.18
512.56	631.18
512.92	643.38
513.28	655.69
513.64	668.20
514.00	680.91
514.37	693.83
514.73	706.95
515.09	720.00
515.45	733.30
515.81	746.93
516.17	761.00
516.53	775.09
516.89	789.26
517.25	803.42
517.61	817.84
517.97	832.32
518.33	846.64
518.69	861.44
519.05	876.35
519.41	891.49
519.77	907.03
520.13	922.44
520.49	937.78
520.85	953.19
521.21	969.03
521.57	985.24
521.93	1000.95
522.29	1017.32
522.65	1033.54
523.01	1049.68
523.37	1065.75
523.73	1081.84
524.09	1097.85
524.45	1114.22
524.81	1130.95
525.17	1147.85
525.53	1164.69
525.89	1181.60
526.25	1198.40
526.61	1214.89
526.97	1231.72
527.33	1248.26
527.68	1264.87
528.04	1281.42
528.40	1298.03
528.76	1315.02
529.12	1331.65
529.48	1348.56
529.84	1364.57
530.20	1381.24
530.56	1398.31
530.91	1415.64
531.27	1432.44
531.63	1449.02
531.99	1465.56
532.35	1481.45
532.71	1497.17
533.07	1513.49
533.42	1529.20
533.78	1545.26
534.14	1561.55
534.50	1576.82
534.86	1592.55
535.21	1607.68
535.57	1623.60
535.93	1639.18
536.29	1653.86
536.65	1668.92
537.00	1683.78
537.36	1699.03
537.72	1713.61
538.08	1728.18
538.44	1742.07
538.79	1755.86
539.15	1769.61
539.51	1783.36
539.87	1797.72
540.22	1811.62
540.58	1825.41
540.94	1838.95
541.29	1851.92
541.65	1864.64
542.01	1877.88
542.37	1890.24
542.72	1902.65
543.08	1914.40
543.44	1926.76
543.79	1938.09
544.15	1949.08
544.51	1960.53
544.87	1971.66
545.22	1982.43
545.58	1992.53
545.94	2002.26
546.29	2012.32
546.65	2022.01
547.01	2031.24
547.36	2040.00
547.72	2048.44
548.07	2056.12
548.43	2064.23
548.79	2072.18
549.14	2079.57
549.50	2086.84
549.86	2094.68
550.21	2102.15
550.57	2109.36
550.92	2115.88
551.28	2122.85
551.64	2129.87
551.99	2136.52
552.35	2142.53
552.70	2148.73
553.06	2154.70
553.41	2161.12
553.77	2167.07
554.13	2173.24
554.48	2179.44
554.84	2184.84
555.19	2190.18
555.55	2195.42
555.90	2199.78
556.26	2204.65
556.61	2209.55
556.97	2213.81
557.32	2217.92
557.68	2221.84
558.03	2226.09
558.39	2229.98
558.74	2234.71
559.10	2238.64
559.45	2242.26
559.81	2246.73
560.16	2250.42
560.52	2253.62
560.87	2256.92
561.23	2259.66
561.58	2262.72
561.94	2265.15
562.29	2267.50
562.64	2269.97
563.00	2272.63
563.35	2276.31
563.71	2279.45
564.06	2282.54
564.42	2285.39
564.77	2287.71
565.12	2290.07
565.48	2291.92
565.83	2293.60
566.19	2294.70
566.54	2295.54
566.89	2296.67
567.25	2297.17
567.60	2298.48
567.96	2300.35
568.31	2301.20
568.66	2302.11
569.02	2302.54
569.37	2302.93
569.72	2303.72
570.08	2303.93
570.43	2303.97
570.78	2303.30
571.14	2301.79
571.49	2300.50
571.84	2300.31
572.20	2299.18
572.55	2298.08
572.90	2296.57
573.26	2295.27
573.61	2293.72
573.96	2291.90
574.31	2288.99
574.67	2286.07
575.02	2282.44
575.37	2278.88
575.72	2274.97
576.08	2271.80
576.43	2268.41
576.78	2264.71
577.13	2261.66
577.49	2258.56
577.84	2254.94
578.19	2251.26
578.54	2247.56
578.90	2243.26
579.25	2237.59
579.60	2232.66
579.95	2227.66
580.30	2222.79
580.66	2217.55
581.01	2212.72
581.36	2207.92
581.71	2203.70
582.06	2199.10
582.42	2194.66
582.77	2189.40
583.12	2184.95
583.47	2180.04
583.82	2175.05
584.17	2169.69
584.53	2164.12
584.88	2158.46
585.23	2152.71
585.58	2147.22
585.93	2141.76
586.28	2137.00
586.63	2132.01
586.98	2126.95
587.34	2122.32
587.69	2117.44
588.04	2112.22
588.39	2106.35
588.74	2099.76
589.09	2093.50
589.44	2086.71
589.79	2080.81
590.14	2075.26
590.49	2068.59
590.84	2062.21
591.19	2056.27
591.54	2049.83
591.89	2042.39
592.25	2035.57
592.60	2028.29
592.95	2020.68
593.30	2013.25
593.65	2005.68
594.00	1998.58
594.35	1991.34
594.70	1983.38
595.05	1975.94
595.40	1968.58
595.75	1961.19
596.10	1954.94
596.45	1948.26
596.80	1942.10
597.15	1935.46
597.50	1928.13
597.85	1921.75
598.19	1915.15
598.54	1907.82
598.89	1901.07
599.24	1895.17
599.59	1888.50
599.94	1882.40
600.29	1876.02
600.64	1869.51
600.99	1862.11
601.34	1855.28
601.69	1848.30
602.04	1841.24
602.39	1833.83
602.74	1827.03
603.08	1820.09
603.43	1813.32
603.78	1805.91
604.13	1798.58
604.48	1791.05
604.83	1784.33
605.18	1777.31
605.53	1769.18
605.87	1761.25
606.22	1754.15
606.57	1746.23
606.92	1738.93
607.27	1731.71
607.62	1724.78
607.96	1717.41
608.31	1710.61
608.66	1702.98
609.01	1695.36
609.36	1687.81
609.70	1679.91
610.05	1671.78
610.40	1664.02
610.75	1655.83
611.10	1648.07
611.44	1639.75
611.79	1631.79
612.14	1623.03
612.49	1613.90
612.83	1605.51
613.18	1597.47
613.53	1589.39
613.88	1580.77
614.22	1572.47
614.57	1563.86
614.92	1555.85
615.27	1548.34
615.61	1540.06
615.96	1532.06
616.31	1524.53
616.65	1517.17
617.00	1509.49
617.35	1501.83
617.70	1493.55
618.04	1484.96
618.39	1476.83
618.74	1469.24
619.08	1461.07
619.43	1453.56
619.78	1446.61
620.12	1439.51
620.47	1431.90
620.82	1423.66
621.16	1416.34
621.51	1408.80
621.85	1401.15
622.20	1392.49
622.55	1384.06
622.89	1376.20
623.24	1368.49
623.59	1361.01
623.93	1353.43
624.28	1346.23
624.62	1338.63
624.97	1331.45
625.32	1324.64
625.66	1317.60
626.01	1310.27
626.35	1302.64
626.70	1294.82
627.04	1287.01
627.39	1279.31
627.73	1271.92
628.08	1264.91
628.43	1257.66
628.77	1250.23
629.12	1242.82
629.46	1235.80
629.81	1228.58
630.15	1221.34
630.50	1214.01
630.84	1205.86
631.19	1197.95
631.53	1190.44
631.88	1182.94
632.22	1175.36
632.57	1168.11
632.91	1160.55
633.26	1153.19
633.60	1145.97
633.95	1138.91
634.29	1131.94
634.64	1125.16
634.98	1117.80
635.32	1110.71
635.67	1104.01
636.01	1097.32
636.36	1090.39
636.70	1083.85
637.05	1077.14
637.39	1070.70
637.73	1064.14
638.08	1058.18
638.42	1052.18
638.77	1045.75
639.11	1039.22
639.45	1032.86
639.80	1026.11
640.14	1019.71
640.49	1013.19
640.83	1006.89
641.17	1000.68
641.52	994.35
641.86	987.87
642.20	981.99
642.55	975.73
642.89	969.25
643.23	962.73
643.58	956.94
643.92	950.72
644.26	944.62
644.61	938.58
644.95	932.47
645.29	925.90
645.64	919.18
645.98	912.74
646.32	906.86
646.66	900.88
647.01	895.14
647.35	889.40
647.69	883.57
648.04	877.99
648.38	872.12
648.72	866.06
649.06	860.06
649.41	854.15
649.75	848.20
650.09	842.31
650.43	836.54
650.78	830.39
651.12	824.33
651.46	818.59
651.80	812.87
652.14	807.51
652.49	802.14
652.83	796.97
653.17	791.34
653.51	785.58
653.85	780.19
654.20	774.50
654.54	768.55
654.88	762.77
655.22	756.81
655.56	751.16
655.90	745.82
656.25	740.61
656.59	735.23
656.93	730.11
657.27	724.91
657.61	719.44
657.95	714.35
658.29	709.34
658.64	704.14
658.98	698.82
659.32	693.36
659.66	688.16
660.00	682.79
660.34	677.82
660.68	673.00
661.02	667.92
661.36	663.20
661.70	658.73
662.05	654.40
662.39	650.14
662.73	645.63
663.07	641.16
663.41	636.64
663.75	632.16
664.09	627.60
664.43	623.19
664.77	619.09
665.11	614.81
665.45	610.71
665.79	606.59
666.13	602.42
666.47	598.38
666.81	594.22
667.15	590.11
667.49	586.28
667.83	582.43
668.17	578.46
668.51	574.40
668.85	570.36
669.19	566.47
669.53	562.61
669.87	558.78
670.21	555.05
670.55	551.41
670.89	548.01
671.23	544.56
671.57	541.06
671.91	537.48
672.25	534.02
672.58	530.47
672.92	527.07
673.26	523.93
673.60	520.76
673.94	517.61
674.28	514.67
674.62	511.71
674.96	508.57
675.30	505.71
675.64	502.79
675.97	500.03
676.31	497.16
676.65	494.28
676.99	491.57
677.33	488.72
677.67	485.92
678.01	482.90
678.34	479.91
678.68	477.04
679.02	474.27
679.36	471.52
679.70	468.84
680.04	466.11
680.37	463.15
680.71	460.37
681.05	457.80
681.39	455.12
681.73	452.47
682.06	449.94
682.40	447.38
682.74	444.85
683.08	442.30
683.42	439.71
683.75	437.21
684.09	434.64
684.43	432.17
684.77	429.71
685.10	427.34
685.44	425.08
685.78	422.80
686.12	420.57
686.45	418.24
686.79	415.92
687.13	413.71
687.46	411.64
687.80	409.51
688.14	407.33
688.48	405.26
688.81	402.98
689.15	400.83
689.49	398.68
689.82	396.61
690.16	394.53
690.50	392.60
690.83	390.61
691.17	388.67
691.51	386.73
691.84	384.93
692.18	382.98
692.52	380.97
692.85	379.06
693.19	377.17
693.52	375.40
693.86	373.62
694.20	371.82
694.53	370.00
694.87	368.15
695.21	366.32
695.54	364.54
695.88	362.85
696.21	361.16
696.55	359.43
696.88	357.77
697.22	356.12
697.56	354.53
697.89	352.87
698.23	351.24
698.56	349.70
698.90	348.04
699.23	346.43
699.57	344.93
699.90	343.39
700.24	341.80
700.58	340.22
700.91	338.71
701.25	337.29
701.58	335.93
701.92	334.55
702.25	333.18
702.59	331.81
702.92	330.49
703.26	329.19
703.59	327.96
703.93	326.77
704.26	325.51
704.60	324.19
704.93	322.92
705.26	321.69
705.60	320.50
705.93	319.35
706.27	318.31
706.60	317.23
706.94	316.13
707.27	315.04
707.61	314.03
707.94	313.02
708.27	311.94
708.61	310.86
708.94	309.84
709.28	308.82
709.61	307.91
709.94	306.94
710.28	305.91
710.61	304.92
710.95	303.82
711.28	302.92
711.61	301.96
711.95	301.05
712.28	300.09
712.61	299.09
712.95	298.22
713.28	297.33
713.61	296.40
713.95	295.54
714.28	294.68
714.61	293.76
714.95	292.90
715.28	292.04
715.61	291.16
715.95	290.29
716.28	289.45
716.61	288.56
716.95	287.73
717.28	287.00
717.61	286.21
717.94	285.51
718.28	284.68
718.61	283.98
718.94	283.29
719.27	282.63
719.61	282.01
719.94	281.36
720.27	280.64
720.60	280.02
720.94	279.38
721.27	278.80
721.60	278.19
721.93	277.56
722.27	277.03
722.60	276.46
722.93	275.93
723.26	275.42
723.59	274.86
723.93	274.31
724.26	273.74
724.59	273.22
724.92	272.67
725.25	272.19
725.59	271.66
725.92	271.17
726.25	270.65
726.58	270.17
726.91	269.66
727.24	269.16
727.57	268.69
727.91	268.14
728.24	267.66
728.57	267.20
728.90	266.73
729.23	266.20
729.56	265.78
729.89	265.29
730.22	264.81
730.55	264.36
730.89	263.95
731.22	263.51
731.55	263.08
731.88	262.61
732.21	262.19
732.54	261.76
732.87	261.31
733.20	260.87
733.53	260.48
733.86	260.10
734.19	259.74
734.52	259.33
734.85	259.03
735.18	258.65
735.51	258.31
735.84	257.97
736.17	257.63
736.50	257.24
736.83	257.02
737.16	256.64
737.49	256.31
737.82	255.94
738.15	255.61
738.48	255.25
738.81	254.98
739.14	254.65
739.47	254.31
739.80	254.03
740.13	253.80
740.46	253.46
740.79	253.08
741.12	252.77
741.45	252.50
741.78	252.19
742.11	251.88
742.44	251.57
742.77	251.29
743.10	251.01
743.43	250.70
743.75	250.34
744.08	250.23
744.41	249.96
744.74	249.68
745.07	249.40
745.40	249.17
745.73	248.91
746.06	248.63
746.39	248.40
746.71	248.13
747.04	247.80
747.37	247.54
747.70	247.35
748.03	247.08
748.36	246.82
748.68	246.55
749.01	246.30
749.34	246.09
749.67	245.85
750.00	245.62
750.33	245.49
750.65	245.27
750.98	244.93
751.31	244.73
751.64	244.55
751.97	244.42
752.29	244.22
752.62	243.99
752.95	243.82
753.28	243.65
753.60	243.43
753.93	243.28
754.26	243.09
754.59	242.86
754.91	242.66
755.24	242.50
755.57	242.32
755.90	242.14
756.22	241.92
756.55	241.75
756.88	241.54
757.20	241.27
757.53	241.05
757.86	240.87
758.19	240.68
758.51	240.51
758.84	240.29
759.17	240.09
759.49	239.92
759.82	239.77
760.15	239.58
760.47	239.40
760.80	239.22
761.13	239.08
761.45	238.91
761.78	238.78
762.11	238.62
762.43	238.48
762.76	238.35
763.08	238.25
763.41	238.07
763.74	237.95
764.06	237.82
764.39	237.67
764.71	237.55
765.04	237.39
765.37	237.22
765.69	237.11
766.02	236.98
766.34	236.85
766.67	236.65
767.00	236.55
767.32	236.49
767.65	236.46
767.97	236.34
768.30	236.24
768.62	236.09
768.95	235.99
769.27	235.84
769.60	235.72
769.92	235.56
770.25	235.49
770.57	235.37
770.90	235.28
771.22	235.20
771.55	235.12
771.87	235.04
772.20	234.95
772.52	234.93
772.85	234.95
773.17	234.82
773.50	234.79
773.82	234.69
774.15	234.54
774.47	234.37
774.80	234.27
775.12	234.19
775.45	234.14
775.77	234.04
776.09	233.99
776.42	233.91
776.74	233.88
777.07	233.77
777.39	233.74
777.72	233.63
778.04	233.56
778.36	233.44
778.69	233.41
779.01	233.34
779.33	233.17
779.66	233.00
779.98	232.95
780.31	232.88
780.63	232.86
780.95	232.84
781.28	232.82
781.60	232.72
781.92	232.66
782.25	232.56
782.57	232.51
782.89	232.43
783.22	232.37
783.54	232.30
783.86	232.24
784.19	232.19
784.51	232.18
784.83	232.11
785.16	232.06
785.48	231.99
785.80	231.97
786.12	231.96
786.45	231.90
786.77	231.90
787.09	231.88
