SpectraSuite Data File
++++++++++++++++++++++++++++++++++++
Date: Fri Feb 01 15:57:50 EST 2013
User: group
Dark Spectrum Present: No
Reference Spectrum Present: No
Number of Sampled Component Spectra: 1
Spectrometers: USB2E7196
Integration Time (usec): 35000 (USB2E7196)
Spectra Averaged: 100 (USB2E7196)
Boxcar Smoothing: 10 (USB2E7196)
Correct for Electrical Dark: No (USB2E7196)
Strobe/Lamp Enabled: No (USB2E7196)
Correct for Detector Non-linearity: No (USB2E7196)
Correct for Stray Light: No (USB2E7196)
Number of Pixels in Processed Spectrum: 2048
>>>>>Begin Processed Spectral Data<<<<<
339.09	0.00
339.48	214.07
339.86	216.09
340.24	217.37
340.63	218.63
341.01	221.51
341.39	221.98
341.78	223.59
342.16	224.30
342.54	223.91
342.93	212.94
343.31	223.71
343.69	224.29
344.07	224.76
344.46	225.19
344.84	225.56
345.22	225.81
345.60	226.03
345.99	226.16
346.37	226.29
346.75	226.44
347.13	226.51
347.52	226.56
347.90	226.67
348.28	226.67
348.66	226.74
349.05	226.75
349.43	226.83
349.81	226.89
350.19	226.93
350.57	227.00
350.96	227.04
351.34	227.11
351.72	227.17
352.10	227.27
352.48	227.36
352.87	227.44
353.25	227.53
353.63	227.60
354.01	227.69
354.39	227.79
354.77	227.89
355.15	228.04
355.54	228.10
355.92	228.13
356.30	228.21
356.68	228.34
357.06	228.40
357.44	228.44
357.82	228.52
358.20	228.61
358.58	228.67
358.97	228.75
359.35	228.87
359.73	228.96
360.11	229.03
360.49	229.07
360.87	229.13
361.25	229.18
361.63	229.27
362.01	229.35
362.39	229.33
362.77	229.34
363.15	229.31
363.53	229.34
363.91	229.37
364.29	229.39
364.67	229.29
365.05	229.33
365.43	229.30
365.81	229.31
366.19	229.35
366.57	229.39
366.95	229.42
367.33	229.37
367.71	229.35
368.09	229.37
368.47	229.34
368.85	229.35
369.23	229.34
369.61	229.25
369.99	229.23
370.37	229.23
370.75	229.21
371.13	229.18
371.51	229.15
371.89	229.11
372.27	229.09
372.65	229.05
373.03	228.98
373.41	228.93
373.78	228.88
374.16	228.77
374.54	228.71
374.92	228.62
375.30	228.58
375.68	228.49
376.06	228.40
376.44	228.32
376.82	228.21
377.19	228.13
377.57	228.06
377.95	227.96
378.33	227.91
378.71	227.81
379.09	227.76
379.47	227.66
379.84	227.57
380.22	227.47
380.60	227.40
380.98	227.31
381.36	227.26
381.73	227.17
382.11	227.12
382.49	227.03
382.87	226.92
383.25	226.82
383.62	226.89
384.00	226.81
384.38	226.77
384.76	226.75
385.13	226.72
385.51	226.68
385.89	226.63
386.27	226.55
386.64	226.51
387.02	226.48
387.40	226.43
387.78	226.38
388.15	226.34
388.53	226.30
388.91	226.27
389.29	226.24
389.66	226.20
390.04	226.15
390.42	226.16
390.79	226.19
391.17	226.21
391.55	226.09
391.92	226.10
392.30	226.10
392.68	226.05
393.05	226.06
393.43	226.07
393.81	226.07
394.18	226.08
394.56	226.10
394.94	226.10
395.31	226.14
395.69	226.20
396.06	226.25
396.44	226.29
396.82	226.31
397.19	226.42
397.57	226.47
397.95	226.55
398.32	226.57
398.70	226.63
399.07	226.69
399.45	226.73
399.82	226.76
400.20	226.84
400.58	226.92
400.95	226.94
401.33	227.03
401.70	227.19
402.08	227.29
402.45	227.39
402.83	227.50
403.20	227.58
403.58	227.69
403.95	227.84
404.33	227.99
404.71	228.14
405.08	228.31
405.46	228.46
405.83	228.62
406.21	228.76
406.58	228.91
406.96	229.08
407.33	229.27
407.70	229.48
408.08	229.72
408.45	229.92
408.83	230.18
409.20	230.38
409.58	230.54
409.95	230.82
410.33	231.05
410.70	231.31
411.08	231.62
411.45	231.94
411.82	232.23
412.20	232.55
412.57	232.96
412.95	233.20
413.32	233.59
413.69	233.98
414.07	234.46
414.44	234.92
414.82	235.40
415.19	235.94
415.56	236.48
415.94	237.04
416.31	237.67
416.68	238.29
417.06	239.03
417.43	239.74
417.81	240.44
418.18	241.26
418.55	242.10
418.93	243.01
419.30	243.89
419.67	244.85
420.04	245.82
420.42	246.80
420.79	247.99
421.16	249.16
421.54	250.33
421.91	251.53
422.28	252.78
422.66	254.12
423.03	255.44
423.40	256.78
423.77	258.18
424.15	259.61
424.52	261.09
424.89	262.70
425.26	264.23
425.64	265.72
426.01	267.30
426.38	268.94
426.75	270.60
427.13	272.33
427.50	274.11
427.87	276.01
428.24	277.88
428.61	279.63
428.99	281.55
429.36	283.65
429.73	285.69
430.10	287.73
430.47	289.75
430.85	291.87
431.22	294.08
431.59	296.48
431.96	298.72
432.33	301.19
432.70	303.55
433.08	306.38
433.45	309.02
433.82	311.62
434.19	314.52
434.56	317.36
434.93	319.97
435.30	322.59
435.68	325.44
436.05	328.28
436.42	331.06
436.79	333.55
437.16	336.23
437.53	339.06
437.90	341.82
438.27	344.60
438.64	347.41
439.01	350.04
439.38	352.27
439.75	354.48
440.13	357.02
440.50	359.39
440.87	361.23
441.24	363.17
441.61	365.33
441.98	366.80
442.35	368.54
442.72	370.46
443.09	372.26
443.46	373.25
443.83	373.84
444.20	374.33
444.57	375.17
444.94	375.45
445.31	375.77
445.68	376.15
446.05	376.20
446.42	375.81
446.79	375.37
447.16	374.88
447.53	374.54
447.90	373.38
448.27	372.19
448.64	370.57
449.01	369.36
449.37	367.40
449.74	365.54
450.11	363.31
450.48	360.78
450.85	358.26
451.22	356.15
451.59	354.10
451.96	352.19
452.33	349.59
452.70	347.24
453.07	344.41
453.43	341.51
453.80	338.75
454.17	336.06
454.54	333.53
454.91	330.82
455.28	328.10
455.65	325.60
456.02	323.15
456.38	321.04
456.75	318.47
457.12	316.19
457.49	313.94
457.86	311.79
458.23	309.96
458.59	307.88
458.96	305.79
459.33	303.97
459.70	302.11
460.07	300.59
460.43	298.93
460.80	297.33
461.17	295.90
461.54	294.40
461.91	293.00
462.27	291.55
462.64	290.33
463.01	289.04
463.38	287.75
463.74	286.38
464.11	285.21
464.48	284.15
464.85	283.07
465.21	282.18
465.58	281.22
465.95	280.13
466.32	279.26
466.68	278.35
467.05	277.44
467.42	276.53
467.78	275.68
468.15	274.76
468.52	274.11
468.88	273.27
469.25	272.50
469.62	271.86
469.98	271.23
470.35	270.59
470.72	269.97
471.08	269.31
471.45	268.78
471.82	268.22
472.18	267.65
472.55	267.23
472.92	266.74
473.28	266.30
473.65	265.82
474.02	265.38
474.38	265.02
474.75	264.71
475.11	264.36
475.48	264.10
475.85	263.90
476.21	263.70
476.58	263.49
476.94	263.35
477.31	263.23
477.67	263.10
478.04	262.98
478.41	262.95
478.77	263.01
479.14	262.98
479.50	263.03
479.87	263.07
480.23	263.16
480.60	263.24
480.96	263.35
481.33	263.57
481.69	263.77
482.06	263.99
482.42	264.18
482.79	264.49
483.15	264.79
483.52	265.17
483.88	265.49
484.25	265.90
484.61	266.34
484.98	266.77
485.34	267.31
485.71	267.92
486.07	268.52
486.44	269.09
486.80	269.82
487.17	270.53
487.53	271.38
487.90	272.22
488.26	273.10
488.62	274.12
488.99	275.13
489.35	276.18
489.72	277.31
490.08	278.51
490.44	279.76
490.81	281.10
491.17	282.44
491.54	283.94
491.90	285.43
492.26	287.04
492.63	288.78
492.99	290.58
493.36	292.44
493.72	294.50
494.08	296.59
494.45	298.81
494.81	301.16
495.17	303.58
495.54	306.14
495.90	308.86
496.26	311.65
496.63	314.57
496.99	317.69
497.35	320.95
497.72	324.35
498.08	327.86
498.44	331.54
498.80	335.48
499.17	339.50
499.53	343.72
499.89	348.15
500.26	352.68
500.62	357.33
500.98	362.34
501.34	367.44
501.71	372.74
502.07	378.14
502.43	383.80
502.79	389.62
503.16	395.68
503.52	401.99
503.88	408.40
504.24	415.02
504.60	421.93
504.97	429.09
505.33	436.40
505.69	444.03
506.05	451.81
506.41	459.69
506.78	467.83
507.14	476.28
507.50	484.96
507.86	493.96
508.22	503.10
508.59	512.24
508.95	521.83
509.31	531.68
509.67	541.82
510.03	552.06
510.39	562.58
510.75	573.41
511.12	584.30
511.48	595.59
511.84	607.00
512.20	618.53
512.56	630.42
512.92	642.63
513.28	655.03
513.64	667.52
514.00	680.20
514.37	693.13
514.73	706.17
515.09	719.27
515.45	732.55
515.81	746.17
516.17	760.16
516.53	774.21
516.89	788.33
517.25	802.49
517.61	816.89
517.97	831.43
518.33	845.82
518.69	860.51
519.05	875.47
519.41	890.69
519.77	906.24
520.13	921.64
520.49	936.99
520.85	952.42
521.21	968.11
521.57	984.35
521.93	1000.16
522.29	1016.47
522.65	1032.64
523.01	1048.83
523.37	1064.84
523.73	1081.07
524.09	1097.13
524.45	1113.38
524.81	1130.00
525.17	1146.73
525.53	1163.52
525.89	1180.46
526.25	1197.22
526.61	1213.66
526.97	1230.35
527.33	1246.75
527.68	1263.31
528.04	1279.77
528.40	1296.29
528.76	1313.31
529.12	1329.80
529.48	1346.54
529.84	1362.58
530.20	1379.29
530.56	1396.30
530.91	1413.76
531.27	1430.41
531.63	1446.86
531.99	1463.48
532.35	1479.33
532.71	1495.19
533.07	1511.39
533.42	1527.17
533.78	1543.24
534.14	1559.50
534.50	1574.80
534.86	1590.65
535.21	1605.89
535.57	1621.83
535.93	1637.25
536.29	1652.02
536.65	1667.06
537.00	1681.85
537.36	1697.10
537.72	1711.51
538.08	1725.86
538.44	1739.48
538.79	1753.29
539.15	1766.90
539.51	1780.55
539.87	1794.92
540.22	1808.67
540.58	1822.39
540.94	1835.65
541.29	1848.42
541.65	1861.04
542.01	1874.27
542.37	1886.58
542.72	1898.94
543.08	1910.64
543.44	1922.99
543.79	1934.16
544.15	1945.10
544.51	1956.67
544.87	1967.63
545.22	1978.30
545.58	1988.41
545.94	1998.16
546.29	2008.11
546.65	2017.92
547.01	2027.13
547.36	2035.89
547.72	2044.40
548.07	2052.29
548.43	2060.63
548.79	2068.77
549.14	2076.18
549.50	2083.39
549.86	2090.96
550.21	2098.26
550.57	2105.40
550.92	2112.05
551.28	2119.12
551.64	2126.17
551.99	2132.63
552.35	2138.77
552.70	2145.08
553.06	2151.14
553.41	2157.50
553.77	2163.51
554.13	2169.67
554.48	2175.95
554.84	2181.18
555.19	2186.53
555.55	2191.71
555.90	2196.01
556.26	2200.95
556.61	2205.72
556.97	2209.97
557.32	2214.09
557.68	2218.16
558.03	2222.33
558.39	2226.04
558.74	2230.58
559.10	2234.47
559.45	2238.26
559.81	2242.57
560.16	2246.25
560.52	2249.53
560.87	2252.98
561.23	2255.73
561.58	2258.62
561.94	2261.09
562.29	2263.64
562.64	2266.11
563.00	2268.64
563.35	2272.12
563.71	2275.26
564.06	2278.42
564.42	2281.22
564.77	2283.90
565.12	2286.36
565.48	2288.40
565.83	2290.18
566.19	2291.49
566.54	2292.39
566.89	2293.49
567.25	2294.03
567.60	2295.37
567.96	2296.96
568.31	2297.77
568.66	2298.71
569.02	2299.31
569.37	2299.57
569.72	2300.46
570.08	2300.74
570.43	2300.86
570.78	2300.31
571.14	2298.80
571.49	2297.48
571.84	2297.34
572.20	2296.17
572.55	2295.08
572.90	2293.55
573.26	2292.28
573.61	2290.69
573.96	2288.93
574.31	2285.92
574.67	2282.93
575.02	2279.48
575.37	2276.15
575.72	2272.34
576.08	2269.04
576.43	2265.69
576.78	2262.09
577.13	2258.90
577.49	2255.68
577.84	2252.04
578.19	2248.32
578.54	2244.58
578.90	2240.48
579.25	2234.95
579.60	2229.92
579.95	2224.86
580.30	2219.87
580.66	2214.75
581.01	2209.87
581.36	2205.06
581.71	2200.84
582.06	2196.45
582.42	2191.78
582.77	2186.50
583.12	2182.00
583.47	2177.29
583.82	2172.34
584.17	2167.11
584.53	2161.70
584.88	2156.14
585.23	2150.50
585.58	2145.07
585.93	2139.67
586.28	2134.90
586.63	2129.86
586.98	2124.88
587.34	2120.29
587.69	2115.24
588.04	2109.90
588.39	2104.10
588.74	2097.64
589.09	2091.52
589.44	2084.56
589.79	2078.72
590.14	2073.15
590.49	2066.60
590.84	2060.17
591.19	2054.16
591.54	2047.56
591.89	2039.99
592.25	2033.27
592.60	2026.01
592.95	2018.41
593.30	2011.01
593.65	2003.46
594.00	1996.39
594.35	1989.14
594.70	1981.00
595.05	1973.82
595.40	1966.53
595.75	1959.04
596.10	1952.85
596.45	1946.13
596.80	1940.15
597.15	1933.48
597.50	1926.37
597.85	1919.93
598.19	1913.30
598.54	1906.06
598.89	1899.57
599.24	1893.81
599.59	1887.02
599.94	1880.91
600.29	1874.57
600.64	1868.01
600.99	1860.47
601.34	1853.61
601.69	1846.67
602.04	1839.77
602.39	1832.40
602.74	1825.47
603.08	1818.76
603.43	1811.97
603.78	1804.54
604.13	1797.26
604.48	1789.83
604.83	1783.01
605.18	1775.99
605.53	1767.93
605.87	1760.07
606.22	1752.82
606.57	1744.89
606.92	1737.62
607.27	1730.54
607.62	1723.58
607.96	1716.33
608.31	1709.83
608.66	1702.31
609.01	1694.74
609.36	1687.19
609.70	1679.14
610.05	1671.16
610.40	1663.42
610.75	1655.07
611.10	1647.46
611.44	1639.10
611.79	1631.27
612.14	1622.56
612.49	1613.49
612.83	1605.24
613.18	1597.06
613.53	1588.97
613.88	1580.38
614.22	1572.12
614.57	1563.53
614.92	1555.46
615.27	1547.89
615.61	1539.38
615.96	1531.29
616.31	1523.61
616.65	1516.28
617.00	1508.86
617.35	1501.32
617.70	1492.92
618.04	1484.41
618.39	1476.34
618.74	1468.82
619.08	1460.52
619.43	1453.04
619.78	1446.16
620.12	1438.94
620.47	1431.49
620.82	1423.28
621.16	1415.88
621.51	1408.34
621.85	1400.63
622.20	1392.16
622.55	1383.89
622.89	1376.07
623.24	1368.51
623.59	1361.09
623.93	1353.57
624.28	1346.32
624.62	1338.74
624.97	1331.66
625.32	1324.98
625.66	1317.92
626.01	1310.61
626.35	1303.00
626.70	1295.19
627.04	1287.42
627.39	1279.74
627.73	1272.24
628.08	1265.34
628.43	1258.08
628.77	1250.61
629.12	1243.06
629.46	1235.93
629.81	1228.53
630.15	1221.29
630.50	1213.82
630.84	1205.62
631.19	1197.67
631.53	1190.21
631.88	1182.66
632.22	1175.14
632.57	1167.86
632.91	1160.31
633.26	1152.92
633.60	1145.66
633.95	1138.61
634.29	1131.46
634.64	1124.77
634.98	1117.50
635.32	1110.31
635.67	1103.58
636.01	1096.99
636.36	1090.16
636.70	1083.60
637.05	1076.95
637.39	1070.50
637.73	1064.01
638.08	1058.19
638.42	1052.17
638.77	1045.66
639.11	1038.97
639.45	1032.53
639.80	1025.84
640.14	1019.41
640.49	1012.94
640.83	1006.51
641.17	1000.11
641.52	993.83
641.86	987.31
642.20	981.38
642.55	975.10
642.89	968.65
643.23	962.09
643.58	956.29
643.92	950.09
644.26	943.97
644.61	937.94
644.95	931.83
645.29	925.22
645.64	918.45
645.98	912.18
646.32	906.39
646.66	900.31
647.01	894.53
647.35	888.81
647.69	882.93
648.04	877.50
648.38	871.81
648.72	865.82
649.06	859.70
649.41	853.86
649.75	847.91
650.09	842.01
650.43	836.27
650.78	830.19
651.12	824.28
651.46	818.58
651.80	812.85
652.14	807.55
652.49	802.18
652.83	797.01
653.17	791.28
653.51	785.52
653.85	780.11
654.20	774.45
654.54	768.48
654.88	762.78
655.22	756.97
655.56	751.31
655.90	745.89
656.25	740.84
656.59	735.47
656.93	730.38
657.27	725.19
657.61	719.71
657.95	714.58
658.29	709.48
658.64	704.24
658.98	698.95
659.32	693.52
659.66	688.38
660.00	683.13
660.34	678.21
660.68	673.40
661.02	668.41
661.36	663.59
661.70	659.10
662.05	654.73
662.39	650.31
662.73	645.87
663.07	641.48
663.41	636.95
663.75	632.44
664.09	627.89
664.43	623.49
664.77	619.37
665.11	615.10
665.45	611.00
665.79	606.98
666.13	602.84
666.47	598.74
666.81	594.52
667.15	590.35
667.49	586.46
667.83	582.62
668.17	578.72
668.51	574.66
668.85	570.64
669.19	566.79
669.53	562.93
669.87	558.97
670.21	555.21
670.55	551.54
670.89	548.18
671.23	544.72
671.57	541.22
671.91	537.65
672.25	534.17
672.58	530.63
672.92	527.23
673.26	524.08
673.60	520.93
673.94	517.86
674.28	515.01
674.62	512.01
674.96	508.87
675.30	505.95
675.64	503.09
675.97	500.25
676.31	497.45
676.65	494.55
676.99	491.91
677.33	489.09
677.67	486.28
678.01	483.17
678.34	480.22
678.68	477.39
679.02	474.59
679.36	471.80
679.70	469.08
680.04	466.23
680.37	463.38
680.71	460.51
681.05	457.84
681.39	455.08
681.73	452.52
682.06	450.03
682.40	447.43
682.74	444.87
683.08	442.37
683.42	439.71
683.75	437.19
684.09	434.64
684.43	432.15
684.77	429.67
685.10	427.39
685.44	425.02
685.78	422.76
686.12	420.57
686.45	418.24
686.79	415.94
687.13	413.73
687.46	411.49
687.80	409.35
688.14	407.15
688.48	405.08
688.81	402.75
689.15	400.56
689.49	398.40
689.82	396.35
690.16	394.30
690.50	392.32
690.83	390.38
691.17	388.36
691.51	386.46
691.84	384.64
692.18	382.67
692.52	380.71
692.85	378.74
693.19	376.82
693.52	374.99
693.86	373.16
694.20	371.42
694.53	369.65
694.87	367.82
695.21	366.04
695.54	364.26
695.88	362.55
696.21	360.86
696.55	359.22
696.88	357.49
697.22	355.80
697.56	354.23
697.89	352.61
698.23	350.96
698.56	349.36
698.90	347.75
699.23	346.12
699.57	344.60
699.90	343.05
700.24	341.54
700.58	340.07
700.91	338.61
701.25	337.17
701.58	335.82
701.92	334.49
702.25	333.09
702.59	331.70
702.92	330.41
703.26	329.10
703.59	327.82
703.93	326.68
704.26	325.43
704.60	324.11
704.93	322.86
705.26	321.66
705.60	320.55
705.93	319.37
706.27	318.37
706.60	317.29
706.94	316.23
707.27	315.06
707.61	313.99
707.94	312.98
708.27	311.92
708.61	310.84
708.94	309.84
709.28	308.91
709.61	308.00
709.94	307.05
710.28	306.03
710.61	305.02
710.95	303.94
711.28	303.03
711.61	302.09
711.95	301.13
712.28	300.21
712.61	299.14
712.95	298.24
713.28	297.33
713.61	296.47
713.95	295.52
714.28	294.68
714.61	293.81
714.95	292.95
715.28	292.08
715.61	291.22
715.95	290.32
716.28	289.43
716.61	288.56
716.95	287.71
717.28	286.97
717.61	286.20
717.94	285.46
718.28	284.61
718.61	283.87
718.94	283.17
719.27	282.51
719.61	281.86
719.94	281.16
720.27	280.45
720.60	279.77
720.94	279.20
721.27	278.61
721.60	278.05
721.93	277.45
722.27	276.91
722.60	276.33
722.93	275.77
723.26	275.22
723.59	274.60
723.93	274.05
724.26	273.48
724.59	272.94
724.92	272.41
725.25	271.98
725.59	271.45
725.92	270.90
726.25	270.36
726.58	269.88
726.91	269.37
727.24	268.87
727.57	268.38
727.91	267.85
728.24	267.36
728.57	266.82
728.90	266.36
729.23	265.84
729.56	265.37
729.89	264.89
730.22	264.39
730.55	263.97
730.89	263.55
731.22	263.09
731.55	262.71
731.88	262.26
732.21	261.78
732.54	261.35
732.87	260.96
733.20	260.55
733.53	260.16
733.86	259.79
734.19	259.40
734.52	259.02
734.85	258.70
735.18	258.32
735.51	257.98
735.84	257.60
736.17	257.26
736.50	256.88
736.83	256.69
737.16	256.40
737.49	256.05
737.82	255.70
738.15	255.41
738.48	255.04
738.81	254.72
739.14	254.45
739.47	254.18
739.80	253.87
740.13	253.59
740.46	253.28
740.79	252.96
741.12	252.68
741.45	252.35
741.78	252.01
742.11	251.71
742.44	251.38
742.77	251.08
743.10	250.79
743.43	250.50
743.75	250.13
744.08	249.98
744.41	249.72
744.74	249.44
745.07	249.17
745.40	248.95
745.73	248.74
746.06	248.45
746.39	248.17
746.71	247.93
747.04	247.66
747.37	247.45
747.70	247.21
748.03	246.96
748.36	246.75
748.68	246.56
749.01	246.33
749.34	246.12
749.67	245.94
750.00	245.74
750.33	245.59
750.65	245.35
750.98	245.02
751.31	244.84
751.64	244.66
751.97	244.50
752.29	244.27
752.62	244.01
752.95	243.80
753.28	243.59
753.60	243.40
753.93	243.24
754.26	243.00
754.59	242.79
754.91	242.57
755.24	242.40
755.57	242.18
755.90	242.01
756.22	241.83
756.55	241.64
756.88	241.43
757.20	241.19
757.53	240.97
757.86	240.79
758.19	240.60
758.51	240.40
758.84	240.19
759.17	239.97
759.49	239.85
759.82	239.71
760.15	239.57
760.47	239.38
760.80	239.18
761.13	239.05
761.45	238.88
761.78	238.74
762.11	238.59
762.43	238.44
762.76	238.29
763.08	238.14
763.41	237.98
763.74	237.84
764.06	237.70
764.39	237.55
764.71	237.39
765.04	237.25
765.37	237.11
765.69	236.94
766.02	236.80
766.34	236.62
766.67	236.49
767.00	236.37
767.32	236.27
767.65	236.20
767.97	236.10
768.30	236.01
768.62	235.89
768.95	235.77
769.27	235.63
769.60	235.55
769.92	235.41
770.25	235.28
770.57	235.14
770.90	235.02
771.22	234.94
771.55	234.84
771.87	234.76
772.20	234.66
772.52	234.68
772.85	234.73
773.17	234.65
773.50	234.54
773.82	234.44
774.15	234.32
774.47	234.19
774.80	234.06
775.12	233.95
775.45	233.87
775.77	233.78
776.09	233.71
776.42	233.60
776.74	233.57
777.07	233.50
777.39	233.47
777.72	233.40
778.04	233.35
778.36	233.26
778.69	233.20
779.01	233.12
779.33	232.96
779.66	232.79
779.98	232.74
780.31	232.67
780.63	232.65
780.95	232.63
781.28	232.55
781.60	232.49
781.92	232.44
782.25	232.41
782.57	232.37
782.89	232.32
783.22	232.25
783.54	232.18
783.86	232.13
784.19	232.08
784.51	232.03
784.83	231.95
785.16	231.91
785.48	231.87
785.80	231.88
786.12	231.85
786.45	231.82
786.77	231.77
787.09	231.71
