SpectraSuite Data File
++++++++++++++++++++++++++++++++++++
Date: Fri Feb 01 15:21:25 EST 2013
User: group
Dark Spectrum Present: No
Reference Spectrum Present: No
Number of Sampled Component Spectra: 1
Spectrometers: USB2E7196
Integration Time (usec): 35000 (USB2E7196)
Spectra Averaged: 100 (USB2E7196)
Boxcar Smoothing: 10 (USB2E7196)
Correct for Electrical Dark: No (USB2E7196)
Strobe/Lamp Enabled: No (USB2E7196)
Correct for Detector Non-linearity: No (USB2E7196)
Correct for Stray Light: No (USB2E7196)
Number of Pixels in Processed Spectrum: 2048
>>>>>Begin Processed Spectral Data<<<<<
339.09	0.00
339.48	214.75
339.86	216.79
340.24	217.64
340.63	219.70
341.01	222.23
341.39	222.17
341.78	223.64
342.16	224.38
342.54	225.48
342.93	213.36
343.31	224.15
343.69	224.69
344.07	225.13
344.46	225.57
344.84	225.89
345.22	226.13
345.60	226.36
345.99	226.51
346.37	226.63
346.75	226.69
347.13	226.77
347.52	226.83
347.90	226.90
348.28	226.94
348.66	226.97
349.05	227.01
349.43	227.02
349.81	227.06
350.19	227.08
350.57	227.12
350.96	227.21
351.34	227.26
351.72	227.36
352.10	227.46
352.48	227.52
352.87	227.57
353.25	227.64
353.63	227.69
354.01	227.77
354.39	227.87
354.77	227.94
355.15	227.98
355.54	228.05
355.92	228.11
356.30	228.15
356.68	228.30
357.06	228.33
357.44	228.42
357.82	228.50
358.20	228.57
358.58	228.67
358.97	228.74
359.35	228.82
359.73	228.93
360.11	228.97
360.49	229.03
360.87	229.09
361.25	229.13
361.63	229.24
362.01	229.27
362.39	229.33
362.77	229.40
363.15	229.46
363.53	229.48
363.91	229.52
364.29	229.55
364.67	229.49
365.05	229.51
365.43	229.52
365.81	229.53
366.19	229.60
366.57	229.64
366.95	229.62
367.33	229.60
367.71	229.58
368.09	229.58
368.47	229.56
368.85	229.57
369.23	229.59
369.61	229.52
369.99	229.55
370.37	229.50
370.75	229.52
371.13	229.45
371.51	229.40
371.89	229.36
372.27	229.34
372.65	229.31
373.03	229.23
373.41	229.19
373.78	229.12
374.16	228.98
374.54	228.89
374.92	228.81
375.30	228.74
375.68	228.61
376.06	228.58
376.44	228.52
376.82	228.47
377.19	228.37
377.57	228.23
377.95	228.12
378.33	228.04
378.71	227.92
379.09	227.88
379.47	227.84
379.84	227.76
380.22	227.67
380.60	227.57
380.98	227.55
381.36	227.46
381.73	227.40
382.11	227.34
382.49	227.23
382.87	227.12
383.25	227.09
383.62	227.13
384.00	227.03
384.38	226.98
384.76	226.92
385.13	226.91
385.51	226.93
385.89	226.85
386.27	226.80
386.64	226.74
387.02	226.69
387.40	226.61
387.78	226.60
388.15	226.55
388.53	226.52
388.91	226.46
389.29	226.42
389.66	226.38
390.04	226.34
390.42	226.36
390.79	226.40
391.17	226.39
391.55	226.28
391.92	226.25
392.30	226.25
392.68	226.22
393.05	226.19
393.43	226.15
393.81	226.19
394.18	226.19
394.56	226.24
394.94	226.28
395.31	226.30
395.69	226.33
396.06	226.38
396.44	226.45
396.82	226.50
397.19	226.61
397.57	226.66
397.95	226.74
398.32	226.78
398.70	226.81
399.07	226.90
399.45	226.95
399.82	227.06
400.20	227.12
400.58	227.24
400.95	227.30
401.33	227.40
401.70	227.56
402.08	227.67
402.45	227.77
402.83	227.85
403.20	227.97
403.58	228.05
403.95	228.21
404.33	228.32
404.71	228.43
405.08	228.62
405.46	228.75
405.83	228.90
406.21	229.07
406.58	229.28
406.96	229.40
407.33	229.62
407.70	229.77
408.08	230.03
408.45	230.22
408.83	230.47
409.20	230.69
409.58	230.85
409.95	231.11
410.33	231.38
410.70	231.64
411.08	231.94
411.45	232.25
411.82	232.53
412.20	232.88
412.57	233.32
412.95	233.62
413.32	234.06
413.69	234.47
414.07	234.94
414.44	235.37
414.82	235.87
415.19	236.42
415.56	236.98
415.94	237.57
416.31	238.22
416.68	238.83
417.06	239.55
417.43	240.21
417.81	240.95
418.18	241.69
418.55	242.55
418.93	243.43
419.30	244.35
419.67	245.32
420.04	246.29
420.42	247.28
420.79	248.46
421.16	249.58
421.54	250.79
421.91	251.97
422.28	253.25
422.66	254.57
423.03	255.85
423.40	257.21
423.77	258.58
424.15	260.03
424.52	261.54
424.89	263.20
425.26	264.75
425.64	266.23
426.01	267.83
426.38	269.49
426.75	271.15
427.13	272.87
427.50	274.66
427.87	276.52
428.24	278.37
428.61	280.09
428.99	282.07
429.36	284.18
429.73	286.26
430.10	288.26
430.47	290.33
430.85	292.45
431.22	294.67
431.59	297.08
431.96	299.34
432.33	301.80
432.70	304.17
433.08	307.04
433.45	309.67
433.82	312.30
434.19	315.19
434.56	318.01
434.93	320.66
435.30	323.30
435.68	326.21
436.05	329.07
436.42	331.86
436.79	334.37
437.16	337.07
437.53	339.90
437.90	342.72
438.27	345.48
438.64	348.33
439.01	351.01
439.38	353.23
439.75	355.40
440.13	357.91
440.50	360.24
440.87	362.10
441.24	364.07
441.61	366.23
441.98	367.72
442.35	369.50
442.72	371.38
443.09	373.19
443.46	374.18
443.83	374.77
444.20	375.29
444.57	376.13
444.94	376.44
445.31	376.75
445.68	377.13
446.05	377.23
446.42	376.87
446.79	376.41
447.16	375.97
447.53	375.61
447.90	374.46
448.27	373.28
448.64	371.68
449.01	370.53
449.37	368.57
449.74	366.67
450.11	364.45
450.48	361.95
450.85	359.40
451.22	357.26
451.59	355.21
451.96	353.27
452.33	350.64
452.70	348.26
453.07	345.44
453.43	342.57
453.80	339.75
454.17	337.05
454.54	334.47
454.91	331.71
455.28	329.00
455.65	326.52
456.02	324.07
456.38	321.90
456.75	319.24
457.12	317.00
457.49	314.79
457.86	312.60
458.23	310.77
458.59	308.76
458.96	306.64
459.33	304.77
459.70	302.88
460.07	301.41
460.43	299.68
460.80	298.07
461.17	296.60
461.54	295.12
461.91	293.71
462.27	292.26
462.64	291.04
463.01	289.71
463.38	288.38
463.74	287.01
464.11	285.83
464.48	284.81
464.85	283.68
465.21	282.81
465.58	281.90
465.95	280.77
466.32	279.84
466.68	278.97
467.05	278.12
467.42	277.25
467.78	276.27
468.15	275.37
468.52	274.68
468.88	273.80
469.25	273.05
469.62	272.40
469.98	271.77
470.35	271.14
470.72	270.51
471.08	269.88
471.45	269.32
471.82	268.76
472.18	268.13
472.55	267.66
472.92	267.08
473.28	266.58
473.65	266.10
474.02	265.63
474.38	265.22
474.75	264.83
475.11	264.46
475.48	264.21
475.85	264.02
476.21	263.78
476.58	263.56
476.94	263.39
477.31	263.23
477.67	263.02
478.04	262.90
478.41	262.87
478.77	262.91
479.14	262.85
479.50	262.83
479.87	262.90
480.23	262.98
480.60	263.06
480.96	263.15
481.33	263.36
481.69	263.59
482.06	263.78
482.42	263.97
482.79	264.25
483.15	264.54
483.52	264.88
483.88	265.24
484.25	265.64
484.61	266.04
484.98	266.46
485.34	267.05
485.71	267.62
486.07	268.20
486.44	268.76
486.80	269.47
487.17	270.24
487.53	271.04
487.90	271.89
488.26	272.83
488.62	273.83
488.99	274.81
489.35	275.86
489.72	276.99
490.08	278.20
490.44	279.42
490.81	280.74
491.17	282.11
491.54	283.62
491.90	285.20
492.26	286.88
492.63	288.60
492.99	290.38
493.36	292.25
493.72	294.33
494.08	296.45
494.45	298.73
494.81	301.11
495.17	303.56
495.54	306.16
495.90	308.87
496.26	311.69
496.63	314.64
496.99	317.75
497.35	320.98
497.72	324.45
498.08	327.96
498.44	331.67
498.80	335.62
499.17	339.56
499.53	343.69
499.89	348.12
500.26	352.68
500.62	357.31
500.98	362.28
501.34	367.30
501.71	372.61
502.07	377.99
502.43	383.63
502.79	389.49
503.16	395.58
503.52	401.79
503.88	408.22
504.24	414.84
504.60	421.70
504.97	428.81
505.33	436.03
505.69	443.75
506.05	451.45
506.41	459.30
506.78	467.48
507.14	475.97
507.50	484.61
507.86	493.58
508.22	502.78
508.59	512.06
508.95	521.66
509.31	531.50
509.67	541.60
510.03	551.91
510.39	562.43
510.75	573.22
511.12	584.25
511.48	595.52
511.84	606.99
512.20	618.59
512.56	630.55
512.92	642.74
513.28	655.05
513.64	667.55
514.00	680.27
514.37	693.08
514.73	706.08
515.09	719.18
515.45	732.56
515.81	746.17
516.17	760.06
516.53	774.20
516.89	788.34
517.25	802.53
517.61	816.86
517.97	831.30
518.33	845.74
518.69	860.53
519.05	875.53
519.41	890.77
519.77	906.32
520.13	921.74
520.49	937.19
520.85	952.69
521.21	968.49
521.57	984.82
521.93	1000.84
522.29	1017.31
522.65	1033.58
523.01	1049.70
523.37	1065.74
523.73	1082.00
524.09	1098.07
524.45	1114.42
524.81	1131.12
525.17	1148.06
525.53	1165.15
525.89	1181.97
526.25	1198.82
526.61	1215.31
526.97	1232.08
527.33	1248.52
527.68	1265.35
528.04	1281.86
528.40	1298.52
528.76	1315.53
529.12	1332.03
529.48	1348.92
529.84	1364.95
530.20	1381.61
530.56	1398.80
530.91	1416.30
531.27	1433.20
531.63	1449.71
531.99	1466.38
532.35	1482.41
532.71	1498.28
533.07	1514.48
533.42	1530.44
533.78	1546.49
534.14	1562.78
534.50	1578.10
534.86	1593.99
535.21	1609.11
535.57	1625.30
535.93	1640.91
536.29	1655.94
536.65	1671.14
537.00	1685.98
537.36	1701.34
537.72	1716.01
538.08	1730.44
538.44	1744.24
538.79	1758.21
539.15	1772.17
539.51	1785.98
539.87	1800.53
540.22	1814.42
540.58	1828.29
540.94	1841.89
541.29	1854.93
541.65	1867.69
542.01	1881.10
542.37	1893.55
542.72	1906.13
543.08	1917.92
543.44	1930.30
543.79	1941.47
544.15	1952.56
544.51	1964.20
544.87	1975.25
545.22	1986.01
545.58	1996.31
545.94	2006.30
546.29	2016.10
546.65	2025.85
547.01	2035.12
547.36	2043.91
547.72	2052.45
548.07	2060.37
548.43	2068.56
548.79	2076.75
549.14	2084.30
549.50	2091.73
549.86	2099.48
550.21	2106.76
550.57	2113.86
550.92	2120.57
551.28	2127.73
551.64	2134.90
551.99	2141.49
552.35	2147.61
552.70	2153.89
553.06	2159.87
553.41	2166.12
553.77	2172.22
554.13	2178.47
554.48	2184.61
554.84	2189.77
555.19	2195.22
555.55	2200.27
555.90	2204.69
556.26	2209.39
556.61	2214.16
556.97	2218.33
557.32	2222.44
557.68	2226.60
558.03	2231.01
558.39	2234.76
558.74	2239.51
559.10	2243.30
559.45	2246.90
559.81	2251.32
560.16	2255.04
560.52	2258.26
560.87	2261.70
561.23	2264.31
561.58	2267.23
561.94	2269.78
562.29	2272.38
562.64	2274.91
563.00	2277.65
563.35	2281.11
563.71	2284.21
564.06	2287.34
564.42	2290.21
564.77	2292.67
565.12	2294.73
565.48	2296.56
565.83	2298.17
566.19	2299.32
566.54	2300.25
566.89	2301.34
567.25	2301.77
567.60	2303.08
567.96	2304.68
568.31	2305.46
568.66	2306.37
569.02	2306.77
569.37	2307.05
569.72	2307.68
570.08	2307.71
570.43	2307.48
570.78	2306.73
571.14	2305.20
571.49	2303.90
571.84	2303.50
572.20	2302.38
572.55	2301.41
572.90	2299.67
573.26	2298.33
573.61	2296.46
573.96	2294.42
574.31	2291.41
574.67	2288.38
575.02	2284.72
575.37	2281.25
575.72	2277.35
576.08	2274.10
576.43	2270.71
576.78	2266.84
577.13	2263.90
577.49	2260.69
577.84	2257.16
578.19	2253.41
578.54	2249.63
578.90	2245.25
579.25	2239.64
579.60	2234.49
579.95	2229.45
580.30	2224.32
580.66	2219.06
581.01	2214.17
581.36	2209.18
581.71	2204.95
582.06	2200.38
582.42	2195.82
582.77	2190.43
583.12	2185.77
583.47	2180.85
583.82	2175.72
584.17	2170.42
584.53	2164.64
584.88	2158.85
585.23	2153.05
585.58	2147.58
585.93	2142.14
586.28	2137.31
586.63	2132.20
586.98	2126.96
587.34	2122.17
587.69	2117.34
588.04	2111.91
588.39	2106.03
588.74	2099.60
589.09	2093.25
589.44	2086.43
589.79	2080.44
590.14	2074.79
590.49	2068.05
590.84	2061.68
591.19	2055.63
591.54	2049.16
591.89	2041.67
592.25	2034.89
592.60	2027.56
592.95	2019.81
593.30	2012.21
593.65	2004.59
594.00	1997.42
594.35	1990.21
594.70	1982.19
595.05	1974.65
595.40	1967.36
595.75	1959.89
596.10	1953.55
596.45	1946.76
596.80	1940.54
597.15	1933.75
597.50	1926.55
597.85	1920.22
598.19	1913.49
598.54	1906.49
598.89	1899.88
599.24	1893.93
599.59	1887.12
599.94	1880.94
600.29	1874.55
600.64	1868.14
600.99	1860.57
601.34	1853.67
601.69	1846.62
602.04	1839.47
602.39	1832.24
602.74	1825.31
603.08	1818.52
603.43	1811.80
603.78	1804.53
604.13	1797.16
604.48	1789.70
604.83	1782.87
605.18	1775.62
605.53	1767.55
605.87	1759.31
606.22	1751.94
606.57	1743.99
606.92	1736.68
607.27	1729.45
607.62	1722.40
607.96	1714.84
608.31	1708.21
608.66	1700.51
609.01	1692.90
609.36	1685.36
609.70	1677.28
610.05	1669.10
610.40	1661.29
610.75	1653.03
611.10	1645.25
611.44	1636.97
611.79	1629.05
612.14	1620.31
612.49	1611.43
612.83	1603.19
613.18	1595.12
613.53	1587.00
613.88	1578.53
614.22	1570.25
614.57	1561.75
614.92	1553.83
615.27	1546.25
615.61	1537.89
615.96	1530.00
616.31	1522.44
616.65	1515.08
617.00	1507.60
617.35	1500.04
617.70	1491.61
618.04	1482.99
618.39	1474.80
618.74	1467.12
619.08	1458.80
619.43	1451.27
619.78	1444.18
620.12	1436.88
620.47	1429.29
620.82	1421.22
621.16	1413.67
621.51	1406.05
621.85	1398.42
622.20	1389.88
622.55	1381.70
622.89	1373.75
623.24	1366.06
623.59	1358.72
623.93	1351.22
624.28	1343.98
624.62	1336.44
624.97	1329.48
625.32	1322.80
625.66	1315.82
626.01	1308.61
626.35	1301.18
626.70	1293.41
627.04	1285.71
627.39	1277.94
627.73	1270.44
628.08	1263.44
628.43	1256.17
628.77	1248.77
629.12	1241.05
629.46	1233.88
629.81	1226.41
630.15	1219.28
630.50	1211.92
630.84	1203.71
631.19	1195.84
631.53	1188.39
631.88	1180.83
632.22	1173.16
632.57	1165.71
632.91	1158.06
633.26	1150.75
633.60	1143.43
633.95	1136.42
634.29	1129.44
634.64	1122.80
634.98	1115.56
635.32	1108.49
635.67	1101.90
636.01	1095.26
636.36	1088.53
636.70	1082.07
637.05	1075.56
637.39	1069.06
637.73	1062.55
638.08	1056.78
638.42	1050.75
638.77	1044.29
639.11	1037.73
639.45	1031.41
639.80	1024.75
640.14	1018.36
640.49	1011.73
640.83	1005.49
641.17	999.22
641.52	992.87
641.86	986.43
642.20	980.65
642.55	974.36
642.89	967.83
643.23	961.36
643.58	955.60
643.92	949.37
644.26	943.24
644.61	937.26
644.95	931.27
645.29	924.57
645.64	917.83
645.98	911.49
646.32	905.73
646.66	899.56
647.01	893.79
647.35	888.20
647.69	882.39
648.04	876.79
648.38	870.99
648.72	864.93
649.06	858.86
649.41	852.92
649.75	846.85
650.09	840.93
650.43	835.14
650.78	828.90
651.12	822.90
651.46	817.24
651.80	811.50
652.14	806.03
652.49	800.66
652.83	795.47
653.17	789.78
653.51	783.92
653.85	778.62
654.20	772.98
654.54	766.89
654.88	761.15
655.22	755.32
655.56	749.65
655.90	744.23
656.25	739.00
656.59	733.65
656.93	728.59
657.27	723.43
657.61	718.01
657.95	712.97
658.29	707.97
658.64	702.73
658.98	697.43
659.32	692.00
659.66	686.80
660.00	681.50
660.34	676.48
660.68	671.67
661.02	666.68
661.36	661.98
661.70	657.52
662.05	653.18
662.39	648.84
662.73	644.41
663.07	640.08
663.41	635.63
663.75	631.12
664.09	626.55
664.43	622.25
664.77	618.12
665.11	613.90
665.45	609.77
665.79	605.69
666.13	601.57
666.47	597.52
666.81	593.34
667.15	589.24
667.49	585.43
667.83	581.63
668.17	577.67
668.51	573.64
668.85	569.68
669.19	565.84
669.53	561.97
669.87	558.05
670.21	554.40
670.55	550.78
670.89	547.38
671.23	544.02
671.57	540.45
671.91	536.96
672.25	533.47
672.58	530.00
672.92	526.61
673.26	523.52
673.60	520.33
673.94	517.27
674.28	514.44
674.62	511.49
674.96	508.35
675.30	505.47
675.64	502.56
675.97	499.78
676.31	496.99
676.65	494.09
676.99	491.43
677.33	488.56
677.67	485.71
678.01	482.64
678.34	479.65
678.68	476.82
679.02	473.97
679.36	471.26
679.70	468.51
680.04	465.73
680.37	462.81
680.71	460.04
681.05	457.47
681.39	454.72
681.73	452.09
682.06	449.63
682.40	447.09
682.74	444.59
683.08	442.02
683.42	439.36
683.75	436.88
684.09	434.33
684.43	431.89
684.77	429.46
685.10	427.18
685.44	424.88
685.78	422.59
686.12	420.37
686.45	418.09
686.79	415.83
687.13	413.62
687.46	411.46
687.80	409.31
688.14	407.05
688.48	405.01
688.81	402.73
689.15	400.55
689.49	398.44
689.82	396.41
690.16	394.33
690.50	392.45
690.83	390.45
691.17	388.45
691.51	386.50
691.84	384.68
692.18	382.74
692.52	380.76
692.85	378.89
693.19	377.01
693.52	375.18
693.86	373.39
694.20	371.62
694.53	369.84
694.87	368.00
695.21	366.21
695.54	364.39
695.88	362.65
696.21	360.91
696.55	359.21
696.88	357.50
697.22	355.89
697.56	354.25
697.89	352.63
698.23	351.00
698.56	349.39
698.90	347.76
699.23	346.10
699.57	344.54
699.90	343.01
700.24	341.44
700.58	339.87
700.91	338.30
701.25	336.86
701.58	335.50
701.92	334.18
702.25	332.78
702.59	331.41
702.92	330.13
703.26	328.87
703.59	327.58
703.93	326.41
704.26	325.16
704.60	323.86
704.93	322.61
705.26	321.42
705.60	320.30
705.93	319.16
706.27	318.14
706.60	317.12
706.94	316.02
707.27	314.92
707.61	313.87
707.94	312.93
708.27	311.85
708.61	310.75
708.94	309.74
709.28	308.84
709.61	307.85
709.94	306.92
710.28	305.86
710.61	304.89
710.95	303.77
711.28	302.88
711.61	301.95
711.95	301.04
712.28	300.09
712.61	299.09
712.95	298.17
713.28	297.28
713.61	296.35
713.95	295.43
714.28	294.62
714.61	293.79
714.95	292.90
715.28	292.06
715.61	291.20
715.95	290.32
716.28	289.43
716.61	288.62
716.95	287.79
717.28	287.06
717.61	286.27
717.94	285.58
718.28	284.76
718.61	284.01
718.94	283.28
719.27	282.64
719.61	282.00
719.94	281.37
720.27	280.68
720.60	280.07
720.94	279.47
721.27	278.85
721.60	278.26
721.93	277.71
722.27	277.15
722.60	276.64
722.93	276.07
723.26	275.54
723.59	274.98
723.93	274.45
724.26	273.92
724.59	273.44
724.92	272.93
725.25	272.45
725.59	271.95
725.92	271.49
726.25	270.99
726.58	270.55
726.91	270.02
727.24	269.57
727.57	269.10
727.91	268.57
728.24	268.11
728.57	267.60
728.90	267.13
729.23	266.64
729.56	266.23
729.89	265.77
730.22	265.30
730.55	264.82
730.89	264.36
731.22	263.93
731.55	263.44
731.88	263.00
732.21	262.53
732.54	262.10
732.87	261.65
733.20	261.24
733.53	260.78
733.86	260.41
734.19	259.97
734.52	259.58
734.85	259.28
735.18	258.88
735.51	258.52
735.84	258.14
736.17	257.79
736.50	257.35
736.83	257.13
737.16	256.79
737.49	256.50
737.82	256.17
738.15	255.83
738.48	255.50
738.81	255.17
739.14	254.87
739.47	254.55
739.80	254.24
740.13	253.94
740.46	253.59
740.79	253.26
741.12	252.95
741.45	252.63
741.78	252.28
742.11	251.99
742.44	251.69
742.77	251.38
743.10	251.07
743.43	250.77
743.75	250.42
744.08	250.26
744.41	249.98
744.74	249.70
745.07	249.42
745.40	249.22
745.73	248.99
746.06	248.69
746.39	248.46
746.71	248.19
747.04	247.90
747.37	247.68
747.70	247.45
748.03	247.24
748.36	247.03
748.68	246.78
749.01	246.53
749.34	246.27
749.67	246.07
750.00	245.88
750.33	245.74
750.65	245.49
750.98	245.15
751.31	244.92
751.64	244.70
751.97	244.55
752.29	244.30
752.62	244.06
752.95	243.89
753.28	243.63
753.60	243.44
753.93	243.28
754.26	243.05
754.59	242.81
754.91	242.57
755.24	242.35
755.57	242.18
755.90	242.02
756.22	241.87
756.55	241.66
756.88	241.46
757.20	241.19
757.53	240.99
757.86	240.85
758.19	240.67
758.51	240.52
758.84	240.29
759.17	240.10
759.49	239.93
759.82	239.79
760.15	239.65
760.47	239.48
760.80	239.31
761.13	239.19
761.45	239.05
761.78	238.92
762.11	238.80
762.43	238.64
762.76	238.49
763.08	238.33
763.41	238.19
763.74	238.06
764.06	237.93
764.39	237.81
764.71	237.68
765.04	237.53
765.37	237.38
765.69	237.26
766.02	237.14
766.34	237.02
766.67	236.87
767.00	236.81
767.32	236.77
767.65	236.69
767.97	236.56
768.30	236.43
768.62	236.33
768.95	236.20
769.27	236.10
769.60	235.99
769.92	235.90
770.25	235.80
770.57	235.66
770.90	235.59
771.22	235.47
771.55	235.36
771.87	235.30
772.20	235.21
772.52	235.21
772.85	235.25
773.17	235.15
773.50	235.06
773.82	234.88
774.15	234.73
774.47	234.61
774.80	234.55
775.12	234.47
775.45	234.40
775.77	234.33
776.09	234.30
776.42	234.19
776.74	234.12
777.07	234.00
777.39	233.96
777.72	233.87
778.04	233.81
778.36	233.73
778.69	233.61
779.01	233.51
779.33	233.36
779.66	233.18
779.98	233.11
780.31	233.01
780.63	233.01
780.95	232.98
781.28	232.90
781.60	232.81
781.92	232.75
782.25	232.65
782.57	232.57
782.89	232.48
783.22	232.42
783.54	232.34
783.86	232.33
784.19	232.23
784.51	232.21
784.83	232.14
785.16	232.09
785.48	232.07
785.80	232.05
786.12	232.01
786.45	231.92
786.77	231.86
787.09	231.84
