SpectraSuite Data File
++++++++++++++++++++++++++++++++++++
Date: Fri Feb 01 16:52:26 EST 2013
User: group
Dark Spectrum Present: No
Reference Spectrum Present: No
Number of Sampled Component Spectra: 1
Spectrometers: USB2E7196
Integration Time (usec): 35000 (USB2E7196)
Spectra Averaged: 100 (USB2E7196)
Boxcar Smoothing: 10 (USB2E7196)
Correct for Electrical Dark: No (USB2E7196)
Strobe/Lamp Enabled: No (USB2E7196)
Correct for Detector Non-linearity: No (USB2E7196)
Correct for Stray Light: No (USB2E7196)
Number of Pixels in Processed Spectrum: 2048
>>>>>Begin Processed Spectral Data<<<<<
339.09	0.00
339.48	213.45
339.86	214.90
340.24	216.24
340.63	217.49
341.01	220.64
341.39	219.35
341.78	222.02
342.16	222.80
342.54	222.66
342.93	211.79
343.31	222.51
343.69	223.05
344.07	223.52
344.46	223.94
344.84	224.35
345.22	224.55
345.60	224.86
345.99	225.00
346.37	225.11
346.75	225.24
347.13	225.26
347.52	225.33
347.90	225.40
348.28	225.42
348.66	225.47
349.05	225.47
349.43	225.52
349.81	225.54
350.19	225.56
350.57	225.61
350.96	225.66
351.34	225.73
351.72	225.79
352.10	225.86
352.48	225.91
352.87	225.92
353.25	226.00
353.63	226.05
354.01	226.16
354.39	226.24
354.77	226.31
355.15	226.41
355.54	226.44
355.92	226.46
356.30	226.52
356.68	226.65
357.06	226.72
357.44	226.78
357.82	226.87
358.20	226.94
358.58	227.01
358.97	227.07
359.35	227.15
359.73	227.25
360.11	227.30
360.49	227.34
360.87	227.39
361.25	227.44
361.63	227.53
362.01	227.54
362.39	227.57
362.77	227.64
363.15	227.65
363.53	227.72
363.91	227.75
364.29	227.79
364.67	227.70
365.05	227.70
365.43	227.71
365.81	227.71
366.19	227.73
366.57	227.80
366.95	227.76
367.33	227.72
367.71	227.71
368.09	227.72
368.47	227.75
368.85	227.73
369.23	227.75
369.61	227.64
369.99	227.68
370.37	227.65
370.75	227.64
371.13	227.60
371.51	227.52
371.89	227.51
372.27	227.48
372.65	227.41
373.03	227.36
373.41	227.34
373.78	227.27
374.16	227.19
374.54	227.09
374.92	227.07
375.30	227.02
375.68	226.94
376.06	226.87
376.44	226.75
376.82	226.70
377.19	226.61
377.57	226.59
377.95	226.49
378.33	226.44
378.71	226.34
379.09	226.31
379.47	226.28
379.84	226.21
380.22	226.13
380.60	226.08
380.98	225.98
381.36	225.92
381.73	225.84
382.11	225.82
382.49	225.77
382.87	225.72
383.25	225.67
383.62	225.73
384.00	225.65
384.38	225.63
384.76	225.59
385.13	225.58
385.51	225.53
385.89	225.46
386.27	225.46
386.64	225.41
387.02	225.34
387.40	225.27
387.78	225.25
388.15	225.22
388.53	225.21
388.91	225.23
389.29	225.16
389.66	225.17
390.04	225.09
390.42	225.08
390.79	225.04
391.17	225.01
391.55	224.88
391.92	224.90
392.30	224.92
392.68	224.91
393.05	224.88
393.43	224.90
393.81	224.90
394.18	224.85
394.56	224.89
394.94	224.93
395.31	224.98
395.69	225.00
396.06	225.01
396.44	225.05
396.82	225.04
397.19	225.10
397.57	225.13
397.95	225.23
398.32	225.25
398.70	225.31
399.07	225.39
399.45	225.43
399.82	225.50
400.20	225.54
400.58	225.60
400.95	225.65
401.33	225.74
401.70	225.91
402.08	225.97
402.45	226.06
402.83	226.12
403.20	226.20
403.58	226.31
403.95	226.45
404.33	226.56
404.71	226.68
405.08	226.88
405.46	226.97
405.83	227.07
406.21	227.22
406.58	227.38
406.96	227.53
407.33	227.71
407.70	227.86
408.08	228.14
408.45	228.34
408.83	228.55
409.20	228.71
409.58	228.87
409.95	229.16
410.33	229.41
410.70	229.69
411.08	229.97
411.45	230.25
411.82	230.52
412.20	230.84
412.57	231.27
412.95	231.54
413.32	231.97
413.69	232.38
414.07	232.82
414.44	233.29
414.82	233.76
415.19	234.31
415.56	234.89
415.94	235.42
416.31	236.11
416.68	236.75
417.06	237.51
417.43	238.19
417.81	238.92
418.18	239.67
418.55	240.53
418.93	241.42
419.30	242.29
419.67	243.24
420.04	244.23
420.42	245.24
420.79	246.46
421.16	247.63
421.54	248.85
421.91	250.02
422.28	251.25
422.66	252.59
423.03	253.92
423.40	255.22
423.77	256.61
424.15	257.97
424.52	259.44
424.89	261.01
425.26	262.55
425.64	264.01
426.01	265.63
426.38	267.25
426.75	268.93
427.13	270.67
427.50	272.49
427.87	274.32
428.24	276.12
428.61	277.85
428.99	279.80
429.36	281.87
429.73	283.96
430.10	285.98
430.47	287.98
430.85	290.03
431.22	292.21
431.59	294.56
431.96	296.80
432.33	299.32
432.70	301.68
433.08	304.48
433.45	307.10
433.82	309.70
434.19	312.58
434.56	315.35
434.93	317.93
435.30	320.51
435.68	323.38
436.05	326.20
436.42	328.96
436.79	331.42
437.16	334.10
437.53	336.89
437.90	339.69
438.27	342.45
438.64	345.23
439.01	347.83
439.38	350.09
439.75	352.25
440.13	354.64
440.50	356.90
440.87	358.70
441.24	360.64
441.61	362.74
441.98	364.18
442.35	365.98
442.72	367.85
443.09	369.65
443.46	370.63
443.83	371.24
444.20	371.72
444.57	372.52
444.94	372.79
445.31	373.09
445.68	373.42
446.05	373.50
446.42	373.15
446.79	372.76
447.16	372.29
447.53	372.01
447.90	370.92
448.27	369.81
448.64	368.24
449.01	367.11
449.37	365.13
449.74	363.30
450.11	361.07
450.48	358.64
450.85	356.14
451.22	354.05
451.59	352.04
451.96	350.18
452.33	347.61
452.70	345.31
453.07	342.56
453.43	339.67
453.80	336.86
454.17	334.24
454.54	331.69
454.91	329.03
455.28	326.35
455.65	323.88
456.02	321.47
456.38	319.39
456.75	316.75
457.12	314.54
457.49	312.33
457.86	310.19
458.23	308.34
458.59	306.29
458.96	304.21
459.33	302.38
459.70	300.49
460.07	299.01
460.43	297.29
460.80	295.66
461.17	294.27
461.54	292.85
461.91	291.46
462.27	290.09
462.64	288.83
463.01	287.50
463.38	286.19
463.74	284.87
464.11	283.73
464.48	282.74
464.85	281.67
465.21	280.83
465.58	279.94
465.95	278.90
466.32	278.02
466.68	277.17
467.05	276.26
467.42	275.38
467.78	274.52
468.15	273.68
468.52	273.07
468.88	272.23
469.25	271.46
469.62	270.84
469.98	270.19
470.35	269.57
470.72	268.98
471.08	268.39
471.45	267.84
471.82	267.29
472.18	266.67
472.55	266.26
472.92	265.74
473.28	265.28
473.65	264.81
474.02	264.39
474.38	264.01
474.75	263.72
475.11	263.41
475.48	263.16
475.85	262.91
476.21	262.68
476.58	262.50
476.94	262.35
477.31	262.14
477.67	261.96
478.04	261.84
478.41	261.78
478.77	261.81
479.14	261.73
479.50	261.79
479.87	261.89
480.23	261.94
480.60	261.98
480.96	262.05
481.33	262.27
481.69	262.44
482.06	262.62
482.42	262.81
482.79	263.07
483.15	263.33
483.52	263.72
483.88	264.06
484.25	264.46
484.61	264.88
484.98	265.36
485.34	265.96
485.71	266.56
486.07	267.16
486.44	267.72
486.80	268.46
487.17	269.12
487.53	269.90
487.90	270.77
488.26	271.69
488.62	272.68
488.99	273.65
489.35	274.71
489.72	275.83
490.08	277.04
490.44	278.28
490.81	279.62
491.17	280.96
491.54	282.43
491.90	283.93
492.26	285.60
492.63	287.34
492.99	289.07
493.36	290.95
493.72	292.99
494.08	295.09
494.45	297.33
494.81	299.70
495.17	302.14
495.54	304.72
495.90	307.44
496.26	310.20
496.63	313.18
496.99	316.26
497.35	319.56
497.72	322.96
498.08	326.49
498.44	330.14
498.80	334.07
499.17	338.13
499.53	342.31
499.89	346.66
500.26	351.15
500.62	355.85
500.98	360.81
501.34	365.85
501.71	371.14
502.07	376.57
502.43	382.17
502.79	388.00
503.16	394.06
503.52	400.28
503.88	406.72
504.24	413.27
504.60	420.14
504.97	427.22
505.33	434.50
505.69	442.16
506.05	449.95
506.41	457.76
506.78	465.85
507.14	474.18
507.50	482.88
507.86	491.83
508.22	500.92
508.59	510.07
508.95	519.57
509.31	529.32
509.67	539.34
510.03	549.58
510.39	560.04
510.75	570.73
511.12	581.63
511.48	592.85
511.84	604.29
512.20	615.66
512.56	627.48
512.92	639.57
513.28	651.85
513.64	664.19
514.00	676.84
514.37	689.67
514.73	702.69
515.09	715.64
515.45	728.83
515.81	742.28
516.17	756.03
516.53	770.03
516.89	784.08
517.25	798.11
517.61	812.32
517.97	826.63
518.33	840.84
518.69	855.39
519.05	870.14
519.41	885.02
519.77	900.35
520.13	915.60
520.49	930.79
520.85	946.00
521.21	961.49
521.57	977.43
521.93	992.95
522.29	1009.06
522.65	1025.02
523.01	1040.92
523.37	1056.74
523.73	1072.79
524.09	1088.63
524.45	1104.72
524.81	1121.05
525.17	1137.55
525.53	1154.18
525.89	1170.85
526.25	1187.41
526.61	1203.55
526.97	1220.04
527.33	1236.40
527.68	1252.73
528.04	1268.89
528.40	1285.11
528.76	1301.89
529.12	1318.25
529.48	1334.99
529.84	1350.81
530.20	1367.19
530.56	1383.98
530.91	1401.16
531.27	1417.63
531.63	1433.89
531.99	1450.07
532.35	1465.93
532.71	1481.72
533.07	1497.63
533.42	1513.25
533.78	1528.94
534.14	1545.02
534.50	1560.17
534.86	1575.60
535.21	1590.66
535.57	1606.42
535.93	1621.65
536.29	1636.25
536.65	1651.01
537.00	1665.43
537.36	1680.55
537.72	1694.91
538.08	1709.09
538.44	1722.70
538.79	1736.33
539.15	1749.61
539.51	1763.17
539.87	1777.09
540.22	1790.49
540.58	1804.12
540.94	1817.23
541.29	1830.04
541.65	1842.58
542.01	1855.59
542.37	1867.78
542.72	1879.91
543.08	1891.58
543.44	1903.80
543.79	1914.96
544.15	1925.88
544.51	1937.29
544.87	1948.09
545.22	1958.79
545.58	1968.99
545.94	1978.45
546.29	1988.20
546.65	1998.03
547.01	2007.21
547.36	2015.84
547.72	2024.23
548.07	2031.98
548.43	2040.07
548.79	2047.90
549.14	2055.26
549.50	2062.51
549.86	2070.05
550.21	2077.26
550.57	2084.25
550.92	2090.78
551.28	2097.67
551.64	2104.68
551.99	2111.08
552.35	2117.07
552.70	2123.12
553.06	2128.97
553.41	2135.40
553.77	2141.37
554.13	2147.46
554.48	2153.70
554.84	2159.38
555.19	2164.58
555.55	2169.84
555.90	2174.26
556.26	2179.30
556.61	2184.11
556.97	2188.40
557.32	2192.59
557.68	2196.82
558.03	2201.00
558.39	2204.75
558.74	2209.23
559.10	2213.17
559.45	2217.01
559.81	2221.47
560.16	2225.33
560.52	2228.64
560.87	2232.13
561.23	2234.88
561.58	2237.82
561.94	2240.34
562.29	2242.57
562.64	2245.44
563.00	2247.88
563.35	2251.46
563.71	2254.47
564.06	2257.62
564.42	2260.58
564.77	2263.37
565.12	2265.82
565.48	2268.03
565.83	2270.03
566.19	2271.60
566.54	2272.54
566.89	2273.74
567.25	2274.28
567.60	2275.65
567.96	2277.49
568.31	2278.37
568.66	2279.54
569.02	2280.36
569.37	2280.77
569.72	2281.85
570.08	2282.19
570.43	2282.53
570.78	2282.23
571.14	2280.96
571.49	2279.74
571.84	2279.49
572.20	2278.56
572.55	2277.56
572.90	2276.05
573.26	2274.86
573.61	2273.16
573.96	2271.68
574.31	2268.90
574.67	2266.27
575.02	2262.75
575.37	2259.33
575.72	2255.71
576.08	2252.53
576.43	2249.13
576.78	2245.74
577.13	2242.62
577.49	2239.51
577.84	2236.28
578.19	2232.55
578.54	2229.15
578.90	2225.13
579.25	2219.76
579.60	2214.91
579.95	2209.97
580.30	2205.18
580.66	2200.13
581.01	2195.38
581.36	2190.50
581.71	2186.55
582.06	2182.19
582.42	2178.12
582.77	2173.20
583.12	2168.88
583.47	2164.38
583.82	2159.66
584.17	2154.41
584.53	2149.09
584.88	2143.70
585.23	2137.96
585.58	2132.66
585.93	2127.39
586.28	2122.74
586.63	2117.90
586.98	2112.95
587.34	2108.46
587.69	2103.74
588.04	2098.59
588.39	2093.19
588.74	2086.84
589.09	2080.72
589.44	2074.03
589.79	2067.82
590.14	2062.36
590.49	2055.92
590.84	2049.63
591.19	2043.74
591.54	2037.44
591.89	2030.34
592.25	2023.74
592.60	2016.74
592.95	2009.38
593.30	2002.07
593.65	1994.67
594.00	1987.85
594.35	1980.66
594.70	1972.75
595.05	1965.82
595.40	1958.66
595.75	1951.28
596.10	1945.35
596.45	1938.86
596.80	1932.95
597.15	1926.61
597.50	1919.76
597.85	1913.37
598.19	1907.01
598.54	1900.13
598.89	1893.59
599.24	1887.72
599.59	1881.19
599.94	1875.10
600.29	1868.85
600.64	1862.39
600.99	1855.19
601.34	1848.43
601.69	1841.59
602.04	1834.96
602.39	1827.57
602.74	1820.92
603.08	1814.24
603.43	1807.55
603.78	1800.19
604.13	1792.95
604.48	1785.76
604.83	1778.83
605.18	1771.96
605.53	1763.98
605.87	1756.03
606.22	1748.96
606.57	1741.09
606.92	1733.59
607.27	1726.49
607.62	1719.69
607.96	1712.56
608.31	1705.99
608.66	1698.44
609.01	1690.91
609.36	1683.34
609.70	1675.27
610.05	1667.31
610.40	1659.75
610.75	1651.52
611.10	1644.01
611.44	1635.69
611.79	1627.86
612.14	1619.29
612.49	1610.24
612.83	1601.88
613.18	1593.64
613.53	1585.59
613.88	1577.20
614.22	1569.12
614.57	1560.45
614.92	1552.49
615.27	1544.95
615.61	1536.69
615.96	1528.63
616.31	1521.04
616.65	1513.67
617.00	1506.17
617.35	1498.59
617.70	1490.28
618.04	1481.80
618.39	1473.59
618.74	1466.11
619.08	1457.67
619.43	1450.11
619.78	1443.20
620.12	1436.06
620.47	1428.65
620.82	1420.50
621.16	1412.99
621.51	1405.39
621.85	1397.88
622.20	1389.32
622.55	1380.84
622.89	1372.92
623.24	1365.28
623.59	1357.83
623.93	1350.34
624.28	1343.18
624.62	1335.52
624.97	1328.33
625.32	1321.48
625.66	1314.39
626.01	1307.14
626.35	1299.82
626.70	1292.04
627.04	1284.23
627.39	1276.45
627.73	1269.07
628.08	1262.18
628.43	1255.03
628.77	1247.63
629.12	1239.96
629.46	1232.84
629.81	1225.46
630.15	1218.25
630.50	1210.88
630.84	1202.77
631.19	1194.78
631.53	1187.34
631.88	1179.87
632.22	1172.26
632.57	1164.99
632.91	1157.51
633.26	1150.09
633.60	1142.71
633.95	1135.53
634.29	1128.51
634.64	1121.80
634.98	1114.52
635.32	1107.35
635.67	1100.70
636.01	1094.13
636.36	1087.41
636.70	1080.81
637.05	1074.31
637.39	1067.84
637.73	1061.35
638.08	1055.46
638.42	1049.55
638.77	1043.05
639.11	1036.49
639.45	1030.13
639.80	1023.49
640.14	1017.22
640.49	1010.68
640.83	1004.36
641.17	998.21
641.52	991.93
641.86	985.62
642.20	979.78
642.55	973.44
642.89	967.02
643.23	960.47
643.58	954.78
643.92	948.65
644.26	942.63
644.61	936.60
644.95	930.64
645.29	924.14
645.64	917.38
645.98	911.16
646.32	905.22
646.66	899.25
647.01	893.55
647.35	887.71
647.69	881.89
648.04	876.43
648.38	870.69
648.72	864.77
649.06	858.66
649.41	852.76
649.75	846.80
650.09	840.83
650.43	835.15
650.78	828.92
651.12	823.04
651.46	817.41
651.80	811.70
652.14	806.31
652.49	800.92
652.83	795.78
653.17	789.99
653.51	784.33
653.85	778.88
654.20	773.27
654.54	767.29
654.88	761.61
655.22	755.54
655.56	749.83
655.90	744.33
656.25	739.07
656.59	733.77
656.93	728.72
657.27	723.55
657.61	718.00
657.95	712.97
658.29	707.85
658.64	702.51
658.98	697.16
659.32	691.68
659.66	686.49
660.00	681.16
660.34	676.28
660.68	671.31
661.02	666.25
661.36	661.44
661.70	656.98
662.05	652.50
662.39	648.27
662.73	643.76
663.07	639.40
663.41	635.02
663.75	630.47
664.09	625.86
664.43	621.47
664.77	617.43
665.11	613.10
665.45	608.95
665.79	604.86
666.13	600.78
666.47	596.67
666.81	592.52
667.15	588.42
667.49	584.52
667.83	580.78
668.17	576.90
668.51	572.86
668.85	568.79
669.19	564.98
669.53	561.16
669.87	557.33
670.21	553.61
670.55	549.90
670.89	546.56
671.23	543.20
671.57	539.71
671.91	536.15
672.25	532.70
672.58	529.19
672.92	525.78
673.26	522.58
673.60	519.45
673.94	516.33
674.28	513.44
674.62	510.51
674.96	507.40
675.30	504.52
675.64	501.61
675.97	498.85
676.31	496.03
676.65	493.15
676.99	490.44
677.33	487.59
677.67	484.84
678.01	481.75
678.34	478.76
678.68	475.90
679.02	473.14
679.36	470.42
679.70	467.73
680.04	464.98
680.37	462.15
680.71	459.35
681.05	456.77
681.39	454.04
681.73	451.37
682.06	448.85
682.40	446.30
682.74	443.78
683.08	441.24
683.42	438.65
683.75	436.17
684.09	433.67
684.43	431.21
684.77	428.71
685.10	426.38
685.44	424.11
685.78	421.80
686.12	419.51
686.45	417.22
686.79	414.90
687.13	412.78
687.46	410.65
687.80	408.52
688.14	406.28
688.48	404.21
688.81	402.00
689.15	399.76
689.49	397.59
689.82	395.50
690.16	393.42
690.50	391.46
690.83	389.49
691.17	387.50
691.51	385.60
691.84	383.77
692.18	381.88
692.52	379.88
692.85	377.91
693.19	376.07
693.52	374.19
693.86	372.37
694.20	370.52
694.53	368.70
694.87	366.80
695.21	365.01
695.54	363.21
695.88	361.48
696.21	359.84
696.55	358.17
696.88	356.50
697.22	354.80
697.56	353.17
697.89	351.53
698.23	349.93
698.56	348.30
698.90	346.71
699.23	345.06
699.57	343.46
699.90	341.92
700.24	340.36
700.58	338.83
700.91	337.35
701.25	335.88
701.58	334.48
701.92	333.13
702.25	331.77
702.59	330.40
702.92	329.10
703.26	327.77
703.59	326.47
703.93	325.23
704.26	324.01
704.60	322.72
704.93	321.41
705.26	320.11
705.60	318.90
705.93	317.73
706.27	316.64
706.60	315.62
706.94	314.56
707.27	313.44
707.61	312.40
707.94	311.41
708.27	310.33
708.61	309.30
708.94	308.30
709.28	307.32
709.61	306.31
709.94	305.34
710.28	304.32
710.61	303.31
710.95	302.22
711.28	301.31
711.61	300.33
711.95	299.47
712.28	298.54
712.61	297.58
712.95	296.63
713.28	295.77
713.61	294.88
713.95	293.96
714.28	293.11
714.61	292.25
714.95	291.38
715.28	290.51
715.61	289.59
715.95	288.74
716.28	287.87
716.61	287.07
716.95	286.26
717.28	285.49
717.61	284.75
717.94	284.03
718.28	283.21
718.61	282.53
718.94	281.78
719.27	281.13
719.61	280.53
719.94	279.87
720.27	279.14
720.60	278.47
720.94	277.87
721.27	277.26
721.60	276.70
721.93	276.09
722.27	275.55
722.60	275.00
722.93	274.43
723.26	273.89
723.59	273.34
723.93	272.77
724.26	272.26
724.59	271.72
724.92	271.19
725.25	270.71
725.59	270.16
725.92	269.63
726.25	269.09
726.58	268.59
726.91	268.10
727.24	267.64
727.57	267.18
727.91	266.65
728.24	266.17
728.57	265.66
728.90	265.25
729.23	264.76
729.56	264.36
729.89	263.92
730.22	263.43
730.55	263.00
730.89	262.55
731.22	262.10
731.55	261.66
731.88	261.24
732.21	260.79
732.54	260.40
732.87	260.00
733.20	259.64
733.53	259.26
733.86	258.90
734.19	258.52
734.52	258.18
734.85	257.85
735.18	257.43
735.51	257.05
735.84	256.64
736.17	256.31
736.50	255.91
736.83	255.64
737.16	255.33
737.49	254.97
737.82	254.66
738.15	254.34
738.48	253.99
738.81	253.69
739.14	253.40
739.47	253.03
739.80	252.72
740.13	252.40
740.46	252.04
740.79	251.70
741.12	251.37
741.45	251.03
741.78	250.69
742.11	250.44
742.44	250.13
742.77	249.87
743.10	249.54
743.43	249.20
743.75	248.82
744.08	248.65
744.41	248.37
744.74	248.07
745.07	247.72
745.40	247.49
745.73	247.23
746.06	246.93
746.39	246.68
746.71	246.40
747.04	246.12
747.37	245.86
747.70	245.56
748.03	245.31
748.36	245.07
748.68	244.83
749.01	244.57
749.34	244.34
749.67	244.10
750.00	243.87
750.33	243.73
750.65	243.55
750.98	243.22
751.31	243.00
751.64	242.75
751.97	242.63
752.29	242.38
752.62	242.13
752.95	241.91
753.28	241.68
753.60	241.47
753.93	241.30
754.26	241.11
754.59	240.92
754.91	240.72
755.24	240.50
755.57	240.30
755.90	240.07
756.22	239.86
756.55	239.63
756.88	239.43
757.20	239.19
757.53	238.95
757.86	238.79
758.19	238.63
758.51	238.49
758.84	238.27
759.17	238.11
759.49	237.93
759.82	237.80
760.15	237.63
760.47	237.48
760.80	237.28
761.13	237.15
761.45	237.00
761.78	236.83
762.11	236.70
762.43	236.56
762.76	236.46
763.08	236.33
763.41	236.24
763.74	236.10
764.06	235.97
764.39	235.85
764.71	235.66
765.04	235.51
765.37	235.39
765.69	235.26
766.02	235.12
766.34	235.01
766.67	234.91
767.00	234.84
767.32	234.79
767.65	234.76
767.97	234.65
768.30	234.52
768.62	234.46
768.95	234.30
769.27	234.16
769.60	234.10
769.92	233.98
770.25	233.85
770.57	233.74
770.90	233.64
771.22	233.57
771.55	233.51
771.87	233.42
772.20	233.31
772.52	233.34
772.85	233.39
773.17	233.28
773.50	233.15
773.82	233.04
774.15	232.88
774.47	232.74
774.80	232.64
775.12	232.59
775.45	232.48
775.77	232.46
776.09	232.42
776.42	232.31
776.74	232.25
777.07	232.17
777.39	232.11
777.72	232.07
778.04	231.98
778.36	231.90
778.69	231.86
779.01	231.80
779.33	231.65
779.66	231.49
779.98	231.44
780.31	231.38
780.63	231.38
780.95	231.35
781.28	231.28
781.60	231.21
781.92	231.13
782.25	231.08
782.57	231.02
782.89	230.95
783.22	230.88
783.54	230.84
783.86	230.82
784.19	230.79
784.51	230.74
784.83	230.69
785.16	230.62
785.48	230.55
785.80	230.54
786.12	230.49
786.45	230.42
786.77	230.41
787.09	230.38
