SpectraSuite Data File
++++++++++++++++++++++++++++++++++++
Date: Fri Feb 01 16:03:14 EST 2013
User: group
Dark Spectrum Present: No
Reference Spectrum Present: No
Number of Sampled Component Spectra: 1
Spectrometers: USB2E7196
Integration Time (usec): 35000 (USB2E7196)
Spectra Averaged: 100 (USB2E7196)
Boxcar Smoothing: 10 (USB2E7196)
Correct for Electrical Dark: No (USB2E7196)
Strobe/Lamp Enabled: No (USB2E7196)
Correct for Detector Non-linearity: No (USB2E7196)
Correct for Stray Light: No (USB2E7196)
Number of Pixels in Processed Spectrum: 2048
>>>>>Begin Processed Spectral Data<<<<<
339.09	0.00
339.48	214.60
339.86	216.59
340.24	217.42
340.63	218.83
341.01	221.24
341.39	221.18
341.78	222.86
342.16	223.66
342.54	224.52
342.93	212.92
343.31	223.69
343.69	224.21
344.07	224.64
344.46	225.08
344.84	225.46
345.22	225.75
345.60	226.01
345.99	226.19
346.37	226.35
346.75	226.45
347.13	226.48
347.52	226.59
347.90	226.68
348.28	226.68
348.66	226.71
349.05	226.72
349.43	226.79
349.81	226.82
350.19	226.86
350.57	226.93
350.96	227.02
351.34	227.08
351.72	227.19
352.10	227.29
352.48	227.36
352.87	227.41
353.25	227.48
353.63	227.57
354.01	227.63
354.39	227.72
354.77	227.77
355.15	227.88
355.54	227.91
355.92	227.98
356.30	228.05
356.68	228.20
357.06	228.30
357.44	228.35
357.82	228.47
358.20	228.56
358.58	228.64
358.97	228.69
359.35	228.78
359.73	228.87
360.11	228.93
360.49	228.97
360.87	229.02
361.25	229.08
361.63	229.16
362.01	229.23
362.39	229.25
362.77	229.34
363.15	229.39
363.53	229.43
363.91	229.45
364.29	229.50
364.67	229.40
365.05	229.40
365.43	229.43
365.81	229.42
366.19	229.49
366.57	229.52
366.95	229.50
367.33	229.50
367.71	229.48
368.09	229.48
368.47	229.44
368.85	229.45
369.23	229.42
369.61	229.37
369.99	229.34
370.37	229.34
370.75	229.33
371.13	229.20
371.51	229.13
371.89	229.07
372.27	229.02
372.65	229.00
373.03	228.94
373.41	228.83
373.78	228.75
374.16	228.62
374.54	228.53
374.92	228.46
375.30	228.37
375.68	228.29
376.06	228.22
376.44	228.15
376.82	228.06
377.19	227.98
377.57	227.89
377.95	227.81
378.33	227.72
378.71	227.57
379.09	227.55
379.47	227.49
379.84	227.39
380.22	227.28
380.60	227.23
380.98	227.16
381.36	227.14
381.73	227.06
382.11	226.99
382.49	226.92
382.87	226.83
383.25	226.77
383.62	226.81
384.00	226.74
384.38	226.73
384.76	226.71
385.13	226.68
385.51	226.61
385.89	226.52
386.27	226.46
386.64	226.46
387.02	226.38
387.40	226.36
387.78	226.33
388.15	226.29
388.53	226.21
388.91	226.16
389.29	226.10
389.66	226.09
390.04	226.05
390.42	226.05
390.79	226.07
391.17	226.04
391.55	225.95
391.92	225.93
392.30	225.94
392.68	225.93
393.05	225.93
393.43	225.93
393.81	225.98
394.18	225.98
394.56	225.97
394.94	226.02
395.31	226.04
395.69	226.10
396.06	226.16
396.44	226.20
396.82	226.26
397.19	226.36
397.57	226.41
397.95	226.49
398.32	226.50
398.70	226.62
399.07	226.71
399.45	226.77
399.82	226.85
400.20	226.89
400.58	226.94
400.95	227.01
401.33	227.15
401.70	227.30
402.08	227.43
402.45	227.56
402.83	227.69
403.20	227.82
403.58	227.92
403.95	228.07
404.33	228.22
404.71	228.34
405.08	228.52
405.46	228.65
405.83	228.81
406.21	228.99
406.58	229.12
406.96	229.28
407.33	229.45
407.70	229.66
408.08	229.97
408.45	230.21
408.83	230.43
409.20	230.64
409.58	230.82
409.95	231.09
410.33	231.38
410.70	231.63
411.08	231.93
411.45	232.27
411.82	232.56
412.20	232.90
412.57	233.33
412.95	233.62
413.32	234.04
413.69	234.44
414.07	234.87
414.44	235.32
414.82	235.81
415.19	236.38
415.56	236.89
415.94	237.39
416.31	238.03
416.68	238.65
417.06	239.37
417.43	240.06
417.81	240.81
418.18	241.59
418.55	242.41
418.93	243.27
419.30	244.14
419.67	245.07
420.04	246.03
420.42	247.02
420.79	248.19
421.16	249.37
421.54	250.55
421.91	251.73
422.28	252.98
422.66	254.29
423.03	255.58
423.40	256.91
423.77	258.35
424.15	259.75
424.52	261.22
424.89	262.79
425.26	264.32
425.64	265.72
426.01	267.27
426.38	268.90
426.75	270.58
427.13	272.28
427.50	274.09
427.87	275.93
428.24	277.74
428.61	279.46
428.99	281.36
429.36	283.43
429.73	285.51
430.10	287.51
430.47	289.55
430.85	291.63
431.22	293.90
431.59	296.22
431.96	298.45
432.33	300.92
432.70	303.28
433.08	306.06
433.45	308.72
433.82	311.35
434.19	314.27
434.56	317.06
434.93	319.73
435.30	322.31
435.68	325.18
436.05	328.01
436.42	330.81
436.79	333.33
437.16	336.06
437.53	338.90
437.90	341.70
438.27	344.48
438.64	347.37
439.01	349.94
439.38	352.18
439.75	354.38
440.13	356.89
440.50	359.23
440.87	361.10
441.24	363.06
441.61	365.17
441.98	366.60
442.35	368.37
442.72	370.21
443.09	372.03
443.46	373.08
443.83	373.72
444.20	374.24
444.57	375.05
444.94	375.34
445.31	375.70
445.68	376.08
446.05	376.11
446.42	375.66
446.79	375.23
447.16	374.81
447.53	374.43
447.90	373.27
448.27	372.11
448.64	370.54
449.01	369.35
449.37	367.35
449.74	365.46
450.11	363.22
450.48	360.77
450.85	358.29
451.22	356.10
451.59	354.06
451.96	352.10
452.33	349.52
452.70	347.16
453.07	344.28
453.43	341.37
453.80	338.65
454.17	336.00
454.54	333.51
454.91	330.79
455.28	328.17
455.65	325.67
456.02	323.23
456.38	321.09
456.75	318.42
457.12	316.22
457.49	314.01
457.86	311.84
458.23	309.99
458.59	307.90
458.96	305.82
459.33	303.92
459.70	302.09
460.07	300.62
460.43	298.87
460.80	297.27
461.17	295.87
461.54	294.34
461.91	292.94
462.27	291.47
462.64	290.24
463.01	288.90
463.38	287.61
463.74	286.28
464.11	285.12
464.48	284.12
464.85	283.01
465.21	282.19
465.58	281.28
465.95	280.19
466.32	279.31
466.68	278.44
467.05	277.56
467.42	276.68
467.78	275.72
468.15	274.87
468.52	274.21
468.88	273.31
469.25	272.58
469.62	271.95
469.98	271.27
470.35	270.60
470.72	269.96
471.08	269.33
471.45	268.75
471.82	268.20
472.18	267.61
472.55	267.22
472.92	266.66
473.28	266.21
473.65	265.76
474.02	265.27
474.38	264.91
474.75	264.60
475.11	264.24
475.48	263.96
475.85	263.69
476.21	263.44
476.58	263.28
476.94	263.10
477.31	262.91
477.67	262.76
478.04	262.66
478.41	262.62
478.77	262.65
479.14	262.60
479.50	262.58
479.87	262.65
480.23	262.70
480.60	262.78
480.96	262.87
481.33	263.06
481.69	263.31
482.06	263.46
482.42	263.68
482.79	263.92
483.15	264.26
483.52	264.63
483.88	265.02
484.25	265.35
484.61	265.79
484.98	266.23
485.34	266.80
485.71	267.39
486.07	267.96
486.44	268.54
486.80	269.25
487.17	270.02
487.53	270.85
487.90	271.70
488.26	272.65
488.62	273.63
488.99	274.59
489.35	275.65
489.72	276.78
490.08	278.02
490.44	279.30
490.81	280.62
491.17	282.01
491.54	283.48
491.90	285.07
492.26	286.75
492.63	288.49
492.99	290.26
493.36	292.16
493.72	294.22
494.08	296.34
494.45	298.62
494.81	301.00
495.17	303.45
495.54	306.04
495.90	308.72
496.26	311.57
496.63	314.56
496.99	317.70
497.35	320.99
497.72	324.33
498.08	327.89
498.44	331.56
498.80	335.50
499.17	339.57
499.53	343.74
499.89	348.11
500.26	352.65
500.62	357.35
500.98	362.35
501.34	367.48
501.71	372.83
502.07	378.29
502.43	383.89
502.79	389.74
503.16	395.81
503.52	402.11
503.88	408.52
504.24	415.19
504.60	422.12
504.97	429.27
505.33	436.67
505.69	444.36
506.05	452.13
506.41	460.00
506.78	468.20
507.14	476.64
507.50	485.39
507.86	494.44
508.22	503.63
508.59	512.78
508.95	522.31
509.31	532.09
509.67	542.13
510.03	552.48
510.39	563.03
510.75	573.81
511.12	584.75
511.48	596.03
511.84	607.42
512.20	618.91
512.56	630.84
512.92	643.00
513.28	655.33
513.64	667.87
514.00	680.71
514.37	693.64
514.73	706.76
515.09	719.82
515.45	733.15
515.81	746.69
516.17	760.78
516.53	774.86
516.89	789.02
517.25	803.22
517.61	817.57
517.97	831.97
518.33	846.44
518.69	861.21
519.05	876.18
519.41	891.49
519.77	907.06
520.13	922.52
520.49	937.83
520.85	953.30
521.21	968.95
521.57	985.01
521.93	1000.69
522.29	1017.05
522.65	1033.23
523.01	1049.46
523.37	1065.64
523.73	1081.69
524.09	1097.80
524.45	1114.09
524.81	1130.61
525.17	1147.44
525.53	1164.43
525.89	1181.26
526.25	1198.05
526.61	1214.37
526.97	1231.03
527.33	1247.42
527.68	1263.96
528.04	1280.43
528.40	1297.00
528.76	1313.92
529.12	1330.49
529.48	1347.36
529.84	1363.28
530.20	1379.98
530.56	1396.88
530.91	1414.17
531.27	1430.88
531.63	1447.30
531.99	1463.87
532.35	1479.77
532.71	1495.63
533.07	1511.76
533.42	1527.67
533.78	1543.66
534.14	1560.03
534.50	1575.31
534.86	1591.22
535.21	1606.36
535.57	1622.26
535.93	1637.68
536.29	1652.45
536.65	1667.43
537.00	1682.17
537.36	1697.53
537.72	1711.96
538.08	1726.33
538.44	1740.00
538.79	1753.79
539.15	1767.48
539.51	1781.22
539.87	1795.52
540.22	1809.10
540.58	1822.83
540.94	1836.21
541.29	1849.10
541.65	1861.72
542.01	1874.84
542.37	1887.03
542.72	1899.45
543.08	1911.24
543.44	1923.52
543.79	1934.70
544.15	1945.79
544.51	1957.34
544.87	1968.38
545.22	1979.09
545.58	1989.27
545.94	1999.06
546.29	2009.11
546.65	2019.05
547.01	2028.29
547.36	2037.07
547.72	2045.54
548.07	2053.26
548.43	2061.41
548.79	2069.36
549.14	2076.83
549.50	2084.20
549.86	2091.83
550.21	2099.12
550.57	2106.24
550.92	2112.82
551.28	2120.07
551.64	2127.13
551.99	2133.62
552.35	2139.55
552.70	2145.83
553.06	2151.77
553.41	2158.14
553.77	2164.04
554.13	2170.13
554.48	2176.30
554.84	2181.83
555.19	2187.28
555.55	2192.50
555.90	2196.92
556.26	2201.84
556.61	2206.63
556.97	2210.86
557.32	2214.91
557.68	2219.10
558.03	2223.32
558.39	2227.20
558.74	2231.80
559.10	2235.57
559.45	2239.30
559.81	2243.72
560.16	2247.48
560.52	2250.84
560.87	2254.21
561.23	2256.86
561.58	2259.69
561.94	2262.15
562.29	2264.51
562.64	2266.94
563.00	2269.60
563.35	2272.99
563.71	2275.99
564.06	2279.09
564.42	2281.78
564.77	2284.36
565.12	2286.67
565.48	2288.61
565.83	2290.41
566.19	2291.58
566.54	2292.53
566.89	2293.63
567.25	2294.08
567.60	2295.40
567.96	2297.02
568.31	2297.88
568.66	2298.93
569.02	2299.44
569.37	2299.84
569.72	2300.75
570.08	2301.16
570.43	2301.28
570.78	2300.74
571.14	2299.31
571.49	2298.07
571.84	2297.94
572.20	2296.99
572.55	2295.87
572.90	2294.41
573.26	2293.09
573.61	2291.51
573.96	2289.84
574.31	2286.94
574.67	2284.10
575.02	2280.44
575.37	2277.04
575.72	2273.22
576.08	2270.01
576.43	2266.78
576.78	2263.01
577.13	2259.85
577.49	2256.60
577.84	2253.07
578.19	2249.44
578.54	2245.79
578.90	2241.58
579.25	2236.10
579.60	2231.00
579.95	2225.98
580.30	2221.04
580.66	2215.84
581.01	2210.92
581.36	2205.89
581.71	2201.73
582.06	2197.17
582.42	2192.94
582.77	2187.74
583.12	2183.10
583.47	2178.37
583.82	2173.38
584.17	2168.16
584.53	2162.67
584.88	2157.04
585.23	2151.20
585.58	2145.69
585.93	2140.30
586.28	2135.61
586.63	2130.54
586.98	2125.54
587.34	2121.01
587.69	2116.10
588.04	2110.75
588.39	2105.13
588.74	2098.78
589.09	2092.58
589.44	2085.88
589.79	2079.81
590.14	2074.23
590.49	2067.79
590.84	2061.36
591.19	2055.25
591.54	2048.69
591.89	2041.21
592.25	2034.54
592.60	2027.36
592.95	2019.66
593.30	2012.36
593.65	2004.79
594.00	1997.83
594.35	1990.59
594.70	1982.47
595.05	1975.13
595.40	1967.98
595.75	1960.36
596.10	1954.17
596.45	1947.42
596.80	1941.24
597.15	1934.48
597.50	1927.47
597.85	1921.03
598.19	1914.49
598.54	1907.43
598.89	1900.88
599.24	1895.10
599.59	1888.32
599.94	1882.28
600.29	1876.00
600.64	1869.43
600.99	1861.92
601.34	1855.02
601.69	1848.10
602.04	1841.20
602.39	1833.92
602.74	1827.02
603.08	1820.35
603.43	1813.66
603.78	1806.36
604.13	1799.12
604.48	1791.82
604.83	1784.87
605.18	1777.90
605.53	1769.79
605.87	1761.88
606.22	1754.65
606.57	1746.62
606.92	1739.28
607.27	1731.96
607.62	1725.06
607.96	1717.69
608.31	1710.99
608.66	1703.39
609.01	1695.80
609.36	1688.22
609.70	1680.22
610.05	1672.12
610.40	1664.41
610.75	1656.04
611.10	1648.41
611.44	1640.03
611.79	1632.10
612.14	1623.38
612.49	1614.26
612.83	1605.89
613.18	1597.77
613.53	1589.67
613.88	1581.13
614.22	1572.87
614.57	1564.27
614.92	1556.27
615.27	1548.60
615.61	1540.33
615.96	1532.23
616.31	1524.60
616.65	1517.17
617.00	1509.54
617.35	1501.91
617.70	1493.61
618.04	1485.16
618.39	1476.88
618.74	1469.30
619.08	1460.98
619.43	1453.45
619.78	1446.48
620.12	1439.27
620.47	1431.69
620.82	1423.62
621.16	1416.31
621.51	1408.75
621.85	1401.05
622.20	1392.57
622.55	1384.37
622.89	1376.52
623.24	1368.96
623.59	1361.65
623.93	1354.26
624.28	1347.06
624.62	1339.49
624.97	1332.20
625.32	1325.38
625.66	1318.41
626.01	1311.12
626.35	1303.63
626.70	1295.88
627.04	1288.18
627.39	1280.44
627.73	1272.99
628.08	1266.06
628.43	1258.70
628.77	1251.18
629.12	1243.72
629.46	1236.53
629.81	1229.14
630.15	1221.87
630.50	1214.40
630.84	1206.06
631.19	1198.10
631.53	1190.64
631.88	1183.10
632.22	1175.56
632.57	1168.25
632.91	1160.69
633.26	1153.25
633.60	1145.90
633.95	1138.81
634.29	1131.84
634.64	1125.20
634.98	1117.86
635.32	1110.65
635.67	1104.09
636.01	1097.58
636.36	1090.82
636.70	1084.32
637.05	1077.72
637.39	1071.38
637.73	1064.89
638.08	1059.04
638.42	1052.97
638.77	1046.53
639.11	1039.96
639.45	1033.49
639.80	1026.76
640.14	1020.32
640.49	1013.86
640.83	1007.56
641.17	1001.21
641.52	994.77
641.86	988.27
642.20	982.42
642.55	976.09
642.89	969.47
643.23	962.92
643.58	957.07
643.92	950.81
644.26	944.65
644.61	938.59
644.95	932.55
645.29	925.98
645.64	919.30
645.98	912.95
646.32	907.13
646.66	901.16
647.01	895.38
647.35	889.65
647.69	883.85
648.04	878.24
648.38	872.53
648.72	866.59
649.06	860.57
649.41	854.70
649.75	848.73
650.09	842.90
650.43	837.16
650.78	831.03
651.12	825.11
651.46	819.41
651.80	813.59
652.14	808.22
652.49	802.90
652.83	797.77
653.17	791.99
653.51	786.22
653.85	780.74
654.20	775.11
654.54	769.14
654.88	763.40
655.22	757.59
655.56	751.86
655.90	746.38
656.25	741.12
656.59	735.75
656.93	730.68
657.27	725.47
657.61	719.93
657.95	714.82
658.29	709.69
658.64	704.47
658.98	699.23
659.32	693.75
659.66	688.52
660.00	683.17
660.34	678.27
660.68	673.39
661.02	668.37
661.36	663.63
661.70	659.12
662.05	654.73
662.39	650.33
662.73	645.92
663.07	641.54
663.41	637.05
663.75	632.53
664.09	627.93
664.43	623.51
664.77	619.43
665.11	615.19
665.45	611.08
665.79	607.01
666.13	602.82
666.47	598.68
666.81	594.46
667.15	590.27
667.49	586.32
667.83	582.52
668.17	578.60
668.51	574.49
668.85	570.47
669.19	566.65
669.53	562.88
669.87	558.96
670.21	555.31
670.55	551.71
670.89	548.29
671.23	544.89
671.57	541.36
671.91	537.83
672.25	534.34
672.58	530.78
672.92	527.40
673.26	524.24
673.60	521.11
673.94	518.03
674.28	515.19
674.62	512.29
674.96	509.12
675.30	506.26
675.64	503.36
675.97	500.59
676.31	497.70
676.65	494.72
676.99	491.97
677.33	489.07
677.67	486.26
678.01	483.17
678.34	480.17
678.68	477.37
679.02	474.52
679.36	471.71
679.70	469.04
680.04	466.26
680.37	463.39
680.71	460.58
681.05	457.90
681.39	455.11
681.73	452.44
682.06	449.97
682.40	447.39
682.74	444.84
683.08	442.24
683.42	439.62
683.75	437.05
684.09	434.56
684.43	432.09
684.77	429.64
685.10	427.31
685.44	425.03
685.78	422.71
686.12	420.45
686.45	418.19
686.79	415.87
687.13	413.68
687.46	411.52
687.80	409.37
688.14	407.18
688.48	405.16
688.81	402.91
689.15	400.74
689.49	398.64
689.82	396.58
690.16	394.54
690.50	392.64
690.83	390.74
691.17	388.73
691.51	386.80
691.84	384.94
692.18	383.03
692.52	381.02
692.85	379.10
693.19	377.28
693.52	375.44
693.86	373.61
694.20	371.83
694.53	370.04
694.87	368.20
695.21	366.42
695.54	364.56
695.88	362.84
696.21	361.13
696.55	359.41
696.88	357.70
697.22	356.08
697.56	354.41
697.89	352.77
698.23	351.15
698.56	349.55
698.90	347.92
699.23	346.31
699.57	344.77
699.90	343.24
700.24	341.66
700.58	340.15
700.91	338.65
701.25	337.22
701.58	335.81
701.92	334.48
702.25	333.11
702.59	331.71
702.92	330.39
703.26	329.05
703.59	327.74
703.93	326.53
704.26	325.28
704.60	323.99
704.93	322.73
705.26	321.49
705.60	320.34
705.93	319.19
706.27	318.10
706.60	317.06
706.94	315.98
707.27	314.89
707.61	313.81
707.94	312.80
708.27	311.64
708.61	310.57
708.94	309.51
709.28	308.52
709.61	307.58
709.94	306.63
710.28	305.61
710.61	304.68
710.95	303.63
711.28	302.70
711.61	301.75
711.95	300.82
712.28	299.86
712.61	298.82
712.95	297.88
713.28	297.00
713.61	296.05
713.95	295.16
714.28	294.30
714.61	293.44
714.95	292.57
715.28	291.78
715.61	290.90
715.95	290.04
716.28	289.20
716.61	288.39
716.95	287.60
717.28	286.85
717.61	286.05
717.94	285.33
718.28	284.49
718.61	283.80
718.94	283.12
719.27	282.48
719.61	281.88
719.94	281.23
720.27	280.53
720.60	279.92
720.94	279.26
721.27	278.64
721.60	278.07
721.93	277.45
722.27	276.87
722.60	276.32
722.93	275.75
723.26	275.20
723.59	274.64
723.93	274.06
724.26	273.52
724.59	273.00
724.92	272.48
725.25	271.99
725.59	271.48
725.92	270.95
726.25	270.42
726.58	269.94
726.91	269.45
727.24	268.98
727.57	268.54
727.91	268.05
728.24	267.62
728.57	267.12
728.90	266.70
729.23	266.22
729.56	265.80
729.89	265.32
730.22	264.86
730.55	264.45
730.89	263.99
731.22	263.56
731.55	263.08
731.88	262.64
732.21	262.22
732.54	261.78
732.87	261.38
733.20	260.94
733.53	260.55
733.86	260.16
734.19	259.77
734.52	259.38
734.85	259.08
735.18	258.64
735.51	258.28
735.84	257.88
736.17	257.53
736.50	257.11
736.83	256.85
737.16	256.49
737.49	256.13
737.82	255.78
738.15	255.43
738.48	255.10
738.81	254.78
739.14	254.43
739.47	254.12
739.80	253.80
740.13	253.51
740.46	253.15
740.79	252.82
741.12	252.49
741.45	252.12
741.78	251.75
742.11	251.47
742.44	251.12
742.77	250.86
743.10	250.57
743.43	250.26
743.75	249.92
744.08	249.79
744.41	249.48
744.74	249.20
745.07	248.91
745.40	248.66
745.73	248.41
746.06	248.17
746.39	247.89
746.71	247.62
747.04	247.37
747.37	247.12
747.70	246.89
748.03	246.66
748.36	246.46
748.68	246.21
749.01	245.95
749.34	245.74
749.67	245.51
750.00	245.25
750.33	245.14
750.65	244.94
750.98	244.59
751.31	244.42
751.64	244.21
751.97	244.06
752.29	243.86
752.62	243.62
752.95	243.43
753.28	243.24
753.60	243.02
753.93	242.83
754.26	242.66
754.59	242.45
754.91	242.26
755.24	242.04
755.57	241.89
755.90	241.73
756.22	241.55
756.55	241.32
756.88	241.15
757.20	240.89
757.53	240.70
757.86	240.54
758.19	240.38
758.51	240.21
758.84	240.01
759.17	239.83
759.49	239.67
759.82	239.53
760.15	239.37
760.47	239.26
760.80	239.10
761.13	239.01
761.45	238.85
761.78	238.69
762.11	238.57
762.43	238.41
762.76	238.27
763.08	238.13
763.41	238.03
763.74	237.89
764.06	237.79
764.39	237.66
764.71	237.51
765.04	237.34
765.37	237.20
765.69	237.07
766.02	236.93
766.34	236.79
766.67	236.64
767.00	236.54
767.32	236.48
767.65	236.41
767.97	236.26
768.30	236.13
768.62	236.02
768.95	235.88
769.27	235.76
769.60	235.65
769.92	235.50
770.25	235.38
770.57	235.28
770.90	235.19
771.22	235.07
771.55	234.99
771.87	234.92
772.20	234.83
772.52	234.81
772.85	234.86
773.17	234.78
773.50	234.71
773.82	234.61
774.15	234.43
774.47	234.29
774.80	234.16
775.12	234.10
775.45	233.98
775.77	233.92
776.09	233.85
776.42	233.78
776.74	233.77
777.07	233.69
777.39	233.63
777.72	233.51
778.04	233.43
778.36	233.37
778.69	233.30
779.01	233.23
779.33	233.07
779.66	232.89
779.98	232.83
780.31	232.74
780.63	232.69
780.95	232.67
781.28	232.58
781.60	232.54
781.92	232.45
782.25	232.45
782.57	232.39
782.89	232.32
783.22	232.23
783.54	232.13
783.86	232.09
784.19	232.01
784.51	231.98
784.83	231.93
785.16	231.85
785.48	231.75
785.80	231.75
786.12	231.73
786.45	231.65
786.77	231.63
787.09	231.57
