SpectraSuite Data File
++++++++++++++++++++++++++++++++++++
Date: Fri Feb 01 14:57:34 EST 2013
User: group
Dark Spectrum Present: No
Reference Spectrum Present: No
Number of Sampled Component Spectra: 1
Spectrometers: USB2E7196
Integration Time (usec): 35000 (USB2E7196)
Spectra Averaged: 100 (USB2E7196)
Boxcar Smoothing: 10 (USB2E7196)
Correct for Electrical Dark: No (USB2E7196)
Strobe/Lamp Enabled: No (USB2E7196)
Correct for Detector Non-linearity: No (USB2E7196)
Correct for Stray Light: No (USB2E7196)
Number of Pixels in Processed Spectrum: 2048
>>>>>Begin Processed Spectral Data<<<<<
339.09	0.00
339.48	215.13
339.86	217.11
340.24	218.25
340.63	219.50
341.01	221.53
341.39	222.48
341.78	223.10
342.16	224.41
342.54	225.40
342.93	213.39
343.31	224.15
343.69	224.70
344.07	225.13
344.46	225.56
344.84	225.94
345.22	226.18
345.60	226.42
345.99	226.61
346.37	226.74
346.75	226.83
347.13	226.89
347.52	226.96
347.90	227.02
348.28	227.06
348.66	227.11
349.05	227.07
349.43	227.10
349.81	227.16
350.19	227.22
350.57	227.28
350.96	227.35
351.34	227.46
351.72	227.54
352.10	227.64
352.48	227.68
352.87	227.74
353.25	227.82
353.63	227.84
354.01	227.93
354.39	228.01
354.77	228.11
355.15	228.19
355.54	228.25
355.92	228.30
356.30	228.40
356.68	228.50
357.06	228.60
357.44	228.66
357.82	228.72
358.20	228.77
358.58	228.87
358.97	228.94
359.35	229.03
359.73	229.10
360.11	229.14
360.49	229.20
360.87	229.25
361.25	229.32
361.63	229.44
362.01	229.48
362.39	229.50
362.77	229.51
363.15	229.56
363.53	229.57
363.91	229.62
364.29	229.63
364.67	229.55
365.05	229.57
365.43	229.59
365.81	229.56
366.19	229.62
366.57	229.63
366.95	229.64
367.33	229.62
367.71	229.57
368.09	229.59
368.47	229.59
368.85	229.53
369.23	229.50
369.61	229.42
369.99	229.40
370.37	229.40
370.75	229.41
371.13	229.34
371.51	229.33
371.89	229.27
372.27	229.24
372.65	229.21
373.03	229.14
373.41	229.09
373.78	229.04
374.16	228.92
374.54	228.83
374.92	228.74
375.30	228.63
375.68	228.58
376.06	228.53
376.44	228.41
376.82	228.37
377.19	228.31
377.57	228.22
377.95	228.12
378.33	228.01
378.71	227.87
379.09	227.84
379.47	227.75
379.84	227.66
380.22	227.57
380.60	227.50
380.98	227.43
381.36	227.34
381.73	227.26
382.11	227.23
382.49	227.15
382.87	227.08
383.25	227.05
383.62	227.08
384.00	226.96
384.38	226.93
384.76	226.87
385.13	226.87
385.51	226.81
385.89	226.75
386.27	226.69
386.64	226.66
387.02	226.57
387.40	226.51
387.78	226.46
388.15	226.41
388.53	226.37
388.91	226.32
389.29	226.31
389.66	226.31
390.04	226.25
390.42	226.24
390.79	226.23
391.17	226.19
391.55	226.08
391.92	226.09
392.30	226.11
392.68	226.09
393.05	226.04
393.43	226.07
393.81	226.08
394.18	226.10
394.56	226.13
394.94	226.19
395.31	226.21
395.69	226.27
396.06	226.30
396.44	226.33
396.82	226.40
397.19	226.50
397.57	226.53
397.95	226.62
398.32	226.68
398.70	226.75
399.07	226.82
399.45	226.87
399.82	226.94
400.20	226.99
400.58	227.11
400.95	227.18
401.33	227.30
401.70	227.47
402.08	227.59
402.45	227.71
402.83	227.85
403.20	228.00
403.58	228.14
403.95	228.30
404.33	228.48
404.71	228.62
405.08	228.80
405.46	229.00
405.83	229.16
406.21	229.31
406.58	229.53
406.96	229.74
407.33	229.98
407.70	230.21
408.08	230.48
408.45	230.70
408.83	230.97
409.20	231.16
409.58	231.34
409.95	231.61
410.33	231.89
410.70	232.17
411.08	232.46
411.45	232.76
411.82	233.11
412.20	233.46
412.57	233.90
412.95	234.19
413.32	234.57
413.69	234.96
414.07	235.41
414.44	235.86
414.82	236.34
415.19	236.87
415.56	237.44
415.94	237.99
416.31	238.63
416.68	239.24
417.06	239.99
417.43	240.69
417.81	241.48
418.18	242.23
418.55	243.04
418.93	243.89
419.30	244.74
419.67	245.63
420.04	246.58
420.42	247.56
420.79	248.76
421.16	249.94
421.54	251.14
421.91	252.35
422.28	253.61
422.66	254.93
423.03	256.19
423.40	257.51
423.77	258.91
424.15	260.32
424.52	261.83
424.89	263.45
425.26	264.97
425.64	266.37
426.01	267.96
426.38	269.60
426.75	271.33
427.13	273.04
427.50	274.85
427.87	276.73
428.24	278.55
428.61	280.29
428.99	282.22
429.36	284.31
429.73	286.37
430.10	288.37
430.47	290.43
430.85	292.57
431.22	294.79
431.59	297.14
431.96	299.39
432.33	301.85
432.70	304.20
433.08	307.05
433.45	309.72
433.82	312.35
434.19	315.25
434.56	318.00
434.93	320.71
435.30	323.36
435.68	326.22
436.05	329.08
436.42	331.85
436.79	334.36
437.16	337.03
437.53	339.90
437.90	342.71
438.27	345.41
438.64	348.24
439.01	350.85
439.38	353.11
439.75	355.29
440.13	357.77
440.50	360.08
440.87	361.94
441.24	363.83
441.61	365.97
441.98	367.47
442.35	369.28
442.72	371.15
443.09	372.97
443.46	373.98
443.83	374.56
444.20	375.07
444.57	375.86
444.94	376.19
445.31	376.53
445.68	376.89
446.05	377.00
446.42	376.65
446.79	376.22
447.16	375.76
447.53	375.44
447.90	374.28
448.27	373.16
448.64	371.56
449.01	370.47
449.37	368.50
449.74	366.63
450.11	364.40
450.48	361.90
450.85	359.36
451.22	357.22
451.59	355.20
451.96	353.27
452.33	350.68
452.70	348.32
453.07	345.49
453.43	342.62
453.80	339.86
454.17	337.18
454.54	334.67
454.91	331.96
455.28	329.24
455.65	326.79
456.02	324.35
456.38	322.20
456.75	319.54
457.12	317.29
457.49	315.07
457.86	312.89
458.23	310.99
458.59	308.90
458.96	306.81
459.33	304.98
459.70	303.15
460.07	301.65
460.43	299.94
460.80	298.27
461.17	296.78
461.54	295.27
461.91	293.82
462.27	292.33
462.64	291.07
463.01	289.73
463.38	288.39
463.74	286.98
464.11	285.81
464.48	284.79
464.85	283.64
465.21	282.73
465.58	281.80
465.95	280.74
466.32	279.82
466.68	278.91
467.05	277.94
467.42	277.00
467.78	276.04
468.15	275.14
468.52	274.50
468.88	273.64
469.25	272.87
469.62	272.24
469.98	271.60
470.35	270.93
470.72	270.37
471.08	269.73
471.45	269.19
471.82	268.61
472.18	267.96
472.55	267.56
472.92	267.03
473.28	266.52
473.65	266.11
474.02	265.68
474.38	265.32
474.75	265.03
475.11	264.65
475.48	264.39
475.85	264.13
476.21	263.88
476.58	263.71
476.94	263.52
477.31	263.33
477.67	263.14
478.04	263.05
478.41	262.96
478.77	262.96
479.14	262.88
479.50	262.88
479.87	263.00
480.23	263.04
480.60	263.09
480.96	263.19
481.33	263.32
481.69	263.50
482.06	263.65
482.42	263.83
482.79	264.12
483.15	264.44
483.52	264.82
483.88	265.15
484.25	265.53
484.61	265.96
484.98	266.43
485.34	266.95
485.71	267.49
486.07	268.05
486.44	268.62
486.80	269.32
487.17	270.02
487.53	270.79
487.90	271.61
488.26	272.56
488.62	273.52
488.99	274.49
489.35	275.53
489.72	276.64
490.08	277.83
490.44	279.02
490.81	280.32
491.17	281.66
491.54	283.12
491.90	284.62
492.26	286.24
492.63	287.95
492.99	289.75
493.36	291.69
493.72	293.73
494.08	295.84
494.45	298.10
494.81	300.46
495.17	302.88
495.54	305.45
495.90	308.06
496.26	310.87
496.63	313.79
496.99	316.87
497.35	320.10
497.72	323.49
498.08	327.01
498.44	330.63
498.80	334.54
499.17	338.55
499.53	342.69
499.89	347.06
500.26	351.54
500.62	356.16
500.98	361.03
501.34	366.09
501.71	371.38
502.07	376.76
502.43	382.39
502.79	388.18
503.16	394.27
503.52	400.53
503.88	406.87
504.24	413.56
504.60	420.45
504.97	427.59
505.33	434.84
505.69	442.51
506.05	450.35
506.41	458.20
506.78	466.37
507.14	474.84
507.50	483.58
507.86	492.53
508.22	501.66
508.59	510.86
508.95	520.42
509.31	530.26
509.67	540.37
510.03	550.59
510.39	561.06
510.75	571.80
511.12	582.80
511.48	594.18
511.84	605.57
512.20	617.10
512.56	629.02
512.92	641.25
513.28	653.59
513.64	666.01
514.00	678.73
514.37	691.67
514.73	704.73
515.09	717.67
515.45	731.06
515.81	744.74
516.17	758.68
516.53	772.78
516.89	786.92
517.25	801.12
517.61	815.66
517.97	830.19
518.33	844.66
518.69	859.38
519.05	874.36
519.41	889.54
519.77	905.12
520.13	920.57
520.49	936.00
520.85	951.56
521.21	967.40
521.57	983.68
521.93	999.56
522.29	1015.97
522.65	1032.29
523.01	1048.53
523.37	1064.64
523.73	1080.97
524.09	1097.18
524.45	1113.55
524.81	1130.19
525.17	1147.01
525.53	1164.03
525.89	1181.01
526.25	1197.90
526.61	1214.29
526.97	1231.04
527.33	1247.60
527.68	1264.34
528.04	1280.88
528.40	1297.61
528.76	1314.74
529.12	1331.37
529.48	1348.27
529.84	1364.36
530.20	1381.23
530.56	1398.35
530.91	1415.76
531.27	1432.58
531.63	1449.11
531.99	1465.81
532.35	1481.95
532.71	1497.94
533.07	1514.31
533.42	1530.24
533.78	1546.42
534.14	1562.78
534.50	1578.36
534.86	1594.18
535.21	1609.31
535.57	1625.42
535.93	1640.95
536.29	1655.80
536.65	1671.13
537.00	1686.10
537.36	1701.54
537.72	1715.98
538.08	1730.45
538.44	1744.40
538.79	1758.36
539.15	1772.22
539.51	1786.02
539.87	1800.36
540.22	1814.13
540.58	1827.99
540.94	1841.51
541.29	1854.52
541.65	1867.42
542.01	1880.69
542.37	1893.19
542.72	1905.92
543.08	1917.76
543.44	1930.15
543.79	1941.33
544.15	1952.19
544.51	1963.73
544.87	1974.74
545.22	1985.68
545.58	1995.97
545.94	2005.73
546.29	2015.71
546.65	2025.43
547.01	2034.77
547.36	2043.69
547.72	2052.19
548.07	2059.94
548.43	2068.12
548.79	2076.28
549.14	2083.69
549.50	2091.01
549.86	2098.76
550.21	2105.96
550.57	2113.05
550.92	2119.58
551.28	2126.78
551.64	2133.81
551.99	2140.29
552.35	2146.43
552.70	2152.41
553.06	2158.30
553.41	2164.72
553.77	2170.60
554.13	2176.82
554.48	2182.84
554.84	2188.12
555.19	2193.49
555.55	2198.55
555.90	2202.88
556.26	2207.52
556.61	2212.23
556.97	2216.37
557.32	2220.54
557.68	2224.58
558.03	2228.79
558.39	2232.58
558.74	2237.14
559.10	2240.98
559.45	2244.53
559.81	2248.85
560.16	2252.69
560.52	2255.89
560.87	2259.18
561.23	2261.88
561.58	2264.71
561.94	2267.09
562.29	2269.44
562.64	2272.07
563.00	2274.64
563.35	2278.14
563.71	2281.18
564.06	2284.38
564.42	2287.23
564.77	2289.37
565.12	2291.51
565.48	2293.34
565.83	2295.11
566.19	2296.24
566.54	2297.09
566.89	2298.08
567.25	2298.34
567.60	2299.63
567.96	2301.19
568.31	2301.93
568.66	2302.75
569.02	2303.20
569.37	2303.50
569.72	2304.13
570.08	2303.92
570.43	2303.85
570.78	2303.01
571.14	2301.31
571.49	2299.75
571.84	2299.16
572.20	2297.92
572.55	2296.77
572.90	2295.09
573.26	2293.33
573.61	2291.49
573.96	2289.42
574.31	2286.35
574.67	2283.31
575.02	2279.37
575.37	2275.79
575.72	2271.72
576.08	2268.32
576.43	2264.77
576.78	2260.93
577.13	2257.66
577.49	2254.48
577.84	2250.85
578.19	2247.10
578.54	2243.25
578.90	2238.84
579.25	2233.28
579.60	2228.16
579.95	2223.02
580.30	2217.69
580.66	2212.56
581.01	2207.48
581.36	2202.47
581.71	2198.10
582.06	2193.47
582.42	2188.97
582.77	2183.51
583.12	2178.73
583.47	2173.95
583.82	2168.58
584.17	2163.17
584.53	2157.58
584.88	2151.84
585.23	2145.82
585.58	2140.08
585.93	2134.58
586.28	2129.73
586.63	2124.57
586.98	2119.40
587.34	2114.64
587.69	2109.67
588.04	2104.15
588.39	2098.15
588.74	2091.61
589.09	2085.35
589.44	2078.44
589.79	2072.31
590.14	2066.53
590.49	2059.90
590.84	2053.36
591.19	2047.40
591.54	2040.84
591.89	2033.07
592.25	2026.08
592.60	2018.84
592.95	2011.15
593.30	2003.66
593.65	1995.84
594.00	1988.67
594.35	1981.26
594.70	1972.91
595.05	1965.60
595.40	1958.30
595.75	1950.91
596.10	1944.60
596.45	1937.75
596.80	1931.54
597.15	1924.74
597.50	1917.62
597.85	1911.19
598.19	1904.39
598.54	1897.30
598.89	1890.61
599.24	1884.81
599.59	1878.12
599.94	1871.85
600.29	1865.43
600.64	1858.86
600.99	1851.55
601.34	1844.63
601.69	1837.75
602.04	1830.89
602.39	1823.54
602.74	1816.71
603.08	1809.90
603.43	1803.18
603.78	1795.90
604.13	1788.69
604.48	1781.36
604.83	1774.51
605.18	1767.41
605.53	1759.36
605.87	1751.28
606.22	1744.00
606.57	1736.09
606.92	1728.75
607.27	1721.58
607.62	1714.69
607.96	1707.31
608.31	1700.60
608.66	1692.92
609.01	1685.34
609.36	1677.82
609.70	1669.82
610.05	1661.68
610.40	1654.03
610.75	1645.71
611.10	1637.99
611.44	1629.61
611.79	1621.76
612.14	1613.10
612.49	1604.09
612.83	1595.81
613.18	1587.78
613.53	1579.70
613.88	1571.25
614.22	1562.94
614.57	1554.44
614.92	1546.42
615.27	1538.95
615.61	1530.59
615.96	1522.69
616.31	1515.01
616.65	1507.67
617.00	1500.22
617.35	1492.65
617.70	1484.24
618.04	1475.66
618.39	1467.57
618.74	1459.99
619.08	1451.68
619.43	1444.25
619.78	1437.38
620.12	1430.13
620.47	1422.53
620.82	1414.43
621.16	1407.09
621.51	1399.50
621.85	1391.95
622.20	1383.51
622.55	1375.30
622.89	1367.63
623.24	1360.04
623.59	1352.79
623.93	1345.33
624.28	1338.00
624.62	1330.47
624.97	1323.38
625.32	1316.77
625.66	1309.71
626.01	1302.45
626.35	1294.98
626.70	1287.21
627.04	1279.40
627.39	1271.90
627.73	1264.72
628.08	1257.82
628.43	1250.35
628.77	1243.02
629.12	1235.39
629.46	1228.26
629.81	1220.79
630.15	1213.62
630.50	1206.27
630.84	1198.05
631.19	1190.27
631.53	1182.88
631.88	1175.38
632.22	1167.81
632.57	1160.54
632.91	1153.07
633.26	1145.78
633.60	1138.49
633.95	1131.58
634.29	1124.65
634.64	1117.94
634.98	1110.48
635.32	1103.45
635.67	1097.03
636.01	1090.49
636.36	1083.83
636.70	1077.38
637.05	1070.93
637.39	1064.55
637.73	1058.13
638.08	1052.43
638.42	1046.47
638.77	1040.07
639.11	1033.47
639.45	1027.16
639.80	1020.53
640.14	1014.15
640.49	1007.65
640.83	1001.41
641.17	995.09
641.52	988.88
641.86	982.57
642.20	976.88
642.55	970.66
642.89	964.23
643.23	957.80
643.58	952.00
643.92	945.79
644.26	939.70
644.61	933.67
644.95	927.59
645.29	920.91
645.64	914.15
645.98	907.89
646.32	902.20
646.66	896.29
647.01	890.58
647.35	884.93
647.69	879.14
648.04	873.74
648.38	867.85
648.72	861.81
649.06	855.61
649.41	849.71
649.75	843.62
650.09	837.78
650.43	831.90
650.78	825.74
651.12	819.86
651.46	814.19
651.80	808.44
652.14	803.13
652.49	797.81
652.83	792.67
653.17	786.96
653.51	781.14
653.85	775.79
654.20	770.11
654.54	764.10
654.88	758.42
655.22	752.52
655.56	747.06
655.90	741.62
656.25	736.50
656.59	731.18
656.93	726.17
657.27	720.94
657.61	715.66
657.95	710.61
658.29	705.59
658.64	700.43
658.98	695.18
659.32	689.79
659.66	684.63
660.00	679.34
660.34	674.43
660.68	669.62
661.02	664.57
661.36	659.89
661.70	655.51
662.05	651.17
662.39	646.84
662.73	642.33
663.07	638.07
663.41	633.60
663.75	629.11
664.09	624.59
664.43	620.27
664.77	616.16
665.11	611.99
665.45	607.91
665.79	603.85
666.13	599.65
666.47	595.53
666.81	591.39
667.15	587.33
667.49	583.51
667.83	579.79
668.17	575.93
668.51	571.92
668.85	567.94
669.19	564.12
669.53	560.32
669.87	556.51
670.21	552.83
670.55	549.23
670.89	545.82
671.23	542.41
671.57	538.96
671.91	535.49
672.25	532.05
672.58	528.55
672.92	525.09
673.26	522.08
673.60	518.97
673.94	515.89
674.28	513.02
674.62	510.07
674.96	506.95
675.30	504.04
675.64	501.15
675.97	498.40
676.31	495.60
676.65	492.69
676.99	490.00
677.33	487.15
677.67	484.32
678.01	481.26
678.34	478.34
678.68	475.51
679.02	472.65
679.36	469.82
679.70	467.08
680.04	464.38
680.37	461.47
680.71	458.65
681.05	456.09
681.39	453.38
681.73	450.79
682.06	448.23
682.40	445.68
682.74	443.22
683.08	440.68
683.42	438.07
683.75	435.61
684.09	433.09
684.43	430.61
684.77	428.22
685.10	425.95
685.44	423.66
685.78	421.36
686.12	419.19
686.45	417.01
686.79	414.74
687.13	412.58
687.46	410.41
687.80	408.31
688.14	406.07
688.48	404.04
688.81	401.81
689.15	399.76
689.49	397.67
689.82	395.57
690.16	393.47
690.50	391.54
690.83	389.63
691.17	387.65
691.51	385.76
691.84	383.94
692.18	381.99
692.52	380.06
692.85	378.16
693.19	376.24
693.52	374.39
693.86	372.64
694.20	370.85
694.53	369.12
694.87	367.33
695.21	365.62
695.54	363.78
695.88	362.05
696.21	360.32
696.55	358.62
696.88	356.92
697.22	355.32
697.56	353.70
697.89	352.06
698.23	350.52
698.56	348.92
698.90	347.31
699.23	345.67
699.57	344.13
699.90	342.60
700.24	341.08
700.58	339.56
700.91	338.04
701.25	336.63
701.58	335.24
701.92	333.87
702.25	332.48
702.59	331.15
702.92	329.80
703.26	328.52
703.59	327.28
703.93	326.14
704.26	324.89
704.60	323.58
704.93	322.32
705.26	321.04
705.60	319.88
705.93	318.75
706.27	317.70
706.60	316.65
706.94	315.59
707.27	314.45
707.61	313.41
707.94	312.43
708.27	311.34
708.61	310.28
708.94	309.27
709.28	308.30
709.61	307.34
709.94	306.42
710.28	305.39
710.61	304.40
710.95	303.31
711.28	302.40
711.61	301.51
711.95	300.56
712.28	299.64
712.61	298.69
712.95	297.79
713.28	296.95
713.61	296.06
713.95	295.19
714.28	294.38
714.61	293.49
714.95	292.64
715.28	291.78
715.61	290.92
715.95	290.11
716.28	289.24
716.61	288.41
716.95	287.59
717.28	286.90
717.61	286.12
717.94	285.41
718.28	284.58
718.61	283.83
718.94	283.15
719.27	282.48
719.61	281.84
719.94	281.18
720.27	280.47
720.60	279.81
720.94	279.18
721.27	278.57
721.60	278.03
721.93	277.44
722.27	276.93
722.60	276.40
722.93	275.82
723.26	275.32
723.59	274.77
723.93	274.25
724.26	273.69
724.59	273.15
724.92	272.64
725.25	272.21
725.59	271.72
725.92	271.22
726.25	270.72
726.58	270.19
726.91	269.69
727.24	269.18
727.57	268.70
727.91	268.22
728.24	267.77
728.57	267.31
728.90	266.88
729.23	266.36
729.56	265.89
729.89	265.43
730.22	264.94
730.55	264.47
730.89	263.99
731.22	263.52
731.55	263.11
731.88	262.64
732.21	262.21
732.54	261.75
732.87	261.34
733.20	260.96
733.53	260.65
733.86	260.26
734.19	259.90
734.52	259.51
734.85	259.20
735.18	258.80
735.51	258.43
735.84	258.06
736.17	257.70
736.50	257.32
736.83	257.11
737.16	256.79
737.49	256.45
737.82	256.13
738.15	255.79
738.48	255.48
738.81	255.17
739.14	254.81
739.47	254.51
739.80	254.18
740.13	253.87
740.46	253.49
740.79	253.15
741.12	252.87
741.45	252.57
741.78	252.19
742.11	251.90
742.44	251.54
742.77	251.24
743.10	250.89
743.43	250.61
743.75	250.20
744.08	250.04
744.41	249.78
744.74	249.49
745.07	249.22
745.40	248.94
745.73	248.73
746.06	248.47
746.39	248.21
746.71	247.97
747.04	247.71
747.37	247.48
747.70	247.26
748.03	247.00
748.36	246.78
748.68	246.54
749.01	246.30
749.34	246.12
749.67	245.88
750.00	245.73
750.33	245.55
750.65	245.37
750.98	245.00
751.31	244.78
751.64	244.60
751.97	244.43
752.29	244.22
752.62	243.97
752.95	243.78
753.28	243.55
753.60	243.32
753.93	243.14
754.26	242.96
754.59	242.75
754.91	242.55
755.24	242.32
755.57	242.15
755.90	241.96
756.22	241.76
756.55	241.59
756.88	241.38
757.20	241.19
757.53	240.99
757.86	240.84
758.19	240.70
758.51	240.52
758.84	240.30
759.17	240.14
759.49	239.97
759.82	239.85
760.15	239.72
760.47	239.57
760.80	239.37
761.13	239.22
761.45	239.07
761.78	238.95
762.11	238.83
762.43	238.68
762.76	238.57
763.08	238.46
763.41	238.30
763.74	238.19
764.06	238.06
764.39	237.89
764.71	237.76
765.04	237.62
765.37	237.45
765.69	237.35
766.02	237.21
766.34	237.09
766.67	236.91
767.00	236.80
767.32	236.71
767.65	236.69
767.97	236.57
768.30	236.43
768.62	236.29
768.95	236.19
769.27	236.08
769.60	235.93
769.92	235.81
770.25	235.68
770.57	235.53
770.90	235.42
771.22	235.30
771.55	235.18
771.87	235.07
772.20	234.99
772.52	234.98
772.85	234.99
773.17	234.86
773.50	234.79
773.82	234.68
774.15	234.56
774.47	234.39
774.80	234.26
775.12	234.16
775.45	234.07
775.77	233.96
776.09	233.89
776.42	233.79
776.74	233.70
777.07	233.66
777.39	233.56
777.72	233.45
778.04	233.42
778.36	233.34
778.69	233.29
779.01	233.21
779.33	233.04
779.66	232.88
779.98	232.88
780.31	232.83
780.63	232.79
780.95	232.74
781.28	232.66
781.60	232.63
781.92	232.58
782.25	232.52
782.57	232.46
782.89	232.36
783.22	232.33
783.54	232.26
783.86	232.20
784.19	232.15
784.51	232.14
784.83	232.06
785.16	232.02
785.48	231.97
785.80	231.95
786.12	231.91
786.45	231.88
786.77	231.80
787.09	231.76
