SpectraSuite Data File
++++++++++++++++++++++++++++++++++++
Date: Fri Feb 01 15:52:42 EST 2013
User: group
Dark Spectrum Present: No
Reference Spectrum Present: No
Number of Sampled Component Spectra: 1
Spectrometers: USB2E7196
Integration Time (usec): 35000 (USB2E7196)
Spectra Averaged: 100 (USB2E7196)
Boxcar Smoothing: 10 (USB2E7196)
Correct for Electrical Dark: No (USB2E7196)
Strobe/Lamp Enabled: No (USB2E7196)
Correct for Detector Non-linearity: No (USB2E7196)
Correct for Stray Light: No (USB2E7196)
Number of Pixels in Processed Spectrum: 2048
>>>>>Begin Processed Spectral Data<<<<<
339.09	0.00
339.48	214.33
339.86	216.20
340.24	217.93
340.63	219.24
341.01	222.06
341.39	222.10
341.78	223.57
342.16	223.69
342.54	224.90
342.93	213.24
343.31	223.99
343.69	224.57
344.07	225.06
344.46	225.48
344.84	225.86
345.22	226.09
345.60	226.33
345.99	226.49
346.37	226.64
346.75	226.72
347.13	226.80
347.52	226.85
347.90	226.91
348.28	226.92
348.66	226.95
349.05	226.95
349.43	227.01
349.81	227.08
350.19	227.15
350.57	227.19
350.96	227.26
351.34	227.36
351.72	227.41
352.10	227.50
352.48	227.56
352.87	227.60
353.25	227.65
353.63	227.71
354.01	227.76
354.39	227.82
354.77	227.93
355.15	228.03
355.54	228.09
355.92	228.17
356.30	228.24
356.68	228.37
357.06	228.44
357.44	228.47
357.82	228.49
358.20	228.55
358.58	228.61
358.97	228.66
359.35	228.74
359.73	228.85
360.11	228.89
360.49	228.94
360.87	228.99
361.25	229.05
361.63	229.13
362.01	229.20
362.39	229.24
362.77	229.26
363.15	229.29
363.53	229.30
363.91	229.30
364.29	229.30
364.67	229.23
365.05	229.27
365.43	229.27
365.81	229.30
366.19	229.33
366.57	229.37
366.95	229.38
367.33	229.38
367.71	229.34
368.09	229.34
368.47	229.32
368.85	229.32
369.23	229.30
369.61	229.20
369.99	229.16
370.37	229.14
370.75	229.14
371.13	229.07
371.51	229.00
371.89	228.96
372.27	228.93
372.65	228.89
373.03	228.84
373.41	228.82
373.78	228.76
374.16	228.66
374.54	228.60
374.92	228.51
375.30	228.43
375.68	228.38
376.06	228.30
376.44	228.24
376.82	228.15
377.19	228.08
377.57	228.05
377.95	227.97
378.33	227.92
378.71	227.80
379.09	227.74
379.47	227.69
379.84	227.61
380.22	227.54
380.60	227.47
380.98	227.38
381.36	227.31
381.73	227.23
382.11	227.18
382.49	227.09
382.87	227.01
383.25	226.94
383.62	226.99
384.00	226.92
384.38	226.87
384.76	226.84
385.13	226.83
385.51	226.75
385.89	226.69
386.27	226.63
386.64	226.60
387.02	226.56
387.40	226.52
387.78	226.46
388.15	226.44
388.53	226.38
388.91	226.35
389.29	226.30
389.66	226.30
390.04	226.25
390.42	226.26
390.79	226.28
391.17	226.23
391.55	226.11
391.92	226.12
392.30	226.12
392.68	226.07
393.05	226.06
393.43	226.05
393.81	226.06
394.18	226.04
394.56	226.04
394.94	226.08
395.31	226.09
395.69	226.15
396.06	226.18
396.44	226.20
396.82	226.22
397.19	226.31
397.57	226.33
397.95	226.40
398.32	226.38
398.70	226.42
399.07	226.58
399.45	226.61
399.82	226.67
400.20	226.73
400.58	226.82
400.95	226.85
401.33	226.97
401.70	227.15
402.08	227.25
402.45	227.35
402.83	227.48
403.20	227.58
403.58	227.71
403.95	227.84
404.33	228.01
404.71	228.12
405.08	228.30
405.46	228.44
405.83	228.60
406.21	228.80
406.58	228.94
406.96	229.07
407.33	229.26
407.70	229.45
408.08	229.69
408.45	229.94
408.83	230.18
409.20	230.40
409.58	230.57
409.95	230.83
410.33	231.11
410.70	231.32
411.08	231.62
411.45	231.91
411.82	232.22
412.20	232.57
412.57	233.03
412.95	233.30
413.32	233.72
413.69	234.10
414.07	234.55
414.44	235.04
414.82	235.53
415.19	236.06
415.56	236.61
415.94	237.15
416.31	237.76
416.68	238.40
417.06	239.11
417.43	239.80
417.81	240.59
418.18	241.38
418.55	242.22
418.93	243.11
419.30	243.98
419.67	244.89
420.04	245.85
420.42	246.84
420.79	248.03
421.16	249.16
421.54	250.37
421.91	251.56
422.28	252.86
422.66	254.19
423.03	255.48
423.40	256.82
423.77	258.27
424.15	259.72
424.52	261.22
424.89	262.86
425.26	264.39
425.64	265.80
426.01	267.40
426.38	269.07
426.75	270.72
427.13	272.48
427.50	274.29
427.87	276.11
428.24	277.96
428.61	279.70
428.99	281.70
429.36	283.80
429.73	285.88
430.10	287.84
430.47	289.87
430.85	292.02
431.22	294.28
431.59	296.60
431.96	298.83
432.33	301.27
432.70	303.62
433.08	306.46
433.45	309.13
433.82	311.71
434.19	314.61
434.56	317.43
434.93	320.03
435.30	322.67
435.68	325.62
436.05	328.46
436.42	331.28
436.79	333.74
437.16	336.44
437.53	339.26
437.90	342.08
438.27	344.81
438.64	347.59
439.01	350.19
439.38	352.48
439.75	354.61
440.13	357.12
440.50	359.47
440.87	361.29
441.24	363.22
441.61	365.36
441.98	366.84
442.35	368.63
442.72	370.47
443.09	372.29
443.46	373.26
443.83	373.81
444.20	374.32
444.57	375.18
444.94	375.44
445.31	375.81
445.68	376.19
446.05	376.30
446.42	375.95
446.79	375.47
447.16	375.03
447.53	374.74
447.90	373.57
448.27	372.39
448.64	370.83
449.01	369.69
449.37	367.74
449.74	365.87
450.11	363.63
450.48	361.24
450.85	358.69
451.22	356.54
451.59	354.51
451.96	352.53
452.33	349.92
452.70	347.56
453.07	344.66
453.43	341.78
453.80	338.95
454.17	336.29
454.54	333.75
454.91	331.00
455.28	328.31
455.65	325.81
456.02	323.41
456.38	321.29
456.75	318.61
457.12	316.40
457.49	314.17
457.86	311.99
458.23	310.13
458.59	308.10
458.96	306.06
459.33	304.24
459.70	302.40
460.07	300.89
460.43	299.22
460.80	297.64
461.17	296.20
461.54	294.76
461.91	293.33
462.27	291.91
462.64	290.66
463.01	289.32
463.38	288.01
463.74	286.59
464.11	285.43
464.48	284.44
464.85	283.30
465.21	282.44
465.58	281.53
465.95	280.41
466.32	279.50
466.68	278.58
467.05	277.70
467.42	276.79
467.78	275.85
468.15	274.96
468.52	274.31
468.88	273.41
469.25	272.61
469.62	271.98
469.98	271.33
470.35	270.72
470.72	270.13
471.08	269.53
471.45	269.01
471.82	268.46
472.18	267.84
472.55	267.39
472.92	266.90
473.28	266.42
473.65	266.00
474.02	265.56
474.38	265.19
474.75	264.90
475.11	264.57
475.48	264.32
475.85	264.12
476.21	263.85
476.58	263.69
476.94	263.55
477.31	263.38
477.67	263.25
478.04	263.14
478.41	263.10
478.77	263.11
479.14	263.07
479.50	263.04
479.87	263.15
480.23	263.24
480.60	263.26
480.96	263.36
481.33	263.54
481.69	263.75
482.06	263.95
482.42	264.12
482.79	264.40
483.15	264.71
483.52	265.10
483.88	265.48
484.25	265.91
484.61	266.38
484.98	266.82
485.34	267.37
485.71	267.96
486.07	268.56
486.44	269.12
486.80	269.80
487.17	270.53
487.53	271.33
487.90	272.15
488.26	273.09
488.62	274.09
488.99	275.04
489.35	276.07
489.72	277.20
490.08	278.40
490.44	279.60
490.81	280.92
491.17	282.23
491.54	283.72
491.90	285.22
492.26	286.83
492.63	288.57
492.99	290.36
493.36	292.23
493.72	294.24
494.08	296.38
494.45	298.62
494.81	301.01
495.17	303.45
495.54	306.02
495.90	308.68
496.26	311.50
496.63	314.51
496.99	317.59
497.35	320.81
497.72	324.20
498.08	327.70
498.44	331.37
498.80	335.30
499.17	339.32
499.53	343.49
499.89	347.86
500.26	352.35
500.62	356.99
500.98	361.98
501.34	367.10
501.71	372.44
502.07	377.92
502.43	383.51
502.79	389.31
503.16	395.46
503.52	401.81
503.88	408.23
504.24	414.86
504.60	421.76
504.97	428.92
505.33	436.26
505.69	444.05
506.05	451.88
506.41	459.73
506.78	467.90
507.14	476.35
507.50	485.10
507.86	494.15
508.22	503.40
508.59	512.61
508.95	522.16
509.31	531.95
509.67	542.00
510.03	552.32
510.39	562.86
510.75	573.64
511.12	584.55
511.48	595.88
511.84	607.27
512.20	618.80
512.56	630.76
512.92	642.97
513.28	655.33
513.64	667.82
514.00	680.53
514.37	693.51
514.73	706.51
515.09	719.54
515.45	732.88
515.81	746.42
516.17	760.43
516.53	774.57
516.89	788.72
517.25	802.92
517.61	817.38
517.97	831.88
518.33	846.25
518.69	861.03
519.05	876.00
519.41	891.16
519.77	906.68
520.13	922.06
520.49	937.39
520.85	952.74
521.21	968.53
521.57	984.81
521.93	1000.51
522.29	1016.97
522.65	1033.17
523.01	1049.41
523.37	1065.41
523.73	1081.58
524.09	1097.61
524.45	1113.86
524.81	1130.48
525.17	1147.24
525.53	1164.12
525.89	1181.03
526.25	1197.79
526.61	1214.13
526.97	1230.82
527.33	1247.31
527.68	1264.02
528.04	1280.51
528.40	1297.05
528.76	1314.05
529.12	1330.59
529.48	1347.50
529.84	1363.49
530.20	1380.12
530.56	1397.04
530.91	1414.44
531.27	1431.14
531.63	1447.74
531.99	1464.33
532.35	1480.22
532.71	1496.00
533.07	1512.29
533.42	1528.12
533.78	1544.18
534.14	1560.53
534.50	1576.04
534.86	1591.81
535.21	1606.90
535.57	1622.77
535.93	1638.25
536.29	1653.01
536.65	1667.97
537.00	1682.73
537.36	1698.06
537.72	1712.62
538.08	1727.08
538.44	1740.81
538.79	1754.75
539.15	1768.42
539.51	1782.19
539.87	1796.54
540.22	1810.29
540.58	1824.04
540.94	1837.40
541.29	1850.37
541.65	1862.92
542.01	1876.04
542.37	1888.37
542.72	1900.81
543.08	1912.48
543.44	1924.84
543.79	1935.99
544.15	1947.15
544.51	1958.77
544.87	1969.61
545.22	1980.37
545.58	1990.45
545.94	2000.25
546.29	2010.13
546.65	2019.89
547.01	2029.15
547.36	2037.90
547.72	2046.34
548.07	2054.13
548.43	2062.31
548.79	2070.15
549.14	2077.56
549.50	2084.80
549.86	2092.44
550.21	2099.65
550.57	2106.93
550.92	2113.47
551.28	2120.43
551.64	2127.43
551.99	2133.88
552.35	2140.09
552.70	2146.21
553.06	2152.38
553.41	2158.67
553.77	2164.56
554.13	2170.65
554.48	2176.83
554.84	2182.32
555.19	2187.66
555.55	2192.83
555.90	2197.17
556.26	2202.08
556.61	2207.04
556.97	2211.27
557.32	2215.45
557.68	2219.83
558.03	2224.09
558.39	2227.93
558.74	2232.61
559.10	2236.54
559.45	2240.17
559.81	2244.62
560.16	2248.52
560.52	2251.57
560.87	2254.96
561.23	2257.68
561.58	2260.74
561.94	2263.18
562.29	2265.59
562.64	2268.19
563.00	2270.79
563.35	2274.43
563.71	2277.46
564.06	2280.61
564.42	2283.43
564.77	2286.02
565.12	2288.06
565.48	2290.04
565.83	2291.89
566.19	2293.25
566.54	2294.08
566.89	2295.22
567.25	2295.57
567.60	2296.76
567.96	2298.48
568.31	2299.55
568.66	2300.59
569.02	2301.13
569.37	2301.30
569.72	2302.03
570.08	2302.31
570.43	2302.43
570.78	2301.74
571.14	2300.41
571.49	2299.08
571.84	2299.03
572.20	2297.76
572.55	2296.80
572.90	2295.31
573.26	2293.87
573.61	2292.22
573.96	2290.42
574.31	2287.42
574.67	2284.53
575.02	2280.95
575.37	2277.51
575.72	2273.52
576.08	2270.22
576.43	2266.71
576.78	2263.15
577.13	2260.11
577.49	2257.06
577.84	2253.45
578.19	2249.81
578.54	2246.02
578.90	2241.75
579.25	2236.29
579.60	2231.36
579.95	2226.29
580.30	2221.22
580.66	2216.10
581.01	2211.16
581.36	2206.18
581.71	2201.95
582.06	2197.58
582.42	2193.16
582.77	2188.02
583.12	2183.45
583.47	2178.70
583.82	2173.77
584.17	2168.50
584.53	2162.95
584.88	2157.25
585.23	2151.57
585.58	2146.14
585.93	2140.78
586.28	2135.94
586.63	2130.73
586.98	2125.72
587.34	2121.10
587.69	2116.24
588.04	2110.91
588.39	2105.18
588.74	2098.87
589.09	2092.81
589.44	2085.92
589.79	2079.98
590.14	2074.48
590.49	2067.89
590.84	2061.51
591.19	2055.54
591.54	2049.11
591.89	2041.70
592.25	2034.81
592.60	2027.56
592.95	2019.80
593.30	2012.41
593.65	2004.93
594.00	1997.79
594.35	1990.50
594.70	1982.45
595.05	1975.13
595.40	1967.95
595.75	1960.35
596.10	1954.17
596.45	1947.35
596.80	1941.14
597.15	1934.36
597.50	1927.15
597.85	1920.67
598.19	1913.99
598.54	1906.74
598.89	1900.14
599.24	1894.26
599.59	1887.52
599.94	1881.24
600.29	1874.92
600.64	1868.34
600.99	1860.83
601.34	1853.93
601.69	1846.93
602.04	1840.02
602.39	1832.73
602.74	1825.82
603.08	1819.20
603.43	1812.34
603.78	1805.05
604.13	1797.79
604.48	1790.41
604.83	1783.55
605.18	1776.55
605.53	1768.47
605.87	1760.55
606.22	1753.25
606.57	1745.26
606.92	1738.13
607.27	1730.94
607.62	1724.13
607.96	1716.85
608.31	1710.15
608.66	1702.59
609.01	1695.05
609.36	1687.41
609.70	1679.31
610.05	1671.16
610.40	1663.47
610.75	1654.97
611.10	1647.38
611.44	1638.97
611.79	1631.07
612.14	1622.31
612.49	1613.29
612.83	1605.05
613.18	1596.85
613.53	1588.69
613.88	1580.23
614.22	1571.83
614.57	1563.34
614.92	1555.25
615.27	1547.69
615.61	1539.46
615.96	1531.39
616.31	1523.81
616.65	1516.47
617.00	1508.88
617.35	1501.30
617.70	1492.88
618.04	1484.51
618.39	1476.27
618.74	1468.77
619.08	1460.43
619.43	1452.86
619.78	1445.90
620.12	1438.63
620.47	1431.15
620.82	1423.12
621.16	1415.76
621.51	1408.23
621.85	1400.64
622.20	1392.12
622.55	1383.76
622.89	1375.90
623.24	1368.36
623.59	1360.99
623.93	1353.39
624.28	1346.22
624.62	1338.63
624.97	1331.57
625.32	1324.86
625.66	1317.83
626.01	1310.65
626.35	1303.23
626.70	1295.55
627.04	1287.84
627.39	1280.15
627.73	1272.65
628.08	1265.70
628.43	1258.21
628.77	1250.82
629.12	1243.22
629.46	1236.06
629.81	1228.73
630.15	1221.54
630.50	1214.14
630.84	1205.89
631.19	1198.00
631.53	1190.41
631.88	1182.82
632.22	1175.18
632.57	1167.85
632.91	1160.26
633.26	1152.82
633.60	1145.48
633.95	1138.38
634.29	1131.29
634.64	1124.57
634.98	1117.26
635.32	1110.08
635.67	1103.54
636.01	1096.74
636.36	1089.83
636.70	1083.29
637.05	1076.70
637.39	1070.14
637.73	1063.61
638.08	1057.80
638.42	1051.89
638.77	1045.45
639.11	1038.89
639.45	1032.51
639.80	1025.82
640.14	1019.38
640.49	1012.72
640.83	1006.42
641.17	1000.12
641.52	993.77
641.86	987.33
642.20	981.48
642.55	975.18
642.89	968.72
643.23	962.33
643.58	956.63
643.92	950.34
644.26	944.15
644.61	938.18
644.95	932.11
645.29	925.45
645.64	918.62
645.98	912.35
646.32	906.50
646.66	900.39
647.01	894.56
647.35	888.84
647.69	883.18
648.04	877.65
648.38	871.87
648.72	865.84
649.06	859.80
649.41	853.93
649.75	847.94
650.09	841.92
650.43	836.04
650.78	829.85
651.12	823.99
651.46	818.31
651.80	812.52
652.14	807.24
652.49	801.82
652.83	796.73
653.17	791.03
653.51	785.35
653.85	780.07
654.20	774.51
654.54	768.54
654.88	762.78
655.22	756.84
655.56	751.17
655.90	745.80
656.25	740.50
656.59	735.20
656.93	730.18
657.27	725.11
657.61	719.75
657.95	714.69
658.29	709.58
658.64	704.31
658.98	699.04
659.32	693.51
659.66	688.38
660.00	683.04
660.34	678.14
660.68	673.21
661.02	668.13
661.36	663.36
661.70	658.92
662.05	654.56
662.39	650.30
662.73	645.82
663.07	641.45
663.41	637.06
663.75	632.51
664.09	627.89
664.43	623.49
664.77	619.38
665.11	615.06
665.45	610.99
665.79	606.92
666.13	602.74
666.47	598.69
666.81	594.56
667.15	590.46
667.49	586.52
667.83	582.72
668.17	578.70
668.51	574.65
668.85	570.55
669.19	566.64
669.53	562.68
669.87	558.82
670.21	555.09
670.55	551.48
670.89	548.09
671.23	544.71
671.57	541.18
671.91	537.65
672.25	534.19
672.58	530.61
672.92	527.35
673.26	524.20
673.60	520.98
673.94	517.82
674.28	514.94
674.62	512.03
674.96	508.88
675.30	505.97
675.64	503.00
675.97	500.27
676.31	497.39
676.65	494.50
676.99	491.80
677.33	488.98
677.67	486.11
678.01	483.08
678.34	480.08
678.68	477.16
679.02	474.31
679.36	471.61
679.70	468.89
680.04	466.01
680.37	463.14
680.71	460.39
681.05	457.78
681.39	455.03
681.73	452.34
682.06	449.90
682.40	447.36
682.74	444.90
683.08	442.36
683.42	439.81
683.75	437.32
684.09	434.78
684.43	432.24
684.77	429.75
685.10	427.35
685.44	425.04
685.78	422.75
686.12	420.51
686.45	418.17
686.79	415.83
687.13	413.65
687.46	411.48
687.80	409.33
688.14	407.11
688.48	405.00
688.81	402.78
689.15	400.61
689.49	398.45
689.82	396.35
690.16	394.24
690.50	392.28
690.83	390.38
691.17	388.35
691.51	386.47
691.84	384.68
692.18	382.79
692.52	380.83
692.85	378.93
693.19	377.01
693.52	375.15
693.86	373.40
694.20	371.64
694.53	369.84
694.87	368.00
695.21	366.21
695.54	364.44
695.88	362.71
696.21	360.99
696.55	359.38
696.88	357.68
697.22	356.02
697.56	354.41
697.89	352.74
698.23	351.18
698.56	349.59
698.90	347.98
699.23	346.33
699.57	344.78
699.90	343.22
700.24	341.69
700.58	340.17
700.91	338.66
701.25	337.20
701.58	335.83
701.92	334.44
702.25	333.11
702.59	331.70
702.92	330.38
703.26	329.10
703.59	327.80
703.93	326.60
704.26	325.39
704.60	324.10
704.93	322.83
705.26	321.61
705.60	320.45
705.93	319.30
706.27	318.30
706.60	317.24
706.94	316.19
707.27	315.11
707.61	314.08
707.94	313.08
708.27	312.01
708.61	310.94
708.94	309.94
709.28	308.96
709.61	308.06
709.94	307.08
710.28	305.99
710.61	305.03
710.95	304.00
711.28	303.07
711.61	302.13
711.95	301.17
712.28	300.18
712.61	299.13
712.95	298.21
713.28	297.30
713.61	296.39
713.95	295.49
714.28	294.65
714.61	293.76
714.95	292.92
715.28	292.04
715.61	291.17
715.95	290.34
716.28	289.47
716.61	288.60
716.95	287.77
717.28	287.06
717.61	286.25
717.94	285.46
718.28	284.67
718.61	283.90
718.94	283.19
719.27	282.56
719.61	281.93
719.94	281.25
720.27	280.51
720.60	279.83
720.94	279.18
721.27	278.55
721.60	277.95
721.93	277.30
722.27	276.73
722.60	276.16
722.93	275.59
723.26	275.05
723.59	274.47
723.93	273.94
724.26	273.35
724.59	272.81
724.92	272.30
725.25	271.79
725.59	271.28
725.92	270.79
726.25	270.24
726.58	269.76
726.91	269.23
727.24	268.81
727.57	268.35
727.91	267.81
728.24	267.35
728.57	266.86
728.90	266.46
729.23	265.96
729.56	265.55
729.89	265.03
730.22	264.55
730.55	264.11
730.89	263.68
731.22	263.25
731.55	262.80
731.88	262.36
732.21	261.91
732.54	261.46
732.87	261.06
733.20	260.66
733.53	260.27
733.86	259.91
734.19	259.45
734.52	259.09
734.85	258.80
735.18	258.40
735.51	258.04
735.84	257.65
736.17	257.32
736.50	256.89
736.83	256.68
737.16	256.33
737.49	255.99
737.82	255.63
738.15	255.30
738.48	254.99
738.81	254.65
739.14	254.35
739.47	254.04
739.80	253.73
740.13	253.43
740.46	253.13
740.79	252.81
741.12	252.54
741.45	252.21
741.78	251.90
742.11	251.62
742.44	251.30
742.77	250.99
743.10	250.69
743.43	250.42
743.75	250.03
744.08	249.89
744.41	249.62
744.74	249.36
745.07	249.10
745.40	248.84
745.73	248.63
746.06	248.37
746.39	248.15
746.71	247.90
747.04	247.67
747.37	247.42
747.70	247.21
748.03	246.95
748.36	246.75
748.68	246.50
749.01	246.24
749.34	246.04
749.67	245.84
750.00	245.63
750.33	245.46
750.65	245.26
750.98	244.94
751.31	244.71
751.64	244.53
751.97	244.35
752.29	244.16
752.62	243.94
752.95	243.75
753.28	243.52
753.60	243.30
753.93	243.12
754.26	242.90
754.59	242.65
754.91	242.46
755.24	242.27
755.57	242.10
755.90	241.92
756.22	241.71
756.55	241.52
756.88	241.33
757.20	241.09
757.53	240.90
757.86	240.73
758.19	240.58
758.51	240.41
758.84	240.22
759.17	240.01
759.49	239.83
759.82	239.71
760.15	239.59
760.47	239.44
760.80	239.25
761.13	239.13
761.45	238.96
761.78	238.82
762.11	238.67
762.43	238.50
762.76	238.35
763.08	238.21
763.41	238.09
763.74	237.95
764.06	237.84
764.39	237.69
764.71	237.55
765.04	237.37
765.37	237.25
765.69	237.10
766.02	236.98
766.34	236.88
766.67	236.71
767.00	236.58
767.32	236.48
767.65	236.40
767.97	236.28
768.30	236.17
768.62	236.04
768.95	235.92
769.27	235.79
769.60	235.70
769.92	235.59
770.25	235.44
770.57	235.32
770.90	235.19
771.22	235.09
771.55	235.01
771.87	234.94
772.20	234.81
772.52	234.82
772.85	234.85
773.17	234.72
773.50	234.63
773.82	234.54
774.15	234.45
774.47	234.28
774.80	234.16
775.12	234.07
775.45	233.97
775.77	233.91
776.09	233.86
776.42	233.78
776.74	233.75
777.07	233.66
777.39	233.61
777.72	233.55
778.04	233.50
778.36	233.41
778.69	233.33
779.01	233.25
779.33	233.09
779.66	232.90
779.98	232.83
780.31	232.75
780.63	232.71
780.95	232.62
781.28	232.60
781.60	232.56
781.92	232.53
782.25	232.46
782.57	232.36
782.89	232.28
783.22	232.22
783.54	232.12
783.86	232.08
784.19	232.00
784.51	231.95
784.83	231.85
785.16	231.80
785.48	231.75
785.80	231.77
786.12	231.72
786.45	231.66
786.77	231.65
787.09	231.59
