SpectraSuite Data File
++++++++++++++++++++++++++++++++++++
Date: Fri Feb 01 15:31:31 EST 2013
User: group
Dark Spectrum Present: No
Reference Spectrum Present: No
Number of Sampled Component Spectra: 1
Spectrometers: USB2E7196
Integration Time (usec): 35000 (USB2E7196)
Spectra Averaged: 100 (USB2E7196)
Boxcar Smoothing: 10 (USB2E7196)
Correct for Electrical Dark: No (USB2E7196)
Strobe/Lamp Enabled: No (USB2E7196)
Correct for Detector Non-linearity: No (USB2E7196)
Correct for Stray Light: No (USB2E7196)
Number of Pixels in Processed Spectrum: 2048
>>>>>Begin Processed Spectral Data<<<<<
339.09	0.00
339.48	214.98
339.86	216.07
340.24	217.82
340.63	218.94
341.01	222.38
341.39	221.87
341.78	223.30
342.16	224.77
342.54	224.78
342.93	213.58
343.31	224.37
343.69	224.93
344.07	225.43
344.46	225.88
344.84	226.26
345.22	226.49
345.60	226.75
345.99	226.94
346.37	227.08
346.75	227.19
347.13	227.19
347.52	227.20
347.90	227.28
348.28	227.27
348.66	227.29
349.05	227.25
349.43	227.24
349.81	227.28
350.19	227.30
350.57	227.35
350.96	227.42
351.34	227.48
351.72	227.57
352.10	227.64
352.48	227.69
352.87	227.75
353.25	227.80
353.63	227.81
354.01	227.89
354.39	227.93
354.77	228.01
355.15	228.11
355.54	228.17
355.92	228.24
356.30	228.33
356.68	228.47
357.06	228.55
357.44	228.62
357.82	228.66
358.20	228.71
358.58	228.74
358.97	228.77
359.35	228.83
359.73	228.87
360.11	228.92
360.49	228.94
360.87	229.01
361.25	229.08
361.63	229.16
362.01	229.17
362.39	229.21
362.77	229.21
363.15	229.27
363.53	229.30
363.91	229.29
364.29	229.29
364.67	229.20
365.05	229.20
365.43	229.20
365.81	229.24
366.19	229.28
366.57	229.30
366.95	229.28
367.33	229.26
367.71	229.25
368.09	229.26
368.47	229.27
368.85	229.22
369.23	229.21
369.61	229.16
369.99	229.17
370.37	229.16
370.75	229.19
371.13	229.13
371.51	229.10
371.89	229.09
372.27	229.07
372.65	229.03
373.03	228.95
373.41	228.92
373.78	228.84
374.16	228.75
374.54	228.67
374.92	228.62
375.30	228.58
375.68	228.50
376.06	228.43
376.44	228.36
376.82	228.28
377.19	228.20
377.57	228.15
377.95	228.05
378.33	227.97
378.71	227.89
379.09	227.80
379.47	227.74
379.84	227.63
380.22	227.57
380.60	227.48
380.98	227.42
381.36	227.33
381.73	227.28
382.11	227.22
382.49	227.18
382.87	227.13
383.25	227.08
383.62	227.11
384.00	227.04
384.38	227.00
384.76	227.00
385.13	227.00
385.51	226.95
385.89	226.89
386.27	226.85
386.64	226.79
387.02	226.78
387.40	226.75
387.78	226.77
388.15	226.73
388.53	226.72
388.91	226.74
389.29	226.72
389.66	226.72
390.04	226.70
390.42	226.72
390.79	226.71
391.17	226.70
391.55	226.62
391.92	226.62
392.30	226.64
392.68	226.63
393.05	226.61
393.43	226.62
393.81	226.65
394.18	226.65
394.56	226.67
394.94	226.67
395.31	226.66
395.69	226.67
396.06	226.72
396.44	226.75
396.82	226.72
397.19	226.82
397.57	226.84
397.95	226.87
398.32	226.88
398.70	226.92
399.07	226.99
399.45	227.07
399.82	227.12
400.20	227.19
400.58	227.28
400.95	227.30
401.33	227.40
401.70	227.54
402.08	227.63
402.45	227.72
402.83	227.90
403.20	228.02
403.58	228.11
403.95	228.24
404.33	228.35
404.71	228.51
405.08	228.67
405.46	228.82
405.83	229.00
406.21	229.15
406.58	229.34
406.96	229.51
407.33	229.65
407.70	229.87
408.08	230.09
408.45	230.27
408.83	230.53
409.20	230.75
409.58	230.92
409.95	231.15
410.33	231.42
410.70	231.62
411.08	231.91
411.45	232.19
411.82	232.45
412.20	232.80
412.57	233.20
412.95	233.52
413.32	233.93
413.69	234.31
414.07	234.74
414.44	235.18
414.82	235.64
415.19	236.18
415.56	236.70
415.94	237.26
416.31	237.90
416.68	238.51
417.06	239.20
417.43	239.90
417.81	240.70
418.18	241.48
418.55	242.34
418.93	243.21
419.30	244.10
419.67	245.07
420.04	246.03
420.42	247.00
420.79	248.16
421.16	249.31
421.54	250.53
421.91	251.74
422.28	253.00
422.66	254.36
423.03	255.69
423.40	257.04
423.77	258.48
424.15	259.90
424.52	261.39
424.89	263.03
425.26	264.60
425.64	266.05
426.01	267.65
426.38	269.29
426.75	270.97
427.13	272.70
427.50	274.50
427.87	276.41
428.24	278.34
428.61	280.10
428.99	282.06
429.36	284.15
429.73	286.23
430.10	288.30
430.47	290.33
430.85	292.46
431.22	294.74
431.59	297.11
431.96	299.37
432.33	301.88
432.70	304.28
433.08	307.10
433.45	309.74
433.82	312.35
434.19	315.26
434.56	318.10
434.93	320.83
435.30	323.45
435.68	326.37
436.05	329.23
436.42	332.06
436.79	334.55
437.16	337.29
437.53	340.13
437.90	342.94
438.27	345.75
438.64	348.57
439.01	351.17
439.38	353.45
439.75	355.65
440.13	358.14
440.50	360.44
440.87	362.30
441.24	364.23
441.61	366.39
441.98	367.91
442.35	369.68
442.72	371.52
443.09	373.31
443.46	374.30
443.83	374.80
444.20	375.25
444.57	376.08
444.94	376.31
445.31	376.62
445.68	376.99
446.05	377.02
446.42	376.61
446.79	376.14
447.16	375.62
447.53	375.30
447.90	374.10
448.27	372.94
448.64	371.33
449.01	370.18
449.37	368.18
449.74	366.20
450.11	363.94
450.48	361.46
450.85	358.97
451.22	356.79
451.59	354.80
451.96	352.86
452.33	350.29
452.70	347.92
453.07	345.09
453.43	342.16
453.80	339.39
454.17	336.69
454.54	334.16
454.91	331.46
455.28	328.70
455.65	326.23
456.02	323.77
456.38	321.62
456.75	318.95
457.12	316.72
457.49	314.54
457.86	312.35
458.23	310.42
458.59	308.36
458.96	306.28
459.33	304.40
459.70	302.52
460.07	300.97
460.43	299.22
460.80	297.59
461.17	296.14
461.54	294.62
461.91	293.20
462.27	291.77
462.64	290.51
463.01	289.18
463.38	287.92
463.74	286.55
464.11	285.41
464.48	284.39
464.85	283.28
465.21	282.40
465.58	281.50
465.95	280.46
466.32	279.55
466.68	278.64
467.05	277.74
467.42	276.91
467.78	275.99
468.15	275.18
468.52	274.50
468.88	273.63
469.25	272.88
469.62	272.27
469.98	271.57
470.35	270.93
470.72	270.32
471.08	269.64
471.45	269.11
471.82	268.56
472.18	267.98
472.55	267.57
472.92	267.07
473.28	266.59
473.65	266.15
474.02	265.71
474.38	265.33
474.75	265.04
475.11	264.66
475.48	264.40
475.85	264.18
476.21	263.95
476.58	263.81
476.94	263.65
477.31	263.46
477.67	263.33
478.04	263.21
478.41	263.20
478.77	263.25
479.14	263.22
479.50	263.26
479.87	263.31
480.23	263.40
480.60	263.46
480.96	263.57
481.33	263.81
481.69	264.00
482.06	264.20
482.42	264.40
482.79	264.66
483.15	264.99
483.52	265.37
483.88	265.74
484.25	266.12
484.61	266.52
484.98	267.01
485.34	267.57
485.71	268.19
486.07	268.76
486.44	269.32
486.80	270.00
487.17	270.68
487.53	271.47
487.90	272.32
488.26	273.29
488.62	274.24
488.99	275.19
489.35	276.27
489.72	277.39
490.08	278.60
490.44	279.85
490.81	281.17
491.17	282.50
491.54	283.98
491.90	285.50
492.26	287.17
492.63	288.90
492.99	290.62
493.36	292.52
493.72	294.58
494.08	296.70
494.45	298.91
494.81	301.29
495.17	303.73
495.54	306.22
495.90	308.91
496.26	311.70
496.63	314.63
496.99	317.75
497.35	321.00
497.72	324.37
498.08	327.87
498.44	331.58
498.80	335.49
499.17	339.52
499.53	343.68
499.89	348.05
500.26	352.48
500.62	357.21
500.98	362.13
501.34	367.21
501.71	372.46
502.07	377.92
502.43	383.51
502.79	389.33
503.16	395.45
503.52	401.66
503.88	408.06
504.24	414.67
504.60	421.50
504.97	428.62
505.33	435.91
505.69	443.63
506.05	451.38
506.41	459.25
506.78	467.41
507.14	475.87
507.50	484.60
507.86	493.71
508.22	502.87
508.59	512.06
508.95	521.66
509.31	531.51
509.67	541.58
510.03	551.92
510.39	562.50
510.75	573.32
511.12	584.26
511.48	595.57
511.84	607.05
512.20	618.60
512.56	630.63
512.92	642.89
513.28	655.18
513.64	667.67
514.00	680.44
514.37	693.36
514.73	706.47
515.09	719.50
515.45	732.77
515.81	746.39
516.17	760.45
516.53	774.52
516.89	788.79
517.25	803.07
517.61	817.59
517.97	832.05
518.33	846.49
518.69	861.34
519.05	876.41
519.41	891.66
519.77	907.23
520.13	922.64
520.49	938.06
520.85	953.55
521.21	969.28
521.57	985.62
521.93	1001.53
522.29	1018.00
522.65	1034.37
523.01	1050.66
523.37	1066.81
523.73	1083.14
524.09	1099.37
524.45	1115.68
524.81	1132.39
525.17	1149.20
525.53	1166.25
525.89	1183.21
526.25	1199.96
526.61	1216.35
526.97	1233.10
527.33	1249.68
527.68	1266.40
528.04	1282.94
528.40	1299.65
528.76	1316.87
529.12	1333.34
529.48	1350.22
529.84	1366.27
530.20	1382.91
530.56	1399.93
530.91	1417.37
531.27	1433.98
531.63	1450.38
531.99	1467.08
532.35	1483.01
532.71	1498.96
533.07	1515.18
533.42	1531.09
533.78	1547.27
534.14	1563.59
534.50	1579.03
534.86	1594.86
535.21	1610.09
535.57	1626.05
535.93	1641.63
536.29	1656.49
536.65	1671.72
537.00	1686.58
537.36	1701.90
537.72	1716.38
538.08	1730.79
538.44	1744.55
538.79	1758.60
539.15	1772.57
539.51	1786.28
539.87	1800.69
540.22	1814.30
540.58	1828.18
540.94	1841.56
541.29	1854.62
541.65	1867.45
542.01	1880.69
542.37	1893.14
542.72	1905.63
543.08	1917.43
543.44	1929.75
543.79	1940.95
544.15	1951.95
544.51	1963.64
544.87	1974.63
545.22	1985.50
545.58	1995.88
545.94	2005.65
546.29	2015.40
546.65	2025.05
547.01	2034.29
547.36	2042.95
547.72	2051.64
548.07	2059.41
548.43	2067.66
548.79	2075.62
549.14	2083.21
549.50	2090.59
549.86	2098.33
550.21	2105.59
550.57	2112.78
550.92	2119.50
551.28	2126.62
551.64	2133.75
551.99	2140.25
552.35	2146.39
552.70	2152.45
553.06	2158.35
553.41	2164.79
553.77	2171.02
554.13	2177.18
554.48	2183.24
554.84	2188.82
555.19	2194.07
555.55	2199.20
555.90	2203.62
556.26	2208.46
556.61	2213.21
556.97	2217.42
557.32	2221.47
557.68	2225.64
558.03	2229.97
558.39	2233.65
558.74	2238.26
559.10	2241.99
559.45	2245.57
559.81	2250.09
560.16	2253.98
560.52	2257.22
560.87	2260.75
561.23	2263.31
561.58	2266.26
561.94	2268.93
562.29	2271.31
562.64	2273.98
563.00	2276.64
563.35	2280.23
563.71	2283.35
564.06	2286.49
564.42	2289.37
564.77	2291.92
565.12	2294.27
565.48	2296.08
565.83	2297.79
566.19	2299.01
566.54	2300.08
566.89	2301.06
567.25	2301.47
567.60	2303.10
567.96	2304.75
568.31	2305.54
568.66	2306.56
569.02	2307.04
569.37	2307.34
569.72	2308.24
570.08	2308.36
570.43	2308.34
570.78	2307.64
571.14	2306.12
571.49	2304.72
571.84	2304.44
572.20	2303.11
572.55	2301.86
572.90	2300.29
573.26	2299.04
573.61	2297.32
573.96	2295.48
574.31	2292.57
574.67	2289.46
575.02	2285.55
575.37	2282.19
575.72	2278.19
576.08	2274.89
576.43	2271.45
576.78	2267.60
577.13	2264.29
577.49	2261.15
577.84	2257.68
578.19	2253.88
578.54	2250.14
578.90	2245.83
579.25	2240.14
579.60	2235.13
579.95	2230.10
580.30	2225.01
580.66	2219.73
581.01	2214.70
581.36	2209.61
581.71	2205.26
582.06	2200.80
582.42	2196.20
582.77	2190.92
583.12	2186.38
583.47	2181.45
583.82	2176.45
584.17	2171.20
584.53	2165.53
584.88	2159.87
585.23	2153.96
585.58	2148.44
585.93	2142.90
586.28	2138.16
586.63	2132.97
586.98	2127.92
587.34	2123.13
587.69	2118.28
588.04	2112.90
588.39	2107.03
588.74	2100.62
589.09	2094.47
589.44	2087.53
589.79	2081.51
590.14	2075.69
590.49	2068.93
590.84	2062.57
591.19	2056.50
591.54	2050.08
591.89	2042.62
592.25	2035.68
592.60	2028.42
592.95	2020.73
593.30	2013.30
593.65	2005.53
594.00	1998.54
594.35	1991.29
594.70	1983.15
595.05	1975.81
595.40	1968.39
595.75	1961.04
596.10	1954.64
596.45	1947.84
596.80	1941.70
597.15	1935.05
597.50	1927.95
597.85	1921.44
598.19	1914.70
598.54	1907.48
598.89	1900.76
599.24	1894.94
599.59	1888.20
599.94	1882.00
600.29	1875.70
600.64	1869.30
600.99	1861.85
601.34	1854.86
601.69	1847.75
602.04	1840.84
602.39	1833.47
602.74	1826.62
603.08	1819.88
603.43	1813.20
603.78	1805.93
604.13	1798.71
604.48	1791.32
604.83	1784.41
605.18	1777.64
605.53	1769.64
605.87	1761.65
606.22	1754.40
606.57	1746.37
606.92	1739.08
607.27	1731.88
607.62	1724.96
607.96	1717.48
608.31	1710.69
608.66	1703.10
609.01	1695.62
609.36	1688.03
609.70	1679.98
610.05	1671.96
610.40	1664.20
610.75	1655.92
611.10	1648.21
611.44	1639.83
611.79	1631.77
612.14	1623.16
612.49	1613.92
612.83	1605.61
613.18	1597.57
613.53	1589.42
613.88	1580.92
614.22	1572.56
614.57	1563.93
614.92	1555.78
615.27	1548.19
615.61	1539.93
615.96	1531.88
616.31	1524.17
616.65	1516.92
617.00	1509.42
617.35	1501.70
617.70	1493.30
618.04	1484.63
618.39	1476.30
618.74	1468.61
619.08	1460.40
619.43	1452.73
619.78	1445.74
620.12	1438.47
620.47	1430.81
620.82	1422.58
621.16	1415.27
621.51	1407.59
621.85	1399.95
622.20	1391.48
622.55	1383.16
622.89	1375.35
623.24	1367.70
623.59	1360.31
623.93	1352.76
624.28	1345.36
624.62	1337.82
624.97	1330.60
625.32	1323.92
625.66	1316.92
626.01	1309.59
626.35	1302.11
626.70	1294.37
627.04	1286.53
627.39	1278.77
627.73	1271.38
628.08	1264.45
628.43	1256.96
628.77	1249.58
629.12	1241.99
629.46	1234.76
629.81	1227.35
630.15	1220.05
630.50	1212.76
630.84	1204.63
631.19	1196.67
631.53	1189.22
631.88	1181.73
632.22	1174.20
632.57	1166.87
632.91	1159.41
633.26	1152.18
633.60	1144.79
633.95	1137.73
634.29	1130.84
634.64	1124.14
634.98	1116.79
635.32	1109.66
635.67	1103.13
636.01	1096.43
636.36	1089.64
636.70	1083.21
637.05	1076.61
637.39	1070.23
637.73	1063.53
638.08	1057.62
638.42	1051.60
638.77	1045.11
639.11	1038.48
639.45	1032.04
639.80	1025.39
640.14	1018.89
640.49	1012.31
640.83	1005.96
641.17	999.77
641.52	993.40
641.86	987.03
642.20	981.23
642.55	975.01
642.89	968.57
643.23	962.19
643.58	956.36
643.92	950.16
644.26	943.97
644.61	937.91
644.95	932.00
645.29	925.33
645.64	918.56
645.98	912.20
646.32	906.36
646.66	900.33
647.01	894.56
647.35	888.89
647.69	883.07
648.04	877.62
648.38	871.77
648.72	865.76
649.06	859.73
649.41	853.79
649.75	847.80
650.09	841.77
650.43	835.97
650.78	829.88
651.12	823.86
651.46	818.22
651.80	812.44
652.14	807.08
652.49	801.77
652.83	796.71
653.17	791.14
653.51	785.38
653.85	780.05
654.20	774.40
654.54	768.46
654.88	762.66
655.22	756.83
655.56	751.10
655.90	745.68
656.25	740.40
656.59	735.07
656.93	729.95
657.27	724.86
657.61	719.44
657.95	714.40
658.29	709.37
658.64	704.22
658.98	699.01
659.32	693.47
659.66	688.31
660.00	682.88
660.34	677.95
660.68	673.13
661.02	668.00
661.36	663.24
661.70	658.74
662.05	654.41
662.39	650.01
662.73	645.64
663.07	641.31
663.41	636.85
663.75	632.44
664.09	627.92
664.43	623.49
664.77	619.38
665.11	615.03
665.45	610.84
665.79	606.70
666.13	602.52
666.47	598.44
666.81	594.23
667.15	590.17
667.49	586.22
667.83	582.35
668.17	578.40
668.51	574.32
668.85	570.28
669.19	566.41
669.53	562.53
669.87	558.60
670.21	554.79
670.55	551.08
670.89	547.60
671.23	544.13
671.57	540.64
671.91	537.02
672.25	533.55
672.58	530.06
672.92	526.70
673.26	523.47
673.60	520.37
673.94	517.26
674.28	514.31
674.62	511.36
674.96	508.24
675.30	505.34
675.64	502.35
675.97	499.57
676.31	496.72
676.65	493.83
676.99	491.09
677.33	488.28
677.67	485.50
678.01	482.40
678.34	479.32
678.68	476.37
679.02	473.56
679.36	470.83
679.70	468.10
680.04	465.31
680.37	462.48
680.71	459.65
681.05	456.98
681.39	454.30
681.73	451.62
682.06	449.11
682.40	446.66
682.74	444.21
683.08	441.74
683.42	439.12
683.75	436.64
684.09	434.14
684.43	431.71
684.77	429.21
685.10	426.89
685.44	424.69
685.78	422.45
686.12	420.29
686.45	417.99
686.79	415.77
687.13	413.59
687.46	411.46
687.80	409.36
688.14	407.21
688.48	405.22
688.81	402.98
689.15	400.85
689.49	398.70
689.82	396.65
690.16	394.55
690.50	392.66
690.83	390.73
691.17	388.77
691.51	386.91
691.84	385.11
692.18	383.22
692.52	381.27
692.85	379.36
693.19	377.46
693.52	375.64
693.86	373.81
694.20	372.07
694.53	370.30
694.87	368.44
695.21	366.68
695.54	364.87
695.88	363.19
696.21	361.47
696.55	359.81
696.88	358.12
697.22	356.44
697.56	354.85
697.89	353.22
698.23	351.64
698.56	349.99
698.90	348.41
699.23	346.78
699.57	345.27
699.90	343.76
700.24	342.21
700.58	340.67
700.91	339.20
701.25	337.76
701.58	336.40
701.92	335.06
702.25	333.68
702.59	332.32
702.92	331.02
703.26	329.72
703.59	328.39
703.93	327.25
704.26	325.99
704.60	324.67
704.93	323.37
705.26	322.09
705.60	320.95
705.93	319.77
706.27	318.74
706.60	317.65
706.94	316.55
707.27	315.43
707.61	314.39
707.94	313.38
708.27	312.23
708.61	311.14
708.94	310.12
709.28	309.14
709.61	308.16
709.94	307.20
710.28	306.18
710.61	305.21
710.95	304.10
711.28	303.21
711.61	302.23
711.95	301.30
712.28	300.33
712.61	299.31
712.95	298.37
713.28	297.44
713.61	296.53
713.95	295.63
714.28	294.77
714.61	293.90
714.95	293.00
715.28	292.15
715.61	291.22
715.95	290.30
716.28	289.40
716.61	288.51
716.95	287.62
717.28	286.85
717.61	286.09
717.94	285.33
718.28	284.52
718.61	283.77
718.94	283.09
719.27	282.43
719.61	281.80
719.94	281.14
720.27	280.42
720.60	279.70
720.94	279.07
721.27	278.48
721.60	277.93
721.93	277.32
722.27	276.78
722.60	276.25
722.93	275.71
723.26	275.22
723.59	274.67
723.93	274.16
724.26	273.60
724.59	273.01
724.92	272.52
725.25	272.00
725.59	271.50
725.92	270.97
726.25	270.48
726.58	269.99
726.91	269.47
727.24	269.02
727.57	268.60
727.91	268.09
728.24	267.62
728.57	267.07
728.90	266.67
729.23	266.16
729.56	265.75
729.89	265.31
730.22	264.80
730.55	264.36
730.89	263.89
731.22	263.48
731.55	263.09
731.88	262.65
732.21	262.20
732.54	261.75
732.87	261.31
733.20	260.92
733.53	260.55
733.86	260.20
734.19	259.80
734.52	259.41
734.85	259.16
735.18	258.75
735.51	258.44
735.84	258.05
736.17	257.71
736.50	257.34
736.83	257.12
737.16	256.81
737.49	256.49
737.82	256.21
738.15	255.87
738.48	255.52
738.81	255.21
739.14	254.92
739.47	254.66
739.80	254.39
740.13	254.07
740.46	253.75
740.79	253.44
741.12	253.12
741.45	252.82
741.78	252.43
742.11	252.15
742.44	251.84
742.77	251.54
743.10	251.23
743.43	250.92
743.75	250.55
744.08	250.43
744.41	250.17
744.74	249.87
745.07	249.59
745.40	249.36
745.73	249.17
746.06	248.92
746.39	248.67
746.71	248.39
747.04	248.12
747.37	247.82
747.70	247.57
748.03	247.34
748.36	247.12
748.68	246.88
749.01	246.63
749.34	246.39
749.67	246.18
750.00	245.97
750.33	245.81
750.65	245.55
750.98	245.17
751.31	244.93
751.64	244.75
751.97	244.59
752.29	244.37
752.62	244.08
752.95	243.84
753.28	243.61
753.60	243.37
753.93	243.22
754.26	243.05
754.59	242.84
754.91	242.62
755.24	242.40
755.57	242.22
755.90	242.03
756.22	241.83
756.55	241.60
756.88	241.41
757.20	241.16
757.53	240.98
757.86	240.79
758.19	240.66
758.51	240.46
758.84	240.23
759.17	240.04
759.49	239.87
759.82	239.78
760.15	239.61
760.47	239.47
760.80	239.27
761.13	239.11
761.45	238.93
761.78	238.81
762.11	238.68
762.43	238.49
762.76	238.36
763.08	238.23
763.41	238.11
763.74	237.95
764.06	237.83
764.39	237.69
764.71	237.57
765.04	237.40
765.37	237.24
765.69	237.09
766.02	236.97
766.34	236.85
766.67	236.67
767.00	236.58
767.32	236.50
767.65	236.47
767.97	236.33
768.30	236.23
768.62	236.11
768.95	235.98
769.27	235.89
769.60	235.79
769.92	235.66
770.25	235.53
770.57	235.45
770.90	235.36
771.22	235.26
771.55	235.17
771.87	235.11
772.20	235.05
772.52	235.06
772.85	235.06
773.17	234.96
773.50	234.87
773.82	234.74
774.15	234.63
774.47	234.49
774.80	234.43
775.12	234.33
775.45	234.26
775.77	234.20
776.09	234.12
776.42	234.04
776.74	233.98
777.07	233.91
777.39	233.82
777.72	233.73
778.04	233.66
778.36	233.59
778.69	233.48
779.01	233.40
779.33	233.25
779.66	233.09
779.98	233.02
780.31	232.97
780.63	232.99
780.95	232.95
781.28	232.83
781.60	232.73
781.92	232.69
782.25	232.62
782.57	232.54
782.89	232.51
783.22	232.44
783.54	232.38
783.86	232.34
784.19	232.29
784.51	232.26
784.83	232.19
785.16	232.18
785.48	232.13
785.80	232.12
786.12	232.08
786.45	232.03
786.77	231.99
787.09	231.95
