SpectraSuite Data File
++++++++++++++++++++++++++++++++++++
Date: Fri Feb 01 15:40:54 EST 2013
User: group
Dark Spectrum Present: No
Reference Spectrum Present: No
Number of Sampled Component Spectra: 1
Spectrometers: USB2E7196
Integration Time (usec): 35000 (USB2E7196)
Spectra Averaged: 100 (USB2E7196)
Boxcar Smoothing: 10 (USB2E7196)
Correct for Electrical Dark: No (USB2E7196)
Strobe/Lamp Enabled: No (USB2E7196)
Correct for Detector Non-linearity: No (USB2E7196)
Correct for Stray Light: No (USB2E7196)
Number of Pixels in Processed Spectrum: 2048
>>>>>Begin Processed Spectral Data<<<<<
339.09	0.00
339.48	215.11
339.86	216.31
340.24	217.34
340.63	219.12
341.01	222.17
341.39	221.40
341.78	223.10
342.16	224.31
342.54	224.79
342.93	213.20
343.31	224.00
343.69	224.51
344.07	224.98
344.46	225.43
344.84	225.79
345.22	226.03
345.60	226.31
345.99	226.49
346.37	226.62
346.75	226.73
347.13	226.78
347.52	226.84
347.90	226.92
348.28	226.96
348.66	226.99
349.05	226.97
349.43	227.04
349.81	227.09
350.19	227.09
350.57	227.16
350.96	227.25
351.34	227.32
351.72	227.43
352.10	227.53
352.48	227.61
352.87	227.73
353.25	227.79
353.63	227.83
354.01	227.91
354.39	228.01
354.77	228.09
355.15	228.23
355.54	228.29
355.92	228.27
356.30	228.37
356.68	228.49
357.06	228.56
357.44	228.60
357.82	228.67
358.20	228.76
358.58	228.82
358.97	228.89
359.35	228.96
359.73	229.04
360.11	229.11
360.49	229.15
360.87	229.18
361.25	229.24
361.63	229.32
362.01	229.36
362.39	229.38
362.77	229.40
363.15	229.40
363.53	229.43
363.91	229.51
364.29	229.50
364.67	229.41
365.05	229.46
365.43	229.46
365.81	229.47
366.19	229.51
366.57	229.54
366.95	229.53
367.33	229.46
367.71	229.42
368.09	229.38
368.47	229.36
368.85	229.31
369.23	229.29
369.61	229.21
369.99	229.20
370.37	229.17
370.75	229.20
371.13	229.15
371.51	229.11
371.89	229.04
372.27	228.97
372.65	228.91
373.03	228.85
373.41	228.82
373.78	228.75
374.16	228.66
374.54	228.56
374.92	228.47
375.30	228.44
375.68	228.35
376.06	228.29
376.44	228.20
376.82	228.14
377.19	228.05
377.57	228.00
377.95	227.90
378.33	227.82
378.71	227.67
379.09	227.59
379.47	227.50
379.84	227.44
380.22	227.39
380.60	227.34
380.98	227.25
381.36	227.16
381.73	227.07
382.11	227.00
382.49	226.96
382.87	226.92
383.25	226.85
383.62	226.92
384.00	226.83
384.38	226.79
384.76	226.79
385.13	226.78
385.51	226.75
385.89	226.68
386.27	226.65
386.64	226.62
387.02	226.62
387.40	226.59
387.78	226.59
388.15	226.54
388.53	226.50
388.91	226.47
389.29	226.47
389.66	226.48
390.04	226.46
390.42	226.43
390.79	226.41
391.17	226.39
391.55	226.26
391.92	226.28
392.30	226.25
392.68	226.21
393.05	226.20
393.43	226.18
393.81	226.21
394.18	226.20
394.56	226.21
394.94	226.25
395.31	226.27
395.69	226.30
396.06	226.36
396.44	226.44
396.82	226.46
397.19	226.53
397.57	226.57
397.95	226.64
398.32	226.68
398.70	226.75
399.07	226.84
399.45	226.93
399.82	227.01
400.20	227.11
400.58	227.16
400.95	227.21
401.33	227.31
401.70	227.47
402.08	227.57
402.45	227.71
402.83	227.79
403.20	227.91
403.58	228.01
403.95	228.15
404.33	228.23
404.71	228.33
405.08	228.51
405.46	228.66
405.83	228.80
406.21	228.98
406.58	229.16
406.96	229.30
407.33	229.48
407.70	229.68
408.08	229.95
408.45	230.19
408.83	230.42
409.20	230.67
409.58	230.84
409.95	231.09
410.33	231.40
410.70	231.67
411.08	231.97
411.45	232.25
411.82	232.55
412.20	232.95
412.57	233.40
412.95	233.70
413.32	234.09
413.69	234.49
414.07	234.90
414.44	235.34
414.82	235.86
415.19	236.37
415.56	236.91
415.94	237.43
416.31	238.07
416.68	238.69
417.06	239.40
417.43	240.09
417.81	240.87
418.18	241.58
418.55	242.40
418.93	243.29
419.30	244.18
419.67	245.12
420.04	246.02
420.42	247.02
420.79	248.20
421.16	249.37
421.54	250.55
421.91	251.77
422.28	253.05
422.66	254.35
423.03	255.68
423.40	257.05
423.77	258.46
424.15	259.88
424.52	261.37
424.89	262.97
425.26	264.47
425.64	265.89
426.01	267.51
426.38	269.16
426.75	270.81
427.13	272.53
427.50	274.33
427.87	276.25
428.24	278.06
428.61	279.82
428.99	281.75
429.36	283.85
429.73	285.93
430.10	287.96
430.47	289.99
430.85	292.09
431.22	294.29
431.59	296.67
431.96	298.90
432.33	301.38
432.70	303.76
433.08	306.62
433.45	309.26
433.82	311.86
434.19	314.74
434.56	317.54
434.93	320.21
435.30	322.84
435.68	325.71
436.05	328.54
436.42	331.33
436.79	333.83
437.16	336.55
437.53	339.38
437.90	342.18
438.27	344.97
438.64	347.78
439.01	350.36
439.38	352.57
439.75	354.76
440.13	357.24
440.50	359.55
440.87	361.36
441.24	363.36
441.61	365.48
441.98	366.96
442.35	368.77
442.72	370.63
443.09	372.39
443.46	373.42
443.83	374.04
444.20	374.56
444.57	375.39
444.94	375.72
445.31	376.03
445.68	376.39
446.05	376.45
446.42	376.10
446.79	375.70
447.16	375.29
447.53	374.96
447.90	373.81
448.27	372.66
448.64	371.10
449.01	369.92
449.37	367.99
449.74	366.10
450.11	363.88
450.48	361.39
450.85	358.87
451.22	356.73
451.59	354.72
451.96	352.75
452.33	350.15
452.70	347.73
453.07	344.92
453.43	342.02
453.80	339.26
454.17	336.63
454.54	334.07
454.91	331.35
455.28	328.69
455.65	326.23
456.02	323.78
456.38	321.65
456.75	318.98
457.12	316.73
457.49	314.53
457.86	312.35
458.23	310.51
458.59	308.47
458.96	306.36
459.33	304.49
459.70	302.61
460.07	301.15
460.43	299.41
460.80	297.80
461.17	296.35
461.54	294.84
461.91	293.38
462.27	291.94
462.64	290.70
463.01	289.32
463.38	287.99
463.74	286.62
464.11	285.44
464.48	284.43
464.85	283.34
465.21	282.45
465.58	281.48
465.95	280.41
466.32	279.52
466.68	278.62
467.05	277.72
467.42	276.85
467.78	275.91
468.15	275.08
468.52	274.38
468.88	273.55
469.25	272.78
469.62	272.16
469.98	271.52
470.35	270.86
470.72	270.26
471.08	269.64
471.45	269.11
471.82	268.56
472.18	267.92
472.55	267.48
472.92	266.99
473.28	266.59
473.65	266.18
474.02	265.72
474.38	265.37
474.75	265.06
475.11	264.73
475.48	264.42
475.85	264.16
476.21	263.96
476.58	263.73
476.94	263.58
477.31	263.37
477.67	263.19
478.04	263.11
478.41	263.08
478.77	263.07
479.14	263.01
479.50	263.03
479.87	263.15
480.23	263.21
480.60	263.28
480.96	263.32
481.33	263.46
481.69	263.67
482.06	263.87
482.42	264.05
482.79	264.29
483.15	264.66
483.52	265.05
483.88	265.41
484.25	265.86
484.61	266.27
484.98	266.74
485.34	267.31
485.71	267.89
486.07	268.50
486.44	269.06
486.80	269.79
487.17	270.50
487.53	271.30
487.90	272.15
488.26	273.09
488.62	274.12
488.99	275.11
489.35	276.16
489.72	277.28
490.08	278.49
490.44	279.73
490.81	281.04
491.17	282.39
491.54	283.85
491.90	285.37
492.26	287.07
492.63	288.80
492.99	290.53
493.36	292.41
493.72	294.39
494.08	296.49
494.45	298.70
494.81	301.06
495.17	303.48
495.54	306.04
495.90	308.72
496.26	311.52
496.63	314.45
496.99	317.53
497.35	320.76
497.72	324.16
498.08	327.66
498.44	331.35
498.80	335.28
499.17	339.32
499.53	343.44
499.89	347.76
500.26	352.24
500.62	356.99
500.98	361.96
501.34	367.07
501.71	372.42
502.07	377.87
502.43	383.50
502.79	389.32
503.16	395.38
503.52	401.65
503.88	408.08
504.24	414.75
504.60	421.68
504.97	428.85
505.33	436.22
505.69	443.96
506.05	451.71
506.41	459.64
506.78	467.80
507.14	476.28
507.50	485.00
507.86	494.12
508.22	503.26
508.59	512.46
508.95	522.06
509.31	531.87
509.67	542.00
510.03	552.33
510.39	562.84
510.75	573.67
511.12	584.60
511.48	595.84
511.84	607.29
512.20	618.73
512.56	630.69
512.92	642.83
513.28	655.24
513.64	667.76
514.00	680.38
514.37	693.30
514.73	706.38
515.09	719.43
515.45	732.69
515.81	746.28
516.17	760.29
516.53	774.44
516.89	788.63
517.25	802.77
517.61	817.18
517.97	831.77
518.33	846.20
518.69	860.95
519.05	876.00
519.41	891.14
519.77	906.71
520.13	922.15
520.49	937.56
520.85	952.97
521.21	968.77
521.57	985.15
521.93	1000.95
522.29	1017.40
522.65	1033.73
523.01	1049.97
523.37	1066.11
523.73	1082.40
524.09	1098.44
524.45	1114.77
524.81	1131.44
525.17	1148.28
525.53	1165.09
525.89	1181.98
526.25	1198.89
526.61	1215.21
526.97	1231.98
527.33	1248.48
527.68	1265.11
528.04	1281.58
528.40	1298.07
528.76	1315.02
529.12	1331.59
529.48	1348.58
529.84	1364.63
530.20	1381.23
530.56	1398.27
530.91	1415.67
531.27	1432.42
531.63	1448.86
531.99	1465.51
532.35	1481.45
532.71	1497.23
533.07	1513.54
533.42	1529.47
533.78	1545.44
534.14	1561.82
534.50	1577.15
534.86	1592.98
535.21	1608.31
535.57	1624.32
535.93	1639.88
536.29	1654.72
536.65	1669.66
537.00	1684.33
537.36	1699.77
537.72	1714.22
538.08	1728.69
538.44	1742.52
538.79	1756.24
539.15	1770.00
539.51	1783.75
539.87	1798.05
540.22	1811.91
540.58	1825.68
540.94	1839.01
541.29	1851.94
541.65	1864.61
542.01	1877.96
542.37	1890.32
542.72	1902.70
543.08	1914.31
543.44	1926.72
543.79	1937.98
544.15	1949.00
544.51	1960.60
544.87	1971.44
545.22	1982.33
545.58	1992.45
545.94	2002.23
546.29	2012.09
546.65	2021.92
547.01	2031.06
547.36	2039.90
547.72	2048.35
548.07	2056.06
548.43	2064.25
548.79	2072.37
549.14	2079.92
549.50	2087.15
549.86	2094.88
550.21	2102.04
550.57	2109.38
550.92	2115.83
551.28	2122.84
551.64	2129.98
551.99	2136.50
552.35	2142.72
552.70	2148.82
553.06	2154.77
553.41	2161.10
553.77	2167.20
554.13	2173.39
554.48	2179.59
554.84	2185.02
555.19	2190.44
555.55	2195.69
555.90	2200.15
556.26	2204.94
556.61	2209.59
556.97	2213.87
557.32	2217.92
557.68	2222.12
558.03	2226.26
558.39	2230.10
558.74	2234.71
559.10	2238.56
559.45	2242.23
559.81	2246.41
560.16	2250.18
560.52	2253.37
560.87	2256.76
561.23	2259.46
561.58	2262.32
561.94	2264.90
562.29	2267.27
562.64	2269.70
563.00	2272.30
563.35	2275.84
563.71	2278.91
564.06	2282.17
564.42	2284.99
564.77	2287.55
565.12	2289.80
565.48	2291.70
565.83	2293.35
566.19	2294.65
566.54	2295.45
566.89	2296.54
567.25	2296.95
567.60	2298.24
567.96	2300.06
568.31	2300.89
568.66	2301.91
569.02	2302.39
569.37	2302.52
569.72	2303.33
570.08	2303.56
570.43	2303.56
570.78	2302.87
571.14	2301.33
571.49	2300.06
571.84	2299.78
572.20	2298.59
572.55	2297.43
572.90	2295.96
573.26	2294.68
573.61	2293.03
573.96	2291.26
574.31	2288.25
574.67	2285.32
575.02	2281.66
575.37	2278.08
575.72	2274.16
576.08	2270.85
576.43	2267.53
576.78	2263.84
577.13	2260.52
577.49	2257.41
577.84	2253.93
578.19	2250.18
578.54	2246.52
578.90	2242.15
579.25	2236.51
579.60	2231.51
579.95	2226.60
580.30	2221.50
580.66	2216.31
581.01	2211.32
581.36	2206.38
581.71	2202.17
582.06	2197.70
582.42	2193.27
582.77	2188.12
583.12	2183.48
583.47	2178.58
583.82	2173.56
584.17	2168.37
584.53	2163.00
584.88	2157.30
585.23	2151.39
585.58	2146.01
585.93	2140.62
586.28	2135.82
586.63	2130.66
586.98	2125.59
587.34	2120.87
587.69	2116.05
588.04	2110.63
588.39	2104.96
588.74	2098.50
589.09	2092.35
589.44	2085.53
589.79	2079.71
590.14	2074.10
590.49	2067.54
590.84	2061.41
591.19	2055.25
591.54	2048.68
591.89	2041.31
592.25	2034.46
592.60	2027.31
592.95	2019.58
593.30	2012.15
593.65	2004.66
594.00	1997.66
594.35	1990.47
594.70	1982.34
595.05	1974.95
595.40	1967.81
595.75	1960.11
596.10	1953.78
596.45	1946.97
596.80	1940.75
597.15	1933.74
597.50	1926.52
597.85	1920.13
598.19	1913.22
598.54	1906.12
598.89	1899.47
599.24	1893.51
599.59	1886.72
599.94	1880.54
600.29	1874.16
600.64	1867.56
600.99	1860.00
601.34	1853.17
601.69	1846.11
602.04	1839.17
602.39	1831.85
602.74	1824.96
603.08	1818.36
603.43	1811.67
603.78	1804.41
604.13	1797.16
604.48	1789.97
604.83	1783.09
605.18	1776.02
605.53	1768.03
605.87	1760.07
606.22	1752.84
606.57	1744.83
606.92	1737.53
607.27	1730.21
607.62	1723.30
607.96	1715.99
608.31	1709.38
608.66	1701.66
609.01	1693.97
609.36	1686.47
609.70	1678.51
610.05	1670.36
610.40	1662.60
610.75	1654.32
611.10	1646.64
611.44	1638.39
611.79	1630.49
612.14	1621.68
612.49	1612.53
612.83	1604.21
613.18	1596.12
613.53	1588.07
613.88	1579.55
614.22	1571.37
614.57	1562.76
614.92	1554.67
615.27	1547.03
615.61	1538.68
615.96	1530.76
616.31	1523.30
616.65	1515.92
617.00	1508.40
617.35	1500.93
617.70	1492.64
618.04	1484.08
618.39	1475.87
618.74	1468.19
619.08	1459.84
619.43	1452.38
619.78	1445.49
620.12	1438.27
620.47	1430.64
620.82	1422.47
621.16	1415.23
621.51	1407.65
621.85	1400.26
622.20	1391.72
622.55	1383.44
622.89	1375.59
623.24	1368.08
623.59	1360.71
623.93	1353.19
624.28	1345.80
624.62	1338.20
624.97	1330.94
625.32	1324.30
625.66	1317.16
626.01	1310.01
626.35	1302.50
626.70	1294.76
627.04	1287.03
627.39	1279.43
627.73	1272.09
628.08	1265.12
628.43	1257.66
628.77	1250.37
629.12	1242.67
629.46	1235.59
629.81	1228.15
630.15	1220.92
630.50	1213.44
630.84	1205.22
631.19	1197.32
631.53	1189.80
631.88	1182.25
632.22	1174.71
632.57	1167.35
632.91	1159.89
633.26	1152.46
633.60	1145.13
633.95	1138.05
634.29	1131.08
634.64	1124.31
634.98	1116.98
635.32	1109.88
635.67	1103.29
636.01	1096.53
636.36	1089.78
636.70	1083.31
637.05	1076.76
637.39	1070.19
637.73	1063.69
638.08	1057.76
638.42	1051.81
638.77	1045.43
639.11	1038.85
639.45	1032.42
639.80	1025.72
640.14	1019.34
640.49	1012.81
640.83	1006.54
641.17	1000.28
641.52	993.98
641.86	987.47
642.20	981.60
642.55	975.28
642.89	968.83
643.23	962.33
643.58	956.48
643.92	950.18
644.26	944.03
644.61	938.09
644.95	931.98
645.29	925.41
645.64	918.55
645.98	912.17
646.32	906.35
646.66	900.28
647.01	894.46
647.35	888.68
647.69	882.81
648.04	877.24
648.38	871.40
648.72	865.33
649.06	859.38
649.41	853.51
649.75	847.47
650.09	841.52
650.43	835.69
650.78	829.59
651.12	823.64
651.46	818.02
651.80	812.22
652.14	806.81
652.49	801.38
652.83	796.29
653.17	790.72
653.51	784.98
653.85	779.61
654.20	773.96
654.54	767.93
654.88	762.23
655.22	756.32
655.56	750.66
655.90	745.16
656.25	739.86
656.59	734.50
656.93	729.42
657.27	724.25
657.61	718.83
657.95	713.70
658.29	708.62
658.64	703.33
658.98	698.09
659.32	692.67
659.66	687.47
660.00	682.08
660.34	677.10
660.68	672.16
661.02	667.16
661.36	662.45
661.70	658.00
662.05	653.63
662.39	649.40
662.73	644.95
663.07	640.61
663.41	636.10
663.75	631.63
664.09	627.12
664.43	622.74
664.77	618.63
665.11	614.40
665.45	610.31
665.79	606.29
666.13	602.14
666.47	598.04
666.81	593.92
667.15	589.79
667.49	585.91
667.83	582.16
668.17	578.27
668.51	574.23
668.85	570.21
669.19	566.40
669.53	562.45
669.87	558.59
670.21	554.88
670.55	551.23
670.89	547.80
671.23	544.38
671.57	540.87
671.91	537.34
672.25	533.85
672.58	530.40
672.92	526.98
673.26	523.82
673.60	520.70
673.94	517.60
674.28	514.75
674.62	511.78
674.96	508.66
675.30	505.71
675.64	502.74
675.97	499.97
676.31	497.05
676.65	494.17
676.99	491.50
677.33	488.66
677.67	485.90
678.01	482.89
678.34	479.82
678.68	476.95
679.02	474.15
679.36	471.35
679.70	468.65
680.04	465.89
680.37	463.02
680.71	460.24
681.05	457.63
681.39	454.90
681.73	452.23
682.06	449.68
682.40	447.12
682.74	444.65
683.08	442.09
683.42	439.45
683.75	436.98
684.09	434.41
684.43	431.93
684.77	429.46
685.10	427.12
685.44	424.92
685.78	422.69
686.12	420.45
686.45	418.22
686.79	415.86
687.13	413.69
687.46	411.54
687.80	409.34
688.14	407.14
688.48	405.03
688.81	402.77
689.15	400.68
689.49	398.56
689.82	396.49
690.16	394.46
690.50	392.60
690.83	390.61
691.17	388.70
691.51	386.79
691.84	385.00
692.18	383.07
692.52	381.05
692.85	379.11
693.19	377.18
693.52	375.30
693.86	373.49
694.20	371.67
694.53	369.90
694.87	368.11
695.21	366.32
695.54	364.59
695.88	362.92
696.21	361.18
696.55	359.49
696.88	357.81
697.22	356.17
697.56	354.55
697.89	352.93
698.23	351.27
698.56	349.66
698.90	348.01
699.23	346.39
699.57	344.85
699.90	343.27
700.24	341.72
700.58	340.21
700.91	338.70
701.25	337.27
701.58	335.92
701.92	334.54
702.25	333.16
702.59	331.78
702.92	330.47
703.26	329.20
703.59	327.92
703.93	326.70
704.26	325.42
704.60	324.12
704.93	322.85
705.26	321.63
705.60	320.49
705.93	319.35
706.27	318.26
706.60	317.20
706.94	316.12
707.27	315.01
707.61	313.95
707.94	312.98
708.27	311.90
708.61	310.80
708.94	309.81
709.28	308.85
709.61	307.90
709.94	306.90
710.28	305.84
710.61	304.88
710.95	303.80
711.28	302.89
711.61	301.91
711.95	300.98
712.28	300.02
712.61	299.00
712.95	298.05
713.28	297.22
713.61	296.31
713.95	295.45
714.28	294.64
714.61	293.76
714.95	292.84
715.28	291.96
715.61	291.08
715.95	290.25
716.28	289.37
716.61	288.55
716.95	287.72
717.28	286.99
717.61	286.20
717.94	285.47
718.28	284.66
718.61	283.97
718.94	283.28
719.27	282.61
719.61	282.00
719.94	281.35
720.27	280.60
720.60	279.93
720.94	279.26
721.27	278.63
721.60	278.07
721.93	277.51
722.27	276.97
722.60	276.41
722.93	275.82
723.26	275.26
723.59	274.65
723.93	274.11
724.26	273.54
724.59	272.98
724.92	272.43
725.25	271.92
725.59	271.40
725.92	270.87
726.25	270.36
726.58	269.84
726.91	269.35
727.24	268.89
727.57	268.46
727.91	267.95
728.24	267.53
728.57	267.02
728.90	266.55
729.23	266.05
729.56	265.63
729.89	265.14
730.22	264.70
730.55	264.22
730.89	263.79
731.22	263.34
731.55	262.93
731.88	262.54
732.21	262.13
732.54	261.71
732.87	261.32
733.20	260.93
733.53	260.56
733.86	260.16
734.19	259.77
734.52	259.41
734.85	259.11
735.18	258.66
735.51	258.29
735.84	257.93
736.17	257.61
736.50	257.18
736.83	256.97
737.16	256.64
737.49	256.36
737.82	256.00
738.15	255.70
738.48	255.38
738.81	255.05
739.14	254.71
739.47	254.42
739.80	254.12
740.13	253.83
740.46	253.51
740.79	253.22
741.12	252.93
741.45	252.61
741.78	252.30
742.11	252.05
742.44	251.75
742.77	251.48
743.10	251.17
743.43	250.90
743.75	250.51
744.08	250.37
744.41	250.09
744.74	249.85
745.07	249.59
745.40	249.34
745.73	249.11
746.06	248.85
746.39	248.57
746.71	248.31
747.04	248.02
747.37	247.74
747.70	247.51
748.03	247.25
748.36	247.01
748.68	246.75
749.01	246.47
749.34	246.24
749.67	246.02
750.00	245.80
750.33	245.67
750.65	245.46
750.98	245.13
751.31	244.89
751.64	244.67
751.97	244.47
752.29	244.21
752.62	243.95
752.95	243.75
753.28	243.51
753.60	243.30
753.93	243.16
754.26	242.99
754.59	242.75
754.91	242.55
755.24	242.32
755.57	242.14
755.90	241.99
756.22	241.78
756.55	241.58
756.88	241.37
757.20	241.12
757.53	240.91
757.86	240.70
758.19	240.55
758.51	240.36
758.84	240.16
759.17	240.03
759.49	239.86
759.82	239.71
760.15	239.59
760.47	239.42
760.80	239.19
761.13	239.03
761.45	238.85
761.78	238.69
762.11	238.55
762.43	238.38
762.76	238.16
763.08	238.02
763.41	237.85
763.74	237.70
764.06	237.53
764.39	237.39
764.71	237.24
765.04	237.06
765.37	236.89
765.69	236.78
766.02	236.62
766.34	236.50
766.67	236.37
767.00	236.23
767.32	236.17
767.65	236.15
767.97	236.03
768.30	235.94
768.62	235.83
768.95	235.73
769.27	235.63
769.60	235.58
769.92	235.49
770.25	235.41
770.57	235.29
770.90	235.21
771.22	235.10
771.55	235.02
771.87	234.95
772.20	234.87
772.52	234.86
772.85	234.90
773.17	234.79
773.50	234.69
773.82	234.58
774.15	234.45
774.47	234.28
774.80	234.18
775.12	234.09
775.45	234.01
775.77	233.92
776.09	233.89
776.42	233.81
776.74	233.77
777.07	233.70
777.39	233.67
777.72	233.59
778.04	233.56
778.36	233.52
778.69	233.48
779.01	233.46
779.33	233.33
779.66	233.15
779.98	233.11
780.31	233.08
780.63	233.09
780.95	233.08
781.28	233.04
781.60	232.99
781.92	232.96
782.25	232.89
782.57	232.86
782.89	232.79
783.22	232.73
783.54	232.65
783.86	232.63
784.19	232.57
784.51	232.53
784.83	232.44
785.16	232.37
785.48	232.32
785.80	232.24
786.12	232.21
786.45	232.17
786.77	232.13
787.09	232.05
