SpectraSuite Data File
++++++++++++++++++++++++++++++++++++
Date: Fri Feb 01 18:14:06 EST 2013
User: group
Dark Spectrum Present: No
Reference Spectrum Present: No
Number of Sampled Component Spectra: 1
Spectrometers: USB2E7196
Integration Time (usec): 35000 (USB2E7196)
Spectra Averaged: 100 (USB2E7196)
Boxcar Smoothing: 10 (USB2E7196)
Correct for Electrical Dark: No (USB2E7196)
Strobe/Lamp Enabled: No (USB2E7196)
Correct for Detector Non-linearity: No (USB2E7196)
Correct for Stray Light: No (USB2E7196)
Number of Pixels in Processed Spectrum: 2048
>>>>>Begin Processed Spectral Data<<<<<
339.09	0.00
339.48	212.90
339.86	214.54
340.24	216.21
340.63	217.81
341.01	220.09
341.39	220.40
341.78	221.09
342.16	222.42
342.54	223.15
342.93	211.63
343.31	222.30
343.69	222.83
344.07	223.31
344.46	223.74
344.84	224.11
345.22	224.36
345.60	224.62
345.99	224.81
346.37	225.01
346.75	225.11
347.13	225.19
347.52	225.22
347.90	225.29
348.28	225.37
348.66	225.42
349.05	225.42
349.43	225.44
349.81	225.51
350.19	225.56
350.57	225.65
350.96	225.71
351.34	225.83
351.72	225.93
352.10	226.04
352.48	226.12
352.87	226.17
353.25	226.23
353.63	226.26
354.01	226.32
354.39	226.37
354.77	226.43
355.15	226.51
355.54	226.60
355.92	226.64
356.30	226.68
356.68	226.81
357.06	226.86
357.44	226.90
357.82	226.95
358.20	227.01
358.58	227.03
358.97	227.11
359.35	227.16
359.73	227.25
360.11	227.30
360.49	227.35
360.87	227.39
361.25	227.43
361.63	227.51
362.01	227.58
362.39	227.60
362.77	227.68
363.15	227.69
363.53	227.72
363.91	227.77
364.29	227.80
364.67	227.73
365.05	227.76
365.43	227.76
365.81	227.79
366.19	227.84
366.57	227.89
366.95	227.84
367.33	227.83
367.71	227.82
368.09	227.80
368.47	227.77
368.85	227.73
369.23	227.74
369.61	227.68
369.99	227.70
370.37	227.69
370.75	227.66
371.13	227.67
371.51	227.63
371.89	227.58
372.27	227.53
372.65	227.51
373.03	227.51
373.41	227.49
373.78	227.42
374.16	227.29
374.54	227.17
374.92	227.13
375.30	227.09
375.68	227.02
376.06	226.95
376.44	226.89
376.82	226.87
377.19	226.80
377.57	226.73
377.95	226.62
378.33	226.59
378.71	226.51
379.09	226.46
379.47	226.39
379.84	226.31
380.22	226.29
380.60	226.22
380.98	226.12
381.36	226.07
381.73	226.00
382.11	226.00
382.49	225.97
382.87	225.92
383.25	225.89
383.62	225.96
384.00	225.91
384.38	225.85
384.76	225.82
385.13	225.81
385.51	225.82
385.89	225.76
386.27	225.68
386.64	225.62
387.02	225.57
387.40	225.51
387.78	225.47
388.15	225.43
388.53	225.38
388.91	225.36
389.29	225.31
389.66	225.31
390.04	225.29
390.42	225.31
390.79	225.28
391.17	225.27
391.55	225.12
391.92	225.07
392.30	225.10
392.68	225.06
393.05	225.05
393.43	225.02
393.81	225.01
394.18	225.00
394.56	225.03
394.94	225.08
395.31	225.09
395.69	225.14
396.06	225.16
396.44	225.22
396.82	225.24
397.19	225.33
397.57	225.38
397.95	225.41
398.32	225.40
398.70	225.45
399.07	225.50
399.45	225.52
399.82	225.65
400.20	225.66
400.58	225.72
400.95	225.77
401.33	225.89
401.70	226.03
402.08	226.13
402.45	226.21
402.83	226.33
403.20	226.45
403.58	226.55
403.95	226.71
404.33	226.82
404.71	226.97
405.08	227.13
405.46	227.25
405.83	227.44
406.21	227.61
406.58	227.84
406.96	228.03
407.33	228.31
407.70	228.52
408.08	228.86
408.45	229.13
408.83	229.43
409.20	229.73
409.58	229.99
409.95	230.35
410.33	230.71
410.70	231.02
411.08	231.40
411.45	231.81
411.82	232.18
412.20	232.64
412.57	233.18
412.95	233.63
413.32	234.17
413.69	234.73
414.07	235.35
414.44	235.96
414.82	236.61
415.19	237.32
415.56	238.12
415.94	238.88
416.31	239.75
416.68	240.60
417.06	241.55
417.43	242.46
417.81	243.53
418.18	244.63
418.55	245.81
418.93	247.03
419.30	248.30
419.67	249.62
420.04	250.97
420.42	252.37
420.79	253.97
421.16	255.59
421.54	257.26
421.91	258.95
422.28	260.70
422.66	262.57
423.03	264.39
423.40	266.21
423.77	268.18
424.15	270.21
424.52	272.32
424.89	274.56
425.26	276.77
425.64	278.82
426.01	281.07
426.38	283.39
426.75	285.73
427.13	288.15
427.50	290.73
427.87	293.41
428.24	296.00
428.61	298.53
428.99	301.26
429.36	304.18
429.73	307.10
430.10	309.97
430.47	312.92
430.85	315.94
431.22	319.17
431.59	322.50
431.96	325.66
432.33	329.15
432.70	332.53
433.08	336.50
433.45	340.17
433.82	343.85
434.19	347.92
434.56	351.88
434.93	355.62
435.30	359.33
435.68	363.38
436.05	367.41
436.42	371.34
436.79	374.90
437.16	378.74
437.53	382.76
437.90	386.71
438.27	390.55
438.64	394.55
439.01	398.19
439.38	401.33
439.75	404.41
440.13	407.93
440.50	411.22
440.87	413.83
441.24	416.66
441.61	419.74
441.98	421.87
442.35	424.43
442.72	427.04
443.09	429.55
443.46	430.93
443.83	431.70
444.20	432.41
444.57	433.61
444.94	434.01
445.31	434.50
445.68	434.94
446.05	435.05
446.42	434.51
446.79	433.89
447.16	433.32
447.53	432.84
447.90	431.27
448.27	429.65
448.64	427.40
449.01	425.75
449.37	422.92
449.74	420.25
450.11	417.04
450.48	413.56
450.85	410.03
451.22	407.04
451.59	404.24
451.96	401.51
452.33	397.81
452.70	394.52
453.07	390.48
453.43	386.46
453.80	382.55
454.17	378.81
454.54	375.21
454.91	371.37
455.28	367.62
455.65	364.09
456.02	360.53
456.38	357.52
456.75	353.73
457.12	350.52
457.49	347.35
457.86	344.35
458.23	341.68
458.59	338.77
458.96	335.81
459.33	333.17
459.70	330.54
460.07	328.37
460.43	325.91
460.80	323.61
461.17	321.55
461.54	319.37
461.91	317.31
462.27	315.28
462.64	313.51
463.01	311.58
463.38	309.69
463.74	307.85
464.11	306.20
464.48	304.74
464.85	303.19
465.21	301.91
465.58	300.57
465.95	299.03
466.32	297.69
466.68	296.38
467.05	295.10
467.42	293.83
467.78	292.51
468.15	291.23
468.52	290.29
468.88	289.06
469.25	287.98
469.62	287.07
469.98	286.08
470.35	285.16
470.72	284.28
471.08	283.35
471.45	282.57
471.82	281.73
472.18	280.91
472.55	280.28
472.92	279.55
473.28	278.89
473.65	278.25
474.02	277.66
474.38	277.11
474.75	276.57
475.11	276.07
475.48	275.68
475.85	275.35
476.21	274.99
476.58	274.67
476.94	274.45
477.31	274.13
477.67	273.87
478.04	273.66
478.41	273.50
478.77	273.44
479.14	273.23
479.50	273.16
479.87	273.10
480.23	273.08
480.60	273.07
480.96	273.09
481.33	273.27
481.69	273.39
482.06	273.54
482.42	273.70
482.79	273.88
483.15	274.14
483.52	274.48
483.88	274.77
484.25	275.13
484.61	275.50
484.98	275.93
485.34	276.48
485.71	277.07
486.07	277.66
486.44	278.24
486.80	278.99
487.17	279.78
487.53	280.65
487.90	281.56
488.26	282.52
488.62	283.53
488.99	284.53
489.35	285.62
489.72	286.79
490.08	288.11
490.44	289.44
490.81	290.88
491.17	292.30
491.54	293.87
491.90	295.50
492.26	297.27
492.63	299.14
492.99	301.05
493.36	303.05
493.72	305.25
494.08	307.50
494.45	309.89
494.81	312.39
495.17	314.96
495.54	317.70
495.90	320.57
496.26	323.57
496.63	326.71
496.99	330.05
497.35	333.55
497.72	337.14
498.08	340.92
498.44	344.85
498.80	349.05
499.17	353.40
499.53	357.86
499.89	362.56
500.26	367.41
500.62	372.36
500.98	377.75
501.34	383.22
501.71	388.95
502.07	394.78
502.43	400.77
502.79	407.02
503.16	413.56
503.52	420.32
503.88	427.20
504.24	434.32
504.60	441.75
504.97	449.47
505.33	457.35
505.69	465.65
506.05	474.03
506.41	482.54
506.78	491.33
507.14	500.45
507.50	509.88
507.86	519.58
508.22	529.59
508.59	539.51
508.95	549.89
509.31	560.51
509.67	571.49
510.03	582.70
510.39	594.22
510.75	605.88
511.12	617.77
511.48	630.12
511.84	642.60
512.20	655.13
512.56	668.05
512.92	681.31
513.28	694.77
513.64	708.40
514.00	722.34
514.37	736.52
514.73	750.82
515.09	765.06
515.45	779.60
515.81	794.46
516.17	809.78
516.53	825.20
516.89	840.79
517.25	856.33
517.61	872.24
517.97	888.06
518.33	903.97
518.69	920.23
519.05	936.76
519.41	953.51
519.77	970.67
520.13	987.81
520.49	1004.85
520.85	1021.84
521.21	1039.23
521.57	1057.14
521.93	1074.58
522.29	1092.73
522.65	1110.89
523.01	1128.99
523.37	1146.91
523.73	1164.98
524.09	1183.04
524.45	1201.31
524.81	1219.97
525.17	1238.65
525.53	1257.62
525.89	1276.60
526.25	1295.56
526.61	1314.02
526.97	1332.91
527.33	1351.53
527.68	1370.08
528.04	1388.79
528.40	1407.62
528.76	1426.97
529.12	1445.91
529.48	1465.23
529.84	1483.46
530.20	1502.38
530.56	1521.67
530.91	1541.60
531.27	1560.77
531.63	1579.67
531.99	1598.66
532.35	1617.00
532.71	1635.44
533.07	1654.24
533.42	1672.67
533.78	1691.23
534.14	1709.97
534.50	1727.71
534.86	1746.12
535.21	1763.97
535.57	1782.52
535.93	1800.68
536.29	1818.00
536.65	1835.57
537.00	1852.71
537.36	1870.75
537.72	1887.90
538.08	1905.04
538.44	1921.27
538.79	1937.64
539.15	1953.72
539.51	1970.00
539.87	1987.09
540.22	2003.39
540.58	2019.73
540.94	2035.68
541.29	2051.08
541.65	2066.32
542.01	2082.17
542.37	2097.10
542.72	2112.14
543.08	2126.45
543.44	2141.46
543.79	2155.28
544.15	2168.81
544.51	2183.12
544.87	2196.56
545.22	2209.87
545.58	2222.70
545.94	2234.95
546.29	2247.44
546.65	2259.93
547.01	2271.69
547.36	2282.83
547.72	2293.76
548.07	2304.08
548.43	2314.54
548.79	2324.90
549.14	2334.93
549.50	2344.66
549.86	2354.81
550.21	2364.41
550.57	2373.87
550.92	2382.58
551.28	2391.89
551.64	2401.26
551.99	2410.07
552.35	2418.52
552.70	2426.85
553.06	2434.91
553.41	2443.50
553.77	2451.50
554.13	2459.62
554.48	2467.97
554.84	2475.56
555.19	2482.74
555.55	2489.92
555.90	2496.38
556.26	2503.37
556.61	2509.81
556.97	2516.11
557.32	2521.92
557.68	2527.96
558.03	2534.07
558.39	2539.61
558.74	2546.30
559.10	2551.94
559.45	2557.23
559.81	2563.11
560.16	2568.70
560.52	2573.59
560.87	2578.51
561.23	2582.74
561.58	2587.25
561.94	2591.22
562.29	2594.92
562.64	2599.42
563.00	2603.38
563.35	2608.50
563.71	2613.00
564.06	2617.80
564.42	2622.13
564.77	2626.12
565.12	2629.83
565.48	2633.22
565.83	2636.51
566.19	2638.93
566.54	2640.96
566.89	2643.23
567.25	2645.09
567.60	2647.34
567.96	2650.21
568.31	2652.28
568.66	2654.66
569.02	2656.35
569.37	2657.57
569.72	2659.48
570.08	2660.35
570.43	2661.16
570.78	2661.41
571.14	2660.59
571.49	2659.77
571.84	2660.22
572.20	2659.84
572.55	2659.34
572.90	2658.13
573.26	2657.31
573.61	2655.97
573.96	2654.75
574.31	2652.04
574.67	2649.27
575.02	2645.92
575.37	2642.61
575.72	2638.79
576.08	2635.48
576.43	2632.09
576.78	2628.54
577.13	2625.28
577.49	2622.03
577.84	2618.61
578.19	2614.62
578.54	2610.98
578.90	2606.83
579.25	2600.75
579.60	2595.41
579.95	2590.09
580.30	2584.70
580.66	2578.94
581.01	2573.55
581.36	2568.09
581.71	2563.69
582.06	2558.95
582.42	2554.27
582.77	2548.70
583.12	2543.90
583.47	2538.76
583.82	2533.50
584.17	2527.84
584.53	2521.98
584.88	2515.92
585.23	2509.64
585.58	2503.52
585.93	2497.46
586.28	2491.92
586.63	2486.34
586.98	2480.81
587.34	2475.38
587.69	2469.81
588.04	2464.07
588.39	2457.76
588.74	2450.29
589.09	2443.29
589.44	2435.55
589.79	2428.30
590.14	2421.74
590.49	2414.04
590.84	2406.72
591.19	2399.75
591.54	2392.14
591.89	2383.65
592.25	2375.89
592.60	2367.53
592.95	2358.94
593.30	2350.32
593.65	2341.61
594.00	2333.35
594.35	2324.65
594.70	2315.27
595.05	2307.13
595.40	2298.51
595.75	2289.71
596.10	2282.74
596.45	2274.95
596.80	2267.80
597.15	2260.33
597.50	2252.33
597.85	2244.74
598.19	2236.93
598.54	2228.66
598.89	2220.88
599.24	2213.92
599.59	2206.11
599.94	2198.69
600.29	2191.04
600.64	2183.21
600.99	2174.44
601.34	2166.50
601.69	2158.37
602.04	2150.55
602.39	2141.74
602.74	2133.74
603.08	2125.66
603.43	2117.50
603.78	2108.82
604.13	2100.10
604.48	2091.51
604.83	2083.11
605.18	2074.98
605.53	2065.30
605.87	2055.68
606.22	2047.00
606.57	2037.53
606.92	2028.54
607.27	2019.94
607.62	2011.75
607.96	2003.16
608.31	1995.40
608.66	1986.26
609.01	1977.22
609.36	1968.11
609.70	1958.51
610.05	1948.82
610.40	1939.73
610.75	1929.80
611.10	1920.62
611.44	1910.42
611.79	1900.61
612.14	1890.16
612.49	1879.10
612.83	1869.06
613.18	1859.23
613.53	1849.52
613.88	1839.18
614.22	1829.28
614.57	1819.00
614.92	1809.43
615.27	1800.45
615.61	1790.40
615.96	1780.64
616.31	1771.42
616.65	1762.43
617.00	1753.29
617.35	1743.95
617.70	1734.03
618.04	1723.84
618.39	1713.88
618.74	1704.87
619.08	1695.10
619.43	1685.92
619.78	1677.52
620.12	1669.09
620.47	1660.04
620.82	1650.16
621.16	1641.18
621.51	1631.93
621.85	1622.68
622.20	1612.28
622.55	1602.03
622.89	1592.51
623.24	1583.33
623.59	1574.20
623.93	1565.07
624.28	1556.32
624.62	1547.35
624.97	1538.59
625.32	1530.38
625.66	1521.96
626.01	1513.30
626.35	1504.26
626.70	1494.93
627.04	1485.58
627.39	1476.06
627.73	1467.13
628.08	1458.84
628.43	1450.19
628.77	1441.42
629.12	1432.44
629.46	1423.90
629.81	1414.93
630.15	1406.13
630.50	1397.28
630.84	1387.59
631.19	1378.05
631.53	1369.05
631.88	1360.00
632.22	1350.86
632.57	1342.05
632.91	1332.88
633.26	1324.01
633.60	1315.10
633.95	1306.60
634.29	1298.17
634.64	1290.17
634.98	1281.39
635.32	1272.79
635.67	1264.80
636.01	1256.83
636.36	1248.57
636.70	1240.67
637.05	1232.85
637.39	1225.12
637.73	1217.25
638.08	1210.18
638.42	1202.98
638.77	1195.25
639.11	1187.40
639.45	1179.82
639.80	1171.90
640.14	1164.27
640.49	1156.53
640.83	1149.01
641.17	1141.57
641.52	1134.10
641.86	1126.34
642.20	1119.34
642.55	1111.70
642.89	1104.00
643.23	1096.10
643.58	1089.37
643.92	1082.11
644.26	1074.97
644.61	1067.75
644.95	1060.71
645.29	1052.94
645.64	1044.99
645.98	1037.48
646.32	1030.34
646.66	1023.07
647.01	1016.19
647.35	1009.41
647.69	1002.35
648.04	995.72
648.38	988.86
648.72	981.78
649.06	974.76
649.41	967.70
649.75	960.73
650.09	953.66
650.43	946.83
650.78	939.43
651.12	932.27
651.46	925.40
651.80	918.60
652.14	912.16
652.49	905.73
652.83	899.57
653.17	892.87
653.51	886.18
653.85	879.79
654.20	873.17
654.54	866.04
654.88	859.26
655.22	852.25
655.56	845.49
655.90	838.90
656.25	832.59
656.59	826.30
656.93	820.28
657.27	814.20
657.61	807.78
657.95	801.78
658.29	795.80
658.64	789.58
658.98	783.29
659.32	776.81
659.66	770.69
660.00	764.44
660.34	758.55
660.68	752.72
661.02	746.72
661.36	741.08
661.70	735.81
662.05	730.65
662.39	725.64
662.73	720.42
663.07	715.33
663.41	710.06
663.75	704.72
664.09	699.29
664.43	694.07
664.77	689.30
665.11	684.29
665.45	679.34
665.79	674.58
666.13	669.71
666.47	664.91
666.81	660.00
667.15	655.18
667.49	650.60
667.83	646.10
668.17	641.55
668.51	636.74
668.85	631.94
669.19	627.31
669.53	622.74
669.87	618.13
670.21	613.62
670.55	609.32
670.89	605.30
671.23	601.31
671.57	597.14
671.91	592.92
672.25	588.72
672.58	584.67
672.92	580.61
673.26	576.89
673.60	573.16
673.94	569.52
674.28	566.04
674.62	562.60
674.96	558.96
675.30	555.49
675.64	552.08
675.97	548.82
676.31	545.53
676.65	542.10
676.99	538.93
677.33	535.64
677.67	532.37
678.01	528.80
678.34	525.28
678.68	521.94
679.02	518.68
679.36	515.46
679.70	512.28
680.04	509.03
680.37	505.71
680.71	502.41
681.05	499.34
681.39	496.13
681.73	493.00
682.06	490.09
682.40	487.10
682.74	484.14
683.08	481.14
683.42	478.04
683.75	475.09
684.09	472.04
684.43	469.16
684.77	466.23
685.10	463.45
685.44	460.76
685.78	458.02
686.12	455.36
686.45	452.63
686.79	449.87
687.13	447.28
687.46	444.73
687.80	442.11
688.14	439.41
688.48	437.03
688.81	434.33
689.15	431.70
689.49	429.09
689.82	426.60
690.16	424.10
690.50	421.80
690.83	419.46
691.17	417.12
691.51	414.87
691.84	412.68
692.18	410.43
692.52	408.12
692.85	405.84
693.19	403.58
693.52	401.39
693.86	399.19
694.20	397.06
694.53	394.92
694.87	392.76
695.21	390.71
695.54	388.47
695.88	386.42
696.21	384.41
696.55	382.41
696.88	380.41
697.22	378.43
697.56	376.46
697.89	374.53
698.23	372.64
698.56	370.73
698.90	368.86
699.23	366.92
699.57	365.05
699.90	363.21
700.24	361.35
700.58	359.57
700.91	357.83
701.25	356.09
701.58	354.45
701.92	352.83
702.25	351.16
702.59	349.58
702.92	348.01
703.26	346.44
703.59	344.96
703.93	343.52
704.26	342.09
704.60	340.59
704.93	339.06
705.26	337.51
705.60	336.10
705.93	334.70
706.27	333.46
706.60	332.18
706.94	330.90
707.27	329.58
707.61	328.26
707.94	327.05
708.27	325.73
708.61	324.42
708.94	323.19
709.28	322.04
709.61	320.86
709.94	319.71
710.28	318.53
710.61	317.35
710.95	316.07
711.28	314.95
711.61	313.81
711.95	312.74
712.28	311.67
712.61	310.49
712.95	309.40
713.28	308.35
713.61	307.30
713.95	306.27
714.28	305.27
714.61	304.28
714.95	303.27
715.28	302.28
715.61	301.25
715.95	300.24
716.28	299.20
716.61	298.21
716.95	297.21
717.28	296.31
717.61	295.41
717.94	294.56
718.28	293.63
718.61	292.78
718.94	291.97
719.27	291.18
719.61	290.40
719.94	289.63
720.27	288.75
720.60	287.94
720.94	287.14
721.27	286.43
721.60	285.75
721.93	285.01
722.27	284.39
722.60	283.74
722.93	283.10
723.26	282.47
723.59	281.85
723.93	281.26
724.26	280.57
724.59	279.90
724.92	279.26
725.25	278.70
725.59	278.05
725.92	277.46
726.25	276.83
726.58	276.23
726.91	275.64
727.24	275.05
727.57	274.51
727.91	273.95
728.24	273.39
728.57	272.77
728.90	272.23
729.23	271.62
729.56	271.12
729.89	270.53
730.22	269.98
730.55	269.40
730.89	268.86
731.22	268.33
731.55	267.82
731.88	267.31
732.21	266.74
732.54	266.27
732.87	265.72
733.20	265.29
733.53	264.87
733.86	264.41
734.19	263.97
734.52	263.49
734.85	263.07
735.18	262.61
735.51	262.20
735.84	261.76
736.17	261.35
736.50	260.87
736.83	260.61
737.16	260.18
737.49	259.78
737.82	259.37
738.15	259.01
738.48	258.61
738.81	258.21
739.14	257.84
739.47	257.45
739.80	257.10
740.13	256.71
740.46	256.30
740.79	255.89
741.12	255.52
741.45	255.14
741.78	254.77
742.11	254.41
742.44	254.01
742.77	253.66
743.10	253.30
743.43	252.95
743.75	252.47
744.08	252.25
744.41	251.90
744.74	251.58
745.07	251.24
745.40	250.93
745.73	250.65
746.06	250.33
746.39	249.99
746.71	249.67
747.04	249.34
747.37	249.03
747.70	248.75
748.03	248.45
748.36	248.19
748.68	247.90
749.01	247.56
749.34	247.27
749.67	246.99
750.00	246.72
750.33	246.51
750.65	246.25
750.98	245.89
751.31	245.65
751.64	245.40
751.97	245.19
752.29	244.93
752.62	244.64
752.95	244.42
753.28	244.20
753.60	243.95
753.93	243.76
754.26	243.54
754.59	243.31
754.91	243.05
755.24	242.83
755.57	242.60
755.90	242.41
756.22	242.21
756.55	241.97
756.88	241.77
757.20	241.52
757.53	241.32
757.86	241.12
758.19	240.95
758.51	240.75
758.84	240.51
759.17	240.33
759.49	240.17
759.82	240.01
760.15	239.83
760.47	239.66
760.80	239.46
761.13	239.31
761.45	239.12
761.78	238.95
762.11	238.76
762.43	238.61
762.76	238.47
763.08	238.33
763.41	238.22
763.74	238.10
764.06	237.93
764.39	237.76
764.71	237.59
765.04	237.40
765.37	237.25
765.69	237.10
766.02	236.97
766.34	236.80
766.67	236.66
767.00	236.56
767.32	236.48
767.65	236.41
767.97	236.28
768.30	236.17
768.62	236.07
768.95	235.93
769.27	235.83
769.60	235.72
769.92	235.57
770.25	235.42
770.57	235.24
770.90	235.13
771.22	235.03
771.55	234.92
771.87	234.83
772.20	234.74
772.52	234.72
772.85	234.71
773.17	234.60
773.50	234.45
773.82	234.34
774.15	234.17
774.47	233.99
774.80	233.89
775.12	233.76
775.45	233.66
775.77	233.59
776.09	233.48
776.42	233.39
776.74	233.30
777.07	233.18
777.39	233.08
777.72	233.00
778.04	232.91
778.36	232.83
778.69	232.74
779.01	232.66
779.33	232.49
779.66	232.33
779.98	232.22
780.31	232.11
780.63	232.06
780.95	231.98
781.28	231.91
781.60	231.78
781.92	231.73
782.25	231.62
782.57	231.55
782.89	231.44
783.22	231.35
783.54	231.27
783.86	231.25
784.19	231.24
784.51	231.15
784.83	231.05
785.16	230.98
785.48	230.92
785.80	230.85
786.12	230.74
786.45	230.65
