SpectraSuite Data File
++++++++++++++++++++++++++++++++++++
Date: Fri Feb 01 15:38:00 EST 2013
User: group
Dark Spectrum Present: No
Reference Spectrum Present: No
Number of Sampled Component Spectra: 1
Spectrometers: USB2E7196
Integration Time (usec): 35000 (USB2E7196)
Spectra Averaged: 100 (USB2E7196)
Boxcar Smoothing: 10 (USB2E7196)
Correct for Electrical Dark: No (USB2E7196)
Strobe/Lamp Enabled: No (USB2E7196)
Correct for Detector Non-linearity: No (USB2E7196)
Correct for Stray Light: No (USB2E7196)
Number of Pixels in Processed Spectrum: 2048
>>>>>Begin Processed Spectral Data<<<<<
339.09	0.00
339.48	215.03
339.86	216.59
340.24	217.67
340.63	218.99
341.01	221.98
341.39	222.00
341.78	223.24
342.16	223.91
342.54	224.00
342.93	213.13
343.31	223.93
343.69	224.45
344.07	224.91
344.46	225.30
344.84	225.69
345.22	225.93
345.60	226.16
345.99	226.38
346.37	226.52
346.75	226.67
347.13	226.73
347.52	226.78
347.90	226.83
348.28	226.90
348.66	226.95
349.05	226.94
349.43	227.01
349.81	227.09
350.19	227.14
350.57	227.19
350.96	227.27
351.34	227.36
351.72	227.43
352.10	227.55
352.48	227.65
352.87	227.75
353.25	227.81
353.63	227.87
354.01	227.89
354.39	227.97
354.77	228.05
355.15	228.18
355.54	228.24
355.92	228.29
356.30	228.34
356.68	228.46
357.06	228.57
357.44	228.65
357.82	228.68
358.20	228.78
358.58	228.85
358.97	228.90
359.35	228.95
359.73	229.02
360.11	229.04
360.49	229.08
360.87	229.10
361.25	229.16
361.63	229.25
362.01	229.34
362.39	229.38
362.77	229.42
363.15	229.43
363.53	229.47
363.91	229.48
364.29	229.51
364.67	229.44
365.05	229.43
365.43	229.44
365.81	229.46
366.19	229.47
366.57	229.49
366.95	229.48
367.33	229.43
367.71	229.47
368.09	229.48
368.47	229.47
368.85	229.45
369.23	229.41
369.61	229.34
369.99	229.32
370.37	229.32
370.75	229.32
371.13	229.23
371.51	229.22
371.89	229.19
372.27	229.16
372.65	229.12
373.03	229.08
373.41	229.00
373.78	228.96
374.16	228.90
374.54	228.82
374.92	228.76
375.30	228.71
375.68	228.61
376.06	228.53
376.44	228.46
376.82	228.40
377.19	228.36
377.57	228.26
377.95	228.16
378.33	228.03
378.71	227.90
379.09	227.85
379.47	227.75
379.84	227.66
380.22	227.55
380.60	227.47
380.98	227.38
381.36	227.35
381.73	227.28
382.11	227.20
382.49	227.16
382.87	227.11
383.25	227.04
383.62	227.07
384.00	227.02
384.38	226.96
384.76	226.90
385.13	226.87
385.51	226.85
385.89	226.78
386.27	226.74
386.64	226.75
387.02	226.69
387.40	226.65
387.78	226.62
388.15	226.57
388.53	226.52
388.91	226.50
389.29	226.43
389.66	226.39
390.04	226.35
390.42	226.35
390.79	226.29
391.17	226.31
391.55	226.21
391.92	226.20
392.30	226.21
392.68	226.21
393.05	226.24
393.43	226.24
393.81	226.25
394.18	226.28
394.56	226.26
394.94	226.31
395.31	226.32
395.69	226.36
396.06	226.39
396.44	226.44
396.82	226.45
397.19	226.54
397.57	226.60
397.95	226.64
398.32	226.62
398.70	226.71
399.07	226.75
399.45	226.77
399.82	226.83
400.20	226.89
400.58	226.96
400.95	226.98
401.33	227.08
401.70	227.23
402.08	227.32
402.45	227.44
402.83	227.55
403.20	227.67
403.58	227.78
403.95	227.91
404.33	228.06
404.71	228.20
405.08	228.39
405.46	228.51
405.83	228.68
406.21	228.85
406.58	229.01
406.96	229.18
407.33	229.42
407.70	229.61
408.08	229.90
408.45	230.13
408.83	230.39
409.20	230.60
409.58	230.80
409.95	231.07
410.33	231.33
410.70	231.62
411.08	231.91
411.45	232.23
411.82	232.54
412.20	232.87
412.57	233.28
412.95	233.55
413.32	233.98
413.69	234.40
414.07	234.84
414.44	235.32
414.82	235.84
415.19	236.36
415.56	236.95
415.94	237.46
416.31	238.08
416.68	238.68
417.06	239.39
417.43	240.05
417.81	240.83
418.18	241.60
418.55	242.42
418.93	243.30
419.30	244.20
419.67	245.16
420.04	246.15
420.42	247.15
420.79	248.36
421.16	249.51
421.54	250.69
421.91	251.92
422.28	253.18
422.66	254.47
423.03	255.75
423.40	257.07
423.77	258.49
424.15	259.93
424.52	261.43
424.89	263.05
425.26	264.60
425.64	266.03
426.01	267.67
426.38	269.32
426.75	271.02
427.13	272.75
427.50	274.59
427.87	276.49
428.24	278.34
428.61	280.08
428.99	281.98
429.36	284.12
429.73	286.20
430.10	288.23
430.47	290.28
430.85	292.43
431.22	294.66
431.59	297.03
431.96	299.25
432.33	301.70
432.70	304.07
433.08	306.88
433.45	309.48
433.82	312.05
434.19	314.95
434.56	317.76
434.93	320.37
435.30	322.97
435.68	325.84
436.05	328.68
436.42	331.50
436.79	334.05
437.16	336.71
437.53	339.53
437.90	342.30
438.27	345.12
438.64	347.94
439.01	350.54
439.38	352.78
439.75	354.96
440.13	357.48
440.50	359.79
440.87	361.68
441.24	363.64
441.61	365.79
441.98	367.27
442.35	369.08
442.72	370.96
443.09	372.74
443.46	373.70
443.83	374.29
444.20	374.78
444.57	375.61
444.94	375.89
445.31	376.19
445.68	376.59
446.05	376.61
446.42	376.24
446.79	375.80
447.16	375.37
447.53	375.06
447.90	373.95
448.27	372.81
448.64	371.19
449.01	370.07
449.37	368.11
449.74	366.21
450.11	363.89
450.48	361.46
450.85	358.94
451.22	356.80
451.59	354.77
451.96	352.81
452.33	350.24
452.70	347.88
453.07	345.06
453.43	342.15
453.80	339.40
454.17	336.73
454.54	334.23
454.91	331.53
455.28	328.86
455.65	326.33
456.02	323.90
456.38	321.79
456.75	319.10
457.12	316.89
457.49	314.69
457.86	312.55
458.23	310.66
458.59	308.62
458.96	306.53
459.33	304.69
459.70	302.82
460.07	301.30
460.43	299.59
460.80	297.94
461.17	296.46
461.54	294.96
461.91	293.49
462.27	292.05
462.64	290.74
463.01	289.39
463.38	288.08
463.74	286.69
464.11	285.49
464.48	284.50
464.85	283.39
465.21	282.53
465.58	281.62
465.95	280.51
466.32	279.58
466.68	278.69
467.05	277.79
467.42	276.92
467.78	275.96
468.15	275.06
468.52	274.44
468.88	273.56
469.25	272.77
469.62	272.16
469.98	271.48
470.35	270.88
470.72	270.26
471.08	269.61
471.45	269.08
471.82	268.55
472.18	267.92
472.55	267.47
472.92	266.91
473.28	266.46
473.65	266.02
474.02	265.59
474.38	265.24
474.75	264.92
475.11	264.56
475.48	264.31
475.85	264.14
476.21	263.91
476.58	263.76
476.94	263.59
477.31	263.43
477.67	263.27
478.04	263.14
478.41	263.08
478.77	263.11
479.14	263.05
479.50	263.07
479.87	263.17
480.23	263.23
480.60	263.30
480.96	263.38
481.33	263.59
481.69	263.77
482.06	263.98
482.42	264.15
482.79	264.45
483.15	264.76
483.52	265.13
483.88	265.48
484.25	265.86
484.61	266.30
484.98	266.75
485.34	267.31
485.71	267.88
486.07	268.50
486.44	269.07
486.80	269.76
487.17	270.47
487.53	271.28
487.90	272.13
488.26	273.09
488.62	274.06
488.99	275.03
489.35	276.05
489.72	277.17
490.08	278.40
490.44	279.62
490.81	280.93
491.17	282.25
491.54	283.72
491.90	285.25
492.26	286.90
492.63	288.66
492.99	290.43
493.36	292.35
493.72	294.40
494.08	296.51
494.45	298.72
494.81	301.04
495.17	303.45
495.54	306.02
495.90	308.67
496.26	311.50
496.63	314.41
496.99	317.53
497.35	320.77
497.72	324.10
498.08	327.58
498.44	331.24
498.80	335.15
499.17	339.20
499.53	343.43
499.89	347.81
500.26	352.30
500.62	356.96
500.98	361.88
501.34	366.94
501.71	372.29
502.07	377.77
502.43	383.45
502.79	389.27
503.16	395.37
503.52	401.64
503.88	408.02
504.24	414.71
504.60	421.55
504.97	428.70
505.33	436.08
505.69	443.78
506.05	451.55
506.41	459.52
506.78	467.69
507.14	476.12
507.50	484.90
507.86	493.96
508.22	503.20
508.59	512.45
508.95	522.03
509.31	531.79
509.67	541.85
510.03	552.09
510.39	562.65
510.75	573.39
511.12	584.33
511.48	595.65
511.84	607.12
512.20	618.71
512.56	630.61
512.92	642.78
513.28	655.18
513.64	667.68
514.00	680.29
514.37	693.16
514.73	706.25
515.09	719.22
515.45	732.49
515.81	746.06
516.17	760.05
516.53	774.17
516.89	788.42
517.25	802.66
517.61	817.09
517.97	831.55
518.33	845.96
518.69	860.69
519.05	875.73
519.41	890.94
519.77	906.48
520.13	921.95
520.49	937.31
520.85	952.82
521.21	968.60
521.57	984.86
521.93	1000.66
522.29	1017.04
522.65	1033.33
523.01	1049.60
523.37	1065.61
523.73	1081.75
524.09	1097.81
524.45	1114.20
524.81	1130.90
525.17	1147.78
525.53	1164.65
525.89	1181.56
526.25	1198.44
526.61	1214.78
526.97	1231.46
527.33	1247.85
527.68	1264.52
528.04	1281.13
528.40	1297.68
528.76	1314.74
529.12	1331.36
529.48	1348.42
529.84	1364.44
530.20	1381.08
530.56	1398.11
530.91	1415.56
531.27	1432.42
531.63	1448.87
531.99	1465.39
532.35	1481.36
532.71	1497.18
533.07	1513.60
533.42	1529.59
533.78	1545.69
534.14	1562.03
534.50	1577.43
534.86	1593.31
535.21	1608.41
535.57	1624.32
535.93	1639.76
536.29	1654.58
536.65	1669.66
537.00	1684.39
537.36	1699.70
537.72	1714.10
538.08	1728.55
538.44	1742.52
538.79	1756.32
539.15	1770.13
539.51	1783.83
539.87	1798.03
540.22	1811.88
540.58	1825.52
540.94	1838.75
541.29	1851.66
541.65	1864.40
542.01	1877.50
542.37	1889.90
542.72	1902.37
543.08	1914.11
543.44	1926.61
543.79	1937.91
544.15	1949.01
544.51	1960.50
544.87	1971.46
545.22	1982.52
545.58	1992.68
545.94	2002.29
546.29	2012.18
546.65	2022.05
547.01	2031.34
547.36	2040.16
547.72	2048.51
548.07	2056.40
548.43	2064.69
548.79	2072.78
549.14	2080.33
549.50	2087.92
549.86	2095.68
550.21	2102.99
550.57	2110.20
550.92	2116.69
551.28	2123.80
551.64	2130.89
551.99	2137.51
552.35	2143.59
552.70	2149.63
553.06	2155.58
553.41	2161.86
553.77	2167.94
554.13	2173.95
554.48	2180.07
554.84	2185.45
555.19	2190.92
555.55	2196.11
555.90	2200.51
556.26	2205.24
556.61	2209.94
556.97	2214.08
557.32	2218.24
557.68	2222.53
558.03	2226.72
558.39	2230.50
558.74	2234.99
559.10	2238.83
559.45	2242.47
559.81	2246.94
560.16	2250.78
560.52	2254.05
560.87	2257.66
561.23	2260.30
561.58	2263.40
561.94	2265.95
562.29	2268.56
562.64	2271.02
563.00	2273.58
563.35	2277.14
563.71	2280.29
564.06	2283.59
564.42	2286.29
564.77	2288.72
565.12	2290.87
565.48	2292.77
565.83	2294.53
566.19	2295.87
566.54	2296.70
566.89	2297.83
567.25	2298.36
567.60	2299.67
567.96	2301.20
568.31	2301.95
568.66	2303.10
569.02	2303.58
569.37	2303.80
569.72	2304.42
570.08	2304.70
570.43	2304.77
570.78	2304.09
571.14	2302.55
571.49	2301.25
571.84	2301.08
572.20	2299.90
572.55	2298.89
572.90	2297.43
573.26	2296.04
573.61	2294.26
573.96	2292.35
574.31	2289.30
574.67	2286.18
575.02	2282.53
575.37	2279.21
575.72	2275.22
576.08	2271.78
576.43	2268.49
576.78	2264.81
577.13	2261.59
577.49	2258.58
577.84	2255.00
578.19	2251.30
578.54	2247.69
578.90	2243.12
579.25	2237.55
579.60	2232.63
579.95	2227.45
580.30	2222.36
580.66	2217.15
581.01	2212.17
581.36	2207.34
581.71	2203.11
582.06	2198.63
582.42	2194.01
582.77	2188.72
583.12	2184.15
583.47	2179.35
583.82	2174.15
584.17	2168.84
584.53	2163.36
584.88	2157.56
585.23	2151.65
585.58	2146.17
585.93	2140.71
586.28	2136.06
586.63	2130.97
586.98	2125.70
587.34	2121.01
587.69	2116.07
588.04	2110.67
588.39	2104.96
588.74	2098.42
589.09	2092.23
589.44	2085.41
589.79	2079.56
590.14	2074.11
590.49	2067.73
590.84	2061.41
591.19	2055.40
591.54	2048.99
591.89	2041.49
592.25	2034.68
592.60	2027.55
592.95	2019.86
593.30	2012.43
593.65	2004.69
594.00	1997.57
594.35	1990.49
594.70	1982.41
595.05	1975.12
595.40	1967.87
595.75	1960.20
596.10	1953.82
596.45	1947.08
596.80	1940.84
597.15	1934.04
597.50	1926.65
597.85	1920.02
598.19	1913.45
598.54	1906.30
598.89	1899.66
599.24	1893.84
599.59	1887.03
599.94	1880.87
600.29	1874.58
600.64	1868.10
600.99	1860.69
601.34	1853.80
601.69	1846.85
602.04	1839.99
602.39	1832.63
602.74	1825.88
603.08	1819.32
603.43	1812.63
603.78	1805.23
604.13	1798.07
604.48	1790.70
604.83	1784.02
605.18	1776.90
605.53	1768.64
605.87	1760.62
606.22	1753.39
606.57	1745.44
606.92	1738.20
607.27	1730.87
607.62	1723.84
607.96	1716.33
608.31	1709.65
608.66	1701.94
609.01	1694.18
609.36	1686.56
609.70	1678.57
610.05	1670.35
610.40	1662.57
610.75	1654.27
611.10	1646.67
611.44	1638.29
611.79	1630.48
612.14	1621.73
612.49	1612.76
612.83	1604.35
613.18	1596.29
613.53	1588.12
613.88	1579.62
614.22	1571.26
614.57	1562.70
614.92	1554.77
615.27	1547.20
615.61	1538.99
615.96	1530.99
616.31	1523.54
616.65	1516.20
617.00	1508.69
617.35	1501.16
617.70	1492.82
618.04	1484.33
618.39	1476.12
618.74	1468.53
619.08	1460.11
619.43	1452.50
619.78	1445.59
620.12	1438.45
620.47	1430.87
620.82	1422.66
621.16	1415.19
621.51	1407.66
621.85	1400.13
622.20	1391.48
622.55	1383.10
622.89	1375.20
623.24	1367.59
623.59	1360.16
623.93	1352.56
624.28	1345.40
624.62	1337.77
624.97	1330.61
625.32	1323.87
625.66	1316.83
626.01	1309.55
626.35	1302.01
626.70	1294.24
627.04	1286.47
627.39	1278.77
627.73	1271.41
628.08	1264.55
628.43	1257.20
628.77	1249.78
629.12	1242.09
629.46	1234.96
629.81	1227.64
630.15	1220.34
630.50	1212.93
630.84	1204.75
631.19	1196.91
631.53	1189.33
631.88	1181.81
632.22	1174.29
632.57	1166.96
632.91	1159.44
633.26	1152.05
633.60	1144.71
633.95	1137.65
634.29	1130.63
634.64	1123.97
634.98	1116.49
635.32	1109.33
635.67	1102.76
636.01	1096.10
636.36	1089.44
636.70	1082.95
637.05	1076.47
637.39	1070.05
637.73	1063.66
638.08	1057.76
638.42	1051.79
638.77	1045.30
639.11	1038.78
639.45	1032.30
639.80	1025.60
640.14	1019.12
640.49	1012.62
640.83	1006.40
641.17	1000.15
641.52	993.82
641.86	987.34
642.20	981.51
642.55	975.27
642.89	968.76
643.23	962.30
643.58	956.40
643.92	950.19
644.26	944.05
644.61	937.99
644.95	931.91
645.29	925.31
645.64	918.50
645.98	912.19
646.32	906.41
646.66	900.39
647.01	894.66
647.35	888.98
647.69	883.24
648.04	877.66
648.38	871.81
648.72	865.70
649.06	859.65
649.41	853.81
649.75	847.79
650.09	841.81
650.43	835.98
650.78	829.88
651.12	823.93
651.46	818.19
651.80	812.53
652.14	807.11
652.49	801.75
652.83	796.58
653.17	790.81
653.51	785.01
653.85	779.64
654.20	773.96
654.54	767.98
654.88	762.22
655.22	756.42
655.56	750.80
655.90	745.40
656.25	740.13
656.59	734.79
656.93	729.73
657.27	724.62
657.61	719.21
657.95	714.12
658.29	709.05
658.64	703.80
658.98	698.41
659.32	692.99
659.66	687.75
660.00	682.49
660.34	677.65
660.68	672.74
661.02	667.74
661.36	663.07
661.70	658.58
662.05	654.17
662.39	649.83
662.73	645.40
663.07	641.05
663.41	636.59
663.75	632.12
664.09	627.60
664.43	623.19
664.77	619.10
665.11	614.85
665.45	610.73
665.79	606.67
666.13	602.53
666.47	598.40
666.81	594.29
667.15	590.21
667.49	586.25
667.83	582.49
668.17	578.53
668.51	574.42
668.85	570.40
669.19	566.57
669.53	562.67
669.87	558.74
670.21	555.02
670.55	551.41
670.89	548.00
671.23	544.49
671.57	540.96
671.91	537.40
672.25	533.92
672.58	530.41
672.92	526.99
673.26	523.90
673.60	520.74
673.94	517.62
674.28	514.69
674.62	511.76
674.96	508.57
675.30	505.64
675.64	502.74
675.97	499.99
676.31	497.12
676.65	494.25
676.99	491.51
677.33	488.65
677.67	485.80
678.01	482.71
678.34	479.69
678.68	476.86
679.02	474.03
679.36	471.30
679.70	468.52
680.04	465.77
680.37	462.89
680.71	460.11
681.05	457.47
681.39	454.71
681.73	452.08
682.06	449.56
682.40	447.02
682.74	444.49
683.08	441.90
683.42	439.27
683.75	436.77
684.09	434.26
684.43	431.79
684.77	429.36
685.10	427.06
685.44	424.82
685.78	422.56
686.12	420.37
686.45	418.06
686.79	415.82
687.13	413.68
687.46	411.49
687.80	409.39
688.14	407.22
688.48	405.18
688.81	402.92
689.15	400.75
689.49	398.62
689.82	396.54
690.16	394.45
690.50	392.48
690.83	390.54
691.17	388.56
691.51	386.69
691.84	384.84
692.18	382.88
692.52	380.90
692.85	378.94
693.19	377.05
693.52	375.29
693.86	373.46
694.20	371.66
694.53	369.88
694.87	368.05
695.21	366.27
695.54	364.44
695.88	362.70
696.21	361.04
696.55	359.38
696.88	357.70
697.22	356.11
697.56	354.54
697.89	352.87
698.23	351.31
698.56	349.65
698.90	348.04
699.23	346.41
699.57	344.88
699.90	343.37
700.24	341.82
700.58	340.22
700.91	338.77
701.25	337.31
701.58	335.96
701.92	334.56
702.25	333.17
702.59	331.84
702.92	330.53
703.26	329.23
703.59	327.94
703.93	326.77
704.26	325.52
704.60	324.21
704.93	322.98
705.26	321.72
705.60	320.63
705.93	319.52
706.27	318.50
706.60	317.46
706.94	316.41
707.27	315.26
707.61	314.21
707.94	313.17
708.27	312.07
708.61	310.97
708.94	309.98
709.28	309.00
709.61	308.01
709.94	307.07
710.28	306.02
710.61	305.02
710.95	303.96
711.28	303.02
711.61	302.11
711.95	301.19
712.28	300.25
712.61	299.23
712.95	298.31
713.28	297.41
713.61	296.48
713.95	295.57
714.28	294.72
714.61	293.85
714.95	292.98
715.28	292.09
715.61	291.24
715.95	290.37
716.28	289.53
716.61	288.73
716.95	287.90
717.28	287.18
717.61	286.43
717.94	285.69
718.28	284.87
718.61	284.09
718.94	283.36
719.27	282.70
719.61	282.08
719.94	281.39
720.27	280.70
720.60	280.06
720.94	279.41
721.27	278.83
721.60	278.24
721.93	277.65
722.27	277.14
722.60	276.57
722.93	276.00
723.26	275.42
723.59	274.81
723.93	274.27
724.26	273.68
724.59	273.11
724.92	272.59
725.25	272.12
725.59	271.64
725.92	271.13
726.25	270.62
726.58	270.09
726.91	269.59
727.24	269.07
727.57	268.59
727.91	268.11
728.24	267.62
728.57	267.12
728.90	266.66
729.23	266.16
729.56	265.78
729.89	265.31
730.22	264.83
730.55	264.39
730.89	263.95
731.22	263.50
731.55	263.10
731.88	262.64
732.21	262.20
732.54	261.74
732.87	261.31
733.20	260.90
733.53	260.54
733.86	260.17
734.19	259.79
734.52	259.44
734.85	259.10
735.18	258.70
735.51	258.36
735.84	257.99
736.17	257.66
736.50	257.21
736.83	257.01
737.16	256.67
737.49	256.37
737.82	256.01
738.15	255.75
738.48	255.39
738.81	255.07
739.14	254.75
739.47	254.45
739.80	254.16
740.13	253.87
740.46	253.54
740.79	253.19
741.12	252.88
741.45	252.49
741.78	252.15
742.11	251.89
742.44	251.56
742.77	251.27
743.10	250.96
743.43	250.66
743.75	250.27
744.08	250.14
744.41	249.84
744.74	249.61
745.07	249.31
745.40	249.05
745.73	248.83
746.06	248.52
746.39	248.24
746.71	247.94
747.04	247.65
747.37	247.35
747.70	247.12
748.03	246.86
748.36	246.67
748.68	246.47
749.01	246.18
749.34	245.96
749.67	245.73
750.00	245.52
750.33	245.38
750.65	245.19
750.98	244.89
751.31	244.67
751.64	244.44
751.97	244.26
752.29	244.06
752.62	243.83
752.95	243.66
753.28	243.43
753.60	243.24
753.93	243.11
754.26	242.95
754.59	242.72
754.91	242.56
755.24	242.36
755.57	242.14
755.90	241.99
756.22	241.81
756.55	241.64
756.88	241.42
757.20	241.17
757.53	240.94
757.86	240.74
758.19	240.58
758.51	240.41
758.84	240.20
759.17	240.02
759.49	239.86
759.82	239.77
760.15	239.67
760.47	239.50
760.80	239.32
761.13	239.17
761.45	239.02
761.78	238.86
762.11	238.73
762.43	238.58
762.76	238.43
763.08	238.29
763.41	238.16
763.74	238.04
764.06	237.93
764.39	237.80
764.71	237.65
765.04	237.50
765.37	237.36
765.69	237.24
766.02	237.15
766.34	237.02
766.67	236.82
767.00	236.72
767.32	236.68
767.65	236.60
767.97	236.51
768.30	236.44
768.62	236.36
768.95	236.22
769.27	236.09
769.60	236.03
769.92	235.90
770.25	235.75
770.57	235.62
770.90	235.52
771.22	235.40
771.55	235.32
771.87	235.25
772.20	235.15
772.52	235.15
772.85	235.11
773.17	235.01
773.50	234.92
773.82	234.83
774.15	234.68
774.47	234.53
774.80	234.40
775.12	234.27
775.45	234.17
775.77	234.09
776.09	234.03
776.42	233.94
776.74	233.88
777.07	233.80
777.39	233.72
777.72	233.62
778.04	233.56
778.36	233.50
778.69	233.37
779.01	233.30
779.33	233.13
779.66	232.98
779.98	232.90
780.31	232.82
780.63	232.77
780.95	232.73
781.28	232.69
781.60	232.63
781.92	232.59
782.25	232.53
782.57	232.48
782.89	232.39
783.22	232.30
783.54	232.24
783.86	232.21
784.19	232.18
784.51	232.15
784.83	232.08
785.16	231.98
785.48	231.99
785.80	231.91
786.12	231.86
786.45	231.82
786.77	231.76
787.09	231.72
