SpectraSuite Data File
++++++++++++++++++++++++++++++++++++
Date: Fri Feb 01 15:32:36 EST 2013
User: group
Dark Spectrum Present: No
Reference Spectrum Present: No
Number of Sampled Component Spectra: 1
Spectrometers: USB2E7196
Integration Time (usec): 35000 (USB2E7196)
Spectra Averaged: 100 (USB2E7196)
Boxcar Smoothing: 10 (USB2E7196)
Correct for Electrical Dark: No (USB2E7196)
Strobe/Lamp Enabled: No (USB2E7196)
Correct for Detector Non-linearity: No (USB2E7196)
Correct for Stray Light: No (USB2E7196)
Number of Pixels in Processed Spectrum: 2048
>>>>>Begin Processed Spectral Data<<<<<
339.09	0.00
339.48	214.20
339.86	216.15
340.24	217.69
340.63	218.83
341.01	221.98
341.39	221.33
341.78	223.29
342.16	224.50
342.54	224.49
342.93	213.00
343.31	223.78
343.69	224.35
344.07	224.81
344.46	225.21
344.84	225.59
345.22	225.80
345.60	226.08
345.99	226.27
346.37	226.37
346.75	226.47
347.13	226.57
347.52	226.63
347.90	226.70
348.28	226.74
348.66	226.78
349.05	226.77
349.43	226.81
349.81	226.85
350.19	226.87
350.57	226.92
350.96	227.00
351.34	227.09
351.72	227.17
352.10	227.29
352.48	227.38
352.87	227.42
353.25	227.49
353.63	227.54
354.01	227.58
354.39	227.66
354.77	227.75
355.15	227.86
355.54	227.92
355.92	227.97
356.30	228.05
356.68	228.20
357.06	228.29
357.44	228.38
357.82	228.45
358.20	228.54
358.58	228.59
358.97	228.65
359.35	228.74
359.73	228.81
360.11	228.83
360.49	228.89
360.87	228.96
361.25	229.04
361.63	229.11
362.01	229.15
362.39	229.22
362.77	229.27
363.15	229.28
363.53	229.33
363.91	229.36
364.29	229.39
364.67	229.33
365.05	229.36
365.43	229.38
365.81	229.40
366.19	229.45
366.57	229.51
366.95	229.55
367.33	229.49
367.71	229.49
368.09	229.53
368.47	229.52
368.85	229.48
369.23	229.51
369.61	229.42
369.99	229.45
370.37	229.41
370.75	229.43
371.13	229.38
371.51	229.34
371.89	229.30
372.27	229.28
372.65	229.21
373.03	229.15
373.41	229.08
373.78	229.00
374.16	228.86
374.54	228.72
374.92	228.61
375.30	228.55
375.68	228.45
376.06	228.37
376.44	228.34
376.82	228.29
377.19	228.20
377.57	228.14
377.95	228.07
378.33	228.00
378.71	227.88
379.09	227.82
379.47	227.75
379.84	227.68
380.22	227.58
380.60	227.49
380.98	227.42
381.36	227.33
381.73	227.27
382.11	227.23
382.49	227.21
382.87	227.15
383.25	227.11
383.62	227.18
384.00	227.09
384.38	227.04
384.76	226.99
385.13	226.95
385.51	226.86
385.89	226.75
386.27	226.70
386.64	226.68
387.02	226.63
387.40	226.59
387.78	226.55
388.15	226.53
388.53	226.51
388.91	226.49
389.29	226.48
389.66	226.46
390.04	226.42
390.42	226.42
390.79	226.39
391.17	226.36
391.55	226.24
391.92	226.22
392.30	226.21
392.68	226.18
393.05	226.19
393.43	226.21
393.81	226.24
394.18	226.23
394.56	226.19
394.94	226.20
395.31	226.23
395.69	226.29
396.06	226.31
396.44	226.33
396.82	226.34
397.19	226.46
397.57	226.49
397.95	226.56
398.32	226.57
398.70	226.62
399.07	226.71
399.45	226.78
399.82	226.86
400.20	226.91
400.58	227.00
400.95	227.05
401.33	227.17
401.70	227.32
402.08	227.40
402.45	227.51
402.83	227.65
403.20	227.74
403.58	227.81
403.95	227.93
404.33	228.07
404.71	228.19
405.08	228.33
405.46	228.45
405.83	228.60
406.21	228.73
406.58	228.92
406.96	229.09
407.33	229.27
407.70	229.43
408.08	229.70
408.45	229.93
408.83	230.15
409.20	230.36
409.58	230.53
409.95	230.82
410.33	231.10
410.70	231.36
411.08	231.66
411.45	231.96
411.82	232.30
412.20	232.67
412.57	233.10
412.95	233.40
413.32	233.82
413.69	234.23
414.07	234.70
414.44	235.13
414.82	235.58
415.19	236.10
415.56	236.70
415.94	237.23
416.31	237.85
416.68	238.48
417.06	239.20
417.43	239.92
417.81	240.70
418.18	241.47
418.55	242.29
418.93	243.13
419.30	244.04
419.67	244.95
420.04	245.89
420.42	246.87
420.79	248.04
421.16	249.22
421.54	250.39
421.91	251.63
422.28	252.88
422.66	254.23
423.03	255.56
423.40	256.87
423.77	258.27
424.15	259.71
424.52	261.19
424.89	262.79
425.26	264.34
425.64	265.80
426.01	267.41
426.38	269.10
426.75	270.85
427.13	272.59
427.50	274.40
427.87	276.31
428.24	278.16
428.61	279.89
428.99	281.85
429.36	283.98
429.73	286.03
430.10	288.08
430.47	290.15
430.85	292.28
431.22	294.57
431.59	296.98
431.96	299.21
432.33	301.70
432.70	304.14
433.08	306.95
433.45	309.55
433.82	312.12
434.19	315.02
434.56	317.82
434.93	320.49
435.30	323.13
435.68	326.01
436.05	328.87
436.42	331.75
436.79	334.31
437.16	337.02
437.53	339.89
437.90	342.73
438.27	345.49
438.64	348.32
439.01	350.87
439.38	353.10
439.75	355.32
440.13	357.84
440.50	360.18
440.87	362.04
441.24	363.98
441.61	366.15
441.98	367.62
442.35	369.42
442.72	371.27
443.09	373.06
443.46	374.04
443.83	374.63
444.20	375.06
444.57	375.86
444.94	376.19
445.31	376.51
445.68	376.86
446.05	376.92
446.42	376.56
446.79	376.12
447.16	375.66
447.53	375.29
447.90	374.12
448.27	372.91
448.64	371.27
449.01	370.17
449.37	368.20
449.74	366.29
450.11	364.02
450.48	361.50
450.85	359.00
451.22	356.83
451.59	354.77
451.96	352.80
452.33	350.19
452.70	347.73
453.07	344.87
453.43	341.95
453.80	339.17
454.17	336.47
454.54	333.94
454.91	331.20
455.28	328.55
455.65	326.02
456.02	323.53
456.38	321.39
456.75	318.70
457.12	316.47
457.49	314.23
457.86	312.03
458.23	310.19
458.59	308.15
458.96	306.07
459.33	304.22
459.70	302.40
460.07	300.87
460.43	299.16
460.80	297.57
461.17	296.13
461.54	294.65
461.91	293.22
462.27	291.74
462.64	290.49
463.01	289.13
463.38	287.87
463.74	286.53
464.11	285.41
464.48	284.38
464.85	283.22
465.21	282.37
465.58	281.50
465.95	280.42
466.32	279.48
466.68	278.63
467.05	277.74
467.42	276.86
467.78	275.94
468.15	275.09
468.52	274.39
468.88	273.52
469.25	272.74
469.62	272.12
469.98	271.48
470.35	270.86
470.72	270.25
471.08	269.60
471.45	269.08
471.82	268.52
472.18	267.92
472.55	267.54
472.92	267.01
473.28	266.50
473.65	266.07
474.02	265.64
474.38	265.25
474.75	264.92
475.11	264.59
475.48	264.33
475.85	264.10
476.21	263.88
476.58	263.71
476.94	263.58
477.31	263.40
477.67	263.24
478.04	263.15
478.41	263.12
478.77	263.16
479.14	263.07
479.50	263.07
479.87	263.18
480.23	263.26
480.60	263.32
480.96	263.42
481.33	263.63
481.69	263.84
482.06	264.01
482.42	264.22
482.79	264.45
483.15	264.75
483.52	265.13
483.88	265.49
484.25	265.87
484.61	266.28
484.98	266.74
485.34	267.29
485.71	267.89
486.07	268.46
486.44	268.99
486.80	269.73
487.17	270.46
487.53	271.30
487.90	272.13
488.26	273.09
488.62	274.06
488.99	275.02
489.35	276.04
489.72	277.17
490.08	278.33
490.44	279.55
490.81	280.84
491.17	282.16
491.54	283.62
491.90	285.13
492.26	286.76
492.63	288.48
492.99	290.26
493.36	292.08
493.72	294.10
494.08	296.20
494.45	298.41
494.81	300.77
495.17	303.16
495.54	305.75
495.90	308.40
496.26	311.16
496.63	314.09
496.99	317.25
497.35	320.52
497.72	323.98
498.08	327.53
498.44	331.24
498.80	335.20
499.17	339.22
499.53	343.40
499.89	347.81
500.26	352.28
500.62	356.96
500.98	361.96
501.34	367.08
501.71	372.44
502.07	377.86
502.43	383.41
502.79	389.21
503.16	395.26
503.52	401.56
503.88	408.03
504.24	414.67
504.60	421.53
504.97	428.62
505.33	435.86
505.69	443.54
506.05	451.35
506.41	459.23
506.78	467.45
507.14	475.92
507.50	484.62
507.86	493.70
508.22	502.87
508.59	512.03
508.95	521.61
509.31	531.44
509.67	541.59
510.03	551.88
510.39	562.45
510.75	573.28
511.12	584.21
511.48	595.53
511.84	606.98
512.20	618.50
512.56	630.55
512.92	642.80
513.28	655.13
513.64	667.56
514.00	680.23
514.37	693.10
514.73	706.21
515.09	719.28
515.45	732.58
515.81	746.20
516.17	760.34
516.53	774.54
516.89	788.69
517.25	802.85
517.61	817.35
517.97	831.87
518.33	846.34
518.69	861.16
519.05	876.16
519.41	891.47
519.77	907.08
520.13	922.57
520.49	937.96
520.85	953.52
521.21	969.29
521.57	985.75
521.93	1001.62
522.29	1018.02
522.65	1034.21
523.01	1050.39
523.37	1066.54
523.73	1082.67
524.09	1098.68
524.45	1115.11
524.81	1131.86
525.17	1148.72
525.53	1165.58
525.89	1182.45
526.25	1199.18
526.61	1215.55
526.97	1232.29
527.33	1248.81
527.68	1265.39
528.04	1281.95
528.40	1298.53
528.76	1315.61
529.12	1332.14
529.48	1348.99
529.84	1365.04
530.20	1381.67
530.56	1398.80
530.91	1416.20
531.27	1433.19
531.63	1449.78
531.99	1466.34
532.35	1482.34
532.71	1498.23
533.07	1514.58
533.42	1530.43
533.78	1546.66
534.14	1562.99
534.50	1578.09
534.86	1593.98
535.21	1609.17
535.57	1625.12
535.93	1640.66
536.29	1655.58
536.65	1670.70
537.00	1685.63
537.36	1700.93
537.72	1715.55
538.08	1729.97
538.44	1743.66
538.79	1757.35
539.15	1771.07
539.51	1784.97
539.87	1799.22
540.22	1812.97
540.58	1826.82
540.94	1840.40
541.29	1853.26
541.65	1866.00
542.01	1879.52
542.37	1891.81
542.72	1904.32
543.08	1916.03
543.44	1928.46
543.79	1939.72
544.15	1950.73
544.51	1962.24
544.87	1973.22
545.22	1984.05
545.58	1994.35
545.94	2004.33
546.29	2014.35
546.65	2024.05
547.01	2033.19
547.36	2042.13
547.72	2050.71
548.07	2058.62
548.43	2066.82
548.79	2074.92
549.14	2082.39
549.50	2089.76
549.86	2097.58
550.21	2104.85
550.57	2112.28
550.92	2118.86
551.28	2125.90
551.64	2132.94
551.99	2139.48
552.35	2145.72
552.70	2151.94
553.06	2157.85
553.41	2164.15
553.77	2170.18
554.13	2176.47
554.48	2182.63
554.84	2187.91
555.19	2193.25
555.55	2198.26
555.90	2202.67
556.26	2207.55
556.61	2212.44
556.97	2216.61
557.32	2220.68
557.68	2224.83
558.03	2229.05
558.39	2232.67
558.74	2237.36
559.10	2241.14
559.45	2244.74
559.81	2249.10
560.16	2252.80
560.52	2256.29
560.87	2259.76
561.23	2262.39
561.58	2265.24
561.94	2267.66
562.29	2270.23
562.64	2272.74
563.00	2275.41
563.35	2278.84
563.71	2281.87
564.06	2285.16
564.42	2288.06
564.77	2290.48
565.12	2292.75
565.48	2294.50
565.83	2296.42
566.19	2297.67
566.54	2298.70
566.89	2299.92
567.25	2300.47
567.60	2301.93
567.96	2303.37
568.31	2304.09
568.66	2305.10
569.02	2305.78
569.37	2306.27
569.72	2307.05
570.08	2307.23
570.43	2307.18
570.78	2306.56
571.14	2305.14
571.49	2303.65
571.84	2303.31
572.20	2302.13
572.55	2301.23
572.90	2299.70
573.26	2298.34
573.61	2296.65
573.96	2294.81
574.31	2291.82
574.67	2288.62
575.02	2284.87
575.37	2281.41
575.72	2277.59
576.08	2274.33
576.43	2270.87
576.78	2266.94
577.13	2263.71
577.49	2260.61
577.84	2257.10
578.19	2253.39
578.54	2249.41
578.90	2245.18
579.25	2239.67
579.60	2234.70
579.95	2229.53
580.30	2224.41
580.66	2219.16
581.01	2214.03
581.36	2208.96
581.71	2204.59
582.06	2200.25
582.42	2195.68
582.77	2190.43
583.12	2185.81
583.47	2180.92
583.82	2175.85
584.17	2170.61
584.53	2164.95
584.88	2159.22
585.23	2153.26
585.58	2147.75
585.93	2142.35
586.28	2137.41
586.63	2132.27
586.98	2127.19
587.34	2122.37
587.69	2117.50
588.04	2112.02
588.39	2106.43
588.74	2099.98
589.09	2093.91
589.44	2086.94
589.79	2080.97
590.14	2075.36
590.49	2068.81
590.84	2062.44
591.19	2056.35
591.54	2049.90
591.89	2042.42
592.25	2035.54
592.60	2028.39
592.95	2020.65
593.30	2013.35
593.65	2005.67
594.00	1998.60
594.35	1991.34
594.70	1983.22
595.05	1976.03
595.40	1968.75
595.75	1961.09
596.10	1954.81
596.45	1947.91
596.80	1941.69
597.15	1934.93
597.50	1927.61
597.85	1921.04
598.19	1914.24
598.54	1907.08
598.89	1900.42
599.24	1894.56
599.59	1887.80
599.94	1881.60
600.29	1875.29
600.64	1868.72
600.99	1861.31
601.34	1854.39
601.69	1847.32
602.04	1840.44
602.39	1832.91
602.74	1826.19
603.08	1819.51
603.43	1812.69
603.78	1805.38
604.13	1798.23
604.48	1790.95
604.83	1784.23
605.18	1777.16
605.53	1769.24
605.87	1761.22
606.22	1753.80
606.57	1745.80
606.92	1738.53
607.27	1731.24
607.62	1724.30
607.96	1716.78
608.31	1710.10
608.66	1702.32
609.01	1694.78
609.36	1687.12
609.70	1679.16
610.05	1671.04
610.40	1663.19
610.75	1654.82
611.10	1647.13
611.44	1638.68
611.79	1630.66
612.14	1621.92
612.49	1612.79
612.83	1604.38
613.18	1596.31
613.53	1588.43
613.88	1579.89
614.22	1571.53
614.57	1562.91
614.92	1554.76
615.27	1547.35
615.61	1539.04
615.96	1531.07
616.31	1523.45
616.65	1516.18
617.00	1508.60
617.35	1500.90
617.70	1492.59
618.04	1484.06
618.39	1475.84
618.74	1468.24
619.08	1459.93
619.43	1452.42
619.78	1445.58
620.12	1438.34
620.47	1430.74
620.82	1422.44
621.16	1415.08
621.51	1407.63
621.85	1400.07
622.20	1391.54
622.55	1383.20
622.89	1375.32
623.24	1367.60
623.59	1360.16
623.93	1352.60
624.28	1345.25
624.62	1337.70
624.97	1330.52
625.32	1323.89
625.66	1316.87
626.01	1309.71
626.35	1302.23
626.70	1294.44
627.04	1286.53
627.39	1278.73
627.73	1271.26
628.08	1264.16
628.43	1256.77
628.77	1249.26
629.12	1241.62
629.46	1234.42
629.81	1227.05
630.15	1219.83
630.50	1212.48
630.84	1204.30
631.19	1196.40
631.53	1189.01
631.88	1181.47
632.22	1173.90
632.57	1166.56
632.91	1158.95
633.26	1151.43
633.60	1144.10
633.95	1136.93
634.29	1130.05
634.64	1123.35
634.98	1116.05
635.32	1109.05
635.67	1102.53
636.01	1095.89
636.36	1089.18
636.70	1082.82
637.05	1076.09
637.39	1069.61
637.73	1063.13
638.08	1057.27
638.42	1051.25
638.77	1044.78
639.11	1038.09
639.45	1031.72
639.80	1025.09
640.14	1018.69
640.49	1012.15
640.83	1005.88
641.17	999.63
641.52	993.27
641.86	986.82
642.20	981.07
642.55	974.85
642.89	968.34
643.23	961.83
643.58	956.02
643.92	949.74
644.26	943.76
644.61	937.80
644.95	931.79
645.29	925.15
645.64	918.41
645.98	912.07
646.32	906.36
646.66	900.32
647.01	894.49
647.35	888.82
647.69	883.08
648.04	877.50
648.38	871.75
648.72	865.70
649.06	859.71
649.41	853.77
649.75	847.77
650.09	841.85
650.43	836.03
650.78	829.91
651.12	824.00
651.46	818.24
651.80	812.42
652.14	807.04
652.49	801.72
652.83	796.54
653.17	790.87
653.51	785.11
653.85	779.72
654.20	774.10
654.54	768.06
654.88	762.29
655.22	756.43
655.56	750.76
655.90	745.41
656.25	740.20
656.59	734.82
656.93	729.70
657.27	724.49
657.61	719.05
657.95	713.96
658.29	708.90
658.64	703.70
658.98	698.48
659.32	693.01
659.66	687.78
660.00	682.48
660.34	677.58
660.68	672.57
661.02	667.52
661.36	662.76
661.70	658.28
662.05	653.93
662.39	649.61
662.73	645.20
663.07	640.76
663.41	636.27
663.75	631.77
664.09	627.25
664.43	622.89
664.77	618.83
665.11	614.58
665.45	610.47
665.79	606.37
666.13	602.20
666.47	598.14
666.81	593.85
667.15	589.77
667.49	585.85
667.83	582.14
668.17	578.23
668.51	574.15
668.85	570.13
669.19	566.33
669.53	562.48
669.87	558.59
670.21	554.90
670.55	551.21
670.89	547.76
671.23	544.33
671.57	540.82
671.91	537.23
672.25	533.75
672.58	530.19
672.92	526.80
673.26	523.68
673.60	520.54
673.94	517.56
674.28	514.64
674.62	511.65
674.96	508.47
675.30	505.53
675.64	502.61
675.97	499.88
676.31	497.03
676.65	494.08
676.99	491.35
677.33	488.52
677.67	485.75
678.01	482.74
678.34	479.73
678.68	476.87
679.02	474.03
679.36	471.24
679.70	468.55
680.04	465.77
680.37	462.86
680.71	460.07
681.05	457.47
681.39	454.75
681.73	452.12
682.06	449.65
682.40	447.13
682.74	444.59
683.08	442.03
683.42	439.42
683.75	436.98
684.09	434.42
684.43	431.96
684.77	429.53
685.10	427.17
685.44	424.91
685.78	422.63
686.12	420.47
686.45	418.18
686.79	415.89
687.13	413.74
687.46	411.60
687.80	409.44
688.14	407.20
688.48	405.11
688.81	402.89
689.15	400.75
689.49	398.59
689.82	396.56
690.16	394.45
690.50	392.53
690.83	390.52
691.17	388.55
691.51	386.61
691.84	384.75
692.18	382.82
692.52	380.82
692.85	378.93
693.19	377.04
693.52	375.24
693.86	373.42
694.20	371.62
694.53	369.83
694.87	367.99
695.21	366.19
695.54	364.40
695.88	362.68
696.21	360.97
696.55	359.29
696.88	357.64
697.22	356.03
697.56	354.38
697.89	352.77
698.23	351.22
698.56	349.65
698.90	348.08
699.23	346.40
699.57	344.85
699.90	343.29
700.24	341.70
700.58	340.15
700.91	338.66
701.25	337.21
701.58	335.83
701.92	334.47
702.25	333.11
702.59	331.77
702.92	330.45
703.26	329.12
703.59	327.87
703.93	326.67
704.26	325.46
704.60	324.15
704.93	322.86
705.26	321.57
705.60	320.40
705.93	319.22
706.27	318.26
706.60	317.20
706.94	316.16
707.27	315.10
707.61	314.05
707.94	313.00
708.27	311.91
708.61	310.82
708.94	309.81
709.28	308.83
709.61	307.85
709.94	306.88
710.28	305.86
710.61	304.87
710.95	303.78
711.28	302.79
711.61	301.84
711.95	300.93
712.28	299.99
712.61	298.96
712.95	298.03
713.28	297.09
713.61	296.20
713.95	295.29
714.28	294.41
714.61	293.54
714.95	292.70
715.28	291.82
715.61	290.95
715.95	290.08
716.28	289.21
716.61	288.37
716.95	287.57
717.28	286.83
717.61	286.03
717.94	285.29
718.28	284.52
718.61	283.78
718.94	283.06
719.27	282.40
719.61	281.79
719.94	281.11
720.27	280.44
720.60	279.77
720.94	279.11
721.27	278.47
721.60	277.89
721.93	277.31
722.27	276.81
722.60	276.28
722.93	275.72
723.26	275.19
723.59	274.60
723.93	274.04
724.26	273.47
724.59	272.98
724.92	272.47
725.25	271.95
725.59	271.45
725.92	270.97
726.25	270.45
726.58	269.92
726.91	269.43
727.24	268.94
727.57	268.49
727.91	268.01
728.24	267.56
728.57	267.05
728.90	266.57
729.23	266.06
729.56	265.62
729.89	265.15
730.22	264.67
730.55	264.25
730.89	263.84
731.22	263.41
731.55	262.94
731.88	262.55
732.21	262.14
732.54	261.72
732.87	261.30
733.20	260.90
733.53	260.54
733.86	260.15
734.19	259.78
734.52	259.40
734.85	259.08
735.18	258.69
735.51	258.35
735.84	257.99
736.17	257.64
736.50	257.27
736.83	257.07
737.16	256.75
737.49	256.41
737.82	256.05
738.15	255.74
738.48	255.39
738.81	255.05
739.14	254.75
739.47	254.43
739.80	254.11
740.13	253.83
740.46	253.52
740.79	253.25
741.12	252.95
741.45	252.61
741.78	252.25
742.11	251.99
742.44	251.64
742.77	251.38
743.10	251.10
743.43	250.81
743.75	250.40
744.08	250.26
744.41	249.97
744.74	249.72
745.07	249.46
745.40	249.25
745.73	249.02
746.06	248.70
746.39	248.43
746.71	248.17
747.04	247.88
747.37	247.65
747.70	247.37
748.03	247.08
748.36	246.88
748.68	246.67
749.01	246.37
749.34	246.17
749.67	245.93
750.00	245.67
750.33	245.51
750.65	245.28
750.98	244.89
751.31	244.69
751.64	244.49
751.97	244.32
752.29	244.06
752.62	243.81
752.95	243.60
753.28	243.39
753.60	243.17
753.93	243.01
754.26	242.83
754.59	242.59
754.91	242.39
755.24	242.14
755.57	241.94
755.90	241.75
756.22	241.54
756.55	241.34
756.88	241.16
757.20	240.91
757.53	240.73
757.86	240.60
758.19	240.44
758.51	240.23
758.84	239.98
759.17	239.81
759.49	239.62
759.82	239.50
760.15	239.35
760.47	239.22
760.80	239.00
761.13	238.81
761.45	238.66
761.78	238.51
762.11	238.43
762.43	238.26
762.76	238.12
763.08	238.00
763.41	237.85
763.74	237.73
764.06	237.60
764.39	237.44
764.71	237.29
765.04	237.13
765.37	236.99
765.69	236.86
766.02	236.74
766.34	236.59
766.67	236.42
767.00	236.33
767.32	236.26
767.65	236.24
767.97	236.13
768.30	236.03
768.62	235.94
768.95	235.76
769.27	235.69
769.60	235.64
769.92	235.51
770.25	235.39
770.57	235.25
770.90	235.17
771.22	235.08
771.55	235.01
771.87	234.93
772.20	234.84
772.52	234.85
772.85	234.88
773.17	234.83
773.50	234.76
773.82	234.69
774.15	234.55
774.47	234.41
774.80	234.29
775.12	234.22
775.45	234.16
775.77	234.11
776.09	234.04
776.42	233.94
776.74	233.90
777.07	233.82
777.39	233.77
777.72	233.66
778.04	233.63
778.36	233.54
778.69	233.50
779.01	233.46
779.33	233.31
779.66	233.16
779.98	233.08
780.31	233.01
780.63	232.96
780.95	232.92
781.28	232.86
781.60	232.82
781.92	232.77
782.25	232.69
782.57	232.65
782.89	232.58
783.22	232.53
783.54	232.44
783.86	232.42
784.19	232.37
784.51	232.33
784.83	232.24
785.16	232.20
785.48	232.16
785.80	232.07
786.12	232.02
786.45	231.96
786.77	231.90
787.09	231.88
