SpectraSuite Data File
++++++++++++++++++++++++++++++++++++
Date: Fri Feb 01 16:23:14 EST 2013
User: group
Dark Spectrum Present: No
Reference Spectrum Present: No
Number of Sampled Component Spectra: 1
Spectrometers: USB2E7196
Integration Time (usec): 35000 (USB2E7196)
Spectra Averaged: 100 (USB2E7196)
Boxcar Smoothing: 10 (USB2E7196)
Correct for Electrical Dark: No (USB2E7196)
Strobe/Lamp Enabled: No (USB2E7196)
Correct for Detector Non-linearity: No (USB2E7196)
Correct for Stray Light: No (USB2E7196)
Number of Pixels in Processed Spectrum: 2048
>>>>>Begin Processed Spectral Data<<<<<
339.09	0.00
339.48	214.30
339.86	215.38
340.24	217.23
340.63	218.55
341.01	221.75
341.39	220.91
341.78	222.74
342.16	223.65
342.54	224.16
342.93	212.58
343.31	223.32
343.69	223.88
344.07	224.34
344.46	224.78
344.84	225.14
345.22	225.35
345.60	225.61
345.99	225.77
346.37	225.92
346.75	225.97
347.13	226.03
347.52	226.09
347.90	226.19
348.28	226.19
348.66	226.25
349.05	226.25
349.43	226.27
349.81	226.32
350.19	226.36
350.57	226.38
350.96	226.46
351.34	226.56
351.72	226.61
352.10	226.69
352.48	226.73
352.87	226.79
353.25	226.84
353.63	226.91
354.01	226.99
354.39	227.06
354.77	227.20
355.15	227.32
355.54	227.37
355.92	227.39
356.30	227.44
356.68	227.54
357.06	227.58
357.44	227.62
357.82	227.68
358.20	227.77
358.58	227.83
358.97	227.89
359.35	227.95
359.73	228.03
360.11	228.08
360.49	228.15
360.87	228.18
361.25	228.24
361.63	228.29
362.01	228.31
362.39	228.31
362.77	228.31
363.15	228.31
363.53	228.35
363.91	228.38
364.29	228.42
364.67	228.37
365.05	228.42
365.43	228.46
365.81	228.50
366.19	228.50
366.57	228.52
366.95	228.53
367.33	228.52
367.71	228.50
368.09	228.51
368.47	228.50
368.85	228.46
369.23	228.48
369.61	228.42
369.99	228.44
370.37	228.43
370.75	228.43
371.13	228.39
371.51	228.33
371.89	228.32
372.27	228.31
372.65	228.28
373.03	228.19
373.41	228.12
373.78	228.07
374.16	228.00
374.54	227.91
374.92	227.84
375.30	227.76
375.68	227.68
376.06	227.64
376.44	227.56
376.82	227.52
377.19	227.46
377.57	227.41
377.95	227.32
378.33	227.25
378.71	227.13
379.09	227.10
379.47	227.03
379.84	226.94
380.22	226.84
380.60	226.77
380.98	226.73
381.36	226.65
381.73	226.59
382.11	226.51
382.49	226.47
382.87	226.39
383.25	226.34
383.62	226.39
384.00	226.31
384.38	226.26
384.76	226.24
385.13	226.21
385.51	226.14
385.89	226.06
386.27	226.02
386.64	226.01
387.02	225.93
387.40	225.92
387.78	225.89
388.15	225.86
388.53	225.80
388.91	225.77
389.29	225.79
389.66	225.77
390.04	225.75
390.42	225.76
390.79	225.75
391.17	225.72
391.55	225.61
391.92	225.57
392.30	225.59
392.68	225.53
393.05	225.50
393.43	225.50
393.81	225.49
394.18	225.48
394.56	225.49
394.94	225.51
395.31	225.51
395.69	225.57
396.06	225.61
396.44	225.63
396.82	225.64
397.19	225.70
397.57	225.71
397.95	225.74
398.32	225.74
398.70	225.84
399.07	225.93
399.45	225.99
399.82	226.08
400.20	226.13
400.58	226.22
400.95	226.26
401.33	226.37
401.70	226.52
402.08	226.60
402.45	226.69
402.83	226.79
403.20	226.88
403.58	226.96
403.95	227.08
404.33	227.21
404.71	227.36
405.08	227.51
405.46	227.64
405.83	227.79
406.21	227.92
406.58	228.02
406.96	228.17
407.33	228.33
407.70	228.53
408.08	228.77
408.45	229.00
408.83	229.23
409.20	229.45
409.58	229.64
409.95	229.90
410.33	230.19
410.70	230.43
411.08	230.75
411.45	231.06
411.82	231.39
412.20	231.76
412.57	232.17
412.95	232.49
413.32	232.91
413.69	233.32
414.07	233.77
414.44	234.26
414.82	234.73
415.19	235.28
415.56	235.82
415.94	236.36
416.31	236.99
416.68	237.66
417.06	238.37
417.43	239.06
417.81	239.86
418.18	240.59
418.55	241.46
418.93	242.33
419.30	243.21
419.67	244.10
420.04	245.03
420.42	246.02
420.79	247.20
421.16	248.34
421.54	249.55
421.91	250.80
422.28	252.06
422.66	253.37
423.03	254.65
423.40	255.95
423.77	257.38
424.15	258.79
424.52	260.26
424.89	261.87
425.26	263.38
425.64	264.81
426.01	266.41
426.38	268.05
426.75	269.73
427.13	271.48
427.50	273.31
427.87	275.19
428.24	277.05
428.61	278.78
428.99	280.70
429.36	282.78
429.73	284.81
430.10	286.80
430.47	288.86
430.85	290.99
431.22	293.21
431.59	295.57
431.96	297.80
432.33	300.25
432.70	302.59
433.08	305.40
433.45	308.05
433.82	310.66
434.19	313.53
434.56	316.27
434.93	318.88
435.30	321.46
435.68	324.35
436.05	327.18
436.42	329.97
436.79	332.49
437.16	335.22
437.53	338.03
437.90	340.84
438.27	343.61
438.64	346.44
439.01	349.07
439.38	351.31
439.75	353.47
440.13	355.97
440.50	358.31
440.87	360.12
441.24	362.03
441.61	364.19
441.98	365.68
442.35	367.51
442.72	369.35
443.09	371.18
443.46	372.15
443.83	372.71
444.20	373.19
444.57	374.03
444.94	374.26
445.31	374.63
445.68	374.99
446.05	375.05
446.42	374.65
446.79	374.20
447.16	373.75
447.53	373.46
447.90	372.31
448.27	371.14
448.64	369.60
449.01	368.43
449.37	366.46
449.74	364.58
450.11	362.34
450.48	359.91
450.85	357.35
451.22	355.19
451.59	353.18
451.96	351.22
452.33	348.59
452.70	346.24
453.07	343.41
453.43	340.53
453.80	337.73
454.17	335.05
454.54	332.52
454.91	329.80
455.28	327.13
455.65	324.62
456.02	322.19
456.38	320.04
456.75	317.41
457.12	315.13
457.49	312.90
457.86	310.72
458.23	308.85
458.59	306.83
458.96	304.79
459.33	302.94
459.70	301.08
460.07	299.62
460.43	297.91
460.80	296.30
461.17	294.83
461.54	293.37
461.91	291.98
462.27	290.56
462.64	289.33
463.01	287.98
463.38	286.71
463.74	285.37
464.11	284.24
464.48	283.25
464.85	282.19
465.21	281.33
465.58	280.46
465.95	279.38
466.32	278.51
466.68	277.59
467.05	276.72
467.42	275.86
467.78	274.94
468.15	274.11
468.52	273.44
468.88	272.64
469.25	271.88
469.62	271.26
469.98	270.61
470.35	269.99
470.72	269.38
471.08	268.74
471.45	268.18
471.82	267.67
472.18	267.10
472.55	266.65
472.92	266.16
473.28	265.70
473.65	265.31
474.02	264.87
474.38	264.53
474.75	264.21
475.11	263.92
475.48	263.65
475.85	263.42
476.21	263.23
476.58	263.04
476.94	262.89
477.31	262.72
477.67	262.57
478.04	262.44
478.41	262.43
478.77	262.48
479.14	262.47
479.50	262.46
479.87	262.54
480.23	262.63
480.60	262.67
480.96	262.76
481.33	262.99
481.69	263.19
482.06	263.41
482.42	263.62
482.79	263.86
483.15	264.19
483.52	264.62
483.88	264.97
484.25	265.36
484.61	265.79
484.98	266.26
485.34	266.83
485.71	267.46
486.07	268.05
486.44	268.62
486.80	269.30
487.17	270.04
487.53	270.83
487.90	271.69
488.26	272.66
488.62	273.63
488.99	274.57
489.35	275.62
489.72	276.76
490.08	277.99
490.44	279.24
490.81	280.51
491.17	281.83
491.54	283.28
491.90	284.84
492.26	286.50
492.63	288.24
492.99	290.04
493.36	291.89
493.72	293.90
494.08	296.01
494.45	298.26
494.81	300.59
495.17	303.07
495.54	305.64
495.90	308.29
496.26	311.13
496.63	314.07
496.99	317.14
497.35	320.39
497.72	323.77
498.08	327.29
498.44	331.01
498.80	334.97
499.17	339.05
499.53	343.24
499.89	347.60
500.26	352.06
500.62	356.72
500.98	361.73
501.34	366.85
501.71	372.20
502.07	377.63
502.43	383.29
502.79	389.05
503.16	395.10
503.52	401.44
503.88	407.82
504.24	414.49
504.60	421.46
504.97	428.61
505.33	435.99
505.69	443.72
506.05	451.50
506.41	459.33
506.78	467.43
507.14	475.91
507.50	484.68
507.86	493.70
508.22	502.91
508.59	512.10
508.95	521.67
509.31	531.49
509.67	541.69
510.03	551.96
510.39	562.54
510.75	573.33
511.12	584.23
511.48	595.54
511.84	606.98
512.20	618.46
512.56	630.37
512.92	642.46
513.28	654.81
513.64	667.28
514.00	680.00
514.37	692.97
514.73	706.02
515.09	719.09
515.45	732.38
515.81	745.96
516.17	760.01
516.53	774.07
516.89	788.21
517.25	802.26
517.61	816.65
517.97	831.14
518.33	845.55
518.69	860.27
519.05	875.27
519.41	890.47
519.77	905.94
520.13	921.40
520.49	936.80
520.85	952.10
521.21	967.78
521.57	984.02
521.93	999.69
522.29	1016.08
522.65	1032.17
523.01	1048.32
523.37	1064.25
523.73	1080.24
524.09	1096.20
524.45	1112.41
524.81	1129.01
525.17	1145.77
525.53	1162.63
525.89	1179.48
526.25	1196.29
526.61	1212.48
526.97	1229.04
527.33	1245.43
527.68	1261.88
528.04	1278.32
528.40	1294.83
528.76	1311.80
529.12	1328.27
529.48	1345.07
529.84	1360.83
530.20	1377.38
530.56	1394.28
530.91	1411.62
531.27	1428.32
531.63	1444.75
531.99	1461.29
532.35	1477.11
532.71	1492.97
533.07	1509.13
533.42	1524.94
533.78	1540.92
534.14	1557.23
534.50	1572.54
534.86	1588.43
535.21	1603.61
535.57	1619.43
535.93	1634.93
536.29	1649.63
536.65	1664.59
537.00	1679.32
537.36	1694.63
537.72	1709.14
538.08	1723.54
538.44	1737.29
538.79	1751.23
539.15	1764.90
539.51	1778.54
539.87	1792.81
540.22	1806.45
540.58	1820.21
540.94	1833.38
541.29	1846.14
541.65	1858.80
542.01	1871.82
542.37	1884.06
542.72	1896.45
543.08	1908.13
543.44	1920.42
543.79	1931.64
544.15	1942.63
544.51	1954.25
544.87	1965.16
545.22	1975.80
545.58	1986.02
545.94	1995.71
546.29	2005.43
546.65	2015.27
547.01	2024.50
547.36	2033.23
547.72	2041.56
548.07	2049.26
548.43	2057.44
548.79	2065.52
549.14	2072.86
549.50	2080.25
549.86	2087.82
550.21	2095.01
550.57	2102.14
550.92	2108.66
551.28	2115.78
551.64	2122.76
551.99	2129.09
552.35	2135.16
552.70	2141.34
553.06	2147.25
553.41	2153.54
553.77	2159.70
554.13	2165.55
554.48	2171.68
554.84	2177.25
555.19	2182.49
555.55	2187.55
555.90	2192.08
556.26	2196.83
556.61	2201.62
556.97	2205.94
557.32	2210.07
557.68	2214.11
558.03	2218.40
558.39	2222.18
558.74	2226.64
559.10	2230.47
559.45	2234.20
559.81	2238.46
560.16	2242.47
560.52	2245.76
560.87	2249.19
561.23	2251.79
561.58	2254.94
561.94	2257.38
562.29	2259.77
562.64	2262.49
563.00	2265.10
563.35	2268.61
563.71	2271.67
564.06	2274.83
564.42	2277.71
564.77	2280.11
565.12	2282.57
565.48	2284.53
565.83	2286.48
566.19	2288.04
566.54	2288.95
566.89	2289.96
567.25	2290.47
567.60	2291.70
567.96	2293.36
568.31	2294.29
568.66	2295.40
569.02	2295.98
569.37	2296.47
569.72	2297.32
570.08	2297.62
570.43	2297.82
570.78	2297.33
571.14	2295.90
571.49	2294.61
571.84	2294.42
572.20	2293.52
572.55	2292.47
572.90	2290.82
573.26	2289.50
573.61	2287.62
573.96	2285.89
574.31	2283.22
574.67	2280.47
575.02	2276.98
575.37	2273.73
575.72	2270.04
576.08	2266.68
576.43	2263.38
576.78	2259.69
577.13	2256.48
577.49	2253.34
577.84	2249.80
578.19	2246.15
578.54	2242.61
578.90	2238.55
579.25	2233.01
579.60	2228.10
579.95	2223.16
580.30	2218.25
580.66	2213.13
581.01	2208.21
581.36	2203.53
581.71	2199.34
582.06	2194.81
582.42	2190.22
582.77	2185.01
583.12	2180.50
583.47	2175.85
583.82	2170.96
584.17	2165.84
584.53	2160.40
584.88	2154.88
585.23	2149.17
585.58	2143.63
585.93	2138.28
586.28	2133.49
586.63	2128.47
586.98	2123.58
587.34	2118.89
587.69	2114.16
588.04	2108.83
588.39	2103.31
588.74	2096.78
589.09	2090.65
589.44	2084.02
589.79	2078.08
590.14	2072.56
590.49	2065.94
590.84	2059.58
591.19	2053.55
591.54	2047.08
591.89	2039.88
592.25	2033.08
592.60	2025.88
592.95	2018.35
593.30	2011.02
593.65	2003.53
594.00	1996.52
594.35	1989.12
594.70	1981.12
595.05	1973.90
595.40	1966.72
595.75	1959.24
596.10	1953.04
596.45	1946.41
596.80	1940.40
597.15	1933.91
597.50	1926.77
597.85	1920.38
598.19	1913.92
598.54	1906.83
598.89	1900.24
599.24	1894.24
599.59	1887.61
599.94	1881.59
600.29	1875.35
600.64	1868.79
600.99	1861.37
601.34	1854.48
601.69	1847.55
602.04	1840.73
602.39	1833.46
602.74	1826.68
603.08	1819.88
603.43	1813.22
603.78	1805.84
604.13	1798.55
604.48	1791.26
604.83	1784.40
605.18	1777.38
605.53	1769.31
605.87	1761.34
606.22	1754.10
606.57	1746.27
606.92	1738.94
607.27	1731.69
607.62	1724.75
607.96	1717.64
608.31	1711.02
608.66	1703.54
609.01	1695.97
609.36	1688.37
609.70	1680.29
610.05	1672.22
610.40	1664.57
610.75	1656.17
611.10	1648.58
611.44	1640.16
611.79	1632.23
612.14	1623.58
612.49	1614.45
612.83	1605.97
613.18	1597.90
613.53	1589.74
613.88	1581.06
614.22	1572.79
614.57	1564.16
614.92	1556.06
615.27	1548.36
615.61	1540.03
615.96	1531.94
616.31	1524.37
616.65	1517.01
617.00	1509.50
617.35	1501.86
617.70	1493.50
618.04	1485.02
618.39	1476.67
618.74	1469.08
619.08	1460.67
619.43	1453.11
619.78	1446.22
620.12	1439.13
620.47	1431.51
620.82	1423.49
621.16	1416.15
621.51	1408.54
621.85	1401.02
622.20	1392.52
622.55	1384.11
622.89	1376.28
623.24	1368.69
623.59	1361.31
623.93	1353.85
624.28	1346.60
624.62	1339.04
624.97	1331.89
625.32	1325.20
625.66	1318.24
626.01	1311.09
626.35	1303.61
626.70	1295.77
627.04	1288.08
627.39	1280.32
627.73	1272.99
628.08	1266.07
628.43	1258.74
628.77	1251.30
629.12	1243.62
629.46	1236.43
629.81	1229.10
630.15	1221.91
630.50	1214.48
630.84	1206.26
631.19	1198.30
631.53	1190.74
631.88	1183.14
632.22	1175.55
632.57	1168.24
632.91	1160.68
633.26	1153.18
633.60	1145.87
633.95	1138.77
634.29	1131.71
634.64	1124.98
634.98	1117.64
635.32	1110.39
635.67	1103.76
636.01	1097.19
636.36	1090.37
636.70	1083.90
637.05	1077.25
637.39	1070.73
637.73	1064.20
638.08	1058.36
638.42	1052.31
638.77	1045.84
639.11	1039.29
639.45	1032.92
639.80	1026.22
640.14	1019.85
640.49	1013.38
640.83	1007.07
641.17	1000.81
641.52	994.39
641.86	987.89
642.20	982.00
642.55	975.74
642.89	969.35
643.23	962.77
643.58	957.04
643.92	950.85
644.26	944.85
644.61	938.89
644.95	932.89
645.29	926.24
645.64	919.60
645.98	913.34
646.32	907.48
646.66	901.38
647.01	895.62
647.35	889.88
647.69	884.00
648.04	878.46
648.38	872.74
648.72	866.85
649.06	860.86
649.41	854.91
649.75	848.90
650.09	842.94
650.43	837.23
650.78	831.09
651.12	825.03
651.46	819.27
651.80	813.38
652.14	807.93
652.49	802.55
652.83	797.29
653.17	791.49
653.51	785.75
653.85	780.33
654.20	774.58
654.54	768.57
654.88	762.86
655.22	756.92
655.56	751.23
655.90	745.78
656.25	740.47
656.59	735.15
656.93	730.01
657.27	724.83
657.61	719.35
657.95	714.23
658.29	709.20
658.64	703.92
658.98	698.65
659.32	693.25
659.66	688.06
660.00	682.78
660.34	677.91
660.68	672.98
661.02	668.00
661.36	663.31
661.70	658.78
662.05	654.41
662.39	650.10
662.73	645.60
663.07	641.24
663.41	636.78
663.75	632.37
664.09	627.87
664.43	623.43
664.77	619.30
665.11	615.11
665.45	611.02
665.79	606.91
666.13	602.78
666.47	598.63
666.81	594.46
667.15	590.32
667.49	586.38
667.83	582.60
668.17	578.67
668.51	574.64
668.85	570.59
669.19	566.75
669.53	562.92
669.87	559.04
670.21	555.27
670.55	551.64
670.89	548.16
671.23	544.67
671.57	541.15
671.91	537.59
672.25	533.96
672.58	530.36
672.92	526.94
673.26	523.77
673.60	520.67
673.94	517.57
674.28	514.68
674.62	511.73
674.96	508.63
675.30	505.71
675.64	502.74
675.97	500.05
676.31	497.11
676.65	494.17
676.99	491.49
677.33	488.59
677.67	485.80
678.01	482.71
678.34	479.76
678.68	476.90
679.02	474.06
679.36	471.38
679.70	468.74
680.04	465.99
680.37	463.13
680.71	460.29
681.05	457.62
681.39	454.92
681.73	452.21
682.06	449.63
682.40	447.06
682.74	444.57
683.08	441.96
683.42	439.42
683.75	436.86
684.09	434.28
684.43	431.85
684.77	429.35
685.10	427.04
685.44	424.75
685.78	422.41
686.12	420.20
686.45	417.89
686.79	415.50
687.13	413.32
687.46	411.13
687.80	408.94
688.14	406.71
688.48	404.56
688.81	402.33
689.15	400.20
689.49	398.04
689.82	395.93
690.16	393.87
690.50	391.88
690.83	389.97
691.17	388.01
691.51	386.07
691.84	384.20
692.18	382.21
692.52	380.19
692.85	378.29
693.19	376.41
693.52	374.53
693.86	372.75
694.20	370.93
694.53	369.14
694.87	367.30
695.21	365.54
695.54	363.75
695.88	362.08
696.21	360.36
696.55	358.66
696.88	356.97
697.22	355.30
697.56	353.71
697.89	352.07
698.23	350.41
698.56	348.82
698.90	347.25
699.23	345.62
699.57	344.06
699.90	342.54
700.24	340.95
700.58	339.44
700.91	337.97
701.25	336.53
701.58	335.14
701.92	333.77
702.25	332.40
702.59	331.02
702.92	329.62
703.26	328.30
703.59	327.06
703.93	325.86
704.26	324.61
704.60	323.26
704.93	321.92
705.26	320.68
705.60	319.48
705.93	318.34
706.27	317.33
706.60	316.28
706.94	315.17
707.27	314.08
707.61	313.06
707.94	312.01
708.27	310.90
708.61	309.84
708.94	308.84
709.28	307.83
709.61	306.88
709.94	305.96
710.28	304.95
710.61	303.98
710.95	302.93
711.28	302.00
711.61	301.07
711.95	300.19
712.28	299.30
712.61	298.35
712.95	297.38
713.28	296.50
713.61	295.60
713.95	294.73
714.28	293.90
714.61	293.03
714.95	292.22
715.28	291.41
715.61	290.52
715.95	289.64
716.28	288.84
716.61	288.03
716.95	287.23
717.28	286.51
717.61	285.71
717.94	284.98
718.28	284.19
718.61	283.49
718.94	282.80
719.27	282.12
719.61	281.48
719.94	280.83
720.27	280.13
720.60	279.44
720.94	278.86
721.27	278.25
721.60	277.64
721.93	277.05
722.27	276.50
722.60	275.93
722.93	275.38
723.26	274.81
723.59	274.24
723.93	273.67
724.26	273.07
724.59	272.53
724.92	272.02
725.25	271.50
725.59	270.96
725.92	270.46
726.25	269.95
726.58	269.42
726.91	268.94
727.24	268.46
727.57	268.02
727.91	267.49
728.24	267.04
728.57	266.57
728.90	266.14
729.23	265.63
729.56	265.25
729.89	264.78
730.22	264.26
730.55	263.81
730.89	263.35
731.22	262.93
731.55	262.49
731.88	262.03
732.21	261.61
732.54	261.21
732.87	260.76
733.20	260.35
733.53	259.97
733.86	259.59
734.19	259.15
734.52	258.77
734.85	258.45
735.18	258.00
735.51	257.63
735.84	257.17
736.17	256.82
736.50	256.42
736.83	256.16
737.16	255.86
737.49	255.52
737.82	255.20
738.15	254.86
738.48	254.52
738.81	254.20
739.14	253.88
739.47	253.58
739.80	253.28
740.13	252.94
740.46	252.63
740.79	252.25
741.12	251.97
741.45	251.64
741.78	251.26
742.11	250.99
742.44	250.66
742.77	250.46
743.10	250.14
743.43	249.82
743.75	249.47
744.08	249.31
744.41	249.02
744.74	248.75
745.07	248.46
745.40	248.22
745.73	248.01
746.06	247.76
746.39	247.48
746.71	247.23
747.04	246.97
747.37	246.69
747.70	246.45
748.03	246.21
748.36	246.01
748.68	245.74
749.01	245.47
749.34	245.24
749.67	245.00
750.00	244.76
750.33	244.62
750.65	244.41
750.98	244.07
751.31	243.87
751.64	243.62
751.97	243.47
752.29	243.25
752.62	242.97
752.95	242.75
753.28	242.52
753.60	242.29
753.93	242.11
754.26	241.92
754.59	241.70
754.91	241.51
755.24	241.30
755.57	241.14
755.90	240.96
756.22	240.76
756.55	240.54
756.88	240.34
757.20	240.11
757.53	239.89
757.86	239.74
758.19	239.57
758.51	239.44
758.84	239.23
759.17	239.06
759.49	238.92
759.82	238.78
760.15	238.64
760.47	238.51
760.80	238.34
761.13	238.22
761.45	238.10
761.78	237.93
762.11	237.84
762.43	237.71
762.76	237.57
763.08	237.44
763.41	237.33
763.74	237.24
764.06	237.12
764.39	237.00
764.71	236.87
765.04	236.72
765.37	236.57
765.69	236.46
766.02	236.35
766.34	236.22
766.67	236.11
767.00	236.01
767.32	235.94
767.65	235.89
767.97	235.75
768.30	235.65
768.62	235.54
768.95	235.41
769.27	235.29
769.60	235.19
769.92	235.09
770.25	234.97
770.57	234.82
770.90	234.70
771.22	234.59
771.55	234.48
771.87	234.39
772.20	234.29
772.52	234.27
772.85	234.30
773.17	234.20
773.50	234.07
773.82	233.97
774.15	233.82
774.47	233.68
774.80	233.57
775.12	233.45
775.45	233.37
775.77	233.27
776.09	233.21
776.42	233.15
776.74	233.11
777.07	233.02
777.39	233.00
777.72	232.91
778.04	232.86
778.36	232.76
778.69	232.70
779.01	232.64
779.33	232.47
779.66	232.28
779.98	232.18
780.31	232.10
780.63	232.06
780.95	232.02
781.28	231.93
781.60	231.88
781.92	231.83
782.25	231.77
782.57	231.71
782.89	231.63
783.22	231.55
783.54	231.44
783.86	231.36
784.19	231.27
784.51	231.26
784.83	231.18
785.16	231.12
785.48	231.06
785.80	230.99
786.12	230.96
786.45	230.89
786.77	230.85
787.09	230.83
