SpectraSuite Data File
++++++++++++++++++++++++++++++++++++
Date: Fri Feb 01 16:03:17 EST 2013
User: group
Dark Spectrum Present: No
Reference Spectrum Present: No
Number of Sampled Component Spectra: 1
Spectrometers: USB2E7196
Integration Time (usec): 35000 (USB2E7196)
Spectra Averaged: 100 (USB2E7196)
Boxcar Smoothing: 10 (USB2E7196)
Correct for Electrical Dark: No (USB2E7196)
Strobe/Lamp Enabled: No (USB2E7196)
Correct for Detector Non-linearity: No (USB2E7196)
Correct for Stray Light: No (USB2E7196)
Number of Pixels in Processed Spectrum: 2048
>>>>>Begin Processed Spectral Data<<<<<
339.09	0.00
339.48	214.61
339.86	216.75
340.24	217.87
340.63	219.62
341.01	222.19
341.39	221.75
341.78	222.99
342.16	224.44
342.54	225.21
342.93	213.22
343.31	224.00
343.69	224.52
344.07	224.96
344.46	225.35
344.84	225.68
345.22	225.88
345.60	226.12
345.99	226.31
346.37	226.43
346.75	226.50
347.13	226.57
347.52	226.61
347.90	226.70
348.28	226.75
348.66	226.80
349.05	226.79
349.43	226.82
349.81	226.85
350.19	226.93
350.57	227.00
350.96	227.03
351.34	227.10
351.72	227.22
352.10	227.34
352.48	227.44
352.87	227.51
353.25	227.59
353.63	227.65
354.01	227.69
354.39	227.78
354.77	227.86
355.15	227.93
355.54	228.00
355.92	228.02
356.30	228.07
356.68	228.16
357.06	228.26
357.44	228.29
357.82	228.39
358.20	228.47
358.58	228.53
358.97	228.60
359.35	228.71
359.73	228.76
360.11	228.80
360.49	228.85
360.87	228.92
361.25	229.01
361.63	229.05
362.01	229.12
362.39	229.12
362.77	229.16
363.15	229.19
363.53	229.23
363.91	229.26
364.29	229.29
364.67	229.26
365.05	229.25
365.43	229.30
365.81	229.32
366.19	229.31
366.57	229.37
366.95	229.38
367.33	229.33
367.71	229.33
368.09	229.31
368.47	229.28
368.85	229.23
369.23	229.22
369.61	229.19
369.99	229.19
370.37	229.16
370.75	229.18
371.13	229.12
371.51	229.06
371.89	229.01
372.27	228.98
372.65	228.92
373.03	228.88
373.41	228.84
373.78	228.75
374.16	228.69
374.54	228.56
374.92	228.48
375.30	228.42
375.68	228.34
376.06	228.28
376.44	228.19
376.82	228.18
377.19	228.07
377.57	228.01
377.95	227.92
378.33	227.87
378.71	227.74
379.09	227.72
379.47	227.66
379.84	227.60
380.22	227.50
380.60	227.42
380.98	227.35
381.36	227.22
381.73	227.17
382.11	227.09
382.49	227.04
382.87	226.97
383.25	226.89
383.62	226.94
384.00	226.87
384.38	226.85
384.76	226.77
385.13	226.76
385.51	226.70
385.89	226.64
386.27	226.60
386.64	226.56
387.02	226.49
387.40	226.42
387.78	226.38
388.15	226.36
388.53	226.33
388.91	226.30
389.29	226.28
389.66	226.25
390.04	226.23
390.42	226.21
390.79	226.22
391.17	226.19
391.55	226.06
391.92	226.05
392.30	226.01
392.68	225.99
393.05	225.96
393.43	225.97
393.81	225.98
394.18	225.99
394.56	226.01
394.94	226.02
395.31	226.04
395.69	226.08
396.06	226.12
396.44	226.14
396.82	226.19
397.19	226.28
397.57	226.32
397.95	226.37
398.32	226.42
398.70	226.48
399.07	226.58
399.45	226.65
399.82	226.71
400.20	226.77
400.58	226.82
400.95	226.88
401.33	226.96
401.70	227.12
402.08	227.20
402.45	227.26
402.83	227.41
403.20	227.51
403.58	227.61
403.95	227.75
404.33	227.88
404.71	227.97
405.08	228.13
405.46	228.25
405.83	228.38
406.21	228.53
406.58	228.68
406.96	228.83
407.33	228.99
407.70	229.18
408.08	229.44
408.45	229.66
408.83	229.91
409.20	230.15
409.58	230.29
409.95	230.52
410.33	230.81
410.70	231.04
411.08	231.32
411.45	231.63
411.82	231.90
412.20	232.26
412.57	232.71
412.95	232.96
413.32	233.41
413.69	233.83
414.07	234.24
414.44	234.67
414.82	235.16
415.19	235.75
415.56	236.32
415.94	236.87
416.31	237.53
416.68	238.16
417.06	238.85
417.43	239.53
417.81	240.30
418.18	241.07
418.55	241.92
418.93	242.82
419.30	243.69
419.67	244.63
420.04	245.59
420.42	246.53
420.79	247.76
421.16	248.92
421.54	250.12
421.91	251.34
422.28	252.66
422.66	253.98
423.03	255.28
423.40	256.60
423.77	258.02
424.15	259.44
424.52	260.91
424.89	262.53
425.26	264.12
425.64	265.59
426.01	267.21
426.38	268.85
426.75	270.53
427.13	272.27
427.50	274.10
427.87	275.99
428.24	277.85
428.61	279.59
428.99	281.50
429.36	283.59
429.73	285.65
430.10	287.66
430.47	289.71
430.85	291.81
431.22	294.07
431.59	296.46
431.96	298.68
432.33	301.17
432.70	303.53
433.08	306.34
433.45	308.96
433.82	311.52
434.19	314.44
434.56	317.25
434.93	319.92
435.30	322.54
435.68	325.40
436.05	328.27
436.42	331.07
436.79	333.60
437.16	336.26
437.53	339.14
437.90	341.96
438.27	344.67
438.64	347.52
439.01	350.08
439.38	352.33
439.75	354.55
440.13	357.04
440.50	359.36
440.87	361.19
441.24	363.14
441.61	365.32
441.98	366.79
442.35	368.58
442.72	370.40
443.09	372.22
443.46	373.23
443.83	373.82
444.20	374.32
444.57	375.14
444.94	375.46
445.31	375.74
445.68	376.09
446.05	376.20
446.42	375.83
446.79	375.44
447.16	374.95
447.53	374.60
447.90	373.41
448.27	372.25
448.64	370.71
449.01	369.56
449.37	367.55
449.74	365.66
450.11	363.44
450.48	361.00
450.85	358.44
451.22	356.29
451.59	354.26
451.96	352.32
452.33	349.72
452.70	347.34
453.07	344.54
453.43	341.61
453.80	338.84
454.17	336.17
454.54	333.60
454.91	330.93
455.28	328.28
455.65	325.82
456.02	323.36
456.38	321.20
456.75	318.55
457.12	316.34
457.49	314.10
457.86	311.93
458.23	310.08
458.59	308.04
458.96	305.96
459.33	304.11
459.70	302.25
460.07	300.76
460.43	299.09
460.80	297.48
461.17	296.07
461.54	294.56
461.91	293.14
462.27	291.74
462.64	290.48
463.01	289.13
463.38	287.87
463.74	286.56
464.11	285.39
464.48	284.37
464.85	283.25
465.21	282.39
465.58	281.47
465.95	280.39
466.32	279.51
466.68	278.61
467.05	277.73
467.42	276.85
467.78	275.89
468.15	274.99
468.52	274.31
468.88	273.43
469.25	272.68
469.62	272.04
469.98	271.32
470.35	270.70
470.72	270.05
471.08	269.41
471.45	268.86
471.82	268.35
472.18	267.75
472.55	267.33
472.92	266.84
473.28	266.37
473.65	265.94
474.02	265.47
474.38	265.10
474.75	264.77
475.11	264.42
475.48	264.18
475.85	263.97
476.21	263.73
476.58	263.55
476.94	263.43
477.31	263.26
477.67	263.12
478.04	262.99
478.41	262.97
478.77	262.98
479.14	262.88
479.50	262.86
479.87	262.96
480.23	263.05
480.60	263.13
480.96	263.20
481.33	263.41
481.69	263.61
482.06	263.81
482.42	263.99
482.79	264.27
483.15	264.61
483.52	264.98
483.88	265.35
484.25	265.79
484.61	266.17
484.98	266.61
485.34	267.18
485.71	267.79
486.07	268.36
486.44	268.91
486.80	269.66
487.17	270.40
487.53	271.21
487.90	272.05
488.26	272.96
488.62	273.98
488.99	274.93
489.35	275.97
489.72	277.10
490.08	278.31
490.44	279.53
490.81	280.83
491.17	282.20
491.54	283.67
491.90	285.19
492.26	286.82
492.63	288.55
492.99	290.33
493.36	292.23
493.72	294.30
494.08	296.46
494.45	298.66
494.81	301.01
495.17	303.44
495.54	305.99
495.90	308.65
496.26	311.43
496.63	314.36
496.99	317.46
497.35	320.74
497.72	324.18
498.08	327.71
498.44	331.36
498.80	335.30
499.17	339.39
499.53	343.63
499.89	348.05
500.26	352.55
500.62	357.27
500.98	362.20
501.34	367.30
501.71	372.59
502.07	378.09
502.43	383.66
502.79	389.49
503.16	395.58
503.52	401.89
503.88	408.38
504.24	415.11
504.60	422.02
504.97	429.17
505.33	436.47
505.69	444.20
506.05	451.99
506.41	459.87
506.78	467.95
507.14	476.31
507.50	485.03
507.86	494.06
508.22	503.24
508.59	512.48
508.95	522.04
509.31	531.85
509.67	541.93
510.03	552.29
510.39	562.82
510.75	573.62
511.12	584.53
511.48	595.77
511.84	607.06
512.20	618.62
512.56	630.60
512.92	642.83
513.28	655.20
513.64	667.72
514.00	680.44
514.37	693.44
514.73	706.53
515.09	719.55
515.45	732.88
515.81	746.48
516.17	760.46
516.53	774.63
516.89	788.88
517.25	803.03
517.61	817.45
517.97	831.97
518.33	846.35
518.69	861.18
519.05	876.12
519.41	891.37
519.77	906.91
520.13	922.20
520.49	937.50
520.85	952.93
521.21	968.61
521.57	984.72
521.93	1000.50
522.29	1016.84
522.65	1033.11
523.01	1049.33
523.37	1065.32
523.73	1081.50
524.09	1097.48
524.45	1113.67
524.81	1130.30
525.17	1147.10
525.53	1163.98
525.89	1180.96
526.25	1197.67
526.61	1214.07
526.97	1230.75
527.33	1247.10
527.68	1263.76
528.04	1280.33
528.40	1296.74
528.76	1313.77
529.12	1330.41
529.48	1347.27
529.84	1363.33
530.20	1379.95
530.56	1397.00
530.91	1414.49
531.27	1431.13
531.63	1447.54
531.99	1464.08
532.35	1479.98
532.71	1495.77
533.07	1511.88
533.42	1527.81
533.78	1543.83
534.14	1560.07
534.50	1575.45
534.86	1591.27
535.21	1606.43
535.57	1622.22
535.93	1637.75
536.29	1652.53
536.65	1667.45
537.00	1682.16
537.36	1697.43
537.72	1711.76
538.08	1726.07
538.44	1739.59
538.79	1753.51
539.15	1767.19
539.51	1780.94
539.87	1795.33
540.22	1809.18
540.58	1822.98
540.94	1836.23
541.29	1849.17
541.65	1861.80
542.01	1874.96
542.37	1887.35
542.72	1899.69
543.08	1911.48
543.44	1923.91
543.79	1935.01
544.15	1946.01
544.51	1957.43
544.87	1968.31
545.22	1979.20
545.58	1989.35
545.94	1999.27
546.29	2009.03
546.65	2018.93
547.01	2028.18
547.36	2036.86
547.72	2045.23
548.07	2052.99
548.43	2061.03
548.79	2069.08
549.14	2076.55
549.50	2083.84
549.86	2091.48
550.21	2098.99
550.57	2105.97
550.92	2112.46
551.28	2119.72
551.64	2126.71
551.99	2133.34
552.35	2139.52
552.70	2145.70
553.06	2151.62
553.41	2157.89
553.77	2163.97
554.13	2170.03
554.48	2176.17
554.84	2181.53
555.19	2186.86
555.55	2192.08
555.90	2196.56
556.26	2201.39
556.61	2206.21
556.97	2210.44
557.32	2214.59
557.68	2218.52
558.03	2223.02
558.39	2226.88
558.74	2231.36
559.10	2235.41
559.45	2238.93
559.81	2243.27
560.16	2247.09
560.52	2250.34
560.87	2253.74
561.23	2256.44
561.58	2259.40
561.94	2261.87
562.29	2264.34
562.64	2266.91
563.00	2269.54
563.35	2273.08
563.71	2276.13
564.06	2279.34
564.42	2282.17
564.77	2284.65
565.12	2286.91
565.48	2288.79
565.83	2290.42
566.19	2291.73
566.54	2292.55
566.89	2293.78
567.25	2294.28
567.60	2295.57
567.96	2297.20
568.31	2298.07
568.66	2299.18
569.02	2299.84
569.37	2300.19
569.72	2301.08
570.08	2301.28
570.43	2301.22
570.78	2300.56
571.14	2299.04
571.49	2297.77
571.84	2297.62
572.20	2296.61
572.55	2295.58
572.90	2294.13
573.26	2292.88
573.61	2291.23
573.96	2289.48
574.31	2286.64
574.67	2283.68
575.02	2280.09
575.37	2276.71
575.72	2272.94
576.08	2269.65
576.43	2266.29
576.78	2262.51
577.13	2259.46
577.49	2256.37
577.84	2252.92
578.19	2249.23
578.54	2245.70
578.90	2241.43
579.25	2235.87
579.60	2230.84
579.95	2225.94
580.30	2220.91
580.66	2215.79
581.01	2210.89
581.36	2206.10
581.71	2201.78
582.06	2197.32
582.42	2192.88
582.77	2187.76
583.12	2183.21
583.47	2178.33
583.82	2173.34
584.17	2168.23
584.53	2162.64
584.88	2157.04
585.23	2151.31
585.58	2145.76
585.93	2140.33
586.28	2135.51
586.63	2130.34
586.98	2125.39
587.34	2120.54
587.69	2115.62
588.04	2110.27
588.39	2104.66
588.74	2098.10
589.09	2092.05
589.44	2085.34
589.79	2079.50
590.14	2073.96
590.49	2067.43
590.84	2061.24
591.19	2055.25
591.54	2048.83
591.89	2041.35
592.25	2034.54
592.60	2027.19
592.95	2019.85
593.30	2012.47
593.65	2004.95
594.00	1998.08
594.35	1990.74
594.70	1982.92
595.05	1975.59
595.40	1968.46
595.75	1961.00
596.10	1954.76
596.45	1947.95
596.80	1941.75
597.15	1935.02
597.50	1927.91
597.85	1921.52
598.19	1914.77
598.54	1907.57
598.89	1900.97
599.24	1895.09
599.59	1888.35
599.94	1882.41
600.29	1876.05
600.64	1869.43
600.99	1862.01
601.34	1855.17
601.69	1848.24
602.04	1841.37
602.39	1834.13
602.74	1827.19
603.08	1820.40
603.43	1813.72
603.78	1806.54
604.13	1799.27
604.48	1791.90
604.83	1784.98
605.18	1777.87
605.53	1769.91
605.87	1761.90
606.22	1754.68
606.57	1746.80
606.92	1739.57
607.27	1732.27
607.62	1725.12
607.96	1717.85
608.31	1711.21
608.66	1703.56
609.01	1696.08
609.36	1688.46
609.70	1680.42
610.05	1672.32
610.40	1664.60
610.75	1656.20
611.10	1648.44
611.44	1640.18
611.79	1632.28
612.14	1623.56
612.49	1614.42
612.83	1606.00
613.18	1597.82
613.53	1589.67
613.88	1581.12
614.22	1572.76
614.57	1564.30
614.92	1556.43
615.27	1548.96
615.61	1540.62
615.96	1532.65
616.31	1524.94
616.65	1517.47
617.00	1509.83
617.35	1502.20
617.70	1493.81
618.04	1485.48
618.39	1477.25
618.74	1469.67
619.08	1461.29
619.43	1453.75
619.78	1446.89
620.12	1439.76
620.47	1432.29
620.82	1424.18
621.16	1416.81
621.51	1409.34
621.85	1401.67
622.20	1393.09
622.55	1384.66
622.89	1376.80
623.24	1369.11
623.59	1361.78
623.93	1354.32
624.28	1347.18
624.62	1339.62
624.97	1332.58
625.32	1325.78
625.66	1318.79
626.01	1311.37
626.35	1303.96
626.70	1296.24
627.04	1288.49
627.39	1280.76
627.73	1273.36
628.08	1266.50
628.43	1259.08
628.77	1251.67
629.12	1244.10
629.46	1236.91
629.81	1229.59
630.15	1222.37
630.50	1214.94
630.84	1206.65
631.19	1198.68
631.53	1191.17
631.88	1183.70
632.22	1175.97
632.57	1168.66
632.91	1161.13
633.26	1153.82
633.60	1146.45
633.95	1139.38
634.29	1132.36
634.64	1125.59
634.98	1118.34
635.32	1111.05
635.67	1104.55
636.01	1097.73
636.36	1090.79
636.70	1084.29
637.05	1077.62
637.39	1071.22
637.73	1064.71
638.08	1058.89
638.42	1052.91
638.77	1046.46
639.11	1039.83
639.45	1033.50
639.80	1026.83
640.14	1020.39
640.49	1013.85
640.83	1007.55
641.17	1001.20
641.52	994.80
641.86	988.34
642.20	982.38
642.55	976.07
642.89	969.53
643.23	963.14
643.58	957.40
643.92	951.23
644.26	945.09
644.61	939.03
644.95	932.93
645.29	926.26
645.64	919.51
645.98	913.16
646.32	907.40
646.66	901.35
647.01	895.46
647.35	889.72
647.69	883.84
648.04	878.32
648.38	872.61
648.72	866.60
649.06	860.58
649.41	854.75
649.75	848.79
650.09	842.87
650.43	837.03
650.78	830.88
651.12	824.89
651.46	819.25
651.80	813.44
652.14	808.10
652.49	802.74
652.83	797.58
653.17	791.86
653.51	786.03
653.85	780.66
654.20	775.08
654.54	769.05
654.88	763.39
655.22	757.39
655.56	751.65
655.90	746.20
656.25	740.98
656.59	735.52
656.93	730.45
657.27	725.30
657.61	719.85
657.95	714.74
658.29	709.63
658.64	704.37
658.98	699.11
659.32	693.64
659.66	688.39
660.00	683.04
660.34	678.09
660.68	673.18
661.02	668.08
661.36	663.32
661.70	658.91
662.05	654.52
662.39	650.25
662.73	645.77
663.07	641.42
663.41	636.92
663.75	632.49
664.09	627.89
664.43	623.50
664.77	619.38
665.11	615.13
665.45	611.03
665.79	607.00
666.13	602.90
666.47	598.82
666.81	594.71
667.15	590.64
667.49	586.79
667.83	583.02
668.17	579.04
668.51	574.92
668.85	570.90
669.19	567.05
669.53	563.19
669.87	559.37
670.21	555.64
670.55	552.02
670.89	548.55
671.23	545.14
671.57	541.60
671.91	538.08
672.25	534.59
672.58	531.10
672.92	527.66
673.26	524.46
673.60	521.34
673.94	518.23
674.28	515.26
674.62	512.34
674.96	509.20
675.30	506.33
675.64	503.43
675.97	500.63
676.31	497.82
676.65	494.99
676.99	492.24
677.33	489.46
677.67	486.62
678.01	483.55
678.34	480.57
678.68	477.71
679.02	474.89
679.36	472.16
679.70	469.44
680.04	466.59
680.37	463.63
680.71	460.76
681.05	458.11
681.39	455.41
681.73	452.70
682.06	450.19
682.40	447.63
682.74	445.11
683.08	442.52
683.42	439.86
683.75	437.27
684.09	434.70
684.43	432.19
684.77	429.73
685.10	427.41
685.44	425.10
685.78	422.79
686.12	420.55
686.45	418.24
686.79	415.90
687.13	413.78
687.46	411.66
687.80	409.56
688.14	407.35
688.48	405.25
688.81	402.98
689.15	400.82
689.49	398.62
689.82	396.56
690.16	394.48
690.50	392.52
690.83	390.56
691.17	388.57
691.51	386.65
691.84	384.82
692.18	382.86
692.52	380.84
692.85	378.91
693.19	377.05
693.52	375.23
693.86	373.48
694.20	371.67
694.53	369.85
694.87	367.99
695.21	366.19
695.54	364.40
695.88	362.70
696.21	360.99
696.55	359.33
696.88	357.61
697.22	355.94
697.56	354.31
697.89	352.65
698.23	351.04
698.56	349.37
698.90	347.77
699.23	346.19
699.57	344.65
699.90	343.16
700.24	341.56
700.58	340.05
700.91	338.51
701.25	337.05
701.58	335.67
701.92	334.31
702.25	332.93
702.59	331.51
702.92	330.21
703.26	328.84
703.59	327.58
703.93	326.43
704.26	325.18
704.60	323.90
704.93	322.63
705.26	321.37
705.60	320.26
705.93	319.07
706.27	317.96
706.60	316.92
706.94	315.84
707.27	314.75
707.61	313.68
707.94	312.65
708.27	311.59
708.61	310.57
708.94	309.57
709.28	308.61
709.61	307.69
709.94	306.75
710.28	305.77
710.61	304.78
710.95	303.70
711.28	302.85
711.61	301.91
711.95	301.03
712.28	300.10
712.61	299.12
712.95	298.22
713.28	297.37
713.61	296.49
713.95	295.58
714.28	294.72
714.61	293.90
714.95	293.05
715.28	292.21
715.61	291.33
715.95	290.49
716.28	289.65
716.61	288.83
716.95	288.00
717.28	287.28
717.61	286.51
717.94	285.76
718.28	284.96
718.61	284.24
718.94	283.53
719.27	282.90
719.61	282.24
719.94	281.59
720.27	280.90
720.60	280.25
720.94	279.62
721.27	279.03
721.60	278.38
721.93	277.77
722.27	277.19
722.60	276.60
722.93	276.00
723.26	275.40
723.59	274.83
723.93	274.27
724.26	273.68
724.59	273.15
724.92	272.64
725.25	272.12
725.59	271.59
725.92	271.07
726.25	270.54
726.58	270.04
726.91	269.55
727.24	269.06
727.57	268.55
727.91	268.02
728.24	267.53
728.57	267.08
728.90	266.64
729.23	266.11
729.56	265.68
729.89	265.23
730.22	264.76
730.55	264.30
730.89	263.84
731.22	263.38
731.55	262.93
731.88	262.52
732.21	262.06
732.54	261.63
732.87	261.19
733.20	260.80
733.53	260.41
733.86	260.03
734.19	259.59
734.52	259.19
734.85	258.91
735.18	258.51
735.51	258.10
735.84	257.72
736.17	257.39
736.50	256.98
736.83	256.76
737.16	256.45
737.49	256.12
737.82	255.78
738.15	255.47
738.48	255.11
738.81	254.76
739.14	254.43
739.47	254.13
739.80	253.84
740.13	253.50
740.46	253.15
740.79	252.80
741.12	252.52
741.45	252.25
741.78	251.89
742.11	251.61
742.44	251.29
742.77	251.00
743.10	250.69
743.43	250.42
743.75	250.03
744.08	249.88
744.41	249.58
744.74	249.28
745.07	248.99
745.40	248.80
745.73	248.56
746.06	248.30
746.39	248.03
746.71	247.74
747.04	247.51
747.37	247.27
747.70	247.06
748.03	246.81
748.36	246.61
748.68	246.36
749.01	246.12
749.34	245.92
749.67	245.68
750.00	245.50
750.33	245.35
750.65	245.12
750.98	244.77
751.31	244.57
751.64	244.40
751.97	244.27
752.29	244.04
752.62	243.80
752.95	243.58
753.28	243.38
753.60	243.19
753.93	243.03
754.26	242.84
754.59	242.60
754.91	242.41
755.24	242.20
755.57	242.03
755.90	241.86
756.22	241.67
756.55	241.49
756.88	241.31
757.20	241.07
757.53	240.93
757.86	240.75
758.19	240.60
758.51	240.42
758.84	240.19
759.17	239.97
759.49	239.81
759.82	239.69
760.15	239.52
760.47	239.35
760.80	239.11
761.13	238.93
761.45	238.77
761.78	238.61
762.11	238.43
762.43	238.25
762.76	238.10
763.08	237.99
763.41	237.83
763.74	237.67
764.06	237.50
764.39	237.35
764.71	237.22
765.04	237.09
765.37	236.92
765.69	236.78
766.02	236.68
766.34	236.53
766.67	236.40
767.00	236.31
767.32	236.24
767.65	236.24
767.97	236.15
768.30	236.08
768.62	235.98
768.95	235.84
769.27	235.72
769.60	235.59
769.92	235.43
770.25	235.35
770.57	235.21
770.90	235.11
771.22	234.95
771.55	234.84
771.87	234.73
772.20	234.67
772.52	234.66
772.85	234.67
773.17	234.59
773.50	234.46
773.82	234.35
774.15	234.24
774.47	234.07
774.80	233.97
775.12	233.85
775.45	233.76
775.77	233.72
776.09	233.64
776.42	233.59
776.74	233.57
777.07	233.47
777.39	233.43
777.72	233.34
778.04	233.29
778.36	233.21
778.69	233.15
779.01	233.08
779.33	232.93
779.66	232.74
779.98	232.66
780.31	232.62
780.63	232.64
780.95	232.58
781.28	232.55
781.60	232.47
781.92	232.41
782.25	232.35
782.57	232.25
782.89	232.19
783.22	232.11
783.54	232.02
783.86	231.97
784.19	231.90
784.51	231.87
784.83	231.82
785.16	231.76
785.48	231.71
785.80	231.64
786.12	231.63
786.45	231.59
786.77	231.57
787.09	231.53
