SpectraSuite Data File
++++++++++++++++++++++++++++++++++++
Date: Fri Feb 01 16:16:57 EST 2013
User: group
Dark Spectrum Present: No
Reference Spectrum Present: No
Number of Sampled Component Spectra: 1
Spectrometers: USB2E7196
Integration Time (usec): 35000 (USB2E7196)
Spectra Averaged: 100 (USB2E7196)
Boxcar Smoothing: 10 (USB2E7196)
Correct for Electrical Dark: No (USB2E7196)
Strobe/Lamp Enabled: No (USB2E7196)
Correct for Detector Non-linearity: No (USB2E7196)
Correct for Stray Light: No (USB2E7196)
Number of Pixels in Processed Spectrum: 2048
>>>>>Begin Processed Spectral Data<<<<<
339.09	0.00
339.48	214.35
339.86	215.85
340.24	217.03
340.63	218.08
341.01	220.69
341.39	220.71
341.78	222.32
342.16	223.59
342.54	223.62
342.93	212.26
343.31	222.98
343.69	223.51
344.07	223.94
344.46	224.37
344.84	224.76
345.22	225.03
345.60	225.27
345.99	225.44
346.37	225.56
346.75	225.67
347.13	225.74
347.52	225.82
347.90	225.92
348.28	225.94
348.66	225.95
349.05	225.96
349.43	226.00
349.81	226.04
350.19	226.11
350.57	226.16
350.96	226.22
351.34	226.29
351.72	226.38
352.10	226.50
352.48	226.56
352.87	226.62
353.25	226.68
353.63	226.77
354.01	226.84
354.39	226.90
354.77	226.97
355.15	227.06
355.54	227.13
355.92	227.16
356.30	227.23
356.68	227.38
357.06	227.48
357.44	227.56
357.82	227.63
358.20	227.71
358.58	227.80
358.97	227.87
359.35	227.96
359.73	228.06
360.11	228.07
360.49	228.15
360.87	228.18
361.25	228.21
361.63	228.29
362.01	228.36
362.39	228.41
362.77	228.49
363.15	228.55
363.53	228.57
363.91	228.62
364.29	228.64
364.67	228.58
365.05	228.60
365.43	228.60
365.81	228.62
366.19	228.69
366.57	228.72
366.95	228.74
367.33	228.72
367.71	228.72
368.09	228.74
368.47	228.72
368.85	228.74
369.23	228.76
369.61	228.73
369.99	228.72
370.37	228.73
370.75	228.72
371.13	228.66
371.51	228.62
371.89	228.61
372.27	228.60
372.65	228.59
373.03	228.53
373.41	228.48
373.78	228.45
374.16	228.35
374.54	228.26
374.92	228.19
375.30	228.12
375.68	227.99
376.06	227.94
376.44	227.88
376.82	227.81
377.19	227.76
377.57	227.66
377.95	227.58
378.33	227.51
378.71	227.40
379.09	227.32
379.47	227.28
379.84	227.22
380.22	227.13
380.60	227.01
380.98	226.95
381.36	226.85
381.73	226.76
382.11	226.68
382.49	226.61
382.87	226.57
383.25	226.53
383.62	226.59
384.00	226.49
384.38	226.42
384.76	226.34
385.13	226.33
385.51	226.29
385.89	226.19
386.27	226.10
386.64	226.06
387.02	225.99
387.40	225.92
387.78	225.86
388.15	225.83
388.53	225.80
388.91	225.77
389.29	225.76
389.66	225.76
390.04	225.74
390.42	225.75
390.79	225.72
391.17	225.69
391.55	225.57
391.92	225.60
392.30	225.64
392.68	225.64
393.05	225.59
393.43	225.60
393.81	225.64
394.18	225.62
394.56	225.65
394.94	225.71
395.31	225.73
395.69	225.76
396.06	225.81
396.44	225.84
396.82	225.86
397.19	225.94
397.57	225.94
397.95	225.99
398.32	226.01
398.70	226.01
399.07	226.09
399.45	226.13
399.82	226.19
400.20	226.18
400.58	226.25
400.95	226.30
401.33	226.41
401.70	226.54
402.08	226.68
402.45	226.78
402.83	226.89
403.20	227.00
403.58	227.10
403.95	227.16
404.33	227.29
404.71	227.40
405.08	227.55
405.46	227.69
405.83	227.85
406.21	228.00
406.58	228.23
406.96	228.40
407.33	228.58
407.70	228.76
408.08	229.06
408.45	229.28
408.83	229.51
409.20	229.70
409.58	229.88
409.95	230.10
410.33	230.35
410.70	230.55
411.08	230.83
411.45	231.11
411.82	231.43
412.20	231.78
412.57	232.21
412.95	232.52
413.32	232.94
413.69	233.34
414.07	233.79
414.44	234.21
414.82	234.66
415.19	235.22
415.56	235.78
415.94	236.28
416.31	236.90
416.68	237.54
417.06	238.22
417.43	238.90
417.81	239.68
418.18	240.45
418.55	241.30
418.93	242.17
419.30	243.05
419.67	244.03
420.04	244.98
420.42	245.97
420.79	247.17
421.16	248.33
421.54	249.51
421.91	250.76
422.28	252.03
422.66	253.38
423.03	254.68
423.40	256.05
423.77	257.48
424.15	258.91
424.52	260.38
424.89	262.06
425.26	263.65
425.64	265.10
426.01	266.71
426.38	268.39
426.75	270.09
427.13	271.82
427.50	273.60
427.87	275.49
428.24	277.36
428.61	279.11
428.99	281.03
429.36	283.12
429.73	285.14
430.10	287.12
430.47	289.17
430.85	291.27
431.22	293.45
431.59	295.81
431.96	298.03
432.33	300.51
432.70	302.89
433.08	305.66
433.45	308.27
433.82	310.83
434.19	313.74
434.56	316.54
434.93	319.21
435.30	321.82
435.68	324.70
436.05	327.47
436.42	330.29
436.79	332.82
437.16	335.51
437.53	338.30
437.90	341.14
438.27	343.88
438.64	346.70
439.01	349.29
439.38	351.49
439.75	353.68
440.13	356.16
440.50	358.45
440.87	360.29
441.24	362.22
441.61	364.35
441.98	365.77
442.35	367.56
442.72	369.45
443.09	371.24
443.46	372.19
443.83	372.79
444.20	373.24
444.57	374.09
444.94	374.34
445.31	374.71
445.68	375.05
446.05	375.09
446.42	374.67
446.79	374.26
447.16	373.80
447.53	373.47
447.90	372.28
448.27	371.06
448.64	369.49
449.01	368.36
449.37	366.38
449.74	364.49
450.11	362.20
450.48	359.71
450.85	357.18
451.22	355.06
451.59	353.05
451.96	351.08
452.33	348.47
452.70	346.12
453.07	343.29
453.43	340.40
453.80	337.65
454.17	335.00
454.54	332.49
454.91	329.83
455.28	327.16
455.65	324.71
456.02	322.30
456.38	320.17
456.75	317.55
457.12	315.33
457.49	313.14
457.86	311.03
458.23	309.16
458.59	307.11
458.96	305.04
459.33	303.16
459.70	301.34
460.07	299.83
460.43	298.12
460.80	296.49
461.17	295.05
461.54	293.55
461.91	292.14
462.27	290.66
462.64	289.39
463.01	288.04
463.38	286.77
463.74	285.39
464.11	284.19
464.48	283.14
464.85	282.07
465.21	281.20
465.58	280.29
465.95	279.19
466.32	278.33
466.68	277.43
467.05	276.57
467.42	275.69
467.78	274.79
468.15	273.96
468.52	273.34
468.88	272.49
469.25	271.70
469.62	271.08
469.98	270.44
470.35	269.83
470.72	269.24
471.08	268.62
471.45	268.11
471.82	267.63
472.18	267.07
472.55	266.63
472.92	266.09
473.28	265.63
473.65	265.23
474.02	264.79
474.38	264.46
474.75	264.15
475.11	263.82
475.48	263.56
475.85	263.31
476.21	263.08
476.58	262.88
476.94	262.79
477.31	262.68
477.67	262.51
478.04	262.43
478.41	262.38
478.77	262.40
479.14	262.36
479.50	262.34
479.87	262.41
480.23	262.49
480.60	262.58
480.96	262.68
481.33	262.88
481.69	263.07
482.06	263.27
482.42	263.50
482.79	263.80
483.15	264.11
483.52	264.49
483.88	264.81
484.25	265.26
484.61	265.69
484.98	266.15
485.34	266.74
485.71	267.30
486.07	267.97
486.44	268.54
486.80	269.23
487.17	269.97
487.53	270.76
487.90	271.58
488.26	272.54
488.62	273.54
488.99	274.52
489.35	275.55
489.72	276.67
490.08	277.88
490.44	279.07
490.81	280.42
491.17	281.79
491.54	283.28
491.90	284.80
492.26	286.42
492.63	288.17
492.99	289.93
493.36	291.85
493.72	293.83
494.08	295.95
494.45	298.21
494.81	300.59
495.17	303.09
495.54	305.70
495.90	308.37
496.26	311.18
496.63	314.19
496.99	317.29
497.35	320.59
497.72	323.99
498.08	327.49
498.44	331.15
498.80	335.09
499.17	339.17
499.53	343.38
499.89	347.77
500.26	352.27
500.62	356.95
500.98	361.94
501.34	367.04
501.71	372.37
502.07	377.82
502.43	383.46
502.79	389.25
503.16	395.38
503.52	401.69
503.88	408.10
504.24	414.67
504.60	421.57
504.97	428.66
505.33	435.97
505.69	443.72
506.05	451.55
506.41	459.39
506.78	467.54
507.14	475.97
507.50	484.74
507.86	493.72
508.22	502.99
508.59	512.14
508.95	521.73
509.31	531.56
509.67	541.67
510.03	551.92
510.39	562.53
510.75	573.27
511.12	584.19
511.48	595.45
511.84	606.96
512.20	618.48
512.56	630.44
512.92	642.66
513.28	654.98
513.64	667.47
514.00	680.20
514.37	693.14
514.73	706.14
515.09	719.15
515.45	732.51
515.81	746.09
516.17	760.08
516.53	774.23
516.89	788.34
517.25	802.45
517.61	816.89
517.97	831.30
518.33	845.71
518.69	860.48
519.05	875.45
519.41	890.52
519.77	905.96
520.13	921.41
520.49	936.70
520.85	952.11
521.21	967.75
521.57	983.94
521.93	999.62
522.29	1016.04
522.65	1032.24
523.01	1048.34
523.37	1064.30
523.73	1080.49
524.09	1096.48
524.45	1112.78
524.81	1129.40
525.17	1146.06
525.53	1162.91
525.89	1179.65
526.25	1196.51
526.61	1212.89
526.97	1229.74
527.33	1246.33
527.68	1262.82
528.04	1279.31
528.40	1295.84
528.76	1312.80
529.12	1329.33
529.48	1346.23
529.84	1362.23
530.20	1378.85
530.56	1395.83
530.91	1413.12
531.27	1429.79
531.63	1446.23
531.99	1462.77
532.35	1478.74
532.71	1494.63
533.07	1510.87
533.42	1526.79
533.78	1542.70
534.14	1558.86
534.50	1574.08
534.86	1589.82
535.21	1604.97
535.57	1620.82
535.93	1636.25
536.29	1651.00
536.65	1666.00
537.00	1680.65
537.36	1695.74
537.72	1710.21
538.08	1724.43
538.44	1738.20
538.79	1751.89
539.15	1765.49
539.51	1779.09
539.87	1793.32
540.22	1806.98
540.58	1820.61
540.94	1833.96
541.29	1846.61
541.65	1859.37
542.01	1872.50
542.37	1884.72
542.72	1896.98
543.08	1908.61
543.44	1920.94
543.79	1932.09
544.15	1943.14
544.51	1954.72
544.87	1965.77
545.22	1976.32
545.58	1986.51
545.94	1996.15
546.29	2006.09
546.65	2015.95
547.01	2025.30
547.36	2033.87
547.72	2042.38
548.07	2050.21
548.43	2058.19
548.79	2066.15
549.14	2073.55
549.50	2080.77
549.86	2088.32
550.21	2095.72
550.57	2102.96
550.92	2109.59
551.28	2116.60
551.64	2123.53
551.99	2129.88
552.35	2136.00
552.70	2142.36
553.06	2148.38
553.41	2154.75
553.77	2160.69
554.13	2166.70
554.48	2172.71
554.84	2178.36
555.19	2183.61
555.55	2188.71
555.90	2193.24
556.26	2198.33
556.61	2203.01
556.97	2207.32
557.32	2211.55
557.68	2215.62
558.03	2219.92
558.39	2223.56
558.74	2228.20
559.10	2232.02
559.45	2235.84
559.81	2240.06
560.16	2243.85
560.52	2247.10
560.87	2250.65
561.23	2253.43
561.58	2256.29
561.94	2258.84
562.29	2261.18
562.64	2263.99
563.00	2266.56
563.35	2270.23
563.71	2273.19
564.06	2276.48
564.42	2279.43
564.77	2282.08
565.12	2284.47
565.48	2286.37
565.83	2288.28
566.19	2289.69
566.54	2290.60
566.89	2291.66
567.25	2292.32
567.60	2293.43
567.96	2295.27
568.31	2296.02
568.66	2297.15
569.02	2297.92
569.37	2298.27
569.72	2299.03
570.08	2299.10
570.43	2299.24
570.78	2298.57
571.14	2297.10
571.49	2295.74
571.84	2295.47
572.20	2294.30
572.55	2293.18
572.90	2291.61
573.26	2290.20
573.61	2288.55
573.96	2287.00
574.31	2284.15
574.67	2281.20
575.02	2277.95
575.37	2274.51
575.72	2270.89
576.08	2267.54
576.43	2264.23
576.78	2260.56
577.13	2257.38
577.49	2254.28
577.84	2250.84
578.19	2247.13
578.54	2243.70
578.90	2239.46
579.25	2234.02
579.60	2229.05
579.95	2224.14
580.30	2219.12
580.66	2213.96
581.01	2209.00
581.36	2204.15
581.71	2199.95
582.06	2195.53
582.42	2190.90
582.77	2185.73
583.12	2181.19
583.47	2176.54
583.82	2171.53
584.17	2166.45
584.53	2160.94
584.88	2155.41
585.23	2149.70
585.58	2144.30
585.93	2138.79
586.28	2134.21
586.63	2129.07
586.98	2124.18
587.34	2119.61
587.69	2114.70
588.04	2109.45
588.39	2103.90
588.74	2097.28
589.09	2091.24
589.44	2084.52
589.79	2078.49
590.14	2072.96
590.49	2066.22
590.84	2059.77
591.19	2053.78
591.54	2047.35
591.89	2040.19
592.25	2033.40
592.60	2026.14
592.95	2018.51
593.30	2011.25
593.65	2003.71
594.00	1996.66
594.35	1989.36
594.70	1981.15
595.05	1974.20
595.40	1967.03
595.75	1959.44
596.10	1953.41
596.45	1946.63
596.80	1940.50
597.15	1933.93
597.50	1926.88
597.85	1920.44
598.19	1913.81
598.54	1906.63
598.89	1899.93
599.24	1894.09
599.59	1887.36
599.94	1881.22
600.29	1875.01
600.64	1868.43
600.99	1860.96
601.34	1854.22
601.69	1847.19
602.04	1840.41
602.39	1833.02
602.74	1826.19
603.08	1819.58
603.43	1812.73
603.78	1805.44
604.13	1798.23
604.48	1791.00
604.83	1784.08
605.18	1777.30
605.53	1769.36
605.87	1761.43
606.22	1754.23
606.57	1746.22
606.92	1739.00
607.27	1731.86
607.62	1724.97
607.96	1717.78
608.31	1711.20
608.66	1703.69
609.01	1696.21
609.36	1688.58
609.70	1680.63
610.05	1672.64
610.40	1664.92
610.75	1656.49
611.10	1648.87
611.44	1640.41
611.79	1632.41
612.14	1623.69
612.49	1614.51
612.83	1606.21
613.18	1598.09
613.53	1589.99
613.88	1581.39
614.22	1573.07
614.57	1564.51
614.92	1556.44
615.27	1548.88
615.61	1540.48
615.96	1532.26
616.31	1524.69
616.65	1517.42
617.00	1509.69
617.35	1501.98
617.70	1493.69
618.04	1485.39
618.39	1477.17
618.74	1469.54
619.08	1461.26
619.43	1453.66
619.78	1446.75
620.12	1439.60
620.47	1432.12
620.82	1423.94
621.16	1416.55
621.51	1409.00
621.85	1401.29
622.20	1392.80
622.55	1384.38
622.89	1376.56
623.24	1369.05
623.59	1361.50
623.93	1353.92
624.28	1346.77
624.62	1339.30
624.97	1332.08
625.32	1325.20
625.66	1318.18
626.01	1311.10
626.35	1303.65
626.70	1295.95
627.04	1288.18
627.39	1280.32
627.73	1272.88
628.08	1266.06
628.43	1258.83
628.77	1251.38
629.12	1243.87
629.46	1236.69
629.81	1229.19
630.15	1221.92
630.50	1214.43
630.84	1206.30
631.19	1198.40
631.53	1190.91
631.88	1183.23
632.22	1175.52
632.57	1168.20
632.91	1160.61
633.26	1153.17
633.60	1145.78
633.95	1138.64
634.29	1131.64
634.64	1124.97
634.98	1117.57
635.32	1110.30
635.67	1103.65
636.01	1096.94
636.36	1090.09
636.70	1083.45
637.05	1076.90
637.39	1070.38
637.73	1063.89
638.08	1057.93
638.42	1051.95
638.77	1045.52
639.11	1038.94
639.45	1032.64
639.80	1026.00
640.14	1019.70
640.49	1013.10
640.83	1006.76
641.17	1000.52
641.52	994.14
641.86	987.64
642.20	981.80
642.55	975.56
642.89	969.06
643.23	962.51
643.58	956.78
643.92	950.60
644.26	944.58
644.61	938.59
644.95	932.54
645.29	926.02
645.64	919.22
645.98	912.81
646.32	907.04
646.66	901.02
647.01	895.20
647.35	889.45
647.69	883.61
648.04	878.06
648.38	872.33
648.72	866.44
649.06	860.44
649.41	854.58
649.75	848.61
650.09	842.80
650.43	837.09
650.78	830.88
651.12	824.97
651.46	819.21
651.80	813.43
652.14	808.04
652.49	802.69
652.83	797.58
653.17	791.90
653.51	786.10
653.85	780.66
654.20	775.12
654.54	769.07
654.88	763.34
655.22	757.42
655.56	751.69
655.90	746.14
656.25	740.86
656.59	735.49
656.93	730.35
657.27	725.10
657.61	719.73
657.95	714.61
658.29	709.54
658.64	704.29
658.98	699.04
659.32	693.50
659.66	688.22
660.00	682.92
660.34	677.97
660.68	673.05
661.02	668.02
661.36	663.33
661.70	658.85
662.05	654.48
662.39	650.24
662.73	645.75
663.07	641.34
663.41	636.91
663.75	632.38
664.09	627.89
664.43	623.49
664.77	619.29
665.11	615.04
665.45	610.79
665.79	606.69
666.13	602.57
666.47	598.52
666.81	594.35
667.15	590.24
667.49	586.32
667.83	582.52
668.17	578.55
668.51	574.38
668.85	570.32
669.19	566.51
669.53	562.60
669.87	558.73
670.21	555.07
670.55	551.37
670.89	547.90
671.23	544.41
671.57	540.86
671.91	537.32
672.25	533.81
672.58	530.38
672.92	527.00
673.26	523.80
673.60	520.67
673.94	517.57
674.28	514.57
674.62	511.62
674.96	508.56
675.30	505.67
675.64	502.73
675.97	499.96
676.31	497.09
676.65	494.17
676.99	491.53
677.33	488.63
677.67	485.83
678.01	482.86
678.34	479.87
678.68	477.02
679.02	474.18
679.36	471.44
679.70	468.68
680.04	465.93
680.37	463.04
680.71	460.20
681.05	457.62
681.39	454.98
681.73	452.31
682.06	449.77
682.40	447.19
682.74	444.66
683.08	442.10
683.42	439.46
683.75	436.96
684.09	434.35
684.43	431.90
684.77	429.46
685.10	427.11
685.44	424.79
685.78	422.47
686.12	420.24
686.45	417.94
686.79	415.67
687.13	413.51
687.46	411.32
687.80	409.20
688.14	406.99
688.48	404.91
688.81	402.71
689.15	400.50
689.49	398.30
689.82	396.20
690.16	394.07
690.50	392.10
690.83	390.17
691.17	388.14
691.51	386.20
691.84	384.34
692.18	382.37
692.52	380.42
692.85	378.45
693.19	376.56
693.52	374.70
693.86	372.87
694.20	371.06
694.53	369.27
694.87	367.41
695.21	365.60
695.54	363.69
695.88	361.96
696.21	360.25
696.55	358.64
696.88	356.95
697.22	355.33
697.56	353.72
697.89	352.02
698.23	350.45
698.56	348.86
698.90	347.26
699.23	345.60
699.57	344.03
699.90	342.54
700.24	341.01
700.58	339.51
700.91	337.99
701.25	336.50
701.58	335.13
701.92	333.74
702.25	332.36
702.59	331.04
702.92	329.72
703.26	328.44
703.59	327.15
703.93	325.97
704.26	324.72
704.60	323.42
704.93	322.16
705.26	320.91
705.60	319.75
705.93	318.60
706.27	317.59
706.60	316.55
706.94	315.48
707.27	314.35
707.61	313.23
707.94	312.22
708.27	311.16
708.61	310.07
708.94	309.07
709.28	308.09
709.61	307.13
709.94	306.16
710.28	305.09
710.61	304.10
710.95	303.02
711.28	302.10
711.61	301.16
711.95	300.27
712.28	299.33
712.61	298.33
712.95	297.39
713.28	296.47
713.61	295.58
713.95	294.68
714.28	293.82
714.61	293.03
714.95	292.18
715.28	291.32
715.61	290.42
715.95	289.62
716.28	288.72
716.61	287.91
716.95	287.09
717.28	286.39
717.61	285.61
717.94	284.90
718.28	284.14
718.61	283.43
718.94	282.72
719.27	282.05
719.61	281.40
719.94	280.73
720.27	280.05
720.60	279.40
720.94	278.79
721.27	278.22
721.60	277.61
721.93	277.03
722.27	276.51
722.60	276.00
722.93	275.42
723.26	274.92
723.59	274.36
723.93	273.81
724.26	273.22
724.59	272.68
724.92	272.14
725.25	271.65
725.59	271.15
725.92	270.62
726.25	270.16
726.58	269.67
726.91	269.18
727.24	268.67
727.57	268.19
727.91	267.67
728.24	267.18
728.57	266.70
728.90	266.24
729.23	265.73
729.56	265.29
729.89	264.80
730.22	264.33
730.55	263.88
730.89	263.45
731.22	263.01
731.55	262.60
731.88	262.17
732.21	261.70
732.54	261.23
732.87	260.85
733.20	260.40
733.53	259.99
733.86	259.64
734.19	259.26
734.52	258.87
734.85	258.53
735.18	258.10
735.51	257.70
735.84	257.31
736.17	256.95
736.50	256.52
736.83	256.29
737.16	255.91
737.49	255.55
737.82	255.17
738.15	254.85
738.48	254.48
738.81	254.17
739.14	253.82
739.47	253.54
739.80	253.20
740.13	252.90
740.46	252.58
740.79	252.21
741.12	251.90
741.45	251.59
741.78	251.22
742.11	250.98
742.44	250.68
742.77	250.39
743.10	250.08
743.43	249.80
743.75	249.44
744.08	249.31
744.41	249.02
744.74	248.76
745.07	248.48
745.40	248.22
745.73	248.01
746.06	247.71
746.39	247.44
746.71	247.19
747.04	246.92
747.37	246.66
747.70	246.45
748.03	246.15
748.36	245.91
748.68	245.71
749.01	245.41
749.34	245.16
749.67	244.96
750.00	244.71
750.33	244.56
750.65	244.31
750.98	243.98
751.31	243.78
751.64	243.58
751.97	243.42
752.29	243.23
752.62	242.93
752.95	242.77
753.28	242.56
753.60	242.32
753.93	242.12
754.26	241.87
754.59	241.63
754.91	241.48
755.24	241.27
755.57	241.09
755.90	240.94
756.22	240.75
756.55	240.53
756.88	240.37
757.20	240.10
757.53	239.95
757.86	239.77
758.19	239.61
758.51	239.45
758.84	239.27
759.17	239.06
759.49	238.93
759.82	238.80
760.15	238.63
760.47	238.48
760.80	238.34
761.13	238.27
761.45	238.16
761.78	238.02
762.11	237.91
762.43	237.76
762.76	237.62
763.08	237.54
763.41	237.42
763.74	237.29
764.06	237.19
764.39	237.04
764.71	236.90
765.04	236.77
765.37	236.66
765.69	236.52
766.02	236.42
766.34	236.28
766.67	236.16
767.00	236.07
767.32	236.04
767.65	236.00
767.97	235.88
768.30	235.79
768.62	235.66
768.95	235.51
769.27	235.41
769.60	235.30
769.92	235.17
770.25	235.04
770.57	234.93
770.90	234.84
771.22	234.71
771.55	234.61
771.87	234.50
772.20	234.34
772.52	234.32
772.85	234.36
773.17	234.28
773.50	234.19
773.82	234.09
774.15	233.92
774.47	233.73
774.80	233.59
775.12	233.51
775.45	233.41
775.77	233.31
776.09	233.24
776.42	233.17
776.74	233.12
777.07	233.05
777.39	232.97
777.72	232.89
778.04	232.84
778.36	232.79
778.69	232.72
779.01	232.68
779.33	232.51
779.66	232.33
779.98	232.22
780.31	232.12
780.63	232.11
780.95	232.06
781.28	232.01
781.60	231.95
781.92	231.88
782.25	231.86
782.57	231.82
782.89	231.75
783.22	231.68
783.54	231.59
783.86	231.54
784.19	231.44
784.51	231.40
784.83	231.35
785.16	231.25
785.48	231.16
785.80	231.10
786.12	231.04
786.45	230.98
786.77	230.96
787.09	230.91
