SpectraSuite Data File
++++++++++++++++++++++++++++++++++++
Date: Fri Feb 01 15:19:32 EST 2013
User: group
Dark Spectrum Present: No
Reference Spectrum Present: No
Number of Sampled Component Spectra: 1
Spectrometers: USB2E7196
Integration Time (usec): 35000 (USB2E7196)
Spectra Averaged: 100 (USB2E7196)
Boxcar Smoothing: 10 (USB2E7196)
Correct for Electrical Dark: No (USB2E7196)
Strobe/Lamp Enabled: No (USB2E7196)
Correct for Detector Non-linearity: No (USB2E7196)
Correct for Stray Light: No (USB2E7196)
Number of Pixels in Processed Spectrum: 2048
>>>>>Begin Processed Spectral Data<<<<<
339.09	0.00
339.48	215.21
339.86	216.59
340.24	218.02
340.63	219.55
341.01	222.15
341.39	222.17
341.78	223.73
342.16	224.96
342.54	225.22
342.93	213.61
343.31	224.39
343.69	224.94
344.07	225.41
344.46	225.82
344.84	226.18
345.22	226.40
345.60	226.64
345.99	226.76
346.37	226.89
346.75	226.97
347.13	227.07
347.52	227.10
347.90	227.15
348.28	227.20
348.66	227.24
349.05	227.20
349.43	227.23
349.81	227.26
350.19	227.28
350.57	227.30
350.96	227.35
351.34	227.46
351.72	227.51
352.10	227.59
352.48	227.67
352.87	227.73
353.25	227.80
353.63	227.84
354.01	227.95
354.39	228.04
354.77	228.13
355.15	228.19
355.54	228.28
355.92	228.33
356.30	228.39
356.68	228.51
357.06	228.59
357.44	228.67
357.82	228.77
358.20	228.84
358.58	228.89
358.97	228.97
359.35	229.01
359.73	229.10
360.11	229.13
360.49	229.20
360.87	229.25
361.25	229.31
361.63	229.40
362.01	229.44
362.39	229.44
362.77	229.48
363.15	229.50
363.53	229.50
363.91	229.53
364.29	229.54
364.67	229.47
365.05	229.49
365.43	229.48
365.81	229.44
366.19	229.51
366.57	229.56
366.95	229.53
367.33	229.51
367.71	229.50
368.09	229.49
368.47	229.45
368.85	229.41
369.23	229.42
369.61	229.36
369.99	229.34
370.37	229.33
370.75	229.32
371.13	229.24
371.51	229.19
371.89	229.13
372.27	229.10
372.65	229.02
373.03	228.97
373.41	228.91
373.78	228.86
374.16	228.72
374.54	228.61
374.92	228.56
375.30	228.50
375.68	228.39
376.06	228.34
376.44	228.27
376.82	228.18
377.19	228.07
377.57	228.02
377.95	227.92
378.33	227.82
378.71	227.70
379.09	227.66
379.47	227.59
379.84	227.55
380.22	227.46
380.60	227.40
380.98	227.34
381.36	227.28
381.73	227.20
382.11	227.15
382.49	227.11
382.87	227.02
383.25	226.97
383.62	227.02
384.00	226.93
384.38	226.87
384.76	226.86
385.13	226.86
385.51	226.82
385.89	226.80
386.27	226.77
386.64	226.75
387.02	226.68
387.40	226.64
387.78	226.56
388.15	226.53
388.53	226.48
388.91	226.42
389.29	226.36
389.66	226.34
390.04	226.33
390.42	226.30
390.79	226.29
391.17	226.24
391.55	226.15
391.92	226.15
392.30	226.17
392.68	226.17
393.05	226.16
393.43	226.15
393.81	226.13
394.18	226.09
394.56	226.13
394.94	226.18
395.31	226.20
395.69	226.25
396.06	226.27
396.44	226.33
396.82	226.36
397.19	226.45
397.57	226.49
397.95	226.54
398.32	226.59
398.70	226.67
399.07	226.75
399.45	226.79
399.82	226.84
400.20	226.89
400.58	226.94
400.95	226.96
401.33	227.06
401.70	227.22
402.08	227.35
402.45	227.42
402.83	227.52
403.20	227.64
403.58	227.75
403.95	227.91
404.33	228.05
404.71	228.17
405.08	228.36
405.46	228.51
405.83	228.64
406.21	228.79
406.58	228.94
406.96	229.13
407.33	229.33
407.70	229.54
408.08	229.81
408.45	230.08
408.83	230.32
409.20	230.57
409.58	230.77
409.95	231.03
410.33	231.32
410.70	231.57
411.08	231.86
411.45	232.20
411.82	232.51
412.20	232.85
412.57	233.29
412.95	233.61
413.32	234.04
413.69	234.45
414.07	234.87
414.44	235.37
414.82	235.84
415.19	236.38
415.56	236.95
415.94	237.49
416.31	238.08
416.68	238.74
417.06	239.44
417.43	240.12
417.81	240.92
418.18	241.70
418.55	242.58
418.93	243.46
419.30	244.38
419.67	245.33
420.04	246.28
420.42	247.27
420.79	248.44
421.16	249.56
421.54	250.79
421.91	252.05
422.28	253.31
422.66	254.67
423.03	255.98
423.40	257.34
423.77	258.79
424.15	260.25
424.52	261.75
424.89	263.37
425.26	264.96
425.64	266.37
426.01	267.98
426.38	269.66
426.75	271.32
427.13	273.02
427.50	274.79
427.87	276.71
428.24	278.61
428.61	280.36
428.99	282.34
429.36	284.44
429.73	286.54
430.10	288.57
430.47	290.64
430.85	292.81
431.22	295.02
431.59	297.40
431.96	299.66
432.33	302.15
432.70	304.51
433.08	307.31
433.45	310.02
433.82	312.63
434.19	315.52
434.56	318.38
434.93	321.09
435.30	323.75
435.68	326.63
436.05	329.45
436.42	332.26
436.79	334.76
437.16	337.47
437.53	340.30
437.90	343.08
438.27	345.78
438.64	348.61
439.01	351.22
439.38	353.48
439.75	355.69
440.13	358.18
440.50	360.54
440.87	362.34
441.24	364.25
441.61	366.39
441.98	367.91
442.35	369.67
442.72	371.50
443.09	373.34
443.46	374.34
443.83	374.88
444.20	375.37
444.57	376.24
444.94	376.48
445.31	376.82
445.68	377.20
446.05	377.27
446.42	376.83
446.79	376.44
447.16	375.90
447.53	375.52
447.90	374.36
448.27	373.17
448.64	371.61
449.01	370.44
449.37	368.44
449.74	366.50
450.11	364.28
450.48	361.75
450.85	359.16
451.22	357.02
451.59	355.05
451.96	353.12
452.33	350.51
452.70	348.14
453.07	345.23
453.43	342.33
453.80	339.62
454.17	336.93
454.54	334.33
454.91	331.65
455.28	328.96
455.65	326.41
456.02	323.97
456.38	321.80
456.75	319.16
457.12	316.96
457.49	314.71
457.86	312.51
458.23	310.65
458.59	308.60
458.96	306.50
459.33	304.58
459.70	302.66
460.07	301.16
460.43	299.47
460.80	297.93
461.17	296.44
461.54	294.92
461.91	293.52
462.27	292.06
462.64	290.81
463.01	289.50
463.38	288.19
463.74	286.85
464.11	285.71
464.48	284.67
464.85	283.55
465.21	282.69
465.58	281.77
465.95	280.70
466.32	279.84
466.68	278.94
467.05	278.04
467.42	277.20
467.78	276.26
468.15	275.34
468.52	274.65
468.88	273.82
469.25	273.03
469.62	272.41
469.98	271.75
470.35	271.13
470.72	270.51
471.08	269.90
471.45	269.35
471.82	268.82
472.18	268.26
472.55	267.78
472.92	267.29
473.28	266.82
473.65	266.39
474.02	265.90
474.38	265.52
474.75	265.24
475.11	264.91
475.48	264.63
475.85	264.42
476.21	264.19
476.58	264.01
476.94	263.86
477.31	263.66
477.67	263.52
478.04	263.38
478.41	263.28
478.77	263.29
479.14	263.24
479.50	263.18
479.87	263.16
480.23	263.24
480.60	263.29
480.96	263.36
481.33	263.55
481.69	263.77
482.06	263.97
482.42	264.15
482.79	264.37
483.15	264.65
483.52	265.02
483.88	265.33
484.25	265.67
484.61	266.09
484.98	266.54
485.34	267.07
485.71	267.62
486.07	268.25
486.44	268.84
486.80	269.55
487.17	270.28
487.53	271.13
487.90	271.96
488.26	272.86
488.62	273.85
488.99	274.83
489.35	275.80
489.72	276.90
490.08	278.10
490.44	279.32
490.81	280.64
491.17	281.96
491.54	283.41
491.90	284.93
492.26	286.56
492.63	288.27
492.99	290.05
493.36	291.97
493.72	293.99
494.08	296.04
494.45	298.28
494.81	300.66
495.17	303.08
495.54	305.65
495.90	308.33
496.26	311.10
496.63	314.03
496.99	317.16
497.35	320.40
497.72	323.79
498.08	327.30
498.44	330.96
498.80	334.94
499.17	339.01
499.53	343.19
499.89	347.56
500.26	352.07
500.62	356.75
500.98	361.71
501.34	366.77
501.71	372.15
502.07	377.56
502.43	383.23
502.79	389.02
503.16	395.09
503.52	401.33
503.88	407.74
504.24	414.39
504.60	421.26
504.97	428.39
505.33	435.74
505.69	443.46
506.05	451.28
506.41	459.19
506.78	467.29
507.14	475.81
507.50	484.53
507.86	493.56
508.22	502.74
508.59	511.89
508.95	521.51
509.31	531.26
509.67	541.29
510.03	551.51
510.39	562.04
510.75	572.85
511.12	583.84
511.48	595.20
511.84	606.69
512.20	618.25
512.56	630.19
512.92	642.38
513.28	654.70
513.64	667.16
514.00	679.84
514.37	692.82
514.73	705.86
515.09	718.96
515.45	732.28
515.81	745.87
516.17	759.91
516.53	773.97
516.89	788.23
517.25	802.45
517.61	816.94
517.97	831.55
518.33	846.02
518.69	860.75
519.05	875.81
519.41	890.99
519.77	906.52
520.13	922.05
520.49	937.46
520.85	952.98
521.21	968.88
521.57	985.17
521.93	1001.07
522.29	1017.45
522.65	1033.69
523.01	1049.88
523.37	1066.00
523.73	1082.19
524.09	1098.40
524.45	1114.78
524.81	1131.58
525.17	1148.52
525.53	1165.41
525.89	1182.36
526.25	1199.34
526.61	1215.70
526.97	1232.50
527.33	1249.05
527.68	1265.72
528.04	1282.27
528.40	1299.08
528.76	1316.09
529.12	1332.68
529.48	1349.58
529.84	1365.76
530.20	1382.53
530.56	1399.70
530.91	1417.26
531.27	1434.09
531.63	1450.52
531.99	1467.16
532.35	1483.21
532.71	1499.09
533.07	1515.43
533.42	1531.34
533.78	1547.40
534.14	1563.72
534.50	1579.13
534.86	1595.13
535.21	1610.38
535.57	1626.39
535.93	1641.82
536.29	1656.64
536.65	1671.96
537.00	1686.85
537.36	1702.12
537.72	1716.67
538.08	1731.10
538.44	1744.84
538.79	1758.91
539.15	1772.81
539.51	1786.61
539.87	1800.96
540.22	1814.78
540.58	1828.65
540.94	1842.27
541.29	1855.28
541.65	1868.20
542.01	1881.51
542.37	1893.79
542.72	1906.30
543.08	1918.07
543.44	1930.54
543.79	1941.93
544.15	1952.83
544.51	1964.51
544.87	1975.54
545.22	1986.34
545.58	1996.60
545.94	2006.37
546.29	2016.17
546.65	2025.99
547.01	2035.35
547.36	2044.24
547.72	2052.77
548.07	2060.58
548.43	2068.64
548.79	2076.63
549.14	2084.06
549.50	2091.48
549.86	2099.39
550.21	2106.69
550.57	2113.90
550.92	2120.37
551.28	2127.27
551.64	2134.49
551.99	2140.97
552.35	2147.19
552.70	2153.35
553.06	2159.21
553.41	2165.55
553.77	2171.68
554.13	2177.80
554.48	2183.82
554.84	2189.16
555.19	2194.59
555.55	2199.69
555.90	2204.08
556.26	2209.03
556.61	2213.77
556.97	2217.83
557.32	2221.85
557.68	2226.08
558.03	2230.34
558.39	2234.22
558.74	2238.86
559.10	2242.56
559.45	2246.09
559.81	2250.49
560.16	2254.44
560.52	2257.86
560.87	2261.40
561.23	2264.04
561.58	2266.90
561.94	2269.48
562.29	2271.96
562.64	2274.51
563.00	2277.19
563.35	2280.70
563.71	2283.86
564.06	2287.16
564.42	2290.08
564.77	2292.62
565.12	2294.65
565.48	2296.56
565.83	2298.29
566.19	2299.64
566.54	2300.52
566.89	2301.64
567.25	2301.92
567.60	2303.11
567.96	2304.60
568.31	2305.34
568.66	2306.37
569.02	2307.02
569.37	2307.30
569.72	2307.80
570.08	2307.72
570.43	2307.58
570.78	2306.89
571.14	2305.30
571.49	2303.83
571.84	2303.42
572.20	2302.08
572.55	2301.12
572.90	2299.53
573.26	2298.10
573.61	2296.41
573.96	2294.56
574.31	2291.57
574.67	2288.50
575.02	2284.87
575.37	2281.44
575.72	2277.46
576.08	2274.05
576.43	2270.57
576.78	2266.69
577.13	2263.59
577.49	2260.68
577.84	2257.17
578.19	2253.36
578.54	2249.48
578.90	2245.00
579.25	2239.41
579.60	2234.28
579.95	2229.19
580.30	2224.12
580.66	2218.78
581.01	2213.60
581.36	2208.57
581.71	2204.25
582.06	2199.83
582.42	2195.16
582.77	2189.89
583.12	2185.32
583.47	2180.39
583.82	2175.20
584.17	2169.92
584.53	2164.37
584.88	2158.38
585.23	2152.49
585.58	2146.93
585.93	2141.47
586.28	2136.62
586.63	2131.50
586.98	2126.40
587.34	2121.50
587.69	2116.51
588.04	2111.24
588.39	2105.56
588.74	2099.04
589.09	2092.86
589.44	2085.92
589.79	2079.91
590.14	2074.23
590.49	2067.54
590.84	2061.17
591.19	2055.15
591.54	2048.55
591.89	2041.04
592.25	2034.29
592.60	2026.96
592.95	2019.37
593.30	2011.92
593.65	2004.39
594.00	1997.16
594.35	1989.98
594.70	1982.00
595.05	1974.54
595.40	1967.16
595.75	1959.56
596.10	1953.23
596.45	1946.24
596.80	1940.10
597.15	1933.35
597.50	1925.97
597.85	1919.59
598.19	1912.80
598.54	1905.58
598.89	1899.00
599.24	1893.08
599.59	1886.27
599.94	1880.17
600.29	1873.73
600.64	1867.12
600.99	1859.50
601.34	1852.57
601.69	1845.48
602.04	1838.35
602.39	1831.05
602.74	1824.23
603.08	1817.47
603.43	1810.77
603.78	1803.45
604.13	1796.15
604.48	1788.72
604.83	1782.12
605.18	1775.00
605.53	1767.03
605.87	1759.08
606.22	1751.79
606.57	1743.83
606.92	1736.48
607.27	1729.28
607.62	1722.42
607.96	1715.10
608.31	1708.46
608.66	1700.92
609.01	1693.46
609.36	1686.01
609.70	1678.01
610.05	1669.83
610.40	1662.10
610.75	1653.78
611.10	1646.21
611.44	1637.91
611.79	1629.98
612.14	1621.21
612.49	1612.16
612.83	1603.80
613.18	1595.71
613.53	1587.58
613.88	1579.08
614.22	1570.92
614.57	1562.32
614.92	1554.19
615.27	1546.52
615.61	1538.26
615.96	1530.35
616.31	1522.58
616.65	1515.25
617.00	1507.69
617.35	1500.05
617.70	1491.64
618.04	1483.08
618.39	1474.87
618.74	1467.24
619.08	1459.03
619.43	1451.43
619.78	1444.45
620.12	1437.24
620.47	1429.80
620.82	1421.75
621.16	1414.28
621.51	1406.60
621.85	1398.89
622.20	1390.48
622.55	1382.26
622.89	1374.36
623.24	1366.63
623.59	1359.17
623.93	1351.58
624.28	1344.30
624.62	1336.80
624.97	1329.65
625.32	1322.90
625.66	1315.87
626.01	1308.57
626.35	1301.00
626.70	1293.24
627.04	1285.41
627.39	1277.71
627.73	1270.07
628.08	1263.10
628.43	1255.77
628.77	1248.41
629.12	1240.81
629.46	1233.57
629.81	1226.22
630.15	1219.05
630.50	1211.65
630.84	1203.55
631.19	1195.61
631.53	1188.22
631.88	1180.71
632.22	1173.08
632.57	1165.76
632.91	1158.14
633.26	1150.77
633.60	1143.51
633.95	1136.45
634.29	1129.61
634.64	1122.82
634.98	1115.52
635.32	1108.37
635.67	1101.85
636.01	1095.21
636.36	1088.42
636.70	1081.94
637.05	1075.25
637.39	1068.80
637.73	1062.31
638.08	1056.48
638.42	1050.58
638.77	1044.06
639.11	1037.36
639.45	1031.05
639.80	1024.36
640.14	1017.98
640.49	1011.47
640.83	1005.15
641.17	998.88
641.52	992.52
641.86	986.18
642.20	980.35
642.55	974.00
642.89	967.49
643.23	960.98
643.58	955.16
643.92	948.89
644.26	942.83
644.61	936.84
644.95	930.77
645.29	924.12
645.64	917.33
645.98	911.06
646.32	905.24
646.66	899.22
647.01	893.50
647.35	887.92
647.69	882.13
648.04	876.60
648.38	870.87
648.72	864.75
649.06	858.68
649.41	852.86
649.75	846.96
650.09	840.94
650.43	835.10
650.78	829.05
651.12	823.14
651.46	817.50
651.80	811.69
652.14	806.40
652.49	801.06
652.83	795.94
653.17	790.22
653.51	784.52
653.85	779.18
654.20	773.51
654.54	767.45
654.88	761.77
655.22	755.87
655.56	750.18
655.90	744.82
656.25	739.57
656.59	734.21
656.93	729.15
657.27	724.00
657.61	718.54
657.95	713.40
658.29	708.34
658.64	703.06
658.98	697.76
659.32	692.30
659.66	687.13
660.00	681.84
660.34	676.88
660.68	672.02
661.02	667.02
661.36	662.30
661.70	657.85
662.05	653.46
662.39	649.20
662.73	644.75
663.07	640.37
663.41	635.99
663.75	631.48
664.09	626.92
664.43	622.57
664.77	618.50
665.11	614.32
665.45	610.25
665.79	606.22
666.13	602.15
666.47	598.02
666.81	593.81
667.15	589.68
667.49	585.80
667.83	582.00
668.17	578.02
668.51	574.00
668.85	570.00
669.19	566.14
669.53	562.29
669.87	558.43
670.21	554.73
670.55	551.01
670.89	547.59
671.23	544.19
671.57	540.73
671.91	537.21
672.25	533.73
672.58	530.21
672.92	526.79
673.26	523.63
673.60	520.53
673.94	517.49
674.28	514.59
674.62	511.69
674.96	508.60
675.30	505.68
675.64	502.80
675.97	500.01
676.31	497.12
676.65	494.16
676.99	491.40
677.33	488.48
677.67	485.69
678.01	482.66
678.34	479.65
678.68	476.77
679.02	473.94
679.36	471.19
679.70	468.44
680.04	465.67
680.37	462.78
680.71	460.00
681.05	457.40
681.39	454.66
681.73	451.98
682.06	449.43
682.40	446.89
682.74	444.35
683.08	441.81
683.42	439.18
683.75	436.71
684.09	434.22
684.43	431.85
684.77	429.40
685.10	427.03
685.44	424.71
685.78	422.42
686.12	420.21
686.45	417.91
686.79	415.59
687.13	413.43
687.46	411.28
687.80	409.15
688.14	406.91
688.48	404.86
688.81	402.58
689.15	400.44
689.49	398.25
689.82	396.17
690.16	394.05
690.50	392.17
690.83	390.20
691.17	388.21
691.51	386.27
691.84	384.42
692.18	382.52
692.52	380.54
692.85	378.63
693.19	376.75
693.52	374.92
693.86	373.12
694.20	371.37
694.53	369.57
694.87	367.72
695.21	365.92
695.54	364.11
695.88	362.46
696.21	360.79
696.55	359.17
696.88	357.47
697.22	355.87
697.56	354.21
697.89	352.56
698.23	350.95
698.56	349.36
698.90	347.80
699.23	346.18
699.57	344.66
699.90	343.14
700.24	341.61
700.58	340.08
700.91	338.60
701.25	337.07
701.58	335.70
701.92	334.36
702.25	333.02
702.59	331.64
702.92	330.27
703.26	328.97
703.59	327.70
703.93	326.53
704.26	325.28
704.60	324.03
704.93	322.76
705.26	321.53
705.60	320.38
705.93	319.23
706.27	318.17
706.60	317.15
706.94	316.05
707.27	314.89
707.61	313.86
707.94	312.83
708.27	311.78
708.61	310.67
708.94	309.67
709.28	308.70
709.61	307.76
709.94	306.86
710.28	305.83
710.61	304.86
710.95	303.78
711.28	302.90
711.61	301.96
711.95	301.08
712.28	300.15
712.61	299.13
712.95	298.21
713.28	297.34
713.61	296.43
713.95	295.54
714.28	294.77
714.61	293.90
714.95	293.06
715.28	292.24
715.61	291.38
715.95	290.52
716.28	289.67
716.61	288.85
716.95	288.04
717.28	287.30
717.61	286.52
717.94	285.80
718.28	284.99
718.61	284.28
718.94	283.56
719.27	282.91
719.61	282.27
719.94	281.54
720.27	280.82
720.60	280.15
720.94	279.50
721.27	278.88
721.60	278.29
721.93	277.68
722.27	277.15
722.60	276.60
722.93	276.01
723.26	275.47
723.59	274.88
723.93	274.32
724.26	273.76
724.59	273.21
724.92	272.68
725.25	272.18
725.59	271.63
725.92	271.14
726.25	270.61
726.58	270.11
726.91	269.63
727.24	269.16
727.57	268.67
727.91	268.19
728.24	267.72
728.57	267.22
728.90	266.78
729.23	266.23
729.56	265.80
729.89	265.34
730.22	264.84
730.55	264.40
730.89	263.93
731.22	263.49
731.55	263.02
731.88	262.60
732.21	262.15
732.54	261.72
732.87	261.27
733.20	260.88
733.53	260.50
733.86	260.15
734.19	259.76
734.52	259.40
734.85	259.07
735.18	258.66
735.51	258.28
735.84	257.92
736.17	257.59
736.50	257.24
736.83	256.98
737.16	256.64
737.49	256.29
737.82	255.98
738.15	255.66
738.48	255.36
738.81	255.04
739.14	254.73
739.47	254.41
739.80	254.14
740.13	253.81
740.46	253.49
740.79	253.17
741.12	252.86
741.45	252.54
741.78	252.21
742.11	251.92
742.44	251.64
742.77	251.39
743.10	251.08
743.43	250.75
743.75	250.41
744.08	250.26
744.41	250.02
744.74	249.75
745.07	249.48
745.40	249.26
745.73	249.01
746.06	248.76
746.39	248.51
746.71	248.20
747.04	247.95
747.37	247.72
747.70	247.49
748.03	247.24
748.36	247.02
748.68	246.73
749.01	246.51
749.34	246.25
749.67	246.01
750.00	245.79
750.33	245.65
750.65	245.46
750.98	245.16
751.31	244.92
751.64	244.73
751.97	244.54
752.29	244.32
752.62	244.11
752.95	243.88
753.28	243.70
753.60	243.53
753.93	243.33
754.26	243.12
754.59	242.88
754.91	242.66
755.24	242.49
755.57	242.36
755.90	242.18
756.22	242.01
756.55	241.81
756.88	241.62
757.20	241.38
757.53	241.17
757.86	241.00
758.19	240.86
758.51	240.65
758.84	240.47
759.17	240.29
759.49	240.11
759.82	240.04
760.15	239.85
760.47	239.70
760.80	239.52
761.13	239.42
761.45	239.29
761.78	239.16
762.11	238.99
762.43	238.84
762.76	238.68
763.08	238.56
763.41	238.42
763.74	238.29
764.06	238.16
764.39	237.99
764.71	237.84
765.04	237.66
765.37	237.53
765.69	237.40
766.02	237.23
766.34	237.09
766.67	236.88
767.00	236.79
767.32	236.72
767.65	236.67
767.97	236.55
768.30	236.41
768.62	236.28
768.95	236.16
769.27	236.02
769.60	235.92
769.92	235.80
770.25	235.66
770.57	235.52
770.90	235.42
771.22	235.35
771.55	235.22
771.87	235.14
772.20	235.05
772.52	235.00
772.85	235.03
773.17	234.93
773.50	234.80
773.82	234.68
774.15	234.56
774.47	234.39
774.80	234.26
775.12	234.17
775.45	234.07
775.77	233.98
776.09	233.91
776.42	233.84
776.74	233.75
777.07	233.66
777.39	233.62
777.72	233.52
778.04	233.42
778.36	233.36
778.69	233.28
779.01	233.23
779.33	233.07
779.66	232.90
779.98	232.83
780.31	232.82
780.63	232.82
780.95	232.75
781.28	232.70
781.60	232.65
781.92	232.60
782.25	232.57
782.57	232.50
782.89	232.42
783.22	232.35
783.54	232.31
783.86	232.28
784.19	232.19
784.51	232.17
784.83	232.13
785.16	232.09
785.48	232.04
785.80	232.00
786.12	231.96
786.45	231.94
786.77	231.91
787.09	231.84
