SpectraSuite Data File
++++++++++++++++++++++++++++++++++++
Date: Fri Feb 01 16:05:14 EST 2013
User: group
Dark Spectrum Present: No
Reference Spectrum Present: No
Number of Sampled Component Spectra: 1
Spectrometers: USB2E7196
Integration Time (usec): 35000 (USB2E7196)
Spectra Averaged: 100 (USB2E7196)
Boxcar Smoothing: 10 (USB2E7196)
Correct for Electrical Dark: No (USB2E7196)
Strobe/Lamp Enabled: No (USB2E7196)
Correct for Detector Non-linearity: No (USB2E7196)
Correct for Stray Light: No (USB2E7196)
Number of Pixels in Processed Spectrum: 2048
>>>>>Begin Processed Spectral Data<<<<<
339.09	0.00
339.48	214.99
339.86	216.52
340.24	218.06
340.63	218.70
341.01	221.82
341.39	221.81
341.78	222.80
342.16	224.81
342.54	225.44
342.93	213.21
343.31	223.99
343.69	224.50
344.07	224.96
344.46	225.35
344.84	225.76
345.22	225.98
345.60	226.23
345.99	226.39
346.37	226.47
346.75	226.54
347.13	226.59
347.52	226.64
347.90	226.72
348.28	226.76
348.66	226.78
349.05	226.78
349.43	226.79
349.81	226.84
350.19	226.89
350.57	226.94
350.96	227.02
351.34	227.09
351.72	227.19
352.10	227.27
352.48	227.36
352.87	227.38
353.25	227.47
353.63	227.53
354.01	227.61
354.39	227.71
354.77	227.77
355.15	227.90
355.54	227.96
355.92	227.99
356.30	228.03
356.68	228.19
357.06	228.27
357.44	228.31
357.82	228.38
358.20	228.45
358.58	228.52
358.97	228.60
359.35	228.68
359.73	228.75
360.11	228.79
360.49	228.88
360.87	228.92
361.25	228.95
361.63	229.04
362.01	229.10
362.39	229.12
362.77	229.17
363.15	229.20
363.53	229.20
363.91	229.20
364.29	229.22
364.67	229.14
365.05	229.18
365.43	229.17
365.81	229.16
366.19	229.21
366.57	229.26
366.95	229.24
367.33	229.18
367.71	229.18
368.09	229.18
368.47	229.13
368.85	229.12
369.23	229.12
369.61	229.05
369.99	229.05
370.37	229.06
370.75	229.06
371.13	228.98
371.51	228.92
371.89	228.89
372.27	228.88
372.65	228.82
373.03	228.76
373.41	228.71
373.78	228.69
374.16	228.59
374.54	228.45
374.92	228.35
375.30	228.35
375.68	228.25
376.06	228.21
376.44	228.11
376.82	228.09
377.19	228.02
377.57	227.93
377.95	227.82
378.33	227.73
378.71	227.59
379.09	227.54
379.47	227.48
379.84	227.42
380.22	227.33
380.60	227.28
380.98	227.18
381.36	227.14
381.73	227.04
382.11	226.98
382.49	226.95
382.87	226.91
383.25	226.83
383.62	226.88
384.00	226.80
384.38	226.77
384.76	226.72
385.13	226.66
385.51	226.63
385.89	226.56
386.27	226.52
386.64	226.51
387.02	226.45
387.40	226.46
387.78	226.43
388.15	226.37
388.53	226.30
388.91	226.26
389.29	226.21
389.66	226.20
390.04	226.17
390.42	226.14
390.79	226.11
391.17	226.07
391.55	225.94
391.92	225.97
392.30	225.97
392.68	225.93
393.05	225.99
393.43	225.97
393.81	226.01
394.18	226.00
394.56	226.00
394.94	226.05
395.31	226.05
395.69	226.09
396.06	226.13
396.44	226.20
396.82	226.22
397.19	226.32
397.57	226.37
397.95	226.45
398.32	226.50
398.70	226.58
399.07	226.68
399.45	226.73
399.82	226.79
400.20	226.86
400.58	226.94
400.95	226.96
401.33	227.08
401.70	227.23
402.08	227.32
402.45	227.39
402.83	227.50
403.20	227.61
403.58	227.70
403.95	227.87
404.33	227.99
404.71	228.11
405.08	228.31
405.46	228.46
405.83	228.57
406.21	228.72
406.58	228.90
406.96	229.07
407.33	229.23
407.70	229.40
408.08	229.65
408.45	229.88
408.83	230.12
409.20	230.35
409.58	230.54
409.95	230.81
410.33	231.11
410.70	231.35
411.08	231.64
411.45	231.95
411.82	232.23
412.20	232.59
412.57	232.99
412.95	233.27
413.32	233.64
413.69	234.10
414.07	234.53
414.44	234.98
414.82	235.47
415.19	236.05
415.56	236.61
415.94	237.17
416.31	237.78
416.68	238.40
417.06	239.10
417.43	239.77
417.81	240.53
418.18	241.29
418.55	242.14
418.93	243.02
419.30	243.93
419.67	244.88
420.04	245.84
420.42	246.87
420.79	248.04
421.16	249.22
421.54	250.41
421.91	251.60
422.28	252.87
422.66	254.17
423.03	255.47
423.40	256.77
423.77	258.18
424.15	259.55
424.52	261.07
424.89	262.66
425.26	264.22
425.64	265.66
426.01	267.25
426.38	268.91
426.75	270.60
427.13	272.31
427.50	274.09
427.87	275.97
428.24	277.84
428.61	279.56
428.99	281.49
429.36	283.58
429.73	285.68
430.10	287.70
430.47	289.81
430.85	291.96
431.22	294.22
431.59	296.61
431.96	298.90
432.33	301.37
432.70	303.79
433.08	306.59
433.45	309.22
433.82	311.87
434.19	314.75
434.56	317.52
434.93	320.21
435.30	322.87
435.68	325.72
436.05	328.54
436.42	331.33
436.79	333.84
437.16	336.53
437.53	339.35
437.90	342.12
438.27	344.80
438.64	347.60
439.01	350.17
439.38	352.40
439.75	354.59
440.13	357.07
440.50	359.37
440.87	361.20
441.24	363.17
441.61	365.30
441.98	366.81
442.35	368.64
442.72	370.49
443.09	372.26
443.46	373.28
443.83	373.86
444.20	374.36
444.57	375.19
444.94	375.41
445.31	375.75
445.68	376.14
446.05	376.23
446.42	375.81
446.79	375.37
447.16	374.93
447.53	374.61
447.90	373.43
448.27	372.25
448.64	370.65
449.01	369.46
449.37	367.45
449.74	365.48
450.11	363.21
450.48	360.69
450.85	358.14
451.22	356.03
451.59	354.02
451.96	352.11
452.33	349.56
452.70	347.23
453.07	344.39
453.43	341.46
453.80	338.74
454.17	336.11
454.54	333.57
454.91	330.80
455.28	328.11
455.65	325.64
456.02	323.24
456.38	321.12
456.75	318.50
457.12	316.31
457.49	314.12
457.86	311.99
458.23	310.15
458.59	308.16
458.96	306.05
459.33	304.23
459.70	302.31
460.07	300.78
460.43	299.10
460.80	297.49
461.17	296.08
461.54	294.56
461.91	293.09
462.27	291.63
462.64	290.45
463.01	289.09
463.38	287.76
463.74	286.35
464.11	285.22
464.48	284.18
464.85	283.08
465.21	282.24
465.58	281.30
465.95	280.24
466.32	279.30
466.68	278.41
467.05	277.47
467.42	276.63
467.78	275.69
468.15	274.84
468.52	274.18
468.88	273.33
469.25	272.55
469.62	271.94
469.98	271.31
470.35	270.64
470.72	270.05
471.08	269.42
471.45	268.88
471.82	268.35
472.18	267.79
472.55	267.35
472.92	266.83
473.28	266.36
473.65	265.92
474.02	265.48
474.38	265.06
474.75	264.71
475.11	264.34
475.48	264.09
475.85	263.84
476.21	263.61
476.58	263.43
476.94	263.29
477.31	263.16
477.67	263.02
478.04	262.91
478.41	262.88
478.77	262.92
479.14	262.88
479.50	262.86
479.87	262.91
480.23	262.99
480.60	263.05
480.96	263.15
481.33	263.30
481.69	263.50
482.06	263.74
482.42	263.97
482.79	264.24
483.15	264.56
483.52	264.91
483.88	265.26
484.25	265.64
484.61	266.07
484.98	266.48
485.34	267.06
485.71	267.64
486.07	268.22
486.44	268.79
486.80	269.52
487.17	270.26
487.53	271.06
487.90	271.91
488.26	272.86
488.62	273.83
488.99	274.85
489.35	275.87
489.72	277.01
490.08	278.22
490.44	279.48
490.81	280.84
491.17	282.21
491.54	283.71
491.90	285.23
492.26	286.86
492.63	288.60
492.99	290.34
493.36	292.22
493.72	294.26
494.08	296.39
494.45	298.66
494.81	301.03
495.17	303.49
495.54	306.07
495.90	308.78
496.26	311.61
496.63	314.61
496.99	317.79
497.35	321.01
497.72	324.40
498.08	327.93
498.44	331.60
498.80	335.54
499.17	339.58
499.53	343.76
499.89	348.17
500.26	352.73
500.62	357.45
500.98	362.46
501.34	367.60
501.71	372.97
502.07	378.38
502.43	384.00
502.79	389.80
503.16	395.86
503.52	402.13
503.88	408.58
504.24	415.20
504.60	422.06
504.97	429.22
505.33	436.58
505.69	444.30
506.05	452.15
506.41	460.05
506.78	468.21
507.14	476.68
507.50	485.41
507.86	494.42
508.22	503.58
508.59	512.80
508.95	522.34
509.31	532.11
509.67	542.19
510.03	552.50
510.39	563.09
510.75	573.89
511.12	584.83
511.48	596.11
511.84	607.54
512.20	619.11
512.56	631.08
512.92	643.29
513.28	655.65
513.64	668.11
514.00	680.83
514.37	693.83
514.73	706.88
515.09	719.89
515.45	733.21
515.81	746.79
516.17	760.77
516.53	774.97
516.89	789.18
517.25	803.33
517.61	817.76
517.97	832.16
518.33	846.59
518.69	861.30
519.05	876.28
519.41	891.39
519.77	906.83
520.13	922.25
520.49	937.58
520.85	952.94
521.21	968.57
521.57	984.81
521.93	1000.52
522.29	1016.91
522.65	1033.14
523.01	1049.39
523.37	1065.43
523.73	1081.58
524.09	1097.60
524.45	1113.87
524.81	1130.50
525.17	1147.25
525.53	1164.22
525.89	1181.14
526.25	1197.96
526.61	1214.26
526.97	1231.07
527.33	1247.61
527.68	1264.10
528.04	1280.49
528.40	1296.95
528.76	1313.99
529.12	1330.48
529.48	1347.22
529.84	1363.16
530.20	1379.75
530.56	1396.59
530.91	1414.03
531.27	1430.68
531.63	1447.10
531.99	1463.60
532.35	1479.56
532.71	1495.47
533.07	1511.49
533.42	1527.28
533.78	1543.43
534.14	1559.78
534.50	1575.06
534.86	1590.86
535.21	1605.92
535.57	1621.85
535.93	1637.41
536.29	1652.27
536.65	1667.35
537.00	1682.08
537.36	1697.32
537.72	1711.87
538.08	1726.27
538.44	1740.02
538.79	1753.87
539.15	1767.41
539.51	1781.14
539.87	1795.48
540.22	1809.17
540.58	1822.95
540.94	1836.27
541.29	1848.95
541.65	1861.59
542.01	1874.69
542.37	1886.92
542.72	1899.52
543.08	1911.25
543.44	1923.50
543.79	1934.64
544.15	1945.48
544.51	1957.12
544.87	1968.04
545.22	1978.83
545.58	1989.00
545.94	1998.58
546.29	2008.39
546.65	2018.38
547.01	2027.55
547.36	2036.16
547.72	2044.55
548.07	2052.44
548.43	2060.39
548.79	2068.42
549.14	2075.87
549.50	2083.15
549.86	2090.88
550.21	2098.20
550.57	2105.34
550.92	2112.00
551.28	2119.16
551.64	2126.28
551.99	2132.73
552.35	2139.02
552.70	2145.09
553.06	2151.07
553.41	2157.49
553.77	2163.56
554.13	2169.50
554.48	2175.74
554.84	2181.33
555.19	2186.50
555.55	2191.70
555.90	2196.35
556.26	2201.30
556.61	2206.01
556.97	2210.49
557.32	2214.59
557.68	2218.67
558.03	2223.05
558.39	2226.63
558.74	2231.10
559.10	2234.99
559.45	2238.62
559.81	2242.75
560.16	2246.47
560.52	2249.76
560.87	2253.23
561.23	2255.92
561.58	2259.04
561.94	2261.33
562.29	2263.56
562.64	2266.38
563.00	2269.01
563.35	2272.41
563.71	2275.33
564.06	2278.55
564.42	2281.35
564.77	2283.90
565.12	2286.31
565.48	2288.31
565.83	2290.29
566.19	2291.56
566.54	2292.69
566.89	2294.12
567.25	2294.84
567.60	2296.31
567.96	2297.88
568.31	2298.64
568.66	2299.70
569.02	2300.05
569.37	2300.60
569.72	2301.64
570.08	2301.83
570.43	2301.79
570.78	2301.31
571.14	2299.95
571.49	2298.67
571.84	2298.39
572.20	2297.25
572.55	2296.03
572.90	2294.32
573.26	2292.91
573.61	2291.26
573.96	2289.42
574.31	2286.25
574.67	2283.28
575.02	2279.61
575.37	2276.36
575.72	2272.63
576.08	2269.34
576.43	2266.16
576.78	2262.51
577.13	2259.19
577.49	2256.02
577.84	2252.53
578.19	2248.77
578.54	2245.29
578.90	2241.07
579.25	2235.51
579.60	2230.63
579.95	2225.77
580.30	2220.83
580.66	2215.61
581.01	2210.56
581.36	2205.53
581.71	2201.47
582.06	2197.12
582.42	2192.81
582.77	2187.56
583.12	2183.12
583.47	2178.58
583.82	2173.68
584.17	2168.43
584.53	2163.01
584.88	2157.49
585.23	2151.80
585.58	2146.46
585.93	2140.77
586.28	2135.93
586.63	2130.87
586.98	2125.79
587.34	2121.11
587.69	2116.18
588.04	2111.03
588.39	2105.60
588.74	2099.19
589.09	2093.01
589.44	2086.21
589.79	2080.00
590.14	2074.37
590.49	2067.67
590.84	2061.00
591.19	2054.83
591.54	2048.48
591.89	2041.24
592.25	2034.38
592.60	2027.17
592.95	2019.61
593.30	2012.46
593.65	2004.95
594.00	1998.00
594.35	1990.81
594.70	1982.53
595.05	1975.48
595.40	1968.22
595.75	1960.63
596.10	1954.43
596.45	1947.69
596.80	1941.52
597.15	1934.98
597.50	1927.99
597.85	1921.64
598.19	1915.18
598.54	1908.18
598.89	1901.34
599.24	1895.46
599.59	1888.95
599.94	1882.67
600.29	1876.23
600.64	1869.64
600.99	1862.20
601.34	1855.27
601.69	1848.18
602.04	1841.53
602.39	1834.03
602.74	1827.29
603.08	1820.53
603.43	1813.75
603.78	1806.43
604.13	1799.14
604.48	1791.89
604.83	1785.03
605.18	1778.04
605.53	1769.98
605.87	1761.86
606.22	1754.81
606.57	1746.69
606.92	1739.12
607.27	1732.06
607.62	1725.25
607.96	1717.99
608.31	1711.49
608.66	1703.88
609.01	1696.44
609.36	1688.81
609.70	1680.86
610.05	1672.84
610.40	1665.30
610.75	1656.91
611.10	1649.24
611.44	1640.89
611.79	1632.82
612.14	1624.16
612.49	1615.01
612.83	1606.69
613.18	1598.73
613.53	1590.57
613.88	1582.06
614.22	1573.84
614.57	1565.22
614.92	1557.17
615.27	1549.60
615.61	1541.06
615.96	1533.04
616.31	1525.34
616.65	1518.08
617.00	1510.47
617.35	1502.69
617.70	1494.32
618.04	1485.78
618.39	1477.65
618.74	1470.01
619.08	1461.76
619.43	1454.06
619.78	1447.16
620.12	1440.01
620.47	1432.33
620.82	1424.13
621.16	1416.61
621.51	1409.03
621.85	1401.40
622.20	1392.79
622.55	1384.42
622.89	1376.63
623.24	1368.89
623.59	1361.38
623.93	1353.69
624.28	1346.57
624.62	1339.06
624.97	1331.82
625.32	1325.10
625.66	1317.90
626.01	1310.70
626.35	1303.28
626.70	1295.60
627.04	1287.83
627.39	1280.01
627.73	1272.71
628.08	1265.77
628.43	1258.63
628.77	1251.31
629.12	1243.78
629.46	1236.69
629.81	1229.17
630.15	1221.98
630.50	1214.63
630.84	1206.48
631.19	1198.56
631.53	1190.93
631.88	1183.36
632.22	1175.71
632.57	1168.39
632.91	1160.94
633.26	1153.59
633.60	1146.15
633.95	1138.95
634.29	1131.89
634.64	1125.22
634.98	1117.78
635.32	1110.69
635.67	1104.04
636.01	1097.35
636.36	1090.46
636.70	1083.83
637.05	1077.40
637.39	1070.92
637.73	1064.45
638.08	1058.64
638.42	1052.66
638.77	1046.24
639.11	1039.63
639.45	1033.27
639.80	1026.61
640.14	1020.21
640.49	1013.58
640.83	1007.24
641.17	1001.06
641.52	994.70
641.86	988.14
642.20	982.41
642.55	976.01
642.89	969.47
643.23	962.96
643.58	957.24
643.92	951.16
644.26	945.11
644.61	939.05
644.95	933.13
645.29	926.49
645.64	919.77
645.98	913.45
646.32	907.61
646.66	901.60
647.01	895.89
647.35	890.17
647.69	884.32
648.04	878.81
648.38	872.99
648.72	867.03
649.06	861.05
649.41	855.02
649.75	849.07
650.09	843.12
650.43	837.30
650.78	831.15
651.12	825.14
651.46	819.32
651.80	813.60
652.14	808.06
652.49	802.74
652.83	797.54
653.17	791.81
653.51	786.10
653.85	780.72
654.20	775.02
654.54	768.97
654.88	763.26
655.22	757.35
655.56	751.74
655.90	746.28
656.25	740.99
656.59	735.72
656.93	730.73
657.27	725.56
657.61	720.14
657.95	714.98
658.29	709.86
658.64	704.62
658.98	699.31
659.32	693.87
659.66	688.68
660.00	683.36
660.34	678.44
660.68	673.50
661.02	668.40
661.36	663.72
661.70	659.30
662.05	654.95
662.39	650.65
662.73	646.10
663.07	641.74
663.41	637.29
663.75	632.77
664.09	628.15
664.43	623.78
664.77	619.65
665.11	615.46
665.45	611.33
665.79	607.24
666.13	603.08
666.47	598.92
666.81	594.71
667.15	590.62
667.49	586.68
667.83	582.90
668.17	578.97
668.51	574.87
668.85	570.80
669.19	566.91
669.53	563.08
669.87	559.24
670.21	555.52
670.55	551.89
670.89	548.45
671.23	545.02
671.57	541.49
671.91	537.90
672.25	534.36
672.58	530.84
672.92	527.47
673.26	524.33
673.60	521.22
673.94	518.09
674.28	515.20
674.62	512.29
674.96	509.12
675.30	506.21
675.64	503.27
675.97	500.53
676.31	497.66
676.65	494.72
676.99	492.02
677.33	489.13
677.67	486.31
678.01	483.26
678.34	480.29
678.68	477.44
679.02	474.66
679.36	471.90
679.70	469.20
680.04	466.40
680.37	463.53
680.71	460.70
681.05	458.08
681.39	455.27
681.73	452.62
682.06	450.11
682.40	447.61
682.74	444.98
683.08	442.36
683.42	439.76
683.75	437.29
684.09	434.72
684.43	432.24
684.77	429.72
685.10	427.37
685.44	425.04
685.78	422.75
686.12	420.45
686.45	418.19
686.79	415.92
687.13	413.73
687.46	411.54
687.80	409.39
688.14	407.18
688.48	405.17
688.81	402.92
689.15	400.74
689.49	398.54
689.82	396.52
690.16	394.42
690.50	392.47
690.83	390.51
691.17	388.52
691.51	386.65
691.84	384.85
692.18	382.91
692.52	380.92
692.85	378.97
693.19	377.12
693.52	375.24
693.86	373.41
694.20	371.61
694.53	369.82
694.87	367.96
695.21	366.16
695.54	364.32
695.88	362.59
696.21	360.85
696.55	359.16
696.88	357.48
697.22	355.84
697.56	354.22
697.89	352.54
698.23	350.93
698.56	349.32
698.90	347.73
699.23	346.09
699.57	344.54
699.90	343.01
700.24	341.48
700.58	339.98
700.91	338.48
701.25	337.05
701.58	335.68
701.92	334.35
702.25	332.98
702.59	331.66
702.92	330.31
703.26	329.01
703.59	327.77
703.93	326.59
704.26	325.37
704.60	324.07
704.93	322.76
705.26	321.51
705.60	320.30
705.93	319.12
706.27	318.09
706.60	317.06
706.94	315.99
707.27	314.84
707.61	313.77
707.94	312.74
708.27	311.64
708.61	310.58
708.94	309.55
709.28	308.56
709.61	307.59
709.94	306.69
710.28	305.70
710.61	304.68
710.95	303.62
711.28	302.69
711.61	301.73
711.95	300.88
712.28	299.97
712.61	299.04
712.95	298.12
713.28	297.22
713.61	296.33
713.95	295.40
714.28	294.57
714.61	293.69
714.95	292.84
715.28	291.97
715.61	291.08
715.95	290.25
716.28	289.41
716.61	288.54
716.95	287.66
717.28	286.91
717.61	286.16
717.94	285.39
718.28	284.58
718.61	283.84
718.94	283.14
719.27	282.45
719.61	281.77
719.94	281.12
720.27	280.39
720.60	279.70
720.94	279.11
721.27	278.54
721.60	277.98
721.93	277.39
722.27	276.87
722.60	276.30
722.93	275.71
723.26	275.15
723.59	274.60
723.93	274.07
724.26	273.52
724.59	272.97
724.92	272.46
725.25	271.98
725.59	271.48
725.92	270.97
726.25	270.44
726.58	269.94
726.91	269.44
727.24	269.00
727.57	268.52
727.91	267.99
728.24	267.48
728.57	266.95
728.90	266.47
729.23	265.94
729.56	265.51
729.89	265.03
730.22	264.53
730.55	264.05
730.89	263.59
731.22	263.15
731.55	262.71
731.88	262.29
732.21	261.83
732.54	261.39
732.87	260.94
733.20	260.55
733.53	260.14
733.86	259.77
734.19	259.35
734.52	258.98
734.85	258.66
735.18	258.25
735.51	257.91
735.84	257.54
736.17	257.18
736.50	256.77
736.83	256.55
737.16	256.26
737.49	255.95
737.82	255.65
738.15	255.30
738.48	254.94
738.81	254.59
739.14	254.29
739.47	253.98
739.80	253.65
740.13	253.37
740.46	253.05
740.79	252.74
741.12	252.41
741.45	252.10
741.78	251.76
742.11	251.50
742.44	251.21
742.77	250.93
743.10	250.64
743.43	250.35
743.75	249.96
744.08	249.79
744.41	249.51
744.74	249.25
745.07	248.97
745.40	248.76
745.73	248.54
746.06	248.26
746.39	248.01
746.71	247.75
747.04	247.47
747.37	247.24
747.70	247.00
748.03	246.77
748.36	246.57
748.68	246.32
749.01	246.08
749.34	245.83
749.67	245.61
750.00	245.39
750.33	245.27
750.65	245.08
750.98	244.77
751.31	244.57
751.64	244.35
751.97	244.19
752.29	243.99
752.62	243.75
752.95	243.53
753.28	243.35
753.60	243.14
753.93	242.95
754.26	242.74
754.59	242.52
754.91	242.32
755.24	242.11
755.57	241.94
755.90	241.73
756.22	241.55
756.55	241.35
756.88	241.15
757.20	240.92
757.53	240.72
757.86	240.53
758.19	240.34
758.51	240.18
758.84	239.99
759.17	239.78
759.49	239.63
759.82	239.52
760.15	239.34
760.47	239.19
760.80	239.04
761.13	238.89
761.45	238.74
761.78	238.59
762.11	238.44
762.43	238.27
762.76	238.12
763.08	237.99
763.41	237.87
763.74	237.71
764.06	237.56
764.39	237.43
764.71	237.29
765.04	237.18
765.37	237.01
765.69	236.86
766.02	236.74
766.34	236.59
766.67	236.45
767.00	236.36
767.32	236.29
767.65	236.25
767.97	236.16
768.30	236.06
768.62	235.95
768.95	235.81
769.27	235.70
769.60	235.61
769.92	235.46
770.25	235.32
770.57	235.22
770.90	235.10
771.22	235.00
771.55	234.88
771.87	234.76
772.20	234.68
772.52	234.65
772.85	234.66
773.17	234.58
773.50	234.45
773.82	234.32
774.15	234.18
774.47	234.01
774.80	233.91
775.12	233.80
775.45	233.73
775.77	233.66
776.09	233.57
776.42	233.46
776.74	233.40
777.07	233.32
777.39	233.29
777.72	233.21
778.04	233.13
778.36	233.07
778.69	233.00
779.01	232.93
779.33	232.76
779.66	232.60
779.98	232.52
780.31	232.48
780.63	232.44
780.95	232.42
781.28	232.35
781.60	232.26
781.92	232.19
782.25	232.10
782.57	232.08
782.89	232.02
783.22	231.97
783.54	231.92
783.86	231.85
784.19	231.75
784.51	231.74
784.83	231.66
785.16	231.62
785.48	231.56
785.80	231.54
786.12	231.54
786.45	231.50
786.77	231.45
787.09	231.40
