SpectraSuite Data File
++++++++++++++++++++++++++++++++++++
Date: Fri Feb 01 15:37:38 EST 2013
User: group
Dark Spectrum Present: No
Reference Spectrum Present: No
Number of Sampled Component Spectra: 1
Spectrometers: USB2E7196
Integration Time (usec): 35000 (USB2E7196)
Spectra Averaged: 100 (USB2E7196)
Boxcar Smoothing: 10 (USB2E7196)
Correct for Electrical Dark: No (USB2E7196)
Strobe/Lamp Enabled: No (USB2E7196)
Correct for Detector Non-linearity: No (USB2E7196)
Correct for Stray Light: No (USB2E7196)
Number of Pixels in Processed Spectrum: 2048
>>>>>Begin Processed Spectral Data<<<<<
339.09	0.00
339.48	214.87
339.86	216.21
340.24	217.56
340.63	219.26
341.01	222.06
341.39	222.44
341.78	222.88
342.16	224.08
342.54	224.27
342.93	213.28
343.31	224.04
343.69	224.59
344.07	225.06
344.46	225.49
344.84	225.86
345.22	226.08
345.60	226.31
345.99	226.51
346.37	226.67
346.75	226.80
347.13	226.87
347.52	226.93
347.90	227.00
348.28	227.05
348.66	227.10
349.05	227.12
349.43	227.16
349.81	227.18
350.19	227.21
350.57	227.25
350.96	227.33
351.34	227.44
351.72	227.53
352.10	227.63
352.48	227.73
352.87	227.80
353.25	227.86
353.63	227.94
354.01	227.99
354.39	228.07
354.77	228.14
355.15	228.20
355.54	228.28
355.92	228.31
356.30	228.35
356.68	228.47
357.06	228.54
357.44	228.61
357.82	228.66
358.20	228.75
358.58	228.80
358.97	228.84
359.35	228.90
359.73	228.96
360.11	229.00
360.49	229.05
360.87	229.08
361.25	229.11
361.63	229.15
362.01	229.21
362.39	229.21
362.77	229.28
363.15	229.31
363.53	229.31
363.91	229.33
364.29	229.34
364.67	229.26
365.05	229.26
365.43	229.26
365.81	229.26
366.19	229.25
366.57	229.29
366.95	229.27
367.33	229.22
367.71	229.21
368.09	229.20
368.47	229.17
368.85	229.15
369.23	229.19
369.61	229.15
369.99	229.09
370.37	229.07
370.75	229.04
371.13	228.97
371.51	228.91
371.89	228.88
372.27	228.84
372.65	228.80
373.03	228.74
373.41	228.64
373.78	228.60
374.16	228.50
374.54	228.38
374.92	228.31
375.30	228.27
375.68	228.17
376.06	228.09
376.44	227.99
376.82	227.91
377.19	227.82
377.57	227.76
377.95	227.68
378.33	227.59
378.71	227.46
379.09	227.42
379.47	227.36
379.84	227.24
380.22	227.13
380.60	227.06
380.98	226.95
381.36	226.89
381.73	226.80
382.11	226.76
382.49	226.73
382.87	226.66
383.25	226.56
383.62	226.60
384.00	226.52
384.38	226.48
384.76	226.49
385.13	226.47
385.51	226.39
385.89	226.33
386.27	226.30
386.64	226.27
387.02	226.21
387.40	226.19
387.78	226.18
388.15	226.20
388.53	226.14
388.91	226.15
389.29	226.14
389.66	226.13
390.04	226.10
390.42	226.10
390.79	226.12
391.17	226.17
391.55	226.10
391.92	226.13
392.30	226.11
392.68	226.05
393.05	226.05
393.43	226.08
393.81	226.11
394.18	226.13
394.56	226.21
394.94	226.24
395.31	226.26
395.69	226.34
396.06	226.37
396.44	226.43
396.82	226.45
397.19	226.58
397.57	226.65
397.95	226.74
398.32	226.76
398.70	226.82
399.07	226.90
399.45	226.95
399.82	226.99
400.20	227.08
400.58	227.19
400.95	227.25
401.33	227.33
401.70	227.47
402.08	227.53
402.45	227.62
402.83	227.78
403.20	227.90
403.58	228.02
403.95	228.17
404.33	228.34
404.71	228.49
405.08	228.66
405.46	228.80
405.83	228.92
406.21	229.07
406.58	229.23
406.96	229.43
407.33	229.57
407.70	229.77
408.08	230.08
408.45	230.29
408.83	230.50
409.20	230.73
409.58	230.92
409.95	231.20
410.33	231.47
410.70	231.68
411.08	231.96
411.45	232.21
411.82	232.50
412.20	232.81
412.57	233.23
412.95	233.50
413.32	233.90
413.69	234.32
414.07	234.77
414.44	235.25
414.82	235.68
415.19	236.26
415.56	236.82
415.94	237.33
416.31	237.95
416.68	238.56
417.06	239.26
417.43	239.97
417.81	240.75
418.18	241.48
418.55	242.32
418.93	243.22
419.30	244.16
419.67	245.10
420.04	246.06
420.42	247.04
420.79	248.21
421.16	249.34
421.54	250.51
421.91	251.69
422.28	252.93
422.66	254.24
423.03	255.54
423.40	256.82
423.77	258.22
424.15	259.61
424.52	261.12
424.89	262.73
425.26	264.25
425.64	265.67
426.01	267.30
426.38	268.94
426.75	270.59
427.13	272.27
427.50	274.07
427.87	275.96
428.24	277.80
428.61	279.54
428.99	281.47
429.36	283.62
429.73	285.73
430.10	287.74
430.47	289.84
430.85	291.98
431.22	294.28
431.59	296.71
431.96	299.03
432.33	301.52
432.70	303.92
433.08	306.77
433.45	309.40
433.82	312.03
434.19	314.95
434.56	317.77
434.93	320.50
435.30	323.12
435.68	326.05
436.05	328.88
436.42	331.71
436.79	334.23
437.16	336.89
437.53	339.71
437.90	342.52
438.27	345.26
438.64	348.09
439.01	350.68
439.38	352.89
439.75	355.02
440.13	357.51
440.50	359.82
440.87	361.65
441.24	363.64
441.61	365.79
441.98	367.28
442.35	369.06
442.72	370.89
443.09	372.69
443.46	373.63
443.83	374.26
444.20	374.77
444.57	375.61
444.94	375.90
445.31	376.22
445.68	376.59
446.05	376.65
446.42	376.21
446.79	375.78
447.16	375.29
447.53	374.96
447.90	373.77
448.27	372.63
448.64	371.03
449.01	369.87
449.37	367.84
449.74	365.92
450.11	363.66
450.48	361.18
450.85	358.63
451.22	356.46
451.59	354.39
451.96	352.41
452.33	349.80
452.70	347.43
453.07	344.62
453.43	341.69
453.80	338.94
454.17	336.26
454.54	333.71
454.91	330.97
455.28	328.32
455.65	325.82
456.02	323.38
456.38	321.22
456.75	318.51
457.12	316.28
457.49	314.09
457.86	311.94
458.23	310.04
458.59	308.04
458.96	305.98
459.33	304.13
459.70	302.28
460.07	300.81
460.43	299.13
460.80	297.50
461.17	296.06
461.54	294.56
461.91	293.17
462.27	291.73
462.64	290.52
463.01	289.14
463.38	287.88
463.74	286.45
464.11	285.30
464.48	284.33
464.85	283.19
465.21	282.27
465.58	281.37
465.95	280.26
466.32	279.32
466.68	278.44
467.05	277.55
467.42	276.61
467.78	275.64
468.15	274.72
468.52	274.08
468.88	273.23
469.25	272.43
469.62	271.81
469.98	271.16
470.35	270.50
470.72	269.92
471.08	269.26
471.45	268.75
471.82	268.20
472.18	267.61
472.55	267.19
472.92	266.73
473.28	266.26
473.65	265.86
474.02	265.43
474.38	265.05
474.75	264.73
475.11	264.45
475.48	264.21
475.85	263.98
476.21	263.74
476.58	263.56
476.94	263.44
477.31	263.27
477.67	263.07
478.04	263.00
478.41	262.93
478.77	262.97
479.14	262.93
479.50	262.97
479.87	263.02
480.23	263.13
480.60	263.16
480.96	263.25
481.33	263.46
481.69	263.69
482.06	263.90
482.42	264.10
482.79	264.34
483.15	264.66
483.52	265.04
483.88	265.40
484.25	265.78
484.61	266.18
484.98	266.62
485.34	267.20
485.71	267.82
486.07	268.46
486.44	269.05
486.80	269.74
487.17	270.47
487.53	271.30
487.90	272.08
488.26	273.03
488.62	274.02
488.99	274.96
489.35	275.97
489.72	277.08
490.08	278.27
490.44	279.50
490.81	280.83
491.17	282.20
491.54	283.69
491.90	285.25
492.26	286.85
492.63	288.60
492.99	290.42
493.36	292.31
493.72	294.34
494.08	296.42
494.45	298.67
494.81	301.04
495.17	303.46
495.54	306.07
495.90	308.73
496.26	311.51
496.63	314.47
496.99	317.63
497.35	320.87
497.72	324.28
498.08	327.81
498.44	331.45
498.80	335.41
499.17	339.43
499.53	343.60
499.89	348.04
500.26	352.51
500.62	357.17
500.98	362.07
501.34	367.15
501.71	372.51
502.07	377.92
502.43	383.52
502.79	389.33
503.16	395.41
503.52	401.74
503.88	408.19
504.24	414.85
504.60	421.67
504.97	428.79
505.33	436.11
505.69	443.86
506.05	451.64
506.41	459.52
506.78	467.64
507.14	476.09
507.50	484.84
507.86	493.90
508.22	503.06
508.59	512.24
508.95	521.80
509.31	531.57
509.67	541.67
510.03	551.99
510.39	562.55
510.75	573.30
511.12	584.23
511.48	595.50
511.84	606.93
512.20	618.49
512.56	630.47
512.92	642.67
513.28	654.96
513.64	667.38
514.00	680.02
514.37	693.03
514.73	706.09
515.09	719.15
515.45	732.44
515.81	746.04
516.17	760.09
516.53	774.25
516.89	788.51
517.25	802.73
517.61	817.07
517.97	831.57
518.33	846.12
518.69	860.85
519.05	875.84
519.41	891.00
519.77	906.63
520.13	922.10
520.49	937.42
520.85	952.89
521.21	968.69
521.57	985.05
521.93	1000.84
522.29	1017.28
522.65	1033.50
523.01	1049.79
523.37	1065.93
523.73	1082.07
524.09	1098.19
524.45	1114.45
524.81	1131.06
525.17	1148.02
525.53	1164.94
525.89	1181.78
526.25	1198.71
526.61	1215.17
526.97	1232.01
527.33	1248.33
527.68	1264.96
528.04	1281.53
528.40	1298.20
528.76	1315.27
529.12	1331.78
529.48	1348.65
529.84	1364.72
530.20	1381.40
530.56	1398.36
530.91	1415.69
531.27	1432.56
531.63	1448.99
531.99	1465.65
532.35	1481.71
532.71	1497.59
533.07	1513.96
533.42	1529.73
533.78	1545.75
534.14	1562.19
534.50	1577.52
534.86	1593.48
535.21	1608.67
535.57	1624.68
535.93	1640.13
536.29	1654.94
536.65	1670.01
537.00	1684.90
537.36	1700.23
537.72	1714.82
538.08	1729.30
538.44	1743.14
538.79	1757.08
539.15	1770.86
539.51	1784.54
539.87	1798.85
540.22	1812.58
540.58	1826.22
540.94	1839.65
541.29	1852.60
541.65	1865.12
542.01	1878.39
542.37	1890.76
542.72	1903.28
543.08	1915.03
543.44	1927.41
543.79	1938.69
544.15	1949.71
544.51	1961.31
544.87	1972.30
545.22	1983.02
545.58	1993.14
545.94	2002.87
546.29	2012.70
546.65	2022.39
547.01	2031.71
547.36	2040.56
547.72	2048.98
548.07	2056.88
548.43	2065.20
548.79	2073.32
549.14	2080.93
549.50	2088.12
549.86	2095.91
550.21	2103.15
550.57	2110.25
550.92	2116.87
551.28	2123.95
551.64	2130.99
551.99	2137.49
552.35	2143.60
552.70	2149.74
553.06	2155.71
553.41	2162.11
553.77	2168.05
554.13	2174.32
554.48	2180.46
554.84	2185.81
555.19	2191.15
555.55	2196.26
555.90	2200.56
556.26	2205.29
556.61	2210.04
556.97	2214.40
557.32	2218.43
557.68	2222.62
558.03	2227.02
558.39	2230.68
558.74	2235.24
559.10	2239.17
559.45	2242.78
559.81	2247.18
560.16	2250.96
560.52	2254.26
560.87	2257.63
561.23	2260.29
561.58	2263.21
561.94	2265.73
562.29	2268.16
562.64	2270.75
563.00	2273.40
563.35	2277.01
563.71	2280.18
564.06	2283.34
564.42	2286.19
564.77	2288.65
565.12	2290.83
565.48	2292.83
565.83	2294.67
566.19	2295.97
566.54	2296.92
566.89	2297.94
567.25	2298.34
567.60	2299.68
567.96	2301.37
568.31	2302.18
568.66	2303.22
569.02	2303.78
569.37	2304.09
569.72	2304.90
570.08	2305.07
570.43	2305.03
570.78	2304.39
571.14	2302.80
571.49	2301.42
571.84	2301.13
572.20	2299.83
572.55	2298.80
572.90	2297.15
573.26	2295.83
573.61	2294.06
573.96	2292.17
574.31	2289.15
574.67	2286.15
575.02	2282.54
575.37	2279.11
575.72	2275.25
576.08	2271.93
576.43	2268.57
576.78	2264.76
577.13	2261.51
577.49	2258.47
577.84	2254.87
578.19	2250.98
578.54	2247.27
578.90	2242.97
579.25	2237.24
579.60	2232.38
579.95	2227.22
580.30	2222.21
580.66	2216.95
581.01	2212.14
581.36	2207.28
581.71	2202.98
582.06	2198.46
582.42	2193.87
582.77	2188.59
583.12	2183.92
583.47	2179.08
583.82	2173.94
584.17	2168.58
584.53	2162.99
584.88	2157.23
585.23	2151.44
585.58	2146.01
585.93	2140.57
586.28	2135.71
586.63	2130.76
586.98	2125.69
587.34	2121.01
587.69	2115.95
588.04	2110.51
588.39	2104.66
588.74	2098.15
589.09	2092.09
589.44	2085.23
589.79	2079.24
590.14	2073.58
590.49	2067.20
590.84	2060.93
591.19	2054.97
591.54	2048.56
591.89	2041.17
592.25	2034.29
592.60	2027.05
592.95	2019.43
593.30	2011.96
593.65	2004.34
594.00	1997.24
594.35	1989.90
594.70	1981.81
595.05	1974.50
595.40	1967.25
595.75	1959.79
596.10	1953.49
596.45	1946.70
596.80	1940.67
597.15	1933.91
597.50	1926.77
597.85	1920.26
598.19	1913.43
598.54	1906.12
598.89	1899.53
599.24	1893.72
599.59	1887.14
599.94	1881.00
600.29	1874.64
600.64	1868.14
600.99	1860.72
601.34	1853.77
601.69	1846.74
602.04	1839.83
602.39	1832.49
602.74	1825.62
603.08	1818.86
603.43	1812.01
603.78	1804.69
604.13	1797.37
604.48	1790.14
604.83	1783.19
605.18	1776.08
605.53	1768.05
605.87	1760.10
606.22	1752.77
606.57	1744.68
606.92	1737.24
607.27	1729.95
607.62	1723.11
607.96	1715.86
608.31	1709.20
608.66	1701.60
609.01	1694.09
609.36	1686.54
609.70	1678.56
610.05	1670.55
610.40	1662.80
610.75	1654.55
611.10	1646.88
611.44	1638.40
611.79	1630.41
612.14	1621.79
612.49	1612.62
612.83	1604.36
613.18	1596.28
613.53	1588.28
613.88	1579.67
614.22	1571.40
614.57	1562.78
614.92	1554.65
615.27	1546.84
615.61	1538.54
615.96	1530.63
616.31	1523.00
616.65	1515.64
617.00	1508.06
617.35	1500.45
617.70	1492.04
618.04	1483.52
618.39	1475.41
618.74	1467.84
619.08	1459.47
619.43	1451.89
619.78	1444.99
620.12	1437.73
620.47	1430.17
620.82	1421.98
621.16	1414.72
621.51	1407.08
621.85	1399.48
622.20	1390.99
622.55	1382.72
622.89	1374.86
623.24	1367.16
623.59	1359.79
623.93	1352.26
624.28	1345.00
624.62	1337.37
624.97	1330.27
625.32	1323.59
625.66	1316.45
626.01	1309.18
626.35	1301.71
626.70	1293.99
627.04	1286.24
627.39	1278.61
627.73	1271.26
628.08	1264.27
628.43	1256.92
628.77	1249.51
629.12	1241.98
629.46	1234.77
629.81	1227.46
630.15	1220.20
630.50	1212.79
630.84	1204.58
631.19	1196.63
631.53	1189.17
631.88	1181.58
632.22	1174.01
632.57	1166.56
632.91	1159.06
633.26	1151.73
633.60	1144.48
633.95	1137.39
634.29	1130.44
634.64	1123.73
634.98	1116.33
635.32	1109.23
635.67	1102.67
636.01	1096.02
636.36	1089.16
636.70	1082.70
637.05	1076.06
637.39	1069.62
637.73	1063.08
638.08	1057.27
638.42	1051.39
638.77	1044.91
639.11	1038.36
639.45	1032.01
639.80	1025.40
640.14	1018.93
640.49	1012.39
640.83	1006.07
641.17	999.73
641.52	993.49
641.86	986.96
642.20	981.07
642.55	974.79
642.89	968.30
643.23	961.85
643.58	956.10
643.92	949.86
644.26	943.81
644.61	937.75
644.95	931.75
645.29	925.07
645.64	918.26
645.98	911.96
646.32	906.22
646.66	900.12
647.01	894.35
647.35	888.71
647.69	882.89
648.04	877.33
648.38	871.61
648.72	865.50
649.06	859.50
649.41	853.70
649.75	847.71
650.09	841.71
650.43	835.95
650.78	829.83
651.12	823.90
651.46	818.20
651.80	812.50
652.14	807.17
652.49	801.89
652.83	796.74
653.17	791.00
653.51	785.19
653.85	779.80
654.20	774.17
654.54	768.11
654.88	762.40
655.22	756.58
655.56	750.91
655.90	745.50
656.25	740.26
656.59	734.92
656.93	729.92
657.27	724.81
657.61	719.37
657.95	714.25
658.29	709.16
658.64	703.98
658.98	698.70
659.32	693.20
659.66	688.01
660.00	682.71
660.34	677.83
660.68	672.91
661.02	667.91
661.36	663.17
661.70	658.71
662.05	654.34
662.39	649.96
662.73	645.52
663.07	641.11
663.41	636.66
663.75	632.09
664.09	627.41
664.43	623.05
664.77	618.91
665.11	614.74
665.45	610.63
665.79	606.54
666.13	602.42
666.47	598.38
666.81	594.12
667.15	589.97
667.49	586.06
667.83	582.33
668.17	578.37
668.51	574.35
668.85	570.36
669.19	566.58
669.53	562.76
669.87	558.84
670.21	555.20
670.55	551.54
670.89	548.14
671.23	544.78
671.57	541.25
671.91	537.72
672.25	534.24
672.58	530.74
672.92	527.36
673.26	524.16
673.60	520.97
673.94	517.93
674.28	515.03
674.62	512.06
674.96	508.94
675.30	506.03
675.64	503.09
675.97	500.35
676.31	497.42
676.65	494.50
676.99	491.83
677.33	488.94
677.67	486.12
678.01	483.07
678.34	480.03
678.68	477.15
679.02	474.29
679.36	471.48
679.70	468.77
680.04	465.95
680.37	463.13
680.71	460.36
681.05	457.72
681.39	454.97
681.73	452.30
682.06	449.79
682.40	447.23
682.74	444.71
683.08	442.13
683.42	439.51
683.75	436.94
684.09	434.34
684.43	431.80
684.77	429.35
685.10	427.01
685.44	424.74
685.78	422.50
686.12	420.26
686.45	418.00
686.79	415.62
687.13	413.45
687.46	411.26
687.80	409.08
688.14	406.85
688.48	404.79
688.81	402.55
689.15	400.36
689.49	398.23
689.82	396.10
690.16	394.02
690.50	392.12
690.83	390.20
691.17	388.32
691.51	386.49
691.84	384.62
692.18	382.68
692.52	380.65
692.85	378.67
693.19	376.79
693.52	374.93
693.86	373.16
694.20	371.37
694.53	369.57
694.87	367.76
695.21	366.03
695.54	364.24
695.88	362.55
696.21	360.84
696.55	359.16
696.88	357.49
697.22	355.82
697.56	354.23
697.89	352.63
698.23	350.97
698.56	349.34
698.90	347.78
699.23	346.16
699.57	344.68
699.90	343.17
700.24	341.65
700.58	340.15
700.91	338.68
701.25	337.23
701.58	335.86
701.92	334.49
702.25	333.11
702.59	331.76
702.92	330.45
703.26	329.18
703.59	327.93
703.93	326.72
704.26	325.54
704.60	324.23
704.93	322.94
705.26	321.72
705.60	320.56
705.93	319.39
706.27	318.37
706.60	317.33
706.94	316.25
707.27	315.13
707.61	314.08
707.94	313.05
708.27	311.99
708.61	310.93
708.94	309.93
709.28	308.95
709.61	308.00
709.94	307.05
710.28	306.03
710.61	305.03
710.95	303.98
711.28	303.02
711.61	302.05
711.95	301.13
712.28	300.17
712.61	299.20
712.95	298.26
713.28	297.40
713.61	296.50
713.95	295.61
714.28	294.78
714.61	293.95
714.95	293.09
715.28	292.20
715.61	291.27
715.95	290.41
716.28	289.56
716.61	288.73
716.95	287.87
717.28	287.13
717.61	286.36
717.94	285.65
718.28	284.85
718.61	284.13
718.94	283.44
719.27	282.78
719.61	282.14
719.94	281.49
720.27	280.74
720.60	280.03
720.94	279.35
721.27	278.77
721.60	278.14
721.93	277.55
722.27	277.02
722.60	276.49
722.93	275.92
723.26	275.37
723.59	274.81
723.93	274.27
724.26	273.69
724.59	273.15
724.92	272.62
725.25	272.13
725.59	271.60
725.92	271.07
726.25	270.60
726.58	270.10
726.91	269.58
727.24	269.10
727.57	268.64
727.91	268.18
728.24	267.72
728.57	267.19
728.90	266.72
729.23	266.22
729.56	265.80
729.89	265.32
730.22	264.82
730.55	264.34
730.89	263.92
731.22	263.45
731.55	262.98
731.88	262.53
732.21	262.09
732.54	261.68
732.87	261.27
733.20	260.81
733.53	260.39
733.86	260.07
734.19	259.70
734.52	259.34
734.85	259.02
735.18	258.58
735.51	258.25
735.84	257.90
736.17	257.59
736.50	257.19
736.83	256.96
737.16	256.65
737.49	256.30
737.82	255.95
738.15	255.65
738.48	255.36
738.81	254.99
739.14	254.69
739.47	254.36
739.80	254.04
740.13	253.79
740.46	253.49
740.79	253.11
741.12	252.80
741.45	252.50
741.78	252.16
742.11	251.89
742.44	251.55
742.77	251.26
743.10	250.94
743.43	250.63
743.75	250.26
744.08	250.12
744.41	249.87
744.74	249.62
745.07	249.30
745.40	249.04
745.73	248.83
746.06	248.53
746.39	248.31
746.71	248.04
747.04	247.77
747.37	247.52
747.70	247.34
748.03	247.08
748.36	246.83
748.68	246.60
749.01	246.35
749.34	246.12
749.67	245.88
750.00	245.63
750.33	245.48
750.65	245.25
750.98	244.91
751.31	244.69
751.64	244.48
751.97	244.35
752.29	244.15
752.62	243.95
752.95	243.77
753.28	243.51
753.60	243.33
753.93	243.14
754.26	242.93
754.59	242.68
754.91	242.48
755.24	242.31
755.57	242.15
755.90	241.98
756.22	241.82
756.55	241.63
756.88	241.43
757.20	241.21
757.53	241.01
757.86	240.82
758.19	240.65
758.51	240.47
758.84	240.24
759.17	240.05
759.49	239.87
759.82	239.71
760.15	239.58
760.47	239.42
760.80	239.25
761.13	239.14
761.45	238.99
761.78	238.85
762.11	238.70
762.43	238.52
762.76	238.34
763.08	238.21
763.41	238.06
763.74	237.92
764.06	237.77
764.39	237.63
764.71	237.50
765.04	237.33
765.37	237.19
765.69	237.07
766.02	236.92
766.34	236.78
766.67	236.63
767.00	236.51
767.32	236.45
767.65	236.38
767.97	236.26
768.30	236.15
768.62	236.00
768.95	235.84
769.27	235.68
769.60	235.61
769.92	235.48
770.25	235.36
770.57	235.27
770.90	235.16
771.22	235.06
771.55	234.99
771.87	234.91
772.20	234.82
772.52	234.83
772.85	234.84
773.17	234.75
773.50	234.68
773.82	234.59
774.15	234.44
774.47	234.29
774.80	234.16
775.12	234.09
775.45	234.05
775.77	234.02
776.09	233.98
776.42	233.90
776.74	233.84
777.07	233.76
777.39	233.69
777.72	233.62
778.04	233.57
778.36	233.49
778.69	233.47
779.01	233.36
779.33	233.19
779.66	233.01
779.98	232.94
780.31	232.88
780.63	232.84
780.95	232.80
781.28	232.73
781.60	232.66
781.92	232.61
782.25	232.52
782.57	232.44
782.89	232.37
783.22	232.33
783.54	232.27
783.86	232.23
784.19	232.17
784.51	232.14
784.83	232.06
785.16	231.98
785.48	231.89
785.80	231.84
786.12	231.81
786.45	231.79
786.77	231.78
787.09	231.74
