SpectraSuite Data File
++++++++++++++++++++++++++++++++++++
Date: Fri Feb 01 16:12:17 EST 2013
User: group
Dark Spectrum Present: No
Reference Spectrum Present: No
Number of Sampled Component Spectra: 1
Spectrometers: USB2E7196
Integration Time (usec): 35000 (USB2E7196)
Spectra Averaged: 100 (USB2E7196)
Boxcar Smoothing: 10 (USB2E7196)
Correct for Electrical Dark: No (USB2E7196)
Strobe/Lamp Enabled: No (USB2E7196)
Correct for Detector Non-linearity: No (USB2E7196)
Correct for Stray Light: No (USB2E7196)
Number of Pixels in Processed Spectrum: 2048
>>>>>Begin Processed Spectral Data<<<<<
339.09	0.00
339.48	214.62
339.86	216.20
340.24	217.20
340.63	218.72
341.01	221.92
341.39	220.95
341.78	223.17
342.16	223.62
342.54	224.46
342.93	212.76
343.31	223.50
343.69	224.02
344.07	224.47
344.46	224.90
344.84	225.25
345.22	225.45
345.60	225.69
345.99	225.86
346.37	225.99
346.75	226.08
347.13	226.15
347.52	226.18
347.90	226.27
348.28	226.29
348.66	226.31
349.05	226.29
349.43	226.34
349.81	226.38
350.19	226.42
350.57	226.48
350.96	226.52
351.34	226.61
351.72	226.68
352.10	226.76
352.48	226.81
352.87	226.88
353.25	226.94
353.63	227.02
354.01	227.07
354.39	227.14
354.77	227.24
355.15	227.34
355.54	227.44
355.92	227.44
356.30	227.49
356.68	227.64
357.06	227.72
357.44	227.75
357.82	227.80
358.20	227.89
358.58	227.97
358.97	228.05
359.35	228.10
359.73	228.19
360.11	228.26
360.49	228.34
360.87	228.44
361.25	228.52
361.63	228.60
362.01	228.66
362.39	228.70
362.77	228.76
363.15	228.79
363.53	228.81
363.91	228.87
364.29	228.91
364.67	228.85
365.05	228.87
365.43	228.93
365.81	228.96
366.19	229.02
366.57	229.05
366.95	229.03
367.33	229.03
367.71	229.05
368.09	229.02
368.47	229.00
368.85	228.96
369.23	228.96
369.61	228.90
369.99	228.91
370.37	228.90
370.75	228.88
371.13	228.87
371.51	228.81
371.89	228.76
372.27	228.72
372.65	228.72
373.03	228.66
373.41	228.60
373.78	228.55
374.16	228.40
374.54	228.35
374.92	228.29
375.30	228.24
375.68	228.16
376.06	228.13
376.44	228.07
376.82	227.99
377.19	227.92
377.57	227.88
377.95	227.76
378.33	227.68
378.71	227.57
379.09	227.49
379.47	227.46
379.84	227.41
380.22	227.37
380.60	227.28
380.98	227.22
381.36	227.14
381.73	227.08
382.11	227.05
382.49	226.99
382.87	226.90
383.25	226.82
383.62	226.84
384.00	226.78
384.38	226.71
384.76	226.67
385.13	226.65
385.51	226.57
385.89	226.52
386.27	226.45
386.64	226.42
387.02	226.39
387.40	226.32
387.78	226.26
388.15	226.22
388.53	226.16
388.91	226.14
389.29	226.11
389.66	226.06
390.04	226.01
390.42	225.97
390.79	225.97
391.17	225.95
391.55	225.80
391.92	225.78
392.30	225.82
392.68	225.81
393.05	225.81
393.43	225.81
393.81	225.83
394.18	225.80
394.56	225.81
394.94	225.81
395.31	225.82
395.69	225.87
396.06	225.89
396.44	225.93
396.82	225.91
397.19	225.98
397.57	226.02
397.95	226.10
398.32	226.13
398.70	226.21
399.07	226.29
399.45	226.40
399.82	226.42
400.20	226.48
400.58	226.50
400.95	226.51
401.33	226.59
401.70	226.72
402.08	226.84
402.45	226.93
402.83	227.03
403.20	227.12
403.58	227.24
403.95	227.39
404.33	227.49
404.71	227.64
405.08	227.81
405.46	227.97
405.83	228.09
406.21	228.24
406.58	228.38
406.96	228.55
407.33	228.71
407.70	228.91
408.08	229.18
408.45	229.43
408.83	229.67
409.20	229.90
409.58	230.09
409.95	230.31
410.33	230.61
410.70	230.87
411.08	231.17
411.45	231.46
411.82	231.72
412.20	232.09
412.57	232.51
412.95	232.80
413.32	233.20
413.69	233.61
414.07	234.05
414.44	234.52
414.82	234.99
415.19	235.55
415.56	236.12
415.94	236.63
416.31	237.26
416.68	237.93
417.06	238.62
417.43	239.31
417.81	240.15
418.18	240.91
418.55	241.74
418.93	242.62
419.30	243.51
419.67	244.49
420.04	245.45
420.42	246.42
420.79	247.61
421.16	248.74
421.54	249.98
421.91	251.18
422.28	252.46
422.66	253.79
423.03	255.13
423.40	256.46
423.77	257.90
424.15	259.36
424.52	260.82
424.89	262.45
425.26	264.01
425.64	265.39
426.01	266.99
426.38	268.68
426.75	270.38
427.13	272.09
427.50	273.87
427.87	275.74
428.24	277.62
428.61	279.39
428.99	281.33
429.36	283.39
429.73	285.44
430.10	287.43
430.47	289.51
430.85	291.57
431.22	293.80
431.59	296.16
431.96	298.38
432.33	300.85
432.70	303.25
433.08	306.02
433.45	308.70
433.82	311.29
434.19	314.14
434.56	316.96
434.93	319.59
435.30	322.17
435.68	325.05
436.05	327.85
436.42	330.60
436.79	333.12
437.16	335.82
437.53	338.67
437.90	341.47
438.27	344.20
438.64	347.02
439.01	349.57
439.38	351.72
439.75	353.86
440.13	356.36
440.50	358.62
440.87	360.42
441.24	362.35
441.61	364.50
441.98	365.98
442.35	367.72
442.72	369.59
443.09	371.40
443.46	372.42
443.83	372.99
444.20	373.53
444.57	374.34
444.94	374.57
445.31	374.91
445.68	375.24
446.05	375.25
446.42	374.91
446.79	374.49
447.16	374.05
447.53	373.72
447.90	372.52
448.27	371.42
448.64	369.84
449.01	368.72
449.37	366.75
449.74	364.84
450.11	362.65
450.48	360.19
450.85	357.66
451.22	355.49
451.59	353.48
451.96	351.52
452.33	348.93
452.70	346.60
453.07	343.73
453.43	340.87
453.80	338.17
454.17	335.44
454.54	332.92
454.91	330.26
455.28	327.59
455.65	325.13
456.02	322.66
456.38	320.54
456.75	317.83
457.12	315.58
457.49	313.33
457.86	311.13
458.23	309.31
458.59	307.31
458.96	305.24
459.33	303.39
459.70	301.55
460.07	300.07
460.43	298.36
460.80	296.77
461.17	295.31
461.54	293.81
461.91	292.40
462.27	290.97
462.64	289.70
463.01	288.38
463.38	287.10
463.74	285.79
464.11	284.63
464.48	283.59
464.85	282.48
465.21	281.65
465.58	280.73
465.95	279.62
466.32	278.68
466.68	277.77
467.05	276.88
467.42	276.00
467.78	275.04
468.15	274.19
468.52	273.56
468.88	272.67
469.25	271.90
469.62	271.26
469.98	270.58
470.35	269.98
470.72	269.38
471.08	268.73
471.45	268.18
471.82	267.65
472.18	267.10
472.55	266.70
472.92	266.21
473.28	265.76
473.65	265.30
474.02	264.88
474.38	264.53
474.75	264.22
475.11	263.87
475.48	263.65
475.85	263.41
476.21	263.15
476.58	263.07
476.94	262.93
477.31	262.78
477.67	262.67
478.04	262.54
478.41	262.48
478.77	262.52
479.14	262.46
479.50	262.50
479.87	262.52
480.23	262.61
480.60	262.64
480.96	262.72
481.33	262.91
481.69	263.13
482.06	263.31
482.42	263.49
482.79	263.73
483.15	263.98
483.52	264.38
483.88	264.72
484.25	265.04
484.61	265.46
484.98	265.91
485.34	266.43
485.71	267.03
486.07	267.62
486.44	268.21
486.80	268.91
487.17	269.59
487.53	270.45
487.90	271.28
488.26	272.19
488.62	273.17
488.99	274.15
489.35	275.17
489.72	276.31
490.08	277.54
490.44	278.77
490.81	280.16
491.17	281.53
491.54	283.03
491.90	284.58
492.26	286.21
492.63	287.97
492.99	289.74
493.36	291.65
493.72	293.69
494.08	295.81
494.45	298.04
494.81	300.39
495.17	302.83
495.54	305.44
495.90	308.17
496.26	311.00
496.63	313.95
496.99	317.08
497.35	320.32
497.72	323.73
498.08	327.30
498.44	331.03
498.80	334.95
499.17	339.05
499.53	343.22
499.89	347.61
500.26	352.11
500.62	356.82
500.98	361.79
501.34	366.88
501.71	372.20
502.07	377.70
502.43	383.37
502.79	389.22
503.16	395.28
503.52	401.55
503.88	408.01
504.24	414.68
504.60	421.57
504.97	428.78
505.33	436.14
505.69	443.84
506.05	451.60
506.41	459.51
506.78	467.65
507.14	476.15
507.50	484.88
507.86	493.94
508.22	503.10
508.59	512.29
508.95	521.84
509.31	531.64
509.67	541.74
510.03	552.04
510.39	562.56
510.75	573.33
511.12	584.33
511.48	595.58
511.84	607.02
512.20	618.58
512.56	630.45
512.92	642.63
513.28	655.03
513.64	667.56
514.00	680.22
514.37	693.12
514.73	706.14
515.09	719.18
515.45	732.48
515.81	746.07
516.17	760.06
516.53	774.12
516.89	788.41
517.25	802.61
517.61	817.00
517.97	831.47
518.33	845.99
518.69	860.71
519.05	875.61
519.41	890.78
519.77	906.30
520.13	921.79
520.49	937.20
520.85	952.55
521.21	968.08
521.57	984.34
521.93	1000.13
522.29	1016.49
522.65	1032.71
523.01	1048.80
523.37	1064.89
523.73	1081.09
524.09	1097.25
524.45	1113.43
524.81	1130.00
525.17	1146.70
525.53	1163.52
525.89	1180.34
526.25	1197.09
526.61	1213.55
526.97	1230.31
527.33	1246.70
527.68	1263.15
528.04	1279.47
528.40	1295.93
528.76	1313.10
529.12	1329.64
529.48	1346.41
529.84	1362.36
530.20	1378.91
530.56	1395.88
530.91	1413.16
531.27	1429.81
531.63	1446.28
531.99	1462.81
532.35	1478.79
532.71	1494.62
533.07	1510.92
533.42	1526.79
533.78	1542.84
534.14	1559.02
534.50	1574.21
534.86	1590.01
535.21	1605.13
535.57	1620.96
535.93	1636.44
536.29	1651.08
536.65	1665.92
537.00	1680.62
537.36	1695.95
537.72	1710.42
538.08	1724.83
538.44	1738.51
538.79	1752.24
539.15	1765.64
539.51	1779.36
539.87	1793.50
540.22	1807.17
540.58	1820.69
540.94	1833.74
541.29	1846.46
541.65	1859.06
542.01	1872.17
542.37	1884.40
542.72	1896.80
543.08	1908.70
543.44	1921.08
543.79	1932.29
544.15	1943.21
544.51	1954.75
544.87	1965.53
545.22	1976.33
545.58	1986.56
545.94	1996.40
546.29	2006.30
546.65	2016.20
547.01	2025.32
547.36	2033.97
547.72	2042.41
548.07	2050.28
548.43	2058.56
548.79	2066.44
549.14	2073.93
549.50	2081.17
549.86	2088.84
550.21	2096.14
550.57	2103.14
550.92	2109.55
551.28	2116.60
551.64	2123.82
551.99	2130.40
552.35	2136.67
552.70	2142.81
553.06	2148.63
553.41	2154.97
553.77	2160.88
554.13	2166.89
554.48	2173.01
554.84	2178.71
555.19	2183.94
555.55	2189.32
555.90	2193.84
556.26	2199.02
556.61	2203.77
556.97	2208.29
557.32	2212.47
557.68	2216.60
558.03	2220.75
558.39	2224.40
558.74	2228.97
559.10	2232.67
559.45	2236.18
559.81	2240.34
560.16	2244.18
560.52	2247.43
560.87	2250.68
561.23	2253.42
561.58	2256.48
561.94	2258.96
562.29	2261.08
562.64	2263.91
563.00	2266.33
563.35	2269.75
563.71	2272.73
564.06	2275.87
564.42	2278.69
564.77	2281.27
565.12	2283.75
565.48	2285.84
565.83	2287.92
566.19	2289.37
566.54	2290.27
566.89	2291.57
567.25	2292.27
567.60	2293.47
567.96	2295.27
568.31	2296.21
568.66	2297.38
569.02	2298.01
569.37	2298.47
569.72	2299.47
570.08	2299.72
570.43	2299.70
570.78	2299.20
571.14	2297.79
571.49	2296.57
571.84	2296.31
572.20	2295.16
572.55	2294.08
572.90	2292.58
573.26	2291.17
573.61	2289.41
573.96	2287.92
574.31	2285.09
574.67	2282.16
575.02	2278.66
575.37	2275.28
575.72	2271.55
576.08	2268.05
576.43	2264.54
576.78	2260.99
577.13	2257.85
577.49	2254.59
577.84	2251.25
578.19	2247.44
578.54	2243.81
578.90	2239.57
579.25	2233.89
579.60	2229.00
579.95	2223.98
580.30	2218.88
580.66	2213.69
581.01	2208.68
581.36	2203.76
581.71	2199.45
582.06	2195.08
582.42	2190.83
582.77	2185.68
583.12	2181.15
583.47	2176.64
583.82	2171.92
584.17	2166.78
584.53	2161.23
584.88	2155.59
585.23	2149.88
585.58	2144.40
585.93	2138.97
586.28	2134.15
586.63	2129.26
586.98	2124.18
587.34	2119.44
587.69	2114.65
588.04	2109.54
588.39	2103.93
588.74	2097.42
589.09	2091.25
589.44	2084.45
589.79	2078.13
590.14	2072.46
590.49	2065.89
590.84	2059.32
591.19	2053.11
591.54	2046.46
591.89	2039.30
592.25	2032.74
592.60	2025.52
592.95	2018.24
593.30	2010.87
593.65	2003.44
594.00	1996.28
594.35	1989.11
594.70	1981.02
595.05	1973.98
595.40	1966.64
595.75	1959.19
596.10	1953.10
596.45	1946.55
596.80	1940.29
597.15	1933.81
597.50	1926.87
597.85	1920.44
598.19	1914.06
598.54	1907.05
598.89	1900.51
599.24	1894.55
599.59	1887.88
599.94	1881.58
600.29	1875.05
600.64	1868.45
600.99	1861.00
601.34	1854.28
601.69	1847.18
602.04	1840.37
602.39	1832.87
602.74	1826.10
603.08	1819.35
603.43	1812.52
603.78	1805.11
604.13	1797.90
604.48	1790.70
604.83	1783.74
605.18	1776.80
605.53	1768.84
605.87	1760.88
606.22	1753.55
606.57	1745.48
606.92	1738.09
607.27	1731.16
607.62	1724.41
607.96	1717.23
608.31	1710.73
608.66	1703.15
609.01	1695.75
609.36	1688.28
609.70	1680.34
610.05	1672.21
610.40	1664.61
610.75	1656.25
611.10	1648.70
611.44	1640.36
611.79	1632.32
612.14	1623.61
612.49	1614.40
612.83	1605.90
613.18	1597.61
613.53	1589.59
613.88	1581.23
614.22	1572.87
614.57	1564.12
614.92	1555.96
615.27	1548.48
615.61	1540.19
615.96	1532.19
616.31	1524.45
616.65	1517.18
617.00	1509.61
617.35	1502.13
617.70	1493.86
618.04	1485.42
618.39	1477.01
618.74	1469.43
619.08	1461.11
619.43	1453.57
619.78	1446.67
620.12	1439.58
620.47	1432.21
620.82	1424.01
621.16	1416.46
621.51	1408.88
621.85	1401.24
622.20	1392.68
622.55	1384.26
622.89	1376.22
623.24	1368.53
623.59	1361.04
623.93	1353.42
624.28	1346.22
624.62	1338.66
624.97	1331.34
625.32	1324.52
625.66	1317.51
626.01	1310.33
626.35	1302.98
626.70	1295.23
627.04	1287.54
627.39	1279.71
627.73	1272.29
628.08	1265.38
628.43	1258.18
628.77	1250.82
629.12	1243.28
629.46	1236.22
629.81	1228.63
630.15	1221.49
630.50	1214.12
630.84	1206.00
631.19	1197.85
631.53	1190.31
631.88	1182.67
632.22	1175.17
632.57	1167.91
632.91	1160.41
633.26	1152.98
633.60	1145.49
633.95	1138.29
634.29	1131.21
634.64	1124.53
634.98	1117.27
635.32	1110.20
635.67	1103.45
636.01	1096.80
636.36	1089.95
636.70	1083.37
637.05	1076.85
637.39	1070.30
637.73	1063.84
638.08	1057.99
638.42	1052.04
638.77	1045.53
639.11	1038.96
639.45	1032.52
639.80	1025.91
640.14	1019.51
640.49	1013.00
640.83	1006.69
641.17	1000.54
641.52	994.29
641.86	987.73
642.20	981.79
642.55	975.32
642.89	968.92
643.23	962.30
643.58	956.56
643.92	950.43
644.26	944.52
644.61	938.50
644.95	932.41
645.29	925.89
645.64	919.26
645.98	912.95
646.32	907.01
646.66	901.01
647.01	895.15
647.35	889.40
647.69	883.58
648.04	878.05
648.38	872.27
648.72	866.29
649.06	860.37
649.41	854.49
649.75	848.62
650.09	842.71
650.43	837.00
650.78	830.87
651.12	824.85
651.46	819.08
651.80	813.43
652.14	808.02
652.49	802.66
652.83	797.48
653.17	791.87
653.51	786.29
653.85	780.87
654.20	775.25
654.54	769.33
654.88	763.55
655.22	757.68
655.56	751.96
655.90	746.34
656.25	741.11
656.59	735.80
656.93	730.71
657.27	725.56
657.61	720.12
657.95	715.05
658.29	710.04
658.64	704.69
658.98	699.29
659.32	693.84
659.66	688.56
660.00	683.27
660.34	678.31
660.68	673.30
661.02	668.24
661.36	663.45
661.70	658.94
662.05	654.63
662.39	650.26
662.73	645.82
663.07	641.59
663.41	637.08
663.75	632.58
664.09	627.98
664.43	623.54
664.77	619.46
665.11	615.20
665.45	610.98
665.79	606.96
666.13	602.89
666.47	598.73
666.81	594.63
667.15	590.50
667.49	586.50
667.83	582.61
668.17	578.65
668.51	574.65
668.85	570.57
669.19	566.65
669.53	562.82
669.87	558.93
670.21	555.13
670.55	551.46
670.89	547.99
671.23	544.52
671.57	541.02
671.91	537.46
672.25	533.93
672.58	530.41
672.92	526.91
673.26	523.69
673.60	520.60
673.94	517.45
674.28	514.49
674.62	511.54
674.96	508.51
675.30	505.62
675.64	502.64
675.97	499.84
676.31	496.98
676.65	494.07
676.99	491.29
677.33	488.41
677.67	485.59
678.01	482.57
678.34	479.62
678.68	476.79
679.02	473.99
679.36	471.17
679.70	468.46
680.04	465.76
680.37	462.92
680.71	460.09
681.05	457.46
681.39	454.77
681.73	452.12
682.06	449.61
682.40	447.09
682.74	444.61
683.08	442.06
683.42	439.46
683.75	437.01
684.09	434.48
684.43	432.06
684.77	429.61
685.10	427.27
685.44	424.94
685.78	422.65
686.12	420.31
686.45	418.04
686.79	415.72
687.13	413.52
687.46	411.34
687.80	409.14
688.14	406.93
688.48	404.89
688.81	402.65
689.15	400.52
689.49	398.34
689.82	396.22
690.16	394.16
690.50	392.24
690.83	390.29
691.17	388.31
691.51	386.44
691.84	384.62
692.18	382.71
692.52	380.77
692.85	378.80
693.19	376.96
693.52	375.13
693.86	373.32
694.20	371.56
694.53	369.79
694.87	368.01
695.21	366.24
695.54	364.43
695.88	362.73
696.21	360.99
696.55	359.34
696.88	357.72
697.22	356.04
697.56	354.39
697.89	352.73
698.23	351.14
698.56	349.51
698.90	347.95
699.23	346.31
699.57	344.74
699.90	343.22
700.24	341.74
700.58	340.26
700.91	338.77
701.25	337.34
701.58	335.97
701.92	334.55
702.25	333.16
702.59	331.76
702.92	330.43
703.26	329.10
703.59	327.78
703.93	326.51
704.26	325.29
704.60	323.97
704.93	322.70
705.26	321.44
705.60	320.24
705.93	319.02
706.27	317.97
706.60	316.94
706.94	315.87
707.27	314.67
707.61	313.56
707.94	312.54
708.27	311.42
708.61	310.30
708.94	309.29
709.28	308.29
709.61	307.30
709.94	306.37
710.28	305.36
710.61	304.36
710.95	303.30
711.28	302.34
711.61	301.40
711.95	300.44
712.28	299.49
712.61	298.51
712.95	297.53
713.28	296.59
713.61	295.65
713.95	294.74
714.28	293.89
714.61	293.03
714.95	292.13
715.28	291.25
715.61	290.37
715.95	289.52
716.28	288.68
716.61	287.82
716.95	287.03
717.28	286.27
717.61	285.50
717.94	284.76
718.28	283.94
718.61	283.19
718.94	282.52
719.27	281.89
719.61	281.22
719.94	280.59
720.27	279.88
720.60	279.22
720.94	278.60
721.27	278.02
721.60	277.45
721.93	276.85
722.27	276.32
722.60	275.79
722.93	275.24
723.26	274.68
723.59	274.13
723.93	273.53
724.26	273.00
724.59	272.40
724.92	271.89
725.25	271.47
725.59	270.94
725.92	270.45
726.25	269.91
726.58	269.41
726.91	268.94
727.24	268.48
727.57	268.03
727.91	267.49
728.24	267.01
728.57	266.52
728.90	266.07
729.23	265.60
729.56	265.19
729.89	264.69
730.22	264.25
730.55	263.82
730.89	263.39
731.22	262.93
731.55	262.59
731.88	262.14
732.21	261.69
732.54	261.27
732.87	260.84
733.20	260.47
733.53	260.11
733.86	259.74
734.19	259.35
734.52	258.97
734.85	258.70
735.18	258.29
735.51	257.94
735.84	257.58
736.17	257.22
736.50	256.79
736.83	256.57
737.16	256.21
737.49	255.90
737.82	255.59
738.15	255.27
738.48	254.91
738.81	254.57
739.14	254.24
739.47	253.94
739.80	253.63
740.13	253.34
740.46	252.98
740.79	252.65
741.12	252.37
741.45	252.06
741.78	251.71
742.11	251.46
742.44	251.16
742.77	250.88
743.10	250.61
743.43	250.33
743.75	249.93
744.08	249.77
744.41	249.47
744.74	249.19
745.07	248.89
745.40	248.64
745.73	248.41
746.06	248.13
746.39	247.87
746.71	247.57
747.04	247.24
747.37	247.01
747.70	246.76
748.03	246.48
748.36	246.25
748.68	246.00
749.01	245.73
749.34	245.50
749.67	245.24
750.00	244.99
750.33	244.80
750.65	244.60
750.98	244.23
751.31	244.00
751.64	243.76
751.97	243.61
752.29	243.37
752.62	243.12
752.95	242.91
753.28	242.67
753.60	242.51
753.93	242.35
754.26	242.13
754.59	241.93
754.91	241.72
755.24	241.52
755.57	241.28
755.90	241.13
756.22	240.91
756.55	240.71
756.88	240.50
757.20	240.31
757.53	240.12
757.86	239.97
758.19	239.83
758.51	239.70
758.84	239.46
759.17	239.32
759.49	239.17
759.82	239.05
760.15	238.94
760.47	238.78
760.80	238.59
761.13	238.47
761.45	238.31
761.78	238.15
762.11	238.01
762.43	237.91
762.76	237.72
763.08	237.60
763.41	237.48
763.74	237.36
764.06	237.21
764.39	237.08
764.71	236.95
765.04	236.79
765.37	236.63
765.69	236.52
766.02	236.37
766.34	236.26
766.67	236.13
767.00	236.01
767.32	235.96
767.65	235.93
767.97	235.82
768.30	235.73
768.62	235.65
768.95	235.55
769.27	235.43
769.60	235.36
769.92	235.26
770.25	235.14
770.57	235.06
770.90	235.00
771.22	234.91
771.55	234.85
771.87	234.77
772.20	234.71
772.52	234.71
772.85	234.73
773.17	234.62
773.50	234.50
773.82	234.45
774.15	234.28
774.47	234.14
774.80	234.05
775.12	233.94
775.45	233.85
775.77	233.77
776.09	233.72
776.42	233.63
776.74	233.58
777.07	233.50
777.39	233.42
777.72	233.30
778.04	233.21
778.36	233.11
778.69	233.07
779.01	232.96
779.33	232.82
779.66	232.64
779.98	232.58
780.31	232.54
780.63	232.51
780.95	232.49
781.28	232.47
781.60	232.43
781.92	232.38
782.25	232.36
782.57	232.31
782.89	232.23
783.22	232.17
783.54	232.12
783.86	232.08
784.19	232.02
784.51	231.98
784.83	231.93
785.16	231.87
785.48	231.79
785.80	231.77
786.12	231.72
786.45	231.69
786.77	231.65
787.09	231.61
