SpectraSuite Data File
++++++++++++++++++++++++++++++++++++
Date: Fri Feb 01 17:38:52 EST 2013
User: group
Dark Spectrum Present: No
Reference Spectrum Present: No
Number of Sampled Component Spectra: 1
Spectrometers: USB2E7196
Integration Time (usec): 35000 (USB2E7196)
Spectra Averaged: 100 (USB2E7196)
Boxcar Smoothing: 10 (USB2E7196)
Correct for Electrical Dark: No (USB2E7196)
Strobe/Lamp Enabled: No (USB2E7196)
Correct for Detector Non-linearity: No (USB2E7196)
Correct for Stray Light: No (USB2E7196)
Number of Pixels in Processed Spectrum: 2048
>>>>>Begin Processed Spectral Data<<<<<
339.09	0.00
339.48	212.82
339.86	214.72
340.24	215.45
340.63	217.56
341.01	219.76
341.39	220.02
341.78	221.67
342.16	222.73
342.54	222.92
342.93	211.58
343.31	222.29
343.69	222.85
344.07	223.29
344.46	223.74
344.84	224.13
345.22	224.37
345.60	224.64
345.99	224.80
346.37	224.94
346.75	225.07
347.13	225.13
347.52	225.19
347.90	225.23
348.28	225.24
348.66	225.27
349.05	225.26
349.43	225.32
349.81	225.34
350.19	225.36
350.57	225.38
350.96	225.43
351.34	225.51
351.72	225.58
352.10	225.70
352.48	225.75
352.87	225.78
353.25	225.82
353.63	225.86
354.01	225.93
354.39	225.99
354.77	226.04
355.15	226.14
355.54	226.18
355.92	226.23
356.30	226.33
356.68	226.47
357.06	226.52
357.44	226.53
357.82	226.60
358.20	226.65
358.58	226.68
358.97	226.75
359.35	226.78
359.73	226.84
360.11	226.87
360.49	226.96
360.87	226.96
361.25	227.04
361.63	227.11
362.01	227.11
362.39	227.11
362.77	227.14
363.15	227.14
363.53	227.14
363.91	227.17
364.29	227.17
364.67	227.08
365.05	227.12
365.43	227.13
365.81	227.15
366.19	227.18
366.57	227.23
366.95	227.22
367.33	227.17
367.71	227.16
368.09	227.13
368.47	227.09
368.85	227.12
369.23	227.12
369.61	227.05
369.99	227.07
370.37	227.09
370.75	227.08
371.13	227.02
371.51	227.00
371.89	226.97
372.27	226.92
372.65	226.88
373.03	226.83
373.41	226.78
373.78	226.71
374.16	226.63
374.54	226.54
374.92	226.49
375.30	226.45
375.68	226.40
376.06	226.37
376.44	226.32
376.82	226.25
377.19	226.21
377.57	226.14
377.95	226.06
378.33	225.99
378.71	225.86
379.09	225.80
379.47	225.75
379.84	225.64
380.22	225.60
380.60	225.53
380.98	225.46
381.36	225.41
381.73	225.36
382.11	225.29
382.49	225.27
382.87	225.16
383.25	225.11
383.62	225.16
384.00	225.08
384.38	225.02
384.76	224.99
385.13	224.96
385.51	224.91
385.89	224.86
386.27	224.81
386.64	224.81
387.02	224.81
387.40	224.81
387.78	224.80
388.15	224.78
388.53	224.76
388.91	224.73
389.29	224.70
389.66	224.68
390.04	224.68
390.42	224.66
390.79	224.69
391.17	224.66
391.55	224.55
391.92	224.56
392.30	224.56
392.68	224.53
393.05	224.51
393.43	224.55
393.81	224.57
394.18	224.55
394.56	224.57
394.94	224.58
395.31	224.57
395.69	224.62
396.06	224.64
396.44	224.68
396.82	224.70
397.19	224.76
397.57	224.78
397.95	224.85
398.32	224.86
398.70	224.90
399.07	224.97
399.45	225.00
399.82	225.05
400.20	225.06
400.58	225.12
400.95	225.14
401.33	225.22
401.70	225.35
402.08	225.44
402.45	225.50
402.83	225.59
403.20	225.66
403.58	225.69
403.95	225.81
404.33	225.95
404.71	226.06
405.08	226.22
405.46	226.36
405.83	226.47
406.21	226.60
406.58	226.72
406.96	226.90
407.33	227.08
407.70	227.27
408.08	227.53
408.45	227.79
408.83	228.01
409.20	228.18
409.58	228.36
409.95	228.63
410.33	228.91
410.70	229.14
411.08	229.46
411.45	229.81
411.82	230.12
412.20	230.45
412.57	230.88
412.95	231.19
413.32	231.58
413.69	232.05
414.07	232.50
414.44	232.97
414.82	233.47
415.19	234.04
415.56	234.62
415.94	235.20
416.31	235.86
416.68	236.55
417.06	237.31
417.43	238.02
417.81	238.80
418.18	239.58
418.55	240.48
418.93	241.39
419.30	242.34
419.67	243.33
420.04	244.34
420.42	245.39
420.79	246.62
421.16	247.82
421.54	249.02
421.91	250.32
422.28	251.67
422.66	253.04
423.03	254.41
423.40	255.76
423.77	257.23
424.15	258.67
424.52	260.21
424.89	261.88
425.26	263.55
425.64	265.08
426.01	266.80
426.38	268.53
426.75	270.29
427.13	272.06
427.50	273.92
427.87	275.89
428.24	277.83
428.61	279.66
428.99	281.72
429.36	283.94
429.73	286.11
430.10	288.22
430.47	290.38
430.85	292.61
431.22	295.00
431.59	297.51
431.96	299.88
432.33	302.50
432.70	305.00
433.08	307.91
433.45	310.71
433.82	313.43
434.19	316.45
434.56	319.40
434.93	322.19
435.30	324.93
435.68	327.95
436.05	330.94
436.42	333.88
436.79	336.53
437.16	339.40
437.53	342.35
437.90	345.34
438.27	348.18
438.64	351.14
439.01	353.84
439.38	356.16
439.75	358.43
440.13	361.04
440.50	363.45
440.87	365.36
441.24	367.38
441.61	369.67
441.98	371.25
442.35	373.13
442.72	375.08
443.09	376.97
443.46	378.01
443.83	378.63
444.20	379.13
444.57	380.03
444.94	380.30
445.31	380.64
445.68	380.96
446.05	381.08
446.42	380.70
446.79	380.29
447.16	379.83
447.53	379.47
447.90	378.32
448.27	377.14
448.64	375.52
449.01	374.34
449.37	372.25
449.74	370.29
450.11	367.95
450.48	365.42
450.85	362.83
451.22	360.64
451.59	358.51
451.96	356.53
452.33	353.77
452.70	351.33
453.07	348.41
453.43	345.42
453.80	342.55
454.17	339.75
454.54	337.09
454.91	334.27
455.28	331.52
455.65	328.87
456.02	326.31
456.38	324.05
456.75	321.22
457.12	318.86
457.49	316.51
457.86	314.23
458.23	312.26
458.59	310.10
458.96	307.90
459.33	305.94
459.70	303.96
460.07	302.41
460.43	300.61
460.80	298.89
461.17	297.38
461.54	295.80
461.91	294.30
462.27	292.77
462.64	291.46
463.01	290.00
463.38	288.68
463.74	287.28
464.11	286.04
464.48	285.01
464.85	283.84
465.21	282.92
465.58	281.94
465.95	280.79
466.32	279.84
466.68	278.90
467.05	277.99
467.42	277.05
467.78	276.08
468.15	275.16
468.52	274.46
468.88	273.53
469.25	272.71
469.62	272.09
469.98	271.34
470.35	270.68
470.72	270.03
471.08	269.31
471.45	268.78
471.82	268.22
472.18	267.60
472.55	267.19
472.92	266.66
473.28	266.18
473.65	265.76
474.02	265.29
474.38	264.89
474.75	264.53
475.11	264.17
475.48	263.89
475.85	263.66
476.21	263.45
476.58	263.28
476.94	263.10
477.31	262.90
477.67	262.81
478.04	262.70
478.41	262.66
478.77	262.72
479.14	262.64
479.50	262.66
479.87	262.73
480.23	262.79
480.60	262.87
480.96	262.98
481.33	263.16
481.69	263.37
482.06	263.60
482.42	263.83
482.79	264.13
483.15	264.47
483.52	264.88
483.88	265.20
484.25	265.60
484.61	266.06
484.98	266.54
485.34	267.11
485.71	267.74
486.07	268.37
486.44	268.96
486.80	269.66
487.17	270.39
487.53	271.21
487.90	272.08
488.26	273.00
488.62	274.00
488.99	274.98
489.35	275.99
489.72	277.11
490.08	278.28
490.44	279.53
490.81	280.85
491.17	282.14
491.54	283.62
491.90	285.12
492.26	286.77
492.63	288.45
492.99	290.18
493.36	292.03
493.72	294.06
494.08	296.14
494.45	298.32
494.81	300.66
495.17	303.06
495.54	305.59
495.90	308.24
496.26	310.93
496.63	313.86
496.99	316.95
497.35	320.17
497.72	323.54
498.08	326.95
498.44	330.55
498.80	334.46
499.17	338.43
499.53	342.53
499.89	346.81
500.26	351.28
500.62	355.90
500.98	360.76
501.34	365.76
501.71	370.95
502.07	376.31
502.43	381.82
502.79	387.50
503.16	393.39
503.52	399.58
503.88	405.89
504.24	412.41
504.60	419.19
504.97	426.11
505.33	433.31
505.69	440.88
506.05	448.48
506.41	456.19
506.78	464.22
507.14	472.52
507.50	481.05
507.86	489.88
508.22	498.89
508.59	507.93
508.95	517.19
509.31	526.76
509.67	536.61
510.03	546.64
510.39	556.99
510.75	567.57
511.12	578.12
511.48	589.12
511.84	600.23
512.20	611.39
512.56	623.01
512.92	634.81
513.28	646.87
513.64	658.92
514.00	671.30
514.37	683.82
514.73	696.48
515.09	709.06
515.45	721.89
515.81	734.99
516.17	748.55
516.53	762.29
516.89	776.08
517.25	789.93
517.61	803.90
517.97	817.84
518.33	831.94
518.69	846.34
519.05	860.85
519.41	875.58
519.77	890.60
520.13	905.45
520.49	920.42
520.85	935.24
521.21	950.43
521.57	966.10
521.93	981.38
522.29	997.18
522.65	1012.99
523.01	1028.66
523.37	1044.20
523.73	1059.76
524.09	1075.34
524.45	1090.97
524.81	1106.98
525.17	1123.14
525.53	1139.46
525.89	1155.58
526.25	1171.85
526.61	1187.70
526.97	1203.88
527.33	1219.84
527.68	1235.87
528.04	1251.78
528.40	1267.79
528.76	1284.34
529.12	1300.46
529.48	1316.79
529.84	1332.39
530.20	1348.45
530.56	1364.87
530.91	1381.78
531.27	1398.04
531.63	1414.00
531.99	1430.21
532.35	1445.76
532.71	1461.30
533.07	1477.16
533.42	1492.77
533.78	1508.41
534.14	1524.28
534.50	1539.29
534.86	1554.79
535.21	1569.85
535.57	1585.32
535.93	1600.33
536.29	1614.75
536.65	1629.33
537.00	1643.69
537.36	1658.62
537.72	1672.78
538.08	1686.90
538.44	1700.41
538.79	1714.19
539.15	1727.54
539.51	1741.02
539.87	1755.07
540.22	1768.49
540.58	1781.77
540.94	1794.62
541.29	1807.11
541.65	1819.48
542.01	1832.46
542.37	1844.57
542.72	1856.63
543.08	1868.35
543.44	1880.69
543.79	1891.96
544.15	1902.83
544.51	1914.34
544.87	1925.18
545.22	1936.05
545.58	1946.23
545.94	1955.86
546.29	1965.61
546.65	1975.58
547.01	1984.92
547.36	1993.64
547.72	2002.23
548.07	2010.66
548.43	2018.99
548.79	2027.00
549.14	2034.88
549.50	2042.25
549.86	2049.89
550.21	2057.44
550.57	2064.80
550.92	2071.53
551.28	2078.73
551.64	2086.15
551.99	2092.86
552.35	2099.28
552.70	2105.69
553.06	2112.14
553.41	2118.88
553.77	2125.11
554.13	2131.31
554.48	2137.57
554.84	2143.67
555.19	2149.07
555.55	2154.38
555.90	2159.27
556.26	2164.88
556.61	2169.80
556.97	2174.61
557.32	2179.32
557.68	2183.75
558.03	2188.26
558.39	2192.31
558.74	2197.20
559.10	2201.29
559.45	2205.26
559.81	2209.94
560.16	2214.07
560.52	2217.58
560.87	2221.25
561.23	2224.44
561.58	2227.63
561.94	2230.64
562.29	2233.18
562.64	2236.68
563.00	2239.58
563.35	2243.48
563.71	2246.81
564.06	2250.24
564.42	2253.52
564.77	2256.48
565.12	2259.37
565.48	2261.90
565.83	2264.46
566.19	2266.46
566.54	2267.71
566.89	2269.50
567.25	2270.54
567.60	2272.13
567.96	2274.47
568.31	2275.90
568.66	2277.33
569.02	2278.51
569.37	2279.37
569.72	2280.67
570.08	2281.13
570.43	2281.57
570.78	2281.62
571.14	2280.76
571.49	2279.98
571.84	2279.82
572.20	2279.21
572.55	2278.60
572.90	2277.31
573.26	2276.15
573.61	2274.53
573.96	2273.65
574.31	2271.10
574.67	2268.63
575.02	2265.52
575.37	2262.23
575.72	2258.95
576.08	2255.95
576.43	2252.76
576.78	2249.67
577.13	2246.73
577.49	2243.71
577.84	2240.81
578.19	2237.31
578.54	2234.09
578.90	2230.44
579.25	2225.46
579.60	2220.95
579.95	2216.54
580.30	2211.97
580.66	2207.43
581.01	2202.85
581.36	2198.02
581.71	2194.43
582.06	2190.42
582.42	2186.54
582.77	2181.90
583.12	2177.67
583.47	2173.54
583.82	2169.32
584.17	2164.36
584.53	2159.30
584.88	2154.24
585.23	2148.88
585.58	2143.73
585.93	2138.48
586.28	2133.88
586.63	2129.20
586.98	2124.33
587.34	2119.65
587.69	2114.93
588.04	2110.02
588.39	2104.93
588.74	2098.72
589.09	2092.67
589.44	2086.17
589.79	2080.02
590.14	2074.39
590.49	2067.96
590.84	2061.62
591.19	2055.64
591.54	2049.28
591.89	2042.32
592.25	2035.94
592.60	2028.88
592.95	2021.69
593.30	2014.51
593.65	2007.16
594.00	2000.39
594.35	1993.29
594.70	1985.29
595.05	1978.58
595.40	1971.31
595.75	1963.81
596.10	1957.96
596.45	1951.47
596.80	1945.33
597.15	1939.10
597.50	1932.53
597.85	1926.34
598.19	1919.91
598.54	1913.25
598.89	1906.83
599.24	1900.97
599.59	1894.55
599.94	1888.39
600.29	1882.01
600.64	1875.49
600.99	1868.18
601.34	1861.35
601.69	1854.36
602.04	1847.79
602.39	1840.34
602.74	1833.56
603.08	1827.05
603.43	1820.29
603.78	1813.03
604.13	1805.97
604.48	1798.96
604.83	1792.09
605.18	1785.31
605.53	1777.48
605.87	1769.58
606.22	1762.37
606.57	1754.48
606.92	1746.84
607.27	1739.90
607.62	1733.17
607.96	1726.21
608.31	1719.83
608.66	1712.39
609.01	1705.12
609.36	1697.77
609.70	1689.87
610.05	1682.07
610.40	1674.34
610.75	1666.16
611.10	1658.41
611.44	1649.96
611.79	1641.68
612.14	1632.97
612.49	1623.77
612.83	1615.24
613.18	1606.87
613.53	1598.69
613.88	1590.12
614.22	1581.81
614.57	1572.90
614.92	1564.80
615.27	1557.23
615.61	1548.91
615.96	1540.70
616.31	1532.81
616.65	1525.22
617.00	1517.63
617.35	1509.82
617.70	1501.55
618.04	1493.04
618.39	1484.73
618.74	1477.18
619.08	1468.94
619.43	1461.34
619.78	1454.18
620.12	1447.10
620.47	1439.67
620.82	1431.46
621.16	1423.76
621.51	1416.15
621.85	1408.43
622.20	1399.89
622.55	1391.30
622.89	1383.22
623.24	1375.64
623.59	1368.07
623.93	1360.43
624.28	1353.05
624.62	1345.49
624.97	1338.17
625.32	1331.12
625.66	1323.99
626.01	1316.74
626.35	1309.41
626.70	1301.51
627.04	1293.79
627.39	1285.91
627.73	1278.37
628.08	1271.28
628.43	1264.30
628.77	1257.01
629.12	1249.55
629.46	1242.22
629.81	1234.59
630.15	1227.28
630.50	1219.80
630.84	1211.72
631.19	1203.67
631.53	1196.01
631.88	1188.32
632.22	1180.67
632.57	1173.33
632.91	1165.74
633.26	1158.28
633.60	1150.60
633.95	1143.32
634.29	1136.16
634.64	1129.30
634.98	1121.91
635.32	1114.82
635.67	1107.95
636.01	1101.09
636.36	1094.25
636.70	1087.66
637.05	1081.13
637.39	1074.49
637.73	1067.89
638.08	1061.90
638.42	1055.94
638.77	1049.53
639.11	1042.96
639.45	1036.52
639.80	1029.86
640.14	1023.56
640.49	1016.95
640.83	1010.71
641.17	1004.56
641.52	998.27
641.86	991.83
642.20	985.88
642.55	979.39
642.89	972.98
643.23	966.37
643.58	960.49
643.92	954.34
644.26	948.32
644.61	942.23
644.95	936.20
645.29	929.67
645.64	922.90
645.98	916.46
646.32	910.37
646.66	904.25
647.01	898.39
647.35	892.62
647.69	886.65
648.04	881.04
648.38	875.18
648.72	869.24
649.06	863.21
649.41	857.25
649.75	851.41
650.09	845.38
650.43	839.65
650.78	833.46
651.12	827.47
651.46	821.66
651.80	816.13
652.14	810.63
652.49	805.26
652.83	800.09
653.17	794.58
653.51	789.00
653.85	783.55
654.20	777.93
654.54	771.89
654.88	766.19
655.22	760.28
655.56	754.51
655.90	748.95
656.25	743.62
656.59	738.24
656.93	733.08
657.27	727.89
657.61	722.44
657.95	717.36
658.29	712.21
658.64	706.86
658.98	701.41
659.32	695.94
659.66	690.69
660.00	685.45
660.34	680.47
660.68	675.53
661.02	670.46
661.36	665.76
661.70	661.24
662.05	656.88
662.39	652.64
662.73	648.25
663.07	643.80
663.41	639.45
663.75	635.07
664.09	630.52
664.43	626.20
664.77	622.14
665.11	617.91
665.45	613.81
665.79	609.82
666.13	605.75
666.47	601.65
666.81	597.53
667.15	593.30
667.49	589.29
667.83	585.39
668.17	581.46
668.51	577.41
668.85	573.39
669.19	569.42
669.53	565.52
669.87	561.72
670.21	558.06
670.55	554.30
670.89	550.76
671.23	547.28
671.57	543.67
671.91	540.11
672.25	536.57
672.58	533.02
672.92	529.56
673.26	526.25
673.60	523.05
673.94	519.95
674.28	516.97
674.62	514.05
674.96	510.96
675.30	508.07
675.64	505.11
675.97	502.29
676.31	499.46
676.65	496.51
676.99	493.68
677.33	490.78
677.67	487.93
678.01	484.96
678.34	481.97
678.68	479.11
679.02	476.28
679.36	473.48
679.70	470.76
680.04	468.02
680.37	465.28
680.71	462.45
681.05	459.75
681.39	457.05
681.73	454.33
682.06	451.80
682.40	449.22
682.74	446.64
683.08	444.05
683.42	441.39
683.75	438.87
684.09	436.33
684.43	433.78
684.77	431.29
685.10	428.86
685.44	426.55
685.78	424.20
686.12	421.87
686.45	419.55
686.79	417.20
687.13	414.96
687.46	412.71
687.80	410.57
688.14	408.29
688.48	406.24
688.81	404.07
689.15	401.91
689.49	399.75
689.82	397.67
690.16	395.53
690.50	393.56
690.83	391.57
691.17	389.49
691.51	387.61
691.84	385.79
692.18	383.86
692.52	381.89
692.85	379.95
693.19	378.07
693.52	376.24
693.86	374.40
694.20	372.60
694.53	370.81
694.87	368.97
695.21	367.17
695.54	365.27
695.88	363.47
696.21	361.69
696.55	359.96
696.88	358.21
697.22	356.54
697.56	354.90
697.89	353.24
698.23	351.70
698.56	350.09
698.90	348.49
699.23	346.87
699.57	345.30
699.90	343.74
700.24	342.18
700.58	340.64
700.91	339.15
701.25	337.69
701.58	336.29
701.92	334.89
702.25	333.54
702.59	332.18
702.92	330.87
703.26	329.54
703.59	328.28
703.93	327.11
704.26	325.87
704.60	324.58
704.93	323.30
705.26	322.03
705.60	320.80
705.93	319.59
706.27	318.54
706.60	317.47
706.94	316.31
707.27	315.13
707.61	313.97
707.94	312.88
708.27	311.74
708.61	310.62
708.94	309.55
709.28	308.50
709.61	307.53
709.94	306.54
710.28	305.53
710.61	304.51
710.95	303.38
711.28	302.45
711.61	301.46
711.95	300.54
712.28	299.58
712.61	298.58
712.95	297.67
713.28	296.74
713.61	295.81
713.95	294.94
714.28	294.10
714.61	293.27
714.95	292.45
715.28	291.63
715.61	290.74
715.95	289.91
716.28	289.05
716.61	288.19
716.95	287.34
717.28	286.51
717.61	285.71
717.94	284.97
718.28	284.14
718.61	283.40
718.94	282.67
719.27	281.98
719.61	281.34
719.94	280.64
720.27	279.87
720.60	279.18
720.94	278.53
721.27	277.91
721.60	277.28
721.93	276.64
722.27	276.05
722.60	275.46
722.93	274.84
723.26	274.31
723.59	273.74
723.93	273.17
724.26	272.58
724.59	272.01
724.92	271.45
725.25	270.96
725.59	270.44
725.92	269.88
726.25	269.35
726.58	268.81
726.91	268.31
727.24	267.83
727.57	267.38
727.91	266.82
728.24	266.34
728.57	265.86
728.90	265.38
729.23	264.90
729.56	264.49
729.89	264.05
730.22	263.54
730.55	263.07
730.89	262.64
731.22	262.23
731.55	261.82
731.88	261.40
732.21	260.97
732.54	260.50
732.87	260.10
733.20	259.66
733.53	259.26
733.86	258.87
734.19	258.50
734.52	258.08
734.85	257.80
735.18	257.39
735.51	257.07
735.84	256.71
736.17	256.34
736.50	255.89
736.83	255.65
737.16	255.33
737.49	255.00
737.82	254.64
738.15	254.30
738.48	253.93
738.81	253.63
739.14	253.30
739.47	252.99
739.80	252.70
740.13	252.40
740.46	252.11
740.79	251.77
741.12	251.45
741.45	251.15
741.78	250.78
742.11	250.51
742.44	250.15
742.77	249.83
743.10	249.51
743.43	249.23
743.75	248.86
744.08	248.72
744.41	248.45
744.74	248.18
745.07	247.91
745.40	247.64
745.73	247.41
746.06	247.12
746.39	246.87
746.71	246.58
747.04	246.28
747.37	246.00
747.70	245.75
748.03	245.49
748.36	245.25
748.68	245.02
749.01	244.74
749.34	244.50
749.67	244.29
750.00	244.07
750.33	243.91
750.65	243.67
750.98	243.28
751.31	243.01
751.64	242.82
751.97	242.68
752.29	242.49
752.62	242.19
752.95	241.99
753.28	241.73
753.60	241.51
753.93	241.36
754.26	241.17
754.59	240.94
754.91	240.73
755.24	240.51
755.57	240.31
755.90	240.11
756.22	239.92
756.55	239.69
756.88	239.46
757.20	239.23
757.53	239.03
757.86	238.83
758.19	238.67
758.51	238.46
758.84	238.25
759.17	238.07
759.49	237.93
759.82	237.79
760.15	237.68
760.47	237.54
760.80	237.38
761.13	237.22
761.45	237.10
761.78	236.96
762.11	236.82
762.43	236.67
762.76	236.54
763.08	236.43
763.41	236.29
763.74	236.18
764.06	236.01
764.39	235.89
764.71	235.75
765.04	235.63
765.37	235.50
765.69	235.33
766.02	235.16
766.34	235.03
766.67	234.88
767.00	234.76
767.32	234.69
767.65	234.61
767.97	234.52
768.30	234.42
768.62	234.30
768.95	234.19
769.27	234.11
769.60	234.00
769.92	233.87
770.25	233.75
770.57	233.66
770.90	233.59
771.22	233.47
771.55	233.42
771.87	233.31
772.20	233.22
772.52	233.22
772.85	233.25
773.17	233.14
773.50	233.04
773.82	232.92
774.15	232.76
774.47	232.59
774.80	232.49
775.12	232.36
775.45	232.29
775.77	232.20
776.09	232.08
776.42	232.00
776.74	231.94
777.07	231.88
777.39	231.83
777.72	231.71
778.04	231.65
778.36	231.56
778.69	231.50
779.01	231.40
779.33	231.23
779.66	231.06
779.98	230.98
780.31	230.90
780.63	230.90
780.95	230.87
781.28	230.80
781.60	230.72
781.92	230.67
782.25	230.61
782.57	230.53
782.89	230.52
783.22	230.44
783.54	230.35
783.86	230.27
784.19	230.22
784.51	230.22
784.83	230.18
785.16	230.11
785.48	230.04
785.80	230.01
786.12	229.97
786.45	229.94
786.77	229.89
787.09	229.87
