SpectraSuite Data File
++++++++++++++++++++++++++++++++++++
Date: Fri Feb 01 15:46:24 EST 2013
User: group
Dark Spectrum Present: No
Reference Spectrum Present: No
Number of Sampled Component Spectra: 1
Spectrometers: USB2E7196
Integration Time (usec): 35000 (USB2E7196)
Spectra Averaged: 100 (USB2E7196)
Boxcar Smoothing: 10 (USB2E7196)
Correct for Electrical Dark: No (USB2E7196)
Strobe/Lamp Enabled: No (USB2E7196)
Correct for Detector Non-linearity: No (USB2E7196)
Correct for Stray Light: No (USB2E7196)
Number of Pixels in Processed Spectrum: 2048
>>>>>Begin Processed Spectral Data<<<<<
339.09	0.00
339.48	214.77
339.86	216.37
340.24	217.93
340.63	218.91
341.01	221.99
341.39	221.54
341.78	222.98
342.16	224.61
342.54	224.65
342.93	213.29
343.31	224.06
343.69	224.60
344.07	225.03
344.46	225.42
344.84	225.82
345.22	226.02
345.60	226.28
345.99	226.49
346.37	226.61
346.75	226.70
347.13	226.74
347.52	226.78
347.90	226.86
348.28	226.86
348.66	226.92
349.05	226.92
349.43	226.97
349.81	227.02
350.19	227.04
350.57	227.11
350.96	227.16
351.34	227.22
351.72	227.37
352.10	227.52
352.48	227.61
352.87	227.64
353.25	227.78
353.63	227.83
354.01	227.91
354.39	227.98
354.77	228.08
355.15	228.19
355.54	228.24
355.92	228.25
356.30	228.35
356.68	228.45
357.06	228.49
357.44	228.53
357.82	228.59
358.20	228.65
358.58	228.73
358.97	228.82
359.35	228.94
359.73	228.94
360.11	228.96
360.49	229.03
360.87	229.08
361.25	229.11
361.63	229.18
362.01	229.19
362.39	229.24
362.77	229.28
363.15	229.32
363.53	229.37
363.91	229.44
364.29	229.46
364.67	229.39
365.05	229.43
365.43	229.44
365.81	229.49
366.19	229.53
366.57	229.56
366.95	229.55
367.33	229.51
367.71	229.51
368.09	229.55
368.47	229.52
368.85	229.48
369.23	229.47
369.61	229.43
369.99	229.44
370.37	229.39
370.75	229.40
371.13	229.34
371.51	229.28
371.89	229.21
372.27	229.17
372.65	229.13
373.03	229.03
373.41	228.99
373.78	228.87
374.16	228.73
374.54	228.62
374.92	228.53
375.30	228.45
375.68	228.36
376.06	228.28
376.44	228.21
376.82	228.14
377.19	228.09
377.57	228.00
377.95	227.89
378.33	227.80
378.71	227.68
379.09	227.61
379.47	227.53
379.84	227.42
380.22	227.34
380.60	227.26
380.98	227.24
381.36	227.16
381.73	227.11
382.11	227.10
382.49	227.05
382.87	227.00
383.25	226.95
383.62	226.98
384.00	226.90
384.38	226.86
384.76	226.84
385.13	226.78
385.51	226.76
385.89	226.70
386.27	226.69
386.64	226.66
387.02	226.58
387.40	226.54
387.78	226.53
388.15	226.50
388.53	226.45
388.91	226.42
389.29	226.40
389.66	226.38
390.04	226.29
390.42	226.28
390.79	226.25
391.17	226.22
391.55	226.14
391.92	226.14
392.30	226.16
392.68	226.12
393.05	226.15
393.43	226.12
393.81	226.15
394.18	226.14
394.56	226.14
394.94	226.23
395.31	226.25
395.69	226.32
396.06	226.36
396.44	226.41
396.82	226.43
397.19	226.50
397.57	226.54
397.95	226.65
398.32	226.64
398.70	226.69
399.07	226.77
399.45	226.83
399.82	226.87
400.20	226.94
400.58	227.02
400.95	227.05
401.33	227.17
401.70	227.32
402.08	227.38
402.45	227.47
402.83	227.54
403.20	227.65
403.58	227.73
403.95	227.85
404.33	228.00
404.71	228.15
405.08	228.31
405.46	228.43
405.83	228.56
406.21	228.74
406.58	228.91
406.96	229.08
407.33	229.24
407.70	229.44
408.08	229.68
408.45	229.87
408.83	230.04
409.20	230.25
409.58	230.41
409.95	230.69
410.33	230.96
410.70	231.22
411.08	231.54
411.45	231.86
411.82	232.17
412.20	232.47
412.57	232.85
412.95	233.16
413.32	233.58
413.69	233.99
414.07	234.45
414.44	234.95
414.82	235.40
415.19	235.95
415.56	236.52
415.94	237.05
416.31	237.72
416.68	238.38
417.06	239.10
417.43	239.79
417.81	240.57
418.18	241.35
418.55	242.21
418.93	243.06
419.30	243.93
419.67	244.85
420.04	245.82
420.42	246.82
420.79	247.98
421.16	249.14
421.54	250.33
421.91	251.52
422.28	252.75
422.66	254.11
423.03	255.41
423.40	256.73
423.77	258.17
424.15	259.57
424.52	261.07
424.89	262.67
425.26	264.20
425.64	265.60
426.01	267.20
426.38	268.82
426.75	270.50
427.13	272.24
427.50	274.09
427.87	276.00
428.24	277.87
428.61	279.63
428.99	281.62
429.36	283.75
429.73	285.80
430.10	287.82
430.47	289.88
430.85	292.00
431.22	294.22
431.59	296.58
431.96	298.80
432.33	301.32
432.70	303.71
433.08	306.56
433.45	309.27
433.82	311.88
434.19	314.82
434.56	317.66
434.93	320.31
435.30	322.88
435.68	325.76
436.05	328.60
436.42	331.41
436.79	333.88
437.16	336.56
437.53	339.41
437.90	342.23
438.27	344.99
438.64	347.81
439.01	350.42
439.38	352.68
439.75	354.88
440.13	357.34
440.50	359.70
440.87	361.57
441.24	363.52
441.61	365.69
441.98	367.19
442.35	368.93
442.72	370.83
443.09	372.64
443.46	373.63
443.83	374.22
444.20	374.76
444.57	375.58
444.94	375.92
445.31	376.25
445.68	376.62
446.05	376.68
446.42	376.30
446.79	375.87
447.16	375.38
447.53	375.07
447.90	373.89
448.27	372.70
448.64	371.09
449.01	369.88
449.37	367.92
449.74	366.00
450.11	363.79
450.48	361.28
450.85	358.79
451.22	356.64
451.59	354.57
451.96	352.61
452.33	350.01
452.70	347.61
453.07	344.78
453.43	341.87
453.80	339.08
454.17	336.41
454.54	333.87
454.91	331.20
455.28	328.53
455.65	326.07
456.02	323.62
456.38	321.48
456.75	318.87
457.12	316.61
457.49	314.39
457.86	312.19
458.23	310.32
458.59	308.27
458.96	306.18
459.33	304.36
459.70	302.48
460.07	300.99
460.43	299.26
460.80	297.64
461.17	296.20
461.54	294.74
461.91	293.34
462.27	291.90
462.64	290.64
463.01	289.28
463.38	287.95
463.74	286.56
464.11	285.38
464.48	284.31
464.85	283.20
465.21	282.29
465.58	281.38
465.95	280.28
466.32	279.38
466.68	278.51
467.05	277.59
467.42	276.69
467.78	275.72
468.15	274.86
468.52	274.19
468.88	273.33
469.25	272.55
469.62	271.90
469.98	271.21
470.35	270.58
470.72	270.01
471.08	269.39
471.45	268.88
471.82	268.38
472.18	267.79
472.55	267.35
472.92	266.84
473.28	266.36
473.65	265.92
474.02	265.49
474.38	265.09
474.75	264.78
475.11	264.46
475.48	264.24
475.85	264.01
476.21	263.78
476.58	263.60
476.94	263.46
477.31	263.33
477.67	263.20
478.04	263.11
478.41	263.07
478.77	263.07
479.14	263.01
479.50	262.98
479.87	263.05
480.23	263.17
480.60	263.25
480.96	263.36
481.33	263.59
481.69	263.77
482.06	264.00
482.42	264.18
482.79	264.40
483.15	264.72
483.52	265.10
483.88	265.46
484.25	265.82
484.61	266.25
484.98	266.66
485.34	267.22
485.71	267.81
486.07	268.39
486.44	268.98
486.80	269.67
487.17	270.42
487.53	271.25
487.90	272.09
488.26	273.05
488.62	274.04
488.99	275.01
489.35	276.04
489.72	277.11
490.08	278.33
490.44	279.60
490.81	280.98
491.17	282.36
491.54	283.83
491.90	285.38
492.26	287.02
492.63	288.74
492.99	290.49
493.36	292.36
493.72	294.43
494.08	296.53
494.45	298.83
494.81	301.15
495.17	303.53
495.54	306.08
495.90	308.70
496.26	311.48
496.63	314.44
496.99	317.57
497.35	320.87
497.72	324.26
498.08	327.80
498.44	331.40
498.80	335.29
499.17	339.32
499.53	343.49
499.89	347.85
500.26	352.41
500.62	357.11
500.98	362.05
501.34	367.12
501.71	372.47
502.07	377.88
502.43	383.53
502.79	389.41
503.16	395.51
503.52	401.81
503.88	408.25
504.24	414.85
504.60	421.73
504.97	428.84
505.33	436.17
505.69	443.85
506.05	451.71
506.41	459.58
506.78	467.76
507.14	476.21
507.50	484.99
507.86	493.99
508.22	503.10
508.59	512.41
508.95	521.96
509.31	531.77
509.67	541.91
510.03	552.17
510.39	562.69
510.75	573.45
511.12	584.39
511.48	595.69
511.84	607.26
512.20	618.83
512.56	630.82
512.92	643.05
513.28	655.41
513.64	667.83
514.00	680.59
514.37	693.52
514.73	706.57
515.09	719.57
515.45	732.93
515.81	746.63
516.17	760.58
516.53	774.71
516.89	788.95
517.25	803.07
517.61	817.59
517.97	832.09
518.33	846.58
518.69	861.35
519.05	876.42
519.41	891.53
519.77	907.03
520.13	922.55
520.49	937.89
520.85	953.35
521.21	969.11
521.57	985.30
521.93	1001.10
522.29	1017.59
522.65	1033.81
523.01	1050.04
523.37	1066.07
523.73	1082.23
524.09	1098.29
524.45	1114.55
524.81	1131.25
525.17	1148.01
525.53	1164.98
525.89	1181.81
526.25	1198.73
526.61	1215.05
526.97	1231.69
527.33	1248.19
527.68	1264.66
528.04	1281.23
528.40	1297.87
528.76	1314.94
529.12	1331.61
529.48	1348.57
529.84	1364.63
530.20	1381.43
530.56	1398.47
530.91	1415.84
531.27	1432.67
531.63	1449.20
531.99	1465.81
532.35	1481.70
532.71	1497.64
533.07	1513.94
533.42	1529.80
533.78	1545.76
534.14	1562.07
534.50	1577.42
534.86	1593.35
535.21	1608.58
535.57	1624.51
535.93	1640.01
536.29	1654.64
536.65	1669.66
537.00	1684.24
537.36	1699.43
537.72	1713.86
538.08	1728.21
538.44	1742.12
538.79	1755.90
539.15	1769.52
539.51	1783.28
539.87	1797.67
540.22	1811.51
540.58	1825.07
540.94	1838.47
541.29	1851.31
541.65	1863.95
542.01	1877.21
542.37	1889.38
542.72	1901.84
543.08	1913.58
543.44	1925.98
543.79	1937.42
544.15	1948.34
544.51	1960.12
544.87	1971.09
545.22	1981.98
545.58	1992.11
545.94	2001.80
546.29	2011.70
546.65	2021.54
547.01	2030.78
547.36	2039.49
547.72	2047.67
548.07	2055.54
548.43	2063.75
548.79	2071.94
549.14	2079.36
549.50	2086.78
549.86	2094.62
550.21	2101.84
550.57	2108.84
550.92	2115.23
551.28	2122.22
551.64	2129.29
551.99	2135.68
552.35	2141.75
552.70	2147.73
553.06	2153.86
553.41	2160.20
553.77	2166.28
554.13	2172.44
554.48	2178.64
554.84	2184.12
555.19	2189.54
555.55	2194.73
555.90	2199.22
556.26	2204.02
556.61	2208.91
556.97	2213.12
557.32	2217.21
557.68	2221.24
558.03	2225.64
558.39	2229.49
558.74	2234.12
559.10	2238.07
559.45	2241.77
559.81	2246.21
560.16	2250.21
560.52	2253.39
560.87	2256.71
561.23	2259.30
561.58	2262.21
561.94	2264.76
562.29	2267.16
562.64	2269.74
563.00	2272.38
563.35	2275.91
563.71	2279.03
564.06	2282.20
564.42	2285.13
564.77	2287.59
565.12	2290.12
565.48	2292.04
565.83	2293.95
566.19	2295.19
566.54	2296.09
566.89	2297.21
567.25	2297.81
567.60	2298.92
567.96	2300.53
568.31	2301.43
568.66	2302.51
569.02	2303.07
569.37	2303.26
569.72	2303.98
570.08	2304.13
570.43	2304.06
570.78	2303.37
571.14	2301.79
571.49	2300.42
571.84	2300.17
572.20	2298.99
572.55	2298.00
572.90	2296.46
573.26	2294.96
573.61	2293.28
573.96	2291.55
574.31	2288.62
574.67	2285.56
575.02	2282.04
575.37	2278.73
575.72	2274.76
576.08	2271.51
576.43	2268.18
576.78	2264.52
577.13	2261.51
577.49	2258.56
577.84	2255.12
578.19	2251.41
578.54	2247.75
578.90	2243.56
579.25	2237.72
579.60	2232.81
579.95	2227.70
580.30	2222.61
580.66	2217.48
581.01	2212.50
581.36	2207.51
581.71	2203.19
582.06	2198.62
582.42	2194.09
582.77	2188.80
583.12	2184.42
583.47	2179.52
583.82	2174.54
584.17	2169.21
584.53	2163.47
584.88	2157.61
585.23	2151.74
585.58	2146.28
585.93	2140.86
586.28	2136.09
586.63	2131.11
586.98	2126.03
587.34	2121.28
587.69	2116.42
588.04	2111.13
588.39	2105.51
588.74	2098.97
589.09	2092.89
589.44	2086.08
589.79	2080.17
590.14	2074.50
590.49	2067.84
590.84	2061.67
591.19	2055.56
591.54	2049.19
591.89	2041.94
592.25	2035.22
592.60	2028.13
592.95	2020.47
593.30	2013.04
593.65	2005.38
594.00	1998.35
594.35	1991.01
594.70	1983.00
595.05	1975.77
595.40	1968.42
595.75	1960.86
596.10	1954.53
596.45	1947.77
596.80	1941.71
597.15	1935.01
597.50	1927.96
597.85	1921.65
598.19	1914.78
598.54	1907.69
598.89	1900.89
599.24	1894.99
599.59	1888.28
599.94	1882.04
600.29	1875.69
600.64	1869.26
600.99	1861.80
601.34	1854.99
601.69	1848.05
602.04	1841.03
602.39	1833.75
602.74	1826.95
603.08	1820.25
603.43	1813.60
603.78	1806.25
604.13	1799.03
604.48	1791.56
604.83	1784.71
605.18	1777.61
605.53	1769.62
605.87	1761.58
606.22	1754.34
606.57	1746.42
606.92	1739.22
607.27	1731.93
607.62	1725.07
607.96	1717.62
608.31	1710.94
608.66	1703.29
609.01	1695.78
609.36	1688.20
609.70	1680.10
610.05	1671.96
610.40	1664.22
610.75	1655.86
611.10	1648.24
611.44	1639.82
611.79	1631.91
612.14	1623.24
612.49	1614.03
612.83	1605.61
613.18	1597.47
613.53	1589.39
613.88	1580.81
614.22	1572.34
614.57	1563.88
614.92	1555.70
615.27	1548.14
615.61	1539.84
615.96	1531.81
616.31	1524.14
616.65	1516.77
617.00	1509.25
617.35	1501.75
617.70	1493.46
618.04	1485.10
618.39	1476.79
618.74	1469.11
619.08	1460.85
619.43	1453.21
619.78	1446.33
620.12	1439.28
620.47	1431.75
620.82	1423.68
621.16	1416.29
621.51	1408.78
621.85	1401.09
622.20	1392.60
622.55	1384.24
622.89	1376.51
623.24	1368.88
623.59	1361.52
623.93	1354.01
624.28	1346.77
624.62	1339.05
624.97	1331.78
625.32	1325.08
625.66	1318.11
626.01	1310.86
626.35	1303.40
626.70	1295.65
627.04	1287.93
627.39	1280.07
627.73	1272.67
628.08	1265.71
628.43	1258.39
628.77	1250.92
629.12	1243.36
629.46	1236.26
629.81	1228.83
630.15	1221.51
630.50	1214.23
630.84	1205.98
631.19	1198.09
631.53	1190.57
631.88	1183.15
632.22	1175.55
632.57	1168.05
632.91	1160.43
633.26	1153.10
633.60	1145.81
633.95	1138.74
634.29	1131.70
634.64	1125.09
634.98	1117.75
635.32	1110.64
635.67	1104.04
636.01	1097.43
636.36	1090.53
636.70	1083.96
637.05	1077.40
637.39	1070.93
637.73	1064.23
638.08	1058.41
638.42	1052.40
638.77	1045.91
639.11	1039.23
639.45	1032.92
639.80	1026.30
640.14	1019.93
640.49	1013.38
640.83	1006.97
641.17	1000.73
641.52	994.31
641.86	987.86
642.20	982.01
642.55	975.63
642.89	969.13
643.23	962.53
643.58	956.80
643.92	950.62
644.26	944.62
644.61	938.61
644.95	932.53
645.29	925.85
645.64	919.11
645.98	912.81
646.32	906.99
646.66	900.81
647.01	895.01
647.35	889.28
647.69	883.54
648.04	878.05
648.38	872.13
648.72	866.20
649.06	860.18
649.41	854.34
649.75	848.31
650.09	842.40
650.43	836.77
650.78	830.62
651.12	824.68
651.46	818.93
651.80	813.15
652.14	807.84
652.49	802.44
652.83	797.27
653.17	791.49
653.51	785.76
653.85	780.49
654.20	774.81
654.54	768.84
654.88	763.08
655.22	757.22
655.56	751.64
655.90	746.13
656.25	740.83
656.59	735.48
656.93	730.51
657.27	725.31
657.61	719.80
657.95	714.74
658.29	709.63
658.64	704.38
658.98	699.10
659.32	693.64
659.66	688.53
660.00	683.21
660.34	678.26
660.68	673.33
661.02	668.25
661.36	663.58
661.70	659.09
662.05	654.71
662.39	650.32
662.73	645.79
663.07	641.46
663.41	637.03
663.75	632.46
664.09	627.83
664.43	623.42
664.77	619.32
665.11	615.07
665.45	610.99
665.79	606.91
666.13	602.78
666.47	598.70
666.81	594.48
667.15	590.36
667.49	586.53
667.83	582.75
668.17	578.83
668.51	574.75
668.85	570.69
669.19	566.90
669.53	563.10
669.87	559.28
670.21	555.62
670.55	551.91
670.89	548.52
671.23	545.10
671.57	541.62
671.91	538.04
672.25	534.55
672.58	530.97
672.92	527.54
673.26	524.39
673.60	521.20
673.94	518.11
674.28	515.18
674.62	512.20
674.96	509.03
675.30	506.11
675.64	503.16
675.97	500.38
676.31	497.39
676.65	494.38
676.99	491.61
677.33	488.70
677.67	485.87
678.01	482.80
678.34	479.81
678.68	476.91
679.02	474.13
679.36	471.37
679.70	468.69
680.04	465.94
680.37	463.04
680.71	460.31
681.05	457.67
681.39	454.96
681.73	452.32
682.06	449.80
682.40	447.24
682.74	444.70
683.08	442.14
683.42	439.57
683.75	437.07
684.09	434.56
684.43	432.09
684.77	429.65
685.10	427.33
685.44	425.03
685.78	422.77
686.12	420.52
686.45	418.19
686.79	415.85
687.13	413.63
687.46	411.43
687.80	409.24
688.14	407.02
688.48	404.93
688.81	402.69
689.15	400.58
689.49	398.43
689.82	396.37
690.16	394.31
690.50	392.36
690.83	390.44
691.17	388.42
691.51	386.54
691.84	384.69
692.18	382.71
692.52	380.72
692.85	378.82
693.19	377.00
693.52	375.22
693.86	373.44
694.20	371.67
694.53	369.93
694.87	368.11
695.21	366.37
695.54	364.61
695.88	362.89
696.21	361.18
696.55	359.48
696.88	357.82
697.22	356.20
697.56	354.59
697.89	352.91
698.23	351.38
698.56	349.74
698.90	348.13
699.23	346.51
699.57	344.99
699.90	343.42
700.24	341.85
700.58	340.28
700.91	338.79
701.25	337.37
701.58	335.99
701.92	334.62
702.25	333.20
702.59	331.82
702.92	330.50
703.26	329.17
703.59	327.95
703.93	326.74
704.26	325.47
704.60	324.17
704.93	322.92
705.26	321.67
705.60	320.54
705.93	319.39
706.27	318.36
706.60	317.28
706.94	316.21
707.27	315.06
707.61	314.01
707.94	312.99
708.27	311.91
708.61	310.86
708.94	309.84
709.28	308.89
709.61	307.92
709.94	306.94
710.28	305.94
710.61	304.90
710.95	303.82
711.28	302.91
711.61	301.96
711.95	301.02
712.28	300.02
712.61	298.99
712.95	298.06
713.28	297.15
713.61	296.27
713.95	295.37
714.28	294.52
714.61	293.64
714.95	292.81
715.28	291.93
715.61	290.99
715.95	290.11
716.28	289.24
716.61	288.40
716.95	287.61
717.28	286.82
717.61	286.06
717.94	285.34
718.28	284.51
718.61	283.80
718.94	283.14
719.27	282.48
719.61	281.87
719.94	281.21
720.27	280.46
720.60	279.80
720.94	279.16
721.27	278.53
721.60	277.99
721.93	277.37
722.27	276.81
722.60	276.26
722.93	275.70
723.26	275.14
723.59	274.59
723.93	273.98
724.26	273.43
724.59	272.85
724.92	272.34
725.25	271.86
725.59	271.34
725.92	270.79
726.25	270.31
726.58	269.79
726.91	269.27
727.24	268.82
727.57	268.34
727.91	267.80
728.24	267.38
728.57	266.88
728.90	266.43
729.23	265.95
729.56	265.53
729.89	265.06
730.22	264.60
730.55	264.12
730.89	263.73
731.22	263.34
731.55	262.99
731.88	262.54
732.21	262.12
732.54	261.68
732.87	261.28
733.20	260.88
733.53	260.52
733.86	260.19
734.19	259.80
734.52	259.43
734.85	259.19
735.18	258.76
735.51	258.43
735.84	258.03
736.17	257.66
736.50	257.28
736.83	257.09
737.16	256.77
737.49	256.45
737.82	256.11
738.15	255.75
738.48	255.41
738.81	255.07
739.14	254.76
739.47	254.48
739.80	254.17
740.13	253.89
740.46	253.56
740.79	253.23
741.12	252.96
741.45	252.67
741.78	252.34
742.11	252.08
742.44	251.75
742.77	251.50
743.10	251.23
743.43	250.93
743.75	250.50
744.08	250.34
744.41	250.10
744.74	249.82
745.07	249.56
745.40	249.29
745.73	249.07
746.06	248.79
746.39	248.55
746.71	248.29
747.04	248.00
747.37	247.76
747.70	247.52
748.03	247.27
748.36	247.02
748.68	246.75
749.01	246.46
749.34	246.20
749.67	245.95
750.00	245.69
750.33	245.56
750.65	245.38
750.98	245.02
751.31	244.78
751.64	244.59
751.97	244.41
752.29	244.21
752.62	243.93
752.95	243.73
753.28	243.50
753.60	243.27
753.93	243.11
754.26	242.88
754.59	242.60
754.91	242.39
755.24	242.18
755.57	242.00
755.90	241.84
756.22	241.63
756.55	241.42
756.88	241.24
757.20	240.97
757.53	240.78
757.86	240.65
758.19	240.48
758.51	240.28
758.84	240.05
759.17	239.84
759.49	239.73
759.82	239.57
760.15	239.39
760.47	239.23
760.80	239.01
761.13	238.84
761.45	238.68
761.78	238.55
762.11	238.42
762.43	238.23
762.76	238.10
763.08	237.99
763.41	237.89
763.74	237.74
764.06	237.58
764.39	237.38
764.71	237.22
765.04	237.08
765.37	236.95
765.69	236.84
766.02	236.73
766.34	236.57
766.67	236.42
767.00	236.31
767.32	236.24
767.65	236.22
767.97	236.12
768.30	236.05
768.62	235.93
768.95	235.82
769.27	235.71
769.60	235.62
769.92	235.48
770.25	235.35
770.57	235.23
770.90	235.13
771.22	235.08
771.55	234.95
771.87	234.84
772.20	234.73
772.52	234.70
772.85	234.72
773.17	234.64
773.50	234.55
773.82	234.48
774.15	234.38
774.47	234.22
774.80	234.14
775.12	234.01
775.45	233.91
775.77	233.79
776.09	233.72
776.42	233.65
776.74	233.61
777.07	233.56
777.39	233.49
777.72	233.43
778.04	233.35
778.36	233.29
778.69	233.24
779.01	233.20
779.33	233.05
779.66	232.88
779.98	232.84
780.31	232.80
780.63	232.76
780.95	232.67
781.28	232.61
781.60	232.53
781.92	232.49
782.25	232.48
782.57	232.45
782.89	232.40
783.22	232.32
783.54	232.24
783.86	232.18
784.19	232.14
784.51	232.15
784.83	232.12
785.16	232.08
785.48	232.05
785.80	232.00
786.12	231.98
786.45	231.94
786.77	231.88
787.09	231.84
