SpectraSuite Data File
++++++++++++++++++++++++++++++++++++
Date: Fri Feb 01 15:36:47 EST 2013
User: group
Dark Spectrum Present: No
Reference Spectrum Present: No
Number of Sampled Component Spectra: 1
Spectrometers: USB2E7196
Integration Time (usec): 35000 (USB2E7196)
Spectra Averaged: 100 (USB2E7196)
Boxcar Smoothing: 10 (USB2E7196)
Correct for Electrical Dark: No (USB2E7196)
Strobe/Lamp Enabled: No (USB2E7196)
Correct for Detector Non-linearity: No (USB2E7196)
Correct for Stray Light: No (USB2E7196)
Number of Pixels in Processed Spectrum: 2048
>>>>>Begin Processed Spectral Data<<<<<
339.09	0.00
339.48	215.48
339.86	216.94
340.24	217.71
340.63	219.01
341.01	222.60
341.39	222.02
341.78	223.01
342.16	224.81
342.54	225.34
342.93	213.39
343.31	224.17
343.69	224.70
344.07	225.13
344.46	225.57
344.84	225.94
345.22	226.14
345.60	226.37
345.99	226.56
346.37	226.66
346.75	226.71
347.13	226.80
347.52	226.81
347.90	226.89
348.28	226.88
348.66	226.92
349.05	226.92
349.43	226.93
349.81	227.01
350.19	227.03
350.57	227.09
350.96	227.16
351.34	227.23
351.72	227.29
352.10	227.39
352.48	227.42
352.87	227.48
353.25	227.53
353.63	227.62
354.01	227.71
354.39	227.78
354.77	227.85
355.15	227.94
355.54	227.99
355.92	228.04
356.30	228.11
356.68	228.21
357.06	228.26
357.44	228.31
357.82	228.34
358.20	228.42
358.58	228.48
358.97	228.55
359.35	228.61
359.73	228.70
360.11	228.74
360.49	228.79
360.87	228.84
361.25	228.91
361.63	228.97
362.01	228.98
362.39	229.02
362.77	229.07
363.15	229.11
363.53	229.15
363.91	229.20
364.29	229.21
364.67	229.15
365.05	229.17
365.43	229.21
365.81	229.25
366.19	229.29
366.57	229.32
366.95	229.32
367.33	229.30
367.71	229.26
368.09	229.25
368.47	229.26
368.85	229.26
369.23	229.23
369.61	229.18
369.99	229.19
370.37	229.19
370.75	229.22
371.13	229.18
371.51	229.11
371.89	229.06
372.27	229.04
372.65	229.02
373.03	229.00
373.41	228.94
373.78	228.85
374.16	228.75
374.54	228.68
374.92	228.64
375.30	228.57
375.68	228.52
376.06	228.48
376.44	228.42
376.82	228.35
377.19	228.30
377.57	228.24
377.95	228.11
378.33	228.04
378.71	227.92
379.09	227.82
379.47	227.78
379.84	227.70
380.22	227.60
380.60	227.51
380.98	227.45
381.36	227.39
381.73	227.33
382.11	227.30
382.49	227.17
382.87	227.09
383.25	227.04
383.62	227.10
384.00	227.04
384.38	226.98
384.76	226.91
385.13	226.88
385.51	226.80
385.89	226.77
386.27	226.72
386.64	226.68
387.02	226.65
387.40	226.63
387.78	226.57
388.15	226.57
388.53	226.54
388.91	226.52
389.29	226.47
389.66	226.45
390.04	226.42
390.42	226.44
390.79	226.41
391.17	226.39
391.55	226.24
391.92	226.22
392.30	226.22
392.68	226.21
393.05	226.20
393.43	226.20
393.81	226.23
394.18	226.22
394.56	226.22
394.94	226.22
395.31	226.23
395.69	226.27
396.06	226.28
396.44	226.32
396.82	226.33
397.19	226.40
397.57	226.44
397.95	226.48
398.32	226.51
398.70	226.61
399.07	226.70
399.45	226.76
399.82	226.84
400.20	226.90
400.58	226.99
400.95	227.01
401.33	227.12
401.70	227.24
402.08	227.32
402.45	227.41
402.83	227.56
403.20	227.66
403.58	227.75
403.95	227.87
404.33	227.98
404.71	228.11
405.08	228.28
405.46	228.41
405.83	228.57
406.21	228.71
406.58	228.85
406.96	229.00
407.33	229.20
407.70	229.39
408.08	229.66
408.45	229.88
408.83	230.14
409.20	230.36
409.58	230.54
409.95	230.83
410.33	231.09
410.70	231.35
411.08	231.65
411.45	231.97
411.82	232.28
412.20	232.65
412.57	233.06
412.95	233.37
413.32	233.81
413.69	234.22
414.07	234.68
414.44	235.15
414.82	235.66
415.19	236.23
415.56	236.74
415.94	237.26
416.31	237.88
416.68	238.52
417.06	239.25
417.43	239.97
417.81	240.73
418.18	241.53
418.55	242.36
418.93	243.22
419.30	244.14
419.67	245.11
420.04	246.07
420.42	247.09
420.79	248.30
421.16	249.46
421.54	250.67
421.91	251.86
422.28	253.13
422.66	254.44
423.03	255.70
423.40	257.07
423.77	258.52
424.15	259.98
424.52	261.50
424.89	263.11
425.26	264.62
425.64	266.08
426.01	267.68
426.38	269.35
426.75	271.05
427.13	272.81
427.50	274.63
427.87	276.51
428.24	278.38
428.61	280.06
428.99	282.00
429.36	284.13
429.73	286.26
430.10	288.30
430.47	290.36
430.85	292.50
431.22	294.75
431.59	297.07
431.96	299.33
432.33	301.81
432.70	304.19
433.08	307.05
433.45	309.71
433.82	312.35
434.19	315.28
434.56	318.06
434.93	320.68
435.30	323.28
435.68	326.20
436.05	329.01
436.42	331.81
436.79	334.33
437.16	336.99
437.53	339.77
437.90	342.63
438.27	345.39
438.64	348.22
439.01	350.76
439.38	353.02
439.75	355.16
440.13	357.65
440.50	359.97
440.87	361.78
441.24	363.67
441.61	365.79
441.98	367.20
442.35	369.00
442.72	370.90
443.09	372.67
443.46	373.61
443.83	374.22
444.20	374.75
444.57	375.55
444.94	375.82
445.31	376.14
445.68	376.40
446.05	376.47
446.42	376.09
446.79	375.75
447.16	375.28
447.53	374.93
447.90	373.77
448.27	372.58
448.64	370.99
449.01	369.90
449.37	367.92
449.74	366.07
450.11	363.81
450.48	361.28
450.85	358.75
451.22	356.66
451.59	354.63
451.96	352.72
452.33	350.14
452.70	347.77
453.07	344.97
453.43	342.12
453.80	339.33
454.17	336.65
454.54	334.11
454.91	331.44
455.28	328.82
455.65	326.29
456.02	323.87
456.38	321.70
456.75	319.01
457.12	316.78
457.49	314.56
457.86	312.40
458.23	310.56
458.59	308.54
458.96	306.40
459.33	304.51
459.70	302.62
460.07	301.12
460.43	299.40
460.80	297.78
461.17	296.28
461.54	294.77
461.91	293.31
462.27	291.83
462.64	290.56
463.01	289.18
463.38	287.92
463.74	286.54
464.11	285.42
464.48	284.42
464.85	283.33
465.21	282.43
465.58	281.53
465.95	280.43
466.32	279.49
466.68	278.59
467.05	277.66
467.42	276.76
467.78	275.86
468.15	274.99
468.52	274.31
468.88	273.49
469.25	272.69
469.62	272.07
469.98	271.37
470.35	270.75
470.72	270.16
471.08	269.49
471.45	268.96
471.82	268.40
472.18	267.79
472.55	267.32
472.92	266.80
473.28	266.34
473.65	265.90
474.02	265.52
474.38	265.18
474.75	264.92
475.11	264.54
475.48	264.26
475.85	264.05
476.21	263.84
476.58	263.63
476.94	263.56
477.31	263.43
477.67	263.28
478.04	263.15
478.41	263.09
478.77	263.12
479.14	263.04
479.50	263.05
479.87	263.14
480.23	263.23
480.60	263.30
480.96	263.41
481.33	263.60
481.69	263.78
482.06	263.94
482.42	264.14
482.79	264.42
483.15	264.74
483.52	265.07
483.88	265.41
484.25	265.85
484.61	266.24
484.98	266.68
485.34	267.25
485.71	267.83
486.07	268.47
486.44	269.06
486.80	269.75
487.17	270.46
487.53	271.25
487.90	272.06
488.26	273.00
488.62	273.98
488.99	274.97
489.35	275.96
489.72	277.13
490.08	278.32
490.44	279.57
490.81	280.86
491.17	282.19
491.54	283.65
491.90	285.14
492.26	286.82
492.63	288.52
492.99	290.32
493.36	292.22
493.72	294.25
494.08	296.34
494.45	298.61
494.81	300.99
495.17	303.39
495.54	305.99
495.90	308.68
496.26	311.47
496.63	314.39
496.99	317.51
497.35	320.75
497.72	324.14
498.08	327.64
498.44	331.34
498.80	335.28
499.17	339.34
499.53	343.51
499.89	347.89
500.26	352.39
500.62	357.07
500.98	362.02
501.34	367.11
501.71	372.45
502.07	377.86
502.43	383.49
502.79	389.39
503.16	395.46
503.52	401.64
503.88	408.07
504.24	414.71
504.60	421.61
504.97	428.74
505.33	436.10
505.69	443.82
506.05	451.54
506.41	459.44
506.78	467.61
507.14	476.09
507.50	484.78
507.86	493.78
508.22	502.94
508.59	512.15
508.95	521.76
509.31	531.60
509.67	541.77
510.03	552.05
510.39	562.58
510.75	573.39
511.12	584.37
511.48	595.65
511.84	607.10
512.20	618.60
512.56	630.59
512.92	642.74
513.28	655.06
513.64	667.64
514.00	680.26
514.37	693.19
514.73	706.21
515.09	719.30
515.45	732.71
515.81	746.43
516.17	760.41
516.53	774.50
516.89	788.77
517.25	802.91
517.61	817.31
517.97	831.85
518.33	846.35
518.69	861.23
519.05	876.23
519.41	891.46
519.77	907.03
520.13	922.47
520.49	937.86
520.85	953.29
521.21	969.03
521.57	985.48
521.93	1001.28
522.29	1017.77
522.65	1034.00
523.01	1050.16
523.37	1066.15
523.73	1082.36
524.09	1098.52
524.45	1114.79
524.81	1131.49
525.17	1148.26
525.53	1165.11
525.89	1181.89
526.25	1198.61
526.61	1215.04
526.97	1231.87
527.33	1248.35
527.68	1264.98
528.04	1281.58
528.40	1298.38
528.76	1315.37
529.12	1331.83
529.48	1348.69
529.84	1364.73
530.20	1381.36
530.56	1398.38
530.91	1415.76
531.27	1432.52
531.63	1448.95
531.99	1465.46
532.35	1481.46
532.71	1497.41
533.07	1513.72
533.42	1529.61
533.78	1545.73
534.14	1562.04
534.50	1577.37
534.86	1593.31
535.21	1608.49
535.57	1624.30
535.93	1639.77
536.29	1654.63
536.65	1669.84
537.00	1684.65
537.36	1699.89
537.72	1714.42
538.08	1728.97
538.44	1742.86
538.79	1756.80
539.15	1770.54
539.51	1784.35
539.87	1798.70
540.22	1812.54
540.58	1826.42
540.94	1839.97
541.29	1852.87
541.65	1865.53
542.01	1878.76
542.37	1891.10
542.72	1903.52
543.08	1915.31
543.44	1927.66
543.79	1938.90
544.15	1949.89
544.51	1961.63
544.87	1972.70
545.22	1983.72
545.58	1993.84
545.94	2003.55
546.29	2013.37
546.65	2023.17
547.01	2032.41
547.36	2041.12
547.72	2049.62
548.07	2057.25
548.43	2065.30
548.79	2073.33
549.14	2080.94
549.50	2088.26
549.86	2095.86
550.21	2103.18
550.57	2110.39
550.92	2116.88
551.28	2123.94
551.64	2130.87
551.99	2137.28
552.35	2143.39
552.70	2149.27
553.06	2155.27
553.41	2161.71
553.77	2167.77
554.13	2173.91
554.48	2180.03
554.84	2185.44
555.19	2190.65
555.55	2195.91
555.90	2200.39
556.26	2205.35
556.61	2210.05
556.97	2214.16
557.32	2218.37
557.68	2222.60
558.03	2227.02
558.39	2230.78
558.74	2235.47
559.10	2239.44
559.45	2243.06
559.81	2247.38
560.16	2251.35
560.52	2254.48
560.87	2257.76
561.23	2260.53
561.58	2263.61
561.94	2266.02
562.29	2268.44
562.64	2271.14
563.00	2273.74
563.35	2277.23
563.71	2280.24
564.06	2283.45
564.42	2286.43
564.77	2288.88
565.12	2291.12
565.48	2292.93
565.83	2294.74
566.19	2295.96
566.54	2296.92
566.89	2298.08
567.25	2298.56
567.60	2299.67
567.96	2301.47
568.31	2302.36
568.66	2303.39
569.02	2303.70
569.37	2304.14
569.72	2304.82
570.08	2304.91
570.43	2304.88
570.78	2304.31
571.14	2302.82
571.49	2301.43
571.84	2301.01
572.20	2299.83
572.55	2298.69
572.90	2297.12
573.26	2295.79
573.61	2294.11
573.96	2292.21
574.31	2289.10
574.67	2286.18
575.02	2282.60
575.37	2279.12
575.72	2275.34
576.08	2271.91
576.43	2268.64
576.78	2264.89
577.13	2261.74
577.49	2258.70
577.84	2255.01
578.19	2251.23
578.54	2247.50
578.90	2243.18
579.25	2237.62
579.60	2232.52
579.95	2227.46
580.30	2222.38
580.66	2217.06
581.01	2212.04
581.36	2207.13
581.71	2203.01
582.06	2198.55
582.42	2194.07
582.77	2188.81
583.12	2184.07
583.47	2179.31
583.82	2174.20
584.17	2168.93
584.53	2163.47
584.88	2157.65
585.23	2152.02
585.58	2146.45
585.93	2140.99
586.28	2136.27
586.63	2131.12
586.98	2126.17
587.34	2121.39
587.69	2116.49
588.04	2111.26
588.39	2105.46
588.74	2098.92
589.09	2092.75
589.44	2085.89
589.79	2079.97
590.14	2074.43
590.49	2067.73
590.84	2061.38
591.19	2055.23
591.54	2048.78
591.89	2041.33
592.25	2034.53
592.60	2027.27
592.95	2019.68
593.30	2012.45
593.65	2004.79
594.00	1997.82
594.35	1990.49
594.70	1982.53
595.05	1975.19
595.40	1967.86
595.75	1960.33
596.10	1954.09
596.45	1947.17
596.80	1940.88
597.15	1934.00
597.50	1926.79
597.85	1920.53
598.19	1913.68
598.54	1906.55
598.89	1899.79
599.24	1893.92
599.59	1887.18
599.94	1880.93
600.29	1874.44
600.64	1867.67
600.99	1860.12
601.34	1853.23
601.69	1846.30
602.04	1839.20
602.39	1831.83
602.74	1824.98
603.08	1818.29
603.43	1811.50
603.78	1804.27
604.13	1797.08
604.48	1789.81
604.83	1782.96
605.18	1775.89
605.53	1767.86
605.87	1759.90
606.22	1752.76
606.57	1744.74
606.92	1737.43
607.27	1730.19
607.62	1723.40
607.96	1716.16
608.31	1709.55
608.66	1701.88
609.01	1694.19
609.36	1686.76
609.70	1678.76
610.05	1670.67
610.40	1662.93
610.75	1654.53
611.10	1646.82
611.44	1638.47
611.79	1630.49
612.14	1621.66
612.49	1612.50
612.83	1604.28
613.18	1596.10
613.53	1587.94
613.88	1579.45
614.22	1571.27
614.57	1562.62
614.92	1554.56
615.27	1546.89
615.61	1538.56
615.96	1530.54
616.31	1523.06
616.65	1515.65
617.00	1508.08
617.35	1500.43
617.70	1492.06
618.04	1483.59
618.39	1475.40
618.74	1467.72
619.08	1459.44
619.43	1451.99
619.78	1445.11
620.12	1437.82
620.47	1430.38
620.82	1422.13
621.16	1414.72
621.51	1407.04
621.85	1399.52
622.20	1391.01
622.55	1382.67
622.89	1374.76
623.24	1367.18
623.59	1359.72
623.93	1352.21
624.28	1345.00
624.62	1337.41
624.97	1330.28
625.32	1323.64
625.66	1316.59
626.01	1309.27
626.35	1301.75
626.70	1293.96
627.04	1286.19
627.39	1278.45
627.73	1271.01
628.08	1264.26
628.43	1256.92
628.77	1249.42
629.12	1241.81
629.46	1234.66
629.81	1227.32
630.15	1220.24
630.50	1212.81
630.84	1204.62
631.19	1196.75
631.53	1189.31
631.88	1181.83
632.22	1174.22
632.57	1166.85
632.91	1159.33
633.26	1152.01
633.60	1144.83
633.95	1137.81
634.29	1130.78
634.64	1124.11
634.98	1116.77
635.32	1109.50
635.67	1103.02
636.01	1096.46
636.36	1089.64
636.70	1083.17
637.05	1076.55
637.39	1070.04
637.73	1063.58
638.08	1057.80
638.42	1051.75
638.77	1045.29
639.11	1038.70
639.45	1032.36
639.80	1025.68
640.14	1019.24
640.49	1012.79
640.83	1006.35
641.17	1000.08
641.52	993.75
641.86	987.32
642.20	981.51
642.55	975.17
642.89	968.50
643.23	962.08
643.58	956.43
643.92	950.13
644.26	943.94
644.61	937.98
644.95	931.85
645.29	925.18
645.64	918.42
645.98	912.07
646.32	906.22
646.66	900.12
647.01	894.32
647.35	888.63
647.69	882.79
648.04	877.31
648.38	871.48
648.72	865.41
649.06	859.32
649.41	853.39
649.75	847.48
650.09	841.57
650.43	835.74
650.78	829.45
651.12	823.57
651.46	817.98
651.80	812.16
652.14	806.80
652.49	801.44
652.83	796.28
653.17	790.51
653.51	784.75
653.85	779.41
654.20	773.79
654.54	767.78
654.88	762.00
655.22	756.06
655.56	750.36
655.90	745.00
656.25	739.80
656.59	734.45
656.93	729.37
657.27	724.23
657.61	718.79
657.95	713.77
658.29	708.61
658.64	703.31
658.98	697.98
659.32	692.55
659.66	687.32
660.00	681.95
660.34	677.03
660.68	672.15
661.02	667.07
661.36	662.35
661.70	657.87
662.05	653.53
662.39	649.23
662.73	644.79
663.07	640.33
663.41	635.90
663.75	631.38
664.09	626.84
664.43	622.47
664.77	618.36
665.11	614.07
665.45	610.00
665.79	605.93
666.13	601.82
666.47	597.73
666.81	593.55
667.15	589.54
667.49	585.69
667.83	581.93
668.17	578.04
668.51	573.97
668.85	569.98
669.19	566.16
669.53	562.30
669.87	558.38
670.21	554.69
670.55	551.10
670.89	547.77
671.23	544.37
671.57	540.85
671.91	537.32
672.25	533.82
672.58	530.33
672.92	527.00
673.26	523.88
673.60	520.75
673.94	517.66
674.28	514.77
674.62	511.76
674.96	508.63
675.30	505.71
675.64	502.82
675.97	500.04
676.31	497.17
676.65	494.22
676.99	491.60
677.33	488.79
677.67	485.96
678.01	482.89
678.34	479.89
678.68	477.05
679.02	474.21
679.36	471.54
679.70	468.82
680.04	466.00
680.37	463.08
680.71	460.30
681.05	457.70
681.39	454.97
681.73	452.39
682.06	449.89
682.40	447.38
682.74	444.84
683.08	442.33
683.42	439.69
683.75	437.28
684.09	434.70
684.43	432.23
684.77	429.69
685.10	427.37
685.44	425.09
685.78	422.76
686.12	420.51
686.45	418.15
686.79	415.84
687.13	413.65
687.46	411.52
687.80	409.36
688.14	407.13
688.48	405.08
688.81	402.81
689.15	400.60
689.49	398.43
689.82	396.34
690.16	394.23
690.50	392.27
690.83	390.30
691.17	388.28
691.51	386.35
691.84	384.52
692.18	382.57
692.52	380.54
692.85	378.60
693.19	376.78
693.52	374.95
693.86	373.17
694.20	371.40
694.53	369.62
694.87	367.78
695.21	366.03
695.54	364.19
695.88	362.50
696.21	360.83
696.55	359.12
696.88	357.48
697.22	355.80
697.56	354.17
697.89	352.51
698.23	350.94
698.56	349.31
698.90	347.71
699.23	346.04
699.57	344.49
699.90	343.03
700.24	341.43
700.58	339.93
700.91	338.36
701.25	336.92
701.58	335.56
701.92	334.21
702.25	332.82
702.59	331.48
702.92	330.15
703.26	328.82
703.59	327.53
703.93	326.32
704.26	325.07
704.60	323.81
704.93	322.56
705.26	321.34
705.60	320.21
705.93	319.04
706.27	318.04
706.60	316.97
706.94	315.89
707.27	314.74
707.61	313.68
707.94	312.71
708.27	311.59
708.61	310.51
708.94	309.54
709.28	308.58
709.61	307.63
709.94	306.67
710.28	305.66
710.61	304.74
710.95	303.68
711.28	302.84
711.61	301.86
711.95	300.94
712.28	300.00
712.61	298.99
712.95	298.08
713.28	297.21
713.61	296.39
713.95	295.49
714.28	294.70
714.61	293.84
714.95	292.97
715.28	292.15
715.61	291.26
715.95	290.38
716.28	289.55
716.61	288.73
716.95	287.94
717.28	287.19
717.61	286.43
717.94	285.70
718.28	284.88
718.61	284.18
718.94	283.51
719.27	282.86
719.61	282.27
719.94	281.64
720.27	280.92
720.60	280.24
720.94	279.64
721.27	279.09
721.60	278.53
721.93	277.98
722.27	277.43
722.60	276.90
722.93	276.34
723.26	275.80
723.59	275.22
723.93	274.65
724.26	274.09
724.59	273.54
724.92	273.00
725.25	272.45
725.59	271.90
725.92	271.40
726.25	270.88
726.58	270.35
726.91	269.83
727.24	269.36
727.57	268.88
727.91	268.34
728.24	267.83
728.57	267.33
728.90	266.85
729.23	266.36
729.56	265.94
729.89	265.45
730.22	264.98
730.55	264.52
730.89	264.07
731.22	263.63
731.55	263.18
731.88	262.75
732.21	262.38
732.54	262.01
732.87	261.56
733.20	261.16
733.53	260.78
733.86	260.41
734.19	260.02
734.52	259.64
734.85	259.32
735.18	258.86
735.51	258.45
735.84	258.10
736.17	257.75
736.50	257.32
736.83	257.07
737.16	256.72
737.49	256.40
737.82	256.05
738.15	255.72
738.48	255.36
738.81	255.06
739.14	254.69
739.47	254.35
739.80	254.04
740.13	253.73
740.46	253.39
740.79	253.04
741.12	252.71
741.45	252.37
741.78	252.02
742.11	251.77
742.44	251.49
742.77	251.18
743.10	250.83
743.43	250.53
743.75	250.16
744.08	249.96
744.41	249.67
744.74	249.40
745.07	249.12
745.40	248.87
745.73	248.60
746.06	248.31
746.39	248.05
746.71	247.75
747.04	247.46
747.37	247.20
747.70	246.95
748.03	246.70
748.36	246.49
748.68	246.26
749.01	246.05
749.34	245.84
749.67	245.59
750.00	245.43
750.33	245.27
750.65	245.06
750.98	244.74
751.31	244.49
751.64	244.29
751.97	244.13
752.29	243.92
752.62	243.68
752.95	243.51
753.28	243.31
753.60	243.10
753.93	242.97
754.26	242.80
754.59	242.61
754.91	242.40
755.24	242.19
755.57	242.03
755.90	241.80
756.22	241.58
756.55	241.43
756.88	241.23
757.20	241.02
757.53	240.83
757.86	240.69
758.19	240.59
758.51	240.45
758.84	240.23
759.17	240.09
759.49	239.95
759.82	239.83
760.15	239.71
760.47	239.59
760.80	239.40
761.13	239.27
761.45	239.09
761.78	238.97
762.11	238.83
762.43	238.65
762.76	238.56
763.08	238.47
763.41	238.33
763.74	238.19
764.06	238.06
764.39	237.91
764.71	237.74
765.04	237.57
765.37	237.45
765.69	237.33
766.02	237.18
766.34	237.06
766.67	236.89
767.00	236.74
767.32	236.68
767.65	236.63
767.97	236.49
768.30	236.40
768.62	236.26
768.95	236.15
769.27	236.06
769.60	235.91
769.92	235.75
770.25	235.62
770.57	235.51
770.90	235.37
771.22	235.31
771.55	235.22
771.87	235.14
772.20	235.01
772.52	235.02
772.85	235.06
773.17	234.96
773.50	234.84
773.82	234.74
774.15	234.58
774.47	234.41
774.80	234.33
775.12	234.25
775.45	234.20
775.77	234.10
776.09	234.03
776.42	233.97
776.74	233.93
777.07	233.85
777.39	233.80
777.72	233.72
778.04	233.63
778.36	233.58
778.69	233.46
779.01	233.40
779.33	233.24
779.66	233.02
779.98	232.91
780.31	232.85
780.63	232.84
780.95	232.79
781.28	232.70
781.60	232.61
781.92	232.53
782.25	232.46
782.57	232.38
782.89	232.29
783.22	232.22
783.54	232.15
783.86	232.11
784.19	232.03
784.51	232.02
784.83	231.96
785.16	231.89
785.48	231.85
785.80	231.77
786.12	231.73
786.45	231.70
786.77	231.67
787.09	231.63
