SpectraSuite Data File
++++++++++++++++++++++++++++++++++++
Date: Fri Feb 01 17:18:53 EST 2013
User: group
Dark Spectrum Present: No
Reference Spectrum Present: No
Number of Sampled Component Spectra: 1
Spectrometers: USB2E7196
Integration Time (usec): 35000 (USB2E7196)
Spectra Averaged: 100 (USB2E7196)
Boxcar Smoothing: 10 (USB2E7196)
Correct for Electrical Dark: No (USB2E7196)
Strobe/Lamp Enabled: No (USB2E7196)
Correct for Detector Non-linearity: No (USB2E7196)
Correct for Stray Light: No (USB2E7196)
Number of Pixels in Processed Spectrum: 2048
>>>>>Begin Processed Spectral Data<<<<<
339.09	0.00
339.48	213.41
339.86	214.83
340.24	215.64
340.63	217.28
341.01	220.05
341.39	220.12
341.78	221.98
342.16	222.37
342.54	222.93
342.93	211.61
343.31	222.30
343.69	222.84
344.07	223.31
344.46	223.74
344.84	224.10
345.22	224.34
345.60	224.61
345.99	224.78
346.37	224.90
346.75	225.02
347.13	225.06
347.52	225.10
347.90	225.18
348.28	225.20
348.66	225.20
349.05	225.16
349.43	225.19
349.81	225.23
350.19	225.23
350.57	225.26
350.96	225.32
351.34	225.39
351.72	225.43
352.10	225.51
352.48	225.58
352.87	225.62
353.25	225.69
353.63	225.70
354.01	225.76
354.39	225.85
354.77	225.87
355.15	225.93
355.54	225.98
355.92	226.03
356.30	226.09
356.68	226.27
357.06	226.36
357.44	226.39
357.82	226.44
358.20	226.54
358.58	226.58
358.97	226.65
359.35	226.76
359.73	226.88
360.11	226.90
360.49	226.95
360.87	227.01
361.25	227.05
361.63	227.13
362.01	227.14
362.39	227.16
362.77	227.22
363.15	227.29
363.53	227.31
363.91	227.33
364.29	227.32
364.67	227.22
365.05	227.21
365.43	227.25
365.81	227.26
366.19	227.30
366.57	227.37
366.95	227.36
367.33	227.31
367.71	227.27
368.09	227.30
368.47	227.29
368.85	227.27
369.23	227.27
369.61	227.20
369.99	227.21
370.37	227.21
370.75	227.22
371.13	227.17
371.51	227.12
371.89	227.09
372.27	227.10
372.65	227.07
373.03	227.01
373.41	226.94
373.78	226.87
374.16	226.77
374.54	226.68
374.92	226.60
375.30	226.53
375.68	226.43
376.06	226.37
376.44	226.31
376.82	226.27
377.19	226.23
377.57	226.18
377.95	226.11
378.33	226.01
378.71	225.90
379.09	225.90
379.47	225.87
379.84	225.83
380.22	225.74
380.60	225.67
380.98	225.65
381.36	225.61
381.73	225.56
382.11	225.48
382.49	225.40
382.87	225.36
383.25	225.31
383.62	225.39
384.00	225.31
384.38	225.23
384.76	225.20
385.13	225.17
385.51	225.13
385.89	225.08
386.27	225.05
386.64	225.04
387.02	224.96
387.40	224.91
387.78	224.88
388.15	224.87
388.53	224.84
388.91	224.77
389.29	224.73
389.66	224.72
390.04	224.73
390.42	224.76
390.79	224.75
391.17	224.77
391.55	224.63
391.92	224.63
392.30	224.65
392.68	224.61
393.05	224.61
393.43	224.63
393.81	224.63
394.18	224.65
394.56	224.65
394.94	224.69
395.31	224.70
395.69	224.71
396.06	224.75
396.44	224.77
396.82	224.83
397.19	224.93
397.57	224.95
397.95	224.99
398.32	225.03
398.70	225.08
399.07	225.15
399.45	225.21
399.82	225.27
400.20	225.32
400.58	225.43
400.95	225.43
401.33	225.50
401.70	225.64
402.08	225.69
402.45	225.76
402.83	225.87
403.20	225.97
403.58	226.06
403.95	226.14
404.33	226.27
404.71	226.37
405.08	226.54
405.46	226.68
405.83	226.84
406.21	226.97
406.58	227.16
406.96	227.29
407.33	227.48
407.70	227.66
408.08	227.91
408.45	228.08
408.83	228.36
409.20	228.59
409.58	228.74
409.95	229.04
410.33	229.32
410.70	229.55
411.08	229.83
411.45	230.15
411.82	230.47
412.20	230.82
412.57	231.26
412.95	231.56
413.32	231.98
413.69	232.37
414.07	232.82
414.44	233.27
414.82	233.75
415.19	234.32
415.56	234.89
415.94	235.47
416.31	236.13
416.68	236.73
417.06	237.45
417.43	238.16
417.81	238.92
418.18	239.71
418.55	240.55
418.93	241.49
419.30	242.38
419.67	243.36
420.04	244.35
420.42	245.31
420.79	246.55
421.16	247.75
421.54	249.03
421.91	250.25
422.28	251.56
422.66	252.95
423.03	254.30
423.40	255.70
423.77	257.12
424.15	258.61
424.52	260.19
424.89	261.90
425.26	263.52
425.64	265.02
426.01	266.69
426.38	268.43
426.75	270.14
427.13	271.98
427.50	273.85
427.87	275.79
428.24	277.77
428.61	279.53
428.99	281.49
429.36	283.66
429.73	285.81
430.10	287.91
430.47	290.03
430.85	292.23
431.22	294.55
431.59	297.00
431.96	299.35
432.33	301.86
432.70	304.31
433.08	307.22
433.45	309.95
433.82	312.60
434.19	315.58
434.56	318.49
434.93	321.18
435.30	323.89
435.68	326.80
436.05	329.74
436.42	332.62
436.79	335.26
437.16	337.99
437.53	340.91
437.90	343.77
438.27	346.59
438.64	349.46
439.01	352.11
439.38	354.45
439.75	356.65
440.13	359.24
440.50	361.62
440.87	363.49
441.24	365.48
441.61	367.73
441.98	369.27
442.35	371.11
442.72	373.05
443.09	374.97
443.46	376.07
443.83	376.62
444.20	377.16
444.57	378.02
444.94	378.39
445.31	378.76
445.68	379.17
446.05	379.30
446.42	378.95
446.79	378.55
447.16	378.08
447.53	377.77
447.90	376.57
448.27	375.36
448.64	373.78
449.01	372.59
449.37	370.57
449.74	368.61
450.11	366.33
450.48	363.78
450.85	361.14
451.22	358.94
451.59	356.91
451.96	354.94
452.33	352.25
452.70	349.77
453.07	346.83
453.43	343.87
453.80	340.98
454.17	338.21
454.54	335.56
454.91	332.78
455.28	330.03
455.65	327.48
456.02	325.00
456.38	322.76
456.75	320.05
457.12	317.76
457.49	315.46
457.86	313.15
458.23	311.24
458.59	309.13
458.96	306.95
459.33	305.01
459.70	303.03
460.07	301.50
460.43	299.70
460.80	298.09
461.17	296.60
461.54	295.08
461.91	293.60
462.27	292.11
462.64	290.82
463.01	289.44
463.38	288.09
463.74	286.65
464.11	285.45
464.48	284.41
464.85	283.29
465.21	282.42
465.58	281.52
465.95	280.39
466.32	279.44
466.68	278.54
467.05	277.58
467.42	276.67
467.78	275.71
468.15	274.87
468.52	274.14
468.88	273.23
469.25	272.43
469.62	271.80
469.98	271.12
470.35	270.48
470.72	269.86
471.08	269.21
471.45	268.66
471.82	268.11
472.18	267.48
472.55	267.02
472.92	266.49
473.28	266.01
473.65	265.52
474.02	265.09
474.38	264.73
474.75	264.43
475.11	264.10
475.48	263.83
475.85	263.55
476.21	263.32
476.58	263.13
476.94	262.96
477.31	262.81
477.67	262.68
478.04	262.59
478.41	262.53
478.77	262.59
479.14	262.53
479.50	262.55
479.87	262.64
480.23	262.69
480.60	262.76
480.96	262.85
481.33	263.08
481.69	263.29
482.06	263.48
482.42	263.68
482.79	263.97
483.15	264.28
483.52	264.67
483.88	265.01
484.25	265.42
484.61	265.88
484.98	266.29
485.34	266.83
485.71	267.36
486.07	267.96
486.44	268.51
486.80	269.21
487.17	269.97
487.53	270.75
487.90	271.61
488.26	272.54
488.62	273.54
488.99	274.56
489.35	275.58
489.72	276.74
490.08	277.92
490.44	279.13
490.81	280.46
491.17	281.79
491.54	283.26
491.90	284.77
492.26	286.35
492.63	288.11
492.99	289.88
493.36	291.82
493.72	293.85
494.08	295.94
494.45	298.16
494.81	300.45
495.17	302.88
495.54	305.44
495.90	308.10
496.26	310.85
496.63	313.75
496.99	316.86
497.35	320.06
497.72	323.43
498.08	326.94
498.44	330.60
498.80	334.50
499.17	338.52
499.53	342.65
499.89	347.02
500.26	351.50
500.62	356.17
500.98	361.06
501.34	366.10
501.71	371.40
502.07	376.82
502.43	382.38
502.79	388.19
503.16	394.21
503.52	400.42
503.88	406.85
504.24	413.42
504.60	420.23
504.97	427.31
505.33	434.61
505.69	442.26
506.05	449.97
506.41	457.81
506.78	465.84
507.14	474.17
507.50	482.74
507.86	491.64
508.22	500.75
508.59	509.83
508.95	519.23
509.31	528.92
509.67	538.84
510.03	549.02
510.39	559.41
510.75	569.94
511.12	580.67
511.48	591.75
511.84	603.02
512.20	614.32
512.56	626.00
512.92	637.95
513.28	650.13
513.64	662.39
514.00	674.81
514.37	687.57
514.73	700.48
515.09	713.28
515.45	726.27
515.81	739.57
516.17	753.28
516.53	767.17
516.89	781.05
517.25	794.95
517.61	809.11
517.97	823.25
518.33	837.54
518.69	852.05
519.05	866.61
519.41	881.47
519.77	896.72
520.13	911.87
520.49	926.92
520.85	941.90
521.21	957.24
521.57	973.14
521.93	988.46
522.29	1004.37
522.65	1020.30
523.01	1036.23
523.37	1051.84
523.73	1067.66
524.09	1083.38
524.45	1099.32
524.81	1115.64
525.17	1131.93
525.53	1148.44
525.89	1164.86
526.25	1181.35
526.61	1197.38
526.97	1213.79
527.33	1229.95
527.68	1246.17
528.04	1262.32
528.40	1278.52
528.76	1295.20
529.12	1311.38
529.48	1327.93
529.84	1343.61
530.20	1359.85
530.56	1376.44
530.91	1393.54
531.27	1410.00
531.63	1426.14
531.99	1442.46
532.35	1458.21
532.71	1473.92
533.07	1489.80
533.42	1505.50
533.78	1521.32
534.14	1537.34
534.50	1552.36
534.86	1567.84
535.21	1582.67
535.57	1598.27
535.93	1613.52
536.29	1627.96
536.65	1642.87
537.00	1657.42
537.36	1672.54
537.72	1686.89
538.08	1701.13
538.44	1714.74
538.79	1728.51
539.15	1741.97
539.51	1755.45
539.87	1769.47
540.22	1782.91
540.58	1796.59
540.94	1809.54
541.29	1822.02
541.65	1834.71
542.01	1847.72
542.37	1860.10
542.72	1872.49
543.08	1884.17
543.44	1896.48
543.79	1907.85
544.15	1918.77
544.51	1930.31
544.87	1941.28
545.22	1952.17
545.58	1962.36
545.94	1972.25
546.29	1982.11
546.65	1992.11
547.01	2001.51
547.36	2010.33
547.72	2019.04
548.07	2027.00
548.43	2035.23
548.79	2043.48
549.14	2051.18
549.50	2058.69
549.86	2066.46
550.21	2073.97
550.57	2081.39
550.92	2088.21
551.28	2095.32
551.64	2102.57
551.99	2109.25
552.35	2115.51
552.70	2121.82
553.06	2128.06
553.41	2134.58
553.77	2140.71
554.13	2146.91
554.48	2153.28
554.84	2159.13
555.19	2164.49
555.55	2169.96
555.90	2174.85
556.26	2180.19
556.61	2184.95
556.97	2189.71
557.32	2194.08
557.68	2198.54
558.03	2202.98
558.39	2206.91
558.74	2211.77
559.10	2215.86
559.45	2219.88
559.81	2224.43
560.16	2228.47
560.52	2232.10
560.87	2235.71
561.23	2238.76
561.58	2241.85
561.94	2244.60
562.29	2247.18
562.64	2250.33
563.00	2253.15
563.35	2256.92
563.71	2260.19
564.06	2263.68
564.42	2266.75
564.77	2269.70
565.12	2272.42
565.48	2274.79
565.83	2277.01
566.19	2278.89
566.54	2280.16
566.89	2281.70
567.25	2282.75
567.60	2284.28
567.96	2286.44
568.31	2287.61
568.66	2289.06
569.02	2290.06
569.37	2290.85
569.72	2291.98
570.08	2292.51
570.43	2292.85
570.78	2292.69
571.14	2291.54
571.49	2290.50
571.84	2290.45
572.20	2289.61
572.55	2288.76
572.90	2287.28
573.26	2286.38
573.61	2284.83
573.96	2283.51
574.31	2280.87
574.67	2278.33
575.02	2275.06
575.37	2271.77
575.72	2268.41
576.08	2265.34
576.43	2262.15
576.78	2258.82
577.13	2255.90
577.49	2252.86
577.84	2249.70
578.19	2246.33
578.54	2243.11
578.90	2239.50
579.25	2234.23
579.60	2229.60
579.95	2224.92
580.30	2220.30
580.66	2215.20
581.01	2210.57
581.36	2205.80
581.71	2201.92
582.06	2197.72
582.42	2193.74
582.77	2188.73
583.12	2184.46
583.47	2180.07
583.82	2175.55
584.17	2170.50
584.53	2165.32
584.88	2160.00
585.23	2154.60
585.58	2149.16
585.93	2143.83
586.28	2139.08
586.63	2134.42
586.98	2129.48
587.34	2124.87
587.69	2120.16
588.04	2115.26
588.39	2109.87
588.74	2103.63
589.09	2097.57
589.44	2090.92
589.79	2084.76
590.14	2079.33
590.49	2072.79
590.84	2066.47
591.19	2060.70
591.54	2054.44
591.89	2047.35
592.25	2040.84
592.60	2033.74
592.95	2026.60
593.30	2019.47
593.65	2012.04
594.00	2005.11
594.35	1998.00
594.70	1990.15
595.05	1983.29
595.40	1976.04
595.75	1968.57
596.10	1962.65
596.45	1956.21
596.80	1950.19
597.15	1943.91
597.50	1937.30
597.85	1930.91
598.19	1924.37
598.54	1917.39
598.89	1910.80
599.24	1905.00
599.59	1898.63
599.94	1892.48
600.29	1886.06
600.64	1879.48
600.99	1872.09
601.34	1865.24
601.69	1858.31
602.04	1851.63
602.39	1844.29
602.74	1837.56
603.08	1831.00
603.43	1824.20
603.78	1816.83
604.13	1809.66
604.48	1802.54
604.83	1795.41
605.18	1788.74
605.53	1780.89
605.87	1772.98
606.22	1765.81
606.57	1757.76
606.92	1750.15
607.27	1743.14
607.62	1736.34
607.96	1729.16
608.31	1722.77
608.66	1715.28
609.01	1707.86
609.36	1700.20
609.70	1692.14
610.05	1684.14
610.40	1676.42
610.75	1668.16
611.10	1660.50
611.44	1652.07
611.79	1643.77
612.14	1635.09
612.49	1625.81
612.83	1617.29
613.18	1609.00
613.53	1600.76
613.88	1592.23
614.22	1583.95
614.57	1575.03
614.92	1566.85
615.27	1559.28
615.61	1550.83
615.96	1542.66
616.31	1534.83
616.65	1527.44
617.00	1519.83
617.35	1511.97
617.70	1503.61
618.04	1495.05
618.39	1486.71
618.74	1479.13
619.08	1470.98
619.43	1463.32
619.78	1456.20
620.12	1449.08
620.47	1441.58
620.82	1433.37
621.16	1425.80
621.51	1418.03
621.85	1410.50
622.20	1401.96
622.55	1393.47
622.89	1385.57
623.24	1377.78
623.59	1370.15
623.93	1362.56
624.28	1355.21
624.62	1347.76
624.97	1340.40
625.32	1333.39
625.66	1326.29
626.01	1319.05
626.35	1311.61
626.70	1303.76
627.04	1296.07
627.39	1288.13
627.73	1280.60
628.08	1273.59
628.43	1266.42
628.77	1259.14
629.12	1251.48
629.46	1244.20
629.81	1236.53
630.15	1229.17
630.50	1221.67
630.84	1213.53
631.19	1205.51
631.53	1197.93
631.88	1190.22
632.22	1182.59
632.57	1175.27
632.91	1167.65
633.26	1160.07
633.60	1152.42
633.95	1145.18
634.29	1138.00
634.64	1131.22
634.98	1123.83
635.32	1116.59
635.67	1109.75
636.01	1102.95
636.36	1096.10
636.70	1089.51
637.05	1082.98
637.39	1076.40
637.73	1069.95
638.08	1064.02
638.42	1057.94
638.77	1051.49
639.11	1044.91
639.45	1038.47
639.80	1031.78
640.14	1025.33
640.49	1018.81
640.83	1012.52
641.17	1006.19
641.52	999.84
641.86	993.28
642.20	987.24
642.55	980.83
642.89	974.36
643.23	967.70
643.58	961.90
643.92	955.71
644.26	949.68
644.61	943.58
644.95	937.51
645.29	930.98
645.64	924.18
645.98	917.75
646.32	911.77
646.66	905.69
647.01	899.82
647.35	894.09
647.69	888.13
648.04	882.50
648.38	876.77
648.72	870.84
649.06	864.85
649.41	858.90
649.75	852.97
650.09	847.02
650.43	841.30
650.78	835.09
651.12	829.03
651.46	823.20
651.80	817.54
652.14	812.07
652.49	806.65
652.83	801.52
653.17	795.92
653.51	790.21
653.85	784.70
654.20	779.11
654.54	773.12
654.88	767.27
655.22	761.29
655.56	755.54
655.90	749.97
656.25	744.69
656.59	739.37
656.93	734.27
657.27	729.05
657.61	723.57
657.95	718.43
658.29	713.35
658.64	707.98
658.98	702.54
659.32	697.04
659.66	691.76
660.00	686.40
660.34	681.37
660.68	676.44
661.02	671.41
661.36	666.59
661.70	662.01
662.05	657.71
662.39	653.44
662.73	648.96
663.07	644.61
663.41	640.15
663.75	635.68
664.09	630.99
664.43	626.53
664.77	622.42
665.11	618.18
665.45	614.05
665.79	610.05
666.13	606.01
666.47	601.94
666.81	597.71
667.15	593.55
667.49	589.59
667.83	585.69
668.17	581.68
668.51	577.56
668.85	573.49
669.19	569.60
669.53	565.78
669.87	561.87
670.21	558.07
670.55	554.33
670.89	550.79
671.23	547.43
671.57	543.90
671.91	540.36
672.25	536.82
672.58	533.29
672.92	529.79
673.26	526.48
673.60	523.28
673.94	520.19
674.28	517.18
674.62	514.17
674.96	511.09
675.30	508.23
675.64	505.29
675.97	502.49
676.31	499.57
676.65	496.59
676.99	493.90
677.33	490.98
677.67	488.15
678.01	485.14
678.34	482.19
678.68	479.25
679.02	476.37
679.36	473.56
679.70	470.79
680.04	468.03
680.37	465.13
680.71	462.34
681.05	459.67
681.39	456.90
681.73	454.21
682.06	451.64
682.40	449.02
682.74	446.50
683.08	443.92
683.42	441.29
683.75	438.76
684.09	436.06
684.43	433.57
684.77	431.07
685.10	428.65
685.44	426.27
685.78	423.97
686.12	421.68
686.45	419.42
686.79	417.07
687.13	414.85
687.46	412.68
687.80	410.45
688.14	408.16
688.48	406.15
688.81	403.93
689.15	401.75
689.49	399.59
689.82	397.49
690.16	395.32
690.50	393.31
690.83	391.37
691.17	389.40
691.51	387.53
691.84	385.66
692.18	383.77
692.52	381.84
692.85	379.85
693.19	377.94
693.52	376.02
693.86	374.17
694.20	372.37
694.53	370.57
694.87	368.72
695.21	366.95
695.54	365.06
695.88	363.28
696.21	361.58
696.55	359.89
696.88	358.16
697.22	356.47
697.56	354.83
697.89	353.15
698.23	351.54
698.56	349.84
698.90	348.28
699.23	346.60
699.57	344.97
699.90	343.39
700.24	341.83
700.58	340.29
700.91	338.81
701.25	337.32
701.58	335.88
701.92	334.52
702.25	333.11
702.59	331.75
702.92	330.40
703.26	329.04
703.59	327.73
703.93	326.54
704.26	325.31
704.60	324.02
704.93	322.70
705.26	321.44
705.60	320.24
705.93	319.02
706.27	317.92
706.60	316.85
706.94	315.78
707.27	314.63
707.61	313.52
707.94	312.48
708.27	311.35
708.61	310.27
708.94	309.22
709.28	308.22
709.61	307.25
709.94	306.28
710.28	305.24
710.61	304.27
710.95	303.13
711.28	302.18
711.61	301.22
711.95	300.35
712.28	299.38
712.61	298.38
712.95	297.42
713.28	296.56
713.61	295.61
713.95	294.71
714.28	293.87
714.61	292.98
714.95	292.08
715.28	291.23
715.61	290.30
715.95	289.42
716.28	288.55
716.61	287.69
716.95	286.84
717.28	286.04
717.61	285.23
717.94	284.49
718.28	283.66
718.61	282.92
718.94	282.15
719.27	281.50
719.61	280.86
719.94	280.24
720.27	279.48
720.60	278.84
720.94	278.22
721.27	277.60
721.60	277.01
721.93	276.41
722.27	275.85
722.60	275.31
722.93	274.74
723.26	274.21
723.59	273.66
723.93	273.13
724.26	272.60
724.59	272.04
724.92	271.54
725.25	271.08
725.59	270.53
725.92	270.04
726.25	269.51
726.58	269.03
726.91	268.51
727.24	268.03
727.57	267.55
727.91	267.02
728.24	266.52
728.57	266.08
728.90	265.64
729.23	265.17
729.56	264.73
729.89	264.26
730.22	263.76
730.55	263.26
730.89	262.81
731.22	262.36
731.55	261.91
731.88	261.46
732.21	261.02
732.54	260.63
732.87	260.20
733.20	259.81
733.53	259.38
733.86	258.98
734.19	258.61
734.52	258.19
734.85	257.92
735.18	257.52
735.51	257.12
735.84	256.73
736.17	256.35
736.50	255.96
736.83	255.74
737.16	255.42
737.49	255.12
737.82	254.76
738.15	254.42
738.48	254.11
738.81	253.73
739.14	253.42
739.47	253.09
739.80	252.78
740.13	252.49
740.46	252.17
740.79	251.86
741.12	251.56
741.45	251.27
741.78	250.92
742.11	250.66
742.44	250.34
742.77	250.10
743.10	249.81
743.43	249.49
743.75	249.10
744.08	248.96
744.41	248.69
744.74	248.44
745.07	248.16
745.40	247.89
745.73	247.69
746.06	247.40
746.39	247.13
746.71	246.84
747.04	246.54
747.37	246.29
747.70	246.03
748.03	245.75
748.36	245.52
748.68	245.22
749.01	244.92
749.34	244.71
749.67	244.44
750.00	244.22
750.33	244.09
750.65	243.85
750.98	243.47
751.31	243.21
751.64	242.96
751.97	242.79
752.29	242.60
752.62	242.35
752.95	242.10
753.28	241.89
753.60	241.66
753.93	241.48
754.26	241.28
754.59	241.06
754.91	240.85
755.24	240.63
755.57	240.44
755.90	240.27
756.22	240.05
756.55	239.82
756.88	239.61
757.20	239.36
757.53	239.14
757.86	238.98
758.19	238.80
758.51	238.65
758.84	238.42
759.17	238.21
759.49	238.05
759.82	237.94
760.15	237.79
760.47	237.67
760.80	237.48
761.13	237.33
761.45	237.18
761.78	237.02
762.11	236.87
762.43	236.72
762.76	236.55
763.08	236.43
763.41	236.33
763.74	236.18
764.06	236.01
764.39	235.90
764.71	235.75
765.04	235.66
765.37	235.51
765.69	235.39
766.02	235.25
766.34	235.12
766.67	234.96
767.00	234.86
767.32	234.78
767.65	234.72
767.97	234.61
768.30	234.50
768.62	234.36
768.95	234.26
769.27	234.13
769.60	234.05
769.92	233.92
770.25	233.78
770.57	233.65
770.90	233.55
771.22	233.45
771.55	233.34
771.87	233.23
772.20	233.11
772.52	233.10
772.85	233.14
773.17	233.06
773.50	232.97
773.82	232.84
774.15	232.69
774.47	232.53
774.80	232.41
775.12	232.34
775.45	232.27
775.77	232.18
776.09	232.13
776.42	232.07
776.74	232.03
777.07	231.95
777.39	231.89
777.72	231.83
778.04	231.75
778.36	231.67
778.69	231.61
779.01	231.56
779.33	231.41
779.66	231.23
779.98	231.14
780.31	231.08
780.63	231.07
780.95	231.01
781.28	230.98
781.60	230.92
781.92	230.86
782.25	230.78
782.57	230.72
782.89	230.65
783.22	230.58
783.54	230.52
783.86	230.50
784.19	230.45
784.51	230.42
784.83	230.40
785.16	230.38
785.48	230.31
785.80	230.29
786.12	230.24
786.45	230.18
786.77	230.17
787.09	230.10
