SpectraSuite Data File
++++++++++++++++++++++++++++++++++++
Date: Fri Feb 01 14:58:36 EST 2013
User: group
Dark Spectrum Present: No
Reference Spectrum Present: No
Number of Sampled Component Spectra: 1
Spectrometers: USB2E7196
Integration Time (usec): 35000 (USB2E7196)
Spectra Averaged: 100 (USB2E7196)
Boxcar Smoothing: 10 (USB2E7196)
Correct for Electrical Dark: No (USB2E7196)
Strobe/Lamp Enabled: No (USB2E7196)
Correct for Detector Non-linearity: No (USB2E7196)
Correct for Stray Light: No (USB2E7196)
Number of Pixels in Processed Spectrum: 2048
>>>>>Begin Processed Spectral Data<<<<<
339.09	0.00
339.48	215.32
339.86	216.45
340.24	218.00
340.63	219.35
341.01	222.32
341.39	222.22
341.78	223.00
342.16	224.90
342.54	225.11
342.93	213.44
343.31	224.23
343.69	224.74
344.07	225.22
344.46	225.65
344.84	226.05
345.22	226.27
345.60	226.49
345.99	226.71
346.37	226.82
346.75	226.92
347.13	227.04
347.52	227.13
347.90	227.20
348.28	227.21
348.66	227.23
349.05	227.21
349.43	227.24
349.81	227.31
350.19	227.32
350.57	227.38
350.96	227.45
351.34	227.51
351.72	227.63
352.10	227.73
352.48	227.80
352.87	227.83
353.25	227.91
353.63	227.99
354.01	228.03
354.39	228.13
354.77	228.21
355.15	228.26
355.54	228.30
355.92	228.33
356.30	228.39
356.68	228.52
357.06	228.62
357.44	228.68
357.82	228.71
358.20	228.80
358.58	228.85
358.97	228.94
359.35	229.03
359.73	229.11
360.11	229.10
360.49	229.14
360.87	229.19
361.25	229.27
361.63	229.34
362.01	229.40
362.39	229.43
362.77	229.47
363.15	229.50
363.53	229.53
363.91	229.58
364.29	229.63
364.67	229.57
365.05	229.59
365.43	229.60
365.81	229.66
366.19	229.68
366.57	229.71
366.95	229.67
367.33	229.64
367.71	229.61
368.09	229.64
368.47	229.63
368.85	229.61
369.23	229.58
369.61	229.54
369.99	229.51
370.37	229.46
370.75	229.45
371.13	229.38
371.51	229.32
371.89	229.29
372.27	229.22
372.65	229.20
373.03	229.13
373.41	229.08
373.78	228.98
374.16	228.87
374.54	228.77
374.92	228.70
375.30	228.65
375.68	228.56
376.06	228.49
376.44	228.41
376.82	228.33
377.19	228.24
377.57	228.15
377.95	228.06
378.33	228.03
378.71	227.89
379.09	227.83
379.47	227.77
379.84	227.67
380.22	227.60
380.60	227.51
380.98	227.42
381.36	227.33
381.73	227.25
382.11	227.18
382.49	227.15
382.87	227.08
383.25	226.99
383.62	227.03
384.00	226.96
384.38	226.90
384.76	226.86
385.13	226.83
385.51	226.76
385.89	226.68
386.27	226.58
386.64	226.55
387.02	226.51
387.40	226.47
387.78	226.45
388.15	226.41
388.53	226.36
388.91	226.33
389.29	226.29
389.66	226.28
390.04	226.27
390.42	226.23
390.79	226.18
391.17	226.21
391.55	226.09
391.92	226.04
392.30	226.03
392.68	226.02
393.05	226.00
393.43	226.02
393.81	226.01
394.18	226.05
394.56	226.03
394.94	226.08
395.31	226.08
395.69	226.14
396.06	226.21
396.44	226.29
396.82	226.35
397.19	226.47
397.57	226.54
397.95	226.62
398.32	226.65
398.70	226.75
399.07	226.82
399.45	226.90
399.82	226.99
400.20	227.08
400.58	227.16
400.95	227.19
401.33	227.30
401.70	227.49
402.08	227.57
402.45	227.71
402.83	227.83
403.20	227.96
403.58	228.07
403.95	228.16
404.33	228.29
404.71	228.38
405.08	228.55
405.46	228.70
405.83	228.81
406.21	229.01
406.58	229.18
406.96	229.34
407.33	229.53
407.70	229.76
408.08	230.00
408.45	230.24
408.83	230.51
409.20	230.74
409.58	230.92
409.95	231.19
410.33	231.45
410.70	231.68
411.08	231.98
411.45	232.26
411.82	232.59
412.20	232.96
412.57	233.40
412.95	233.71
413.32	234.10
413.69	234.53
414.07	234.95
414.44	235.43
414.82	235.94
415.19	236.50
415.56	237.04
415.94	237.63
416.31	238.24
416.68	238.87
417.06	239.58
417.43	240.27
417.81	241.04
418.18	241.80
418.55	242.65
418.93	243.51
419.30	244.42
419.67	245.36
420.04	246.26
420.42	247.28
420.79	248.45
421.16	249.60
421.54	250.77
421.91	252.00
422.28	253.21
422.66	254.50
423.03	255.78
423.40	257.13
423.77	258.53
424.15	259.94
424.52	261.45
424.89	263.09
425.26	264.65
425.64	266.11
426.01	267.73
426.38	269.40
426.75	271.08
427.13	272.82
427.50	274.63
427.87	276.51
428.24	278.37
428.61	280.10
428.99	282.06
429.36	284.20
429.73	286.26
430.10	288.32
430.47	290.39
430.85	292.51
431.22	294.78
431.59	297.15
431.96	299.45
432.33	301.92
432.70	304.27
433.08	307.13
433.45	309.79
433.82	312.43
434.19	315.32
434.56	318.16
434.93	320.82
435.30	323.46
435.68	326.37
436.05	329.19
436.42	332.05
436.79	334.54
437.16	337.27
437.53	340.07
437.90	342.91
438.27	345.66
438.64	348.54
439.01	351.14
439.38	353.39
439.75	355.54
440.13	358.06
440.50	360.43
440.87	362.24
441.24	364.19
441.61	366.34
441.98	367.81
442.35	369.60
442.72	371.47
443.09	373.30
443.46	374.28
443.83	374.87
444.20	375.32
444.57	376.19
444.94	376.45
445.31	376.81
445.68	377.18
446.05	377.25
446.42	376.85
446.79	376.41
447.16	375.96
447.53	375.65
447.90	374.41
448.27	373.19
448.64	371.62
449.01	370.45
449.37	368.47
449.74	366.60
450.11	364.36
450.48	361.84
450.85	359.24
451.22	357.11
451.59	355.09
451.96	353.17
452.33	350.57
452.70	348.21
453.07	345.40
453.43	342.44
453.80	339.66
454.17	336.96
454.54	334.40
454.91	331.71
455.28	329.04
455.65	326.60
456.02	324.16
456.38	322.00
456.75	319.33
457.12	317.09
457.49	314.84
457.86	312.62
458.23	310.81
458.59	308.79
458.96	306.74
459.33	304.89
459.70	303.03
460.07	301.55
460.43	299.80
460.80	298.17
461.17	296.72
461.54	295.24
461.91	293.76
462.27	292.31
462.64	291.04
463.01	289.67
463.38	288.38
463.74	287.05
464.11	285.90
464.48	284.87
464.85	283.69
465.21	282.83
465.58	281.93
465.95	280.78
466.32	279.87
466.68	278.94
467.05	278.03
467.42	277.09
467.78	276.08
468.15	275.25
468.52	274.59
468.88	273.76
469.25	273.01
469.62	272.40
469.98	271.70
470.35	271.08
470.72	270.49
471.08	269.81
471.45	269.25
471.82	268.66
472.18	268.06
472.55	267.68
472.92	267.17
473.28	266.71
473.65	266.28
474.02	265.82
474.38	265.40
474.75	265.05
475.11	264.69
475.48	264.47
475.85	264.21
476.21	263.95
476.58	263.74
476.94	263.53
477.31	263.38
477.67	263.25
478.04	263.13
478.41	263.05
478.77	263.07
479.14	263.00
479.50	263.00
479.87	263.04
480.23	263.08
480.60	263.12
480.96	263.18
481.33	263.40
481.69	263.60
482.06	263.82
482.42	264.03
482.79	264.25
483.15	264.55
483.52	264.91
483.88	265.25
484.25	265.64
484.61	266.06
484.98	266.50
485.34	267.02
485.71	267.58
486.07	268.14
486.44	268.68
486.80	269.38
487.17	270.08
487.53	270.92
487.90	271.74
488.26	272.66
488.62	273.67
488.99	274.60
489.35	275.61
489.72	276.73
490.08	277.92
490.44	279.20
490.81	280.55
491.17	281.86
491.54	283.28
491.90	284.82
492.26	286.48
492.63	288.19
492.99	289.97
493.36	291.82
493.72	293.89
494.08	296.00
494.45	298.24
494.81	300.59
495.17	302.97
495.54	305.55
495.90	308.20
496.26	310.97
496.63	313.89
496.99	316.97
497.35	320.21
497.72	323.59
498.08	327.03
498.44	330.64
498.80	334.59
499.17	338.61
499.53	342.73
499.89	347.07
500.26	351.50
500.62	356.15
500.98	361.15
501.34	366.21
501.71	371.50
502.07	376.89
502.43	382.48
502.79	388.30
503.16	394.33
503.52	400.57
503.88	406.95
504.24	413.59
504.60	420.51
504.97	427.61
505.33	434.89
505.69	442.58
506.05	450.35
506.41	458.17
506.78	466.34
507.14	474.78
507.50	483.53
507.86	492.57
508.22	501.77
508.59	510.92
508.95	520.47
509.31	530.28
509.67	540.34
510.03	550.62
510.39	561.20
510.75	571.98
511.12	582.95
511.48	594.23
511.84	605.71
512.20	617.22
512.56	629.16
512.92	641.40
513.28	653.71
513.64	666.18
514.00	678.92
514.37	691.84
514.73	704.88
515.09	717.89
515.45	731.16
515.81	744.77
516.17	758.77
516.53	772.89
516.89	787.02
517.25	801.30
517.61	815.82
517.97	830.22
518.33	844.68
518.69	859.46
519.05	874.47
519.41	889.62
519.77	905.16
520.13	920.71
520.49	936.07
520.85	951.59
521.21	967.35
521.57	983.68
521.93	999.58
522.29	1016.05
522.65	1032.35
523.01	1048.65
523.37	1064.79
523.73	1080.96
524.09	1097.09
524.45	1113.54
524.81	1130.25
525.17	1147.11
525.53	1164.10
525.89	1180.99
526.25	1197.92
526.61	1214.39
526.97	1231.31
527.33	1247.84
527.68	1264.42
528.04	1281.00
528.40	1297.63
528.76	1314.83
529.12	1331.50
529.48	1348.35
529.84	1364.38
530.20	1381.09
530.56	1398.23
530.91	1415.73
531.27	1432.67
531.63	1449.26
531.99	1465.90
532.35	1481.92
532.71	1497.89
533.07	1514.27
533.42	1530.27
533.78	1546.32
534.14	1562.67
534.50	1577.92
534.86	1594.01
535.21	1609.22
535.57	1625.28
535.93	1640.98
536.29	1655.79
536.65	1670.95
537.00	1685.91
537.36	1701.38
537.72	1715.92
538.08	1730.30
538.44	1744.13
538.79	1758.11
539.15	1772.04
539.51	1785.99
539.87	1800.40
540.22	1814.19
540.58	1828.01
540.94	1841.58
541.29	1854.59
541.65	1867.38
542.01	1880.71
542.37	1892.98
542.72	1905.45
543.08	1917.21
543.44	1929.69
543.79	1940.95
544.15	1951.93
544.51	1963.52
544.87	1974.55
545.22	1985.44
545.58	1995.75
545.94	2005.47
546.29	2015.49
546.65	2025.18
547.01	2034.26
547.36	2043.01
547.72	2051.48
548.07	2059.35
548.43	2067.47
548.79	2075.56
549.14	2083.13
549.50	2090.57
549.86	2098.28
550.21	2105.66
550.57	2112.88
550.92	2119.45
551.28	2126.49
551.64	2133.58
551.99	2140.11
552.35	2146.30
552.70	2152.43
553.06	2158.43
553.41	2164.80
553.77	2170.67
554.13	2176.78
554.48	2182.92
554.84	2188.23
555.19	2193.55
555.55	2198.76
555.90	2203.06
556.26	2207.90
556.61	2212.56
556.97	2216.65
557.32	2220.69
557.68	2224.72
558.03	2228.92
558.39	2232.53
558.74	2237.10
559.10	2240.89
559.45	2244.37
559.81	2248.53
560.16	2252.33
560.52	2255.45
560.87	2258.81
561.23	2261.34
561.58	2264.09
561.94	2266.54
562.29	2268.93
562.64	2271.55
563.00	2273.95
563.35	2277.56
563.71	2280.67
564.06	2283.75
564.42	2286.55
564.77	2288.84
565.12	2290.99
565.48	2292.88
565.83	2294.57
566.19	2295.85
566.54	2296.78
566.89	2298.03
567.25	2298.59
567.60	2299.76
567.96	2301.39
568.31	2302.08
568.66	2303.05
569.02	2303.62
569.37	2303.86
569.72	2304.42
570.08	2304.22
570.43	2304.13
570.78	2303.21
571.14	2301.37
571.49	2299.91
571.84	2299.53
572.20	2298.25
572.55	2296.98
572.90	2295.41
573.26	2293.91
573.61	2292.08
573.96	2289.91
574.31	2286.61
574.67	2283.41
575.02	2279.63
575.37	2276.08
575.72	2271.99
576.08	2268.68
576.43	2265.16
576.78	2261.33
577.13	2258.15
577.49	2254.96
577.84	2251.28
578.19	2247.40
578.54	2243.65
578.90	2239.17
579.25	2233.44
579.60	2228.39
579.95	2223.42
580.30	2218.09
580.66	2212.70
581.01	2207.55
581.36	2202.54
581.71	2198.27
582.06	2193.66
582.42	2189.04
582.77	2183.66
583.12	2179.08
583.47	2173.91
583.82	2168.80
584.17	2163.51
584.53	2157.87
584.88	2152.12
585.23	2146.22
585.58	2140.67
585.93	2135.03
586.28	2130.26
586.63	2125.02
586.98	2119.92
587.34	2115.08
587.69	2110.06
588.04	2104.73
588.39	2098.90
588.74	2092.46
589.09	2086.24
589.44	2079.25
589.79	2073.16
590.14	2067.37
590.49	2060.66
590.84	2054.23
591.19	2048.03
591.54	2041.33
591.89	2033.69
592.25	2026.85
592.60	2019.48
592.95	2011.84
593.30	2004.48
593.65	1996.72
594.00	1989.71
594.35	1982.34
594.70	1974.23
595.05	1966.96
595.40	1959.61
595.75	1952.08
596.10	1945.67
596.45	1938.49
596.80	1932.20
597.15	1925.35
597.50	1918.16
597.85	1911.76
598.19	1905.10
598.54	1897.99
598.89	1891.38
599.24	1885.73
599.59	1878.95
599.94	1872.81
600.29	1866.39
600.64	1859.84
600.99	1852.37
601.34	1845.44
601.69	1838.50
602.04	1831.54
602.39	1824.11
602.74	1817.21
603.08	1810.41
603.43	1803.55
603.78	1796.52
604.13	1789.36
604.48	1782.16
604.83	1775.32
605.18	1768.20
605.53	1760.31
605.87	1752.25
606.22	1745.01
606.57	1736.89
606.92	1729.53
607.27	1722.17
607.62	1715.29
607.96	1707.83
608.31	1701.17
608.66	1693.50
609.01	1685.88
609.36	1678.37
609.70	1670.32
610.05	1662.37
610.40	1654.72
610.75	1646.51
611.10	1638.73
611.44	1630.44
611.79	1622.46
612.14	1613.81
612.49	1604.70
612.83	1596.24
613.18	1588.08
613.53	1580.00
613.88	1571.48
614.22	1563.31
614.57	1555.02
614.92	1546.95
615.27	1539.54
615.61	1531.36
615.96	1523.37
616.31	1515.85
616.65	1508.45
617.00	1500.94
617.35	1493.29
617.70	1484.93
618.04	1476.42
618.39	1468.29
618.74	1460.65
619.08	1452.44
619.43	1444.91
619.78	1438.08
620.12	1430.95
620.47	1423.55
620.82	1415.50
621.16	1408.24
621.51	1400.65
621.85	1392.91
622.20	1384.53
622.55	1376.09
622.89	1368.29
623.24	1360.70
623.59	1353.34
623.93	1345.75
624.28	1338.45
624.62	1330.97
624.97	1323.76
625.32	1317.06
625.66	1310.08
626.01	1302.90
626.35	1295.41
626.70	1287.75
627.04	1279.98
627.39	1272.35
627.73	1264.96
628.08	1258.04
628.43	1250.63
628.77	1243.21
629.12	1235.63
629.46	1228.49
629.81	1221.17
630.15	1213.94
630.50	1206.62
630.84	1198.45
631.19	1190.72
631.53	1183.36
631.88	1175.83
632.22	1168.33
632.57	1161.09
632.91	1153.63
633.26	1146.25
633.60	1138.98
633.95	1131.94
634.29	1124.99
634.64	1118.15
634.98	1110.87
635.32	1103.70
635.67	1097.26
636.01	1090.71
636.36	1083.94
636.70	1077.45
637.05	1070.96
637.39	1064.51
637.73	1058.08
638.08	1052.32
638.42	1046.35
638.77	1039.98
639.11	1033.41
639.45	1027.13
639.80	1020.49
640.14	1014.06
640.49	1007.60
640.83	1001.35
641.17	995.17
641.52	989.00
641.86	982.74
642.20	976.89
642.55	970.71
642.89	964.16
643.23	957.74
643.58	952.03
643.92	945.83
644.26	939.72
644.61	933.77
644.95	927.79
645.29	921.13
645.64	914.47
645.98	908.19
646.32	902.38
646.66	896.30
647.01	890.54
647.35	884.92
647.69	879.17
648.04	873.74
648.38	867.88
648.72	861.79
649.06	855.69
649.41	849.85
649.75	843.82
650.09	838.00
650.43	832.16
650.78	826.04
651.12	820.15
651.46	814.45
651.80	808.66
652.14	803.18
652.49	797.84
652.83	792.67
653.17	786.97
653.51	781.29
653.85	775.97
654.20	770.39
654.54	764.43
654.88	758.72
655.22	752.78
655.56	747.14
655.90	741.71
656.25	736.54
656.59	731.23
656.93	726.17
657.27	721.05
657.61	715.70
657.95	710.64
658.29	705.60
658.64	700.48
658.98	695.26
659.32	689.88
659.66	684.72
660.00	679.44
660.34	674.55
660.68	669.65
661.02	664.67
661.36	660.06
661.70	655.58
662.05	651.20
662.39	646.88
662.73	642.42
663.07	638.07
663.41	633.65
663.75	629.19
664.09	624.69
664.43	620.30
664.77	616.26
665.11	612.12
665.45	608.02
665.79	603.95
666.13	599.85
666.47	595.80
666.81	591.73
667.15	587.65
667.49	583.80
667.83	580.05
668.17	576.09
668.51	571.99
668.85	568.04
669.19	564.23
669.53	560.43
669.87	556.66
670.21	553.00
670.55	549.37
670.89	545.92
671.23	542.56
671.57	539.06
671.91	535.53
672.25	532.13
672.58	528.69
672.92	525.33
673.26	522.23
673.60	519.18
673.94	516.08
674.28	513.23
674.62	510.30
674.96	507.25
675.30	504.41
675.64	501.48
675.97	498.75
676.31	495.96
676.65	493.10
676.99	490.39
677.33	487.57
677.67	484.81
678.01	481.84
678.34	478.82
678.68	476.02
679.02	473.19
679.36	470.37
679.70	467.64
680.04	464.85
680.37	462.00
680.71	459.16
681.05	456.58
681.39	453.86
681.73	451.23
682.06	448.68
682.40	446.12
682.74	443.65
683.08	441.13
683.42	438.54
683.75	436.04
684.09	433.53
684.43	431.12
684.77	428.65
685.10	426.33
685.44	424.02
685.78	421.72
686.12	419.49
686.45	417.23
686.79	414.94
687.13	412.81
687.46	410.68
687.80	408.55
688.14	406.33
688.48	404.32
688.81	402.08
689.15	399.90
689.49	397.83
689.82	395.78
690.16	393.66
690.50	391.73
690.83	389.77
691.17	387.81
691.51	385.92
691.84	384.10
692.18	382.18
692.52	380.26
692.85	378.37
693.19	376.53
693.52	374.72
693.86	372.94
694.20	371.14
694.53	369.35
694.87	367.53
695.21	365.72
695.54	363.85
695.88	362.18
696.21	360.52
696.55	358.80
696.88	357.12
697.22	355.51
697.56	353.85
697.89	352.22
698.23	350.65
698.56	349.03
698.90	347.48
699.23	345.85
699.57	344.31
699.90	342.77
700.24	341.25
700.58	339.70
700.91	338.19
701.25	336.75
701.58	335.40
701.92	334.01
702.25	332.68
702.59	331.35
702.92	329.98
703.26	328.69
703.59	327.41
703.93	326.22
704.26	324.95
704.60	323.67
704.93	322.40
705.26	321.11
705.60	319.98
705.93	318.82
706.27	317.80
706.60	316.77
706.94	315.70
707.27	314.55
707.61	313.51
707.94	312.53
708.27	311.49
708.61	310.38
708.94	309.41
709.28	308.42
709.61	307.50
709.94	306.58
710.28	305.50
710.61	304.58
710.95	303.51
711.28	302.60
711.61	301.70
711.95	300.86
712.28	299.96
712.61	298.98
712.95	298.07
713.28	297.17
713.61	296.25
713.95	295.39
714.28	294.62
714.61	293.76
714.95	292.93
715.28	292.06
715.61	291.21
715.95	290.37
716.28	289.57
716.61	288.74
716.95	287.95
717.28	287.25
717.61	286.44
717.94	285.73
718.28	284.94
718.61	284.25
718.94	283.53
719.27	282.85
719.61	282.18
719.94	281.51
720.27	280.82
720.60	280.12
720.94	279.51
721.27	278.89
721.60	278.31
721.93	277.70
722.27	277.17
722.60	276.62
722.93	276.05
723.26	275.48
723.59	274.93
723.93	274.39
724.26	273.86
724.59	273.34
724.92	272.83
725.25	272.33
725.59	271.78
725.92	271.27
726.25	270.76
726.58	270.29
726.91	269.79
727.24	269.33
727.57	268.92
727.91	268.40
728.24	267.94
728.57	267.45
728.90	266.97
729.23	266.48
729.56	266.02
729.89	265.52
730.22	265.03
730.55	264.55
730.89	264.09
731.22	263.60
731.55	263.19
731.88	262.72
732.21	262.29
732.54	261.84
732.87	261.41
733.20	261.00
733.53	260.59
733.86	260.24
734.19	259.82
734.52	259.42
734.85	259.13
735.18	258.68
735.51	258.31
735.84	257.99
736.17	257.65
736.50	257.25
736.83	257.06
737.16	256.73
737.49	256.40
737.82	256.09
738.15	255.77
738.48	255.42
738.81	255.12
739.14	254.78
739.47	254.46
739.80	254.17
740.13	253.86
740.46	253.54
740.79	253.17
741.12	252.87
741.45	252.56
741.78	252.17
742.11	251.88
742.44	251.55
742.77	251.21
743.10	250.85
743.43	250.57
743.75	250.16
744.08	250.03
744.41	249.74
744.74	249.44
745.07	249.15
745.40	248.90
745.73	248.66
746.06	248.42
746.39	248.15
746.71	247.87
747.04	247.62
747.37	247.35
747.70	247.09
748.03	246.83
748.36	246.60
748.68	246.40
749.01	246.19
749.34	245.98
749.67	245.77
750.00	245.57
750.33	245.42
750.65	245.23
750.98	244.88
751.31	244.68
751.64	244.49
751.97	244.34
752.29	244.14
752.62	243.91
752.95	243.71
753.28	243.55
753.60	243.34
753.93	243.16
754.26	243.00
754.59	242.83
754.91	242.64
755.24	242.46
755.57	242.26
755.90	242.05
756.22	241.87
756.55	241.68
756.88	241.49
757.20	241.27
757.53	241.04
757.86	240.91
758.19	240.75
758.51	240.58
758.84	240.37
759.17	240.20
759.49	240.05
759.82	239.94
760.15	239.75
760.47	239.63
760.80	239.43
761.13	239.30
761.45	239.13
761.78	238.96
762.11	238.81
762.43	238.65
762.76	238.53
763.08	238.43
763.41	238.30
763.74	238.18
764.06	238.05
764.39	237.90
764.71	237.71
765.04	237.57
765.37	237.44
765.69	237.31
766.02	237.19
766.34	237.04
766.67	236.87
767.00	236.81
767.32	236.77
767.65	236.73
767.97	236.61
768.30	236.52
768.62	236.44
768.95	236.32
769.27	236.23
769.60	236.15
769.92	235.99
770.25	235.88
770.57	235.77
770.90	235.68
771.22	235.60
771.55	235.53
771.87	235.45
772.20	235.34
772.52	235.31
772.85	235.32
773.17	235.27
773.50	235.21
773.82	235.06
774.15	234.91
774.47	234.76
774.80	234.67
775.12	234.57
775.45	234.45
775.77	234.38
776.09	234.31
776.42	234.22
776.74	234.16
777.07	234.10
777.39	234.02
777.72	233.93
778.04	233.92
778.36	233.84
778.69	233.76
779.01	233.72
779.33	233.60
779.66	233.40
779.98	233.30
780.31	233.21
780.63	233.18
780.95	233.11
781.28	233.04
781.60	232.95
781.92	232.89
782.25	232.86
782.57	232.79
782.89	232.71
783.22	232.62
783.54	232.52
783.86	232.45
784.19	232.38
784.51	232.33
784.83	232.21
785.16	232.13
785.48	232.03
785.80	231.98
786.12	231.93
786.45	231.89
786.77	231.83
787.09	231.76
