SpectraSuite Data File
++++++++++++++++++++++++++++++++++++
Date: Fri Feb 01 17:16:45 EST 2013
User: group
Dark Spectrum Present: No
Reference Spectrum Present: No
Number of Sampled Component Spectra: 1
Spectrometers: USB2E7196
Integration Time (usec): 35000 (USB2E7196)
Spectra Averaged: 100 (USB2E7196)
Boxcar Smoothing: 10 (USB2E7196)
Correct for Electrical Dark: No (USB2E7196)
Strobe/Lamp Enabled: No (USB2E7196)
Correct for Detector Non-linearity: No (USB2E7196)
Correct for Stray Light: No (USB2E7196)
Number of Pixels in Processed Spectrum: 2048
>>>>>Begin Processed Spectral Data<<<<<
339.09	0.00
339.48	212.57
339.86	214.44
340.24	215.56
340.63	217.52
341.01	220.19
341.39	220.10
341.78	221.55
342.16	222.16
342.54	223.09
342.93	211.53
343.31	222.25
343.69	222.83
344.07	223.31
344.46	223.76
344.84	224.15
345.22	224.37
345.60	224.62
345.99	224.79
346.37	224.97
346.75	225.06
347.13	225.15
347.52	225.24
347.90	225.32
348.28	225.30
348.66	225.35
349.05	225.33
349.43	225.40
349.81	225.42
350.19	225.49
350.57	225.54
350.96	225.62
351.34	225.70
351.72	225.77
352.10	225.84
352.48	225.86
352.87	225.92
353.25	225.99
353.63	226.09
354.01	226.16
354.39	226.22
354.77	226.32
355.15	226.38
355.54	226.45
355.92	226.45
356.30	226.54
356.68	226.66
357.06	226.73
357.44	226.77
357.82	226.85
358.20	226.90
358.58	226.98
358.97	227.03
359.35	227.07
359.73	227.18
360.11	227.24
360.49	227.36
360.87	227.36
361.25	227.42
361.63	227.43
362.01	227.49
362.39	227.50
362.77	227.53
363.15	227.58
363.53	227.60
363.91	227.61
364.29	227.65
364.67	227.58
365.05	227.60
365.43	227.60
365.81	227.62
366.19	227.66
366.57	227.66
366.95	227.64
367.33	227.62
367.71	227.58
368.09	227.60
368.47	227.55
368.85	227.55
369.23	227.54
369.61	227.53
369.99	227.51
370.37	227.51
370.75	227.50
371.13	227.43
371.51	227.36
371.89	227.35
372.27	227.31
372.65	227.25
373.03	227.20
373.41	227.15
373.78	227.11
374.16	226.97
374.54	226.92
374.92	226.83
375.30	226.79
375.68	226.71
376.06	226.62
376.44	226.57
376.82	226.53
377.19	226.44
377.57	226.36
377.95	226.27
378.33	226.17
378.71	226.07
379.09	226.00
379.47	225.93
379.84	225.84
380.22	225.77
380.60	225.68
380.98	225.62
381.36	225.53
381.73	225.43
382.11	225.40
382.49	225.33
382.87	225.29
383.25	225.19
383.62	225.25
384.00	225.21
384.38	225.15
384.76	225.11
385.13	225.12
385.51	225.11
385.89	225.03
386.27	225.03
386.64	225.00
387.02	225.01
387.40	224.99
387.78	224.98
388.15	224.95
388.53	224.98
388.91	224.96
389.29	224.99
389.66	224.98
390.04	224.99
390.42	224.99
390.79	224.99
391.17	225.00
391.55	224.91
391.92	224.89
392.30	224.92
392.68	224.92
393.05	224.89
393.43	224.90
393.81	224.94
394.18	224.94
394.56	224.95
394.94	224.98
395.31	224.99
395.69	225.07
396.06	225.13
396.44	225.15
396.82	225.19
397.19	225.27
397.57	225.34
397.95	225.41
398.32	225.47
398.70	225.51
399.07	225.60
399.45	225.65
399.82	225.74
400.20	225.80
400.58	225.88
400.95	225.93
401.33	225.99
401.70	226.15
402.08	226.22
402.45	226.30
402.83	226.40
403.20	226.53
403.58	226.61
403.95	226.72
404.33	226.83
404.71	226.95
405.08	227.10
405.46	227.22
405.83	227.32
406.21	227.46
406.58	227.61
406.96	227.73
407.33	227.86
407.70	228.03
408.08	228.26
408.45	228.42
408.83	228.67
409.20	228.85
409.58	229.02
409.95	229.27
410.33	229.54
410.70	229.77
411.08	230.04
411.45	230.33
411.82	230.63
412.20	231.00
412.57	231.40
412.95	231.68
413.32	232.07
413.69	232.49
414.07	232.91
414.44	233.39
414.82	233.87
415.19	234.45
415.56	235.00
415.94	235.56
416.31	236.25
416.68	236.87
417.06	237.62
417.43	238.30
417.81	239.08
418.18	239.89
418.55	240.72
418.93	241.61
419.30	242.53
419.67	243.50
420.04	244.50
420.42	245.47
420.79	246.65
421.16	247.83
421.54	249.05
421.91	250.30
422.28	251.59
422.66	252.99
423.03	254.33
423.40	255.71
423.77	257.12
424.15	258.57
424.52	260.07
424.89	261.75
425.26	263.36
425.64	264.84
426.01	266.49
426.38	268.23
426.75	269.92
427.13	271.71
427.50	273.55
427.87	275.48
428.24	277.41
428.61	279.22
428.99	281.20
429.36	283.35
429.73	285.47
430.10	287.56
430.47	289.63
430.85	291.79
431.22	294.07
431.59	296.54
431.96	298.87
432.33	301.45
432.70	303.86
433.08	306.79
433.45	309.49
433.82	312.16
434.19	315.11
434.56	318.00
434.93	320.71
435.30	323.38
435.68	326.34
436.05	329.30
436.42	332.22
436.79	334.81
437.16	337.56
437.53	340.49
437.90	343.39
438.27	346.24
438.64	349.17
439.01	351.86
439.38	354.17
439.75	356.42
440.13	359.00
440.50	361.40
440.87	363.30
441.24	365.33
441.61	367.54
441.98	369.11
442.35	371.02
442.72	372.92
443.09	374.84
443.46	375.86
443.83	376.45
444.20	376.99
444.57	377.93
444.94	378.30
445.31	378.64
445.68	378.97
446.05	379.09
446.42	378.73
446.79	378.29
447.16	377.83
447.53	377.50
447.90	376.31
448.27	375.12
448.64	373.51
449.01	372.37
449.37	370.40
449.74	368.43
450.11	366.14
450.48	363.67
450.85	361.09
451.22	358.92
451.59	356.84
451.96	354.80
452.33	352.12
452.70	349.73
453.07	346.84
453.43	343.90
453.80	341.07
454.17	338.30
454.54	335.70
454.91	332.91
455.28	330.15
455.65	327.59
456.02	325.08
456.38	322.85
456.75	320.07
457.12	317.72
457.49	315.46
457.86	313.20
458.23	311.24
458.59	309.08
458.96	306.94
459.33	305.00
459.70	303.09
460.07	301.52
460.43	299.70
460.80	298.00
461.17	296.51
461.54	294.94
461.91	293.46
462.27	292.01
462.64	290.72
463.01	289.31
463.38	287.92
463.74	286.50
464.11	285.29
464.48	284.26
464.85	283.14
465.21	282.23
465.58	281.27
465.95	280.13
466.32	279.23
466.68	278.28
467.05	277.38
467.42	276.46
467.78	275.51
468.15	274.59
468.52	273.90
468.88	273.01
469.25	272.21
469.62	271.61
469.98	270.90
470.35	270.25
470.72	269.64
471.08	269.02
471.45	268.50
471.82	267.93
472.18	267.32
472.55	266.85
472.92	266.29
473.28	265.80
473.65	265.33
474.02	264.90
474.38	264.51
474.75	264.19
475.11	263.82
475.48	263.56
475.85	263.32
476.21	263.11
476.58	262.96
476.94	262.84
477.31	262.64
477.67	262.47
478.04	262.35
478.41	262.31
478.77	262.35
479.14	262.27
479.50	262.26
479.87	262.35
480.23	262.40
480.60	262.49
480.96	262.64
481.33	262.88
481.69	263.04
482.06	263.25
482.42	263.46
482.79	263.74
483.15	264.06
483.52	264.44
483.88	264.78
484.25	265.15
484.61	265.59
484.98	266.03
485.34	266.62
485.71	267.23
486.07	267.87
486.44	268.48
486.80	269.22
487.17	269.95
487.53	270.78
487.90	271.64
488.26	272.59
488.62	273.56
488.99	274.52
489.35	275.58
489.72	276.69
490.08	277.92
490.44	279.14
490.81	280.47
491.17	281.82
491.54	283.33
491.90	284.88
492.26	286.52
492.63	288.28
492.99	290.06
493.36	291.95
493.72	293.93
494.08	296.02
494.45	298.22
494.81	300.59
495.17	302.98
495.54	305.56
495.90	308.26
496.26	311.01
496.63	313.95
496.99	317.04
497.35	320.31
497.72	323.67
498.08	327.23
498.44	330.89
498.80	334.80
499.17	338.78
499.53	342.90
499.89	347.24
500.26	351.71
500.62	356.35
500.98	361.30
501.34	366.36
501.71	371.64
502.07	377.04
502.43	382.60
502.79	388.37
503.16	394.33
503.52	400.55
503.88	406.92
504.24	413.50
504.60	420.32
504.97	427.37
505.33	434.62
505.69	442.26
506.05	449.92
506.41	457.73
506.78	465.84
507.14	474.18
507.50	482.78
507.86	491.70
508.22	500.79
508.59	509.86
508.95	519.28
509.31	528.99
509.67	538.96
510.03	549.12
510.39	559.53
510.75	570.20
511.12	581.01
511.48	592.07
511.84	603.34
512.20	614.69
512.56	626.36
512.92	638.30
513.28	650.41
513.64	662.74
514.00	675.23
514.37	688.00
514.73	700.89
515.09	713.68
515.45	726.63
515.81	739.95
516.17	753.60
516.53	767.50
516.89	781.43
517.25	795.32
517.61	809.48
517.97	823.68
518.33	837.85
518.69	852.40
519.05	867.15
519.41	882.02
519.77	897.25
520.13	912.38
520.49	927.52
520.85	942.57
521.21	957.92
521.57	973.83
521.93	989.28
522.29	1005.32
522.65	1021.30
523.01	1037.16
523.37	1052.88
523.73	1068.83
524.09	1084.53
524.45	1100.46
524.81	1116.81
525.17	1133.21
525.53	1149.74
525.89	1166.21
526.25	1182.71
526.61	1198.85
526.97	1215.31
527.33	1231.56
527.68	1247.87
528.04	1264.04
528.40	1280.32
528.76	1297.16
529.12	1313.49
529.48	1330.17
529.84	1345.71
530.20	1362.02
530.56	1378.76
530.91	1395.83
531.27	1412.22
531.63	1428.44
531.99	1444.69
532.35	1460.41
532.71	1476.15
533.07	1492.22
533.42	1507.97
533.78	1523.73
534.14	1539.66
534.50	1554.65
534.86	1570.15
535.21	1585.12
535.57	1600.71
535.93	1615.89
536.29	1630.39
536.65	1645.04
537.00	1659.35
537.36	1674.59
537.72	1688.80
538.08	1703.09
538.44	1716.74
538.79	1730.50
539.15	1743.83
539.51	1757.29
539.87	1771.44
540.22	1784.85
540.58	1798.30
540.94	1811.37
541.29	1823.94
541.65	1836.51
542.01	1849.60
542.37	1861.95
542.72	1874.40
543.08	1886.15
543.44	1898.50
543.79	1909.60
544.15	1920.62
544.51	1932.15
544.87	1943.03
545.22	1953.92
545.58	1964.15
545.94	1973.99
546.29	1983.76
546.65	1993.69
547.01	2003.17
547.36	2011.85
547.72	2020.37
548.07	2028.38
548.43	2036.72
548.79	2044.84
549.14	2052.62
549.50	2059.99
549.86	2067.50
550.21	2074.88
550.57	2082.12
550.92	2088.79
551.28	2096.05
551.64	2103.24
551.99	2109.92
552.35	2116.25
552.70	2122.60
553.06	2128.79
553.41	2135.19
553.77	2141.39
554.13	2147.61
554.48	2153.85
554.84	2159.82
555.19	2165.31
555.55	2170.76
555.90	2175.35
556.26	2180.61
556.61	2185.47
556.97	2190.19
557.32	2194.84
557.68	2199.07
558.03	2203.60
558.39	2207.52
558.74	2212.41
559.10	2216.63
559.45	2220.50
559.81	2225.03
560.16	2229.05
560.52	2232.56
560.87	2236.17
561.23	2239.34
561.58	2242.56
561.94	2245.45
562.29	2247.89
562.64	2251.09
563.00	2253.88
563.35	2257.60
563.71	2260.97
564.06	2264.27
564.42	2267.44
564.77	2270.11
565.12	2272.91
565.48	2275.30
565.83	2277.66
566.19	2279.38
566.54	2280.48
566.89	2282.01
567.25	2283.00
567.60	2284.55
567.96	2286.61
568.31	2287.89
568.66	2289.14
569.02	2290.17
569.37	2290.81
569.72	2292.04
570.08	2292.49
570.43	2292.88
570.78	2292.70
571.14	2291.54
571.49	2290.58
571.84	2290.35
572.20	2289.66
572.55	2288.80
572.90	2287.23
573.26	2286.23
573.61	2284.49
573.96	2283.25
574.31	2280.59
574.67	2277.95
575.02	2274.58
575.37	2271.35
575.72	2267.88
576.08	2264.73
576.43	2261.52
576.78	2258.31
577.13	2255.32
577.49	2252.23
577.84	2248.95
578.19	2245.49
578.54	2242.20
578.90	2238.56
579.25	2233.44
579.60	2228.76
579.95	2224.12
580.30	2219.50
580.66	2214.44
581.01	2209.86
581.36	2205.05
581.71	2201.33
582.06	2197.27
582.42	2193.28
582.77	2188.40
583.12	2184.01
583.47	2179.85
583.82	2175.22
584.17	2170.15
584.53	2164.91
584.88	2159.54
585.23	2154.13
585.58	2148.86
585.93	2143.46
586.28	2138.47
586.63	2133.65
586.98	2128.76
587.34	2124.14
587.69	2119.53
588.04	2114.57
588.39	2109.16
588.74	2102.80
589.09	2096.66
589.44	2090.01
589.79	2083.94
590.14	2078.38
590.49	2071.97
590.84	2065.51
591.19	2059.67
591.54	2053.19
591.89	2046.16
592.25	2039.70
592.60	2032.58
592.95	2025.35
593.30	2018.30
593.65	2011.02
594.00	2004.01
594.35	1996.88
594.70	1988.89
595.05	1981.82
595.40	1974.66
595.75	1967.25
596.10	1961.41
596.45	1954.86
596.80	1948.81
597.15	1942.44
597.50	1935.66
597.85	1929.23
598.19	1922.71
598.54	1915.86
598.89	1909.43
599.24	1903.49
599.59	1897.06
599.94	1890.85
600.29	1884.44
600.64	1877.77
600.99	1870.53
601.34	1863.92
601.69	1856.87
602.04	1850.14
602.39	1842.81
602.74	1836.07
603.08	1829.50
603.43	1822.65
603.78	1815.33
604.13	1808.13
604.48	1800.97
604.83	1794.14
605.18	1787.46
605.53	1779.69
605.87	1771.67
606.22	1764.46
606.57	1756.46
606.92	1748.92
607.27	1741.97
607.62	1735.15
607.96	1728.12
608.31	1721.59
608.66	1714.03
609.01	1706.70
609.36	1699.28
609.70	1691.27
610.05	1683.19
610.40	1675.47
610.75	1667.14
611.10	1659.55
611.44	1650.99
611.79	1642.89
612.14	1634.15
612.49	1624.85
612.83	1616.22
613.18	1607.97
613.53	1599.79
613.88	1591.32
614.22	1583.00
614.57	1574.14
614.92	1566.04
615.27	1558.43
615.61	1550.01
615.96	1541.91
616.31	1534.14
616.65	1526.69
617.00	1519.11
617.35	1511.33
617.70	1503.01
618.04	1494.56
618.39	1486.18
618.74	1478.63
619.08	1470.26
619.43	1462.56
619.78	1455.51
620.12	1448.23
620.47	1440.81
620.82	1432.50
621.16	1424.88
621.51	1417.15
621.85	1409.35
622.20	1400.87
622.55	1392.38
622.89	1384.46
623.24	1376.62
623.59	1369.02
623.93	1361.36
624.28	1354.12
624.62	1346.50
624.97	1339.25
625.32	1332.28
625.66	1325.25
626.01	1317.96
626.35	1310.61
626.70	1302.73
627.04	1295.01
627.39	1287.22
627.73	1279.52
628.08	1272.50
628.43	1265.24
628.77	1257.92
629.12	1250.50
629.46	1243.24
629.81	1235.49
630.15	1228.14
630.50	1220.82
630.84	1212.64
631.19	1204.60
631.53	1196.88
631.88	1189.27
632.22	1181.53
632.57	1174.14
632.91	1166.52
633.26	1159.13
633.60	1151.45
633.95	1144.23
634.29	1137.17
634.64	1130.36
634.98	1123.08
635.32	1115.94
635.67	1109.17
636.01	1102.39
636.36	1095.69
636.70	1089.00
637.05	1082.46
637.39	1075.86
637.73	1069.33
638.08	1063.42
638.42	1057.32
638.77	1050.90
639.11	1044.39
639.45	1037.97
639.80	1031.29
640.14	1024.88
640.49	1018.21
640.83	1012.00
641.17	1005.82
641.52	999.39
641.86	992.90
642.20	987.01
642.55	980.54
642.89	974.22
643.23	967.67
643.58	961.68
643.92	955.44
644.26	949.50
644.61	943.38
644.95	937.23
645.29	930.58
645.64	923.91
645.98	917.49
646.32	911.37
646.66	905.29
647.01	899.52
647.35	893.82
647.69	887.89
648.04	882.25
648.38	876.35
648.72	870.40
649.06	864.37
649.41	858.36
649.75	852.51
650.09	846.48
650.43	840.66
650.78	834.47
651.12	828.54
651.46	822.67
651.80	817.01
652.14	811.51
652.49	806.20
652.83	800.95
653.17	795.35
653.51	789.81
653.85	784.36
654.20	778.71
654.54	772.58
654.88	766.81
655.22	760.83
655.56	755.14
655.90	749.64
656.25	744.43
656.59	739.05
656.93	733.82
657.27	728.61
657.61	723.14
657.95	718.04
658.29	712.86
658.64	707.49
658.98	702.12
659.32	696.70
659.66	691.37
660.00	686.07
660.34	681.05
660.68	676.04
661.02	670.98
661.36	666.22
661.70	661.71
662.05	657.34
662.39	653.02
662.73	648.52
663.07	644.04
663.41	639.53
663.75	635.03
664.09	630.48
664.43	626.03
664.77	621.87
665.11	617.61
665.45	613.49
665.79	609.50
666.13	605.35
666.47	601.19
666.81	597.06
667.15	592.96
667.49	588.94
667.83	585.01
668.17	581.03
668.51	576.95
668.85	572.89
669.19	568.94
669.53	565.21
669.87	561.29
670.21	557.60
670.55	553.93
670.89	550.47
671.23	547.00
671.57	543.45
671.91	539.99
672.25	536.42
672.58	532.87
672.92	529.37
673.26	526.13
673.60	522.93
673.94	519.81
674.28	516.80
674.62	513.88
674.96	510.87
675.30	508.00
675.64	505.10
675.97	502.25
676.31	499.41
676.65	496.43
676.99	493.74
677.33	490.84
677.67	488.03
678.01	485.08
678.34	482.15
678.68	479.27
679.02	476.36
679.36	473.58
679.70	470.88
680.04	468.15
680.37	465.34
680.71	462.54
681.05	459.91
681.39	457.21
681.73	454.54
682.06	451.97
682.40	449.40
682.74	446.81
683.08	444.25
683.42	441.66
683.75	439.12
684.09	436.50
684.43	434.02
684.77	431.51
685.10	429.06
685.44	426.74
685.78	424.43
686.12	422.15
686.45	419.89
686.79	417.52
687.13	415.27
687.46	413.08
687.80	410.90
688.14	408.64
688.48	406.56
688.81	404.36
689.15	402.15
689.49	399.88
689.82	397.77
690.16	395.65
690.50	393.62
690.83	391.64
691.17	389.63
691.51	387.70
691.84	385.84
692.18	383.95
692.52	381.92
692.85	379.96
693.19	378.08
693.52	376.17
693.86	374.35
694.20	372.53
694.53	370.67
694.87	368.81
695.21	366.96
695.54	365.06
695.88	363.25
696.21	361.56
696.55	359.93
696.88	358.19
697.22	356.46
697.56	354.81
697.89	353.13
698.23	351.51
698.56	349.87
698.90	348.26
699.23	346.58
699.57	345.03
699.90	343.46
700.24	341.88
700.58	340.34
700.91	338.86
701.25	337.39
701.58	336.05
701.92	334.67
702.25	333.29
702.59	331.94
702.92	330.62
703.26	329.27
703.59	327.92
703.93	326.77
704.26	325.56
704.60	324.24
704.93	322.96
705.26	321.68
705.60	320.46
705.93	319.26
706.27	318.20
706.60	317.13
706.94	316.00
707.27	314.89
707.61	313.80
707.94	312.74
708.27	311.61
708.61	310.45
708.94	309.39
709.28	308.36
709.61	307.40
709.94	306.41
710.28	305.42
710.61	304.45
710.95	303.32
711.28	302.40
711.61	301.46
711.95	300.53
712.28	299.62
712.61	298.66
712.95	297.72
713.28	296.81
713.61	295.88
713.95	294.99
714.28	294.10
714.61	293.24
714.95	292.38
715.28	291.53
715.61	290.67
715.95	289.82
716.28	288.96
716.61	288.06
716.95	287.19
717.28	286.39
717.61	285.60
717.94	284.86
718.28	284.04
718.61	283.30
718.94	282.60
719.27	281.90
719.61	281.25
719.94	280.56
720.27	279.84
720.60	279.16
720.94	278.56
721.27	277.97
721.60	277.36
721.93	276.77
722.27	276.20
722.60	275.65
722.93	275.07
723.26	274.55
723.59	274.00
723.93	273.47
724.26	272.89
724.59	272.34
724.92	271.78
725.25	271.30
725.59	270.76
725.92	270.22
726.25	269.68
726.58	269.18
726.91	268.67
727.24	268.14
727.57	267.66
727.91	267.13
728.24	266.66
728.57	266.14
728.90	265.69
729.23	265.18
729.56	264.73
729.89	264.24
730.22	263.73
730.55	263.28
730.89	262.81
731.22	262.35
731.55	261.88
731.88	261.44
732.21	261.01
732.54	260.58
732.87	260.17
733.20	259.74
733.53	259.34
733.86	258.96
734.19	258.60
734.52	258.21
734.85	257.90
735.18	257.45
735.51	257.10
735.84	256.70
736.17	256.35
736.50	255.98
736.83	255.75
737.16	255.42
737.49	255.05
737.82	254.71
738.15	254.39
738.48	254.04
738.81	253.72
739.14	253.34
739.47	253.01
739.80	252.72
740.13	252.43
740.46	252.08
740.79	251.76
741.12	251.41
741.45	251.11
741.78	250.74
742.11	250.47
742.44	250.14
742.77	249.83
743.10	249.57
743.43	249.25
743.75	248.83
744.08	248.68
744.41	248.41
744.74	248.13
745.07	247.90
745.40	247.67
745.73	247.44
746.06	247.17
746.39	246.93
746.71	246.64
747.04	246.36
747.37	246.10
747.70	245.85
748.03	245.62
748.36	245.37
748.68	245.14
749.01	244.87
749.34	244.67
749.67	244.45
750.00	244.17
750.33	244.03
750.65	243.85
750.98	243.52
751.31	243.31
751.64	243.11
751.97	242.94
752.29	242.70
752.62	242.43
752.95	242.22
753.28	241.98
753.60	241.78
753.93	241.64
754.26	241.43
754.59	241.19
754.91	240.96
755.24	240.76
755.57	240.57
755.90	240.41
756.22	240.17
756.55	239.96
756.88	239.78
757.20	239.51
757.53	239.30
757.86	239.12
758.19	238.96
758.51	238.75
758.84	238.47
759.17	238.30
759.49	238.14
759.82	238.03
760.15	237.89
760.47	237.71
760.80	237.51
761.13	237.40
761.45	237.24
761.78	237.13
762.11	237.01
762.43	236.83
762.76	236.67
763.08	236.55
763.41	236.43
763.74	236.28
764.06	236.17
764.39	236.02
764.71	235.86
765.04	235.72
765.37	235.64
765.69	235.51
766.02	235.36
766.34	235.22
766.67	235.05
767.00	234.96
767.32	234.88
767.65	234.83
767.97	234.68
768.30	234.57
768.62	234.45
768.95	234.32
769.27	234.21
769.60	234.13
769.92	234.01
770.25	233.89
770.57	233.79
770.90	233.67
771.22	233.57
771.55	233.48
771.87	233.37
772.20	233.25
772.52	233.28
772.85	233.33
773.17	233.24
773.50	233.16
773.82	233.01
774.15	232.92
774.47	232.77
774.80	232.69
775.12	232.62
775.45	232.53
775.77	232.45
776.09	232.40
776.42	232.31
776.74	232.26
777.07	232.19
777.39	232.12
777.72	232.06
778.04	232.01
778.36	231.95
778.69	231.90
779.01	231.83
779.33	231.66
779.66	231.48
779.98	231.39
780.31	231.33
780.63	231.31
780.95	231.24
781.28	231.17
781.60	231.10
781.92	231.02
782.25	230.96
782.57	230.92
782.89	230.83
783.22	230.76
783.54	230.66
783.86	230.61
784.19	230.57
784.51	230.53
784.83	230.45
785.16	230.37
785.48	230.28
785.80	230.25
786.12	230.21
786.45	230.18
786.77	230.15
787.09	230.09
