SpectraSuite Data File
++++++++++++++++++++++++++++++++++++
Date: Fri Feb 01 16:32:59 EST 2013
User: group
Dark Spectrum Present: No
Reference Spectrum Present: No
Number of Sampled Component Spectra: 1
Spectrometers: USB2E7196
Integration Time (usec): 35000 (USB2E7196)
Spectra Averaged: 100 (USB2E7196)
Boxcar Smoothing: 10 (USB2E7196)
Correct for Electrical Dark: No (USB2E7196)
Strobe/Lamp Enabled: No (USB2E7196)
Correct for Detector Non-linearity: No (USB2E7196)
Correct for Stray Light: No (USB2E7196)
Number of Pixels in Processed Spectrum: 2048
>>>>>Begin Processed Spectral Data<<<<<
339.09	0.00
339.48	213.70
339.86	215.31
340.24	216.85
340.63	218.35
341.01	220.77
341.39	220.66
341.78	222.49
342.16	223.37
342.54	224.38
342.93	212.36
343.31	223.10
343.69	223.64
344.07	224.09
344.46	224.50
344.84	224.89
345.22	225.15
345.60	225.40
345.99	225.59
346.37	225.73
346.75	225.83
347.13	225.90
347.52	225.94
347.90	226.05
348.28	226.10
348.66	226.16
349.05	226.16
349.43	226.23
349.81	226.27
350.19	226.31
350.57	226.40
350.96	226.48
351.34	226.59
351.72	226.69
352.10	226.82
352.48	226.91
352.87	226.97
353.25	227.07
353.63	227.15
354.01	227.22
354.39	227.29
354.77	227.35
355.15	227.45
355.54	227.53
355.92	227.51
356.30	227.60
356.68	227.72
357.06	227.79
357.44	227.83
357.82	227.87
358.20	227.94
358.58	227.98
358.97	228.04
359.35	228.09
359.73	228.15
360.11	228.19
360.49	228.26
360.87	228.27
361.25	228.29
361.63	228.36
362.01	228.39
362.39	228.43
362.77	228.48
363.15	228.52
363.53	228.54
363.91	228.55
364.29	228.56
364.67	228.48
365.05	228.51
365.43	228.53
365.81	228.54
366.19	228.58
366.57	228.62
366.95	228.61
367.33	228.57
367.71	228.61
368.09	228.60
368.47	228.59
368.85	228.58
369.23	228.57
369.61	228.51
369.99	228.50
370.37	228.44
370.75	228.43
371.13	228.34
371.51	228.28
371.89	228.28
372.27	228.25
372.65	228.19
373.03	228.13
373.41	228.07
373.78	228.00
374.16	227.90
374.54	227.79
374.92	227.72
375.30	227.64
375.68	227.53
376.06	227.47
376.44	227.40
376.82	227.34
377.19	227.27
377.57	227.18
377.95	227.06
378.33	227.01
378.71	226.89
379.09	226.84
379.47	226.80
379.84	226.71
380.22	226.62
380.60	226.55
380.98	226.46
381.36	226.39
381.73	226.31
382.11	226.28
382.49	226.18
382.87	226.14
383.25	226.11
383.62	226.14
384.00	226.09
384.38	226.03
384.76	225.97
385.13	225.97
385.51	225.93
385.89	225.90
386.27	225.86
386.64	225.83
387.02	225.79
387.40	225.76
387.78	225.71
388.15	225.72
388.53	225.69
388.91	225.70
389.29	225.63
389.66	225.63
390.04	225.56
390.42	225.56
390.79	225.52
391.17	225.47
391.55	225.38
391.92	225.37
392.30	225.38
392.68	225.39
393.05	225.36
393.43	225.37
393.81	225.36
394.18	225.36
394.56	225.37
394.94	225.43
395.31	225.45
395.69	225.52
396.06	225.53
396.44	225.57
396.82	225.58
397.19	225.70
397.57	225.77
397.95	225.84
398.32	225.88
398.70	225.93
399.07	226.05
399.45	226.07
399.82	226.13
400.20	226.17
400.58	226.23
400.95	226.29
401.33	226.40
401.70	226.56
402.08	226.65
402.45	226.74
402.83	226.82
403.20	226.90
403.58	226.98
403.95	227.09
404.33	227.23
404.71	227.36
405.08	227.53
405.46	227.61
405.83	227.76
406.21	227.90
406.58	228.09
406.96	228.23
407.33	228.44
407.70	228.62
408.08	228.88
408.45	229.09
408.83	229.34
409.20	229.52
409.58	229.73
409.95	230.00
410.33	230.27
410.70	230.52
411.08	230.77
411.45	231.11
411.82	231.42
412.20	231.76
412.57	232.20
412.95	232.48
413.32	232.93
413.69	233.33
414.07	233.78
414.44	234.20
414.82	234.66
415.19	235.19
415.56	235.74
415.94	236.24
416.31	236.87
416.68	237.47
417.06	238.19
417.43	238.84
417.81	239.58
418.18	240.35
418.55	241.14
418.93	242.02
419.30	242.90
419.67	243.82
420.04	244.76
420.42	245.73
420.79	246.93
421.16	248.03
421.54	249.22
421.91	250.43
422.28	251.69
422.66	253.02
423.03	254.28
423.40	255.63
423.77	257.08
424.15	258.47
424.52	259.93
424.89	261.54
425.26	263.04
425.64	264.52
426.01	266.13
426.38	267.79
426.75	269.48
427.13	271.22
427.50	273.01
427.87	274.89
428.24	276.74
428.61	278.42
428.99	280.39
429.36	282.46
429.73	284.51
430.10	286.53
430.47	288.56
430.85	290.67
431.22	292.90
431.59	295.26
431.96	297.50
432.33	299.95
432.70	302.30
433.08	305.13
433.45	307.73
433.82	310.31
434.19	313.22
434.56	316.02
434.93	318.63
435.30	321.25
435.68	324.10
436.05	326.87
436.42	329.72
436.79	332.24
437.16	334.91
437.53	337.71
437.90	340.53
438.27	343.26
438.64	346.09
439.01	348.66
439.38	350.89
439.75	353.08
440.13	355.61
440.50	357.98
440.87	359.82
441.24	361.75
441.61	363.90
441.98	365.38
442.35	367.17
442.72	369.05
443.09	370.89
443.46	371.91
443.83	372.52
444.20	373.01
444.57	373.79
444.94	374.11
445.31	374.42
445.68	374.73
446.05	374.86
446.42	374.50
446.79	374.09
447.16	373.63
447.53	373.34
447.90	372.19
448.27	370.97
448.64	369.38
449.01	368.26
449.37	366.30
449.74	364.44
450.11	362.20
450.48	359.76
450.85	357.20
451.22	355.05
451.59	353.05
451.96	351.09
452.33	348.52
452.70	346.17
453.07	343.41
453.43	340.53
453.80	337.76
454.17	335.10
454.54	332.55
454.91	329.89
455.28	327.18
455.65	324.69
456.02	322.27
456.38	320.16
456.75	317.49
457.12	315.23
457.49	312.97
457.86	310.81
458.23	308.98
458.59	306.95
458.96	304.89
459.33	303.07
459.70	301.21
460.07	299.71
460.43	298.01
460.80	296.38
461.17	294.94
461.54	293.46
461.91	292.06
462.27	290.61
462.64	289.32
463.01	287.98
463.38	286.70
463.74	285.32
464.11	284.16
464.48	283.17
464.85	282.10
465.21	281.27
465.58	280.33
465.95	279.19
466.32	278.26
466.68	277.36
467.05	276.46
467.42	275.58
467.78	274.66
468.15	273.81
468.52	273.19
468.88	272.36
469.25	271.57
469.62	270.98
469.98	270.35
470.35	269.75
470.72	269.18
471.08	268.53
471.45	268.02
471.82	267.49
472.18	266.87
472.55	266.42
472.92	265.89
473.28	265.47
473.65	265.04
474.02	264.66
474.38	264.29
474.75	263.95
475.11	263.63
475.48	263.39
475.85	263.16
476.21	262.96
476.58	262.78
476.94	262.68
477.31	262.47
477.67	262.31
478.04	262.21
478.41	262.15
478.77	262.20
479.14	262.18
479.50	262.21
479.87	262.27
480.23	262.35
480.60	262.43
480.96	262.49
481.33	262.71
481.69	262.87
482.06	263.07
482.42	263.31
482.79	263.58
483.15	263.86
483.52	264.22
483.88	264.57
484.25	264.93
484.61	265.33
484.98	265.81
485.34	266.35
485.71	266.92
486.07	267.55
486.44	268.13
486.80	268.79
487.17	269.53
487.53	270.38
487.90	271.24
488.26	272.15
488.62	273.18
488.99	274.14
489.35	275.21
489.72	276.35
490.08	277.51
490.44	278.74
490.81	280.09
491.17	281.42
491.54	282.91
491.90	284.46
492.26	286.11
492.63	287.82
492.99	289.59
493.36	291.48
493.72	293.51
494.08	295.61
494.45	297.87
494.81	300.22
495.17	302.66
495.54	305.26
495.90	307.97
496.26	310.75
496.63	313.70
496.99	316.79
497.35	320.06
497.72	323.50
498.08	327.03
498.44	330.68
498.80	334.65
499.17	338.68
499.53	342.83
499.89	347.20
500.26	351.74
500.62	356.43
500.98	361.43
501.34	366.52
501.71	371.86
502.07	377.32
502.43	382.93
502.79	388.73
503.16	394.79
503.52	401.02
503.88	407.44
504.24	414.14
504.60	421.01
504.97	428.18
505.33	435.50
505.69	443.19
506.05	451.02
506.41	458.91
506.78	467.10
507.14	475.52
507.50	484.23
507.86	493.21
508.22	502.41
508.59	511.63
508.95	521.15
509.31	530.96
509.67	541.06
510.03	551.40
510.39	561.90
510.75	572.70
511.12	583.63
511.48	594.97
511.84	606.41
512.20	617.97
512.56	629.86
512.92	641.98
513.28	654.29
513.64	666.78
514.00	679.41
514.37	692.30
514.73	705.39
515.09	718.42
515.45	731.78
515.81	745.32
516.17	759.22
516.53	773.36
516.89	787.50
517.25	801.64
517.61	816.03
517.97	830.52
518.33	844.88
518.69	859.70
519.05	874.58
519.41	889.69
519.77	905.16
520.13	920.60
520.49	935.99
520.85	951.41
521.21	967.04
521.57	983.29
521.93	999.01
522.29	1015.39
522.65	1031.64
523.01	1047.75
523.37	1063.81
523.73	1079.94
524.09	1095.95
524.45	1112.14
524.81	1128.69
525.17	1145.33
525.53	1162.10
525.89	1178.95
526.25	1195.73
526.61	1212.10
526.97	1228.70
527.33	1245.11
527.68	1261.64
528.04	1277.96
528.40	1294.49
528.76	1311.48
529.12	1327.99
529.48	1344.82
529.84	1360.61
530.20	1377.18
530.56	1394.05
530.91	1411.22
531.27	1427.88
531.63	1444.26
531.99	1460.89
532.35	1476.79
532.71	1492.64
533.07	1508.89
533.42	1524.73
533.78	1540.58
534.14	1556.79
534.50	1572.10
534.86	1587.86
535.21	1603.05
535.57	1618.80
535.93	1634.13
536.29	1648.81
536.65	1663.76
537.00	1678.29
537.36	1693.57
537.72	1707.95
538.08	1722.20
538.44	1736.01
538.79	1749.67
539.15	1763.24
539.51	1776.75
539.87	1790.85
540.22	1804.44
540.58	1817.96
540.94	1831.06
541.29	1843.83
541.65	1856.24
542.01	1869.21
542.37	1881.48
542.72	1893.62
543.08	1905.36
543.44	1917.70
543.79	1928.84
544.15	1939.76
544.51	1951.39
544.87	1962.25
545.22	1973.00
545.58	1983.23
545.94	1992.82
546.29	2002.71
546.65	2012.33
547.01	2021.64
547.36	2030.35
547.72	2038.86
548.07	2046.65
548.43	2054.78
548.79	2062.63
549.14	2070.14
549.50	2077.42
549.86	2084.92
550.21	2092.28
550.57	2099.51
550.92	2105.93
551.28	2112.89
551.64	2119.88
551.99	2126.22
552.35	2132.33
552.70	2138.36
553.06	2144.45
553.41	2150.94
553.77	2156.99
554.13	2163.06
554.48	2169.12
554.84	2174.61
555.19	2179.75
555.55	2185.06
555.90	2189.45
556.26	2194.56
556.61	2199.38
556.97	2203.82
557.32	2207.92
557.68	2211.95
558.03	2216.19
558.39	2219.88
558.74	2224.55
559.10	2228.47
559.45	2232.22
559.81	2236.54
560.16	2240.48
560.52	2243.65
560.87	2246.99
561.23	2249.58
561.58	2252.59
561.94	2255.16
562.29	2257.59
562.64	2260.41
563.00	2262.87
563.35	2266.56
563.71	2269.53
564.06	2272.69
564.42	2275.62
564.77	2278.34
565.12	2280.63
565.48	2282.63
565.83	2284.66
566.19	2285.96
566.54	2286.85
566.89	2288.04
567.25	2288.66
567.60	2289.82
567.96	2291.63
568.31	2292.47
568.66	2293.63
569.02	2294.39
569.37	2294.73
569.72	2295.71
570.08	2295.89
570.43	2296.01
570.78	2295.61
571.14	2294.26
571.49	2293.04
571.84	2292.72
572.20	2291.69
572.55	2290.74
572.90	2289.07
573.26	2287.59
573.61	2286.07
573.96	2284.30
574.31	2281.46
574.67	2278.59
575.02	2275.12
575.37	2271.54
575.72	2267.83
576.08	2264.63
576.43	2261.30
576.78	2257.71
577.13	2254.38
577.49	2251.24
577.84	2247.86
578.19	2243.93
578.54	2240.38
578.90	2236.21
579.25	2230.76
579.60	2225.74
579.95	2220.88
580.30	2216.02
580.66	2211.00
581.01	2205.95
581.36	2201.22
581.71	2196.96
582.06	2192.45
582.42	2188.16
582.77	2183.12
583.12	2178.61
583.47	2173.93
583.82	2169.08
584.17	2163.98
584.53	2158.71
584.88	2153.20
585.23	2147.47
585.58	2142.16
585.93	2136.64
586.28	2131.90
586.63	2126.85
586.98	2121.85
587.34	2117.08
587.69	2112.29
588.04	2107.12
588.39	2101.55
588.74	2095.08
589.09	2089.04
589.44	2082.44
589.79	2076.45
590.14	2070.85
590.49	2064.40
590.84	2057.97
591.19	2051.85
591.54	2045.34
591.89	2037.99
592.25	2031.31
592.60	2024.26
592.95	2016.64
593.30	2009.39
593.65	2001.83
594.00	1994.82
594.35	1987.72
594.70	1979.78
595.05	1972.72
595.40	1965.52
595.75	1958.16
596.10	1951.93
596.45	1945.26
596.80	1939.12
597.15	1932.57
597.50	1925.63
597.85	1919.16
598.19	1912.64
598.54	1905.64
598.89	1899.10
599.24	1893.28
599.59	1886.67
599.94	1880.32
600.29	1874.05
600.64	1867.64
600.99	1860.36
601.34	1853.62
601.69	1846.67
602.04	1839.87
602.39	1832.43
602.74	1825.56
603.08	1818.70
603.43	1812.00
603.78	1804.71
604.13	1797.58
604.48	1790.28
604.83	1783.32
605.18	1776.54
605.53	1768.63
605.87	1760.63
606.22	1753.26
606.57	1745.21
606.92	1737.82
607.27	1730.82
607.62	1723.85
607.96	1716.50
608.31	1709.90
608.66	1702.28
609.01	1694.72
609.36	1687.17
609.70	1679.14
610.05	1671.23
610.40	1663.73
610.75	1655.42
611.10	1647.75
611.44	1639.27
611.79	1631.17
612.14	1622.58
612.49	1613.15
612.83	1604.73
613.18	1596.71
613.53	1588.69
613.88	1580.25
614.22	1572.01
614.57	1563.31
614.92	1555.48
615.27	1547.99
615.61	1539.62
615.96	1531.71
616.31	1524.16
616.65	1516.70
617.00	1509.23
617.35	1501.57
617.70	1493.33
618.04	1484.94
618.39	1476.72
618.74	1469.18
619.08	1460.96
619.43	1453.43
619.78	1446.71
620.12	1439.61
620.47	1432.07
620.82	1423.90
621.16	1416.41
621.51	1408.79
621.85	1401.27
622.20	1392.72
622.55	1384.35
622.89	1376.50
623.24	1368.77
623.59	1361.28
623.93	1353.88
624.28	1346.68
624.62	1339.07
624.97	1331.74
625.32	1324.96
625.66	1317.95
626.01	1310.75
626.35	1303.35
626.70	1295.56
627.04	1287.78
627.39	1280.01
627.73	1272.60
628.08	1265.78
628.43	1258.56
628.77	1251.20
629.12	1243.48
629.46	1236.40
629.81	1228.90
630.15	1221.70
630.50	1214.30
630.84	1206.12
631.19	1198.18
631.53	1190.61
631.88	1183.05
632.22	1175.51
632.57	1168.25
632.91	1160.67
633.26	1153.31
633.60	1145.90
633.95	1138.70
634.29	1131.68
634.64	1124.97
634.98	1117.66
635.32	1110.42
635.67	1103.79
636.01	1097.11
636.36	1090.50
636.70	1083.81
637.05	1077.23
637.39	1070.73
637.73	1064.19
638.08	1058.24
638.42	1052.22
638.77	1045.81
639.11	1039.25
639.45	1032.84
639.80	1026.07
640.14	1019.70
640.49	1013.11
640.83	1006.80
641.17	1000.61
641.52	994.26
641.86	987.70
642.20	981.71
642.55	975.43
642.89	968.96
643.23	962.38
643.58	956.55
643.92	950.42
644.26	944.39
644.61	938.39
644.95	932.34
645.29	925.75
645.64	919.02
645.98	912.72
646.32	906.79
646.66	900.69
647.01	894.92
647.35	889.18
647.69	883.27
648.04	877.64
648.38	871.85
648.72	865.86
649.06	859.90
649.41	854.05
649.75	848.03
650.09	842.16
650.43	836.43
650.78	830.18
651.12	824.24
651.46	818.48
651.80	812.72
652.14	807.36
652.49	802.01
652.83	796.87
653.17	791.12
653.51	785.37
653.85	780.00
654.20	774.35
654.54	768.37
654.88	762.71
655.22	756.89
655.56	751.15
655.90	745.69
656.25	740.41
656.59	735.03
656.93	730.02
657.27	724.74
657.61	719.27
657.95	714.23
658.29	709.17
658.64	703.88
658.98	698.57
659.32	693.11
659.66	687.95
660.00	682.67
660.34	677.74
660.68	672.93
661.02	667.89
661.36	663.21
661.70	658.76
662.05	654.41
662.39	650.06
662.73	645.61
663.07	641.27
663.41	636.81
663.75	632.30
664.09	627.69
664.43	623.39
664.77	619.33
665.11	615.09
665.45	610.91
665.79	606.87
666.13	602.69
666.47	598.62
666.81	594.42
667.15	590.22
667.49	586.31
667.83	582.46
668.17	578.52
668.51	574.48
668.85	570.40
669.19	566.55
669.53	562.75
669.87	558.85
670.21	555.11
670.55	551.45
670.89	548.08
671.23	544.65
671.57	541.12
671.91	537.54
672.25	534.02
672.58	530.49
672.92	527.07
673.26	523.91
673.60	520.75
673.94	517.63
674.28	514.70
674.62	511.70
674.96	508.58
675.30	505.73
675.64	502.81
675.97	500.07
676.31	497.16
676.65	494.22
676.99	491.59
677.33	488.70
677.67	485.92
678.01	482.84
678.34	479.85
678.68	476.91
679.02	474.07
679.36	471.27
679.70	468.54
680.04	465.83
680.37	462.97
680.71	460.10
681.05	457.54
681.39	454.82
681.73	452.18
682.06	449.72
682.40	447.12
682.74	444.55
683.08	441.97
683.42	439.37
683.75	436.82
684.09	434.21
684.43	431.82
684.77	429.29
685.10	426.93
685.44	424.64
685.78	422.41
686.12	420.16
686.45	417.89
686.79	415.58
687.13	413.37
687.46	411.19
687.80	409.01
688.14	406.74
688.48	404.67
688.81	402.41
689.15	400.18
689.49	398.04
689.82	395.98
690.16	393.88
690.50	391.90
690.83	389.99
691.17	387.98
691.51	386.03
691.84	384.23
692.18	382.28
692.52	380.30
692.85	378.34
693.19	376.50
693.52	374.63
693.86	372.81
694.20	370.98
694.53	369.20
694.87	367.39
695.21	365.63
695.54	363.82
695.88	362.09
696.21	360.38
696.55	358.67
696.88	356.96
697.22	355.31
697.56	353.70
697.89	352.05
698.23	350.45
698.56	348.84
698.90	347.23
699.23	345.66
699.57	344.11
699.90	342.57
700.24	341.00
700.58	339.49
700.91	337.99
701.25	336.56
701.58	335.17
701.92	333.80
702.25	332.42
702.59	331.04
702.92	329.72
703.26	328.47
703.59	327.19
703.93	326.01
704.26	324.76
704.60	323.47
704.93	322.18
705.26	320.96
705.60	319.77
705.93	318.66
706.27	317.56
706.60	316.42
706.94	315.35
707.27	314.19
707.61	313.16
707.94	312.18
708.27	311.05
708.61	309.99
708.94	308.98
709.28	308.02
709.61	307.04
709.94	306.11
710.28	305.02
710.61	304.00
710.95	302.89
711.28	301.99
711.61	301.04
711.95	300.13
712.28	299.17
712.61	298.19
712.95	297.23
713.28	296.34
713.61	295.51
713.95	294.63
714.28	293.83
714.61	292.94
714.95	292.04
715.28	291.21
715.61	290.35
715.95	289.49
716.28	288.61
716.61	287.80
716.95	286.97
717.28	286.21
717.61	285.49
717.94	284.76
718.28	283.97
718.61	283.20
718.94	282.51
719.27	281.83
719.61	281.18
719.94	280.48
720.27	279.82
720.60	279.14
720.94	278.53
721.27	277.91
721.60	277.35
721.93	276.76
722.27	276.24
722.60	275.65
722.93	275.08
723.26	274.55
723.59	273.96
723.93	273.43
724.26	272.88
724.59	272.34
724.92	271.82
725.25	271.30
725.59	270.79
725.92	270.25
726.25	269.77
726.58	269.29
726.91	268.82
727.24	268.32
727.57	267.85
727.91	267.32
728.24	266.87
728.57	266.37
728.90	265.93
729.23	265.43
729.56	265.02
729.89	264.54
730.22	264.05
730.55	263.59
730.89	263.10
731.22	262.68
731.55	262.24
731.88	261.84
732.21	261.42
732.54	261.02
732.87	260.63
733.20	260.17
733.53	259.79
733.86	259.40
734.19	259.01
734.52	258.63
734.85	258.31
735.18	257.91
735.51	257.59
735.84	257.21
736.17	256.81
736.50	256.40
736.83	256.19
737.16	255.86
737.49	255.54
737.82	255.22
738.15	254.89
738.48	254.53
738.81	254.21
739.14	253.88
739.47	253.53
739.80	253.23
740.13	252.99
740.46	252.64
740.79	252.32
741.12	252.01
741.45	251.68
741.78	251.31
742.11	251.01
742.44	250.64
742.77	250.38
743.10	250.08
743.43	249.83
743.75	249.43
744.08	249.28
744.41	249.02
744.74	248.70
745.07	248.40
745.40	248.17
745.73	247.93
746.06	247.66
746.39	247.42
746.71	247.13
747.04	246.81
747.37	246.57
747.70	246.32
748.03	246.08
748.36	245.89
748.68	245.67
749.01	245.42
749.34	245.18
749.67	244.95
750.00	244.73
750.33	244.57
750.65	244.34
750.98	243.98
751.31	243.76
751.64	243.56
751.97	243.41
752.29	243.17
752.62	242.91
752.95	242.69
753.28	242.45
753.60	242.28
753.93	242.12
754.26	241.91
754.59	241.70
754.91	241.48
755.24	241.24
755.57	241.06
755.90	240.89
756.22	240.72
756.55	240.48
756.88	240.26
757.20	240.01
757.53	239.84
757.86	239.68
758.19	239.53
758.51	239.39
758.84	239.17
759.17	239.03
759.49	238.87
759.82	238.75
760.15	238.62
760.47	238.44
760.80	238.26
761.13	238.11
761.45	237.93
761.78	237.81
762.11	237.68
762.43	237.51
762.76	237.36
763.08	237.24
763.41	237.12
763.74	236.98
764.06	236.86
764.39	236.72
764.71	236.55
765.04	236.40
765.37	236.26
765.69	236.13
766.02	235.97
766.34	235.83
766.67	235.66
767.00	235.57
767.32	235.49
767.65	235.44
767.97	235.34
768.30	235.20
768.62	235.06
768.95	234.94
769.27	234.83
769.60	234.69
769.92	234.55
770.25	234.43
770.57	234.34
770.90	234.22
771.22	234.12
771.55	234.06
771.87	233.97
772.20	233.83
772.52	233.81
772.85	233.84
773.17	233.72
773.50	233.65
773.82	233.52
774.15	233.41
774.47	233.25
774.80	233.17
775.12	233.11
775.45	233.01
775.77	232.92
776.09	232.84
776.42	232.80
776.74	232.77
777.07	232.71
777.39	232.64
777.72	232.54
778.04	232.45
778.36	232.38
778.69	232.29
779.01	232.27
779.33	232.13
779.66	231.95
779.98	231.90
780.31	231.84
780.63	231.82
780.95	231.76
781.28	231.71
781.60	231.65
781.92	231.61
782.25	231.61
782.57	231.54
782.89	231.50
783.22	231.42
783.54	231.32
783.86	231.31
784.19	231.22
784.51	231.19
784.83	231.16
785.16	231.11
785.48	231.08
785.80	231.01
786.12	230.99
786.45	230.97
786.77	230.92
787.09	230.87
