SpectraSuite Data File
++++++++++++++++++++++++++++++++++++
Date: Fri Feb 01 14:50:50 EST 2013
User: group
Dark Spectrum Present: No
Reference Spectrum Present: No
Number of Sampled Component Spectra: 1
Spectrometers: USB2E7196
Integration Time (usec): 35000 (USB2E7196)
Spectra Averaged: 100 (USB2E7196)
Boxcar Smoothing: 10 (USB2E7196)
Correct for Electrical Dark: No (USB2E7196)
Strobe/Lamp Enabled: No (USB2E7196)
Correct for Detector Non-linearity: No (USB2E7196)
Correct for Stray Light: No (USB2E7196)
Number of Pixels in Processed Spectrum: 2048
>>>>>Begin Processed Spectral Data<<<<<
339.09	0.00
339.48	216.26
339.86	217.48
340.24	218.50
340.63	220.17
341.01	223.23
341.39	222.66
341.78	224.34
342.16	225.02
342.54	225.54
342.93	214.14
343.31	224.93
343.69	225.45
344.07	225.93
344.46	226.38
344.84	226.75
345.22	226.98
345.60	227.23
345.99	227.39
346.37	227.51
346.75	227.63
347.13	227.67
347.52	227.72
347.90	227.77
348.28	227.78
348.66	227.84
349.05	227.82
349.43	227.85
349.81	227.91
350.19	227.89
350.57	227.96
350.96	228.03
351.34	228.15
351.72	228.24
352.10	228.31
352.48	228.33
352.87	228.35
353.25	228.41
353.63	228.49
354.01	228.56
354.39	228.65
354.77	228.73
355.15	228.81
355.54	228.88
355.92	228.91
356.30	229.01
356.68	229.09
357.06	229.15
357.44	229.20
357.82	229.26
358.20	229.38
358.58	229.43
358.97	229.50
359.35	229.57
359.73	229.64
360.11	229.68
360.49	229.75
360.87	229.83
361.25	229.88
361.63	229.93
362.01	229.94
362.39	229.96
362.77	229.99
363.15	230.02
363.53	230.01
363.91	230.03
364.29	230.04
364.67	229.96
365.05	229.97
365.43	229.99
365.81	230.00
366.19	230.00
366.57	230.02
366.95	229.99
367.33	229.92
367.71	229.87
368.09	229.86
368.47	229.84
368.85	229.78
369.23	229.75
369.61	229.67
369.99	229.70
370.37	229.66
370.75	229.64
371.13	229.58
371.51	229.54
371.89	229.48
372.27	229.41
372.65	229.33
373.03	229.30
373.41	229.21
373.78	229.14
374.16	229.08
374.54	228.97
374.92	228.88
375.30	228.83
375.68	228.74
376.06	228.67
376.44	228.58
376.82	228.53
377.19	228.45
377.57	228.38
377.95	228.25
378.33	228.17
378.71	228.02
379.09	227.96
379.47	227.90
379.84	227.84
380.22	227.75
380.60	227.66
380.98	227.55
381.36	227.49
381.73	227.40
382.11	227.33
382.49	227.30
382.87	227.24
383.25	227.18
383.62	227.23
384.00	227.14
384.38	227.07
384.76	227.04
385.13	227.00
385.51	226.91
385.89	226.82
386.27	226.78
386.64	226.79
387.02	226.74
387.40	226.68
387.78	226.64
388.15	226.61
388.53	226.57
388.91	226.56
389.29	226.49
389.66	226.49
390.04	226.44
390.42	226.38
390.79	226.36
391.17	226.34
391.55	226.21
391.92	226.21
392.30	226.22
392.68	226.21
393.05	226.22
393.43	226.29
393.81	226.34
394.18	226.35
394.56	226.35
394.94	226.39
395.31	226.43
395.69	226.49
396.06	226.54
396.44	226.63
396.82	226.71
397.19	226.85
397.57	226.89
397.95	226.98
398.32	227.07
398.70	227.16
399.07	227.28
399.45	227.38
399.82	227.50
400.20	227.57
400.58	227.65
400.95	227.71
401.33	227.83
401.70	228.02
402.08	228.13
402.45	228.28
402.83	228.42
403.20	228.55
403.58	228.70
403.95	228.89
404.33	229.06
404.71	229.17
405.08	229.36
405.46	229.53
405.83	229.68
406.21	229.83
406.58	230.06
406.96	230.25
407.33	230.43
407.70	230.60
408.08	230.94
408.45	231.18
408.83	231.43
409.20	231.64
409.58	231.80
409.95	232.08
410.33	232.33
410.70	232.60
411.08	232.90
411.45	233.16
411.82	233.43
412.20	233.79
412.57	234.21
412.95	234.51
413.32	234.91
413.69	235.33
414.07	235.80
414.44	236.23
414.82	236.68
415.19	237.24
415.56	237.82
415.94	238.34
416.31	238.98
416.68	239.59
417.06	240.31
417.43	241.02
417.81	241.78
418.18	242.58
418.55	243.38
418.93	244.25
419.30	245.16
419.67	246.08
420.04	247.00
420.42	247.97
420.79	249.16
421.16	250.28
421.54	251.49
421.91	252.64
422.28	253.87
422.66	255.18
423.03	256.46
423.40	257.76
423.77	259.12
424.15	260.54
424.52	261.99
424.89	263.59
425.26	265.10
425.64	266.51
426.01	268.08
426.38	269.77
426.75	271.42
427.13	273.12
427.50	274.91
427.87	276.77
428.24	278.62
428.61	280.30
428.99	282.24
429.36	284.31
429.73	286.40
430.10	288.42
430.47	290.48
430.85	292.61
431.22	294.84
431.59	297.24
431.96	299.43
432.33	301.93
432.70	304.30
433.08	307.13
433.45	309.82
433.82	312.38
434.19	315.23
434.56	318.03
434.93	320.72
435.30	323.40
435.68	326.29
436.05	329.09
436.42	331.89
436.79	334.41
437.16	337.10
437.53	339.92
437.90	342.72
438.27	345.46
438.64	348.24
439.01	350.88
439.38	353.14
439.75	355.34
440.13	357.83
440.50	360.19
440.87	362.02
441.24	363.92
441.61	366.08
441.98	367.60
442.35	369.42
442.72	371.25
443.09	373.01
443.46	374.02
443.83	374.64
444.20	375.16
444.57	376.00
444.94	376.30
445.31	376.62
445.68	376.95
446.05	377.03
446.42	376.72
446.79	376.29
447.16	375.82
447.53	375.49
447.90	374.35
448.27	373.13
448.64	371.59
449.01	370.46
449.37	368.54
449.74	366.66
450.11	364.43
450.48	361.94
450.85	359.42
451.22	357.32
451.59	355.29
451.96	353.31
452.33	350.74
452.70	348.36
453.07	345.58
453.43	342.73
453.80	339.99
454.17	337.31
454.54	334.80
454.91	332.04
455.28	329.38
455.65	326.89
456.02	324.49
456.38	322.33
456.75	319.65
457.12	317.41
457.49	315.18
457.86	312.99
458.23	311.17
458.59	309.12
458.96	307.00
459.33	305.16
459.70	303.36
460.07	301.83
460.43	300.13
460.80	298.52
461.17	297.10
461.54	295.62
461.91	294.17
462.27	292.70
462.64	291.50
463.01	290.16
463.38	288.88
463.74	287.49
464.11	286.31
464.48	285.33
464.85	284.17
465.21	283.30
465.58	282.35
465.95	281.25
466.32	280.31
466.68	279.42
467.05	278.52
467.42	277.61
467.78	276.66
468.15	275.78
468.52	275.05
468.88	274.16
469.25	273.33
469.62	272.66
469.98	271.95
470.35	271.28
470.72	270.65
471.08	269.94
471.45	269.39
471.82	268.84
472.18	268.19
472.55	267.75
472.92	267.20
473.28	266.78
473.65	266.30
474.02	265.86
474.38	265.44
474.75	265.10
475.11	264.70
475.48	264.44
475.85	264.20
476.21	263.97
476.58	263.80
476.94	263.67
477.31	263.50
477.67	263.36
478.04	263.22
478.41	263.13
478.77	263.19
479.14	263.11
479.50	263.11
479.87	263.18
480.23	263.24
480.60	263.28
480.96	263.34
481.33	263.58
481.69	263.76
482.06	263.96
482.42	264.16
482.79	264.42
483.15	264.72
483.52	265.08
483.88	265.42
484.25	265.77
484.61	266.19
484.98	266.63
485.34	267.18
485.71	267.80
486.07	268.44
486.44	268.94
486.80	269.63
487.17	270.34
487.53	271.12
487.90	271.93
488.26	272.88
488.62	273.81
488.99	274.75
489.35	275.77
489.72	276.86
490.08	278.06
490.44	279.32
490.81	280.62
491.17	281.96
491.54	283.45
491.90	284.96
492.26	286.59
492.63	288.29
492.99	290.05
493.36	291.89
493.72	293.89
494.08	295.96
494.45	298.18
494.81	300.53
495.17	302.96
495.54	305.55
495.90	308.21
496.26	311.03
496.63	313.94
496.99	317.03
497.35	320.27
497.72	323.60
498.08	327.08
498.44	330.78
498.80	334.65
499.17	338.60
499.53	342.80
499.89	347.10
500.26	351.58
500.62	356.23
500.98	361.13
501.34	366.19
501.71	371.48
502.07	376.90
502.43	382.49
502.79	388.28
503.16	394.30
503.52	400.48
503.88	406.83
504.24	413.41
504.60	420.31
504.97	427.39
505.33	434.73
505.69	442.38
506.05	450.08
506.41	457.95
506.78	466.12
507.14	474.47
507.50	483.17
507.86	492.11
508.22	501.24
508.59	510.45
508.95	519.94
509.31	529.72
509.67	539.76
510.03	549.98
510.39	560.46
510.75	571.22
511.12	582.13
511.48	593.37
511.84	604.81
512.20	616.26
512.56	628.16
512.92	640.30
513.28	652.57
513.64	665.01
514.00	677.66
514.37	690.51
514.73	703.55
515.09	716.58
515.45	729.79
515.81	743.38
516.17	757.32
516.53	771.39
516.89	785.52
517.25	799.76
517.61	814.19
517.97	828.70
518.33	843.16
518.69	857.99
519.05	873.03
519.41	888.19
519.77	903.76
520.13	919.32
520.49	934.69
520.85	950.09
521.21	965.78
521.57	981.99
521.93	997.91
522.29	1014.29
522.65	1030.60
523.01	1047.00
523.37	1063.11
523.73	1079.38
524.09	1095.63
524.45	1112.16
524.81	1128.82
525.17	1145.70
525.53	1162.62
525.89	1179.52
526.25	1196.27
526.61	1212.79
526.97	1229.61
527.33	1246.08
527.68	1262.69
528.04	1279.29
528.40	1296.08
528.76	1313.29
529.12	1329.99
529.48	1346.87
529.84	1362.93
530.20	1379.63
530.56	1396.57
530.91	1413.96
531.27	1430.80
531.63	1447.38
531.99	1463.85
532.35	1479.81
532.71	1495.72
533.07	1512.06
533.42	1527.94
533.78	1544.03
534.14	1560.22
534.50	1575.58
534.86	1591.56
535.21	1606.85
535.57	1622.80
535.93	1638.35
536.29	1653.08
536.65	1668.28
537.00	1683.11
537.36	1698.59
537.72	1713.21
538.08	1727.63
538.44	1741.55
538.79	1755.55
539.15	1769.26
539.51	1783.15
539.87	1797.61
540.22	1811.47
540.58	1825.20
540.94	1838.75
541.29	1851.76
541.65	1864.60
542.01	1878.00
542.37	1890.19
542.72	1902.64
543.08	1914.49
543.44	1926.80
543.79	1938.20
544.15	1949.22
544.51	1960.84
544.87	1971.84
545.22	1982.61
545.58	1992.95
545.94	2002.77
546.29	2012.53
546.65	2022.43
547.01	2031.67
547.36	2040.41
547.72	2048.88
548.07	2056.77
548.43	2064.77
548.79	2072.81
549.14	2080.29
549.50	2087.58
549.86	2095.42
550.21	2102.56
550.57	2109.69
550.92	2116.45
551.28	2123.58
551.64	2130.53
551.99	2137.00
552.35	2143.01
552.70	2149.08
553.06	2154.97
553.41	2161.09
553.77	2167.06
554.13	2172.96
554.48	2178.92
554.84	2184.32
555.19	2189.51
555.55	2194.48
555.90	2199.09
556.26	2203.82
556.61	2208.45
556.97	2212.46
557.32	2216.38
557.68	2220.51
558.03	2224.66
558.39	2228.17
558.74	2232.57
559.10	2236.29
559.45	2239.73
559.81	2243.80
560.16	2247.42
560.52	2250.50
560.87	2253.95
561.23	2256.43
561.58	2259.28
561.94	2261.65
562.29	2264.00
562.64	2266.55
563.00	2269.20
563.35	2272.35
563.71	2275.34
564.06	2278.29
564.42	2281.10
564.77	2283.48
565.12	2285.57
565.48	2287.16
565.83	2288.69
566.19	2289.79
566.54	2290.55
566.89	2291.56
567.25	2292.07
567.60	2293.28
567.96	2294.89
568.31	2295.40
568.66	2296.30
569.02	2296.61
569.37	2296.79
569.72	2297.18
570.08	2297.03
570.43	2296.66
570.78	2295.69
571.14	2294.01
571.49	2292.47
571.84	2291.90
572.20	2290.51
572.55	2289.27
572.90	2287.52
573.26	2285.93
573.61	2283.88
573.96	2281.79
574.31	2278.47
574.67	2275.15
575.02	2271.25
575.37	2267.56
575.72	2263.49
576.08	2260.06
576.43	2256.50
576.78	2252.56
577.13	2249.23
577.49	2245.99
577.84	2242.39
578.19	2238.74
578.54	2234.82
578.90	2230.46
579.25	2224.74
579.60	2219.58
579.95	2214.28
580.30	2209.00
580.66	2203.53
581.01	2198.52
581.36	2193.53
581.71	2189.22
582.06	2184.79
582.42	2180.17
582.77	2174.81
583.12	2170.12
583.47	2165.18
583.82	2160.21
584.17	2154.81
584.53	2149.21
584.88	2143.35
585.23	2137.40
585.58	2131.63
585.93	2125.99
586.28	2121.07
586.63	2115.82
586.98	2110.69
587.34	2105.89
587.69	2100.99
588.04	2095.69
588.39	2089.88
588.74	2083.30
589.09	2077.08
589.44	2070.05
589.79	2063.93
590.14	2058.07
590.49	2051.37
590.84	2044.70
591.19	2038.32
591.54	2031.85
591.89	2024.27
592.25	2017.27
592.60	2010.09
592.95	2002.33
593.30	1994.90
593.65	1987.18
594.00	1979.97
594.35	1972.61
594.70	1964.46
595.05	1957.19
595.40	1949.97
595.75	1942.27
596.10	1935.88
596.45	1928.92
596.80	1922.54
597.15	1915.78
597.50	1908.62
597.85	1902.13
598.19	1895.44
598.54	1888.28
598.89	1881.52
599.24	1875.53
599.59	1868.80
599.94	1862.37
600.29	1856.11
600.64	1849.48
600.99	1841.97
601.34	1835.13
601.69	1828.20
602.04	1821.30
602.39	1813.86
602.74	1806.88
603.08	1800.21
603.43	1793.41
603.78	1786.18
604.13	1779.09
604.48	1771.71
604.83	1764.85
605.18	1757.81
605.53	1749.89
605.87	1741.98
606.22	1734.83
606.57	1726.99
606.92	1719.81
607.27	1712.68
607.62	1705.74
607.96	1698.49
608.31	1691.93
608.66	1684.41
609.01	1676.82
609.36	1669.41
609.70	1661.45
610.05	1653.50
610.40	1645.88
610.75	1637.66
611.10	1630.07
611.44	1621.71
611.79	1613.91
612.14	1605.27
612.49	1596.33
612.83	1588.05
613.18	1579.95
613.53	1571.86
613.88	1563.29
614.22	1555.17
614.57	1546.68
614.92	1538.82
615.27	1531.37
615.61	1523.12
615.96	1515.13
616.31	1507.54
616.65	1500.13
617.00	1492.65
617.35	1485.09
617.70	1476.91
618.04	1468.47
618.39	1460.36
618.74	1452.91
619.08	1444.70
619.43	1437.42
619.78	1430.57
620.12	1423.48
620.47	1415.96
620.82	1407.91
621.16	1400.61
621.51	1393.07
621.85	1385.59
622.20	1377.11
622.55	1368.91
622.89	1361.06
623.24	1353.66
623.59	1346.46
623.93	1339.06
624.28	1331.97
624.62	1324.56
624.97	1317.36
625.32	1310.70
625.66	1303.80
626.01	1296.69
626.35	1289.34
626.70	1281.58
627.04	1273.93
627.39	1266.24
627.73	1259.00
628.08	1252.21
628.43	1244.99
628.77	1237.57
629.12	1230.01
629.46	1222.93
629.81	1215.62
630.15	1208.64
630.50	1201.27
630.84	1193.15
631.19	1185.32
631.53	1177.98
631.88	1170.46
632.22	1163.08
632.57	1155.95
632.91	1148.54
633.26	1141.27
633.60	1134.04
633.95	1127.13
634.29	1120.16
634.64	1113.59
634.98	1106.44
635.32	1099.46
635.67	1093.03
636.01	1086.59
636.36	1079.95
636.70	1073.64
637.05	1067.09
637.39	1060.78
637.73	1054.43
638.08	1048.63
638.42	1042.76
638.77	1036.27
639.11	1029.83
639.45	1023.50
639.80	1016.94
640.14	1010.63
640.49	1004.12
640.83	997.91
641.17	991.68
641.52	985.46
641.86	979.16
642.20	973.40
642.55	967.14
642.89	960.82
643.23	954.33
643.58	948.58
643.92	942.41
644.26	936.45
644.61	930.41
644.95	924.36
645.29	917.83
645.64	911.07
645.98	904.88
646.32	899.14
646.66	893.15
647.01	887.40
647.35	881.69
647.69	875.96
648.04	870.44
648.38	864.72
648.72	858.78
649.06	852.75
649.41	846.81
649.75	840.81
650.09	834.91
650.43	829.11
650.78	823.07
651.12	817.15
651.46	811.40
651.80	805.71
652.14	800.38
652.49	795.03
652.83	789.98
653.17	784.31
653.51	778.60
653.85	773.28
654.20	767.62
654.54	761.63
654.88	755.93
655.22	750.16
655.56	744.57
655.90	739.17
656.25	733.96
656.59	728.64
656.93	723.68
657.27	718.55
657.61	713.26
657.95	708.22
658.29	703.25
658.64	698.08
658.98	692.88
659.32	687.46
659.66	682.38
660.00	677.15
660.34	672.29
660.68	667.49
661.02	662.50
661.36	657.86
661.70	653.52
662.05	649.23
662.39	644.90
662.73	640.48
663.07	636.15
663.41	631.72
663.75	627.30
664.09	622.76
664.43	618.48
664.77	614.40
665.11	610.19
665.45	606.08
665.79	602.07
666.13	597.97
666.47	593.93
666.81	589.79
667.15	585.73
667.49	581.94
667.83	578.16
668.17	574.28
668.51	570.31
668.85	566.31
669.19	562.51
669.53	558.75
669.87	554.93
670.21	551.34
670.55	547.79
670.89	544.45
671.23	541.06
671.57	537.56
671.91	534.12
672.25	530.67
672.58	527.19
672.92	523.82
673.26	520.73
673.60	517.68
673.94	514.66
674.28	511.79
674.62	508.87
674.96	505.84
675.30	503.00
675.64	500.16
675.97	497.46
676.31	494.65
676.65	491.76
676.99	489.08
677.33	486.19
677.67	483.40
678.01	480.41
678.34	477.45
678.68	474.62
679.02	471.79
679.36	469.13
679.70	466.49
680.04	463.81
680.37	460.97
680.71	458.21
681.05	455.62
681.39	452.92
681.73	450.32
682.06	447.80
682.40	445.26
682.74	442.74
683.08	440.20
683.42	437.66
683.75	435.20
684.09	432.71
684.43	430.36
684.77	427.93
685.10	425.64
685.44	423.40
685.78	421.17
686.12	418.93
686.45	416.61
686.79	414.33
687.13	412.17
687.46	410.04
687.80	407.92
688.14	405.77
688.48	403.77
688.81	401.55
689.15	399.46
689.49	397.36
689.82	395.32
690.16	393.24
690.50	391.29
690.83	389.33
691.17	387.37
691.51	385.49
691.84	383.68
692.18	381.75
692.52	379.84
692.85	377.91
693.19	376.11
693.52	374.32
693.86	372.53
694.20	370.76
694.53	369.02
694.87	367.16
695.21	365.35
695.54	363.53
695.88	361.85
696.21	360.12
696.55	358.45
696.88	356.81
697.22	355.20
697.56	353.61
697.89	351.98
698.23	350.39
698.56	348.77
698.90	347.22
699.23	345.60
699.57	344.04
699.90	342.56
700.24	341.05
700.58	339.50
700.91	338.02
701.25	336.59
701.58	335.16
701.92	333.85
702.25	332.53
702.59	331.15
702.92	329.83
703.26	328.55
703.59	327.33
703.93	326.12
704.26	324.94
704.60	323.66
704.93	322.44
705.26	321.19
705.60	320.05
705.93	318.90
706.27	317.87
706.60	316.84
706.94	315.76
707.27	314.65
707.61	313.66
707.94	312.63
708.27	311.57
708.61	310.53
708.94	309.55
709.28	308.62
709.61	307.69
709.94	306.74
710.28	305.71
710.61	304.70
710.95	303.64
711.28	302.71
711.61	301.79
711.95	300.92
712.28	299.99
712.61	299.00
712.95	298.12
713.28	297.24
713.61	296.39
713.95	295.48
714.28	294.65
714.61	293.80
714.95	293.01
715.28	292.22
715.61	291.38
715.95	290.53
716.28	289.63
716.61	288.88
716.95	288.10
717.28	287.40
717.61	286.66
717.94	285.94
718.28	285.14
718.61	284.43
718.94	283.72
719.27	283.11
719.61	282.49
719.94	281.80
720.27	281.11
720.60	280.46
720.94	279.88
721.27	279.33
721.60	278.78
721.93	278.21
722.27	277.68
722.60	277.17
722.93	276.62
723.26	276.13
723.59	275.54
723.93	275.01
724.26	274.43
724.59	273.84
724.92	273.34
725.25	272.86
725.59	272.32
725.92	271.80
726.25	271.27
726.58	270.78
726.91	270.28
727.24	269.81
727.57	269.29
727.91	268.77
728.24	268.27
728.57	267.79
728.90	267.31
729.23	266.81
729.56	266.38
729.89	265.90
730.22	265.41
730.55	264.95
730.89	264.47
731.22	264.02
731.55	263.65
731.88	263.20
732.21	262.75
732.54	262.30
732.87	261.87
733.20	261.49
733.53	261.11
733.86	260.76
734.19	260.41
734.52	260.04
734.85	259.72
735.18	259.29
735.51	258.89
735.84	258.46
736.17	258.07
736.50	257.64
736.83	257.37
737.16	257.03
737.49	256.69
737.82	256.30
738.15	256.00
738.48	255.66
738.81	255.33
739.14	255.02
739.47	254.72
739.80	254.43
740.13	254.13
740.46	253.81
740.79	253.44
741.12	253.10
741.45	252.79
741.78	252.44
742.11	252.14
742.44	251.79
742.77	251.54
743.10	251.26
743.43	250.95
743.75	250.60
744.08	250.45
744.41	250.19
744.74	249.99
745.07	249.74
745.40	249.46
745.73	249.26
746.06	248.99
746.39	248.74
746.71	248.49
747.04	248.21
747.37	247.93
747.70	247.72
748.03	247.50
748.36	247.27
748.68	247.02
749.01	246.81
749.34	246.64
749.67	246.43
750.00	246.16
750.33	246.03
750.65	245.80
750.98	245.46
751.31	245.26
751.64	245.04
751.97	244.85
752.29	244.64
752.62	244.37
752.95	244.21
753.28	243.99
753.60	243.77
753.93	243.61
754.26	243.43
754.59	243.19
754.91	242.97
755.24	242.79
755.57	242.65
755.90	242.48
756.22	242.29
756.55	242.07
756.88	241.92
757.20	241.68
757.53	241.50
757.86	241.37
758.19	241.20
758.51	241.05
758.84	240.83
759.17	240.69
759.49	240.55
759.82	240.42
760.15	240.29
760.47	240.18
760.80	239.98
761.13	239.86
761.45	239.73
761.78	239.59
762.11	239.45
762.43	239.31
762.76	239.16
763.08	238.99
763.41	238.87
763.74	238.73
764.06	238.59
764.39	238.46
764.71	238.27
765.04	238.09
765.37	237.92
765.69	237.80
766.02	237.66
766.34	237.52
766.67	237.37
767.00	237.27
767.32	237.20
767.65	237.14
767.97	237.01
768.30	236.90
768.62	236.80
768.95	236.65
769.27	236.50
769.60	236.40
769.92	236.31
770.25	236.20
770.57	236.11
770.90	236.01
771.22	235.92
771.55	235.84
771.87	235.76
772.20	235.66
772.52	235.65
772.85	235.65
773.17	235.56
773.50	235.41
773.82	235.29
774.15	235.14
774.47	234.97
774.80	234.89
775.12	234.78
775.45	234.67
775.77	234.60
776.09	234.55
776.42	234.43
776.74	234.33
777.07	234.23
777.39	234.14
777.72	234.08
778.04	233.98
778.36	233.91
778.69	233.86
779.01	233.80
779.33	233.67
779.66	233.50
779.98	233.42
780.31	233.42
780.63	233.41
780.95	233.34
781.28	233.30
781.60	233.19
781.92	233.15
782.25	233.07
782.57	233.01
782.89	232.94
783.22	232.92
783.54	232.87
783.86	232.79
784.19	232.71
784.51	232.64
784.83	232.59
785.16	232.56
785.48	232.50
785.80	232.49
786.12	232.42
786.45	232.37
786.77	232.32
787.09	232.24
