SpectraSuite Data File
++++++++++++++++++++++++++++++++++++
Date: Fri Feb 01 15:31:24 EST 2013
User: group
Dark Spectrum Present: No
Reference Spectrum Present: No
Number of Sampled Component Spectra: 1
Spectrometers: USB2E7196
Integration Time (usec): 35000 (USB2E7196)
Spectra Averaged: 100 (USB2E7196)
Boxcar Smoothing: 10 (USB2E7196)
Correct for Electrical Dark: No (USB2E7196)
Strobe/Lamp Enabled: No (USB2E7196)
Correct for Detector Non-linearity: No (USB2E7196)
Correct for Stray Light: No (USB2E7196)
Number of Pixels in Processed Spectrum: 2048
>>>>>Begin Processed Spectral Data<<<<<
339.09	0.00
339.48	214.96
339.86	216.66
340.24	217.95
340.63	219.72
341.01	222.40
341.39	222.33
341.78	223.50
342.16	223.89
342.54	225.25
342.93	213.38
343.31	224.16
343.69	224.71
344.07	225.18
344.46	225.61
344.84	225.96
345.22	226.19
345.60	226.42
345.99	226.56
346.37	226.71
346.75	226.80
347.13	226.85
347.52	226.95
347.90	227.03
348.28	227.07
348.66	227.13
349.05	227.15
349.43	227.14
349.81	227.22
350.19	227.27
350.57	227.35
350.96	227.42
351.34	227.49
351.72	227.57
352.10	227.65
352.48	227.71
352.87	227.77
353.25	227.85
353.63	227.90
354.01	228.02
354.39	228.11
354.77	228.19
355.15	228.32
355.54	228.34
355.92	228.38
356.30	228.42
356.68	228.56
357.06	228.65
357.44	228.75
357.82	228.78
358.20	228.86
358.58	228.92
358.97	229.00
359.35	229.08
359.73	229.18
360.11	229.22
360.49	229.28
360.87	229.37
361.25	229.40
361.63	229.45
362.01	229.47
362.39	229.50
362.77	229.55
363.15	229.57
363.53	229.59
363.91	229.63
364.29	229.67
364.67	229.57
365.05	229.57
365.43	229.57
365.81	229.57
366.19	229.63
366.57	229.67
366.95	229.66
367.33	229.65
367.71	229.62
368.09	229.64
368.47	229.62
368.85	229.54
369.23	229.54
369.61	229.48
369.99	229.47
370.37	229.45
370.75	229.43
371.13	229.39
371.51	229.37
371.89	229.32
372.27	229.26
372.65	229.23
373.03	229.18
373.41	229.13
373.78	229.09
374.16	228.97
374.54	228.89
374.92	228.81
375.30	228.72
375.68	228.63
376.06	228.59
376.44	228.51
376.82	228.44
377.19	228.34
377.57	228.29
377.95	228.21
378.33	228.11
378.71	227.98
379.09	227.88
379.47	227.79
379.84	227.69
380.22	227.59
380.60	227.49
380.98	227.42
381.36	227.33
381.73	227.25
382.11	227.17
382.49	227.07
382.87	226.99
383.25	226.92
383.62	226.96
384.00	226.81
384.38	226.76
384.76	226.75
385.13	226.74
385.51	226.71
385.89	226.67
386.27	226.63
386.64	226.65
387.02	226.61
387.40	226.52
387.78	226.47
388.15	226.46
388.53	226.42
388.91	226.39
389.29	226.35
389.66	226.32
390.04	226.34
390.42	226.35
390.79	226.34
391.17	226.32
391.55	226.22
391.92	226.22
392.30	226.23
392.68	226.20
393.05	226.22
393.43	226.20
393.81	226.20
394.18	226.23
394.56	226.18
394.94	226.22
395.31	226.27
395.69	226.35
396.06	226.40
396.44	226.42
396.82	226.43
397.19	226.54
397.57	226.60
397.95	226.62
398.32	226.67
398.70	226.76
399.07	226.86
399.45	226.92
399.82	227.01
400.20	227.07
400.58	227.17
400.95	227.21
401.33	227.31
401.70	227.46
402.08	227.57
402.45	227.68
402.83	227.81
403.20	227.92
403.58	228.00
403.95	228.12
404.33	228.27
404.71	228.41
405.08	228.59
405.46	228.73
405.83	228.89
406.21	229.06
406.58	229.23
406.96	229.41
407.33	229.64
407.70	229.81
408.08	230.10
408.45	230.33
408.83	230.58
409.20	230.80
409.58	231.02
409.95	231.25
410.33	231.53
410.70	231.76
411.08	232.07
411.45	232.44
411.82	232.78
412.20	233.18
412.57	233.61
412.95	233.93
413.32	234.33
413.69	234.74
414.07	235.15
414.44	235.60
414.82	236.07
415.19	236.58
415.56	237.14
415.94	237.67
416.31	238.29
416.68	238.89
417.06	239.61
417.43	240.27
417.81	241.04
418.18	241.85
418.55	242.71
418.93	243.58
419.30	244.44
419.67	245.37
420.04	246.29
420.42	247.29
420.79	248.44
421.16	249.58
421.54	250.79
421.91	251.99
422.28	253.24
422.66	254.55
423.03	255.88
423.40	257.21
423.77	258.63
424.15	260.04
424.52	261.57
424.89	263.16
425.26	264.72
425.64	266.16
426.01	267.75
426.38	269.38
426.75	271.04
427.13	272.79
427.50	274.56
427.87	276.40
428.24	278.20
428.61	279.93
428.99	281.87
429.36	283.96
429.73	286.04
430.10	288.05
430.47	290.11
430.85	292.21
431.22	294.45
431.59	296.88
431.96	299.12
432.33	301.60
432.70	303.98
433.08	306.79
433.45	309.41
433.82	311.99
434.19	314.88
434.56	317.69
434.93	320.34
435.30	322.98
435.68	325.95
436.05	328.82
436.42	331.62
436.79	334.16
437.16	336.85
437.53	339.71
437.90	342.57
438.27	345.30
438.64	348.13
439.01	350.77
439.38	352.96
439.75	355.16
440.13	357.64
440.50	359.99
440.87	361.87
441.24	363.80
441.61	365.96
441.98	367.48
442.35	369.30
442.72	371.17
443.09	372.98
443.46	373.95
443.83	374.51
444.20	375.01
444.57	375.81
444.94	376.09
445.31	376.42
445.68	376.81
446.05	376.93
446.42	376.57
446.79	376.10
447.16	375.64
447.53	375.29
447.90	374.15
448.27	372.97
448.64	371.35
449.01	370.21
449.37	368.25
449.74	366.37
450.11	364.12
450.48	361.63
450.85	359.09
451.22	356.95
451.59	354.98
451.96	353.03
452.33	350.46
452.70	348.11
453.07	345.28
453.43	342.35
453.80	339.57
454.17	336.86
454.54	334.36
454.91	331.62
455.28	328.98
455.65	326.48
456.02	324.04
456.38	321.91
456.75	319.28
457.12	317.04
457.49	314.77
457.86	312.61
458.23	310.73
458.59	308.69
458.96	306.58
459.33	304.75
459.70	302.92
460.07	301.40
460.43	299.70
460.80	298.09
461.17	296.64
461.54	295.13
461.91	293.70
462.27	292.24
462.64	290.97
463.01	289.58
463.38	288.28
463.74	286.92
464.11	285.72
464.48	284.70
464.85	283.61
465.21	282.77
465.58	281.84
465.95	280.72
466.32	279.85
466.68	278.95
467.05	278.03
467.42	277.11
467.78	276.15
468.15	275.26
468.52	274.54
468.88	273.66
469.25	272.87
469.62	272.23
469.98	271.53
470.35	270.92
470.72	270.35
471.08	269.67
471.45	269.09
471.82	268.57
472.18	267.95
472.55	267.45
472.92	266.86
473.28	266.37
473.65	265.95
474.02	265.48
474.38	265.07
474.75	264.72
475.11	264.36
475.48	264.13
475.85	263.85
476.21	263.62
476.58	263.42
476.94	263.30
477.31	263.14
477.67	262.96
478.04	262.84
478.41	262.75
478.77	262.81
479.14	262.72
479.50	262.71
479.87	262.76
480.23	262.85
480.60	262.93
480.96	263.05
481.33	263.27
481.69	263.45
482.06	263.69
482.42	263.91
482.79	264.17
483.15	264.46
483.52	264.88
483.88	265.24
484.25	265.65
484.61	266.05
484.98	266.52
485.34	267.10
485.71	267.72
486.07	268.34
486.44	268.89
486.80	269.61
487.17	270.35
487.53	271.19
487.90	272.06
488.26	273.02
488.62	274.01
488.99	274.95
489.35	276.01
489.72	277.14
490.08	278.37
490.44	279.59
490.81	280.90
491.17	282.23
491.54	283.68
491.90	285.19
492.26	286.87
492.63	288.58
492.99	290.39
493.36	292.30
493.72	294.34
494.08	296.45
494.45	298.72
494.81	301.07
495.17	303.49
495.54	306.05
495.90	308.76
496.26	311.57
496.63	314.59
496.99	317.64
497.35	320.85
497.72	324.21
498.08	327.75
498.44	331.47
498.80	335.43
499.17	339.51
499.53	343.67
499.89	348.05
500.26	352.57
500.62	357.25
500.98	362.21
501.34	367.24
501.71	372.57
502.07	378.02
502.43	383.64
502.79	389.42
503.16	395.48
503.52	401.76
503.88	408.18
504.24	414.83
504.60	421.77
504.97	428.90
505.33	436.29
505.69	444.03
506.05	451.79
506.41	459.67
506.78	467.87
507.14	476.35
507.50	485.06
507.86	494.07
508.22	503.23
508.59	512.39
508.95	521.99
509.31	531.85
509.67	542.00
510.03	552.29
510.39	562.88
510.75	573.74
511.12	584.66
511.48	595.92
511.84	607.32
512.20	618.91
512.56	630.79
512.92	642.88
513.28	655.17
513.64	667.77
514.00	680.53
514.37	693.45
514.73	706.53
515.09	719.57
515.45	732.91
515.81	746.58
516.17	760.61
516.53	774.77
516.89	788.93
517.25	803.11
517.61	817.54
517.97	832.03
518.33	846.48
518.69	861.36
519.05	876.35
519.41	891.62
519.77	907.17
520.13	922.72
520.49	938.17
520.85	953.64
521.21	969.19
521.57	985.46
521.93	1001.23
522.29	1017.69
522.65	1033.96
523.01	1050.30
523.37	1066.30
523.73	1082.48
524.09	1098.65
524.45	1115.02
524.81	1131.64
525.17	1148.57
525.53	1165.56
525.89	1182.46
526.25	1199.24
526.61	1215.67
526.97	1232.48
527.33	1248.89
527.68	1265.55
528.04	1282.10
528.40	1298.91
528.76	1316.16
529.12	1332.67
529.48	1349.63
529.84	1365.64
530.20	1382.33
530.56	1399.27
530.91	1416.76
531.27	1433.58
531.63	1450.00
531.99	1466.63
532.35	1482.65
532.71	1498.42
533.07	1514.78
533.42	1530.74
533.78	1546.66
534.14	1563.08
534.50	1578.34
534.86	1594.27
535.21	1609.57
535.57	1625.58
535.93	1641.05
536.29	1655.76
536.65	1671.00
537.00	1685.94
537.36	1701.28
537.72	1715.88
538.08	1730.29
538.44	1744.23
538.79	1758.22
539.15	1772.10
539.51	1785.93
539.87	1800.42
540.22	1814.35
540.58	1828.09
540.94	1841.60
541.29	1854.77
541.65	1867.50
542.01	1880.84
542.37	1893.27
542.72	1905.73
543.08	1917.57
543.44	1929.95
543.79	1941.33
544.15	1952.25
544.51	1963.72
544.87	1974.71
545.22	1985.60
545.58	1995.88
545.94	2005.68
546.29	2015.48
546.65	2025.27
547.01	2034.38
547.36	2043.12
547.72	2051.59
548.07	2059.47
548.43	2067.60
548.79	2075.56
549.14	2083.04
549.50	2090.60
549.86	2098.36
550.21	2105.57
550.57	2112.86
550.92	2119.53
551.28	2126.64
551.64	2133.80
551.99	2140.47
552.35	2146.79
552.70	2152.80
553.06	2158.78
553.41	2165.05
553.77	2171.14
554.13	2177.36
554.48	2183.61
554.84	2188.98
555.19	2194.29
555.55	2199.40
555.90	2203.86
556.26	2208.67
556.61	2213.49
556.97	2217.41
557.32	2221.48
557.68	2225.64
558.03	2229.67
558.39	2233.29
558.74	2237.83
559.10	2241.64
559.45	2245.10
559.81	2249.33
560.16	2253.17
560.52	2256.44
560.87	2259.87
561.23	2262.53
561.58	2265.32
561.94	2267.72
562.29	2270.25
562.64	2272.94
563.00	2275.51
563.35	2278.92
563.71	2282.14
564.06	2285.30
564.42	2288.20
564.77	2290.77
565.12	2293.03
565.48	2294.86
565.83	2296.70
566.19	2298.05
566.54	2298.97
566.89	2300.33
567.25	2300.80
567.60	2302.17
567.96	2303.94
568.31	2304.79
568.66	2305.79
569.02	2306.39
569.37	2306.73
569.72	2307.32
570.08	2307.42
570.43	2307.41
570.78	2306.66
571.14	2305.02
571.49	2303.59
571.84	2303.32
572.20	2302.02
572.55	2300.93
572.90	2299.53
573.26	2298.10
573.61	2296.27
573.96	2294.45
574.31	2291.26
574.67	2288.09
575.02	2284.39
575.37	2280.73
575.72	2276.75
576.08	2273.47
576.43	2269.99
576.78	2266.29
577.13	2263.21
577.49	2260.07
577.84	2256.53
578.19	2252.98
578.54	2249.21
578.90	2245.00
579.25	2239.49
579.60	2234.53
579.95	2229.56
580.30	2224.45
580.66	2219.19
581.01	2214.15
581.36	2209.06
581.71	2204.83
582.06	2200.45
582.42	2195.80
582.77	2190.66
583.12	2186.07
583.47	2181.20
583.82	2176.19
584.17	2170.85
584.53	2165.20
584.88	2159.41
585.23	2153.59
585.58	2147.91
585.93	2142.59
586.28	2137.76
586.63	2132.58
586.98	2127.52
587.34	2122.68
587.69	2117.67
588.04	2112.43
588.39	2106.69
588.74	2100.37
589.09	2094.17
589.44	2087.28
589.79	2081.41
590.14	2075.80
590.49	2069.22
590.84	2062.65
591.19	2056.50
591.54	2050.09
591.89	2042.62
592.25	2035.86
592.60	2028.61
592.95	2021.00
593.30	2013.44
593.65	2005.66
594.00	1998.53
594.35	1991.18
594.70	1983.07
595.05	1975.78
595.40	1968.51
595.75	1960.97
596.10	1954.54
596.45	1947.74
596.80	1941.59
597.15	1934.81
597.50	1927.42
597.85	1921.10
598.19	1914.54
598.54	1907.57
598.89	1900.85
599.24	1894.98
599.59	1888.22
599.94	1882.03
600.29	1875.73
600.64	1869.36
600.99	1861.95
601.34	1854.98
601.69	1847.96
602.04	1841.11
602.39	1833.82
602.74	1826.81
603.08	1820.19
603.43	1813.49
603.78	1806.14
604.13	1798.90
604.48	1791.50
604.83	1784.66
605.18	1777.37
605.53	1769.31
605.87	1761.21
606.22	1754.00
606.57	1746.08
606.92	1738.71
607.27	1731.38
607.62	1724.35
607.96	1716.90
608.31	1710.22
608.66	1702.55
609.01	1694.94
609.36	1687.37
609.70	1679.27
610.05	1671.22
610.40	1663.38
610.75	1654.97
611.10	1647.25
611.44	1638.84
611.79	1630.98
612.14	1622.27
612.49	1613.26
612.83	1604.85
613.18	1596.67
613.53	1588.56
613.88	1580.06
614.22	1571.77
614.57	1563.22
614.92	1555.14
615.27	1547.48
615.61	1539.11
615.96	1531.19
616.31	1523.51
616.65	1516.12
617.00	1508.69
617.35	1501.07
617.70	1492.67
618.04	1484.17
618.39	1475.96
618.74	1468.27
619.08	1459.85
619.43	1452.27
619.78	1445.39
620.12	1438.26
620.47	1430.82
620.82	1422.59
621.16	1415.04
621.51	1407.47
621.85	1399.88
622.20	1391.39
622.55	1383.03
622.89	1375.18
623.24	1367.64
623.59	1360.32
623.93	1352.69
624.28	1345.38
624.62	1337.90
624.97	1330.73
625.32	1324.01
625.66	1316.97
626.01	1309.84
626.35	1302.44
626.70	1294.69
627.04	1286.82
627.39	1279.08
627.73	1271.51
628.08	1264.66
628.43	1257.41
628.77	1250.01
629.12	1242.38
629.46	1235.20
629.81	1227.97
630.15	1220.75
630.50	1213.17
630.84	1204.92
631.19	1197.07
631.53	1189.54
631.88	1181.86
632.22	1174.32
632.57	1167.12
632.91	1159.54
633.26	1152.11
633.60	1144.78
633.95	1137.79
634.29	1130.80
634.64	1124.13
634.98	1116.82
635.32	1109.64
635.67	1103.08
636.01	1096.39
636.36	1089.65
636.70	1083.19
637.05	1076.60
637.39	1070.21
637.73	1063.79
638.08	1057.92
638.42	1051.98
638.77	1045.50
639.11	1038.95
639.45	1032.59
639.80	1025.86
640.14	1019.43
640.49	1012.86
640.83	1006.48
641.17	1000.22
641.52	993.87
641.86	987.47
642.20	981.65
642.55	975.33
642.89	968.64
643.23	962.18
643.58	956.39
643.92	950.12
644.26	943.96
644.61	937.97
644.95	931.90
645.29	925.32
645.64	918.50
645.98	912.25
646.32	906.43
646.66	900.38
647.01	894.61
647.35	889.03
647.69	883.22
648.04	877.72
648.38	871.88
648.72	865.84
649.06	859.67
649.41	853.71
649.75	847.65
650.09	841.83
650.43	835.99
650.78	829.83
651.12	823.91
651.46	818.18
651.80	812.26
652.14	806.81
652.49	801.49
652.83	796.33
653.17	790.49
653.51	784.67
653.85	779.28
654.20	773.60
654.54	767.53
654.88	761.88
655.22	756.00
655.56	750.33
655.90	744.90
656.25	739.73
656.59	734.48
656.93	729.43
657.27	724.28
657.61	718.88
657.95	713.85
658.29	708.74
658.64	703.48
658.98	698.28
659.32	692.89
659.66	687.58
660.00	682.20
660.34	677.33
660.68	672.42
661.02	667.39
661.36	662.60
661.70	658.15
662.05	653.70
662.39	649.32
662.73	644.86
663.07	640.51
663.41	635.99
663.75	631.48
664.09	626.99
664.43	622.59
664.77	618.50
665.11	614.19
665.45	610.13
665.79	606.11
666.13	601.94
666.47	597.87
666.81	593.79
667.15	589.73
667.49	585.84
667.83	582.11
668.17	578.22
668.51	574.24
668.85	570.20
669.19	566.37
669.53	562.56
669.87	558.64
670.21	554.94
670.55	551.36
670.89	547.92
671.23	544.52
671.57	540.98
671.91	537.40
672.25	534.00
672.58	530.42
672.92	527.02
673.26	523.92
673.60	520.79
673.94	517.63
674.28	514.76
674.62	511.82
674.96	508.75
675.30	505.78
675.64	502.82
675.97	500.08
676.31	497.24
676.65	494.33
676.99	491.73
677.33	488.82
677.67	486.00
678.01	482.98
678.34	480.01
678.68	477.14
679.02	474.33
679.36	471.51
679.70	468.87
680.04	466.13
680.37	463.24
680.71	460.43
681.05	457.86
681.39	455.15
681.73	452.50
682.06	449.95
682.40	447.41
682.74	444.90
683.08	442.35
683.42	439.76
683.75	437.28
684.09	434.72
684.43	432.32
684.77	429.84
685.10	427.47
685.44	425.12
685.78	422.88
686.12	420.65
686.45	418.34
686.79	415.98
687.13	413.80
687.46	411.67
687.80	409.53
688.14	407.31
688.48	405.29
688.81	403.02
689.15	400.83
689.49	398.74
689.82	396.67
690.16	394.58
690.50	392.66
690.83	390.69
691.17	388.70
691.51	386.79
691.84	384.95
692.18	383.04
692.52	381.03
692.85	379.09
693.19	377.22
693.52	375.39
693.86	373.64
694.20	371.87
694.53	369.99
694.87	368.15
695.21	366.38
695.54	364.54
695.88	362.84
696.21	361.13
696.55	359.45
696.88	357.76
697.22	356.08
697.56	354.47
697.89	352.81
698.23	351.21
698.56	349.58
698.90	347.96
699.23	346.33
699.57	344.81
699.90	343.27
700.24	341.74
700.58	340.19
700.91	338.65
701.25	337.18
701.58	335.86
701.92	334.45
702.25	333.05
702.59	331.64
702.92	330.33
703.26	329.03
703.59	327.73
703.93	326.53
704.26	325.28
704.60	323.95
704.93	322.67
705.26	321.42
705.60	320.27
705.93	319.11
706.27	318.06
706.60	316.98
706.94	315.92
707.27	314.73
707.61	313.69
707.94	312.69
708.27	311.59
708.61	310.49
708.94	309.52
709.28	308.56
709.61	307.61
709.94	306.60
710.28	305.60
710.61	304.61
710.95	303.52
711.28	302.61
711.61	301.69
711.95	300.81
712.28	299.85
712.61	298.85
712.95	297.93
713.28	297.04
713.61	296.12
713.95	295.21
714.28	294.42
714.61	293.56
714.95	292.71
715.28	291.86
715.61	291.02
715.95	290.17
716.28	289.34
716.61	288.53
716.95	287.74
717.28	287.01
717.61	286.25
717.94	285.55
718.28	284.74
718.61	284.05
718.94	283.32
719.27	282.68
719.61	282.03
719.94	281.36
720.27	280.66
720.60	280.06
720.94	279.45
721.27	278.88
721.60	278.30
721.93	277.70
722.27	277.18
722.60	276.61
722.93	276.04
723.26	275.48
723.59	274.88
723.93	274.34
724.26	273.80
724.59	273.22
724.92	272.66
725.25	272.19
725.59	271.63
725.92	271.13
726.25	270.63
726.58	270.14
726.91	269.65
727.24	269.17
727.57	268.69
727.91	268.20
728.24	267.69
728.57	267.20
728.90	266.77
729.23	266.28
729.56	265.87
729.89	265.43
730.22	264.96
730.55	264.53
730.89	264.09
731.22	263.65
731.55	263.27
731.88	262.84
732.21	262.43
732.54	262.02
732.87	261.60
733.20	261.19
733.53	260.83
733.86	260.44
734.19	260.05
734.52	259.66
734.85	259.36
735.18	258.99
735.51	258.64
735.84	258.25
736.17	257.87
736.50	257.44
736.83	257.16
737.16	256.85
737.49	256.51
737.82	256.16
738.15	255.84
738.48	255.49
738.81	255.19
739.14	254.86
739.47	254.56
739.80	254.27
740.13	253.97
740.46	253.63
740.79	253.32
741.12	253.00
741.45	252.66
741.78	252.30
742.11	251.96
742.44	251.61
742.77	251.34
743.10	251.04
743.43	250.75
743.75	250.38
744.08	250.23
744.41	249.96
744.74	249.71
745.07	249.42
745.40	249.18
745.73	248.95
746.06	248.65
746.39	248.41
746.71	248.11
747.04	247.82
747.37	247.57
747.70	247.33
748.03	247.11
748.36	246.91
748.68	246.67
749.01	246.43
749.34	246.21
749.67	245.97
750.00	245.74
750.33	245.60
750.65	245.40
750.98	245.04
751.31	244.80
751.64	244.58
751.97	244.41
752.29	244.19
752.62	243.95
752.95	243.76
753.28	243.51
753.60	243.29
753.93	243.14
754.26	242.92
754.59	242.70
754.91	242.51
755.24	242.31
755.57	242.11
755.90	241.95
756.22	241.74
756.55	241.51
756.88	241.33
757.20	241.03
757.53	240.85
757.86	240.67
758.19	240.53
758.51	240.36
758.84	240.16
759.17	239.99
759.49	239.83
759.82	239.72
760.15	239.56
760.47	239.43
760.80	239.23
761.13	239.11
761.45	238.96
761.78	238.78
762.11	238.66
762.43	238.48
762.76	238.35
763.08	238.26
763.41	238.17
763.74	238.00
764.06	237.91
764.39	237.76
764.71	237.62
765.04	237.47
765.37	237.34
765.69	237.18
766.02	237.06
766.34	236.89
766.67	236.74
767.00	236.65
767.32	236.57
767.65	236.54
767.97	236.43
768.30	236.33
768.62	236.21
768.95	236.08
769.27	235.98
769.60	235.87
769.92	235.75
770.25	235.63
770.57	235.55
770.90	235.42
771.22	235.33
771.55	235.27
771.87	235.19
772.20	235.07
772.52	235.10
772.85	235.12
773.17	235.05
773.50	234.95
773.82	234.81
774.15	234.70
774.47	234.56
774.80	234.45
775.12	234.37
775.45	234.34
775.77	234.24
776.09	234.16
776.42	234.09
776.74	234.03
777.07	233.95
777.39	233.86
777.72	233.80
778.04	233.74
778.36	233.65
778.69	233.57
779.01	233.52
779.33	233.35
779.66	233.17
779.98	233.10
780.31	233.04
780.63	233.05
780.95	232.98
781.28	232.90
781.60	232.83
781.92	232.75
782.25	232.66
782.57	232.61
782.89	232.57
783.22	232.49
783.54	232.41
783.86	232.36
784.19	232.29
784.51	232.27
784.83	232.18
785.16	232.09
785.48	232.02
785.80	231.99
786.12	231.94
786.45	231.88
786.77	231.84
787.09	231.80
