SpectraSuite Data File
++++++++++++++++++++++++++++++++++++
Date: Fri Feb 01 16:59:09 EST 2013
User: group
Dark Spectrum Present: No
Reference Spectrum Present: No
Number of Sampled Component Spectra: 1
Spectrometers: USB2E7196
Integration Time (usec): 35000 (USB2E7196)
Spectra Averaged: 100 (USB2E7196)
Boxcar Smoothing: 10 (USB2E7196)
Correct for Electrical Dark: No (USB2E7196)
Strobe/Lamp Enabled: No (USB2E7196)
Correct for Detector Non-linearity: No (USB2E7196)
Correct for Stray Light: No (USB2E7196)
Number of Pixels in Processed Spectrum: 2048
>>>>>Begin Processed Spectral Data<<<<<
339.09	0.00
339.48	213.01
339.86	214.52
340.24	215.75
340.63	217.92
341.01	220.16
341.39	220.09
341.78	221.16
342.16	222.30
342.54	223.82
342.93	211.62
343.31	222.33
343.69	222.88
344.07	223.36
344.46	223.80
344.84	224.14
345.22	224.41
345.60	224.65
345.99	224.84
346.37	224.98
346.75	225.05
347.13	225.13
347.52	225.21
347.90	225.27
348.28	225.32
348.66	225.38
349.05	225.38
349.43	225.44
349.81	225.47
350.19	225.52
350.57	225.61
350.96	225.68
351.34	225.76
351.72	225.88
352.10	225.98
352.48	226.04
352.87	226.13
353.25	226.18
353.63	226.25
354.01	226.34
354.39	226.43
354.77	226.49
355.15	226.60
355.54	226.64
355.92	226.70
356.30	226.80
356.68	226.92
357.06	227.00
357.44	227.04
357.82	227.09
358.20	227.20
358.58	227.26
358.97	227.34
359.35	227.42
359.73	227.45
360.11	227.48
360.49	227.52
360.87	227.54
361.25	227.62
361.63	227.69
362.01	227.72
362.39	227.76
362.77	227.83
363.15	227.83
363.53	227.85
363.91	227.84
364.29	227.82
364.67	227.74
365.05	227.72
365.43	227.74
365.81	227.77
366.19	227.76
366.57	227.78
366.95	227.76
367.33	227.71
367.71	227.70
368.09	227.75
368.47	227.77
368.85	227.74
369.23	227.71
369.61	227.64
369.99	227.65
370.37	227.61
370.75	227.61
371.13	227.59
371.51	227.54
371.89	227.50
372.27	227.46
372.65	227.42
373.03	227.40
373.41	227.31
373.78	227.25
374.16	227.17
374.54	227.09
374.92	227.00
375.30	226.96
375.68	226.85
376.06	226.77
376.44	226.67
376.82	226.64
377.19	226.58
377.57	226.55
377.95	226.46
378.33	226.38
378.71	226.22
379.09	226.14
379.47	226.08
379.84	226.02
380.22	225.95
380.60	225.88
380.98	225.83
381.36	225.80
381.73	225.77
382.11	225.71
382.49	225.66
382.87	225.59
383.25	225.51
383.62	225.58
384.00	225.49
384.38	225.44
384.76	225.38
385.13	225.32
385.51	225.27
385.89	225.19
386.27	225.17
386.64	225.16
387.02	225.12
387.40	225.05
387.78	225.00
388.15	224.96
388.53	224.93
388.91	224.89
389.29	224.83
389.66	224.77
390.04	224.72
390.42	224.70
390.79	224.65
391.17	224.63
391.55	224.52
391.92	224.52
392.30	224.52
392.68	224.52
393.05	224.55
393.43	224.52
393.81	224.56
394.18	224.53
394.56	224.54
394.94	224.63
395.31	224.67
395.69	224.72
396.06	224.75
396.44	224.79
396.82	224.83
397.19	224.92
397.57	225.03
397.95	225.09
398.32	225.12
398.70	225.24
399.07	225.31
399.45	225.34
399.82	225.42
400.20	225.48
400.58	225.53
400.95	225.55
401.33	225.67
401.70	225.83
402.08	225.94
402.45	226.03
402.83	226.10
403.20	226.23
403.58	226.34
403.95	226.48
404.33	226.57
404.71	226.65
405.08	226.82
405.46	226.89
405.83	227.05
406.21	227.22
406.58	227.35
406.96	227.52
407.33	227.73
407.70	227.92
408.08	228.18
408.45	228.41
408.83	228.63
409.20	228.82
409.58	228.98
409.95	229.25
410.33	229.54
410.70	229.76
411.08	230.02
411.45	230.32
411.82	230.63
412.20	230.99
412.57	231.43
412.95	231.69
413.32	232.10
413.69	232.48
414.07	232.88
414.44	233.37
414.82	233.83
415.19	234.36
415.56	234.90
415.94	235.42
416.31	236.07
416.68	236.66
417.06	237.35
417.43	237.99
417.81	238.75
418.18	239.49
418.55	240.32
418.93	241.21
419.30	242.09
419.67	242.96
420.04	243.91
420.42	244.87
420.79	246.05
421.16	247.19
421.54	248.39
421.91	249.62
422.28	250.83
422.66	252.15
423.03	253.43
423.40	254.74
423.77	256.12
424.15	257.50
424.52	259.03
424.89	260.61
425.26	262.15
425.64	263.56
426.01	265.15
426.38	266.79
426.75	268.41
427.13	270.14
427.50	271.94
427.87	273.79
428.24	275.64
428.61	277.41
428.99	279.35
429.36	281.43
429.73	283.48
430.10	285.51
430.47	287.56
430.85	289.67
431.22	291.90
431.59	294.26
431.96	296.52
432.33	298.95
432.70	301.34
433.08	304.11
433.45	306.72
433.82	309.30
434.19	312.16
434.56	314.96
434.93	317.61
435.30	320.19
435.68	323.07
436.05	325.87
436.42	328.62
436.79	331.09
437.16	333.73
437.53	336.50
437.90	339.29
438.27	342.01
438.64	344.82
439.01	347.42
439.38	349.62
439.75	351.77
440.13	354.24
440.50	356.55
440.87	358.40
441.24	360.35
441.61	362.50
441.98	364.00
442.35	365.78
442.72	367.58
443.09	369.46
443.46	370.44
443.83	371.05
444.20	371.57
444.57	372.43
444.94	372.74
445.31	373.11
445.68	373.44
446.05	373.57
446.42	373.17
446.79	372.76
447.16	372.38
447.53	372.05
447.90	370.93
448.27	369.79
448.64	368.28
449.01	367.16
449.37	365.23
449.74	363.38
450.11	361.17
450.48	358.76
450.85	356.24
451.22	354.11
451.59	352.12
451.96	350.19
452.33	347.61
452.70	345.29
453.07	342.45
453.43	339.59
453.80	336.82
454.17	334.18
454.54	331.65
454.91	328.91
455.28	326.23
455.65	323.75
456.02	321.37
456.38	319.23
456.75	316.56
457.12	314.32
457.49	312.10
457.86	309.91
458.23	308.06
458.59	306.03
458.96	303.97
459.33	302.10
459.70	300.26
460.07	298.76
460.43	297.06
460.80	295.49
461.17	294.07
461.54	292.59
461.91	291.21
462.27	289.78
462.64	288.60
463.01	287.26
463.38	286.00
463.74	284.62
464.11	283.45
464.48	282.43
464.85	281.34
465.21	280.49
465.58	279.59
465.95	278.51
466.32	277.63
466.68	276.73
467.05	275.85
467.42	274.95
467.78	274.03
468.15	273.13
468.52	272.48
468.88	271.64
469.25	270.88
469.62	270.24
469.98	269.58
470.35	268.93
470.72	268.35
471.08	267.71
471.45	267.20
471.82	266.69
472.18	266.11
472.55	265.71
472.92	265.19
473.28	264.75
473.65	264.32
474.02	263.91
474.38	263.60
474.75	263.29
475.11	262.99
475.48	262.75
475.85	262.57
476.21	262.34
476.58	262.14
476.94	262.01
477.31	261.87
477.67	261.73
478.04	261.66
478.41	261.62
478.77	261.67
479.14	261.58
479.50	261.58
479.87	261.70
480.23	261.81
480.60	261.88
480.96	262.00
481.33	262.23
481.69	262.41
482.06	262.60
482.42	262.79
482.79	263.05
483.15	263.37
483.52	263.75
483.88	264.11
484.25	264.51
484.61	264.94
484.98	265.41
485.34	266.00
485.71	266.56
486.07	267.17
486.44	267.74
486.80	268.48
487.17	269.21
487.53	269.98
487.90	270.81
488.26	271.75
488.62	272.74
488.99	273.69
489.35	274.74
489.72	275.86
490.08	277.03
490.44	278.28
490.81	279.58
491.17	280.92
491.54	282.40
491.90	283.94
492.26	285.61
492.63	287.33
492.99	289.10
493.36	290.99
493.72	293.04
494.08	295.15
494.45	297.39
494.81	299.76
495.17	302.21
495.54	304.74
495.90	307.41
496.26	310.19
496.63	313.15
496.99	316.24
497.35	319.51
497.72	322.94
498.08	326.44
498.44	330.13
498.80	334.04
499.17	338.09
499.53	342.27
499.89	346.56
500.26	351.03
500.62	355.70
500.98	360.63
501.34	365.66
501.71	370.93
502.07	376.35
502.43	381.88
502.79	387.62
503.16	393.68
503.52	399.92
503.88	406.29
504.24	412.85
504.60	419.70
504.97	426.74
505.33	434.00
505.69	441.63
506.05	449.34
506.41	457.19
506.78	465.28
507.14	473.67
507.50	482.26
507.86	491.20
508.22	500.24
508.59	509.29
508.95	518.77
509.31	528.54
509.67	538.51
510.03	548.69
510.39	559.13
510.75	569.69
511.12	580.51
511.48	591.69
511.84	602.99
512.20	614.30
512.56	626.04
512.92	638.04
513.28	650.31
513.64	662.51
514.00	674.96
514.37	687.65
514.73	700.49
515.09	713.42
515.45	726.45
515.81	739.93
516.17	753.76
516.53	767.70
516.89	781.62
517.25	795.58
517.61	809.81
517.97	824.06
518.33	838.33
518.69	852.87
519.05	867.66
519.41	882.68
519.77	898.03
520.13	913.30
520.49	928.44
520.85	943.47
521.21	958.97
521.57	974.90
521.93	990.45
522.29	1006.49
522.65	1022.50
523.01	1038.38
523.37	1054.07
523.73	1069.93
524.09	1085.80
524.45	1101.75
524.81	1117.99
525.17	1134.41
525.53	1150.96
525.89	1167.42
526.25	1183.84
526.61	1199.78
526.97	1216.21
527.33	1232.36
527.68	1248.69
528.04	1264.81
528.40	1281.04
528.76	1297.71
529.12	1313.96
529.48	1330.49
529.84	1346.19
530.20	1362.50
530.56	1379.09
530.91	1396.24
531.27	1412.68
531.63	1428.76
531.99	1445.07
532.35	1460.73
532.71	1476.33
533.07	1492.29
533.42	1507.99
533.78	1523.82
534.14	1539.83
534.50	1554.67
534.86	1570.16
535.21	1584.97
535.57	1600.45
535.93	1615.61
536.29	1630.29
536.65	1645.04
537.00	1659.46
537.36	1674.44
537.72	1688.50
538.08	1702.75
538.44	1716.21
538.79	1729.75
539.15	1742.95
539.51	1756.27
539.87	1770.36
540.22	1783.90
540.58	1797.27
540.94	1810.24
541.29	1822.78
541.65	1835.24
542.01	1848.19
542.37	1860.37
542.72	1872.51
543.08	1884.33
543.44	1896.59
543.79	1907.45
544.15	1918.18
544.51	1929.58
544.87	1940.38
545.22	1951.00
545.58	1961.06
545.94	1970.52
546.29	1980.29
546.65	1990.11
547.01	1999.34
547.36	2007.97
547.72	2016.31
548.07	2024.14
548.43	2032.23
548.79	2040.08
549.14	2047.39
549.50	2054.54
549.86	2062.00
550.21	2069.38
550.57	2076.44
550.92	2082.97
551.28	2089.93
551.64	2096.99
551.99	2103.41
552.35	2109.48
552.70	2115.82
553.06	2121.81
553.41	2128.17
553.77	2134.09
554.13	2140.10
554.48	2146.18
554.84	2151.68
555.19	2156.89
555.55	2162.21
555.90	2166.69
556.26	2171.78
556.61	2176.52
556.97	2181.15
557.32	2185.37
557.68	2189.43
558.03	2193.64
558.39	2197.31
558.74	2201.97
559.10	2205.93
559.45	2209.71
559.81	2214.02
560.16	2217.74
560.52	2221.09
560.87	2224.52
561.23	2227.29
561.58	2230.33
561.94	2232.92
562.29	2235.33
562.64	2238.21
563.00	2240.74
563.35	2244.29
563.71	2247.37
564.06	2250.70
564.42	2253.56
564.77	2256.09
565.12	2258.52
565.48	2260.52
565.83	2262.61
566.19	2264.15
566.54	2265.11
566.89	2266.38
567.25	2267.16
567.60	2268.39
567.96	2270.21
568.31	2271.23
568.66	2272.50
569.02	2273.29
569.37	2273.74
569.72	2274.73
570.08	2275.03
570.43	2275.16
570.78	2274.91
571.14	2273.67
571.49	2272.42
571.84	2272.27
572.20	2271.43
572.55	2270.52
572.90	2269.23
573.26	2268.01
573.61	2266.39
573.96	2264.92
574.31	2262.22
574.67	2259.51
575.02	2256.39
575.37	2253.14
575.72	2249.73
576.08	2246.51
576.43	2243.34
576.78	2239.96
577.13	2236.85
577.49	2233.74
577.84	2230.59
578.19	2226.87
578.54	2223.45
578.90	2219.56
579.25	2214.22
579.60	2209.43
579.95	2204.68
580.30	2199.82
580.66	2194.77
581.01	2190.00
581.36	2185.37
581.71	2181.42
582.06	2177.21
582.42	2172.90
582.77	2167.88
583.12	2163.35
583.47	2158.89
583.82	2154.21
584.17	2149.20
584.53	2143.94
584.88	2138.65
585.23	2133.09
585.58	2127.85
585.93	2122.61
586.28	2117.92
586.63	2113.05
586.98	2108.10
587.34	2103.48
587.69	2098.63
588.04	2093.60
588.39	2088.16
588.74	2081.68
589.09	2075.68
589.44	2069.05
589.79	2063.13
590.14	2057.64
590.49	2051.34
590.84	2045.19
591.19	2039.26
591.54	2032.98
591.89	2025.95
592.25	2019.32
592.60	2012.22
592.95	2004.95
593.30	1997.74
593.65	1990.34
594.00	1983.50
594.35	1976.49
594.70	1968.57
595.05	1961.80
595.40	1954.77
595.75	1947.38
596.10	1941.47
596.45	1934.85
596.80	1928.86
597.15	1922.49
597.50	1915.69
597.85	1909.28
598.19	1902.74
598.54	1895.78
598.89	1889.21
599.24	1883.37
599.59	1876.93
599.94	1870.79
600.29	1864.44
600.64	1857.88
600.99	1850.73
601.34	1844.05
601.69	1837.30
602.04	1830.71
602.39	1823.43
602.74	1816.59
603.08	1810.08
603.43	1803.37
603.78	1796.18
604.13	1789.03
604.48	1781.87
604.83	1775.04
605.18	1768.33
605.53	1760.46
605.87	1752.56
606.22	1745.59
606.57	1737.77
606.92	1730.43
607.27	1723.61
607.62	1716.86
607.96	1709.80
608.31	1703.25
608.66	1695.74
609.01	1688.42
609.36	1680.84
609.70	1672.77
610.05	1664.92
610.40	1657.28
610.75	1649.08
611.10	1641.53
611.44	1633.08
611.79	1625.12
612.14	1616.62
612.49	1607.38
612.83	1599.17
613.18	1591.13
613.53	1583.05
613.88	1574.59
614.22	1566.39
614.57	1557.56
614.92	1549.61
615.27	1542.11
615.61	1533.85
615.96	1525.80
616.31	1518.01
616.65	1510.76
617.00	1503.37
617.35	1495.71
617.70	1487.50
618.04	1479.14
618.39	1470.83
618.74	1463.45
619.08	1455.20
619.43	1447.56
619.78	1440.77
620.12	1433.65
620.47	1426.19
620.82	1417.93
621.16	1410.45
621.51	1402.84
621.85	1395.39
622.20	1386.81
622.55	1378.43
622.89	1370.72
623.24	1363.17
623.59	1355.72
623.93	1348.13
624.28	1340.88
624.62	1333.46
624.97	1326.19
625.32	1319.38
625.66	1312.41
626.01	1305.14
626.35	1297.78
626.70	1289.99
627.04	1282.22
627.39	1274.30
627.73	1266.87
628.08	1260.04
628.43	1252.94
628.77	1245.65
629.12	1238.08
629.46	1231.04
629.81	1223.53
630.15	1216.12
630.50	1208.72
630.84	1200.65
631.19	1192.75
631.53	1185.26
631.88	1177.66
632.22	1170.28
632.57	1162.92
632.91	1155.40
633.26	1147.97
633.60	1140.49
633.95	1133.45
634.29	1126.48
634.64	1119.87
634.98	1112.57
635.32	1105.46
635.67	1098.74
636.01	1092.15
636.36	1085.43
636.70	1078.87
637.05	1072.41
637.39	1066.09
637.73	1059.59
638.08	1053.76
638.42	1047.78
638.77	1041.47
639.11	1034.88
639.45	1028.44
639.80	1021.87
640.14	1015.63
640.49	1009.28
640.83	1003.05
641.17	996.83
641.52	990.52
641.86	984.10
642.20	978.27
642.55	971.90
642.89	965.46
643.23	958.86
643.58	953.13
643.92	946.99
644.26	941.01
644.61	934.93
644.95	928.99
645.29	922.48
645.64	915.92
645.98	909.51
646.32	903.74
646.66	897.75
647.01	892.00
647.35	886.32
647.69	880.42
648.04	874.95
648.38	869.21
648.72	863.29
649.06	857.31
649.41	851.41
649.75	845.51
650.09	839.66
650.43	833.97
650.78	827.79
651.12	821.87
651.46	816.15
651.80	810.52
652.14	805.14
652.49	799.75
652.83	794.48
653.17	788.84
653.51	783.14
653.85	777.74
654.20	772.14
654.54	766.13
654.88	760.39
655.22	754.46
655.56	748.79
655.90	743.36
656.25	738.09
656.59	732.79
656.93	727.72
657.27	722.58
657.61	717.14
657.95	712.12
658.29	707.10
658.64	701.81
658.98	696.52
659.32	691.05
659.66	685.89
660.00	680.69
660.34	675.78
660.68	670.88
661.02	665.87
661.36	661.20
661.70	656.65
662.05	652.36
662.39	648.14
662.73	643.71
663.07	639.30
663.41	634.91
663.75	630.38
664.09	625.85
664.43	621.45
664.77	617.31
665.11	613.07
665.45	608.93
665.79	604.88
666.13	600.75
666.47	596.68
666.81	592.45
667.15	588.25
667.49	584.34
667.83	580.50
668.17	576.59
668.51	572.50
668.85	568.53
669.19	564.64
669.53	560.78
669.87	556.92
670.21	553.23
670.55	549.59
670.89	546.17
671.23	542.72
671.57	539.21
671.91	535.75
672.25	532.17
672.58	528.65
672.92	525.22
673.26	522.01
673.60	518.80
673.94	515.75
674.28	512.83
674.62	509.90
674.96	506.78
675.30	503.87
675.64	500.94
675.97	498.12
676.31	495.28
676.65	492.39
676.99	489.65
677.33	486.79
677.67	483.93
678.01	480.94
678.34	478.02
678.68	475.15
679.02	472.34
679.36	469.61
679.70	466.92
680.04	464.21
680.37	461.36
680.71	458.67
681.05	456.04
681.39	453.41
681.73	450.75
682.06	448.24
682.40	445.67
682.74	443.18
683.08	440.67
683.42	438.11
683.75	435.56
684.09	433.01
684.43	430.55
684.77	428.15
685.10	425.78
685.44	423.47
685.78	421.18
686.12	418.93
686.45	416.67
686.79	414.37
687.13	412.17
687.46	410.01
687.80	407.88
688.14	405.67
688.48	403.64
688.81	401.46
689.15	399.39
689.49	397.27
689.82	395.18
690.16	393.07
690.50	391.13
690.83	389.24
691.17	387.33
691.51	385.44
691.84	383.64
692.18	381.72
692.52	379.76
692.85	377.83
693.19	375.94
693.52	374.10
693.86	372.29
694.20	370.56
694.53	368.76
694.87	366.84
695.21	365.08
695.54	363.20
695.88	361.43
696.21	359.68
696.55	357.98
696.88	356.29
697.22	354.71
697.56	353.10
697.89	351.46
698.23	349.85
698.56	348.23
698.90	346.65
699.23	345.05
699.57	343.53
699.90	341.97
700.24	340.43
700.58	338.93
700.91	337.46
701.25	336.00
701.58	334.64
701.92	333.33
702.25	331.91
702.59	330.56
702.92	329.25
703.26	327.94
703.59	326.66
703.93	325.47
704.26	324.16
704.60	322.79
704.93	321.51
705.26	320.21
705.60	319.00
705.93	317.75
706.27	316.71
706.60	315.61
706.94	314.53
707.27	313.38
707.61	312.26
707.94	311.20
708.27	310.13
708.61	309.01
708.94	307.98
709.28	307.00
709.61	306.03
709.94	305.06
710.28	304.03
710.61	303.03
710.95	301.94
711.28	301.01
711.61	300.12
711.95	299.16
712.28	298.22
712.61	297.25
712.95	296.36
713.28	295.45
713.61	294.54
713.95	293.66
714.28	292.83
714.61	291.99
714.95	291.15
715.28	290.24
715.61	289.37
715.95	288.50
716.28	287.66
716.61	286.77
716.95	285.98
717.28	285.24
717.61	284.47
717.94	283.70
718.28	282.92
718.61	282.14
718.94	281.46
719.27	280.80
719.61	280.17
719.94	279.49
720.27	278.75
720.60	278.09
720.94	277.45
721.27	276.85
721.60	276.24
721.93	275.65
722.27	275.10
722.60	274.54
722.93	273.97
723.26	273.44
723.59	272.90
723.93	272.33
724.26	271.76
724.59	271.19
724.92	270.69
725.25	270.21
725.59	269.72
725.92	269.21
726.25	268.69
726.58	268.22
726.91	267.74
727.24	267.31
727.57	266.85
727.91	266.38
728.24	265.92
728.57	265.48
728.90	265.03
729.23	264.59
729.56	264.22
729.89	263.76
730.22	263.26
730.55	262.83
730.89	262.38
731.22	261.97
731.55	261.56
731.88	261.13
732.21	260.70
732.54	260.27
732.87	259.85
733.20	259.47
733.53	259.04
733.86	258.68
734.19	258.28
734.52	257.94
734.85	257.65
735.18	257.22
735.51	256.88
735.84	256.52
736.17	256.16
736.50	255.74
736.83	255.55
737.16	255.24
737.49	254.91
737.82	254.58
738.15	254.26
738.48	253.93
738.81	253.64
739.14	253.38
739.47	253.06
739.80	252.77
740.13	252.45
740.46	252.15
740.79	251.85
741.12	251.55
741.45	251.22
741.78	250.83
742.11	250.59
742.44	250.25
742.77	249.95
743.10	249.64
743.43	249.34
743.75	248.95
744.08	248.78
744.41	248.52
744.74	248.26
745.07	247.96
745.40	247.70
745.73	247.44
746.06	247.14
746.39	246.89
746.71	246.63
747.04	246.38
747.37	246.11
747.70	245.83
748.03	245.57
748.36	245.33
748.68	245.10
749.01	244.80
749.34	244.57
749.67	244.28
750.00	244.08
750.33	243.94
750.65	243.71
750.98	243.40
751.31	243.16
751.64	242.91
751.97	242.75
752.29	242.55
752.62	242.30
752.95	242.05
753.28	241.82
753.60	241.61
753.93	241.41
754.26	241.25
754.59	241.02
754.91	240.77
755.24	240.57
755.57	240.37
755.90	240.21
756.22	240.00
756.55	239.83
756.88	239.62
757.20	239.37
757.53	239.16
757.86	238.96
758.19	238.79
758.51	238.64
758.84	238.39
759.17	238.21
759.49	238.01
759.82	237.88
760.15	237.70
760.47	237.53
760.80	237.37
761.13	237.19
761.45	237.07
761.78	236.96
762.11	236.83
762.43	236.66
762.76	236.50
763.08	236.40
763.41	236.24
763.74	236.11
764.06	235.99
764.39	235.86
764.71	235.74
765.04	235.55
765.37	235.40
765.69	235.28
766.02	235.15
766.34	235.02
766.67	234.93
767.00	234.86
767.32	234.79
767.65	234.74
767.97	234.63
768.30	234.48
768.62	234.41
768.95	234.30
769.27	234.18
769.60	234.09
769.92	233.93
770.25	233.84
770.57	233.67
770.90	233.56
771.22	233.44
771.55	233.33
771.87	233.29
772.20	233.20
772.52	233.17
772.85	233.20
773.17	233.14
773.50	233.01
773.82	232.92
774.15	232.76
774.47	232.56
774.80	232.47
775.12	232.40
775.45	232.26
775.77	232.18
776.09	232.13
776.42	232.04
776.74	232.00
777.07	231.92
777.39	231.90
777.72	231.83
778.04	231.79
778.36	231.74
778.69	231.63
779.01	231.57
779.33	231.46
779.66	231.29
779.98	231.21
780.31	231.17
780.63	231.12
780.95	231.12
781.28	231.08
781.60	231.01
781.92	230.99
782.25	230.98
782.57	230.92
782.89	230.87
783.22	230.86
783.54	230.75
783.86	230.73
784.19	230.67
784.51	230.64
784.83	230.57
785.16	230.49
785.48	230.46
785.80	230.40
786.12	230.37
786.45	230.30
786.77	230.30
787.09	230.22
