SpectraSuite Data File
++++++++++++++++++++++++++++++++++++
Date: Fri Feb 01 15:37:34 EST 2013
User: group
Dark Spectrum Present: No
Reference Spectrum Present: No
Number of Sampled Component Spectra: 1
Spectrometers: USB2E7196
Integration Time (usec): 35000 (USB2E7196)
Spectra Averaged: 100 (USB2E7196)
Boxcar Smoothing: 10 (USB2E7196)
Correct for Electrical Dark: No (USB2E7196)
Strobe/Lamp Enabled: No (USB2E7196)
Correct for Detector Non-linearity: No (USB2E7196)
Correct for Stray Light: No (USB2E7196)
Number of Pixels in Processed Spectrum: 2048
>>>>>Begin Processed Spectral Data<<<<<
339.09	0.00
339.48	214.56
339.86	216.44
340.24	218.16
340.63	219.06
341.01	222.06
341.39	222.47
341.78	223.34
342.16	224.97
342.54	224.78
342.93	213.39
343.31	224.16
343.69	224.73
344.07	225.19
344.46	225.58
344.84	226.00
345.22	226.23
345.60	226.45
345.99	226.63
346.37	226.72
346.75	226.84
347.13	226.88
347.52	226.93
347.90	227.00
348.28	227.06
348.66	227.08
349.05	227.10
349.43	227.13
349.81	227.16
350.19	227.20
350.57	227.31
350.96	227.37
351.34	227.45
351.72	227.53
352.10	227.64
352.48	227.74
352.87	227.76
353.25	227.85
353.63	227.92
354.01	227.98
354.39	228.07
354.77	228.14
355.15	228.31
355.54	228.39
355.92	228.41
356.30	228.46
356.68	228.60
357.06	228.64
357.44	228.68
357.82	228.75
358.20	228.81
358.58	228.83
358.97	228.90
359.35	228.96
359.73	229.04
360.11	229.08
360.49	229.11
360.87	229.15
361.25	229.17
361.63	229.25
362.01	229.28
362.39	229.30
362.77	229.32
363.15	229.29
363.53	229.31
363.91	229.31
364.29	229.34
364.67	229.23
365.05	229.25
365.43	229.26
365.81	229.27
366.19	229.31
366.57	229.36
366.95	229.33
367.33	229.30
367.71	229.30
368.09	229.28
368.47	229.26
368.85	229.24
369.23	229.21
369.61	229.10
369.99	229.10
370.37	229.06
370.75	229.05
371.13	228.95
371.51	228.85
371.89	228.79
372.27	228.73
372.65	228.70
373.03	228.62
373.41	228.56
373.78	228.49
374.16	228.36
374.54	228.26
374.92	228.19
375.30	228.13
375.68	228.02
376.06	227.97
376.44	227.88
376.82	227.85
377.19	227.77
377.57	227.71
377.95	227.60
378.33	227.51
378.71	227.40
379.09	227.39
379.47	227.36
379.84	227.31
380.22	227.25
380.60	227.16
380.98	227.09
381.36	227.03
381.73	226.96
382.11	226.91
382.49	226.88
382.87	226.79
383.25	226.74
383.62	226.77
384.00	226.66
384.38	226.60
384.76	226.50
385.13	226.49
385.51	226.48
385.89	226.42
386.27	226.39
386.64	226.35
387.02	226.27
387.40	226.22
387.78	226.20
388.15	226.10
388.53	226.08
388.91	226.09
389.29	226.09
389.66	226.10
390.04	226.08
390.42	226.03
390.79	226.06
391.17	226.05
391.55	225.92
391.92	225.95
392.30	225.96
392.68	225.97
393.05	225.95
393.43	225.95
393.81	225.98
394.18	225.96
394.56	226.00
394.94	226.04
395.31	226.05
395.69	226.08
396.06	226.17
396.44	226.21
396.82	226.22
397.19	226.30
397.57	226.33
397.95	226.39
398.32	226.43
398.70	226.49
399.07	226.58
399.45	226.67
399.82	226.70
400.20	226.78
400.58	226.88
400.95	226.93
401.33	227.02
401.70	227.16
402.08	227.31
402.45	227.42
402.83	227.55
403.20	227.69
403.58	227.85
403.95	227.99
404.33	228.15
404.71	228.32
405.08	228.49
405.46	228.66
405.83	228.83
406.21	228.99
406.58	229.19
406.96	229.35
407.33	229.54
407.70	229.78
408.08	230.08
408.45	230.31
408.83	230.58
409.20	230.81
409.58	230.99
409.95	231.22
410.33	231.48
410.70	231.70
411.08	232.00
411.45	232.26
411.82	232.54
412.20	232.87
412.57	233.33
412.95	233.61
413.32	233.97
413.69	234.37
414.07	234.78
414.44	235.24
414.82	235.72
415.19	236.27
415.56	236.84
415.94	237.34
416.31	237.97
416.68	238.56
417.06	239.29
417.43	239.99
417.81	240.76
418.18	241.54
418.55	242.42
418.93	243.28
419.30	244.19
419.67	245.14
420.04	246.07
420.42	246.99
420.79	248.18
421.16	249.33
421.54	250.52
421.91	251.75
422.28	252.98
422.66	254.30
423.03	255.58
423.40	256.88
423.77	258.30
424.15	259.74
424.52	261.24
424.89	262.83
425.26	264.35
425.64	265.83
426.01	267.41
426.38	269.06
426.75	270.71
427.13	272.41
427.50	274.22
427.87	276.08
428.24	277.91
428.61	279.66
428.99	281.58
429.36	283.66
429.73	285.72
430.10	287.76
430.47	289.83
430.85	291.93
431.22	294.19
431.59	296.59
431.96	298.79
432.33	301.28
432.70	303.66
433.08	306.47
433.45	309.08
433.82	311.69
434.19	314.57
434.56	317.40
434.93	320.10
435.30	322.70
435.68	325.61
436.05	328.47
436.42	331.25
436.79	333.78
437.16	336.48
437.53	339.32
437.90	342.14
438.27	344.89
438.64	347.74
439.01	350.35
439.38	352.56
439.75	354.77
440.13	357.29
440.50	359.65
440.87	361.51
441.24	363.49
441.61	365.67
441.98	367.22
442.35	369.04
442.72	370.91
443.09	372.74
443.46	373.76
443.83	374.39
444.20	374.93
444.57	375.80
444.94	376.10
445.31	376.47
445.68	376.79
446.05	376.82
446.42	376.47
446.79	376.08
447.16	375.65
447.53	375.34
447.90	374.13
448.27	373.02
448.64	371.51
449.01	370.36
449.37	368.36
449.74	366.46
450.11	364.18
450.48	361.69
450.85	359.16
451.22	356.99
451.59	354.97
451.96	353.02
452.33	350.40
452.70	348.07
453.07	345.22
453.43	342.35
453.80	339.55
454.17	336.84
454.54	334.26
454.91	331.52
455.28	328.84
455.65	326.37
456.02	323.89
456.38	321.67
456.75	319.02
457.12	316.81
457.49	314.57
457.86	312.39
458.23	310.52
458.59	308.44
458.96	306.37
459.33	304.49
459.70	302.57
460.07	301.04
460.43	299.26
460.80	297.63
461.17	296.18
461.54	294.71
461.91	293.31
462.27	291.85
462.64	290.59
463.01	289.22
463.38	287.90
463.74	286.47
464.11	285.32
464.48	284.28
464.85	283.15
465.21	282.26
465.58	281.38
465.95	280.25
466.32	279.36
466.68	278.47
467.05	277.56
467.42	276.71
467.78	275.76
468.15	274.90
468.52	274.26
468.88	273.42
469.25	272.69
469.62	272.02
469.98	271.33
470.35	270.73
470.72	270.13
471.08	269.47
471.45	268.94
471.82	268.38
472.18	267.80
472.55	267.31
472.92	266.77
473.28	266.27
473.65	265.83
474.02	265.39
474.38	265.04
474.75	264.72
475.11	264.34
475.48	264.11
475.85	263.90
476.21	263.64
476.58	263.42
476.94	263.22
477.31	263.06
477.67	262.95
478.04	262.80
478.41	262.70
478.77	262.75
479.14	262.70
479.50	262.70
479.87	262.79
480.23	262.89
480.60	262.98
480.96	263.08
481.33	263.30
481.69	263.50
482.06	263.64
482.42	263.82
482.79	264.09
483.15	264.42
483.52	264.79
483.88	265.20
484.25	265.62
484.61	266.06
484.98	266.56
485.34	267.10
485.71	267.68
486.07	268.30
486.44	268.88
486.80	269.55
487.17	270.32
487.53	271.10
487.90	271.96
488.26	272.91
488.62	273.91
488.99	274.88
489.35	275.95
489.72	277.14
490.08	278.36
490.44	279.60
490.81	280.94
491.17	282.28
491.54	283.71
491.90	285.22
492.26	286.89
492.63	288.62
492.99	290.38
493.36	292.28
493.72	294.35
494.08	296.46
494.45	298.75
494.81	301.11
495.17	303.55
495.54	306.12
495.90	308.77
496.26	311.58
496.63	314.57
496.99	317.65
497.35	320.86
497.72	324.27
498.08	327.79
498.44	331.42
498.80	335.39
499.17	339.41
499.53	343.58
499.89	347.94
500.26	352.42
500.62	357.14
500.98	362.11
501.34	367.16
501.71	372.49
502.07	377.95
502.43	383.52
502.79	389.37
503.16	395.50
503.52	401.80
503.88	408.18
504.24	414.77
504.60	421.65
504.97	428.80
505.33	436.17
505.69	443.88
506.05	451.72
506.41	459.53
506.78	467.74
507.14	476.19
507.50	484.94
507.86	493.96
508.22	503.17
508.59	512.35
508.95	521.88
509.31	531.68
509.67	541.77
510.03	552.09
510.39	562.61
510.75	573.38
511.12	584.34
511.48	595.71
511.84	607.18
512.20	618.68
512.56	630.60
512.92	642.69
513.28	655.01
513.64	667.45
514.00	680.19
514.37	693.15
514.73	706.18
515.09	719.18
515.45	732.42
515.81	746.02
516.17	760.05
516.53	774.19
516.89	788.38
517.25	802.55
517.61	816.98
517.97	831.47
518.33	845.96
518.69	860.74
519.05	875.73
519.41	890.90
519.77	906.46
520.13	921.98
520.49	937.38
520.85	952.80
521.21	968.55
521.57	984.73
521.93	1000.52
522.29	1016.99
522.65	1033.21
523.01	1049.55
523.37	1065.62
523.73	1081.74
524.09	1097.92
524.45	1114.35
524.81	1130.93
525.17	1147.68
525.53	1164.53
525.89	1181.35
526.25	1198.16
526.61	1214.46
526.97	1231.26
527.33	1247.73
527.68	1264.33
528.04	1280.83
528.40	1297.44
528.76	1314.47
529.12	1331.11
529.48	1347.89
529.84	1363.97
530.20	1380.64
530.56	1397.65
530.91	1415.00
531.27	1431.84
531.63	1448.43
531.99	1464.93
532.35	1480.93
532.71	1496.80
533.07	1513.07
533.42	1528.94
533.78	1544.97
534.14	1561.39
534.50	1576.71
534.86	1592.69
535.21	1607.79
535.57	1623.79
535.93	1639.34
536.29	1654.20
536.65	1669.38
537.00	1684.27
537.36	1699.57
537.72	1714.21
538.08	1728.56
538.44	1742.40
538.79	1756.30
539.15	1769.90
539.51	1783.61
539.87	1798.04
540.22	1811.91
540.58	1825.80
540.94	1839.10
541.29	1852.12
541.65	1864.74
542.01	1877.98
542.37	1890.22
542.72	1902.70
543.08	1914.45
543.44	1926.82
543.79	1938.09
544.15	1949.14
544.51	1960.63
544.87	1971.64
545.22	1982.37
545.58	1992.67
545.94	2002.40
546.29	2012.30
546.65	2022.13
547.01	2031.43
547.36	2040.06
547.72	2048.61
548.07	2056.35
548.43	2064.64
548.79	2072.62
549.14	2080.05
549.50	2087.46
549.86	2095.26
550.21	2102.56
550.57	2109.83
550.92	2116.45
551.28	2123.43
551.64	2130.41
551.99	2137.01
552.35	2143.06
552.70	2149.24
553.06	2155.25
553.41	2161.69
553.77	2167.78
554.13	2173.73
554.48	2179.87
554.84	2185.28
555.19	2190.61
555.55	2195.82
555.90	2200.34
556.26	2205.26
556.61	2210.18
556.97	2214.36
557.32	2218.33
557.68	2222.53
558.03	2226.79
558.39	2230.65
558.74	2235.22
559.10	2239.10
559.45	2242.77
559.81	2247.10
560.16	2250.97
560.52	2254.24
560.87	2257.68
561.23	2260.31
561.58	2263.48
561.94	2266.01
562.29	2268.45
562.64	2270.90
563.00	2273.46
563.35	2276.84
563.71	2279.89
564.06	2283.00
564.42	2285.85
564.77	2288.56
565.12	2290.78
565.48	2292.62
565.83	2294.24
566.19	2295.59
566.54	2296.63
566.89	2297.64
567.25	2298.19
567.60	2299.46
567.96	2300.95
568.31	2301.69
568.66	2302.69
569.02	2303.15
569.37	2303.48
569.72	2304.29
570.08	2304.47
570.43	2304.42
570.78	2303.89
571.14	2302.34
571.49	2301.01
571.84	2300.70
572.20	2299.38
572.55	2298.29
572.90	2296.79
573.26	2295.39
573.61	2293.70
573.96	2291.72
574.31	2288.74
574.67	2285.72
575.02	2282.09
575.37	2278.78
575.72	2274.88
576.08	2271.61
576.43	2268.34
576.78	2264.47
577.13	2261.27
577.49	2258.16
577.84	2254.78
578.19	2251.02
578.54	2247.29
578.90	2243.10
579.25	2237.54
579.60	2232.54
579.95	2227.57
580.30	2222.42
580.66	2217.20
581.01	2212.22
581.36	2207.26
581.71	2203.07
582.06	2198.64
582.42	2194.02
582.77	2188.63
583.12	2184.03
583.47	2179.21
583.82	2173.98
584.17	2168.81
584.53	2163.34
584.88	2157.71
585.23	2151.80
585.58	2146.32
585.93	2140.82
586.28	2135.90
586.63	2130.77
586.98	2125.67
587.34	2120.97
587.69	2116.18
588.04	2110.89
588.39	2105.32
588.74	2098.90
589.09	2092.70
589.44	2085.91
589.79	2079.93
590.14	2074.34
590.49	2067.70
590.84	2061.24
591.19	2055.25
591.54	2048.67
591.89	2041.19
592.25	2034.33
592.60	2027.11
592.95	2019.33
593.30	2011.94
593.65	2004.35
594.00	1997.24
594.35	1990.03
594.70	1981.90
595.05	1974.39
595.40	1967.02
595.75	1959.25
596.10	1952.93
596.45	1946.06
596.80	1939.65
597.15	1932.99
597.50	1925.84
597.85	1919.50
598.19	1912.80
598.54	1905.70
598.89	1899.22
599.24	1893.39
599.59	1886.70
599.94	1880.50
600.29	1874.29
600.64	1867.72
600.99	1860.31
601.34	1853.53
601.69	1846.51
602.04	1839.66
602.39	1832.38
602.74	1825.56
603.08	1818.87
603.43	1812.16
603.78	1804.83
604.13	1797.73
604.48	1790.34
604.83	1783.52
605.18	1776.38
605.53	1768.35
605.87	1760.26
606.22	1752.89
606.57	1744.92
606.92	1737.51
607.27	1730.18
607.62	1723.11
607.96	1715.80
608.31	1709.02
608.66	1701.31
609.01	1693.72
609.36	1686.12
609.70	1678.03
610.05	1669.94
610.40	1662.20
610.75	1653.76
611.10	1646.11
611.44	1637.79
611.79	1629.81
612.14	1621.12
612.49	1612.08
612.83	1603.76
613.18	1595.79
613.53	1587.65
613.88	1579.03
614.22	1570.77
614.57	1562.28
614.92	1554.30
615.27	1546.69
615.61	1538.40
615.96	1530.36
616.31	1522.77
616.65	1515.27
617.00	1507.77
617.35	1500.24
617.70	1491.83
618.04	1483.38
618.39	1475.20
618.74	1467.37
619.08	1459.13
619.43	1451.54
619.78	1444.60
620.12	1437.37
620.47	1429.78
620.82	1421.64
621.16	1414.40
621.51	1406.84
621.85	1399.21
622.20	1390.63
622.55	1382.38
622.89	1374.58
623.24	1366.94
623.59	1359.53
623.93	1352.07
624.28	1344.94
624.62	1337.35
624.97	1330.22
625.32	1323.53
625.66	1316.57
626.01	1309.59
626.35	1302.02
626.70	1294.30
627.04	1286.47
627.39	1278.76
627.73	1271.24
628.08	1264.31
628.43	1256.82
628.77	1249.41
629.12	1241.77
629.46	1234.69
629.81	1227.28
630.15	1219.96
630.50	1212.65
630.84	1204.41
631.19	1196.58
631.53	1189.08
631.88	1181.56
632.22	1174.02
632.57	1166.72
632.91	1159.14
633.26	1151.80
633.60	1144.59
633.95	1137.49
634.29	1130.56
634.64	1123.90
634.98	1116.67
635.32	1109.53
635.67	1103.06
636.01	1096.54
636.36	1089.81
636.70	1083.22
637.05	1076.57
637.39	1070.17
637.73	1063.63
638.08	1057.85
638.42	1051.82
638.77	1045.37
639.11	1038.77
639.45	1032.42
639.80	1025.68
640.14	1019.20
640.49	1012.53
640.83	1006.16
641.17	999.78
641.52	993.38
641.86	986.89
642.20	981.02
642.55	974.73
642.89	968.16
643.23	961.51
643.58	955.66
643.92	949.49
644.26	943.47
644.61	937.48
644.95	931.39
645.29	924.74
645.64	917.99
645.98	911.68
646.32	905.93
646.66	899.87
647.01	894.06
647.35	888.42
647.69	882.59
648.04	877.07
648.38	871.36
648.72	865.32
649.06	859.27
649.41	853.33
649.75	847.34
650.09	841.44
650.43	835.68
650.78	829.59
651.12	823.63
651.46	817.87
651.80	812.05
652.14	806.67
652.49	801.24
652.83	796.06
653.17	790.25
653.51	784.45
653.85	779.06
654.20	773.43
654.54	767.42
654.88	761.68
655.22	755.81
655.56	750.13
655.90	744.76
656.25	739.45
656.59	734.16
656.93	729.14
657.27	723.99
657.61	718.57
657.95	713.49
658.29	708.45
658.64	703.21
658.98	697.94
659.32	692.55
659.66	687.43
660.00	682.08
660.34	677.19
660.68	672.26
661.02	667.21
661.36	662.51
661.70	658.07
662.05	653.75
662.39	649.42
662.73	644.98
663.07	640.60
663.41	636.19
663.75	631.65
664.09	627.05
664.43	622.66
664.77	618.54
665.11	614.31
665.45	610.21
665.79	606.15
666.13	602.07
666.47	597.92
666.81	593.74
667.15	589.66
667.49	585.80
667.83	582.07
668.17	578.16
668.51	574.12
668.85	570.09
669.19	566.27
669.53	562.39
669.87	558.54
670.21	554.91
670.55	551.32
670.89	547.96
671.23	544.56
671.57	541.12
671.91	537.54
672.25	534.04
672.58	530.53
672.92	527.16
673.26	523.98
673.60	520.92
673.94	517.78
674.28	514.95
674.62	511.99
674.96	508.88
675.30	505.99
675.64	503.12
675.97	500.35
676.31	497.45
676.65	494.58
676.99	491.93
677.33	489.00
677.67	486.16
678.01	483.13
678.34	480.21
678.68	477.26
679.02	474.51
679.36	471.74
679.70	469.02
680.04	466.26
680.37	463.39
680.71	460.59
681.05	458.10
681.39	455.34
681.73	452.67
682.06	450.15
682.40	447.59
682.74	445.02
683.08	442.48
683.42	439.92
683.75	437.46
684.09	434.90
684.43	432.43
684.77	429.98
685.10	427.59
685.44	425.24
685.78	422.98
686.12	420.75
686.45	418.42
686.79	416.14
687.13	413.94
687.46	411.79
687.80	409.64
688.14	407.37
688.48	405.26
688.81	403.02
689.15	400.83
689.49	398.66
689.82	396.58
690.16	394.46
690.50	392.48
690.83	390.45
691.17	388.47
691.51	386.59
691.84	384.73
692.18	382.76
692.52	380.75
692.85	378.82
693.19	376.91
693.52	375.09
693.86	373.28
694.20	371.48
694.53	369.66
694.87	367.77
695.21	365.98
695.54	364.24
695.88	362.52
696.21	360.80
696.55	359.08
696.88	357.37
697.22	355.76
697.56	354.11
697.89	352.43
698.23	350.80
698.56	349.20
698.90	347.61
699.23	346.02
699.57	344.48
699.90	342.96
700.24	341.40
700.58	339.87
700.91	338.35
701.25	336.91
701.58	335.52
701.92	334.20
702.25	332.79
702.59	331.40
702.92	330.06
703.26	328.73
703.59	327.47
703.93	326.34
704.26	325.13
704.60	323.82
704.93	322.58
705.26	321.29
705.60	320.10
705.93	318.94
706.27	317.90
706.60	316.86
706.94	315.77
707.27	314.65
707.61	313.63
707.94	312.61
708.27	311.56
708.61	310.51
708.94	309.49
709.28	308.51
709.61	307.57
709.94	306.61
710.28	305.60
710.61	304.62
710.95	303.51
711.28	302.54
711.61	301.62
711.95	300.74
712.28	299.83
712.61	298.89
712.95	297.99
713.28	297.10
713.61	296.21
713.95	295.31
714.28	294.49
714.61	293.62
714.95	292.81
715.28	291.91
715.61	291.05
715.95	290.20
716.28	289.40
716.61	288.51
716.95	287.73
717.28	287.03
717.61	286.29
717.94	285.58
718.28	284.81
718.61	284.08
718.94	283.36
719.27	282.69
719.61	282.06
719.94	281.37
720.27	280.69
720.60	280.03
720.94	279.42
721.27	278.83
721.60	278.28
721.93	277.66
722.27	277.14
722.60	276.58
722.93	276.04
723.26	275.49
723.59	274.97
723.93	274.41
724.26	273.84
724.59	273.31
724.92	272.78
725.25	272.27
725.59	271.73
725.92	271.23
726.25	270.74
726.58	270.22
726.91	269.73
727.24	269.25
727.57	268.77
727.91	268.23
728.24	267.74
728.57	267.22
728.90	266.73
729.23	266.21
729.56	265.79
729.89	265.30
730.22	264.80
730.55	264.30
730.89	263.87
731.22	263.41
731.55	262.95
731.88	262.51
732.21	262.07
732.54	261.63
732.87	261.17
733.20	260.75
733.53	260.35
733.86	259.95
734.19	259.51
734.52	259.13
734.85	258.84
735.18	258.45
735.51	258.10
735.84	257.74
736.17	257.39
736.50	257.01
736.83	256.77
737.16	256.41
737.49	256.10
737.82	255.72
738.15	255.39
738.48	255.04
738.81	254.71
739.14	254.34
739.47	254.05
739.80	253.78
740.13	253.46
740.46	253.10
740.79	252.76
741.12	252.49
741.45	252.17
741.78	251.82
742.11	251.52
742.44	251.18
742.77	250.91
743.10	250.59
743.43	250.25
743.75	249.91
744.08	249.76
744.41	249.49
744.74	249.21
745.07	248.95
745.40	248.68
745.73	248.45
746.06	248.23
746.39	247.96
746.71	247.69
747.04	247.42
747.37	247.20
747.70	246.99
748.03	246.73
748.36	246.54
748.68	246.33
749.01	246.10
749.34	245.89
749.67	245.64
750.00	245.44
750.33	245.30
750.65	245.07
750.98	244.75
751.31	244.54
751.64	244.36
751.97	244.20
752.29	244.05
752.62	243.81
752.95	243.61
753.28	243.40
753.60	243.21
753.93	243.10
754.26	242.90
754.59	242.68
754.91	242.47
755.24	242.29
755.57	242.09
755.90	241.92
756.22	241.74
756.55	241.58
756.88	241.38
757.20	241.19
757.53	241.00
757.86	240.81
758.19	240.67
758.51	240.52
758.84	240.32
759.17	240.14
759.49	240.03
759.82	239.95
760.15	239.82
760.47	239.68
760.80	239.48
761.13	239.37
761.45	239.20
761.78	239.11
762.11	238.93
762.43	238.80
762.76	238.62
763.08	238.51
763.41	238.38
763.74	238.24
764.06	238.09
764.39	237.92
764.71	237.81
765.04	237.66
765.37	237.49
765.69	237.36
766.02	237.23
766.34	237.04
766.67	236.82
767.00	236.69
767.32	236.59
767.65	236.52
767.97	236.38
768.30	236.28
768.62	236.16
768.95	236.05
769.27	235.89
769.60	235.80
769.92	235.64
770.25	235.48
770.57	235.38
770.90	235.29
771.22	235.20
771.55	235.08
771.87	235.00
772.20	234.90
772.52	234.87
772.85	234.90
773.17	234.80
773.50	234.70
773.82	234.59
774.15	234.43
774.47	234.25
774.80	234.14
775.12	234.04
775.45	233.93
775.77	233.81
776.09	233.74
776.42	233.68
776.74	233.62
777.07	233.53
777.39	233.43
777.72	233.32
778.04	233.26
778.36	233.20
778.69	233.07
779.01	233.02
779.33	232.82
779.66	232.62
779.98	232.57
780.31	232.51
780.63	232.50
780.95	232.48
781.28	232.44
781.60	232.38
781.92	232.31
782.25	232.23
782.57	232.18
782.89	232.10
783.22	232.03
783.54	231.97
783.86	231.92
784.19	231.84
784.51	231.79
784.83	231.72
785.16	231.66
785.48	231.61
785.80	231.56
786.12	231.53
786.45	231.47
786.77	231.41
787.09	231.37
