SpectraSuite Data File
++++++++++++++++++++++++++++++++++++
Date: Fri Feb 01 15:09:31 EST 2013
User: group
Dark Spectrum Present: No
Reference Spectrum Present: No
Number of Sampled Component Spectra: 1
Spectrometers: USB2E7196
Integration Time (usec): 35000 (USB2E7196)
Spectra Averaged: 100 (USB2E7196)
Boxcar Smoothing: 10 (USB2E7196)
Correct for Electrical Dark: No (USB2E7196)
Strobe/Lamp Enabled: No (USB2E7196)
Correct for Detector Non-linearity: No (USB2E7196)
Correct for Stray Light: No (USB2E7196)
Number of Pixels in Processed Spectrum: 2048
>>>>>Begin Processed Spectral Data<<<<<
339.09	0.00
339.48	215.54
339.86	216.29
340.24	217.85
340.63	219.27
341.01	222.16
341.39	222.61
341.78	223.71
342.16	224.45
342.54	225.58
342.93	213.54
343.31	224.30
343.69	224.82
344.07	225.33
344.46	225.77
344.84	226.17
345.22	226.40
345.60	226.62
345.99	226.82
346.37	226.99
346.75	227.10
347.13	227.19
347.52	227.23
347.90	227.34
348.28	227.36
348.66	227.42
349.05	227.41
349.43	227.47
349.81	227.50
350.19	227.54
350.57	227.58
350.96	227.65
351.34	227.76
351.72	227.86
352.10	227.95
352.48	228.01
352.87	228.07
353.25	228.15
353.63	228.22
354.01	228.27
354.39	228.31
354.77	228.37
355.15	228.45
355.54	228.53
355.92	228.54
356.30	228.62
356.68	228.75
357.06	228.81
357.44	228.85
357.82	228.93
358.20	229.02
358.58	229.08
358.97	229.16
359.35	229.22
359.73	229.31
360.11	229.34
360.49	229.40
360.87	229.41
361.25	229.48
361.63	229.52
362.01	229.56
362.39	229.59
362.77	229.62
363.15	229.64
363.53	229.67
363.91	229.71
364.29	229.73
364.67	229.67
365.05	229.69
365.43	229.71
365.81	229.73
366.19	229.77
366.57	229.82
366.95	229.84
367.33	229.82
367.71	229.81
368.09	229.83
368.47	229.80
368.85	229.80
369.23	229.77
369.61	229.73
369.99	229.74
370.37	229.71
370.75	229.73
371.13	229.67
371.51	229.60
371.89	229.57
372.27	229.52
372.65	229.43
373.03	229.40
373.41	229.33
373.78	229.22
374.16	229.11
374.54	229.01
374.92	228.90
375.30	228.83
375.68	228.71
376.06	228.64
376.44	228.56
376.82	228.50
377.19	228.45
377.57	228.36
377.95	228.23
378.33	228.15
378.71	227.99
379.09	227.93
379.47	227.85
379.84	227.75
380.22	227.68
380.60	227.59
380.98	227.52
381.36	227.41
381.73	227.35
382.11	227.30
382.49	227.25
382.87	227.16
383.25	227.11
383.62	227.16
384.00	227.06
384.38	227.03
384.76	226.94
385.13	226.91
385.51	226.85
385.89	226.80
386.27	226.72
386.64	226.71
387.02	226.63
387.40	226.60
387.78	226.57
388.15	226.52
388.53	226.48
388.91	226.41
389.29	226.39
389.66	226.35
390.04	226.32
390.42	226.30
390.79	226.28
391.17	226.24
391.55	226.10
391.92	226.09
392.30	226.06
392.68	226.05
393.05	226.01
393.43	226.01
393.81	226.01
394.18	226.04
394.56	226.05
394.94	226.09
395.31	226.12
395.69	226.18
396.06	226.23
396.44	226.30
396.82	226.33
397.19	226.47
397.57	226.53
397.95	226.59
398.32	226.61
398.70	226.67
399.07	226.80
399.45	226.86
399.82	226.96
400.20	227.05
400.58	227.15
400.95	227.22
401.33	227.37
401.70	227.52
402.08	227.60
402.45	227.71
402.83	227.86
403.20	227.99
403.58	228.08
403.95	228.20
404.33	228.36
404.71	228.51
405.08	228.67
405.46	228.77
405.83	228.95
406.21	229.12
406.58	229.34
406.96	229.51
407.33	229.70
407.70	229.90
408.08	230.20
408.45	230.44
408.83	230.66
409.20	230.86
409.58	231.09
409.95	231.36
410.33	231.66
410.70	231.92
411.08	232.20
411.45	232.53
411.82	232.88
412.20	233.22
412.57	233.62
412.95	233.89
413.32	234.35
413.69	234.73
414.07	235.22
414.44	235.67
414.82	236.12
415.19	236.66
415.56	237.19
415.94	237.67
416.31	238.33
416.68	238.98
417.06	239.71
417.43	240.39
417.81	241.18
418.18	241.96
418.55	242.79
418.93	243.67
419.30	244.55
419.67	245.47
420.04	246.43
420.42	247.46
420.79	248.64
421.16	249.79
421.54	251.00
421.91	252.18
422.28	253.45
422.66	254.81
423.03	256.14
423.40	257.49
423.77	258.91
424.15	260.32
424.52	261.81
424.89	263.39
425.26	264.92
425.64	266.39
426.01	267.96
426.38	269.61
426.75	271.28
427.13	273.01
427.50	274.82
427.87	276.70
428.24	278.57
428.61	280.30
428.99	282.25
429.36	284.33
429.73	286.39
430.10	288.39
430.47	290.43
430.85	292.55
431.22	294.82
431.59	297.22
431.96	299.46
432.33	301.97
432.70	304.39
433.08	307.22
433.45	309.82
433.82	312.44
434.19	315.34
434.56	318.12
434.93	320.76
435.30	323.41
435.68	326.28
436.05	329.08
436.42	331.91
436.79	334.42
437.16	337.11
437.53	339.97
437.90	342.80
438.27	345.56
438.64	348.40
439.01	350.99
439.38	353.21
439.75	355.37
440.13	357.89
440.50	360.18
440.87	362.03
441.24	364.01
441.61	366.15
441.98	367.67
442.35	369.49
442.72	371.37
443.09	373.11
443.46	374.15
443.83	374.75
444.20	375.21
444.57	376.00
444.94	376.30
445.31	376.62
445.68	376.96
446.05	377.04
446.42	376.67
446.79	376.25
447.16	375.79
447.53	375.50
447.90	374.28
448.27	373.14
448.64	371.53
449.01	370.33
449.37	368.37
449.74	366.41
450.11	364.18
450.48	361.69
450.85	359.17
451.22	357.03
451.59	355.02
451.96	353.10
452.33	350.55
452.70	348.18
453.07	345.33
453.43	342.44
453.80	339.65
454.17	336.98
454.54	334.43
454.91	331.72
455.28	329.03
455.65	326.57
456.02	324.10
456.38	321.93
456.75	319.29
457.12	317.06
457.49	314.86
457.86	312.69
458.23	310.84
458.59	308.83
458.96	306.72
459.33	304.84
459.70	302.97
460.07	301.49
460.43	299.81
460.80	298.22
461.17	296.74
461.54	295.24
461.91	293.77
462.27	292.31
462.64	291.08
463.01	289.72
463.38	288.44
463.74	287.11
464.11	285.95
464.48	284.92
464.85	283.83
465.21	282.97
465.58	282.02
465.95	280.92
466.32	279.98
466.68	279.04
467.05	278.14
467.42	277.27
467.78	276.30
468.15	275.38
468.52	274.69
468.88	273.87
469.25	273.10
469.62	272.49
469.98	271.82
470.35	271.15
470.72	270.53
471.08	269.84
471.45	269.26
471.82	268.70
472.18	268.09
472.55	267.63
472.92	267.09
473.28	266.65
473.65	266.20
474.02	265.76
474.38	265.41
474.75	265.10
475.11	264.75
475.48	264.47
475.85	264.26
476.21	264.02
476.58	263.82
476.94	263.68
477.31	263.47
477.67	263.34
478.04	263.20
478.41	263.14
478.77	263.18
479.14	263.08
479.50	263.10
479.87	263.18
480.23	263.25
480.60	263.32
480.96	263.38
481.33	263.58
481.69	263.80
482.06	263.99
482.42	264.18
482.79	264.43
483.15	264.77
483.52	265.12
483.88	265.51
484.25	265.87
484.61	266.25
484.98	266.70
485.34	267.23
485.71	267.81
486.07	268.41
486.44	268.97
486.80	269.67
487.17	270.35
487.53	271.16
487.90	271.98
488.26	272.92
488.62	273.91
488.99	274.87
489.35	275.89
489.72	276.97
490.08	278.16
490.44	279.36
490.81	280.68
491.17	282.04
491.54	283.49
491.90	285.01
492.26	286.65
492.63	288.41
492.99	290.18
493.36	292.08
493.72	294.09
494.08	296.13
494.45	298.39
494.81	300.77
495.17	303.20
495.54	305.76
495.90	308.38
496.26	311.17
496.63	314.09
496.99	317.16
497.35	320.41
497.72	323.78
498.08	327.28
498.44	330.90
498.80	334.77
499.17	338.78
499.53	342.93
499.89	347.30
500.26	351.76
500.62	356.45
500.98	361.41
501.34	366.47
501.71	371.81
502.07	377.23
502.43	382.83
502.79	388.63
503.16	394.73
503.52	400.97
503.88	407.40
504.24	414.03
504.60	420.92
504.97	428.03
505.33	435.34
505.69	442.99
506.05	450.76
506.41	458.67
506.78	466.83
507.14	475.32
507.50	484.09
507.86	493.10
508.22	502.22
508.59	511.40
508.95	521.00
509.31	530.83
509.67	540.98
510.03	551.27
510.39	561.80
510.75	572.59
511.12	583.58
511.48	594.85
511.84	606.34
512.20	617.87
512.56	629.82
512.92	642.10
513.28	654.41
513.64	666.91
514.00	679.62
514.37	692.49
514.73	705.55
515.09	718.45
515.45	731.77
515.81	745.39
516.17	759.41
516.53	773.55
516.89	787.70
517.25	801.89
517.61	816.32
517.97	830.79
518.33	845.22
518.69	860.07
519.05	875.08
519.41	890.25
519.77	905.89
520.13	921.37
520.49	936.67
520.85	952.16
521.21	967.93
521.57	984.26
521.93	1000.24
522.29	1016.70
522.65	1033.07
523.01	1049.32
523.37	1065.55
523.73	1081.70
524.09	1097.87
524.45	1114.29
524.81	1131.01
525.17	1147.96
525.53	1165.03
525.89	1181.96
526.25	1198.75
526.61	1215.18
526.97	1231.99
527.33	1248.50
527.68	1265.26
528.04	1281.87
528.40	1298.60
528.76	1315.73
529.12	1332.40
529.48	1349.21
529.84	1365.21
530.20	1382.00
530.56	1399.15
530.91	1416.52
531.27	1433.55
531.63	1450.02
531.99	1466.72
532.35	1482.66
532.71	1498.53
533.07	1514.72
533.42	1530.75
533.78	1546.91
534.14	1563.35
534.50	1578.78
534.86	1594.76
535.21	1609.96
535.57	1625.97
535.93	1641.53
536.29	1656.32
536.65	1671.48
537.00	1686.38
537.36	1701.77
537.72	1716.31
538.08	1730.69
538.44	1744.49
538.79	1758.43
539.15	1772.31
539.51	1786.10
539.87	1800.52
540.22	1814.45
540.58	1828.40
540.94	1841.86
541.29	1854.82
541.65	1867.54
542.01	1880.84
542.37	1893.13
542.72	1905.68
543.08	1917.59
543.44	1930.00
543.79	1941.36
544.15	1952.26
544.51	1963.92
544.87	1975.11
545.22	1985.99
545.58	1996.31
545.94	2006.23
546.29	2015.98
546.65	2025.68
547.01	2034.92
547.36	2043.80
547.72	2052.41
548.07	2060.25
548.43	2068.37
548.79	2076.52
549.14	2084.08
549.50	2091.52
549.86	2099.32
550.21	2106.59
550.57	2113.73
550.92	2120.35
551.28	2127.31
551.64	2134.39
551.99	2140.83
552.35	2146.89
552.70	2153.00
553.06	2158.87
553.41	2165.21
553.77	2171.25
554.13	2177.51
554.48	2183.60
554.84	2188.83
555.19	2193.95
555.55	2199.07
555.90	2203.49
556.26	2208.22
556.61	2212.79
556.97	2216.89
557.32	2221.00
557.68	2225.12
558.03	2229.43
558.39	2233.19
558.74	2237.92
559.10	2241.80
559.45	2245.45
559.81	2249.70
560.16	2253.42
560.52	2256.74
560.87	2260.14
561.23	2262.72
561.58	2265.61
561.94	2268.14
562.29	2270.59
562.64	2273.26
563.00	2275.97
563.35	2279.43
563.71	2282.62
564.06	2285.90
564.42	2288.77
564.77	2291.02
565.12	2293.12
565.48	2294.76
565.83	2296.42
566.19	2297.62
566.54	2298.54
566.89	2299.64
567.25	2300.20
567.60	2301.54
567.96	2303.06
568.31	2303.82
568.66	2304.82
569.02	2305.29
569.37	2305.51
569.72	2306.28
570.08	2306.25
570.43	2306.01
570.78	2305.17
571.14	2303.41
571.49	2302.00
571.84	2301.50
572.20	2300.36
572.55	2299.29
572.90	2297.73
573.26	2296.36
573.61	2294.66
573.96	2292.79
574.31	2289.69
574.67	2286.45
575.02	2282.75
575.37	2279.41
575.72	2275.40
576.08	2272.14
576.43	2268.86
576.78	2265.06
577.13	2261.99
577.49	2258.79
577.84	2255.24
578.19	2251.62
578.54	2247.81
578.90	2243.23
579.25	2237.75
579.60	2232.59
579.95	2227.44
580.30	2222.28
580.66	2217.03
581.01	2211.95
581.36	2206.83
581.71	2202.52
582.06	2198.00
582.42	2193.41
582.77	2187.92
583.12	2183.23
583.47	2178.30
583.82	2172.92
584.17	2167.52
584.53	2161.68
584.88	2156.04
585.23	2150.03
585.58	2144.52
585.93	2139.11
586.28	2134.46
586.63	2129.16
586.98	2124.11
587.34	2119.28
587.69	2114.29
588.04	2108.83
588.39	2102.93
588.74	2096.38
589.09	2090.12
589.44	2083.22
589.79	2077.19
590.14	2071.51
590.49	2064.88
590.84	2058.39
591.19	2052.36
591.54	2045.86
591.89	2038.26
592.25	2031.15
592.60	2023.97
592.95	2016.10
593.30	2008.64
593.65	2000.91
594.00	1993.84
594.35	1986.44
594.70	1978.40
595.05	1970.99
595.40	1963.70
595.75	1956.20
596.10	1949.91
596.45	1943.05
596.80	1936.75
597.15	1929.99
597.50	1922.69
597.85	1916.24
598.19	1909.51
598.54	1902.30
598.89	1895.62
599.24	1889.88
599.59	1883.17
599.94	1876.88
600.29	1870.43
600.64	1863.82
600.99	1856.27
601.34	1849.28
601.69	1842.36
602.04	1835.38
602.39	1828.07
602.74	1821.06
603.08	1814.36
603.43	1807.49
603.78	1800.34
604.13	1793.10
604.48	1785.66
604.83	1778.90
605.18	1771.79
605.53	1763.71
605.87	1755.60
606.22	1748.36
606.57	1740.32
606.92	1733.03
607.27	1725.82
607.62	1718.95
607.96	1711.51
608.31	1704.85
608.66	1697.13
609.01	1689.55
609.36	1682.14
609.70	1674.16
610.05	1666.15
610.40	1658.34
610.75	1650.03
611.10	1642.29
611.44	1633.99
611.79	1626.04
612.14	1617.37
612.49	1608.31
612.83	1599.96
613.18	1592.02
613.53	1583.86
613.88	1575.43
614.22	1567.15
614.57	1558.67
614.92	1550.64
615.27	1543.25
615.61	1534.87
615.96	1526.98
616.31	1519.44
616.65	1511.97
617.00	1504.47
617.35	1496.87
617.70	1488.55
618.04	1480.05
618.39	1471.81
618.74	1464.21
619.08	1455.99
619.43	1448.48
619.78	1441.62
620.12	1434.49
620.47	1426.90
620.82	1418.79
621.16	1411.31
621.51	1403.79
621.85	1396.10
622.20	1387.58
622.55	1379.21
622.89	1371.61
623.24	1364.08
623.59	1356.66
623.93	1349.16
624.28	1341.97
624.62	1334.42
624.97	1327.31
625.32	1320.70
625.66	1313.68
626.01	1306.45
626.35	1298.98
626.70	1291.22
627.04	1283.41
627.39	1275.64
627.73	1268.20
628.08	1261.29
628.43	1254.05
628.77	1246.70
629.12	1239.13
629.46	1231.99
629.81	1224.55
630.15	1217.39
630.50	1210.01
630.84	1201.86
631.19	1194.06
631.53	1186.53
631.88	1179.05
632.22	1171.48
632.57	1164.17
632.91	1156.68
633.26	1149.30
633.60	1141.96
633.95	1134.96
634.29	1127.99
634.64	1121.40
634.98	1114.10
635.32	1106.99
635.67	1100.48
636.01	1093.85
636.36	1087.04
636.70	1080.61
637.05	1074.07
637.39	1067.55
637.73	1061.05
638.08	1055.23
638.42	1049.08
638.77	1042.66
639.11	1036.02
639.45	1029.70
639.80	1023.09
640.14	1016.64
640.49	1010.17
640.83	1003.98
641.17	997.67
641.52	991.36
641.86	985.06
642.20	979.26
642.55	973.02
642.89	966.41
643.23	959.89
643.58	954.15
643.92	947.87
644.26	941.83
644.61	935.86
644.95	929.84
645.29	923.19
645.64	916.50
645.98	910.24
646.32	904.45
646.66	898.41
647.01	892.54
647.35	886.83
647.69	881.00
648.04	875.41
648.38	869.65
648.72	863.63
649.06	857.44
649.41	851.59
649.75	845.55
650.09	839.63
650.43	833.82
650.78	827.74
651.12	821.92
651.46	816.17
651.80	810.34
652.14	804.92
652.49	799.59
652.83	794.42
653.17	788.61
653.51	782.85
653.85	777.46
654.20	771.86
654.54	765.92
654.88	760.22
655.22	754.44
655.56	748.76
655.90	743.33
656.25	738.07
656.59	732.78
656.93	727.75
657.27	722.61
657.61	717.28
657.95	712.23
658.29	707.10
658.64	701.96
658.98	696.67
659.32	691.26
659.66	686.04
660.00	680.74
660.34	675.88
660.68	670.97
661.02	665.90
661.36	661.26
661.70	656.80
662.05	652.44
662.39	648.10
662.73	643.66
663.07	639.29
663.41	634.92
663.75	630.38
664.09	625.85
664.43	621.52
664.77	617.40
665.11	613.13
665.45	609.02
665.79	604.93
666.13	600.83
666.47	596.73
666.81	592.63
667.15	588.54
667.49	584.68
667.83	580.96
668.17	577.04
668.51	572.95
668.85	568.94
669.19	565.11
669.53	561.25
669.87	557.44
670.21	553.82
670.55	550.16
670.89	546.76
671.23	543.37
671.57	539.91
671.91	536.38
672.25	532.92
672.58	529.50
672.92	526.18
673.26	523.06
673.60	519.99
673.94	516.88
674.28	514.04
674.62	511.13
674.96	508.02
675.30	505.16
675.64	502.26
675.97	499.45
676.31	496.57
676.65	493.64
676.99	490.94
677.33	488.02
677.67	485.22
678.01	482.18
678.34	479.21
678.68	476.34
679.02	473.55
679.36	470.78
679.70	468.10
680.04	465.29
680.37	462.43
680.71	459.58
681.05	456.93
681.39	454.26
681.73	451.61
682.06	449.17
682.40	446.69
682.74	444.19
683.08	441.68
683.42	439.14
683.75	436.67
684.09	434.13
684.43	431.70
684.77	429.27
685.10	426.93
685.44	424.63
685.78	422.36
686.12	420.16
686.45	417.89
686.79	415.56
687.13	413.36
687.46	411.20
687.80	409.12
688.14	406.99
688.48	404.93
688.81	402.62
689.15	400.40
689.49	398.17
689.82	396.09
690.16	394.02
690.50	392.06
690.83	390.12
691.17	388.15
691.51	386.25
691.84	384.37
692.18	382.45
692.52	380.51
692.85	378.58
693.19	376.64
693.52	374.82
693.86	372.99
694.20	371.27
694.53	369.51
694.87	367.64
695.21	365.81
695.54	363.97
695.88	362.31
696.21	360.63
696.55	358.96
696.88	357.26
697.22	355.68
697.56	354.07
697.89	352.43
698.23	350.81
698.56	349.22
698.90	347.64
699.23	346.01
699.57	344.45
699.90	342.93
700.24	341.40
700.58	339.87
700.91	338.43
701.25	336.98
701.58	335.63
701.92	334.25
702.25	332.92
702.59	331.54
702.92	330.23
703.26	328.96
703.59	327.71
703.93	326.54
704.26	325.28
704.60	323.99
704.93	322.78
705.26	321.56
705.60	320.42
705.93	319.27
706.27	318.25
706.60	317.23
706.94	316.12
707.27	314.97
707.61	313.94
707.94	312.90
708.27	311.81
708.61	310.69
708.94	309.75
709.28	308.75
709.61	307.84
709.94	306.88
710.28	305.90
710.61	304.96
710.95	303.89
711.28	302.97
711.61	302.02
711.95	301.08
712.28	300.13
712.61	299.12
712.95	298.22
713.28	297.32
713.61	296.40
713.95	295.53
714.28	294.74
714.61	293.87
714.95	293.04
715.28	292.17
715.61	291.33
715.95	290.48
716.28	289.65
716.61	288.81
716.95	288.02
717.28	287.24
717.61	286.46
717.94	285.77
718.28	284.97
718.61	284.26
718.94	283.59
719.27	282.94
719.61	282.35
719.94	281.70
720.27	281.03
720.60	280.38
720.94	279.77
721.27	279.18
721.60	278.61
721.93	278.05
722.27	277.52
722.60	276.99
722.93	276.42
723.26	275.88
723.59	275.33
723.93	274.80
724.26	274.24
724.59	273.70
724.92	273.14
725.25	272.60
725.59	272.13
725.92	271.61
726.25	271.09
726.58	270.58
726.91	270.09
727.24	269.59
727.57	269.10
727.91	268.57
728.24	268.10
728.57	267.62
728.90	267.12
729.23	266.60
729.56	266.15
729.89	265.67
730.22	265.17
730.55	264.70
730.89	264.25
731.22	263.79
731.55	263.33
731.88	262.88
732.21	262.49
732.54	261.99
732.87	261.54
733.20	261.13
733.53	260.71
733.86	260.30
734.19	259.92
734.52	259.55
734.85	259.23
735.18	258.80
735.51	258.44
735.84	258.07
736.17	257.72
736.50	257.33
736.83	257.09
737.16	256.76
737.49	256.43
737.82	256.07
738.15	255.76
738.48	255.44
738.81	255.15
739.14	254.80
739.47	254.48
739.80	254.21
740.13	253.93
740.46	253.61
740.79	253.26
741.12	252.94
741.45	252.61
741.78	252.29
742.11	252.04
742.44	251.68
742.77	251.40
743.10	251.09
743.43	250.78
743.75	250.38
744.08	250.24
744.41	249.97
744.74	249.68
745.07	249.38
745.40	249.14
745.73	248.88
746.06	248.61
746.39	248.39
746.71	248.08
747.04	247.78
747.37	247.54
747.70	247.31
748.03	247.06
748.36	246.85
748.68	246.59
749.01	246.30
749.34	246.12
749.67	245.90
750.00	245.70
750.33	245.56
750.65	245.38
750.98	245.05
751.31	244.83
751.64	244.63
751.97	244.48
752.29	244.27
752.62	244.04
752.95	243.85
753.28	243.64
753.60	243.46
753.93	243.32
754.26	243.14
754.59	242.92
754.91	242.73
755.24	242.53
755.57	242.34
755.90	242.19
756.22	241.98
756.55	241.80
756.88	241.62
757.20	241.39
757.53	241.21
757.86	241.05
758.19	240.92
758.51	240.75
758.84	240.54
759.17	240.37
759.49	240.21
759.82	240.08
760.15	239.95
760.47	239.79
760.80	239.61
761.13	239.47
761.45	239.36
761.78	239.23
762.11	239.10
762.43	238.96
762.76	238.79
763.08	238.68
763.41	238.53
763.74	238.38
764.06	238.26
764.39	238.14
764.71	238.02
765.04	237.84
765.37	237.70
765.69	237.58
766.02	237.45
766.34	237.35
766.67	237.19
767.00	237.05
767.32	237.00
767.65	236.95
767.97	236.85
768.30	236.70
768.62	236.58
768.95	236.42
769.27	236.33
769.60	236.27
769.92	236.15
770.25	236.03
770.57	235.92
770.90	235.77
771.22	235.60
771.55	235.47
771.87	235.38
772.20	235.29
772.52	235.26
772.85	235.29
773.17	235.18
773.50	235.08
773.82	234.99
774.15	234.84
774.47	234.66
774.80	234.54
775.12	234.47
775.45	234.37
775.77	234.32
776.09	234.22
776.42	234.10
776.74	234.03
777.07	233.94
777.39	233.83
777.72	233.77
778.04	233.71
778.36	233.62
778.69	233.54
779.01	233.46
779.33	233.30
779.66	233.09
779.98	233.03
780.31	232.97
780.63	232.95
780.95	232.89
781.28	232.84
781.60	232.75
781.92	232.68
782.25	232.60
782.57	232.51
782.89	232.44
783.22	232.34
783.54	232.29
783.86	232.24
784.19	232.20
784.51	232.17
784.83	232.15
785.16	232.09
785.48	232.06
785.80	232.00
786.12	231.98
786.45	231.97
786.77	231.93
787.09	231.88
