SpectraSuite Data File
++++++++++++++++++++++++++++++++++++
Date: Fri Feb 01 15:16:00 EST 2013
User: group
Dark Spectrum Present: No
Reference Spectrum Present: No
Number of Sampled Component Spectra: 1
Spectrometers: USB2E7196
Integration Time (usec): 35000 (USB2E7196)
Spectra Averaged: 100 (USB2E7196)
Boxcar Smoothing: 10 (USB2E7196)
Correct for Electrical Dark: No (USB2E7196)
Strobe/Lamp Enabled: No (USB2E7196)
Correct for Detector Non-linearity: No (USB2E7196)
Correct for Stray Light: No (USB2E7196)
Number of Pixels in Processed Spectrum: 2048
>>>>>Begin Processed Spectral Data<<<<<
339.09	0.00
339.48	214.48
339.86	216.13
340.24	218.10
340.63	219.66
341.01	222.33
341.39	221.38
341.78	222.82
342.16	224.36
342.54	225.17
342.93	213.41
343.31	224.20
343.69	224.76
344.07	225.27
344.46	225.69
344.84	226.04
345.22	226.28
345.60	226.54
345.99	226.75
346.37	226.91
346.75	226.99
347.13	227.02
347.52	227.07
347.90	227.16
348.28	227.21
348.66	227.22
349.05	227.21
349.43	227.26
349.81	227.31
350.19	227.37
350.57	227.45
350.96	227.51
351.34	227.63
351.72	227.72
352.10	227.79
352.48	227.86
352.87	227.94
353.25	228.00
353.63	228.05
354.01	228.15
354.39	228.19
354.77	228.27
355.15	228.37
355.54	228.44
355.92	228.40
356.30	228.46
356.68	228.60
357.06	228.70
357.44	228.74
357.82	228.76
358.20	228.82
358.58	228.85
358.97	228.91
359.35	228.93
359.73	229.02
360.11	229.06
360.49	229.13
360.87	229.18
361.25	229.24
361.63	229.35
362.01	229.35
362.39	229.36
362.77	229.42
363.15	229.45
363.53	229.47
363.91	229.53
364.29	229.55
364.67	229.50
365.05	229.51
365.43	229.50
365.81	229.51
366.19	229.56
366.57	229.57
366.95	229.57
367.33	229.53
367.71	229.49
368.09	229.46
368.47	229.42
368.85	229.37
369.23	229.33
369.61	229.25
369.99	229.27
370.37	229.29
370.75	229.27
371.13	229.15
371.51	229.08
371.89	229.01
372.27	228.95
372.65	228.84
373.03	228.77
373.41	228.74
373.78	228.68
374.16	228.58
374.54	228.48
374.92	228.41
375.30	228.36
375.68	228.28
376.06	228.23
376.44	228.14
376.82	228.07
377.19	228.00
377.57	227.91
377.95	227.79
378.33	227.69
378.71	227.56
379.09	227.55
379.47	227.49
379.84	227.41
380.22	227.35
380.60	227.30
380.98	227.20
381.36	227.10
381.73	227.00
382.11	226.94
382.49	226.89
382.87	226.81
383.25	226.73
383.62	226.77
384.00	226.69
384.38	226.64
384.76	226.61
385.13	226.61
385.51	226.55
385.89	226.52
386.27	226.46
386.64	226.48
387.02	226.41
387.40	226.39
387.78	226.37
388.15	226.32
388.53	226.32
388.91	226.28
389.29	226.27
389.66	226.27
390.04	226.25
390.42	226.24
390.79	226.24
391.17	226.24
391.55	226.14
391.92	226.16
392.30	226.16
392.68	226.15
393.05	226.14
393.43	226.18
393.81	226.18
394.18	226.22
394.56	226.21
394.94	226.26
395.31	226.27
395.69	226.32
396.06	226.39
396.44	226.45
396.82	226.52
397.19	226.62
397.57	226.69
397.95	226.78
398.32	226.79
398.70	226.87
399.07	226.94
399.45	227.01
399.82	227.05
400.20	227.15
400.58	227.23
400.95	227.25
401.33	227.38
401.70	227.53
402.08	227.60
402.45	227.70
402.83	227.80
403.20	227.92
403.58	228.04
403.95	228.16
404.33	228.28
404.71	228.40
405.08	228.58
405.46	228.70
405.83	228.83
406.21	229.01
406.58	229.18
406.96	229.37
407.33	229.54
407.70	229.80
408.08	230.07
408.45	230.30
408.83	230.55
409.20	230.73
409.58	230.88
409.95	231.14
410.33	231.43
410.70	231.69
411.08	231.96
411.45	232.27
411.82	232.57
412.20	232.92
412.57	233.31
412.95	233.60
413.32	234.06
413.69	234.48
414.07	234.93
414.44	235.40
414.82	235.86
415.19	236.45
415.56	236.94
415.94	237.49
416.31	238.13
416.68	238.74
417.06	239.48
417.43	240.16
417.81	240.95
418.18	241.71
418.55	242.55
418.93	243.45
419.30	244.35
419.67	245.27
420.04	246.22
420.42	247.20
420.79	248.39
421.16	249.51
421.54	250.69
421.91	251.89
422.28	253.14
422.66	254.47
423.03	255.72
423.40	257.05
423.77	258.46
424.15	259.87
424.52	261.39
424.89	262.97
425.26	264.56
425.64	266.00
426.01	267.62
426.38	269.31
426.75	271.01
427.13	272.75
427.50	274.56
427.87	276.47
428.24	278.35
428.61	280.08
428.99	282.04
429.36	284.14
429.73	286.20
430.10	288.25
430.47	290.32
430.85	292.47
431.22	294.74
431.59	297.09
431.96	299.33
432.33	301.82
432.70	304.23
433.08	307.04
433.45	309.68
433.82	312.24
434.19	315.15
434.56	317.94
434.93	320.60
435.30	323.25
435.68	326.12
436.05	328.97
436.42	331.78
436.79	334.27
437.16	336.97
437.53	339.81
437.90	342.60
438.27	345.36
438.64	348.16
439.01	350.77
439.38	353.07
439.75	355.28
440.13	357.78
440.50	360.16
440.87	362.04
441.24	364.04
441.61	366.24
441.98	367.69
442.35	369.46
442.72	371.31
443.09	373.12
443.46	374.10
443.83	374.71
444.20	375.20
444.57	376.05
444.94	376.34
445.31	376.65
445.68	377.03
446.05	377.10
446.42	376.74
446.79	376.33
447.16	375.85
447.53	375.53
447.90	374.36
448.27	373.12
448.64	371.51
449.01	370.33
449.37	368.36
449.74	366.50
450.11	364.28
450.48	361.82
450.85	359.28
451.22	357.12
451.59	355.07
451.96	353.14
452.33	350.52
452.70	348.16
453.07	345.37
453.43	342.47
453.80	339.71
454.17	336.99
454.54	334.43
454.91	331.70
455.28	329.00
455.65	326.51
456.02	324.06
456.38	321.90
456.75	319.26
457.12	316.99
457.49	314.73
457.86	312.54
458.23	310.69
458.59	308.67
458.96	306.59
459.33	304.73
459.70	302.87
460.07	301.39
460.43	299.66
460.80	298.05
461.17	296.60
461.54	295.08
461.91	293.67
462.27	292.20
462.64	290.93
463.01	289.60
463.38	288.31
463.74	286.95
464.11	285.77
464.48	284.70
464.85	283.60
465.21	282.73
465.58	281.84
465.95	280.71
466.32	279.81
466.68	278.93
467.05	278.03
467.42	277.15
467.78	276.22
468.15	275.35
468.52	274.67
468.88	273.80
469.25	273.04
469.62	272.41
469.98	271.75
470.35	271.14
470.72	270.51
471.08	269.85
471.45	269.29
471.82	268.78
472.18	268.20
472.55	267.75
472.92	267.25
473.28	266.77
473.65	266.31
474.02	265.86
474.38	265.49
474.75	265.17
475.11	264.78
475.48	264.51
475.85	264.30
476.21	264.05
476.58	263.89
476.94	263.74
477.31	263.57
477.67	263.41
478.04	263.27
478.41	263.20
478.77	263.20
479.14	263.16
479.50	263.16
479.87	263.22
480.23	263.30
480.60	263.33
480.96	263.38
481.33	263.60
481.69	263.78
482.06	263.93
482.42	264.12
482.79	264.42
483.15	264.70
483.52	265.03
483.88	265.36
484.25	265.69
484.61	266.14
484.98	266.57
485.34	267.13
485.71	267.73
486.07	268.31
486.44	268.88
486.80	269.55
487.17	270.27
487.53	271.05
487.90	271.90
488.26	272.84
488.62	273.85
488.99	274.78
489.35	275.83
489.72	276.98
490.08	278.15
490.44	279.38
490.81	280.70
491.17	282.04
491.54	283.53
491.90	285.12
492.26	286.74
492.63	288.46
492.99	290.22
493.36	292.10
493.72	294.18
494.08	296.29
494.45	298.58
494.81	300.89
495.17	303.29
495.54	305.87
495.90	308.53
496.26	311.31
496.63	314.26
496.99	317.36
497.35	320.59
497.72	323.91
498.08	327.43
498.44	331.10
498.80	335.02
499.17	339.02
499.53	343.16
499.89	347.55
500.26	352.08
500.62	356.71
500.98	361.62
501.34	366.66
501.71	371.98
502.07	377.40
502.43	383.00
502.79	388.85
503.16	394.88
503.52	401.17
503.88	407.55
504.24	414.21
504.60	421.07
504.97	428.15
505.33	435.58
505.69	443.24
506.05	451.01
506.41	458.86
506.78	467.11
507.14	475.55
507.50	484.23
507.86	493.23
508.22	502.47
508.59	511.79
508.95	521.39
509.31	531.14
509.67	541.21
510.03	551.54
510.39	562.10
510.75	572.93
511.12	583.87
511.48	595.18
511.84	606.58
512.20	618.17
512.56	630.17
512.92	642.37
513.28	654.71
513.64	667.19
514.00	679.93
514.37	692.82
514.73	705.86
515.09	718.88
515.45	732.18
515.81	745.77
516.17	759.65
516.53	773.76
516.89	788.02
517.25	802.30
517.61	816.80
517.97	831.24
518.33	845.79
518.69	860.53
519.05	875.61
519.41	890.88
519.77	906.41
520.13	921.83
520.49	937.21
520.85	952.65
521.21	968.41
521.57	984.74
521.93	1000.58
522.29	1017.06
522.65	1033.41
523.01	1049.75
523.37	1065.82
523.73	1082.11
524.09	1098.32
524.45	1114.78
524.81	1131.38
525.17	1148.20
525.53	1165.19
525.89	1182.14
526.25	1199.10
526.61	1215.55
526.97	1232.29
527.33	1248.93
527.68	1265.65
528.04	1282.22
528.40	1298.94
528.76	1316.14
529.12	1332.78
529.48	1349.60
529.84	1365.67
530.20	1382.44
530.56	1399.54
530.91	1417.09
531.27	1433.83
531.63	1450.36
531.99	1466.88
532.35	1482.93
532.71	1498.91
533.07	1515.34
533.42	1531.08
533.78	1547.12
534.14	1563.43
534.50	1578.92
534.86	1594.84
535.21	1610.06
535.57	1626.03
535.93	1641.63
536.29	1656.43
536.65	1671.62
537.00	1686.65
537.36	1702.10
537.72	1716.60
538.08	1731.04
538.44	1744.89
538.79	1759.07
539.15	1772.79
539.51	1786.67
539.87	1801.20
540.22	1814.93
540.58	1828.77
540.94	1842.45
541.29	1855.53
541.65	1868.31
542.01	1881.60
542.37	1893.89
542.72	1906.54
543.08	1918.39
543.44	1930.88
543.79	1942.18
544.15	1953.23
544.51	1964.81
544.87	1975.90
545.22	1986.77
545.58	1996.94
545.94	2006.73
546.29	2016.47
546.65	2026.36
547.01	2035.63
547.36	2044.38
547.72	2052.95
548.07	2060.76
548.43	2068.94
548.79	2077.00
549.14	2084.57
549.50	2092.08
549.86	2099.93
550.21	2107.07
550.57	2114.36
550.92	2120.89
551.28	2127.94
551.64	2135.01
551.99	2141.51
552.35	2147.57
552.70	2153.64
553.06	2159.61
553.41	2165.90
553.77	2171.96
554.13	2178.10
554.48	2184.28
554.84	2189.51
555.19	2194.88
555.55	2200.01
555.90	2204.38
556.26	2209.23
556.61	2213.86
556.97	2217.86
557.32	2221.81
557.68	2226.09
558.03	2230.34
558.39	2234.11
558.74	2238.80
559.10	2242.59
559.45	2246.26
559.81	2250.64
560.16	2254.50
560.52	2257.82
560.87	2261.16
561.23	2263.81
561.58	2266.57
561.94	2269.00
562.29	2271.49
562.64	2274.10
563.00	2276.61
563.35	2280.02
563.71	2283.06
564.06	2286.35
564.42	2289.16
564.77	2291.72
565.12	2293.75
565.48	2295.55
565.83	2297.28
566.19	2298.37
566.54	2299.32
566.89	2300.34
567.25	2300.81
567.60	2302.08
567.96	2303.64
568.31	2304.57
568.66	2305.48
569.02	2306.10
569.37	2306.50
569.72	2307.24
570.08	2307.17
570.43	2307.21
570.78	2306.57
571.14	2304.97
571.49	2303.57
571.84	2303.33
572.20	2301.90
572.55	2300.84
572.90	2299.28
573.26	2297.77
573.61	2296.13
573.96	2294.22
574.31	2291.26
574.67	2288.20
575.02	2284.71
575.37	2281.32
575.72	2277.39
576.08	2273.96
576.43	2270.49
576.78	2266.61
577.13	2263.30
577.49	2260.29
577.84	2256.66
578.19	2252.98
578.54	2249.12
578.90	2244.71
579.25	2238.97
579.60	2234.05
579.95	2229.02
580.30	2223.95
580.66	2218.79
581.01	2213.69
581.36	2208.61
581.71	2204.27
582.06	2199.61
582.42	2194.82
582.77	2189.42
583.12	2184.69
583.47	2179.87
583.82	2174.77
584.17	2169.43
584.53	2163.84
584.88	2158.03
585.23	2152.01
585.58	2146.44
585.93	2141.06
586.28	2136.29
586.63	2131.13
586.98	2126.03
587.34	2121.29
587.69	2116.26
588.04	2110.83
588.39	2105.02
588.74	2098.60
589.09	2092.27
589.44	2085.33
589.79	2079.28
590.14	2073.69
590.49	2067.10
590.84	2060.77
591.19	2054.62
591.54	2048.07
591.89	2040.69
592.25	2033.79
592.60	2026.70
592.95	2018.93
593.30	2011.43
593.65	2003.61
594.00	1996.58
594.35	1989.22
594.70	1981.02
595.05	1973.51
595.40	1966.11
595.75	1958.54
596.10	1952.08
596.45	1945.22
596.80	1939.10
597.15	1932.37
597.50	1925.02
597.85	1918.57
598.19	1911.80
598.54	1904.78
598.89	1898.06
599.24	1892.17
599.59	1885.38
599.94	1878.97
600.29	1872.62
600.64	1866.04
600.99	1858.53
601.34	1851.54
601.69	1844.50
602.04	1837.51
602.39	1830.29
602.74	1823.53
603.08	1816.86
603.43	1810.22
603.78	1803.01
604.13	1795.75
604.48	1788.29
604.83	1781.45
605.18	1774.26
605.53	1766.14
605.87	1758.08
606.22	1750.76
606.57	1742.75
606.92	1735.48
607.27	1728.30
607.62	1721.34
607.96	1713.89
608.31	1707.25
608.66	1699.62
609.01	1692.02
609.36	1684.52
609.70	1676.44
610.05	1668.19
610.40	1660.34
610.75	1652.02
611.10	1644.35
611.44	1636.00
611.79	1628.03
612.14	1619.32
612.49	1610.34
612.83	1602.07
613.18	1593.99
613.53	1586.02
613.88	1577.49
614.22	1569.19
614.57	1560.74
614.92	1552.70
615.27	1545.14
615.61	1536.96
615.96	1528.99
616.31	1521.45
616.65	1514.02
617.00	1506.51
617.35	1498.95
617.70	1490.67
618.04	1481.98
618.39	1473.77
618.74	1466.02
619.08	1457.76
619.43	1450.20
619.78	1443.29
620.12	1436.10
620.47	1428.51
620.82	1420.24
621.16	1412.94
621.51	1405.39
621.85	1397.77
622.20	1389.22
622.55	1381.05
622.89	1373.13
623.24	1365.57
623.59	1358.21
623.93	1350.72
624.28	1343.46
624.62	1335.95
624.97	1328.79
625.32	1322.22
625.66	1315.17
626.01	1308.06
626.35	1300.62
626.70	1292.94
627.04	1285.11
627.39	1277.43
627.73	1270.00
628.08	1263.18
628.43	1255.67
628.77	1248.25
629.12	1240.62
629.46	1233.42
629.81	1225.96
630.15	1218.75
630.50	1211.27
630.84	1203.15
631.19	1195.27
631.53	1187.80
631.88	1180.31
632.22	1172.67
632.57	1165.39
632.91	1157.92
633.26	1150.48
633.60	1143.15
633.95	1136.10
634.29	1129.16
634.64	1122.49
634.98	1115.24
635.32	1108.01
635.67	1101.57
636.01	1095.01
636.36	1088.26
636.70	1081.88
637.05	1075.34
637.39	1069.01
637.73	1062.59
638.08	1056.64
638.42	1050.65
638.77	1044.21
639.11	1037.65
639.45	1031.35
639.80	1024.67
640.14	1018.16
640.49	1011.72
640.83	1005.45
641.17	999.16
641.52	992.82
641.86	986.38
642.20	980.53
642.55	974.30
642.89	967.76
643.23	961.25
643.58	955.40
643.92	949.15
644.26	942.98
644.61	936.89
644.95	930.81
645.29	924.13
645.64	917.36
645.98	911.07
646.32	905.18
646.66	899.24
647.01	893.35
647.35	887.70
647.69	881.86
648.04	876.32
648.38	870.60
648.72	864.62
649.06	858.51
649.41	852.57
649.75	846.60
650.09	840.65
650.43	834.79
650.78	828.70
651.12	822.80
651.46	817.11
651.80	811.35
652.14	806.04
652.49	800.70
652.83	795.55
653.17	789.80
653.51	784.06
653.85	778.58
654.20	773.02
654.54	767.03
654.88	761.27
655.22	755.43
655.56	749.70
655.90	744.20
656.25	738.95
656.59	733.64
656.93	728.57
657.27	723.42
657.61	718.01
657.95	712.88
658.29	707.75
658.64	702.55
658.98	697.25
659.32	691.71
659.66	686.55
660.00	681.25
660.34	676.34
660.68	671.45
661.02	666.41
661.36	661.71
661.70	657.20
662.05	652.90
662.39	648.57
662.73	644.15
663.07	639.82
663.41	635.43
663.75	630.96
664.09	626.43
664.43	622.08
664.77	617.99
665.11	613.77
665.45	609.69
665.79	605.56
666.13	601.40
666.47	597.29
666.81	593.13
667.15	589.07
667.49	585.19
667.83	581.42
668.17	577.54
668.51	573.45
668.85	569.48
669.19	565.64
669.53	561.80
669.87	557.89
670.21	554.18
670.55	550.53
670.89	547.02
671.23	543.57
671.57	539.99
671.91	536.45
672.25	532.96
672.58	529.44
672.92	526.16
673.26	523.08
673.60	519.97
673.94	516.87
674.28	513.94
674.62	511.04
674.96	507.91
675.30	504.97
675.64	502.04
675.97	499.28
676.31	496.42
676.65	493.48
676.99	490.83
677.33	487.96
677.67	485.11
678.01	482.14
678.34	479.18
678.68	476.42
679.02	473.62
679.36	470.91
679.70	468.24
680.04	465.42
680.37	462.50
680.71	459.76
681.05	457.17
681.39	454.45
681.73	451.79
682.06	449.30
682.40	446.74
682.74	444.22
683.08	441.69
683.42	439.10
683.75	436.57
684.09	434.05
684.43	431.66
684.77	429.24
685.10	426.95
685.44	424.68
685.78	422.38
686.12	420.14
686.45	417.84
686.79	415.58
687.13	413.41
687.46	411.26
687.80	409.11
688.14	406.92
688.48	404.88
688.81	402.62
689.15	400.47
689.49	398.39
689.82	396.36
690.16	394.28
690.50	392.33
690.83	390.44
691.17	388.47
691.51	386.55
691.84	384.73
692.18	382.74
692.52	380.75
692.85	378.84
693.19	377.01
693.52	375.22
693.86	373.39
694.20	371.64
694.53	369.89
694.87	368.06
695.21	366.28
695.54	364.49
695.88	362.77
696.21	361.05
696.55	359.35
696.88	357.71
697.22	356.06
697.56	354.43
697.89	352.80
698.23	351.17
698.56	349.54
698.90	347.92
699.23	346.30
699.57	344.72
699.90	343.14
700.24	341.52
700.58	339.97
700.91	338.47
701.25	337.01
701.58	335.67
701.92	334.34
702.25	332.92
702.59	331.56
702.92	330.26
703.26	328.98
703.59	327.68
703.93	326.48
704.26	325.25
704.60	323.99
704.93	322.71
705.26	321.49
705.60	320.34
705.93	319.18
706.27	318.15
706.60	317.14
706.94	316.11
707.27	315.02
707.61	313.97
707.94	312.96
708.27	311.85
708.61	310.73
708.94	309.71
709.28	308.75
709.61	307.79
709.94	306.88
710.28	305.83
710.61	304.89
710.95	303.82
711.28	302.90
711.61	301.93
711.95	301.03
712.28	300.05
712.61	299.05
712.95	298.15
713.28	297.24
713.61	296.37
713.95	295.44
714.28	294.61
714.61	293.72
714.95	292.88
715.28	292.04
715.61	291.16
715.95	290.32
716.28	289.43
716.61	288.59
716.95	287.76
717.28	287.03
717.61	286.25
717.94	285.50
718.28	284.68
718.61	283.96
718.94	283.25
719.27	282.64
719.61	281.99
719.94	281.34
720.27	280.66
720.60	279.96
720.94	279.35
721.27	278.74
721.60	278.18
721.93	277.58
722.27	277.04
722.60	276.49
722.93	275.89
723.26	275.42
723.59	274.88
723.93	274.32
724.26	273.78
724.59	273.23
724.92	272.72
725.25	272.24
725.59	271.70
725.92	271.22
726.25	270.69
726.58	270.25
726.91	269.72
727.24	269.28
727.57	268.84
727.91	268.34
728.24	267.91
728.57	267.42
728.90	266.98
729.23	266.51
729.56	266.11
729.89	265.66
730.22	265.16
730.55	264.71
730.89	264.28
731.22	263.84
731.55	263.40
731.88	262.95
732.21	262.52
732.54	262.12
732.87	261.68
733.20	261.31
733.53	260.89
733.86	260.52
734.19	260.09
734.52	259.71
734.85	259.38
735.18	258.94
735.51	258.57
735.84	258.20
736.17	257.86
736.50	257.47
736.83	257.21
737.16	256.85
737.49	256.49
737.82	256.14
738.15	255.80
738.48	255.44
738.81	255.11
739.14	254.77
739.47	254.45
739.80	254.12
740.13	253.80
740.46	253.48
740.79	253.15
741.12	252.82
741.45	252.47
741.78	252.12
742.11	251.85
742.44	251.52
742.77	251.21
743.10	250.89
743.43	250.56
743.75	250.18
744.08	250.04
744.41	249.77
744.74	249.49
745.07	249.16
745.40	248.93
745.73	248.70
746.06	248.45
746.39	248.17
746.71	247.91
747.04	247.61
747.37	247.32
747.70	247.04
748.03	246.80
748.36	246.57
748.68	246.33
749.01	246.07
749.34	245.84
749.67	245.60
750.00	245.33
750.33	245.19
750.65	245.00
750.98	244.65
751.31	244.40
751.64	244.18
751.97	244.04
752.29	243.83
752.62	243.60
752.95	243.37
753.28	243.14
753.60	242.93
753.93	242.76
754.26	242.55
754.59	242.36
754.91	242.15
755.24	241.96
755.57	241.77
755.90	241.60
756.22	241.38
756.55	241.18
756.88	241.00
757.20	240.76
757.53	240.52
757.86	240.35
758.19	240.21
758.51	240.07
758.84	239.87
759.17	239.71
759.49	239.56
759.82	239.44
760.15	239.31
760.47	239.18
760.80	239.04
761.13	238.92
761.45	238.76
761.78	238.63
762.11	238.50
762.43	238.37
762.76	238.22
763.08	238.12
763.41	238.02
763.74	237.90
764.06	237.75
764.39	237.66
764.71	237.56
765.04	237.43
765.37	237.28
765.69	237.19
766.02	237.05
766.34	236.93
766.67	236.80
767.00	236.70
767.32	236.64
767.65	236.59
767.97	236.50
768.30	236.41
768.62	236.29
768.95	236.19
769.27	236.07
769.60	235.98
769.92	235.88
770.25	235.75
770.57	235.61
770.90	235.54
771.22	235.41
771.55	235.30
771.87	235.19
772.20	235.11
772.52	235.07
772.85	235.09
773.17	235.01
773.50	234.91
773.82	234.83
774.15	234.68
774.47	234.52
774.80	234.44
775.12	234.37
775.45	234.29
775.77	234.22
776.09	234.17
776.42	234.09
776.74	234.04
777.07	233.99
777.39	233.97
777.72	233.87
778.04	233.84
778.36	233.78
778.69	233.71
779.01	233.67
779.33	233.52
779.66	233.36
779.98	233.27
780.31	233.19
780.63	233.14
780.95	233.07
781.28	232.98
781.60	232.90
781.92	232.85
782.25	232.77
782.57	232.69
782.89	232.61
783.22	232.55
783.54	232.45
783.86	232.37
784.19	232.30
784.51	232.28
784.83	232.20
785.16	232.14
785.48	232.09
785.80	232.02
786.12	231.97
786.45	231.91
786.77	231.85
787.09	231.81
