SpectraSuite Data File
++++++++++++++++++++++++++++++++++++
Date: Fri Feb 01 16:39:29 EST 2013
User: group
Dark Spectrum Present: No
Reference Spectrum Present: No
Number of Sampled Component Spectra: 1
Spectrometers: USB2E7196
Integration Time (usec): 35000 (USB2E7196)
Spectra Averaged: 100 (USB2E7196)
Boxcar Smoothing: 10 (USB2E7196)
Correct for Electrical Dark: No (USB2E7196)
Strobe/Lamp Enabled: No (USB2E7196)
Correct for Detector Non-linearity: No (USB2E7196)
Correct for Stray Light: No (USB2E7196)
Number of Pixels in Processed Spectrum: 2048
>>>>>Begin Processed Spectral Data<<<<<
339.09	0.00
339.48	213.16
339.86	214.86
340.24	216.70
340.63	217.93
341.01	220.74
341.39	220.31
341.78	221.47
342.16	222.91
342.54	223.61
342.93	212.02
343.31	222.75
343.69	223.32
344.07	223.79
344.46	224.21
344.84	224.61
345.22	224.83
345.60	225.12
345.99	225.33
346.37	225.48
346.75	225.59
347.13	225.65
347.52	225.69
347.90	225.81
348.28	225.84
348.66	225.91
349.05	225.89
349.43	225.93
349.81	225.97
350.19	226.01
350.57	226.10
350.96	226.15
351.34	226.26
351.72	226.32
352.10	226.41
352.48	226.47
352.87	226.50
353.25	226.56
353.63	226.60
354.01	226.69
354.39	226.74
354.77	226.82
355.15	226.91
355.54	226.98
355.92	227.01
356.30	227.06
356.68	227.18
357.06	227.24
357.44	227.29
357.82	227.37
358.20	227.41
358.58	227.46
358.97	227.54
359.35	227.57
359.73	227.65
360.11	227.71
360.49	227.76
360.87	227.80
361.25	227.89
361.63	227.97
362.01	227.99
362.39	228.02
362.77	228.08
363.15	228.11
363.53	228.12
363.91	228.16
364.29	228.19
364.67	228.08
365.05	228.10
365.43	228.14
365.81	228.15
366.19	228.20
366.57	228.24
366.95	228.21
367.33	228.17
367.71	228.18
368.09	228.19
368.47	228.20
368.85	228.21
369.23	228.19
369.61	228.16
369.99	228.15
370.37	228.15
370.75	228.12
371.13	228.06
371.51	228.01
371.89	227.97
372.27	227.96
372.65	227.95
373.03	227.89
373.41	227.83
373.78	227.79
374.16	227.69
374.54	227.59
374.92	227.57
375.30	227.54
375.68	227.49
376.06	227.38
376.44	227.31
376.82	227.25
377.19	227.15
377.57	227.04
377.95	226.96
378.33	226.86
378.71	226.77
379.09	226.73
379.47	226.67
379.84	226.58
380.22	226.49
380.60	226.41
380.98	226.37
381.36	226.28
381.73	226.24
382.11	226.20
382.49	226.17
382.87	226.07
383.25	225.99
383.62	226.04
384.00	225.98
384.38	225.91
384.76	225.86
385.13	225.87
385.51	225.85
385.89	225.79
386.27	225.78
386.64	225.76
387.02	225.70
387.40	225.66
387.78	225.66
388.15	225.64
388.53	225.61
388.91	225.57
389.29	225.53
389.66	225.49
390.04	225.44
390.42	225.42
390.79	225.41
391.17	225.41
391.55	225.28
391.92	225.30
392.30	225.31
392.68	225.26
393.05	225.25
393.43	225.24
393.81	225.25
394.18	225.23
394.56	225.21
394.94	225.25
395.31	225.27
395.69	225.32
396.06	225.34
396.44	225.37
396.82	225.38
397.19	225.46
397.57	225.50
397.95	225.59
398.32	225.58
398.70	225.62
399.07	225.69
399.45	225.72
399.82	225.76
400.20	225.87
400.58	225.95
400.95	225.97
401.33	226.03
401.70	226.15
402.08	226.26
402.45	226.34
402.83	226.44
403.20	226.55
403.58	226.58
403.95	226.71
404.33	226.83
404.71	226.96
405.08	227.10
405.46	227.22
405.83	227.32
406.21	227.50
406.58	227.71
406.96	227.83
407.33	228.02
407.70	228.22
408.08	228.44
408.45	228.66
408.83	228.87
409.20	229.11
409.58	229.31
409.95	229.56
410.33	229.83
410.70	230.06
411.08	230.32
411.45	230.67
411.82	230.95
412.20	231.30
412.57	231.70
412.95	232.01
413.32	232.42
413.69	232.83
414.07	233.23
414.44	233.66
414.82	234.18
415.19	234.71
415.56	235.23
415.94	235.78
416.31	236.39
416.68	236.96
417.06	237.66
417.43	238.35
417.81	239.10
418.18	239.88
418.55	240.74
418.93	241.62
419.30	242.48
419.67	243.42
420.04	244.34
420.42	245.34
420.79	246.51
421.16	247.65
421.54	248.81
421.91	250.03
422.28	251.29
422.66	252.64
423.03	253.94
423.40	255.32
423.77	256.71
424.15	258.19
424.52	259.71
424.89	261.32
425.26	262.83
425.64	264.33
426.01	265.92
426.38	267.56
426.75	269.19
427.13	270.94
427.50	272.75
427.87	274.64
428.24	276.49
428.61	278.24
428.99	280.17
429.36	282.25
429.73	284.31
430.10	286.32
430.47	288.34
430.85	290.44
431.22	292.64
431.59	295.00
431.96	297.21
432.33	299.70
432.70	302.09
433.08	304.92
433.45	307.48
433.82	310.04
434.19	312.91
434.56	315.73
434.93	318.34
435.30	320.96
435.68	323.81
436.05	326.60
436.42	329.39
436.79	331.91
437.16	334.64
437.53	337.44
437.90	340.19
438.27	342.93
438.64	345.77
439.01	348.34
439.38	350.56
439.75	352.76
440.13	355.23
440.50	357.54
440.87	359.36
441.24	361.34
441.61	363.49
441.98	364.95
442.35	366.74
442.72	368.60
443.09	370.44
443.46	371.39
443.83	372.01
444.20	372.52
444.57	373.34
444.94	373.62
445.31	373.94
445.68	374.33
446.05	374.41
446.42	373.99
446.79	373.57
447.16	373.14
447.53	372.79
447.90	371.60
448.27	370.43
448.64	368.84
449.01	367.67
449.37	365.73
449.74	363.87
450.11	361.66
450.48	359.19
450.85	356.63
451.22	354.56
451.59	352.57
451.96	350.64
452.33	348.07
452.70	345.76
453.07	342.97
453.43	340.08
453.80	337.28
454.17	334.63
454.54	332.07
454.91	329.34
455.28	326.69
455.65	324.24
456.02	321.80
456.38	319.67
456.75	317.05
457.12	314.78
457.49	312.55
457.86	310.36
458.23	308.52
458.59	306.47
458.96	304.38
459.33	302.52
459.70	300.65
460.07	299.17
460.43	297.45
460.80	295.81
461.17	294.41
461.54	292.93
461.91	291.54
462.27	290.12
462.64	288.90
463.01	287.51
463.38	286.24
463.74	284.91
464.11	283.74
464.48	282.74
464.85	281.70
465.21	280.91
465.58	280.02
465.95	278.95
466.32	278.06
466.68	277.17
467.05	276.30
467.42	275.42
467.78	274.47
468.15	273.59
468.52	272.99
468.88	272.11
469.25	271.37
469.62	270.77
469.98	270.11
470.35	269.48
470.72	268.90
471.08	268.25
471.45	267.69
471.82	267.20
472.18	266.58
472.55	266.16
472.92	265.59
473.28	265.13
473.65	264.71
474.02	264.32
474.38	263.97
474.75	263.66
475.11	263.32
475.48	263.08
475.85	262.83
476.21	262.64
476.58	262.49
476.94	262.38
477.31	262.23
477.67	262.12
478.04	262.01
478.41	262.00
478.77	262.07
479.14	262.03
479.50	262.05
479.87	262.16
480.23	262.24
480.60	262.36
480.96	262.48
481.33	262.72
481.69	262.94
482.06	263.17
482.42	263.38
482.79	263.66
483.15	263.99
483.52	264.42
483.88	264.70
484.25	265.11
484.61	265.54
484.98	265.97
485.34	266.52
485.71	267.14
486.07	267.74
486.44	268.30
486.80	269.04
487.17	269.75
487.53	270.59
487.90	271.44
488.26	272.35
488.62	273.32
488.99	274.28
489.35	275.32
489.72	276.41
490.08	277.60
490.44	278.87
490.81	280.22
491.17	281.54
491.54	283.08
491.90	284.61
492.26	286.26
492.63	288.02
492.99	289.79
493.36	291.66
493.72	293.71
494.08	295.85
494.45	298.08
494.81	300.44
495.17	302.88
495.54	305.48
495.90	308.17
496.26	310.94
496.63	313.92
496.99	316.97
497.35	320.25
497.72	323.66
498.08	327.20
498.44	330.85
498.80	334.77
499.17	338.81
499.53	343.00
499.89	347.38
500.26	351.86
500.62	356.51
500.98	361.50
501.34	366.55
501.71	371.84
502.07	377.24
502.43	382.83
502.79	388.59
503.16	394.60
503.52	400.88
503.88	407.33
504.24	413.93
504.60	420.82
504.97	427.93
505.33	435.21
505.69	442.83
506.05	450.61
506.41	458.54
506.78	466.65
507.14	475.09
507.50	483.83
507.86	492.86
508.22	502.10
508.59	511.31
508.95	520.92
509.31	530.83
509.67	540.94
510.03	551.22
510.39	561.86
510.75	572.64
511.12	583.49
511.48	594.75
511.84	606.25
512.20	617.78
512.56	629.73
512.92	641.97
513.28	654.34
513.64	666.77
514.00	679.41
514.37	692.38
514.73	705.35
515.09	718.30
515.45	731.56
515.81	745.04
516.17	758.92
516.53	772.96
516.89	787.00
517.25	801.20
517.61	815.62
517.97	829.96
518.33	844.34
518.69	859.13
519.05	874.03
519.41	889.07
519.77	904.51
520.13	919.80
520.49	935.10
520.85	950.41
521.21	966.02
521.57	982.16
521.93	997.77
522.29	1013.93
522.65	1030.15
523.01	1046.23
523.37	1062.30
523.73	1078.37
524.09	1094.33
524.45	1110.55
524.81	1127.08
525.17	1143.73
525.53	1160.45
525.89	1177.28
526.25	1193.93
526.61	1210.22
526.97	1226.84
527.33	1243.09
527.68	1259.48
528.04	1275.80
528.40	1292.18
528.76	1309.22
529.12	1325.75
529.48	1342.50
529.84	1358.60
530.20	1375.09
530.56	1391.86
530.91	1409.01
531.27	1425.68
531.63	1442.05
531.99	1458.50
532.35	1474.26
532.71	1490.05
533.07	1506.16
533.42	1521.99
533.78	1538.01
534.14	1554.26
534.50	1569.44
534.86	1585.38
535.21	1600.65
535.57	1616.31
535.93	1631.71
536.29	1646.26
536.65	1661.09
537.00	1675.72
537.36	1690.87
537.72	1705.13
538.08	1719.56
538.44	1733.14
538.79	1746.93
539.15	1760.37
539.51	1773.94
539.87	1788.29
540.22	1801.81
540.58	1815.33
540.94	1828.26
541.29	1840.80
541.65	1853.23
542.01	1866.28
542.37	1878.44
542.72	1890.63
543.08	1902.37
543.44	1914.57
543.79	1925.69
544.15	1936.43
544.51	1947.90
544.87	1958.79
545.22	1969.47
545.58	1979.69
545.94	1989.49
546.29	1999.17
546.65	2009.01
547.01	2018.31
547.36	2026.78
547.72	2035.21
548.07	2043.27
548.43	2051.48
548.79	2059.36
549.14	2067.08
549.50	2074.36
549.86	2081.72
550.21	2088.91
550.57	2096.06
550.92	2102.69
551.28	2109.89
551.64	2117.13
551.99	2123.55
552.35	2129.62
552.70	2135.87
553.06	2141.73
553.41	2147.95
553.77	2153.94
554.13	2160.11
554.48	2166.08
554.84	2171.80
555.19	2176.98
555.55	2182.11
555.90	2186.65
556.26	2191.81
556.61	2196.23
556.97	2200.68
557.32	2205.07
557.68	2209.34
558.03	2213.55
558.39	2217.15
558.74	2221.66
559.10	2225.34
559.45	2228.94
559.81	2233.11
560.16	2236.94
560.52	2240.09
560.87	2243.56
561.23	2246.25
561.58	2248.92
561.94	2251.48
562.29	2253.53
562.64	2256.44
563.00	2258.79
563.35	2262.22
563.71	2265.34
564.06	2268.46
564.42	2271.38
564.77	2273.82
565.12	2276.13
565.48	2278.17
565.83	2280.16
566.19	2281.45
566.54	2282.37
566.89	2283.67
567.25	2284.46
567.60	2285.65
567.96	2287.58
568.31	2288.43
568.66	2289.51
569.02	2290.29
569.37	2290.66
569.72	2291.63
570.08	2291.79
570.43	2291.98
570.78	2291.58
571.14	2290.07
571.49	2288.85
571.84	2288.38
572.20	2287.49
572.55	2286.46
572.90	2284.81
573.26	2283.49
573.61	2281.82
573.96	2280.31
574.31	2277.35
574.67	2274.41
575.02	2270.95
575.37	2267.35
575.72	2263.71
576.08	2260.34
576.43	2256.80
576.78	2253.28
577.13	2250.08
577.49	2246.80
577.84	2243.44
578.19	2239.54
578.54	2235.98
578.90	2231.92
579.25	2226.56
579.60	2221.63
579.95	2216.84
580.30	2211.89
580.66	2206.79
581.01	2201.82
581.36	2196.80
581.71	2192.91
582.06	2188.72
582.42	2184.40
582.77	2179.54
583.12	2175.03
583.47	2170.69
583.82	2166.09
584.17	2160.87
584.53	2155.53
584.88	2150.09
585.23	2144.51
585.58	2139.16
585.93	2133.68
586.28	2128.83
586.63	2123.88
586.98	2118.73
587.34	2113.93
587.69	2109.19
588.04	2104.16
588.39	2098.58
588.74	2092.29
589.09	2086.06
589.44	2079.14
589.79	2072.86
590.14	2067.28
590.49	2060.76
590.84	2054.18
591.19	2048.16
591.54	2041.75
591.89	2034.59
592.25	2027.98
592.60	2020.87
592.95	2013.49
593.30	2006.27
593.65	1998.76
594.00	1991.66
594.35	1984.54
594.70	1976.47
595.05	1969.41
595.40	1962.08
595.75	1954.71
596.10	1948.61
596.45	1941.98
596.80	1935.95
597.15	1929.55
597.50	1922.62
597.85	1916.20
598.19	1909.77
598.54	1902.95
598.89	1896.50
599.24	1890.55
599.59	1884.05
599.94	1877.73
600.29	1871.38
600.64	1864.83
600.99	1857.59
601.34	1850.91
601.69	1844.02
602.04	1837.37
602.39	1829.97
602.74	1823.24
603.08	1816.65
603.43	1809.86
603.78	1802.64
604.13	1795.42
604.48	1788.43
604.83	1781.49
605.18	1774.79
605.53	1766.94
605.87	1758.83
606.22	1751.42
606.57	1743.64
606.92	1736.10
607.27	1729.13
607.62	1722.41
607.96	1715.31
608.31	1708.86
608.66	1701.39
609.01	1693.84
609.36	1686.32
609.70	1678.47
610.05	1670.45
610.40	1662.86
610.75	1654.61
611.10	1646.97
611.44	1638.53
611.79	1630.32
612.14	1621.67
612.49	1612.37
612.83	1603.85
613.18	1595.67
613.53	1587.73
613.88	1579.17
614.22	1570.97
614.57	1562.15
614.92	1554.03
615.27	1546.59
615.61	1538.28
615.96	1530.18
616.31	1522.50
616.65	1515.14
617.00	1507.49
617.35	1499.72
617.70	1491.53
618.04	1483.21
618.39	1474.87
618.74	1467.41
619.08	1459.20
619.43	1451.60
619.78	1444.67
620.12	1437.55
620.47	1430.08
620.82	1421.97
621.16	1414.51
621.51	1406.88
621.85	1399.32
622.20	1390.86
622.55	1382.31
622.89	1374.34
623.24	1366.58
623.59	1359.11
623.93	1351.60
624.28	1344.41
624.62	1336.96
624.97	1329.60
625.32	1322.71
625.66	1315.75
626.01	1308.49
626.35	1301.26
626.70	1293.38
627.04	1285.70
627.39	1277.97
627.73	1270.52
628.08	1263.55
628.43	1256.30
628.77	1249.04
629.12	1241.58
629.46	1234.45
629.81	1226.96
630.15	1219.79
630.50	1212.45
630.84	1204.39
631.19	1196.36
631.53	1188.81
631.88	1181.27
632.22	1173.64
632.57	1166.36
632.91	1158.76
633.26	1151.51
633.60	1143.95
633.95	1136.83
634.29	1129.80
634.64	1123.05
634.98	1115.84
635.32	1108.71
635.67	1101.99
636.01	1095.32
636.36	1088.56
636.70	1081.99
637.05	1075.43
637.39	1068.96
637.73	1062.57
638.08	1056.71
638.42	1050.77
638.77	1044.38
639.11	1037.88
639.45	1031.48
639.80	1024.82
640.14	1018.55
640.49	1011.88
640.83	1005.66
641.17	999.60
641.52	993.33
641.86	986.90
642.20	980.98
642.55	974.52
642.89	968.20
643.23	961.66
643.58	955.93
643.92	949.84
644.26	943.91
644.61	937.80
644.95	931.76
645.29	925.22
645.64	918.50
645.98	912.11
646.32	906.12
646.66	900.12
647.01	894.36
647.35	888.60
647.69	882.83
648.04	877.24
648.38	871.42
648.72	865.49
649.06	859.43
649.41	853.42
649.75	847.58
650.09	841.58
650.43	835.81
650.78	829.58
651.12	823.55
651.46	817.82
651.80	812.24
652.14	806.85
652.49	801.44
652.83	796.32
653.17	790.80
653.51	785.19
653.85	779.73
654.20	774.07
654.54	768.05
654.88	762.33
655.22	756.42
655.56	750.68
655.90	745.11
656.25	739.85
656.59	734.63
656.93	729.54
657.27	724.42
657.61	718.96
657.95	713.85
658.29	708.76
658.64	703.47
658.98	698.08
659.32	692.57
659.66	687.37
660.00	682.09
660.34	677.12
660.68	672.22
661.02	667.23
661.36	662.57
661.70	658.14
662.05	653.72
662.39	649.40
662.73	644.95
663.07	640.59
663.41	636.19
663.75	631.69
664.09	627.14
664.43	622.71
664.77	618.66
665.11	614.47
665.45	610.30
665.79	606.26
666.13	602.23
666.47	598.15
666.81	594.02
667.15	589.83
667.49	585.84
667.83	581.93
668.17	578.02
668.51	573.94
668.85	569.86
669.19	565.94
669.53	562.13
669.87	558.33
670.21	554.59
670.55	550.99
670.89	547.51
671.23	544.00
671.57	540.48
671.91	536.94
672.25	533.43
672.58	529.96
672.92	526.53
673.26	523.26
673.60	520.10
673.94	517.04
674.28	514.12
674.62	511.20
674.96	508.16
675.30	505.27
675.64	502.39
675.97	499.62
676.31	496.80
676.65	493.89
676.99	491.12
677.33	488.28
677.67	485.43
678.01	482.46
678.34	479.61
678.68	476.73
679.02	473.88
679.36	471.03
679.70	468.28
680.04	465.51
680.37	462.69
680.71	459.91
681.05	457.23
681.39	454.52
681.73	451.86
682.06	449.34
682.40	446.77
682.74	444.22
683.08	441.64
683.42	439.05
683.75	436.59
684.09	434.07
684.43	431.57
684.77	429.12
685.10	426.78
685.44	424.43
685.78	422.16
686.12	419.90
686.45	417.65
686.79	415.33
687.13	413.11
687.46	410.93
687.80	408.69
688.14	406.47
688.48	404.41
688.81	402.27
689.15	400.10
689.49	397.95
689.82	395.84
690.16	393.74
690.50	391.76
690.83	389.76
691.17	387.75
691.51	385.87
691.84	384.08
692.18	382.12
692.52	380.15
692.85	378.21
693.19	376.31
693.52	374.45
693.86	372.67
694.20	370.88
694.53	369.07
694.87	367.25
695.21	365.46
695.54	363.60
695.88	361.75
696.21	360.00
696.55	358.30
696.88	356.58
697.22	354.94
697.56	353.34
697.89	351.66
698.23	350.08
698.56	348.44
698.90	346.85
699.23	345.23
699.57	343.66
699.90	342.15
700.24	340.63
700.58	339.15
700.91	337.70
701.25	336.28
701.58	334.92
701.92	333.56
702.25	332.16
702.59	330.78
702.92	329.53
703.26	328.26
703.59	326.98
703.93	325.81
704.26	324.60
704.60	323.28
704.93	322.00
705.26	320.70
705.60	319.47
705.93	318.26
706.27	317.21
706.60	316.14
706.94	315.03
707.27	313.92
707.61	312.78
707.94	311.70
708.27	310.60
708.61	309.52
708.94	308.52
709.28	307.52
709.61	306.59
709.94	305.60
710.28	304.58
710.61	303.60
710.95	302.48
711.28	301.54
711.61	300.59
711.95	299.73
712.28	298.84
712.61	297.89
712.95	296.99
713.28	296.10
713.61	295.20
713.95	294.33
714.28	293.44
714.61	292.56
714.95	291.68
715.28	290.82
715.61	289.98
715.95	289.10
716.28	288.28
716.61	287.42
716.95	286.56
717.28	285.80
717.61	285.00
717.94	284.27
718.28	283.48
718.61	282.75
718.94	282.02
719.27	281.36
719.61	280.71
719.94	280.01
720.27	279.22
720.60	278.58
720.94	277.92
721.27	277.35
721.60	276.81
721.93	276.25
722.27	275.73
722.60	275.14
722.93	274.56
723.26	274.02
723.59	273.50
723.93	272.99
724.26	272.47
724.59	271.94
724.92	271.43
725.25	270.92
725.59	270.39
725.92	269.92
726.25	269.39
726.58	268.90
726.91	268.41
727.24	268.00
727.57	267.54
727.91	267.04
728.24	266.54
728.57	266.05
728.90	265.61
729.23	265.09
729.56	264.67
729.89	264.24
730.22	263.76
730.55	263.28
730.89	262.81
731.22	262.37
731.55	261.95
731.88	261.53
732.21	261.11
732.54	260.72
732.87	260.26
733.20	259.86
733.53	259.49
733.86	259.14
734.19	258.76
734.52	258.40
734.85	258.11
735.18	257.70
735.51	257.35
735.84	256.99
736.17	256.67
736.50	256.27
736.83	256.05
737.16	255.73
737.49	255.38
737.82	255.06
738.15	254.73
738.48	254.37
738.81	254.03
739.14	253.74
739.47	253.42
739.80	253.15
740.13	252.85
740.46	252.51
740.79	252.16
741.12	251.85
741.45	251.53
741.78	251.19
742.11	250.95
742.44	250.62
742.77	250.35
743.10	250.00
743.43	249.72
743.75	249.34
744.08	249.17
744.41	248.90
744.74	248.61
745.07	248.31
745.40	248.08
745.73	247.85
746.06	247.52
746.39	247.24
746.71	246.96
747.04	246.71
747.37	246.44
747.70	246.21
748.03	245.95
748.36	245.70
748.68	245.43
749.01	245.16
749.34	244.91
749.67	244.66
750.00	244.45
750.33	244.33
750.65	244.07
750.98	243.75
751.31	243.52
751.64	243.33
751.97	243.17
752.29	242.93
752.62	242.64
752.95	242.45
753.28	242.23
753.60	241.99
753.93	241.79
754.26	241.61
754.59	241.38
754.91	241.18
755.24	240.96
755.57	240.77
755.90	240.60
756.22	240.42
756.55	240.22
756.88	240.02
757.20	239.73
757.53	239.55
757.86	239.34
758.19	239.22
758.51	239.05
758.84	238.84
759.17	238.71
759.49	238.58
759.82	238.46
760.15	238.32
760.47	238.19
760.80	238.02
761.13	237.88
761.45	237.71
761.78	237.55
762.11	237.42
762.43	237.26
762.76	237.12
763.08	236.99
763.41	236.84
763.74	236.69
764.06	236.54
764.39	236.45
764.71	236.34
765.04	236.18
765.37	236.02
765.69	235.91
766.02	235.77
766.34	235.65
766.67	235.48
767.00	235.36
767.32	235.31
767.65	235.25
767.97	235.16
768.30	235.08
768.62	234.98
768.95	234.86
769.27	234.75
769.60	234.62
769.92	234.54
770.25	234.43
770.57	234.31
770.90	234.21
771.22	234.08
771.55	233.98
771.87	233.88
772.20	233.79
772.52	233.76
772.85	233.79
773.17	233.69
773.50	233.63
773.82	233.54
774.15	233.36
774.47	233.21
774.80	233.10
775.12	232.98
775.45	232.90
775.77	232.83
776.09	232.77
776.42	232.71
776.74	232.65
777.07	232.58
777.39	232.51
777.72	232.44
778.04	232.37
778.36	232.29
778.69	232.22
779.01	232.15
779.33	231.99
779.66	231.80
779.98	231.73
780.31	231.66
780.63	231.68
780.95	231.67
781.28	231.62
781.60	231.54
781.92	231.50
782.25	231.45
782.57	231.39
782.89	231.30
783.22	231.23
783.54	231.14
783.86	231.08
784.19	231.04
784.51	231.02
784.83	230.97
785.16	230.94
785.48	230.89
785.80	230.85
786.12	230.83
786.45	230.77
786.77	230.75
787.09	230.68
