SpectraSuite Data File
++++++++++++++++++++++++++++++++++++
Date: Fri Feb 01 16:57:00 EST 2013
User: group
Dark Spectrum Present: No
Reference Spectrum Present: No
Number of Sampled Component Spectra: 1
Spectrometers: USB2E7196
Integration Time (usec): 35000 (USB2E7196)
Spectra Averaged: 100 (USB2E7196)
Boxcar Smoothing: 10 (USB2E7196)
Correct for Electrical Dark: No (USB2E7196)
Strobe/Lamp Enabled: No (USB2E7196)
Correct for Detector Non-linearity: No (USB2E7196)
Correct for Stray Light: No (USB2E7196)
Number of Pixels in Processed Spectrum: 2048
>>>>>Begin Processed Spectral Data<<<<<
339.09	0.00
339.48	213.74
339.86	215.07
340.24	216.14
340.63	218.32
341.01	220.61
341.39	220.83
341.78	221.42
342.16	222.76
342.54	223.34
342.93	211.83
343.31	222.55
343.69	223.10
344.07	223.54
344.46	223.95
344.84	224.31
345.22	224.54
345.60	224.80
345.99	225.00
346.37	225.12
346.75	225.20
347.13	225.28
347.52	225.34
347.90	225.43
348.28	225.48
348.66	225.53
349.05	225.52
349.43	225.53
349.81	225.57
350.19	225.60
350.57	225.65
350.96	225.71
351.34	225.79
351.72	225.85
352.10	225.95
352.48	226.02
352.87	226.07
353.25	226.12
353.63	226.15
354.01	226.21
354.39	226.31
354.77	226.44
355.15	226.57
355.54	226.63
355.92	226.68
356.30	226.75
356.68	226.86
357.06	226.92
357.44	226.98
357.82	227.06
358.20	227.13
358.58	227.19
358.97	227.24
359.35	227.31
359.73	227.36
360.11	227.40
360.49	227.47
360.87	227.49
361.25	227.54
361.63	227.64
362.01	227.67
362.39	227.70
362.77	227.72
363.15	227.73
363.53	227.76
363.91	227.77
364.29	227.81
364.67	227.75
365.05	227.77
365.43	227.82
365.81	227.85
366.19	227.87
366.57	227.93
366.95	227.95
367.33	227.93
367.71	227.94
368.09	227.98
368.47	227.94
368.85	227.93
369.23	227.94
369.61	227.86
369.99	227.90
370.37	227.85
370.75	227.85
371.13	227.74
371.51	227.71
371.89	227.69
372.27	227.66
372.65	227.58
373.03	227.57
373.41	227.50
373.78	227.44
374.16	227.36
374.54	227.25
374.92	227.19
375.30	227.12
375.68	227.04
376.06	226.95
376.44	226.87
376.82	226.83
377.19	226.74
377.57	226.69
377.95	226.56
378.33	226.49
378.71	226.36
379.09	226.32
379.47	226.25
379.84	226.17
380.22	226.07
380.60	226.00
380.98	225.90
381.36	225.84
381.73	225.76
382.11	225.73
382.49	225.69
382.87	225.62
383.25	225.58
383.62	225.64
384.00	225.57
384.38	225.54
384.76	225.51
385.13	225.52
385.51	225.44
385.89	225.39
386.27	225.36
386.64	225.33
387.02	225.28
387.40	225.24
387.78	225.20
388.15	225.18
388.53	225.17
388.91	225.12
389.29	225.09
389.66	225.09
390.04	225.02
390.42	225.04
390.79	225.04
391.17	224.98
391.55	224.86
391.92	224.88
392.30	224.87
392.68	224.90
393.05	224.89
393.43	224.93
393.81	224.91
394.18	224.94
394.56	224.95
394.94	224.99
395.31	224.98
395.69	225.02
396.06	225.05
396.44	225.06
396.82	225.10
397.19	225.17
397.57	225.20
397.95	225.25
398.32	225.23
398.70	225.28
399.07	225.38
399.45	225.44
399.82	225.49
400.20	225.55
400.58	225.57
400.95	225.57
401.33	225.67
401.70	225.83
402.08	225.88
402.45	225.98
402.83	226.06
403.20	226.15
403.58	226.23
403.95	226.33
404.33	226.49
404.71	226.61
405.08	226.76
405.46	226.87
405.83	227.04
406.21	227.22
406.58	227.39
406.96	227.51
407.33	227.69
407.70	227.89
408.08	228.16
408.45	228.37
408.83	228.63
409.20	228.85
409.58	229.02
409.95	229.27
410.33	229.52
410.70	229.78
411.08	230.12
411.45	230.43
411.82	230.76
412.20	231.03
412.57	231.46
412.95	231.76
413.32	232.17
413.69	232.53
414.07	232.93
414.44	233.38
414.82	233.84
415.19	234.38
415.56	234.88
415.94	235.44
416.31	236.10
416.68	236.67
417.06	237.35
417.43	238.07
417.81	238.86
418.18	239.65
418.55	240.48
418.93	241.33
419.30	242.23
419.67	243.15
420.04	244.15
420.42	245.14
420.79	246.29
421.16	247.44
421.54	248.67
421.91	249.89
422.28	251.16
422.66	252.53
423.03	253.83
423.40	255.16
423.77	256.54
424.15	257.93
424.52	259.41
424.89	260.99
425.26	262.47
425.64	263.93
426.01	265.48
426.38	267.14
426.75	268.80
427.13	270.51
427.50	272.31
427.87	274.15
428.24	276.00
428.61	277.78
428.99	279.67
429.36	281.74
429.73	283.80
430.10	285.79
430.47	287.82
430.85	289.90
431.22	292.13
431.59	294.51
431.96	296.75
432.33	299.21
432.70	301.60
433.08	304.43
433.45	307.03
433.82	309.63
434.19	312.48
434.56	315.27
434.93	317.88
435.30	320.48
435.68	323.38
436.05	326.18
436.42	328.98
436.79	331.49
437.16	334.11
437.53	336.93
437.90	339.72
438.27	342.39
438.64	345.26
439.01	347.85
439.38	350.06
439.75	352.21
440.13	354.74
440.50	357.01
440.87	358.81
441.24	360.74
441.61	362.91
441.98	364.40
442.35	366.20
442.72	368.06
443.09	369.87
443.46	370.88
443.83	371.47
444.20	371.94
444.57	372.79
444.94	373.13
445.31	373.45
445.68	373.81
446.05	373.92
446.42	373.51
446.79	373.07
447.16	372.58
447.53	372.24
447.90	371.06
448.27	369.96
448.64	368.38
449.01	367.27
449.37	365.29
449.74	363.41
450.11	361.20
450.48	358.74
450.85	356.19
451.22	354.08
451.59	352.07
451.96	350.18
452.33	347.60
452.70	345.29
453.07	342.47
453.43	339.61
453.80	336.87
454.17	334.27
454.54	331.76
454.91	329.09
455.28	326.44
455.65	324.01
456.02	321.59
456.38	319.50
456.75	316.82
457.12	314.61
457.49	312.43
457.86	310.27
458.23	308.44
458.59	306.43
458.96	304.35
459.33	302.51
459.70	300.62
460.07	299.13
460.43	297.37
460.80	295.80
461.17	294.37
461.54	292.87
461.91	291.44
462.27	289.99
462.64	288.78
463.01	287.45
463.38	286.15
463.74	284.76
464.11	283.57
464.48	282.60
464.85	281.52
465.21	280.63
465.58	279.72
465.95	278.67
466.32	277.78
466.68	276.87
467.05	275.97
467.42	275.07
467.78	274.16
468.15	273.32
468.52	272.66
468.88	271.83
469.25	271.11
469.62	270.46
469.98	269.79
470.35	269.12
470.72	268.52
471.08	267.86
471.45	267.37
471.82	266.83
472.18	266.26
472.55	265.82
472.92	265.31
473.28	264.85
473.65	264.39
474.02	263.95
474.38	263.59
474.75	263.27
475.11	262.97
475.48	262.70
475.85	262.46
476.21	262.24
476.58	262.06
476.94	261.90
477.31	261.74
477.67	261.60
478.04	261.52
478.41	261.47
478.77	261.55
479.14	261.48
479.50	261.50
479.87	261.58
480.23	261.64
480.60	261.73
480.96	261.85
481.33	262.10
481.69	262.32
482.06	262.51
482.42	262.76
482.79	263.03
483.15	263.32
483.52	263.73
483.88	264.11
484.25	264.51
484.61	264.94
484.98	265.40
485.34	266.02
485.71	266.61
486.07	267.21
486.44	267.81
486.80	268.54
487.17	269.27
487.53	270.11
487.90	270.97
488.26	271.92
488.62	272.87
488.99	273.81
489.35	274.84
489.72	275.99
490.08	277.19
490.44	278.42
490.81	279.77
491.17	281.08
491.54	282.53
491.90	284.03
492.26	285.69
492.63	287.41
492.99	289.15
493.36	291.06
493.72	293.14
494.08	295.21
494.45	297.41
494.81	299.82
495.17	302.20
495.54	304.77
495.90	307.40
496.26	310.21
496.63	313.19
496.99	316.29
497.35	319.54
497.72	322.93
498.08	326.48
498.44	330.11
498.80	334.05
499.17	338.04
499.53	342.26
499.89	346.60
500.26	351.04
500.62	355.69
500.98	360.60
501.34	365.63
501.71	370.92
502.07	376.34
502.43	381.88
502.79	387.67
503.16	393.67
503.52	399.90
503.88	406.25
504.24	412.83
504.60	419.68
504.97	426.71
505.33	434.01
505.69	441.64
506.05	449.41
506.41	457.20
506.78	465.33
507.14	473.63
507.50	482.33
507.86	491.31
508.22	500.47
508.59	509.57
508.95	519.02
509.31	528.71
509.67	538.71
510.03	548.95
510.39	559.45
510.75	570.14
511.12	581.02
511.48	592.19
511.84	603.55
512.20	614.98
512.56	626.80
512.92	638.76
513.28	650.93
513.64	663.23
514.00	675.80
514.37	688.56
514.73	701.51
515.09	714.36
515.45	727.47
515.81	740.87
516.17	754.67
516.53	768.64
516.89	782.73
517.25	796.69
517.61	810.82
517.97	825.10
518.33	839.37
518.69	854.00
519.05	868.74
519.41	883.62
519.77	898.82
520.13	913.99
520.49	929.15
520.85	944.36
521.21	959.81
521.57	975.80
521.93	991.36
522.29	1007.45
522.65	1023.41
523.01	1039.38
523.37	1055.12
523.73	1070.97
524.09	1086.80
524.45	1102.71
524.81	1119.13
525.17	1135.71
525.53	1152.28
525.89	1168.88
526.25	1185.31
526.61	1201.42
526.97	1217.92
527.33	1234.17
527.68	1250.49
528.04	1266.67
528.40	1282.86
528.76	1299.67
529.12	1315.86
529.48	1332.38
529.84	1348.12
530.20	1364.41
530.56	1381.14
530.91	1398.17
531.27	1414.72
531.63	1430.77
531.99	1447.05
532.35	1462.60
532.71	1478.20
533.07	1494.16
533.42	1509.71
533.78	1525.43
534.14	1541.54
534.50	1556.46
534.86	1572.04
535.21	1587.04
535.57	1602.68
535.93	1617.98
536.29	1632.45
536.65	1647.37
537.00	1661.87
537.36	1676.86
537.72	1691.13
538.08	1705.10
538.44	1718.68
538.79	1732.26
539.15	1745.64
539.51	1759.20
539.87	1773.37
540.22	1786.86
540.58	1800.31
540.94	1813.30
541.29	1825.96
541.65	1838.29
542.01	1851.46
542.37	1863.54
542.72	1875.70
543.08	1887.31
543.44	1899.41
543.79	1910.47
544.15	1921.28
544.51	1932.66
544.87	1943.50
545.22	1954.09
545.58	1964.29
545.94	1973.86
546.29	1983.56
546.65	1993.44
547.01	2002.59
547.36	2011.18
547.72	2019.58
548.07	2027.37
548.43	2035.47
548.79	2043.37
549.14	2050.88
549.50	2057.95
549.86	2065.42
550.21	2072.54
550.57	2079.69
550.92	2086.11
551.28	2093.00
551.64	2099.97
551.99	2106.30
552.35	2112.39
552.70	2118.55
553.06	2124.59
553.41	2131.06
553.77	2137.10
554.13	2143.07
554.48	2149.28
554.84	2154.75
555.19	2159.90
555.55	2165.13
555.90	2169.71
556.26	2174.77
556.61	2179.44
556.97	2183.92
557.32	2188.24
557.68	2192.56
558.03	2196.75
558.39	2200.57
558.74	2205.29
559.10	2209.16
559.45	2212.95
559.81	2217.18
560.16	2221.01
560.52	2224.19
560.87	2227.55
561.23	2230.37
561.58	2233.31
561.94	2235.71
562.29	2238.02
562.64	2240.85
563.00	2243.45
563.35	2247.12
563.71	2250.11
564.06	2253.46
564.42	2256.33
564.77	2259.05
565.12	2261.60
565.48	2263.68
565.83	2265.70
566.19	2267.21
566.54	2268.16
566.89	2269.53
567.25	2270.43
567.60	2272.00
567.96	2273.91
568.31	2274.78
568.66	2276.03
569.02	2276.89
569.37	2277.47
569.72	2278.72
570.08	2279.02
570.43	2279.26
570.78	2278.87
571.14	2277.56
571.49	2276.25
571.84	2276.09
572.20	2275.14
572.55	2274.10
572.90	2272.69
573.26	2271.60
573.61	2269.97
573.96	2268.56
574.31	2265.85
574.67	2263.13
575.02	2259.75
575.37	2256.50
575.72	2253.20
576.08	2249.95
576.43	2246.75
576.78	2243.18
577.13	2239.99
577.49	2237.07
577.84	2233.79
578.19	2230.14
578.54	2226.70
578.90	2222.82
579.25	2217.51
579.60	2212.53
579.95	2207.76
580.30	2202.99
580.66	2197.86
581.01	2193.17
581.36	2188.49
581.71	2184.47
582.06	2180.04
582.42	2175.64
582.77	2170.62
583.12	2166.19
583.47	2161.66
583.82	2156.87
584.17	2151.93
584.53	2146.61
584.88	2141.10
585.23	2135.43
585.58	2130.08
585.93	2124.86
586.28	2120.12
586.63	2115.30
586.98	2110.49
587.34	2105.88
587.69	2101.21
588.04	2096.23
588.39	2090.82
588.74	2084.47
589.09	2078.44
589.44	2071.95
589.79	2066.02
590.14	2060.47
590.49	2054.03
590.84	2047.79
591.19	2041.94
591.54	2035.62
591.89	2028.51
592.25	2022.03
592.60	2014.99
592.95	2007.68
593.30	2000.48
593.65	1993.11
594.00	1986.16
594.35	1979.12
594.70	1971.17
595.05	1964.10
595.40	1956.88
595.75	1949.51
596.10	1943.43
596.45	1936.94
596.80	1930.95
597.15	1924.51
597.50	1917.72
597.85	1911.29
598.19	1904.81
598.54	1897.87
598.89	1891.22
599.24	1885.40
599.59	1878.89
599.94	1872.76
600.29	1866.34
600.64	1859.80
600.99	1852.54
601.34	1845.72
601.69	1838.86
602.04	1832.25
602.39	1824.98
602.74	1818.29
603.08	1811.51
603.43	1804.85
603.78	1797.57
604.13	1790.35
604.48	1783.27
604.83	1776.38
605.18	1769.66
605.53	1761.78
605.87	1753.91
606.22	1746.83
606.57	1739.04
606.92	1731.68
607.27	1724.70
607.62	1718.03
607.96	1711.01
608.31	1704.63
608.66	1697.25
609.01	1689.78
609.36	1682.27
609.70	1674.37
610.05	1666.39
610.40	1658.84
610.75	1650.63
611.10	1643.10
611.44	1634.76
611.79	1626.74
612.14	1618.16
612.49	1609.00
612.83	1600.67
613.18	1592.51
613.53	1584.51
613.88	1575.99
614.22	1567.75
614.57	1559.20
614.92	1551.18
615.27	1543.61
615.61	1535.18
615.96	1527.10
616.31	1519.45
616.65	1512.10
617.00	1504.57
617.35	1496.98
617.70	1488.81
618.04	1480.40
618.39	1472.12
618.74	1464.50
619.08	1456.18
619.43	1448.61
619.78	1441.77
620.12	1434.62
620.47	1427.27
620.82	1419.06
621.16	1411.66
621.51	1404.05
621.85	1396.36
622.20	1387.89
622.55	1379.54
622.89	1371.75
623.24	1364.20
623.59	1356.76
623.93	1349.21
624.28	1342.04
624.62	1334.57
624.97	1327.35
625.32	1320.48
625.66	1313.57
626.01	1306.55
626.35	1299.26
626.70	1291.45
627.04	1283.66
627.39	1275.86
627.73	1268.41
628.08	1261.57
628.43	1254.34
628.77	1247.01
629.12	1239.61
629.46	1232.53
629.81	1225.10
630.15	1217.79
630.50	1210.45
630.84	1202.34
631.19	1194.45
631.53	1186.87
631.88	1179.34
632.22	1171.78
632.57	1164.44
632.91	1156.88
633.26	1149.49
633.60	1141.97
633.95	1134.90
634.29	1127.85
634.64	1121.24
634.98	1113.96
635.32	1106.86
635.67	1100.19
636.01	1093.59
636.36	1086.68
636.70	1080.12
637.05	1073.61
637.39	1067.18
637.73	1060.62
638.08	1054.69
638.42	1048.67
638.77	1042.29
639.11	1035.69
639.45	1029.21
639.80	1022.60
640.14	1016.21
640.49	1009.62
640.83	1003.41
641.17	997.33
641.52	991.05
641.86	984.56
642.20	978.71
642.55	972.25
642.89	965.88
643.23	959.33
643.58	953.60
643.92	947.43
644.26	941.37
644.61	935.36
644.95	929.40
645.29	922.89
645.64	916.20
645.98	909.90
646.32	904.05
646.66	898.10
647.01	892.43
647.35	886.66
647.69	880.82
648.04	875.33
648.38	869.54
648.72	863.62
649.06	857.61
649.41	851.67
649.75	845.85
650.09	839.97
650.43	834.25
650.78	828.19
651.12	822.28
651.46	816.58
651.80	810.87
652.14	805.48
652.49	800.20
652.83	795.03
653.17	789.34
653.51	783.69
653.85	778.34
654.20	772.69
654.54	766.84
654.88	761.09
655.22	755.17
655.56	749.44
655.90	744.04
656.25	738.84
656.59	733.51
656.93	728.48
657.27	723.35
657.61	717.91
657.95	712.84
658.29	707.70
658.64	702.43
658.98	697.09
659.32	691.65
659.66	686.43
660.00	681.19
660.34	676.31
660.68	671.30
661.02	666.25
661.36	661.50
661.70	656.95
662.05	652.63
662.39	648.39
662.73	643.93
663.07	639.51
663.41	635.04
663.75	630.48
664.09	625.90
664.43	621.45
664.77	617.36
665.11	613.02
665.45	608.92
665.79	604.91
666.13	600.82
666.47	596.72
666.81	592.60
667.15	588.45
667.49	584.51
667.83	580.77
668.17	576.86
668.51	572.85
668.85	568.86
669.19	565.05
669.53	561.20
669.87	557.30
670.21	553.57
670.55	549.96
670.89	546.62
671.23	543.23
671.57	539.75
671.91	536.24
672.25	532.75
672.58	529.26
672.92	525.83
673.26	522.64
673.60	519.48
673.94	516.38
674.28	513.45
674.62	510.48
674.96	507.40
675.30	504.44
675.64	501.51
675.97	498.68
676.31	495.77
676.65	492.88
676.99	490.25
677.33	487.39
677.67	484.59
678.01	481.54
678.34	478.53
678.68	475.68
679.02	472.86
679.36	470.15
679.70	467.43
680.04	464.66
680.37	461.88
680.71	459.11
681.05	456.46
681.39	453.74
681.73	451.12
682.06	448.60
682.40	446.09
682.74	443.56
683.08	441.05
683.42	438.44
683.75	435.95
684.09	433.41
684.43	430.95
684.77	428.54
685.10	426.21
685.44	423.95
685.78	421.64
686.12	419.39
686.45	417.09
686.79	414.78
687.13	412.60
687.46	410.42
687.80	408.25
688.14	406.05
688.48	404.03
688.81	401.76
689.15	399.61
689.49	397.50
689.82	395.41
690.16	393.29
690.50	391.39
690.83	389.46
691.17	387.46
691.51	385.58
691.84	383.70
692.18	381.78
692.52	379.80
692.85	377.88
693.19	376.00
693.52	374.16
693.86	372.38
694.20	370.61
694.53	368.78
694.87	366.92
695.21	365.12
695.54	363.24
695.88	361.54
696.21	359.83
696.55	358.15
696.88	356.49
697.22	354.82
697.56	353.17
697.89	351.46
698.23	349.85
698.56	348.22
698.90	346.64
699.23	345.04
699.57	343.51
699.90	341.99
700.24	340.44
700.58	338.97
700.91	337.47
701.25	336.05
701.58	334.72
701.92	333.35
702.25	332.02
702.59	330.70
702.92	329.38
703.26	328.06
703.59	326.78
703.93	325.60
704.26	324.36
704.60	323.07
704.93	321.82
705.26	320.58
705.60	319.40
705.93	318.22
706.27	317.12
706.60	316.03
706.94	314.89
707.27	313.77
707.61	312.63
707.94	311.58
708.27	310.45
708.61	309.36
708.94	308.38
709.28	307.37
709.61	306.38
709.94	305.46
710.28	304.43
710.61	303.40
710.95	302.32
711.28	301.43
711.61	300.46
711.95	299.53
712.28	298.56
712.61	297.59
712.95	296.63
713.28	295.78
713.61	294.89
713.95	294.01
714.28	293.15
714.61	292.31
714.95	291.45
715.28	290.60
715.61	289.70
715.95	288.85
716.28	287.99
716.61	287.18
716.95	286.33
717.28	285.60
717.61	284.85
717.94	284.14
718.28	283.34
718.61	282.62
718.94	281.93
719.27	281.30
719.61	280.64
719.94	280.00
720.27	279.24
720.60	278.57
720.94	278.01
721.27	277.41
721.60	276.81
721.93	276.22
722.27	275.70
722.60	275.15
722.93	274.58
723.26	274.02
723.59	273.43
723.93	272.87
724.26	272.32
724.59	271.76
724.92	271.22
725.25	270.71
725.59	270.21
725.92	269.68
726.25	269.17
726.58	268.70
726.91	268.20
727.24	267.76
727.57	267.27
727.91	266.69
728.24	266.23
728.57	265.75
728.90	265.29
729.23	264.77
729.56	264.36
729.89	263.89
730.22	263.41
730.55	262.95
730.89	262.51
731.22	262.04
731.55	261.64
731.88	261.20
732.21	260.77
732.54	260.31
732.87	259.89
733.20	259.50
733.53	259.09
733.86	258.77
734.19	258.36
734.52	257.97
734.85	257.71
735.18	257.31
735.51	256.95
735.84	256.57
736.17	256.21
736.50	255.81
736.83	255.57
737.16	255.27
737.49	254.96
737.82	254.61
738.15	254.31
738.48	253.95
738.81	253.58
739.14	253.26
739.47	252.95
739.80	252.67
740.13	252.38
740.46	252.04
740.79	251.65
741.12	251.35
741.45	251.05
741.78	250.68
742.11	250.43
742.44	250.10
742.77	249.81
743.10	249.53
743.43	249.24
743.75	248.84
744.08	248.66
744.41	248.39
744.74	248.13
745.07	247.85
745.40	247.63
745.73	247.45
746.06	247.18
746.39	246.93
746.71	246.62
747.04	246.33
747.37	246.07
747.70	245.85
748.03	245.59
748.36	245.36
748.68	245.12
749.01	244.82
749.34	244.60
749.67	244.40
750.00	244.16
750.33	244.01
750.65	243.81
750.98	243.49
751.31	243.25
751.64	243.05
751.97	242.84
752.29	242.59
752.62	242.32
752.95	242.15
753.28	241.93
753.60	241.74
753.93	241.54
754.26	241.36
754.59	241.15
754.91	240.93
755.24	240.73
755.57	240.52
755.90	240.35
756.22	240.17
756.55	239.97
756.88	239.77
757.20	239.51
757.53	239.32
757.86	239.16
758.19	239.01
758.51	238.81
758.84	238.60
759.17	238.45
759.49	238.29
759.82	238.14
760.15	237.97
760.47	237.80
760.80	237.63
761.13	237.47
761.45	237.32
761.78	237.21
762.11	237.08
762.43	236.93
762.76	236.78
763.08	236.63
763.41	236.46
763.74	236.34
764.06	236.18
764.39	236.01
764.71	235.87
765.04	235.73
765.37	235.62
765.69	235.49
766.02	235.30
766.34	235.15
766.67	235.00
767.00	234.90
767.32	234.85
767.65	234.77
767.97	234.65
768.30	234.51
768.62	234.36
768.95	234.21
769.27	234.14
769.60	234.06
769.92	233.90
770.25	233.79
770.57	233.60
770.90	233.50
771.22	233.43
771.55	233.31
771.87	233.20
772.20	233.11
772.52	233.09
772.85	233.16
773.17	233.08
773.50	232.95
773.82	232.86
774.15	232.70
774.47	232.58
774.80	232.51
775.12	232.44
775.45	232.36
775.77	232.29
776.09	232.19
776.42	232.12
776.74	232.11
777.07	232.08
777.39	232.07
777.72	232.00
778.04	231.91
778.36	231.86
778.69	231.78
779.01	231.73
779.33	231.60
779.66	231.41
779.98	231.32
780.31	231.31
780.63	231.29
780.95	231.27
781.28	231.20
781.60	231.15
781.92	231.11
782.25	231.05
782.57	230.98
782.89	230.94
783.22	230.86
783.54	230.80
783.86	230.75
784.19	230.71
784.51	230.70
784.83	230.65
785.16	230.57
785.48	230.55
785.80	230.50
786.12	230.45
786.45	230.41
786.77	230.40
787.09	230.34
