SpectraSuite Data File
++++++++++++++++++++++++++++++++++++
Date: Fri Feb 01 15:23:51 EST 2013
User: group
Dark Spectrum Present: No
Reference Spectrum Present: No
Number of Sampled Component Spectra: 1
Spectrometers: USB2E7196
Integration Time (usec): 35000 (USB2E7196)
Spectra Averaged: 100 (USB2E7196)
Boxcar Smoothing: 10 (USB2E7196)
Correct for Electrical Dark: No (USB2E7196)
Strobe/Lamp Enabled: No (USB2E7196)
Correct for Detector Non-linearity: No (USB2E7196)
Correct for Stray Light: No (USB2E7196)
Number of Pixels in Processed Spectrum: 2048
>>>>>Begin Processed Spectral Data<<<<<
339.09	0.00
339.48	215.76
339.86	217.08
340.24	218.03
340.63	219.84
341.01	222.47
341.39	222.06
341.78	223.49
342.16	224.76
342.54	225.35
342.93	213.67
343.31	224.49
343.69	225.01
344.07	225.45
344.46	225.88
344.84	226.25
345.22	226.46
345.60	226.71
345.99	226.92
346.37	227.06
346.75	227.16
347.13	227.20
347.52	227.28
347.90	227.37
348.28	227.42
348.66	227.44
349.05	227.45
349.43	227.47
349.81	227.50
350.19	227.52
350.57	227.59
350.96	227.65
351.34	227.73
351.72	227.79
352.10	227.85
352.48	227.93
352.87	227.96
353.25	228.04
353.63	228.09
354.01	228.13
354.39	228.17
354.77	228.20
355.15	228.27
355.54	228.28
355.92	228.33
356.30	228.37
356.68	228.51
357.06	228.57
357.44	228.59
357.82	228.66
358.20	228.72
358.58	228.75
358.97	228.80
359.35	228.84
359.73	228.93
360.11	228.98
360.49	229.00
360.87	229.06
361.25	229.08
361.63	229.17
362.01	229.20
362.39	229.23
362.77	229.29
363.15	229.35
363.53	229.39
363.91	229.35
364.29	229.39
364.67	229.31
365.05	229.34
365.43	229.39
365.81	229.38
366.19	229.40
366.57	229.43
366.95	229.42
367.33	229.41
367.71	229.36
368.09	229.37
368.47	229.36
368.85	229.32
369.23	229.32
369.61	229.21
369.99	229.20
370.37	229.20
370.75	229.19
371.13	229.12
371.51	229.08
371.89	229.07
372.27	229.02
372.65	228.98
373.03	228.93
373.41	228.84
373.78	228.79
374.16	228.71
374.54	228.63
374.92	228.58
375.30	228.50
375.68	228.43
376.06	228.36
376.44	228.29
376.82	228.21
377.19	228.16
377.57	228.13
377.95	228.02
378.33	227.92
378.71	227.78
379.09	227.70
379.47	227.64
379.84	227.55
380.22	227.49
380.60	227.42
380.98	227.34
381.36	227.29
381.73	227.22
382.11	227.16
382.49	227.10
382.87	227.01
383.25	226.96
383.62	227.05
384.00	226.99
384.38	226.94
384.76	226.96
385.13	226.93
385.51	226.89
385.89	226.86
386.27	226.86
386.64	226.86
387.02	226.84
387.40	226.76
387.78	226.74
388.15	226.67
388.53	226.63
388.91	226.60
389.29	226.58
389.66	226.55
390.04	226.54
390.42	226.54
390.79	226.54
391.17	226.52
391.55	226.38
391.92	226.38
392.30	226.38
392.68	226.37
393.05	226.35
393.43	226.35
393.81	226.37
394.18	226.38
394.56	226.41
394.94	226.44
395.31	226.48
395.69	226.52
396.06	226.59
396.44	226.62
396.82	226.65
397.19	226.73
397.57	226.78
397.95	226.84
398.32	226.87
398.70	226.95
399.07	227.05
399.45	227.13
399.82	227.21
400.20	227.26
400.58	227.30
400.95	227.35
401.33	227.46
401.70	227.62
402.08	227.74
402.45	227.82
402.83	227.94
403.20	228.05
403.58	228.19
403.95	228.32
404.33	228.48
404.71	228.59
405.08	228.78
405.46	228.92
405.83	229.05
406.21	229.22
406.58	229.37
406.96	229.50
407.33	229.68
407.70	229.88
408.08	230.13
408.45	230.40
408.83	230.63
409.20	230.84
409.58	231.01
409.95	231.23
410.33	231.50
410.70	231.75
411.08	232.09
411.45	232.38
411.82	232.64
412.20	232.98
412.57	233.40
412.95	233.69
413.32	234.12
413.69	234.56
414.07	235.01
414.44	235.48
414.82	235.95
415.19	236.53
415.56	237.07
415.94	237.65
416.31	238.28
416.68	238.92
417.06	239.62
417.43	240.31
417.81	241.09
418.18	241.87
418.55	242.71
418.93	243.56
419.30	244.46
419.67	245.40
420.04	246.37
420.42	247.34
420.79	248.54
421.16	249.67
421.54	250.84
421.91	252.01
422.28	253.23
422.66	254.57
423.03	255.86
423.40	257.17
423.77	258.56
424.15	259.98
424.52	261.46
424.89	263.05
425.26	264.62
425.64	266.07
426.01	267.68
426.38	269.31
426.75	270.99
427.13	272.65
427.50	274.48
427.87	276.34
428.24	278.21
428.61	279.96
428.99	281.91
429.36	284.01
429.73	286.14
430.10	288.19
430.47	290.25
430.85	292.36
431.22	294.65
431.59	297.03
431.96	299.26
432.33	301.76
432.70	304.17
433.08	306.98
433.45	309.64
433.82	312.26
434.19	315.16
434.56	317.96
434.93	320.67
435.30	323.30
435.68	326.19
436.05	329.06
436.42	331.83
436.79	334.35
437.16	337.05
437.53	339.87
437.90	342.70
438.27	345.48
438.64	348.33
439.01	350.91
439.38	353.20
439.75	355.40
440.13	357.91
440.50	360.23
440.87	362.10
441.24	364.09
441.61	366.21
441.98	367.74
442.35	369.55
442.72	371.41
443.09	373.25
443.46	374.26
443.83	374.83
444.20	375.31
444.57	376.16
444.94	376.45
445.31	376.81
445.68	377.14
446.05	377.22
446.42	376.84
446.79	376.41
447.16	376.00
447.53	375.69
447.90	374.48
448.27	373.36
448.64	371.73
449.01	370.52
449.37	368.59
449.74	366.71
450.11	364.43
450.48	361.97
450.85	359.42
451.22	357.33
451.59	355.35
451.96	353.43
452.33	350.86
452.70	348.49
453.07	345.65
453.43	342.80
453.80	340.02
454.17	337.36
454.54	334.83
454.91	332.07
455.28	329.41
455.65	326.93
456.02	324.45
456.38	322.31
456.75	319.65
457.12	317.36
457.49	315.09
457.86	312.92
458.23	311.08
458.59	309.05
458.96	306.91
459.33	305.02
459.70	303.14
460.07	301.60
460.43	299.88
460.80	298.23
461.17	296.73
461.54	295.22
461.91	293.76
462.27	292.28
462.64	291.00
463.01	289.58
463.38	288.28
463.74	286.91
464.11	285.73
464.48	284.71
464.85	283.61
465.21	282.74
465.58	281.81
465.95	280.74
466.32	279.79
466.68	278.89
467.05	277.99
467.42	277.08
467.78	276.13
468.15	275.26
468.52	274.55
468.88	273.71
469.25	272.94
469.62	272.28
469.98	271.61
470.35	270.98
470.72	270.37
471.08	269.71
471.45	269.19
471.82	268.64
472.18	268.01
472.55	267.55
472.92	267.04
473.28	266.56
473.65	266.05
474.02	265.61
474.38	265.20
474.75	264.91
475.11	264.57
475.48	264.29
475.85	264.06
476.21	263.85
476.58	263.63
476.94	263.48
477.31	263.30
477.67	263.14
478.04	263.00
478.41	262.94
478.77	263.00
479.14	262.94
479.50	262.90
479.87	263.01
480.23	263.11
480.60	263.16
480.96	263.23
481.33	263.44
481.69	263.68
482.06	263.90
482.42	264.07
482.79	264.31
483.15	264.65
483.52	265.01
483.88	265.39
484.25	265.79
484.61	266.22
484.98	266.69
485.34	267.24
485.71	267.84
486.07	268.46
486.44	269.00
486.80	269.71
487.17	270.48
487.53	271.32
487.90	272.18
488.26	273.13
488.62	274.17
488.99	275.16
489.35	276.17
489.72	277.25
490.08	278.48
490.44	279.71
490.81	281.04
491.17	282.40
491.54	283.89
491.90	285.41
492.26	287.06
492.63	288.77
492.99	290.55
493.36	292.41
493.72	294.47
494.08	296.59
494.45	298.82
494.81	301.22
495.17	303.63
495.54	306.17
495.90	308.83
496.26	311.61
496.63	314.53
496.99	317.65
497.35	320.93
497.72	324.31
498.08	327.88
498.44	331.54
498.80	335.45
499.17	339.46
499.53	343.66
499.89	348.03
500.26	352.52
500.62	357.21
500.98	362.25
501.34	367.29
501.71	372.66
502.07	378.11
502.43	383.67
502.79	389.47
503.16	395.55
503.52	401.85
503.88	408.25
504.24	414.89
504.60	421.76
504.97	428.94
505.33	436.30
505.69	444.00
506.05	451.79
506.41	459.70
506.78	467.88
507.14	476.34
507.50	485.08
507.86	494.09
508.22	503.20
508.59	512.34
508.95	522.00
509.31	531.77
509.67	541.88
510.03	552.17
510.39	562.69
510.75	573.49
511.12	584.43
511.48	595.73
511.84	607.22
512.20	618.76
512.56	630.66
512.92	642.79
513.28	655.06
513.64	667.54
514.00	680.22
514.37	693.17
514.73	706.23
515.09	719.28
515.45	732.63
515.81	746.29
516.17	760.31
516.53	774.39
516.89	788.53
517.25	802.64
517.61	817.14
517.97	831.66
518.33	846.17
518.69	860.93
519.05	875.92
519.41	891.01
519.77	906.60
520.13	922.12
520.49	937.53
520.85	953.02
521.21	968.72
521.57	984.99
521.93	1000.86
522.29	1017.30
522.65	1033.46
523.01	1049.67
523.37	1065.80
523.73	1082.00
524.09	1098.13
524.45	1114.45
524.81	1131.23
525.17	1148.05
525.53	1165.08
525.89	1181.94
526.25	1198.77
526.61	1215.29
526.97	1232.17
527.33	1248.64
527.68	1265.30
528.04	1281.84
528.40	1298.48
528.76	1315.73
529.12	1332.38
529.48	1349.24
529.84	1365.31
530.20	1382.09
530.56	1399.22
530.91	1416.58
531.27	1433.43
531.63	1450.02
531.99	1466.77
532.35	1482.74
532.71	1498.72
533.07	1514.94
533.42	1530.86
533.78	1546.94
534.14	1563.25
534.50	1578.72
534.86	1594.84
535.21	1610.05
535.57	1626.00
535.93	1641.56
536.29	1656.35
536.65	1671.45
537.00	1686.43
537.36	1701.78
537.72	1716.38
538.08	1730.75
538.44	1744.76
538.79	1758.77
539.15	1772.60
539.51	1786.45
539.87	1800.94
540.22	1814.72
540.58	1828.62
540.94	1842.18
541.29	1855.21
541.65	1867.93
542.01	1881.17
542.37	1893.40
542.72	1905.96
543.08	1917.81
543.44	1930.36
543.79	1941.66
544.15	1952.78
544.51	1964.21
544.87	1975.27
545.22	1986.08
545.58	1996.32
545.94	2006.10
546.29	2015.95
546.65	2025.79
547.01	2035.03
547.36	2043.71
547.72	2052.25
548.07	2060.06
548.43	2068.24
548.79	2076.43
549.14	2083.99
549.50	2091.41
549.86	2099.10
550.21	2106.40
550.57	2113.56
550.92	2120.11
551.28	2127.25
551.64	2134.32
551.99	2140.92
552.35	2147.09
552.70	2153.33
553.06	2159.39
553.41	2165.71
553.77	2171.67
554.13	2177.66
554.48	2183.80
554.84	2189.26
555.19	2194.55
555.55	2199.63
555.90	2203.99
556.26	2208.77
556.61	2213.61
556.97	2217.69
557.32	2221.83
557.68	2225.97
558.03	2230.45
558.39	2234.26
558.74	2238.85
559.10	2242.75
559.45	2246.35
559.81	2250.63
560.16	2254.44
560.52	2257.78
560.87	2261.17
561.23	2263.77
561.58	2266.65
561.94	2269.10
562.29	2271.47
562.64	2274.10
563.00	2276.80
563.35	2280.35
563.71	2283.40
564.06	2286.56
564.42	2289.37
564.77	2291.87
565.12	2294.10
565.48	2295.87
565.83	2297.47
566.19	2298.65
566.54	2299.54
566.89	2300.65
567.25	2301.02
567.60	2302.25
567.96	2303.81
568.31	2304.67
568.66	2305.70
569.02	2306.34
569.37	2306.64
569.72	2307.45
570.08	2307.48
570.43	2307.39
570.78	2306.68
571.14	2305.06
571.49	2303.59
571.84	2303.34
572.20	2302.02
572.55	2300.92
572.90	2299.24
573.26	2298.00
573.61	2296.29
573.96	2294.47
574.31	2291.45
574.67	2288.56
575.02	2284.72
575.37	2281.18
575.72	2277.22
576.08	2273.98
576.43	2270.72
576.78	2266.94
577.13	2263.77
577.49	2260.68
577.84	2257.22
578.19	2253.53
578.54	2249.89
578.90	2245.57
579.25	2239.85
579.60	2234.92
579.95	2229.75
580.30	2224.75
580.66	2219.38
581.01	2214.33
581.36	2209.36
581.71	2205.14
582.06	2200.68
582.42	2196.20
582.77	2190.96
583.12	2186.27
583.47	2181.39
583.82	2175.93
584.17	2170.59
584.53	2164.90
584.88	2159.19
585.23	2153.21
585.58	2147.58
585.93	2142.09
586.28	2137.26
586.63	2132.18
586.98	2127.01
587.34	2122.38
587.69	2117.39
588.04	2112.08
588.39	2106.32
588.74	2099.64
589.09	2093.44
589.44	2086.45
589.79	2080.49
590.14	2074.87
590.49	2068.25
590.84	2061.84
591.19	2056.01
591.54	2049.53
591.89	2042.14
592.25	2035.28
592.60	2028.16
592.95	2020.47
593.30	2012.99
593.65	2005.41
594.00	1998.28
594.35	1991.00
594.70	1982.78
595.05	1975.39
595.40	1968.08
595.75	1960.62
596.10	1954.28
596.45	1947.28
596.80	1940.92
597.15	1934.11
597.50	1926.84
597.85	1920.45
598.19	1913.66
598.54	1906.41
598.89	1899.73
599.24	1893.79
599.59	1887.02
599.94	1880.67
600.29	1874.41
600.64	1867.77
600.99	1860.21
601.34	1853.27
601.69	1846.22
602.04	1839.32
602.39	1832.00
602.74	1825.01
603.08	1818.24
603.43	1811.65
603.78	1804.40
604.13	1797.31
604.48	1789.96
604.83	1783.10
605.18	1775.87
605.53	1767.85
605.87	1759.77
606.22	1752.50
606.57	1744.54
606.92	1737.17
607.27	1729.95
607.62	1722.92
607.96	1715.56
608.31	1708.88
608.66	1701.22
609.01	1693.72
609.36	1686.10
609.70	1677.93
610.05	1669.91
610.40	1662.10
610.75	1653.61
611.10	1645.91
611.44	1637.45
611.79	1629.49
612.14	1620.73
612.49	1611.67
612.83	1603.29
613.18	1595.16
613.53	1587.03
613.88	1578.43
614.22	1570.12
614.57	1561.65
614.92	1553.67
615.27	1546.11
615.61	1537.70
615.96	1529.78
616.31	1522.08
616.65	1514.74
617.00	1507.30
617.35	1499.58
617.70	1491.20
618.04	1482.69
618.39	1474.44
618.74	1466.96
619.08	1458.72
619.43	1451.13
619.78	1444.25
620.12	1437.18
620.47	1429.69
620.82	1421.53
621.16	1414.15
621.51	1406.64
621.85	1398.89
622.20	1390.24
622.55	1381.95
622.89	1374.08
623.24	1366.54
623.59	1359.20
623.93	1351.62
624.28	1344.38
624.62	1336.83
624.97	1329.78
625.32	1323.07
625.66	1316.23
626.01	1308.83
626.35	1301.31
626.70	1293.65
627.04	1285.94
627.39	1278.14
627.73	1270.69
628.08	1263.76
628.43	1256.36
628.77	1248.89
629.12	1241.36
629.46	1234.29
629.81	1226.90
630.15	1219.78
630.50	1212.39
630.84	1204.18
631.19	1196.36
631.53	1188.75
631.88	1181.23
632.22	1173.52
632.57	1166.17
632.91	1158.54
633.26	1151.26
633.60	1143.98
633.95	1136.85
634.29	1129.82
634.64	1123.17
634.98	1115.88
635.32	1108.75
635.67	1102.31
636.01	1095.74
636.36	1088.93
636.70	1082.41
637.05	1075.88
637.39	1069.43
637.73	1062.83
638.08	1057.00
638.42	1050.95
638.77	1044.71
639.11	1038.14
639.45	1031.82
639.80	1025.14
640.14	1018.65
640.49	1012.10
640.83	1005.79
641.17	999.57
641.52	993.29
641.86	986.87
642.20	980.96
642.55	974.73
642.89	968.10
643.23	961.49
643.58	955.78
643.92	949.55
644.26	943.41
644.61	937.45
644.95	931.49
645.29	924.85
645.64	918.18
645.98	911.81
646.32	906.06
646.66	900.01
647.01	894.24
647.35	888.60
647.69	882.82
648.04	877.21
648.38	871.43
648.72	865.31
649.06	859.20
649.41	853.40
649.75	847.31
650.09	841.46
650.43	835.71
650.78	829.49
651.12	823.58
651.46	817.88
651.80	812.06
652.14	806.59
652.49	801.25
652.83	796.05
653.17	790.34
653.51	784.52
653.85	779.15
654.20	773.50
654.54	767.48
654.88	761.70
655.22	755.83
655.56	750.19
655.90	744.82
656.25	739.57
656.59	734.21
656.93	729.17
657.27	723.96
657.61	718.51
657.95	713.42
658.29	708.33
658.64	703.05
658.98	697.81
659.32	692.31
659.66	687.09
660.00	681.74
660.34	676.78
660.68	671.93
661.02	666.93
661.36	662.24
661.70	657.78
662.05	653.45
662.39	649.17
662.73	644.72
663.07	640.40
663.41	635.95
663.75	631.43
664.09	626.90
664.43	622.56
664.77	618.51
665.11	614.33
665.45	610.22
665.79	606.12
666.13	602.00
666.47	598.01
666.81	593.89
667.15	589.82
667.49	585.94
667.83	582.21
668.17	578.23
668.51	574.12
668.85	570.15
669.19	566.34
669.53	562.44
669.87	558.49
670.21	554.74
670.55	551.12
670.89	547.65
671.23	544.23
671.57	540.68
671.91	537.15
672.25	533.63
672.58	530.12
672.92	526.80
673.26	523.63
673.60	520.46
673.94	517.32
674.28	514.44
674.62	511.50
674.96	508.31
675.30	505.44
675.64	502.57
675.97	499.78
676.31	496.88
676.65	494.01
676.99	491.31
677.33	488.50
677.67	485.73
678.01	482.78
678.34	479.78
678.68	476.97
679.02	474.11
679.36	471.31
679.70	468.55
680.04	465.77
680.37	462.83
680.71	460.08
681.05	457.46
681.39	454.73
681.73	452.06
682.06	449.55
682.40	447.02
682.74	444.55
683.08	442.01
683.42	439.37
683.75	436.90
684.09	434.38
684.43	431.85
684.77	429.35
685.10	426.97
685.44	424.69
685.78	422.44
686.12	420.24
686.45	417.97
686.79	415.71
687.13	413.51
687.46	411.39
687.80	409.24
688.14	407.06
688.48	404.97
688.81	402.76
689.15	400.64
689.49	398.48
689.82	396.34
690.16	394.26
690.50	392.37
690.83	390.43
691.17	388.49
691.51	386.64
691.84	384.81
692.18	382.93
692.52	380.90
692.85	378.97
693.19	377.10
693.52	375.34
693.86	373.52
694.20	371.74
694.53	369.94
694.87	368.07
695.21	366.23
695.54	364.45
695.88	362.73
696.21	360.96
696.55	359.26
696.88	357.60
697.22	355.97
697.56	354.32
697.89	352.65
698.23	351.06
698.56	349.46
698.90	347.83
699.23	346.16
699.57	344.68
699.90	343.16
700.24	341.59
700.58	340.04
700.91	338.56
701.25	337.14
701.58	335.78
701.92	334.43
702.25	333.10
702.59	331.71
702.92	330.40
703.26	329.10
703.59	327.82
703.93	326.65
704.26	325.42
704.60	324.16
704.93	322.88
705.26	321.60
705.60	320.39
705.93	319.28
706.27	318.27
706.60	317.19
706.94	316.10
707.27	314.96
707.61	313.89
707.94	312.86
708.27	311.73
708.61	310.67
708.94	309.67
709.28	308.68
709.61	307.70
709.94	306.77
710.28	305.75
710.61	304.81
710.95	303.73
711.28	302.85
711.61	301.90
711.95	300.98
712.28	300.00
712.61	299.02
712.95	298.04
713.28	297.14
713.61	296.26
713.95	295.35
714.28	294.51
714.61	293.66
714.95	292.82
715.28	292.02
715.61	291.16
715.95	290.31
716.28	289.48
716.61	288.67
716.95	287.87
717.28	287.15
717.61	286.39
717.94	285.64
718.28	284.79
718.61	284.10
718.94	283.46
719.27	282.85
719.61	282.22
719.94	281.62
720.27	280.91
720.60	280.23
720.94	279.62
721.27	279.06
721.60	278.50
721.93	277.92
722.27	277.36
722.60	276.80
722.93	276.23
723.26	275.71
723.59	275.14
723.93	274.59
724.26	274.01
724.59	273.47
724.92	272.96
725.25	272.52
725.59	271.99
725.92	271.46
726.25	270.99
726.58	270.50
726.91	269.98
727.24	269.52
727.57	269.10
727.91	268.59
728.24	268.14
728.57	267.63
728.90	267.17
729.23	266.67
729.56	266.28
729.89	265.84
730.22	265.35
730.55	264.93
730.89	264.45
731.22	264.04
731.55	263.61
731.88	263.18
732.21	262.73
732.54	262.33
732.87	261.93
733.20	261.51
733.53	261.14
733.86	260.75
734.19	260.37
734.52	259.96
734.85	259.69
735.18	259.27
735.51	258.88
735.84	258.50
736.17	258.13
736.50	257.73
736.83	257.48
737.16	257.14
737.49	256.77
737.82	256.43
738.15	256.10
738.48	255.73
738.81	255.40
739.14	255.04
739.47	254.70
739.80	254.38
740.13	254.04
740.46	253.68
740.79	253.38
741.12	253.06
741.45	252.72
741.78	252.32
742.11	252.01
742.44	251.68
742.77	251.38
743.10	251.06
743.43	250.74
743.75	250.35
744.08	250.20
744.41	249.93
744.74	249.68
745.07	249.41
745.40	249.22
745.73	248.99
746.06	248.71
746.39	248.45
746.71	248.14
747.04	247.88
747.37	247.59
747.70	247.33
748.03	247.07
748.36	246.85
748.68	246.62
749.01	246.36
749.34	246.14
749.67	245.93
750.00	245.72
750.33	245.56
750.65	245.32
750.98	244.98
751.31	244.72
751.64	244.50
751.97	244.32
752.29	244.05
752.62	243.78
752.95	243.54
753.28	243.35
753.60	243.13
753.93	242.95
754.26	242.78
754.59	242.58
754.91	242.41
755.24	242.23
755.57	242.04
755.90	241.86
756.22	241.65
756.55	241.44
756.88	241.25
757.20	241.01
757.53	240.84
757.86	240.66
758.19	240.55
758.51	240.38
758.84	240.16
759.17	240.00
759.49	239.83
759.82	239.74
760.15	239.58
760.47	239.48
760.80	239.31
761.13	239.20
761.45	239.04
761.78	238.88
762.11	238.73
762.43	238.60
762.76	238.47
763.08	238.41
763.41	238.30
763.74	238.17
764.06	238.07
764.39	237.93
764.71	237.82
765.04	237.71
765.37	237.57
765.69	237.46
766.02	237.35
766.34	237.24
766.67	237.13
767.00	237.03
767.32	236.96
767.65	236.92
767.97	236.80
768.30	236.69
768.62	236.60
768.95	236.50
769.27	236.41
769.60	236.33
769.92	236.20
770.25	236.08
770.57	235.98
770.90	235.91
771.22	235.80
771.55	235.72
771.87	235.61
772.20	235.50
772.52	235.51
772.85	235.50
773.17	235.44
773.50	235.33
773.82	235.22
774.15	235.07
774.47	234.94
774.80	234.83
775.12	234.69
775.45	234.58
775.77	234.51
776.09	234.40
776.42	234.25
776.74	234.17
777.07	234.06
777.39	233.97
777.72	233.83
778.04	233.78
778.36	233.69
778.69	233.62
779.01	233.55
779.33	233.39
779.66	233.24
779.98	233.12
780.31	233.04
780.63	233.00
780.95	232.94
781.28	232.88
781.60	232.79
781.92	232.79
782.25	232.73
782.57	232.65
782.89	232.56
783.22	232.52
783.54	232.44
783.86	232.39
784.19	232.33
784.51	232.31
784.83	232.22
785.16	232.13
785.48	232.05
785.80	232.02
786.12	231.94
786.45	231.87
786.77	231.85
787.09	231.80
