SpectraSuite Data File
++++++++++++++++++++++++++++++++++++
Date: Fri Feb 01 17:11:52 EST 2013
User: group
Dark Spectrum Present: No
Reference Spectrum Present: No
Number of Sampled Component Spectra: 1
Spectrometers: USB2E7196
Integration Time (usec): 35000 (USB2E7196)
Spectra Averaged: 100 (USB2E7196)
Boxcar Smoothing: 10 (USB2E7196)
Correct for Electrical Dark: No (USB2E7196)
Strobe/Lamp Enabled: No (USB2E7196)
Correct for Detector Non-linearity: No (USB2E7196)
Correct for Stray Light: No (USB2E7196)
Number of Pixels in Processed Spectrum: 2048
>>>>>Begin Processed Spectral Data<<<<<
339.09	0.00
339.48	212.82
339.86	214.67
340.24	215.87
340.63	217.55
341.01	220.48
341.39	220.10
341.78	221.60
342.16	223.61
342.54	223.70
342.93	211.73
343.31	222.41
343.69	222.99
344.07	223.47
344.46	223.91
344.84	224.28
345.22	224.50
345.60	224.73
345.99	224.91
346.37	224.99
346.75	225.06
347.13	225.12
347.52	225.18
347.90	225.28
348.28	225.30
348.66	225.34
349.05	225.36
349.43	225.40
349.81	225.43
350.19	225.50
350.57	225.55
350.96	225.64
351.34	225.73
351.72	225.80
352.10	225.88
352.48	225.95
352.87	226.02
353.25	226.09
353.63	226.18
354.01	226.23
354.39	226.31
354.77	226.42
355.15	226.52
355.54	226.59
355.92	226.60
356.30	226.68
356.68	226.83
357.06	226.90
357.44	226.95
357.82	227.00
358.20	227.04
358.58	227.10
358.97	227.16
359.35	227.23
359.73	227.29
360.11	227.34
360.49	227.41
360.87	227.45
361.25	227.52
361.63	227.58
362.01	227.63
362.39	227.67
362.77	227.65
363.15	227.68
363.53	227.71
363.91	227.76
364.29	227.79
364.67	227.67
365.05	227.65
365.43	227.66
365.81	227.71
366.19	227.76
366.57	227.79
366.95	227.78
367.33	227.77
367.71	227.76
368.09	227.79
368.47	227.79
368.85	227.75
369.23	227.75
369.61	227.70
369.99	227.69
370.37	227.70
370.75	227.76
371.13	227.67
371.51	227.61
371.89	227.55
372.27	227.50
372.65	227.47
373.03	227.48
373.41	227.44
373.78	227.38
374.16	227.30
374.54	227.20
374.92	227.17
375.30	227.08
375.68	227.01
376.06	226.96
376.44	226.85
376.82	226.76
377.19	226.67
377.57	226.61
377.95	226.51
378.33	226.43
378.71	226.30
379.09	226.28
379.47	226.23
379.84	226.16
380.22	226.10
380.60	225.99
380.98	225.91
381.36	225.85
381.73	225.77
382.11	225.72
382.49	225.69
382.87	225.57
383.25	225.55
383.62	225.61
384.00	225.52
384.38	225.47
384.76	225.48
385.13	225.45
385.51	225.40
385.89	225.36
386.27	225.34
386.64	225.32
387.02	225.27
387.40	225.24
387.78	225.22
388.15	225.19
388.53	225.17
388.91	225.14
389.29	225.09
389.66	225.08
390.04	225.01
390.42	225.04
390.79	225.05
391.17	225.03
391.55	224.89
391.92	224.90
392.30	224.92
392.68	224.91
393.05	224.90
393.43	224.92
393.81	224.95
394.18	224.93
394.56	224.91
394.94	224.94
395.31	224.93
395.69	224.97
396.06	225.01
396.44	225.04
396.82	225.08
397.19	225.16
397.57	225.21
397.95	225.28
398.32	225.25
398.70	225.30
399.07	225.38
399.45	225.46
399.82	225.51
400.20	225.56
400.58	225.60
400.95	225.64
401.33	225.70
401.70	225.81
402.08	225.86
402.45	225.95
402.83	226.03
403.20	226.13
403.58	226.25
403.95	226.35
404.33	226.46
404.71	226.54
405.08	226.72
405.46	226.81
405.83	226.94
406.21	227.08
406.58	227.25
406.96	227.36
407.33	227.51
407.70	227.69
408.08	227.93
408.45	228.14
408.83	228.39
409.20	228.62
409.58	228.79
409.95	229.08
410.33	229.34
410.70	229.59
411.08	229.90
411.45	230.14
411.82	230.44
412.20	230.83
412.57	231.26
412.95	231.54
413.32	231.98
413.69	232.40
414.07	232.85
414.44	233.29
414.82	233.79
415.19	234.35
415.56	234.90
415.94	235.47
416.31	236.13
416.68	236.74
417.06	237.48
417.43	238.16
417.81	238.92
418.18	239.70
418.55	240.54
418.93	241.41
419.30	242.33
419.67	243.29
420.04	244.23
420.42	245.20
420.79	246.39
421.16	247.54
421.54	248.76
421.91	249.96
422.28	251.27
422.66	252.60
423.03	253.93
423.40	255.29
423.77	256.70
424.15	258.11
424.52	259.65
424.89	261.26
425.26	262.86
425.64	264.33
426.01	265.97
426.38	267.63
426.75	269.32
427.13	271.07
427.50	272.88
427.87	274.81
428.24	276.76
428.61	278.49
428.99	280.42
429.36	282.54
429.73	284.63
430.10	286.62
430.47	288.65
430.85	290.77
431.22	293.02
431.59	295.44
431.96	297.70
432.33	300.19
432.70	302.55
433.08	305.32
433.45	307.96
433.82	310.57
434.19	313.48
434.56	316.30
434.93	318.95
435.30	321.66
435.68	324.56
436.05	327.38
436.42	330.21
436.79	332.80
437.16	335.53
437.53	338.39
437.90	341.27
438.27	344.07
438.64	346.92
439.01	349.56
439.38	351.81
439.75	353.96
440.13	356.49
440.50	358.86
440.87	360.77
441.24	362.78
441.61	364.94
441.98	366.49
442.35	368.33
442.72	370.17
443.09	371.97
443.46	372.96
443.83	373.57
444.20	374.09
444.57	374.94
444.94	375.21
445.31	375.58
445.68	375.92
446.05	375.99
446.42	375.62
446.79	375.18
447.16	374.72
447.53	374.44
447.90	373.29
448.27	372.18
448.64	370.60
449.01	369.43
449.37	367.48
449.74	365.56
450.11	363.30
450.48	360.87
450.85	358.28
451.22	356.12
451.59	354.11
451.96	352.18
452.33	349.53
452.70	347.18
453.07	344.35
453.43	341.45
453.80	338.73
454.17	336.06
454.54	333.46
454.91	330.72
455.28	328.04
455.65	325.51
456.02	323.06
456.38	320.87
456.75	318.22
457.12	315.97
457.49	313.70
457.86	311.56
458.23	309.72
458.59	307.68
458.96	305.56
459.33	303.69
459.70	301.80
460.07	300.32
460.43	298.57
460.80	296.92
461.17	295.47
461.54	293.95
461.91	292.50
462.27	291.07
462.64	289.84
463.01	288.48
463.38	287.18
463.74	285.76
464.11	284.60
464.48	283.55
464.85	282.42
465.21	281.54
465.58	280.56
465.95	279.41
466.32	278.52
466.68	277.64
467.05	276.73
467.42	275.82
467.78	274.86
468.15	273.95
468.52	273.30
468.88	272.44
469.25	271.64
469.62	270.96
469.98	270.30
470.35	269.68
470.72	269.04
471.08	268.38
471.45	267.86
471.82	267.33
472.18	266.75
472.55	266.30
472.92	265.75
473.28	265.31
473.65	264.88
474.02	264.43
474.38	264.07
474.75	263.73
475.11	263.40
475.48	263.14
475.85	262.92
476.21	262.67
476.58	262.46
476.94	262.30
477.31	262.17
477.67	262.03
478.04	261.88
478.41	261.86
478.77	261.88
479.14	261.79
479.50	261.78
479.87	261.84
480.23	261.94
480.60	262.07
480.96	262.17
481.33	262.34
481.69	262.54
482.06	262.73
482.42	262.91
482.79	263.15
483.15	263.45
483.52	263.83
483.88	264.15
484.25	264.53
484.61	264.98
484.98	265.41
485.34	265.94
485.71	266.54
486.07	267.13
486.44	267.71
486.80	268.43
487.17	269.16
487.53	269.96
487.90	270.79
488.26	271.68
488.62	272.68
488.99	273.66
489.35	274.69
489.72	275.80
490.08	277.05
490.44	278.31
490.81	279.66
491.17	281.03
491.54	282.56
491.90	284.09
492.26	285.75
492.63	287.51
492.99	289.31
493.36	291.20
493.72	293.23
494.08	295.32
494.45	297.59
494.81	300.00
495.17	302.41
495.54	304.98
495.90	307.68
496.26	310.50
496.63	313.50
496.99	316.66
497.35	319.95
497.72	323.34
498.08	326.86
498.44	330.57
498.80	334.46
499.17	338.50
499.53	342.67
499.89	347.03
500.26	351.49
500.62	356.14
500.98	361.11
501.34	366.22
501.71	371.54
502.07	376.95
502.43	382.53
502.79	388.38
503.16	394.43
503.52	400.62
503.88	406.98
504.24	413.51
504.60	420.32
504.97	427.37
505.33	434.63
505.69	442.32
506.05	450.04
506.41	457.89
506.78	465.94
507.14	474.27
507.50	482.87
507.86	491.83
508.22	500.98
508.59	510.10
508.95	519.50
509.31	529.21
509.67	539.16
510.03	549.33
510.39	559.75
510.75	570.41
511.12	581.20
511.48	592.36
511.84	603.72
512.20	615.05
512.56	626.83
512.92	638.85
513.28	650.95
513.64	663.13
514.00	675.66
514.37	688.42
514.73	701.33
515.09	714.18
515.45	727.33
515.81	740.68
516.17	754.42
516.53	768.37
516.89	782.32
517.25	796.27
517.61	810.42
517.97	824.63
518.33	838.80
518.69	853.40
519.05	868.12
519.41	883.00
519.77	898.30
520.13	913.48
520.49	928.71
520.85	943.82
521.21	959.29
521.57	975.19
521.93	990.67
522.29	1006.79
522.65	1022.82
523.01	1038.64
523.37	1054.37
523.73	1070.29
524.09	1086.03
524.45	1102.00
524.81	1118.30
525.17	1134.75
525.53	1151.27
525.89	1167.89
526.25	1184.40
526.61	1200.43
526.97	1216.86
527.33	1233.03
527.68	1249.22
528.04	1265.23
528.40	1281.51
528.76	1298.19
529.12	1314.53
529.48	1331.10
529.84	1346.70
530.20	1362.93
530.56	1379.58
530.91	1396.51
531.27	1412.87
531.63	1428.98
531.99	1445.36
532.35	1461.07
532.71	1476.71
533.07	1492.67
533.42	1508.30
533.78	1524.07
534.14	1540.06
534.50	1555.13
534.86	1570.62
535.21	1585.57
535.57	1601.24
535.93	1616.42
536.29	1631.03
536.65	1645.77
537.00	1660.20
537.36	1675.18
537.72	1689.41
538.08	1703.55
538.44	1717.20
538.79	1730.98
539.15	1744.35
539.51	1757.62
539.87	1771.72
540.22	1785.18
540.58	1798.52
540.94	1811.38
541.29	1823.84
541.65	1836.20
542.01	1849.04
542.37	1861.17
542.72	1873.29
543.08	1884.90
543.44	1897.03
543.79	1908.15
544.15	1918.94
544.51	1930.47
544.87	1941.36
545.22	1952.14
545.58	1962.44
545.94	1972.13
546.29	1981.81
546.65	1991.72
547.01	2000.98
547.36	2009.73
547.72	2018.18
548.07	2026.26
548.43	2034.54
548.79	2042.57
549.14	2050.27
549.50	2057.58
549.86	2065.27
550.21	2072.80
550.57	2080.06
550.92	2086.86
551.28	2093.92
551.64	2101.15
551.99	2107.75
552.35	2114.01
552.70	2120.15
553.06	2126.11
553.41	2132.53
553.77	2138.41
554.13	2144.55
554.48	2150.76
554.84	2156.31
555.19	2161.54
555.55	2166.83
555.90	2171.53
556.26	2176.72
556.61	2181.41
556.97	2186.23
557.32	2190.63
557.68	2194.92
558.03	2199.12
558.39	2203.00
558.74	2207.72
559.10	2211.61
559.45	2215.26
559.81	2219.59
560.16	2223.78
560.52	2227.20
560.87	2230.76
561.23	2233.81
561.58	2236.74
561.94	2239.56
562.29	2241.98
562.64	2245.12
563.00	2247.91
563.35	2251.45
563.71	2254.65
564.06	2257.93
564.42	2260.82
564.77	2263.53
565.12	2266.05
565.48	2268.41
565.83	2270.37
566.19	2272.05
566.54	2273.08
566.89	2274.63
567.25	2275.76
567.60	2277.14
567.96	2279.11
568.31	2280.17
568.66	2281.55
569.02	2282.61
569.37	2283.22
569.72	2284.38
570.08	2284.74
570.43	2284.89
570.78	2284.80
571.14	2283.48
571.49	2282.51
571.84	2282.46
572.20	2281.57
572.55	2280.78
572.90	2279.36
573.26	2278.38
573.61	2276.68
573.96	2275.39
574.31	2272.64
574.67	2269.76
575.02	2266.32
575.37	2263.05
575.72	2259.62
576.08	2256.45
576.43	2253.18
576.78	2249.93
577.13	2246.92
577.49	2243.74
577.84	2240.57
578.19	2236.90
578.54	2233.78
578.90	2230.00
579.25	2224.66
579.60	2219.95
579.95	2215.12
580.30	2210.39
580.66	2205.39
581.01	2200.80
581.36	2196.06
581.71	2192.17
582.06	2188.18
582.42	2184.13
582.77	2179.32
583.12	2175.01
583.47	2170.60
583.82	2166.09
584.17	2160.85
584.53	2155.61
584.88	2150.48
585.23	2144.98
585.58	2139.65
585.93	2134.26
586.28	2129.52
586.63	2124.72
586.98	2119.77
587.34	2115.23
587.69	2110.35
588.04	2105.40
588.39	2099.93
588.74	2093.56
589.09	2087.46
589.44	2080.73
589.79	2074.67
590.14	2068.95
590.49	2062.42
590.84	2056.10
591.19	2050.07
591.54	2043.81
591.89	2036.83
592.25	2030.20
592.60	2023.15
592.95	2015.90
593.30	2008.85
593.65	2001.44
594.00	1994.45
594.35	1987.48
594.70	1979.49
595.05	1972.76
595.40	1965.53
595.75	1958.22
596.10	1952.45
596.45	1945.95
596.80	1940.06
597.15	1933.66
597.50	1927.01
597.85	1920.72
598.19	1914.39
598.54	1907.70
598.89	1901.33
599.24	1895.34
599.59	1889.05
599.94	1882.93
600.29	1876.65
600.64	1870.06
600.99	1862.87
601.34	1856.27
601.69	1849.33
602.04	1842.76
602.39	1835.47
602.74	1828.88
603.08	1822.27
603.43	1815.39
603.78	1808.23
604.13	1800.88
604.48	1793.94
604.83	1787.10
605.18	1780.30
605.53	1772.39
605.87	1764.27
606.22	1756.85
606.57	1748.95
606.92	1741.22
607.27	1734.20
607.62	1727.43
607.96	1720.30
608.31	1713.85
608.66	1706.28
609.01	1698.84
609.36	1691.22
609.70	1683.18
610.05	1675.02
610.40	1667.40
610.75	1659.15
611.10	1651.56
611.44	1643.14
611.79	1634.88
612.14	1626.20
612.49	1617.09
612.83	1608.54
613.18	1600.40
613.53	1592.42
613.88	1583.96
614.22	1575.89
614.57	1567.13
614.92	1559.10
615.27	1551.60
615.61	1543.21
615.96	1535.20
616.31	1527.41
616.65	1520.18
617.00	1512.62
617.35	1504.89
617.70	1496.65
618.04	1488.25
618.39	1479.77
618.74	1472.34
619.08	1464.07
619.43	1456.44
619.78	1449.43
620.12	1442.34
620.47	1434.82
620.82	1426.60
621.16	1419.13
621.51	1411.36
621.85	1403.68
622.20	1395.04
622.55	1386.44
622.89	1378.47
623.24	1370.66
623.59	1363.21
623.93	1355.49
624.28	1348.10
624.62	1340.59
624.97	1333.21
625.32	1326.29
625.66	1319.31
626.01	1312.01
626.35	1304.69
626.70	1296.83
627.04	1289.15
627.39	1281.27
627.73	1273.83
628.08	1266.90
628.43	1259.68
628.77	1252.45
629.12	1245.05
629.46	1237.86
629.81	1230.42
630.15	1223.14
630.50	1215.78
630.84	1207.71
631.19	1199.76
631.53	1192.23
631.88	1184.60
632.22	1176.99
632.57	1169.54
632.91	1161.95
633.26	1154.60
633.60	1147.05
633.95	1139.86
634.29	1132.69
634.64	1126.04
634.98	1118.73
635.32	1111.54
635.67	1104.81
636.01	1098.17
636.36	1091.27
636.70	1084.72
637.05	1078.14
637.39	1071.76
637.73	1065.27
638.08	1059.31
638.42	1053.33
638.77	1047.04
639.11	1040.56
639.45	1034.23
639.80	1027.65
640.14	1021.37
640.49	1014.73
640.83	1008.38
641.17	1002.21
641.52	995.85
641.86	989.31
642.20	983.42
642.55	976.95
642.89	970.56
643.23	963.94
643.58	958.20
643.92	952.07
644.26	946.16
644.61	939.95
644.95	933.99
645.29	927.49
645.64	920.77
645.98	914.32
646.32	908.31
646.66	902.24
647.01	896.46
647.35	890.76
647.69	884.85
648.04	879.28
648.38	873.52
648.72	867.69
649.06	861.75
649.41	855.80
649.75	850.00
650.09	843.95
650.43	838.12
650.78	831.98
651.12	826.04
651.46	820.28
651.80	814.73
652.14	809.23
652.49	803.82
652.83	798.58
653.17	793.00
653.51	787.49
653.85	782.03
654.20	776.43
654.54	770.35
654.88	764.62
655.22	758.75
655.56	753.06
655.90	747.51
656.25	742.21
656.59	736.86
656.93	731.68
657.27	726.59
657.61	721.21
657.95	716.07
658.29	710.89
658.64	705.52
658.98	700.06
659.32	694.53
659.66	689.28
660.00	684.05
660.34	679.04
660.68	674.02
661.02	668.95
661.36	664.24
661.70	659.74
662.05	655.44
662.39	651.10
662.73	646.61
663.07	642.19
663.41	637.74
663.75	633.22
664.09	628.69
664.43	624.30
664.77	620.15
665.11	615.92
665.45	611.70
665.79	607.62
666.13	603.55
666.47	599.44
666.81	595.26
667.15	591.06
667.49	587.12
667.83	583.20
668.17	579.24
668.51	575.12
668.85	571.02
669.19	567.03
669.53	563.22
669.87	559.33
670.21	555.62
670.55	551.92
670.89	548.48
671.23	545.03
671.57	541.45
671.91	537.93
672.25	534.33
672.58	530.89
672.92	527.51
673.26	524.27
673.60	521.14
673.94	518.11
674.28	515.18
674.62	512.24
674.96	509.19
675.30	506.31
675.64	503.46
675.97	500.68
676.31	497.87
676.65	494.91
676.99	492.22
677.33	489.36
677.67	486.57
678.01	483.55
678.34	480.61
678.68	477.76
679.02	474.96
679.36	472.19
679.70	469.41
680.04	466.66
680.37	463.78
680.71	460.97
681.05	458.26
681.39	455.57
681.73	452.88
682.06	450.33
682.40	447.81
682.74	445.19
683.08	442.66
683.42	440.03
683.75	437.57
684.09	434.97
684.43	432.55
684.77	430.08
685.10	427.74
685.44	425.38
685.78	423.11
686.12	420.81
686.45	418.57
686.79	416.31
687.13	414.10
687.46	411.98
687.80	409.85
688.14	407.64
688.48	405.57
688.81	403.39
689.15	401.28
689.49	399.10
689.82	396.99
690.16	394.84
690.50	392.90
690.83	390.96
691.17	388.94
691.51	386.99
691.84	385.09
692.18	383.14
692.52	381.20
692.85	379.17
693.19	377.32
693.52	375.43
693.86	373.57
694.20	371.73
694.53	369.90
694.87	368.04
695.21	366.23
695.54	364.38
695.88	362.54
696.21	360.81
696.55	359.11
696.88	357.43
697.22	355.77
697.56	354.11
697.89	352.44
698.23	350.87
698.56	349.22
698.90	347.65
699.23	346.01
699.57	344.39
699.90	342.87
700.24	341.26
700.58	339.77
700.91	338.27
701.25	336.82
701.58	335.44
701.92	334.02
702.25	332.66
702.59	331.25
702.92	329.93
703.26	328.56
703.59	327.27
703.93	326.04
704.26	324.76
704.60	323.44
704.93	322.10
705.26	320.83
705.60	319.62
705.93	318.42
706.27	317.37
706.60	316.33
706.94	315.18
707.27	314.07
707.61	312.93
707.94	311.87
708.27	310.75
708.61	309.65
708.94	308.65
709.28	307.66
709.61	306.74
709.94	305.77
710.28	304.74
710.61	303.74
710.95	302.64
711.28	301.72
711.61	300.77
711.95	299.86
712.28	298.94
712.61	297.92
712.95	297.00
713.28	296.06
713.61	295.14
713.95	294.27
714.28	293.41
714.61	292.53
714.95	291.69
715.28	290.81
715.61	289.91
715.95	289.03
716.28	288.16
716.61	287.28
716.95	286.46
717.28	285.69
717.61	284.91
717.94	284.20
718.28	283.43
718.61	282.69
718.94	281.98
719.27	281.31
719.61	280.69
719.94	280.00
720.27	279.29
720.60	278.60
720.94	277.98
721.27	277.38
721.60	276.79
721.93	276.17
722.27	275.67
722.60	275.14
722.93	274.59
723.26	274.05
723.59	273.50
723.93	272.93
724.26	272.38
724.59	271.76
724.92	271.22
725.25	270.73
725.59	270.23
725.92	269.73
726.25	269.19
726.58	268.66
726.91	268.22
727.24	267.76
727.57	267.33
727.91	266.83
728.24	266.36
728.57	265.88
728.90	265.42
729.23	264.89
729.56	264.44
729.89	263.95
730.22	263.45
730.55	262.99
730.89	262.59
731.22	262.16
731.55	261.74
731.88	261.29
732.21	260.82
732.54	260.40
732.87	259.96
733.20	259.52
733.53	259.16
733.86	258.77
734.19	258.40
734.52	257.99
734.85	257.68
735.18	257.27
735.51	256.92
735.84	256.55
736.17	256.24
736.50	255.83
736.83	255.60
737.16	255.25
737.49	254.96
737.82	254.59
738.15	254.24
738.48	253.94
738.81	253.63
739.14	253.30
739.47	252.94
739.80	252.61
740.13	252.33
740.46	252.01
740.79	251.68
741.12	251.31
741.45	251.00
741.78	250.64
742.11	250.35
742.44	250.01
742.77	249.72
743.10	249.41
743.43	249.09
743.75	248.73
744.08	248.56
744.41	248.26
744.74	247.99
745.07	247.69
745.40	247.42
745.73	247.19
746.06	246.90
746.39	246.65
746.71	246.38
747.04	246.10
747.37	245.81
747.70	245.52
748.03	245.32
748.36	245.09
748.68	244.85
749.01	244.57
749.34	244.37
749.67	244.15
750.00	243.92
750.33	243.76
750.65	243.49
750.98	243.19
751.31	242.93
751.64	242.69
751.97	242.55
752.29	242.35
752.62	242.11
752.95	241.92
753.28	241.72
753.60	241.50
753.93	241.35
754.26	241.15
754.59	240.92
754.91	240.67
755.24	240.43
755.57	240.23
755.90	240.05
756.22	239.83
756.55	239.62
756.88	239.38
757.20	239.15
757.53	238.97
757.86	238.80
758.19	238.65
758.51	238.52
758.84	238.27
759.17	238.11
759.49	237.93
759.82	237.79
760.15	237.63
760.47	237.49
760.80	237.30
761.13	237.17
761.45	237.06
761.78	236.93
762.11	236.82
762.43	236.65
762.76	236.50
763.08	236.40
763.41	236.30
763.74	236.17
764.06	236.06
764.39	235.91
764.71	235.73
765.04	235.59
765.37	235.43
765.69	235.30
766.02	235.13
766.34	235.02
766.67	234.91
767.00	234.82
767.32	234.79
767.65	234.75
767.97	234.66
768.30	234.55
768.62	234.43
768.95	234.31
769.27	234.23
769.60	234.17
769.92	234.05
770.25	233.91
770.57	233.80
770.90	233.66
771.22	233.61
771.55	233.54
771.87	233.45
772.20	233.34
772.52	233.36
772.85	233.41
773.17	233.29
773.50	233.17
773.82	233.07
774.15	232.91
774.47	232.77
774.80	232.64
775.12	232.52
775.45	232.44
775.77	232.37
776.09	232.29
776.42	232.21
776.74	232.13
777.07	232.08
777.39	232.06
777.72	231.96
778.04	231.87
778.36	231.79
778.69	231.70
779.01	231.64
779.33	231.51
779.66	231.33
779.98	231.28
780.31	231.24
780.63	231.20
780.95	231.14
781.28	231.04
781.60	230.99
781.92	230.95
782.25	230.90
782.57	230.82
782.89	230.76
783.22	230.68
783.54	230.62
783.86	230.52
784.19	230.47
784.51	230.48
784.83	230.41
785.16	230.34
785.48	230.30
785.80	230.25
786.12	230.20
786.45	230.15
786.77	230.11
787.09	230.03
