SpectraSuite Data File
++++++++++++++++++++++++++++++++++++
Date: Fri Feb 01 15:49:55 EST 2013
User: group
Dark Spectrum Present: No
Reference Spectrum Present: No
Number of Sampled Component Spectra: 1
Spectrometers: USB2E7196
Integration Time (usec): 35000 (USB2E7196)
Spectra Averaged: 100 (USB2E7196)
Boxcar Smoothing: 10 (USB2E7196)
Correct for Electrical Dark: No (USB2E7196)
Strobe/Lamp Enabled: No (USB2E7196)
Correct for Detector Non-linearity: No (USB2E7196)
Correct for Stray Light: No (USB2E7196)
Number of Pixels in Processed Spectrum: 2048
>>>>>Begin Processed Spectral Data<<<<<
339.09	0.00
339.48	215.01
339.86	216.63
340.24	216.65
340.63	219.38
341.01	221.85
341.39	221.42
341.78	222.63
342.16	223.89
342.54	224.53
342.93	213.08
343.31	223.85
343.69	224.38
344.07	224.85
344.46	225.32
344.84	225.69
345.22	225.93
345.60	226.20
345.99	226.43
346.37	226.58
346.75	226.70
347.13	226.76
347.52	226.85
347.90	226.96
348.28	227.00
348.66	227.04
349.05	227.03
349.43	227.09
349.81	227.16
350.19	227.22
350.57	227.30
350.96	227.39
351.34	227.47
351.72	227.59
352.10	227.67
352.48	227.75
352.87	227.83
353.25	227.89
353.63	227.95
354.01	228.01
354.39	228.10
354.77	228.19
355.15	228.32
355.54	228.40
355.92	228.43
356.30	228.51
356.68	228.64
357.06	228.72
357.44	228.78
357.82	228.88
358.20	228.94
358.58	229.00
358.97	229.05
359.35	229.12
359.73	229.19
360.11	229.20
360.49	229.27
360.87	229.31
361.25	229.36
361.63	229.45
362.01	229.48
362.39	229.50
362.77	229.52
363.15	229.52
363.53	229.52
363.91	229.52
364.29	229.49
364.67	229.41
365.05	229.42
365.43	229.45
365.81	229.44
366.19	229.49
366.57	229.50
366.95	229.51
367.33	229.51
367.71	229.48
368.09	229.50
368.47	229.46
368.85	229.39
369.23	229.40
369.61	229.30
369.99	229.31
370.37	229.27
370.75	229.25
371.13	229.20
371.51	229.13
371.89	229.08
372.27	229.03
372.65	228.97
373.03	228.95
373.41	228.85
373.78	228.75
374.16	228.64
374.54	228.56
374.92	228.49
375.30	228.40
375.68	228.32
376.06	228.24
376.44	228.16
376.82	228.12
377.19	228.04
377.57	227.98
377.95	227.84
378.33	227.78
378.71	227.64
379.09	227.60
379.47	227.56
379.84	227.47
380.22	227.44
380.60	227.36
380.98	227.23
381.36	227.21
381.73	227.13
382.11	227.08
382.49	227.05
382.87	226.96
383.25	226.88
383.62	226.92
384.00	226.89
384.38	226.85
384.76	226.81
385.13	226.79
385.51	226.76
385.89	226.74
386.27	226.70
386.64	226.69
387.02	226.63
387.40	226.56
387.78	226.56
388.15	226.49
388.53	226.46
388.91	226.45
389.29	226.39
389.66	226.40
390.04	226.39
390.42	226.38
390.79	226.37
391.17	226.38
391.55	226.28
391.92	226.22
392.30	226.26
392.68	226.24
393.05	226.24
393.43	226.24
393.81	226.26
394.18	226.25
394.56	226.28
394.94	226.33
395.31	226.35
395.69	226.42
396.06	226.48
396.44	226.53
396.82	226.55
397.19	226.64
397.57	226.66
397.95	226.71
398.32	226.71
398.70	226.78
399.07	226.86
399.45	226.91
399.82	227.03
400.20	227.08
400.58	227.14
400.95	227.17
401.33	227.29
401.70	227.43
402.08	227.52
402.45	227.62
402.83	227.71
403.20	227.82
403.58	227.90
403.95	228.01
404.33	228.15
404.71	228.29
405.08	228.50
405.46	228.62
405.83	228.75
406.21	228.89
406.58	229.05
406.96	229.18
407.33	229.36
407.70	229.57
408.08	229.79
408.45	230.01
408.83	230.24
409.20	230.44
409.58	230.59
409.95	230.86
410.33	231.12
410.70	231.37
411.08	231.70
411.45	232.00
411.82	232.33
412.20	232.67
412.57	233.09
412.95	233.36
413.32	233.78
413.69	234.18
414.07	234.60
414.44	235.08
414.82	235.59
415.19	236.12
415.56	236.62
415.94	237.18
416.31	237.83
416.68	238.44
417.06	239.15
417.43	239.83
417.81	240.60
418.18	241.36
418.55	242.18
418.93	243.02
419.30	243.93
419.67	244.83
420.04	245.81
420.42	246.81
420.79	248.00
421.16	249.14
421.54	250.34
421.91	251.59
422.28	252.84
422.66	254.14
423.03	255.46
423.40	256.83
423.77	258.23
424.15	259.66
424.52	261.16
424.89	262.78
425.26	264.34
425.64	265.78
426.01	267.40
426.38	269.07
426.75	270.75
427.13	272.46
427.50	274.27
427.87	276.11
428.24	277.93
428.61	279.65
428.99	281.61
429.36	283.74
429.73	285.80
430.10	287.78
430.47	289.84
430.85	291.95
431.22	294.20
431.59	296.57
431.96	298.78
432.33	301.28
432.70	303.64
433.08	306.46
433.45	309.09
433.82	311.72
434.19	314.57
434.56	317.39
434.93	320.06
435.30	322.68
435.68	325.61
436.05	328.47
436.42	331.28
436.79	333.79
437.16	336.47
437.53	339.30
437.90	342.15
438.27	344.91
438.64	347.76
439.01	350.32
439.38	352.59
439.75	354.79
440.13	357.28
440.50	359.66
440.87	361.52
441.24	363.48
441.61	365.67
441.98	367.19
442.35	368.96
442.72	370.82
443.09	372.65
443.46	373.65
443.83	374.25
444.20	374.74
444.57	375.61
444.94	375.93
445.31	376.28
445.68	376.64
446.05	376.72
446.42	376.32
446.79	375.93
447.16	375.46
447.53	375.12
447.90	373.96
448.27	372.81
448.64	371.20
449.01	370.04
449.37	368.04
449.74	366.12
450.11	363.95
450.48	361.46
450.85	358.89
451.22	356.71
451.59	354.67
451.96	352.75
452.33	350.13
452.70	347.73
453.07	344.90
453.43	341.98
453.80	339.20
454.17	336.53
454.54	333.96
454.91	331.26
455.28	328.59
455.65	326.09
456.02	323.61
456.38	321.50
456.75	318.86
457.12	316.60
457.49	314.39
457.86	312.20
458.23	310.36
458.59	308.28
458.96	306.19
459.33	304.36
459.70	302.49
460.07	300.99
460.43	299.29
460.80	297.67
461.17	296.24
461.54	294.81
461.91	293.42
462.27	292.02
462.64	290.79
463.01	289.44
463.38	288.13
463.74	286.75
464.11	285.58
464.48	284.53
464.85	283.42
465.21	282.57
465.58	281.61
465.95	280.50
466.32	279.63
466.68	278.72
467.05	277.82
467.42	276.91
467.78	275.95
468.15	275.08
468.52	274.43
468.88	273.56
469.25	272.71
469.62	272.07
469.98	271.37
470.35	270.74
470.72	270.11
471.08	269.46
471.45	268.93
471.82	268.37
472.18	267.78
472.55	267.38
472.92	266.82
473.28	266.41
473.65	265.95
474.02	265.49
474.38	265.15
474.75	264.80
475.11	264.46
475.48	264.22
475.85	263.96
476.21	263.70
476.58	263.54
476.94	263.43
477.31	263.23
477.67	263.10
478.04	262.93
478.41	262.88
478.77	262.93
479.14	262.87
479.50	262.89
479.87	262.94
480.23	262.95
480.60	263.07
480.96	263.10
481.33	263.32
481.69	263.52
482.06	263.70
482.42	263.92
482.79	264.16
483.15	264.48
483.52	264.82
483.88	265.20
484.25	265.59
484.61	266.02
484.98	266.45
485.34	266.97
485.71	267.60
486.07	268.24
486.44	268.82
486.80	269.54
487.17	270.25
487.53	271.10
487.90	271.98
488.26	272.90
488.62	273.93
488.99	274.91
489.35	276.00
489.72	277.14
490.08	278.37
490.44	279.63
490.81	280.93
491.17	282.37
491.54	283.82
491.90	285.35
492.26	286.99
492.63	288.79
492.99	290.59
493.36	292.48
493.72	294.53
494.08	296.62
494.45	298.88
494.81	301.27
495.17	303.71
495.54	306.26
495.90	308.95
496.26	311.78
496.63	314.73
496.99	317.76
497.35	320.99
497.72	324.40
498.08	327.93
498.44	331.60
498.80	335.50
499.17	339.56
499.53	343.73
499.89	348.12
500.26	352.58
500.62	357.25
500.98	362.20
501.34	367.28
501.71	372.64
502.07	378.08
502.43	383.65
502.79	389.44
503.16	395.53
503.52	401.80
503.88	408.14
504.24	414.78
504.60	421.71
504.97	428.86
505.33	436.12
505.69	443.85
506.05	451.69
506.41	459.59
506.78	467.77
507.14	476.18
507.50	484.88
507.86	493.90
508.22	503.09
508.59	512.30
508.95	521.90
509.31	531.64
509.67	541.77
510.03	552.15
510.39	562.73
510.75	573.52
511.12	584.45
511.48	595.81
511.84	607.27
512.20	618.81
512.56	630.79
512.92	643.03
513.28	655.30
513.64	667.75
514.00	680.42
514.37	693.35
514.73	706.43
515.09	719.50
515.45	732.81
515.81	746.41
516.17	760.40
516.53	774.51
516.89	788.70
517.25	802.82
517.61	817.22
517.97	831.77
518.33	846.16
518.69	860.95
519.05	875.95
519.41	891.07
519.77	906.62
520.13	922.07
520.49	937.46
520.85	952.97
521.21	968.71
521.57	984.92
521.93	1000.70
522.29	1017.18
522.65	1033.46
523.01	1049.68
523.37	1065.80
523.73	1081.91
524.09	1097.95
524.45	1114.28
524.81	1130.91
525.17	1147.70
525.53	1164.56
525.89	1181.45
526.25	1198.25
526.61	1214.61
526.97	1231.47
527.33	1247.83
527.68	1264.47
528.04	1280.96
528.40	1297.46
528.76	1314.48
529.12	1331.15
529.48	1348.01
529.84	1363.87
530.20	1380.34
530.56	1397.39
530.91	1414.72
531.27	1431.56
531.63	1448.09
531.99	1464.74
532.35	1480.67
532.71	1496.55
533.07	1512.73
533.42	1528.63
533.78	1544.67
534.14	1560.93
534.50	1576.09
534.86	1592.03
535.21	1607.07
535.57	1622.93
535.93	1638.51
536.29	1653.10
536.65	1668.11
537.00	1682.85
537.36	1698.20
537.72	1712.73
538.08	1726.96
538.44	1740.68
538.79	1754.53
539.15	1768.17
539.51	1781.72
539.87	1796.19
540.22	1810.11
540.58	1823.86
540.94	1837.17
541.29	1850.10
541.65	1862.80
542.01	1876.12
542.37	1888.40
542.72	1900.96
543.08	1912.62
543.44	1925.05
543.79	1936.44
544.15	1947.48
544.51	1959.05
544.87	1970.08
545.22	1980.95
545.58	1991.29
545.94	2001.02
546.29	2010.93
546.65	2020.83
547.01	2030.17
547.36	2038.86
547.72	2047.08
548.07	2054.87
548.43	2063.07
548.79	2071.13
549.14	2078.65
549.50	2085.89
549.86	2093.65
550.21	2100.91
550.57	2108.19
550.92	2114.57
551.28	2121.64
551.64	2128.66
551.99	2135.18
552.35	2141.25
552.70	2147.39
553.06	2153.36
553.41	2159.79
553.77	2165.81
554.13	2171.82
554.48	2177.99
554.84	2183.32
555.19	2188.56
555.55	2193.62
555.90	2198.14
556.26	2203.03
556.61	2207.76
556.97	2212.12
557.32	2216.15
557.68	2220.33
558.03	2224.60
558.39	2228.49
558.74	2233.11
559.10	2236.95
559.45	2240.64
559.81	2244.96
560.16	2248.80
560.52	2252.01
560.87	2255.27
561.23	2257.86
561.58	2260.68
561.94	2263.12
562.29	2265.56
562.64	2268.33
563.00	2271.07
563.35	2274.59
563.71	2277.52
564.06	2280.68
564.42	2283.53
564.77	2286.07
565.12	2288.23
565.48	2290.15
565.83	2291.85
566.19	2293.23
566.54	2294.12
566.89	2295.23
567.25	2295.72
567.60	2297.00
567.96	2298.69
568.31	2299.73
568.66	2300.79
569.02	2301.49
569.37	2301.83
569.72	2302.67
570.08	2302.66
570.43	2302.76
570.78	2302.06
571.14	2300.61
571.49	2299.32
571.84	2299.05
572.20	2297.89
572.55	2296.81
572.90	2295.14
573.26	2293.81
573.61	2292.05
573.96	2290.27
574.31	2287.28
574.67	2284.28
575.02	2280.63
575.37	2277.25
575.72	2273.28
576.08	2269.96
576.43	2266.62
576.78	2262.87
577.13	2259.75
577.49	2256.76
577.84	2253.19
578.19	2249.45
578.54	2245.76
578.90	2241.46
579.25	2235.63
579.60	2230.66
579.95	2225.71
580.30	2220.74
580.66	2215.61
581.01	2210.65
581.36	2205.87
581.71	2201.73
582.06	2197.42
582.42	2192.91
582.77	2187.68
583.12	2183.22
583.47	2178.53
583.82	2173.52
584.17	2168.31
584.53	2162.78
584.88	2157.14
585.23	2151.20
585.58	2145.85
585.93	2140.45
586.28	2135.79
586.63	2130.95
586.98	2125.75
587.34	2121.17
587.69	2116.39
588.04	2110.97
588.39	2105.29
588.74	2098.68
589.09	2092.40
589.44	2085.53
589.79	2079.62
590.14	2074.01
590.49	2067.34
590.84	2061.02
591.19	2054.89
591.54	2048.38
591.89	2040.94
592.25	2034.10
592.60	2027.06
592.95	2019.29
593.30	2011.84
593.65	2004.19
594.00	1997.18
594.35	1990.05
594.70	1981.88
595.05	1974.45
595.40	1967.36
595.75	1959.96
596.10	1953.79
596.45	1947.04
596.80	1940.94
597.15	1934.26
597.50	1927.14
597.85	1920.82
598.19	1914.02
598.54	1906.87
598.89	1900.34
599.24	1894.46
599.59	1887.70
599.94	1881.41
600.29	1875.18
600.64	1868.76
600.99	1861.36
601.34	1854.49
601.69	1847.67
602.04	1840.85
602.39	1833.72
602.74	1826.78
603.08	1819.95
603.43	1813.16
603.78	1806.00
604.13	1798.68
604.48	1791.33
604.83	1784.38
605.18	1777.27
605.53	1769.28
605.87	1761.38
606.22	1754.11
606.57	1746.18
606.92	1739.06
607.27	1731.99
607.62	1725.00
607.96	1717.66
608.31	1710.88
608.66	1703.25
609.01	1695.52
609.36	1687.82
609.70	1679.73
610.05	1671.60
610.40	1663.92
610.75	1655.57
611.10	1647.84
611.44	1639.44
611.79	1631.57
612.14	1622.94
612.49	1613.87
612.83	1605.48
613.18	1597.30
613.53	1589.24
613.88	1580.61
614.22	1572.18
614.57	1563.59
614.92	1555.55
615.27	1547.93
615.61	1539.70
615.96	1531.69
616.31	1524.14
616.65	1516.80
617.00	1509.21
617.35	1501.61
617.70	1493.21
618.04	1484.71
618.39	1476.48
618.74	1468.94
619.08	1460.56
619.43	1453.07
619.78	1446.08
620.12	1438.94
620.47	1431.45
620.82	1423.28
621.16	1415.95
621.51	1408.38
621.85	1400.63
622.20	1392.09
622.55	1383.75
622.89	1375.95
623.24	1368.32
623.59	1360.95
623.93	1353.41
624.28	1346.26
624.62	1338.73
624.97	1331.57
625.32	1324.93
625.66	1317.94
626.01	1310.64
626.35	1303.19
626.70	1295.29
627.04	1287.57
627.39	1279.80
627.73	1272.38
628.08	1265.50
628.43	1258.21
628.77	1250.86
629.12	1243.45
629.46	1236.34
629.81	1228.98
630.15	1221.69
630.50	1214.30
630.84	1206.04
631.19	1198.16
631.53	1190.60
631.88	1183.09
632.22	1175.53
632.57	1168.12
632.91	1160.50
633.26	1153.07
633.60	1145.81
633.95	1138.80
634.29	1131.81
634.64	1125.20
634.98	1117.84
635.32	1110.58
635.67	1103.96
636.01	1097.35
636.36	1090.45
636.70	1083.89
637.05	1077.24
637.39	1070.76
637.73	1064.26
638.08	1058.41
638.42	1052.48
638.77	1046.09
639.11	1039.43
639.45	1032.96
639.80	1026.26
640.14	1020.06
640.49	1013.60
640.83	1007.17
641.17	1000.94
641.52	994.57
641.86	988.06
642.20	982.29
642.55	976.03
642.89	969.61
643.23	963.06
643.58	957.31
643.92	951.14
644.26	945.07
644.61	939.08
644.95	933.01
645.29	926.32
645.64	919.50
645.98	913.20
646.32	907.37
646.66	901.29
647.01	895.54
647.35	889.63
647.69	883.80
648.04	878.26
648.38	872.36
648.72	866.34
649.06	860.28
649.41	854.35
649.75	848.32
650.09	842.36
650.43	836.56
650.78	830.35
651.12	824.38
651.46	818.64
651.80	812.84
652.14	807.42
652.49	802.14
652.83	796.97
653.17	791.14
653.51	785.42
653.85	780.13
654.20	774.48
654.54	768.47
654.88	762.73
655.22	756.94
655.56	751.27
655.90	745.87
656.25	740.57
656.59	735.19
656.93	730.11
657.27	724.88
657.61	719.39
657.95	714.40
658.29	709.27
658.64	704.06
658.98	698.74
659.32	693.25
659.66	687.99
660.00	682.61
660.34	677.72
660.68	672.77
661.02	667.73
661.36	663.01
661.70	658.49
662.05	654.05
662.39	649.63
662.73	645.16
663.07	640.77
663.41	636.34
663.75	631.79
664.09	627.28
664.43	622.92
664.77	618.82
665.11	614.51
665.45	610.45
665.79	606.31
666.13	602.21
666.47	598.18
666.81	594.00
667.15	589.92
667.49	586.03
667.83	582.25
668.17	578.31
668.51	574.19
668.85	570.16
669.19	566.40
669.53	562.55
669.87	558.70
670.21	554.99
670.55	551.33
670.89	547.97
671.23	544.55
671.57	540.99
671.91	537.46
672.25	533.99
672.58	530.46
672.92	527.11
673.26	523.97
673.60	520.80
673.94	517.71
674.28	514.84
674.62	511.85
674.96	508.76
675.30	505.81
675.64	502.90
675.97	500.17
676.31	497.27
676.65	494.39
676.99	491.64
677.33	488.75
677.67	485.98
678.01	482.93
678.34	479.91
678.68	477.10
679.02	474.30
679.36	471.53
679.70	468.86
680.04	466.08
680.37	463.16
680.71	460.36
681.05	457.78
681.39	455.04
681.73	452.42
682.06	449.85
682.40	447.32
682.74	444.84
683.08	442.28
683.42	439.70
683.75	437.17
684.09	434.67
684.43	432.20
684.77	429.79
685.10	427.41
685.44	425.15
685.78	422.85
686.12	420.68
686.45	418.38
686.79	416.05
687.13	413.85
687.46	411.74
687.80	409.57
688.14	407.33
688.48	405.28
688.81	403.01
689.15	400.93
689.49	398.78
689.82	396.67
690.16	394.66
690.50	392.72
690.83	390.81
691.17	388.85
691.51	386.99
691.84	385.11
692.18	383.22
692.52	381.22
692.85	379.29
693.19	377.31
693.52	375.51
693.86	373.68
694.20	371.88
694.53	370.04
694.87	368.23
695.21	366.45
695.54	364.59
695.88	362.86
696.21	361.08
696.55	359.39
696.88	357.69
697.22	356.00
697.56	354.32
697.89	352.67
698.23	351.05
698.56	349.42
698.90	347.77
699.23	346.08
699.57	344.52
699.90	342.98
700.24	341.45
700.58	339.87
700.91	338.36
701.25	336.92
701.58	335.59
701.92	334.20
702.25	332.85
702.59	331.55
702.92	330.25
703.26	328.95
703.59	327.69
703.93	326.49
704.26	325.22
704.60	323.94
704.93	322.65
705.26	321.40
705.60	320.21
705.93	319.09
706.27	318.09
706.60	317.03
706.94	315.95
707.27	314.80
707.61	313.74
707.94	312.71
708.27	311.63
708.61	310.47
708.94	309.50
709.28	308.50
709.61	307.53
709.94	306.58
710.28	305.56
710.61	304.59
710.95	303.57
711.28	302.65
711.61	301.71
711.95	300.79
712.28	299.83
712.61	298.84
712.95	297.88
713.28	296.97
713.61	296.07
713.95	295.19
714.28	294.37
714.61	293.53
714.95	292.69
715.28	291.86
715.61	291.06
715.95	290.16
716.28	289.28
716.61	288.46
716.95	287.65
717.28	286.93
717.61	286.14
717.94	285.37
718.28	284.60
718.61	283.90
718.94	283.26
719.27	282.63
719.61	282.02
719.94	281.42
720.27	280.70
720.60	280.07
720.94	279.50
721.27	278.97
721.60	278.40
721.93	277.84
722.27	277.31
722.60	276.78
722.93	276.26
723.26	275.75
723.59	275.21
723.93	274.64
724.26	274.10
724.59	273.60
724.92	273.13
725.25	272.63
725.59	272.12
725.92	271.61
726.25	271.06
726.58	270.58
726.91	270.07
727.24	269.62
727.57	269.16
727.91	268.60
728.24	268.08
728.57	267.59
728.90	267.13
729.23	266.62
729.56	266.16
729.89	265.69
730.22	265.21
730.55	264.76
730.89	264.35
731.22	263.89
731.55	263.46
731.88	263.03
732.21	262.61
732.54	262.15
732.87	261.73
733.20	261.34
733.53	260.98
733.86	260.62
734.19	260.26
734.52	259.86
734.85	259.60
735.18	259.21
735.51	258.87
735.84	258.48
736.17	258.08
736.50	257.68
736.83	257.42
737.16	257.06
737.49	256.68
737.82	256.33
738.15	255.98
738.48	255.58
738.81	255.22
739.14	254.86
739.47	254.55
739.80	254.22
740.13	253.95
740.46	253.59
740.79	253.24
741.12	252.91
741.45	252.57
741.78	252.15
742.11	251.87
742.44	251.51
742.77	251.22
743.10	250.94
743.43	250.64
743.75	250.26
744.08	250.12
744.41	249.87
744.74	249.58
745.07	249.32
745.40	249.12
745.73	248.90
746.06	248.63
746.39	248.36
746.71	248.06
747.04	247.74
747.37	247.48
747.70	247.22
748.03	246.96
748.36	246.75
748.68	246.51
749.01	246.25
749.34	246.02
749.67	245.77
750.00	245.55
750.33	245.38
750.65	245.15
750.98	244.79
751.31	244.53
751.64	244.29
751.97	244.13
752.29	243.90
752.62	243.64
752.95	243.40
753.28	243.20
753.60	243.02
753.93	242.85
754.26	242.63
754.59	242.39
754.91	242.20
755.24	241.98
755.57	241.84
755.90	241.65
756.22	241.46
756.55	241.27
756.88	241.06
757.20	240.85
757.53	240.65
757.86	240.51
758.19	240.37
758.51	240.20
758.84	239.98
759.17	239.80
759.49	239.65
759.82	239.55
760.15	239.40
760.47	239.26
760.80	239.11
761.13	239.00
761.45	238.88
761.78	238.77
762.11	238.63
762.43	238.47
762.76	238.31
763.08	238.21
763.41	238.11
763.74	237.96
764.06	237.81
764.39	237.68
764.71	237.56
765.04	237.41
765.37	237.30
765.69	237.17
766.02	237.04
766.34	236.91
766.67	236.78
767.00	236.65
767.32	236.57
767.65	236.50
767.97	236.41
768.30	236.29
768.62	236.13
768.95	236.02
769.27	235.92
769.60	235.87
769.92	235.78
770.25	235.64
770.57	235.56
770.90	235.51
771.22	235.38
771.55	235.29
771.87	235.25
772.20	235.16
772.52	235.13
772.85	235.15
773.17	235.06
773.50	234.94
773.82	234.89
774.15	234.76
774.47	234.62
774.80	234.54
775.12	234.44
775.45	234.37
775.77	234.29
776.09	234.20
776.42	234.08
776.74	233.97
777.07	233.93
777.39	233.86
777.72	233.72
778.04	233.67
778.36	233.58
778.69	233.47
779.01	233.39
779.33	233.26
779.66	233.07
779.98	232.99
780.31	232.93
780.63	232.88
780.95	232.84
781.28	232.77
781.60	232.68
781.92	232.64
782.25	232.57
782.57	232.53
782.89	232.43
783.22	232.38
783.54	232.32
783.86	232.26
784.19	232.17
784.51	232.16
784.83	232.10
785.16	232.04
785.48	231.96
785.80	231.94
786.12	231.91
786.45	231.86
786.77	231.81
787.09	231.75
