SpectraSuite Data File
++++++++++++++++++++++++++++++++++++
Date: Fri Feb 01 15:14:58 EST 2013
User: group
Dark Spectrum Present: No
Reference Spectrum Present: No
Number of Sampled Component Spectra: 1
Spectrometers: USB2E7196
Integration Time (usec): 35000 (USB2E7196)
Spectra Averaged: 100 (USB2E7196)
Boxcar Smoothing: 10 (USB2E7196)
Correct for Electrical Dark: No (USB2E7196)
Strobe/Lamp Enabled: No (USB2E7196)
Correct for Detector Non-linearity: No (USB2E7196)
Correct for Stray Light: No (USB2E7196)
Number of Pixels in Processed Spectrum: 2048
>>>>>Begin Processed Spectral Data<<<<<
339.09	0.00
339.48	215.57
339.86	216.61
340.24	217.99
340.63	219.72
341.01	222.26
341.39	221.63
341.78	223.73
342.16	224.51
342.54	225.01
342.93	213.57
343.31	224.34
343.69	224.90
344.07	225.36
344.46	225.78
344.84	226.16
345.22	226.40
345.60	226.66
345.99	226.81
346.37	226.92
346.75	227.01
347.13	227.07
347.52	227.12
347.90	227.21
348.28	227.22
348.66	227.24
349.05	227.22
349.43	227.28
349.81	227.30
350.19	227.35
350.57	227.40
350.96	227.45
351.34	227.54
351.72	227.61
352.10	227.70
352.48	227.79
352.87	227.82
353.25	227.86
353.63	227.95
354.01	228.03
354.39	228.10
354.77	228.19
355.15	228.29
355.54	228.36
355.92	228.37
356.30	228.44
356.68	228.58
357.06	228.66
357.44	228.67
357.82	228.75
358.20	228.83
358.58	228.91
358.97	228.98
359.35	229.06
359.73	229.12
360.11	229.15
360.49	229.18
360.87	229.23
361.25	229.28
361.63	229.35
362.01	229.42
362.39	229.46
362.77	229.52
363.15	229.55
363.53	229.59
363.91	229.62
364.29	229.63
364.67	229.56
365.05	229.54
365.43	229.57
365.81	229.61
366.19	229.64
366.57	229.65
366.95	229.65
367.33	229.62
367.71	229.60
368.09	229.64
368.47	229.63
368.85	229.62
369.23	229.63
369.61	229.54
369.99	229.51
370.37	229.51
370.75	229.51
371.13	229.42
371.51	229.37
371.89	229.33
372.27	229.28
372.65	229.24
373.03	229.23
373.41	229.18
373.78	229.12
374.16	229.00
374.54	228.89
374.92	228.80
375.30	228.72
375.68	228.65
376.06	228.56
376.44	228.49
376.82	228.41
377.19	228.36
377.57	228.28
377.95	228.21
378.33	228.09
378.71	228.01
379.09	227.94
379.47	227.86
379.84	227.77
380.22	227.68
380.60	227.59
380.98	227.51
381.36	227.43
381.73	227.34
382.11	227.31
382.49	227.24
382.87	227.17
383.25	227.09
383.62	227.16
384.00	227.08
384.38	227.02
384.76	226.98
385.13	226.95
385.51	226.89
385.89	226.82
386.27	226.78
386.64	226.72
387.02	226.68
387.40	226.63
387.78	226.58
388.15	226.55
388.53	226.51
388.91	226.41
389.29	226.37
389.66	226.37
390.04	226.33
390.42	226.35
390.79	226.35
391.17	226.37
391.55	226.24
391.92	226.23
392.30	226.24
392.68	226.23
393.05	226.21
393.43	226.24
393.81	226.27
394.18	226.26
394.56	226.25
394.94	226.32
395.31	226.34
395.69	226.41
396.06	226.46
396.44	226.50
396.82	226.59
397.19	226.68
397.57	226.70
397.95	226.76
398.32	226.78
398.70	226.83
399.07	226.91
399.45	226.95
399.82	227.03
400.20	227.06
400.58	227.12
400.95	227.15
401.33	227.25
401.70	227.38
402.08	227.50
402.45	227.62
402.83	227.73
403.20	227.85
403.58	227.95
403.95	228.09
404.33	228.23
404.71	228.37
405.08	228.59
405.46	228.74
405.83	228.89
406.21	229.04
406.58	229.19
406.96	229.37
407.33	229.56
407.70	229.76
408.08	230.06
408.45	230.31
408.83	230.60
409.20	230.83
409.58	231.03
409.95	231.29
410.33	231.57
410.70	231.79
411.08	232.10
411.45	232.43
411.82	232.75
412.20	233.12
412.57	233.53
412.95	233.83
413.32	234.24
413.69	234.69
414.07	235.14
414.44	235.64
414.82	236.09
415.19	236.66
415.56	237.25
415.94	237.80
416.31	238.46
416.68	239.08
417.06	239.80
417.43	240.51
417.81	241.27
418.18	242.07
418.55	242.93
418.93	243.80
419.30	244.67
419.67	245.61
420.04	246.55
420.42	247.55
420.79	248.68
421.16	249.81
421.54	250.99
421.91	252.19
422.28	253.46
422.66	254.80
423.03	256.10
423.40	257.42
423.77	258.82
424.15	260.16
424.52	261.62
424.89	263.19
425.26	264.74
425.64	266.23
426.01	267.81
426.38	269.47
426.75	271.18
427.13	272.91
427.50	274.74
427.87	276.64
428.24	278.49
428.61	280.26
428.99	282.25
429.36	284.34
429.73	286.43
430.10	288.44
430.47	290.52
430.85	292.65
431.22	294.90
431.59	297.29
431.96	299.60
432.33	302.09
432.70	304.51
433.08	307.32
433.45	309.91
433.82	312.51
434.19	315.44
434.56	318.26
434.93	320.92
435.30	323.53
435.68	326.45
436.05	329.28
436.42	332.10
436.79	334.63
437.16	337.36
437.53	340.17
437.90	343.04
438.27	345.77
438.64	348.59
439.01	351.14
439.38	353.36
439.75	355.59
440.13	358.12
440.50	360.43
440.87	362.24
441.24	364.22
441.61	366.37
441.98	367.81
442.35	369.58
442.72	371.46
443.09	373.28
443.46	374.24
443.83	374.81
444.20	375.30
444.57	376.12
444.94	376.45
445.31	376.83
445.68	377.10
446.05	377.16
446.42	376.80
446.79	376.44
447.16	376.02
447.53	375.67
447.90	374.48
448.27	373.31
448.64	371.79
449.01	370.62
449.37	368.66
449.74	366.75
450.11	364.51
450.48	361.98
450.85	359.44
451.22	357.32
451.59	355.29
451.96	353.37
452.33	350.72
452.70	348.29
453.07	345.41
453.43	342.56
453.80	339.82
454.17	337.13
454.54	334.56
454.91	331.83
455.28	329.14
455.65	326.65
456.02	324.19
456.38	322.00
456.75	319.34
457.12	317.05
457.49	314.81
457.86	312.64
458.23	310.80
458.59	308.73
458.96	306.64
459.33	304.81
459.70	302.95
460.07	301.46
460.43	299.78
460.80	298.14
461.17	296.66
461.54	295.19
461.91	293.73
462.27	292.27
462.64	291.00
463.01	289.64
463.38	288.38
463.74	287.04
464.11	285.88
464.48	284.89
464.85	283.78
465.21	282.93
465.58	282.01
465.95	280.89
466.32	280.00
466.68	279.09
467.05	278.19
467.42	277.28
467.78	276.33
468.15	275.45
468.52	274.82
468.88	273.99
469.25	273.18
469.62	272.56
469.98	271.88
470.35	271.25
470.72	270.63
471.08	269.94
471.45	269.40
471.82	268.84
472.18	268.23
472.55	267.81
472.92	267.27
473.28	266.78
473.65	266.35
474.02	265.91
474.38	265.51
474.75	265.16
475.11	264.83
475.48	264.58
475.85	264.33
476.21	264.07
476.58	263.88
476.94	263.76
477.31	263.58
477.67	263.41
478.04	263.29
478.41	263.23
478.77	263.27
479.14	263.16
479.50	263.19
479.87	263.23
480.23	263.30
480.60	263.40
480.96	263.51
481.33	263.67
481.69	263.83
482.06	264.01
482.42	264.19
482.79	264.43
483.15	264.73
483.52	265.09
483.88	265.44
484.25	265.78
484.61	266.18
484.98	266.65
485.34	267.19
485.71	267.76
486.07	268.33
486.44	268.88
486.80	269.59
487.17	270.32
487.53	271.13
487.90	272.00
488.26	272.93
488.62	273.89
488.99	274.90
489.35	275.91
489.72	277.03
490.08	278.32
490.44	279.54
490.81	280.88
491.17	282.24
491.54	283.71
491.90	285.22
492.26	286.85
492.63	288.59
492.99	290.41
493.36	292.30
493.72	294.39
494.08	296.47
494.45	298.73
494.81	301.11
495.17	303.52
495.54	306.06
495.90	308.74
496.26	311.52
496.63	314.46
496.99	317.58
497.35	320.82
497.72	324.13
498.08	327.64
498.44	331.29
498.80	335.23
499.17	339.27
499.53	343.49
499.89	347.86
500.26	352.29
500.62	356.93
500.98	361.89
501.34	366.95
501.71	372.24
502.07	377.63
502.43	383.21
502.79	389.05
503.16	395.07
503.52	401.29
503.88	407.68
504.24	414.32
504.60	421.22
504.97	428.35
505.33	435.69
505.69	443.37
506.05	451.08
506.41	458.87
506.78	467.08
507.14	475.51
507.50	484.19
507.86	493.28
508.22	502.39
508.59	511.55
508.95	521.08
509.31	530.95
509.67	541.04
510.03	551.27
510.39	561.85
510.75	572.73
511.12	583.61
511.48	594.90
511.84	606.36
512.20	617.86
512.56	629.80
512.92	641.97
513.28	654.27
513.64	666.83
514.00	679.60
514.37	692.51
514.73	705.67
515.09	718.75
515.45	732.03
515.81	745.62
516.17	759.64
516.53	773.82
516.89	787.92
517.25	802.16
517.61	816.66
517.97	831.07
518.33	845.44
518.69	860.29
519.05	875.42
519.41	890.64
519.77	906.25
520.13	921.75
520.49	937.26
520.85	952.84
521.21	968.62
521.57	984.90
521.93	1000.70
522.29	1017.01
522.65	1033.25
523.01	1049.58
523.37	1065.81
523.73	1081.93
524.09	1098.07
524.45	1114.52
524.81	1131.28
525.17	1148.16
525.53	1165.09
525.89	1182.09
526.25	1198.91
526.61	1215.35
526.97	1232.11
527.33	1248.56
527.68	1265.21
528.04	1281.66
528.40	1298.35
528.76	1315.46
529.12	1332.11
529.48	1349.15
529.84	1365.23
530.20	1381.93
530.56	1398.96
530.91	1416.38
531.27	1433.32
531.63	1449.79
531.99	1466.40
532.35	1482.33
532.71	1498.37
533.07	1514.81
533.42	1530.74
533.78	1546.91
534.14	1563.07
534.50	1578.37
534.86	1594.41
535.21	1609.78
535.57	1625.91
535.93	1641.47
536.29	1656.32
536.65	1671.53
537.00	1686.29
537.36	1701.79
537.72	1716.50
538.08	1731.00
538.44	1744.84
538.79	1758.92
539.15	1772.79
539.51	1786.67
539.87	1801.10
540.22	1814.82
540.58	1828.58
540.94	1842.06
541.29	1855.12
541.65	1868.01
542.01	1881.45
542.37	1893.84
542.72	1906.20
543.08	1917.96
543.44	1930.29
543.79	1941.50
544.15	1952.42
544.51	1963.99
544.87	1975.05
545.22	1985.82
545.58	1996.06
545.94	2005.88
546.29	2015.71
546.65	2025.49
547.01	2034.63
547.36	2043.42
547.72	2051.92
548.07	2059.73
548.43	2067.87
548.79	2075.94
549.14	2083.49
549.50	2090.77
549.86	2098.45
550.21	2105.85
550.57	2113.09
550.92	2119.67
551.28	2126.79
551.64	2133.90
551.99	2140.34
552.35	2146.26
552.70	2152.29
553.06	2158.26
553.41	2164.57
553.77	2170.46
554.13	2176.53
554.48	2182.73
554.84	2188.14
555.19	2193.47
555.55	2198.58
555.90	2203.05
556.26	2207.87
556.61	2212.51
556.97	2216.72
557.32	2220.75
557.68	2224.86
558.03	2229.08
558.39	2232.88
558.74	2237.54
559.10	2241.48
559.45	2245.41
559.81	2249.84
560.16	2253.73
560.52	2257.02
560.87	2260.59
561.23	2263.39
561.58	2266.40
561.94	2268.88
562.29	2271.35
562.64	2274.02
563.00	2276.71
563.35	2280.32
563.71	2283.37
564.06	2286.58
564.42	2289.47
564.77	2292.02
565.12	2294.02
565.48	2295.86
565.83	2297.61
566.19	2298.87
566.54	2299.73
566.89	2300.72
567.25	2301.19
567.60	2302.64
567.96	2304.14
568.31	2304.81
568.66	2305.71
569.02	2306.19
569.37	2306.49
569.72	2307.08
570.08	2307.04
570.43	2306.92
570.78	2306.07
571.14	2304.37
571.49	2303.09
571.84	2302.68
572.20	2301.39
572.55	2300.35
572.90	2298.72
573.26	2297.30
573.61	2295.47
573.96	2293.55
574.31	2290.22
574.67	2287.19
575.02	2283.31
575.37	2279.88
575.72	2276.03
576.08	2272.69
576.43	2269.37
576.78	2265.76
577.13	2262.67
577.49	2259.65
577.84	2256.07
578.19	2252.41
578.54	2248.76
578.90	2244.36
579.25	2238.81
579.60	2233.91
579.95	2228.94
580.30	2223.88
580.66	2218.64
581.01	2213.59
581.36	2208.62
581.71	2204.45
582.06	2199.90
582.42	2195.48
582.77	2190.19
583.12	2185.35
583.47	2180.46
583.82	2175.26
584.17	2169.76
584.53	2164.07
584.88	2158.20
585.23	2152.38
585.58	2146.78
585.93	2141.29
586.28	2136.55
586.63	2131.37
586.98	2126.02
587.34	2121.24
587.69	2116.29
588.04	2110.86
588.39	2105.06
588.74	2098.44
589.09	2092.27
589.44	2085.33
589.79	2079.14
590.14	2073.50
590.49	2067.02
590.84	2060.59
591.19	2054.45
591.54	2048.03
591.89	2040.61
592.25	2033.60
592.60	2026.27
592.95	2018.45
593.30	2010.94
593.65	2003.19
594.00	1996.10
594.35	1988.83
594.70	1980.69
595.05	1973.25
595.40	1965.92
595.75	1958.40
596.10	1952.03
596.45	1945.15
596.80	1938.94
597.15	1932.29
597.50	1925.01
597.85	1918.46
598.19	1911.73
598.54	1904.51
598.89	1897.62
599.24	1891.73
599.59	1885.11
599.94	1878.92
600.29	1872.69
600.64	1866.17
600.99	1858.52
601.34	1851.58
601.69	1844.61
602.04	1837.44
602.39	1830.10
602.74	1823.21
603.08	1816.53
603.43	1809.91
603.78	1802.64
604.13	1795.31
604.48	1787.92
604.83	1781.06
605.18	1773.96
605.53	1765.84
605.87	1757.87
606.22	1750.72
606.57	1742.76
606.92	1735.46
607.27	1728.21
607.62	1721.17
607.96	1713.74
608.31	1707.18
608.66	1699.44
609.01	1691.83
609.36	1684.39
609.70	1676.26
610.05	1668.31
610.40	1660.43
610.75	1651.99
611.10	1644.31
611.44	1636.03
611.79	1628.00
612.14	1619.22
612.49	1610.22
612.83	1602.02
613.18	1593.92
613.53	1585.74
613.88	1577.15
614.22	1568.87
614.57	1560.37
614.92	1552.38
615.27	1544.84
615.61	1536.57
615.96	1528.73
616.31	1521.09
616.65	1513.82
617.00	1506.41
617.35	1498.58
617.70	1490.27
618.04	1481.77
618.39	1473.51
618.74	1465.90
619.08	1457.65
619.43	1450.15
619.78	1443.16
620.12	1435.90
620.47	1428.36
620.82	1420.30
621.16	1412.89
621.51	1405.31
621.85	1397.60
622.20	1389.13
622.55	1380.86
622.89	1373.06
623.24	1365.48
623.59	1358.18
623.93	1350.68
624.28	1343.42
624.62	1335.91
624.97	1328.85
625.32	1322.12
625.66	1315.05
626.01	1307.87
626.35	1300.42
626.70	1292.71
627.04	1285.02
627.39	1277.23
627.73	1269.89
628.08	1262.96
628.43	1255.58
628.77	1248.14
629.12	1240.65
629.46	1233.43
629.81	1225.98
630.15	1218.72
630.50	1211.30
630.84	1203.03
631.19	1195.11
631.53	1187.63
631.88	1180.17
632.22	1172.44
632.57	1165.24
632.91	1157.88
633.26	1150.40
633.60	1143.07
633.95	1136.00
634.29	1129.02
634.64	1122.44
634.98	1115.07
635.32	1107.92
635.67	1101.38
636.01	1094.80
636.36	1087.95
636.70	1081.52
637.05	1075.00
637.39	1068.59
637.73	1062.07
638.08	1056.30
638.42	1050.37
638.77	1043.92
639.11	1037.22
639.45	1030.92
639.80	1024.15
640.14	1017.71
640.49	1011.25
640.83	1004.97
641.17	998.71
641.52	992.32
641.86	985.85
642.20	980.04
642.55	973.85
642.89	967.39
643.23	960.92
643.58	955.15
643.92	948.84
644.26	942.73
644.61	936.72
644.95	930.64
645.29	923.99
645.64	917.17
645.98	910.88
646.32	905.17
646.66	899.12
647.01	893.40
647.35	887.68
647.69	881.89
648.04	876.36
648.38	870.63
648.72	864.64
649.06	858.59
649.41	852.65
649.75	846.59
650.09	840.69
650.43	834.85
650.78	828.69
651.12	822.80
651.46	817.20
651.80	811.42
652.14	806.06
652.49	800.70
652.83	795.58
653.17	789.80
653.51	784.00
653.85	778.63
654.20	772.97
654.54	766.99
654.88	761.28
655.22	755.39
655.56	749.65
655.90	744.22
656.25	738.99
656.59	733.72
656.93	728.69
657.27	723.48
657.61	718.07
657.95	713.10
658.29	708.02
658.64	702.67
658.98	697.39
659.32	691.95
659.66	686.75
660.00	681.44
660.34	676.61
660.68	671.73
661.02	666.75
661.36	662.14
661.70	657.67
662.05	653.28
662.39	649.00
662.73	644.61
663.07	640.25
663.41	635.76
663.75	631.31
664.09	626.71
664.43	622.37
664.77	618.28
665.11	614.00
665.45	609.84
665.79	605.80
666.13	601.60
666.47	597.57
666.81	593.47
667.15	589.30
667.49	585.42
667.83	581.68
668.17	577.77
668.51	573.67
668.85	569.62
669.19	565.72
669.53	561.85
669.87	557.91
670.21	554.21
670.55	550.65
670.89	547.17
671.23	543.72
671.57	540.24
671.91	536.70
672.25	533.20
672.58	529.77
672.92	526.38
673.26	523.32
673.60	520.14
673.94	517.01
674.28	514.16
674.62	511.20
674.96	508.09
675.30	505.17
675.64	502.30
675.97	499.56
676.31	496.69
676.65	493.71
676.99	491.04
677.33	488.23
677.67	485.44
678.01	482.42
678.34	479.42
678.68	476.61
679.02	473.82
679.36	471.03
679.70	468.30
680.04	465.51
680.37	462.61
680.71	459.82
681.05	457.23
681.39	454.53
681.73	451.92
682.06	449.37
682.40	446.82
682.74	444.33
683.08	441.83
683.42	439.26
683.75	436.80
684.09	434.30
684.43	431.82
684.77	429.33
685.10	427.03
685.44	424.82
685.78	422.46
686.12	420.24
686.45	417.97
686.79	415.68
687.13	413.49
687.46	411.36
687.80	409.22
688.14	407.02
688.48	404.93
688.81	402.66
689.15	400.54
689.49	398.36
689.82	396.25
690.16	394.13
690.50	392.20
690.83	390.31
691.17	388.35
691.51	386.46
691.84	384.65
692.18	382.73
692.52	380.71
692.85	378.81
693.19	376.87
693.52	375.08
693.86	373.29
694.20	371.55
694.53	369.76
694.87	367.92
695.21	366.14
695.54	364.34
695.88	362.62
696.21	360.90
696.55	359.27
696.88	357.60
697.22	355.95
697.56	354.33
697.89	352.69
698.23	351.07
698.56	349.43
698.90	347.82
699.23	346.16
699.57	344.60
699.90	343.06
700.24	341.56
700.58	340.05
700.91	338.55
701.25	337.07
701.58	335.66
701.92	334.29
702.25	332.93
702.59	331.59
702.92	330.32
703.26	329.03
703.59	327.72
703.93	326.56
704.26	325.35
704.60	324.07
704.93	322.81
705.26	321.56
705.60	320.40
705.93	319.24
706.27	318.20
706.60	317.22
706.94	316.18
707.27	315.06
707.61	313.99
707.94	313.00
708.27	311.93
708.61	310.89
708.94	309.94
709.28	308.98
709.61	308.02
709.94	307.05
710.28	306.02
710.61	305.08
710.95	303.95
711.28	303.07
711.61	302.10
711.95	301.16
712.28	300.23
712.61	299.28
712.95	298.36
713.28	297.48
713.61	296.54
713.95	295.63
714.28	294.80
714.61	293.91
714.95	293.01
715.28	292.21
715.61	291.32
715.95	290.45
716.28	289.56
716.61	288.73
716.95	287.94
717.28	287.23
717.61	286.43
717.94	285.67
718.28	284.85
718.61	284.14
718.94	283.47
719.27	282.80
719.61	282.16
719.94	281.50
720.27	280.77
720.60	280.09
720.94	279.44
721.27	278.81
721.60	278.26
721.93	277.68
722.27	277.11
722.60	276.56
722.93	275.95
723.26	275.43
723.59	274.87
723.93	274.28
724.26	273.63
724.59	273.08
724.92	272.59
725.25	272.11
725.59	271.61
725.92	271.09
726.25	270.60
726.58	270.07
726.91	269.61
727.24	269.12
727.57	268.67
727.91	268.17
728.24	267.74
728.57	267.23
728.90	266.77
729.23	266.24
729.56	265.84
729.89	265.38
730.22	264.91
730.55	264.45
730.89	263.99
731.22	263.58
731.55	263.19
731.88	262.77
732.21	262.28
732.54	261.83
732.87	261.42
733.20	260.98
733.53	260.60
733.86	260.22
734.19	259.85
734.52	259.49
734.85	259.17
735.18	258.72
735.51	258.36
735.84	258.00
736.17	257.66
736.50	257.26
736.83	257.03
737.16	256.67
737.49	256.34
737.82	256.01
738.15	255.72
738.48	255.36
738.81	255.02
739.14	254.73
739.47	254.41
739.80	254.11
740.13	253.82
740.46	253.50
740.79	253.18
741.12	252.89
741.45	252.56
741.78	252.24
742.11	252.00
742.44	251.72
742.77	251.43
743.10	251.15
743.43	250.81
743.75	250.45
744.08	250.32
744.41	250.08
744.74	249.84
745.07	249.58
745.40	249.32
745.73	249.09
746.06	248.80
746.39	248.56
746.71	248.27
747.04	247.99
747.37	247.72
747.70	247.44
748.03	247.20
748.36	246.99
748.68	246.75
749.01	246.48
749.34	246.25
749.67	246.04
750.00	245.82
750.33	245.69
750.65	245.48
750.98	245.13
751.31	244.89
751.64	244.67
751.97	244.48
752.29	244.27
752.62	244.04
752.95	243.84
753.28	243.65
753.60	243.46
753.93	243.27
754.26	243.10
754.59	242.90
754.91	242.69
755.24	242.49
755.57	242.30
755.90	242.13
756.22	241.93
756.55	241.73
756.88	241.55
757.20	241.31
757.53	241.10
757.86	240.93
758.19	240.76
758.51	240.59
758.84	240.39
759.17	240.20
759.49	240.02
759.82	239.90
760.15	239.73
760.47	239.60
760.80	239.43
761.13	239.32
761.45	239.16
761.78	238.99
762.11	238.85
762.43	238.71
762.76	238.56
763.08	238.40
763.41	238.27
763.74	238.12
764.06	237.97
764.39	237.84
764.71	237.74
765.04	237.61
765.37	237.48
765.69	237.34
766.02	237.25
766.34	237.12
766.67	236.97
767.00	236.87
767.32	236.80
767.65	236.74
767.97	236.60
768.30	236.48
768.62	236.38
768.95	236.23
769.27	236.13
769.60	235.99
769.92	235.88
770.25	235.75
770.57	235.66
770.90	235.54
771.22	235.43
771.55	235.33
771.87	235.24
772.20	235.12
772.52	235.13
772.85	235.13
773.17	235.03
773.50	234.95
773.82	234.84
774.15	234.67
774.47	234.54
774.80	234.40
775.12	234.32
775.45	234.24
775.77	234.18
776.09	234.06
776.42	234.02
776.74	233.98
777.07	233.90
777.39	233.82
777.72	233.75
778.04	233.72
778.36	233.62
778.69	233.56
779.01	233.48
779.33	233.29
779.66	233.11
779.98	233.09
780.31	233.00
780.63	232.95
780.95	232.91
781.28	232.87
781.60	232.84
781.92	232.81
782.25	232.76
782.57	232.72
782.89	232.68
783.22	232.59
783.54	232.50
783.86	232.47
784.19	232.42
784.51	232.41
784.83	232.32
785.16	232.27
785.48	232.22
785.80	232.20
786.12	232.20
786.45	232.15
786.77	232.09
787.09	232.04
