SpectraSuite Data File
++++++++++++++++++++++++++++++++++++
Date: Fri Feb 01 17:51:08 EST 2013
User: group
Dark Spectrum Present: No
Reference Spectrum Present: No
Number of Sampled Component Spectra: 1
Spectrometers: USB2E7196
Integration Time (usec): 35000 (USB2E7196)
Spectra Averaged: 100 (USB2E7196)
Boxcar Smoothing: 10 (USB2E7196)
Correct for Electrical Dark: No (USB2E7196)
Strobe/Lamp Enabled: No (USB2E7196)
Correct for Detector Non-linearity: No (USB2E7196)
Correct for Stray Light: No (USB2E7196)
Number of Pixels in Processed Spectrum: 2048
>>>>>Begin Processed Spectral Data<<<<<
339.09	0.00
339.48	212.82
339.86	214.38
340.24	215.42
340.63	216.64
341.01	219.51
341.39	219.72
341.78	221.17
342.16	222.24
342.54	222.75
342.93	211.12
343.31	221.80
343.69	222.34
344.07	222.79
344.46	223.21
344.84	223.59
345.22	223.82
345.60	224.08
345.99	224.26
346.37	224.39
346.75	224.46
347.13	224.54
347.52	224.60
347.90	224.69
348.28	224.72
348.66	224.77
349.05	224.77
349.43	224.84
349.81	224.90
350.19	224.94
350.57	224.98
350.96	225.07
351.34	225.16
351.72	225.23
352.10	225.36
352.48	225.44
352.87	225.50
353.25	225.57
353.63	225.63
354.01	225.71
354.39	225.80
354.77	225.91
355.15	226.01
355.54	226.05
355.92	226.07
356.30	226.12
356.68	226.26
357.06	226.35
357.44	226.37
357.82	226.43
358.20	226.48
358.58	226.55
358.97	226.62
359.35	226.70
359.73	226.80
360.11	226.81
360.49	226.87
360.87	226.91
361.25	226.97
361.63	227.02
362.01	227.04
362.39	227.04
362.77	227.07
363.15	227.07
363.53	227.11
363.91	227.17
364.29	227.17
364.67	227.08
365.05	227.06
365.43	227.09
365.81	227.14
366.19	227.20
366.57	227.24
366.95	227.20
367.33	227.16
367.71	227.14
368.09	227.13
368.47	227.10
368.85	227.11
369.23	227.11
369.61	227.06
369.99	227.05
370.37	227.05
370.75	227.09
371.13	227.06
371.51	227.04
371.89	226.98
372.27	226.97
372.65	226.96
373.03	226.94
373.41	226.89
373.78	226.78
374.16	226.68
374.54	226.58
374.92	226.52
375.30	226.48
375.68	226.42
376.06	226.39
376.44	226.33
376.82	226.30
377.19	226.24
377.57	226.23
377.95	226.15
378.33	226.09
378.71	225.95
379.09	225.88
379.47	225.81
379.84	225.77
380.22	225.74
380.60	225.66
380.98	225.59
381.36	225.57
381.73	225.57
382.11	225.52
382.49	225.48
382.87	225.43
383.25	225.36
383.62	225.38
384.00	225.31
384.38	225.26
384.76	225.23
385.13	225.22
385.51	225.13
385.89	225.07
386.27	225.02
386.64	225.00
387.02	224.96
387.40	224.90
387.78	224.84
388.15	224.80
388.53	224.77
388.91	224.76
389.29	224.66
389.66	224.62
390.04	224.59
390.42	224.61
390.79	224.58
391.17	224.54
391.55	224.42
391.92	224.41
392.30	224.41
392.68	224.37
393.05	224.34
393.43	224.33
393.81	224.35
394.18	224.33
394.56	224.33
394.94	224.32
395.31	224.32
395.69	224.40
396.06	224.42
396.44	224.42
396.82	224.42
397.19	224.51
397.57	224.51
397.95	224.56
398.32	224.56
398.70	224.61
399.07	224.69
399.45	224.75
399.82	224.82
400.20	224.89
400.58	224.95
400.95	224.96
401.33	225.06
401.70	225.22
402.08	225.30
402.45	225.40
402.83	225.55
403.20	225.67
403.58	225.74
403.95	225.85
404.33	225.99
404.71	226.13
405.08	226.32
405.46	226.47
405.83	226.64
406.21	226.77
406.58	226.97
406.96	227.13
407.33	227.34
407.70	227.56
408.08	227.86
408.45	228.11
408.83	228.42
409.20	228.68
409.58	228.92
409.95	229.24
410.33	229.56
410.70	229.89
411.08	230.28
411.45	230.66
411.82	231.08
412.20	231.50
412.57	232.00
412.95	232.41
413.32	232.91
413.69	233.46
414.07	234.03
414.44	234.66
414.82	235.28
415.19	236.00
415.56	236.71
415.94	237.45
416.31	238.32
416.68	239.17
417.06	240.12
417.43	240.98
417.81	241.97
418.18	242.97
418.55	244.05
418.93	245.16
419.30	246.33
419.67	247.51
420.04	248.80
420.42	250.15
420.79	251.66
421.16	253.21
421.54	254.76
421.91	256.38
422.28	258.01
422.66	259.77
423.03	261.46
423.40	263.19
423.77	265.06
424.15	266.91
424.52	268.84
424.89	270.94
425.26	272.98
425.64	274.90
426.01	277.03
426.38	279.17
426.75	281.39
427.13	283.68
427.50	286.07
427.87	288.53
428.24	290.93
428.61	293.24
428.99	295.77
429.36	298.52
429.73	301.26
430.10	303.95
430.47	306.65
430.85	309.49
431.22	312.43
431.59	315.51
431.96	318.48
432.33	321.74
432.70	324.87
433.08	328.59
433.45	332.04
433.82	335.47
434.19	339.28
434.56	343.02
434.93	346.54
435.30	350.01
435.68	353.82
436.05	357.59
436.42	361.30
436.79	364.63
437.16	368.18
437.53	371.88
437.90	375.59
438.27	379.22
438.64	382.92
439.01	386.34
439.38	389.25
439.75	392.03
440.13	395.34
440.50	398.45
440.87	400.87
441.24	403.50
441.61	406.32
441.98	408.33
442.35	410.65
442.72	413.05
443.09	415.47
443.46	416.81
443.83	417.59
444.20	418.26
444.57	419.39
444.94	419.80
445.31	420.28
445.68	420.69
446.05	420.79
446.42	420.30
446.79	419.81
447.16	419.29
447.53	418.92
447.90	417.40
448.27	415.90
448.64	413.82
449.01	412.29
449.37	409.74
449.74	407.27
450.11	404.29
450.48	401.07
450.85	397.72
451.22	394.86
451.59	392.15
451.96	389.65
452.33	386.16
452.70	383.13
453.07	379.37
453.43	375.56
453.80	371.95
454.17	368.45
454.54	365.09
454.91	361.48
455.28	357.96
455.65	354.68
456.02	351.33
456.38	348.47
456.75	344.93
457.12	341.97
457.49	338.99
457.86	336.14
458.23	333.67
458.59	330.98
458.96	328.25
459.33	325.82
459.70	323.31
460.07	321.33
460.43	318.99
460.80	316.83
461.17	314.95
461.54	312.92
461.91	311.01
462.27	309.05
462.64	307.41
463.01	305.63
463.38	303.87
463.74	302.15
464.11	300.64
464.48	299.31
464.85	297.81
465.21	296.67
465.58	295.46
465.95	294.01
466.32	292.79
466.68	291.61
467.05	290.41
467.42	289.26
467.78	288.05
468.15	286.87
468.52	285.98
468.88	284.82
469.25	283.85
469.62	283.02
469.98	282.14
470.35	281.30
470.72	280.48
471.08	279.64
471.45	278.87
471.82	278.11
472.18	277.32
472.55	276.76
472.92	276.05
473.28	275.45
473.65	274.84
474.02	274.24
474.38	273.70
474.75	273.28
475.11	272.76
475.48	272.36
475.85	272.01
476.21	271.73
476.58	271.45
476.94	271.19
477.31	270.90
477.67	270.66
478.04	270.44
478.41	270.29
478.77	270.23
479.14	270.11
479.50	270.05
479.87	270.07
480.23	270.08
480.60	270.09
480.96	270.10
481.33	270.31
481.69	270.49
482.06	270.68
482.42	270.79
482.79	271.07
483.15	271.37
483.52	271.76
483.88	272.06
484.25	272.42
484.61	272.84
484.98	273.28
485.34	273.83
485.71	274.44
486.07	275.02
486.44	275.61
486.80	276.34
487.17	277.08
487.53	277.89
487.90	278.74
488.26	279.69
488.62	280.71
488.99	281.67
489.35	282.73
489.72	283.89
490.08	285.13
490.44	286.37
490.81	287.73
491.17	289.13
491.54	290.68
491.90	292.28
492.26	293.97
492.63	295.76
492.99	297.63
493.36	299.60
493.72	301.78
494.08	303.98
494.45	306.33
494.81	308.84
495.17	311.42
495.54	314.12
495.90	316.93
496.26	319.88
496.63	323.00
496.99	326.23
497.35	329.61
497.72	333.19
498.08	336.85
498.44	340.70
498.80	344.79
499.17	348.97
499.53	353.38
499.89	357.97
500.26	362.69
500.62	367.56
500.98	372.78
501.34	378.09
501.71	383.69
502.07	389.44
502.43	395.34
502.79	401.46
503.16	407.84
503.52	414.42
503.88	421.11
504.24	428.07
504.60	435.38
504.97	442.94
505.33	450.66
505.69	458.87
506.05	467.08
506.41	475.40
506.78	484.07
507.14	492.96
507.50	502.23
507.86	511.78
508.22	521.49
508.59	531.26
508.95	541.41
509.31	551.80
509.67	562.48
510.03	573.40
510.39	584.55
510.75	596.02
511.12	607.65
511.48	619.64
511.84	631.83
512.20	644.08
512.56	656.72
512.92	669.71
513.28	682.87
513.64	696.15
514.00	709.70
514.37	723.56
514.73	737.51
515.09	751.39
515.45	765.62
515.81	780.14
516.17	795.07
516.53	810.23
516.89	825.38
517.25	840.54
517.61	855.98
517.97	871.55
518.33	886.99
518.69	902.90
519.05	919.03
519.41	935.28
519.77	951.93
520.13	968.59
520.49	985.13
520.85	1001.74
521.21	1018.70
521.57	1036.29
521.93	1053.21
522.29	1070.85
522.65	1088.45
523.01	1106.05
523.37	1123.53
523.73	1141.15
524.09	1158.63
524.45	1176.39
524.81	1194.58
525.17	1212.80
525.53	1231.14
525.89	1249.58
526.25	1267.98
526.61	1285.92
526.97	1304.33
527.33	1322.42
527.68	1340.56
528.04	1358.67
528.40	1376.74
528.76	1395.54
529.12	1413.67
529.48	1432.27
529.84	1450.05
530.20	1468.36
530.56	1486.96
530.91	1506.09
531.27	1524.54
531.63	1542.75
531.99	1561.15
532.35	1578.91
532.71	1596.68
533.07	1614.77
533.42	1632.61
533.78	1650.49
534.14	1668.66
534.50	1685.83
534.86	1703.53
535.21	1720.63
535.57	1738.54
535.93	1756.02
536.29	1772.65
536.65	1789.77
537.00	1806.54
537.36	1823.76
537.72	1840.23
538.08	1856.70
538.44	1872.43
538.79	1888.40
539.15	1904.05
539.51	1919.70
539.87	1936.00
540.22	1951.69
540.58	1967.37
540.94	1982.49
541.29	1997.19
541.65	2011.86
542.01	2027.06
542.37	2041.40
542.72	2055.74
543.08	2069.49
543.44	2084.02
543.79	2097.23
544.15	2110.13
544.51	2123.87
544.87	2136.79
545.22	2149.58
545.58	2161.86
545.94	2173.73
546.29	2185.44
546.65	2197.23
547.01	2208.58
547.36	2219.17
547.72	2229.54
548.07	2239.35
548.43	2249.46
548.79	2259.32
549.14	2268.73
549.50	2277.74
549.86	2287.20
550.21	2296.39
550.57	2305.29
550.92	2313.64
551.28	2322.57
551.64	2331.46
551.99	2339.60
552.35	2347.56
552.70	2355.55
553.06	2363.18
553.41	2371.27
553.77	2378.92
554.13	2386.69
554.48	2394.55
554.84	2401.96
555.19	2408.78
555.55	2415.59
555.90	2421.68
556.26	2428.50
556.61	2434.63
556.97	2440.57
557.32	2446.27
557.68	2452.02
558.03	2458.00
558.39	2463.09
558.74	2469.37
559.10	2474.66
559.45	2479.62
559.81	2485.29
560.16	2490.51
560.52	2495.19
560.87	2499.75
561.23	2503.72
561.58	2507.82
561.94	2511.57
562.29	2514.84
562.64	2518.88
563.00	2522.64
563.35	2527.40
563.71	2531.67
564.06	2536.20
564.42	2540.46
564.77	2544.21
565.12	2547.72
565.48	2550.73
565.83	2553.67
566.19	2555.94
566.54	2557.69
566.89	2559.84
567.25	2561.64
567.60	2563.88
567.96	2566.60
568.31	2568.37
568.66	2570.47
569.02	2572.08
569.37	2573.15
569.72	2575.02
570.08	2576.00
570.43	2576.81
570.78	2576.93
571.14	2575.95
571.49	2575.10
571.84	2575.18
572.20	2574.61
572.55	2574.01
572.90	2572.72
573.26	2571.83
573.61	2570.40
573.96	2569.25
574.31	2566.65
574.67	2563.64
575.02	2560.29
575.37	2556.92
575.72	2553.43
576.08	2550.10
576.43	2546.54
576.78	2543.09
577.13	2539.79
577.49	2536.62
577.84	2533.20
578.19	2529.51
578.54	2525.95
578.90	2521.79
579.25	2516.15
579.60	2511.00
579.95	2505.87
580.30	2500.66
580.66	2495.31
581.01	2490.00
581.36	2484.82
581.71	2480.62
582.06	2476.14
582.42	2471.38
582.77	2465.75
583.12	2460.96
583.47	2456.17
583.82	2451.24
584.17	2445.48
584.53	2439.63
584.88	2433.70
585.23	2427.66
585.58	2421.64
585.93	2415.62
586.28	2410.38
586.63	2404.86
586.98	2399.41
587.34	2394.11
587.69	2388.70
588.04	2383.05
588.39	2377.08
588.74	2369.98
589.09	2362.96
589.44	2355.54
589.79	2348.67
590.14	2342.63
590.49	2335.12
590.84	2327.91
591.19	2321.14
591.54	2314.02
591.89	2306.12
592.25	2298.68
592.60	2290.45
592.95	2282.07
593.30	2273.89
593.65	2265.46
594.00	2257.63
594.35	2249.43
594.70	2240.45
595.05	2232.54
595.40	2224.24
595.75	2215.64
596.10	2208.77
596.45	2201.24
596.80	2194.30
597.15	2186.96
597.50	2179.06
597.85	2171.81
598.19	2164.32
598.54	2156.39
598.89	2148.92
599.24	2142.05
599.59	2134.52
599.94	2127.52
600.29	2120.28
600.64	2112.73
600.99	2104.37
601.34	2096.54
601.69	2088.67
602.04	2081.01
602.39	2072.55
602.74	2064.73
603.08	2057.09
603.43	2049.24
603.78	2040.87
604.13	2032.61
604.48	2024.35
604.83	2016.44
605.18	2008.55
605.53	1999.56
605.87	1990.44
606.22	1982.07
606.57	1972.95
606.92	1964.14
607.27	1956.00
607.62	1948.07
607.96	1939.83
608.31	1932.31
608.66	1923.63
609.01	1914.95
609.36	1906.26
609.70	1897.11
610.05	1887.89
610.40	1879.11
610.75	1869.57
611.10	1860.81
611.44	1850.89
611.79	1841.64
612.14	1831.52
612.49	1820.91
612.83	1810.96
613.18	1801.37
613.53	1791.90
613.88	1782.08
614.22	1772.74
614.57	1762.68
614.92	1753.32
615.27	1744.56
615.61	1734.77
615.96	1725.37
616.31	1716.49
616.65	1707.74
617.00	1699.04
617.35	1690.11
617.70	1680.44
618.04	1670.60
618.39	1660.97
618.74	1652.26
619.08	1642.62
619.43	1633.87
619.78	1625.80
620.12	1617.54
620.47	1608.79
620.82	1599.29
621.16	1590.53
621.51	1581.54
621.85	1572.66
622.20	1562.90
622.55	1553.20
622.89	1544.08
623.24	1535.16
623.59	1526.52
623.93	1517.84
624.28	1509.41
624.62	1500.70
624.97	1492.30
625.32	1484.31
625.66	1476.12
626.01	1467.84
626.35	1459.32
626.70	1450.26
627.04	1441.33
627.39	1432.35
627.73	1423.82
628.08	1415.88
628.43	1407.58
628.77	1399.25
629.12	1390.52
629.46	1382.21
629.81	1373.49
630.15	1365.04
630.50	1356.52
630.84	1347.08
631.19	1337.79
631.53	1329.00
631.88	1320.25
632.22	1311.52
632.57	1303.07
632.91	1294.43
633.26	1285.78
633.60	1277.04
633.95	1268.71
634.29	1260.51
634.64	1252.74
634.98	1244.26
635.32	1235.90
635.67	1228.09
636.01	1220.30
636.36	1212.48
636.70	1204.86
637.05	1197.32
637.39	1189.93
637.73	1182.40
638.08	1175.47
638.42	1168.73
638.77	1161.27
639.11	1153.69
639.45	1146.30
639.80	1138.61
640.14	1131.22
640.49	1123.76
640.83	1116.55
641.17	1109.49
641.52	1102.23
641.86	1094.72
642.20	1087.94
642.55	1080.64
642.89	1073.31
643.23	1065.71
643.58	1059.09
643.92	1052.02
644.26	1045.05
644.61	1038.01
644.95	1031.18
645.29	1023.73
645.64	1015.94
645.98	1008.61
646.32	1001.76
646.66	994.76
647.01	988.13
647.35	981.67
647.69	974.87
648.04	968.48
648.38	961.88
648.72	955.17
649.06	948.34
649.41	941.53
649.75	934.80
650.09	928.03
650.43	921.50
650.78	914.50
651.12	907.66
651.46	901.11
651.80	894.62
652.14	888.41
652.49	882.29
652.83	876.38
653.17	870.08
653.51	863.62
653.85	857.49
654.20	851.17
654.54	844.24
654.88	837.68
655.22	830.99
655.56	824.41
655.90	818.04
656.25	812.06
656.59	806.05
656.93	800.32
657.27	794.42
657.61	788.18
657.95	782.30
658.29	776.46
658.64	770.48
658.98	764.38
659.32	758.17
659.66	752.18
660.00	746.12
660.34	740.40
660.68	734.85
661.02	729.07
661.36	723.60
661.70	718.47
662.05	713.55
662.39	708.63
662.73	703.53
663.07	698.57
663.41	693.53
663.75	688.38
664.09	683.06
664.43	678.05
664.77	673.36
665.11	668.52
665.45	663.84
665.79	659.18
666.13	654.51
666.47	649.83
666.81	645.17
667.15	640.43
667.49	635.91
667.83	631.54
668.17	627.09
668.51	622.46
668.85	617.86
669.19	613.40
669.53	609.04
669.87	604.65
670.21	600.39
670.55	596.22
670.89	592.27
671.23	588.46
671.57	584.41
671.91	580.41
672.25	576.39
672.58	572.33
672.92	568.43
673.26	564.80
673.60	561.23
673.94	557.70
674.28	554.41
674.62	551.14
674.96	547.62
675.30	544.33
675.64	541.04
675.97	537.83
676.31	534.63
676.65	531.32
676.99	528.28
677.33	525.06
677.67	521.87
678.01	518.46
678.34	515.11
678.68	511.89
679.02	508.66
679.36	505.51
679.70	502.47
680.04	499.33
680.37	496.11
680.71	492.91
681.05	489.87
681.39	486.76
681.73	483.74
682.06	480.86
682.40	477.93
682.74	474.99
683.08	472.08
683.42	469.13
683.75	466.24
684.09	463.30
684.43	460.49
684.77	457.63
685.10	454.89
685.44	452.19
685.78	449.53
686.12	446.95
686.45	444.31
686.79	441.70
687.13	439.16
687.46	436.64
687.80	434.12
688.14	431.60
688.48	429.24
688.81	426.65
689.15	424.15
689.49	421.63
689.82	419.29
690.16	416.93
690.50	414.66
690.83	412.45
691.17	410.16
691.51	407.97
691.84	405.86
692.18	403.74
692.52	401.50
692.85	399.27
693.19	397.10
693.52	395.02
693.86	392.91
694.20	390.87
694.53	388.81
694.87	386.75
695.21	384.66
695.54	382.54
695.88	380.54
696.21	378.56
696.55	376.65
696.88	374.67
697.22	372.71
697.56	370.83
697.89	368.98
698.23	367.15
698.56	365.30
698.90	363.49
699.23	361.60
699.57	359.83
699.90	358.11
700.24	356.35
700.58	354.62
700.91	352.96
701.25	351.31
701.58	349.77
701.92	348.22
702.25	346.63
702.59	345.10
702.92	343.58
703.26	342.10
703.59	340.68
703.93	339.31
704.26	337.96
704.60	336.51
704.93	335.00
705.26	333.57
705.60	332.19
705.93	330.85
706.27	329.64
706.60	328.42
706.94	327.13
707.27	325.84
707.61	324.58
707.94	323.37
708.27	322.14
708.61	320.90
708.94	319.74
709.28	318.62
709.61	317.55
709.94	316.45
710.28	315.29
710.61	314.10
710.95	312.90
711.28	311.79
711.61	310.67
711.95	309.66
712.28	308.61
712.61	307.50
712.95	306.44
713.28	305.41
713.61	304.38
713.95	303.40
714.28	302.46
714.61	301.47
714.95	300.51
715.28	299.54
715.61	298.51
715.95	297.50
716.28	296.52
716.61	295.52
716.95	294.60
717.28	293.74
717.61	292.89
717.94	292.04
718.28	291.17
718.61	290.32
718.94	289.51
719.27	288.71
719.61	287.96
719.94	287.19
720.27	286.39
720.60	285.62
720.94	284.87
721.27	284.15
721.60	283.48
721.93	282.79
722.27	282.13
722.60	281.50
722.93	280.84
723.26	280.24
723.59	279.60
723.93	278.94
724.26	278.30
724.59	277.66
724.92	277.03
725.25	276.41
725.59	275.82
725.92	275.20
726.25	274.66
726.58	274.11
726.91	273.58
727.24	273.02
727.57	272.49
727.91	271.92
728.24	271.38
728.57	270.78
728.90	270.26
729.23	269.72
729.56	269.21
729.89	268.68
730.22	268.13
730.55	267.56
730.89	267.07
731.22	266.57
731.55	266.08
731.88	265.60
732.21	265.09
732.54	264.61
732.87	264.13
733.20	263.61
733.53	263.12
733.86	262.63
734.19	262.18
734.52	261.70
734.85	261.34
735.18	260.84
735.51	260.44
735.84	260.01
736.17	259.59
736.50	259.15
736.83	258.85
737.16	258.46
737.49	258.07
737.82	257.70
738.15	257.31
738.48	256.93
738.81	256.53
739.14	256.18
739.47	255.84
739.80	255.49
740.13	255.15
740.46	254.83
740.79	254.47
741.12	254.10
741.45	253.77
741.78	253.39
742.11	253.11
742.44	252.72
742.77	252.36
743.10	252.03
743.43	251.69
743.75	251.28
744.08	251.11
744.41	250.84
744.74	250.53
745.07	250.17
745.40	249.89
745.73	249.68
746.06	249.40
746.39	249.12
746.71	248.83
747.04	248.53
747.37	248.22
747.70	247.93
748.03	247.71
748.36	247.47
748.68	247.17
749.01	246.85
749.34	246.61
749.67	246.37
750.00	246.13
750.33	245.94
750.65	245.71
750.98	245.34
751.31	245.09
751.64	244.83
751.97	244.68
752.29	244.44
752.62	244.13
752.95	243.86
753.28	243.60
753.60	243.37
753.93	243.19
754.26	242.98
754.59	242.78
754.91	242.48
755.24	242.27
755.57	242.08
755.90	241.92
756.22	241.68
756.55	241.46
756.88	241.23
757.20	240.99
757.53	240.76
757.86	240.57
758.19	240.37
758.51	240.21
758.84	239.93
759.17	239.72
759.49	239.56
759.82	239.41
760.15	239.22
760.47	239.02
760.80	238.81
761.13	238.69
761.45	238.47
761.78	238.33
762.11	238.17
762.43	238.00
762.76	237.81
763.08	237.71
763.41	237.55
763.74	237.39
764.06	237.22
764.39	237.03
764.71	236.88
765.04	236.71
765.37	236.54
765.69	236.45
766.02	236.29
766.34	236.13
766.67	235.95
767.00	235.84
767.32	235.76
767.65	235.68
767.97	235.50
768.30	235.37
768.62	235.23
768.95	235.05
769.27	234.90
769.60	234.79
769.92	234.61
770.25	234.49
770.57	234.34
770.90	234.21
771.22	234.11
771.55	233.97
771.87	233.85
772.20	233.75
772.52	233.69
772.85	233.67
773.17	233.55
773.50	233.46
773.82	233.34
774.15	233.15
774.47	232.97
774.80	232.86
775.12	232.75
775.45	232.65
775.77	232.56
776.09	232.48
776.42	232.39
776.74	232.33
777.07	232.24
777.39	232.18
777.72	232.08
778.04	232.01
778.36	231.92
778.69	231.85
779.01	231.78
779.33	231.62
779.66	231.42
779.98	231.35
780.31	231.26
780.63	231.24
780.95	231.21
781.28	231.16
781.60	231.09
781.92	231.00
782.25	230.92
782.57	230.83
782.89	230.76
783.22	230.66
783.54	230.58
783.86	230.51
784.19	230.42
784.51	230.38
784.83	230.29
785.16	230.25
785.48	230.19
785.80	230.11
786.12	230.06
786.45	230.01
