SpectraSuite Data File
++++++++++++++++++++++++++++++++++++
Date: Fri Feb 01 14:51:34 EST 2013
User: group
Dark Spectrum Present: No
Reference Spectrum Present: No
Number of Sampled Component Spectra: 1
Spectrometers: USB2E7196
Integration Time (usec): 35000 (USB2E7196)
Spectra Averaged: 100 (USB2E7196)
Boxcar Smoothing: 10 (USB2E7196)
Correct for Electrical Dark: No (USB2E7196)
Strobe/Lamp Enabled: No (USB2E7196)
Correct for Detector Non-linearity: No (USB2E7196)
Correct for Stray Light: No (USB2E7196)
Number of Pixels in Processed Spectrum: 2048
>>>>>Begin Processed Spectral Data<<<<<
339.09	0.00
339.48	215.68
339.86	216.56
340.24	218.61
340.63	219.78
341.01	222.51
341.39	222.79
341.78	224.31
342.16	225.02
342.54	225.66
342.93	214.03
343.31	224.88
343.69	225.43
344.07	225.92
344.46	226.35
344.84	226.73
345.22	226.96
345.60	227.19
345.99	227.36
346.37	227.50
346.75	227.59
347.13	227.65
347.52	227.71
347.90	227.80
348.28	227.86
348.66	227.90
349.05	227.87
349.43	227.95
349.81	227.99
350.19	228.05
350.57	228.10
350.96	228.17
351.34	228.22
351.72	228.32
352.10	228.42
352.48	228.47
352.87	228.55
353.25	228.65
353.63	228.74
354.01	228.80
354.39	228.88
354.77	228.98
355.15	229.10
355.54	229.14
355.92	229.12
356.30	229.18
356.68	229.30
357.06	229.35
357.44	229.35
357.82	229.40
358.20	229.45
358.58	229.51
358.97	229.56
359.35	229.62
359.73	229.66
360.11	229.69
360.49	229.75
360.87	229.76
361.25	229.80
361.63	229.83
362.01	229.86
362.39	229.88
362.77	229.91
363.15	229.92
363.53	229.98
363.91	230.00
364.29	229.99
364.67	229.90
365.05	229.92
365.43	229.93
365.81	229.94
366.19	229.99
366.57	229.97
366.95	229.95
367.33	229.90
367.71	229.86
368.09	229.89
368.47	229.88
368.85	229.85
369.23	229.80
369.61	229.72
369.99	229.72
370.37	229.69
370.75	229.68
371.13	229.61
371.51	229.53
371.89	229.49
372.27	229.44
372.65	229.40
373.03	229.37
373.41	229.29
373.78	229.20
374.16	229.07
374.54	228.99
374.92	228.90
375.30	228.86
375.68	228.79
376.06	228.67
376.44	228.55
376.82	228.46
377.19	228.39
377.57	228.33
377.95	228.22
378.33	228.12
378.71	227.98
379.09	227.92
379.47	227.86
379.84	227.80
380.22	227.70
380.60	227.62
380.98	227.52
381.36	227.45
381.73	227.33
382.11	227.26
382.49	227.21
382.87	227.10
383.25	227.04
383.62	227.10
384.00	227.02
384.38	226.98
384.76	226.97
385.13	226.96
385.51	226.90
385.89	226.82
386.27	226.79
386.64	226.78
387.02	226.72
387.40	226.66
387.78	226.60
388.15	226.60
388.53	226.56
388.91	226.54
389.29	226.53
389.66	226.56
390.04	226.58
390.42	226.55
390.79	226.61
391.17	226.59
391.55	226.48
391.92	226.47
392.30	226.47
392.68	226.46
393.05	226.46
393.43	226.51
393.81	226.55
394.18	226.58
394.56	226.61
394.94	226.70
395.31	226.72
395.69	226.79
396.06	226.83
396.44	226.91
396.82	226.96
397.19	227.07
397.57	227.13
397.95	227.17
398.32	227.24
398.70	227.30
399.07	227.41
399.45	227.49
399.82	227.64
400.20	227.74
400.58	227.86
400.95	227.91
401.33	228.02
401.70	228.19
402.08	228.29
402.45	228.40
402.83	228.51
403.20	228.66
403.58	228.82
403.95	228.95
404.33	229.09
404.71	229.24
405.08	229.43
405.46	229.58
405.83	229.75
406.21	229.92
406.58	230.09
406.96	230.25
407.33	230.42
407.70	230.58
408.08	230.85
408.45	231.06
408.83	231.31
409.20	231.53
409.58	231.74
409.95	232.01
410.33	232.26
410.70	232.47
411.08	232.75
411.45	233.05
411.82	233.38
412.20	233.74
412.57	234.12
412.95	234.41
413.32	234.80
413.69	235.20
414.07	235.65
414.44	236.10
414.82	236.56
415.19	237.10
415.56	237.67
415.94	238.19
416.31	238.82
416.68	239.43
417.06	240.13
417.43	240.80
417.81	241.56
418.18	242.35
418.55	243.17
418.93	244.02
419.30	244.89
419.67	245.82
420.04	246.77
420.42	247.76
420.79	248.90
421.16	250.06
421.54	251.23
421.91	252.43
422.28	253.72
422.66	255.05
423.03	256.35
423.40	257.65
423.77	259.06
424.15	260.45
424.52	261.96
424.89	263.54
425.26	265.06
425.64	266.49
426.01	268.06
426.38	269.76
426.75	271.45
427.13	273.14
427.50	274.90
427.87	276.73
428.24	278.60
428.61	280.34
428.99	282.25
429.36	284.34
429.73	286.36
430.10	288.36
430.47	290.39
430.85	292.48
431.22	294.68
431.59	297.06
431.96	299.32
432.33	301.75
432.70	304.17
433.08	306.98
433.45	309.59
433.82	312.20
434.19	315.10
434.56	317.88
434.93	320.55
435.30	323.20
435.68	326.12
436.05	328.96
436.42	331.79
436.79	334.30
437.16	336.96
437.53	339.83
437.90	342.65
438.27	345.38
438.64	348.24
439.01	350.89
439.38	353.17
439.75	355.36
440.13	357.91
440.50	360.23
440.87	362.07
441.24	364.07
441.61	366.24
441.98	367.70
442.35	369.51
442.72	371.38
443.09	373.19
443.46	374.19
443.83	374.77
444.20	375.27
444.57	376.13
444.94	376.44
445.31	376.81
445.68	377.17
446.05	377.28
446.42	376.89
446.79	376.44
447.16	376.00
447.53	375.68
447.90	374.53
448.27	373.36
448.64	371.79
449.01	370.61
449.37	368.68
449.74	366.78
450.11	364.58
450.48	362.11
450.85	359.55
451.22	357.43
451.59	355.40
451.96	353.42
452.33	350.81
452.70	348.51
453.07	345.68
453.43	342.81
453.80	340.08
454.17	337.45
454.54	334.95
454.91	332.20
455.28	329.51
455.65	326.99
456.02	324.54
456.38	322.40
456.75	319.77
457.12	317.46
457.49	315.25
457.86	313.08
458.23	311.20
458.59	309.20
458.96	307.08
459.33	305.25
459.70	303.44
460.07	301.92
460.43	300.15
460.80	298.51
461.17	297.04
461.54	295.51
461.91	294.07
462.27	292.58
462.64	291.36
463.01	289.99
463.38	288.68
463.74	287.31
464.11	286.12
464.48	285.11
464.85	284.02
465.21	283.12
465.58	282.17
465.95	281.06
466.32	280.12
466.68	279.19
467.05	278.25
467.42	277.31
467.78	276.38
468.15	275.48
468.52	274.81
468.88	273.91
469.25	273.10
469.62	272.41
469.98	271.72
470.35	271.03
470.72	270.40
471.08	269.75
471.45	269.23
471.82	268.68
472.18	268.04
472.55	267.58
472.92	267.04
473.28	266.57
473.65	266.12
474.02	265.66
474.38	265.29
474.75	264.96
475.11	264.59
475.48	264.31
475.85	264.07
476.21	263.82
476.58	263.62
476.94	263.48
477.31	263.30
477.67	263.13
478.04	263.04
478.41	263.00
478.77	263.02
479.14	262.93
479.50	262.93
479.87	263.01
480.23	263.09
480.60	263.15
480.96	263.21
481.33	263.40
481.69	263.57
482.06	263.80
482.42	263.98
482.79	264.25
483.15	264.57
483.52	264.97
483.88	265.31
484.25	265.73
484.61	266.14
484.98	266.66
485.34	267.21
485.71	267.77
486.07	268.34
486.44	268.88
486.80	269.56
487.17	270.29
487.53	271.08
487.90	271.93
488.26	272.87
488.62	273.85
488.99	274.84
489.35	275.90
489.72	276.98
490.08	278.18
490.44	279.38
490.81	280.71
491.17	282.02
491.54	283.47
491.90	285.01
492.26	286.64
492.63	288.31
492.99	290.08
493.36	291.96
493.72	293.99
494.08	296.11
494.45	298.35
494.81	300.71
495.17	303.09
495.54	305.60
495.90	308.26
496.26	311.04
496.63	313.97
496.99	317.09
497.35	320.28
497.72	323.67
498.08	327.19
498.44	330.81
498.80	334.71
499.17	338.70
499.53	342.79
499.89	347.13
500.26	351.59
500.62	356.22
500.98	361.13
501.34	366.19
501.71	371.44
502.07	376.82
502.43	382.34
502.79	388.11
503.16	394.16
503.52	400.38
503.88	406.71
504.24	413.27
504.60	420.10
504.97	427.21
505.33	434.41
505.69	442.05
506.05	449.76
506.41	457.65
506.78	465.76
507.14	474.20
507.50	482.89
507.86	491.88
508.22	500.96
508.59	510.09
508.95	519.63
509.31	529.39
509.67	539.47
510.03	549.72
510.39	560.30
510.75	571.07
511.12	581.96
511.48	593.27
511.84	604.65
512.20	616.17
512.56	628.04
512.92	640.29
513.28	652.55
513.64	665.01
514.00	677.62
514.37	690.52
514.73	703.46
515.09	716.41
515.45	729.72
515.81	743.26
516.17	757.23
516.53	771.30
516.89	785.44
517.25	799.65
517.61	814.09
517.97	828.50
518.33	842.94
518.69	857.68
519.05	872.62
519.41	887.86
519.77	903.35
520.13	918.89
520.49	934.28
520.85	949.79
521.21	965.59
521.57	981.90
521.93	997.78
522.29	1014.32
522.65	1030.61
523.01	1046.85
523.37	1063.09
523.73	1079.41
524.09	1095.56
524.45	1111.92
524.81	1128.66
525.17	1145.59
525.53	1162.56
525.89	1179.52
526.25	1196.51
526.61	1212.96
526.97	1229.79
527.33	1246.41
527.68	1263.09
528.04	1279.64
528.40	1296.33
528.76	1313.45
529.12	1330.10
529.48	1346.99
529.84	1363.11
530.20	1379.84
530.56	1397.03
530.91	1414.42
531.27	1431.16
531.63	1447.73
531.99	1464.52
532.35	1480.52
532.71	1496.37
533.07	1512.83
533.42	1528.71
533.78	1544.67
534.14	1561.04
534.50	1576.37
534.86	1592.14
535.21	1607.31
535.57	1623.36
535.93	1638.95
536.29	1653.72
536.65	1668.96
537.00	1683.87
537.36	1699.25
537.72	1713.91
538.08	1728.32
538.44	1742.27
538.79	1756.30
539.15	1770.10
539.51	1783.87
539.87	1798.28
540.22	1812.10
540.58	1825.77
540.94	1839.30
541.29	1852.51
541.65	1865.31
542.01	1878.59
542.37	1891.04
542.72	1903.71
543.08	1915.57
543.44	1927.97
543.79	1939.28
544.15	1950.25
544.51	1961.90
544.87	1972.90
545.22	1983.65
545.58	1993.81
545.94	2003.51
546.29	2013.29
546.65	2023.07
547.01	2032.18
547.36	2040.87
547.72	2049.43
548.07	2057.36
548.43	2065.54
548.79	2073.36
549.14	2080.86
549.50	2088.21
549.86	2095.90
550.21	2103.04
550.57	2110.08
550.92	2116.55
551.28	2123.67
551.64	2130.60
551.99	2136.95
552.35	2143.01
552.70	2149.11
553.06	2155.13
553.41	2161.40
553.77	2167.50
554.13	2173.38
554.48	2179.53
554.84	2184.84
555.19	2190.05
555.55	2194.97
555.90	2199.19
556.26	2204.02
556.61	2208.51
556.97	2212.59
557.32	2216.64
557.68	2220.65
558.03	2224.87
558.39	2228.64
558.74	2233.09
559.10	2236.96
559.45	2240.43
559.81	2244.58
560.16	2248.33
560.52	2251.42
560.87	2254.80
561.23	2257.21
561.58	2260.16
561.94	2262.48
562.29	2264.75
562.64	2267.42
563.00	2270.00
563.35	2273.48
563.71	2276.60
564.06	2279.76
564.42	2282.58
564.77	2284.76
565.12	2286.84
565.48	2288.44
565.83	2290.00
566.19	2291.14
566.54	2291.93
566.89	2293.05
567.25	2293.37
567.60	2294.51
567.96	2295.83
568.31	2296.34
568.66	2297.20
569.02	2297.57
569.37	2297.70
569.72	2298.38
570.08	2298.04
570.43	2297.54
570.78	2296.54
571.14	2294.73
571.49	2293.23
571.84	2292.58
572.20	2291.18
572.55	2289.98
572.90	2288.34
573.26	2286.68
573.61	2284.83
573.96	2282.71
574.31	2279.45
574.67	2276.26
575.02	2272.38
575.37	2268.87
575.72	2264.96
576.08	2261.51
576.43	2257.98
576.78	2254.24
577.13	2250.81
577.49	2247.69
577.84	2244.30
578.19	2240.48
578.54	2236.47
578.90	2231.91
579.25	2226.29
579.60	2221.33
579.95	2216.06
580.30	2210.79
580.66	2205.43
581.01	2200.15
581.36	2195.06
581.71	2190.62
582.06	2186.02
582.42	2181.47
582.77	2176.10
583.12	2171.35
583.47	2166.45
583.82	2161.28
584.17	2155.82
584.53	2150.12
584.88	2144.24
585.23	2138.25
585.58	2132.71
585.93	2127.10
586.28	2122.31
586.63	2117.05
586.98	2111.87
587.34	2107.22
587.69	2102.24
588.04	2096.88
588.39	2091.04
588.74	2084.48
589.09	2078.25
589.44	2071.18
589.79	2064.84
590.14	2059.00
590.49	2052.24
590.84	2045.68
591.19	2039.51
591.54	2032.83
591.89	2025.38
592.25	2018.45
592.60	2011.14
592.95	2003.47
593.30	1996.07
593.65	1988.31
594.00	1981.13
594.35	1973.73
594.70	1965.47
595.05	1958.23
595.40	1950.92
595.75	1943.54
596.10	1937.15
596.45	1930.25
596.80	1924.18
597.15	1917.55
597.50	1910.42
597.85	1903.97
598.19	1897.31
598.54	1890.08
598.89	1883.40
599.24	1877.47
599.59	1870.71
599.94	1864.45
600.29	1857.94
600.64	1851.34
600.99	1843.79
601.34	1836.89
601.69	1829.87
602.04	1822.82
602.39	1815.31
602.74	1808.37
603.08	1801.45
603.43	1794.79
603.78	1787.53
604.13	1780.23
604.48	1772.94
604.83	1766.20
605.18	1759.10
605.53	1750.93
605.87	1743.08
606.22	1735.91
606.57	1728.01
606.92	1720.73
607.27	1713.50
607.62	1706.62
607.96	1699.42
608.31	1693.08
608.66	1685.48
609.01	1677.95
609.36	1670.49
609.70	1662.61
610.05	1654.78
610.40	1647.28
610.75	1638.94
611.10	1631.38
611.44	1623.21
611.79	1615.24
612.14	1606.53
612.49	1597.57
612.83	1589.45
613.18	1581.44
613.53	1573.40
613.88	1564.95
614.22	1556.80
614.57	1548.50
614.92	1540.55
615.27	1532.98
615.61	1524.57
615.96	1516.71
616.31	1509.22
616.65	1502.05
617.00	1494.55
617.35	1486.76
617.70	1478.38
618.04	1469.95
618.39	1461.83
618.74	1454.18
619.08	1446.01
619.43	1438.61
619.78	1431.81
620.12	1424.71
620.47	1417.26
620.82	1409.23
621.16	1402.05
621.51	1394.48
621.85	1386.92
622.20	1378.62
622.55	1370.44
622.89	1362.75
623.24	1355.35
623.59	1348.05
623.93	1340.52
624.28	1333.30
624.62	1325.96
624.97	1318.87
625.32	1312.22
625.66	1305.29
626.01	1298.18
626.35	1290.76
626.70	1283.08
627.04	1275.38
627.39	1267.65
627.73	1260.26
628.08	1253.37
628.43	1245.94
628.77	1238.63
629.12	1231.08
629.46	1223.85
629.81	1216.50
630.15	1209.36
630.50	1201.99
630.84	1193.86
631.19	1186.08
631.53	1178.70
631.88	1171.21
632.22	1163.79
632.57	1156.69
632.91	1149.27
633.26	1141.94
633.60	1134.73
633.95	1127.73
634.29	1120.75
634.64	1114.19
634.98	1106.94
635.32	1099.95
635.67	1093.49
636.01	1086.95
636.36	1080.24
636.70	1073.90
637.05	1067.45
637.39	1061.06
637.73	1054.61
638.08	1048.87
638.42	1042.96
638.77	1036.65
639.11	1030.20
639.45	1023.78
639.80	1017.16
640.14	1010.80
640.49	1004.36
640.83	998.20
641.17	992.01
641.52	985.84
641.86	979.51
642.20	973.73
642.55	967.57
642.89	961.22
643.23	954.71
643.58	949.10
643.92	942.92
644.26	936.92
644.61	930.97
644.95	924.98
645.29	918.46
645.64	911.82
645.98	905.62
646.32	899.88
646.66	893.96
647.01	888.22
647.35	882.60
647.69	876.90
648.04	871.39
648.38	865.62
648.72	859.63
649.06	853.66
649.41	847.86
649.75	841.80
650.09	835.90
650.43	830.20
650.78	824.04
651.12	818.16
651.46	812.42
651.80	806.60
652.14	801.26
652.49	795.94
652.83	790.80
653.17	785.09
653.51	779.32
653.85	773.95
654.20	768.32
654.54	762.37
654.88	756.75
655.22	750.93
655.56	745.32
655.90	739.89
656.25	734.57
656.59	729.24
656.93	724.24
657.27	719.14
657.61	713.72
657.95	708.63
658.29	703.56
658.64	698.42
658.98	693.26
659.32	687.90
659.66	682.71
660.00	677.44
660.34	672.53
660.68	667.73
661.02	662.81
661.36	658.11
661.70	653.63
662.05	649.26
662.39	644.97
662.73	640.63
663.07	636.30
663.41	631.97
663.75	627.50
664.09	623.04
664.43	618.70
664.77	614.65
665.11	610.50
665.45	606.47
665.79	602.45
666.13	598.40
666.47	594.34
666.81	590.19
667.15	586.16
667.49	582.36
667.83	578.61
668.17	574.66
668.51	570.69
668.85	566.75
669.19	562.95
669.53	559.14
669.87	555.35
670.21	551.76
670.55	548.16
670.89	544.75
671.23	541.35
671.57	537.86
671.91	534.43
672.25	530.96
672.58	527.45
672.92	524.11
673.26	520.97
673.60	517.86
673.94	514.88
674.28	512.01
674.62	509.16
674.96	506.06
675.30	503.23
675.64	500.36
675.97	497.64
676.31	494.87
676.65	491.95
676.99	489.23
677.33	486.43
677.67	483.65
678.01	480.70
678.34	477.78
678.68	474.99
679.02	472.21
679.36	469.54
679.70	466.91
680.04	464.17
680.37	461.33
680.71	458.62
681.05	456.01
681.39	453.33
681.73	450.67
682.06	448.17
682.40	445.64
682.74	443.19
683.08	440.69
683.42	438.07
683.75	435.69
684.09	433.19
684.43	430.71
684.77	428.29
685.10	425.98
685.44	423.71
685.78	421.39
686.12	419.17
686.45	416.93
686.79	414.69
687.13	412.55
687.46	410.44
687.80	408.28
688.14	406.10
688.48	404.08
688.81	401.84
689.15	399.78
689.49	397.67
689.82	395.56
690.16	393.44
690.50	391.52
690.83	389.56
691.17	387.53
691.51	385.66
691.84	383.80
692.18	381.89
692.52	379.89
692.85	378.00
693.19	376.14
693.52	374.26
693.86	372.44
694.20	370.66
694.53	368.82
694.87	367.01
695.21	365.21
695.54	363.37
695.88	361.67
696.21	359.91
696.55	358.22
696.88	356.61
697.22	354.99
697.56	353.33
697.89	351.69
698.23	350.13
698.56	348.55
698.90	346.99
699.23	345.34
699.57	343.80
699.90	342.28
700.24	340.75
700.58	339.22
700.91	337.71
701.25	336.29
701.58	334.95
701.92	333.59
702.25	332.21
702.59	330.85
702.92	329.53
703.26	328.24
703.59	326.96
703.93	325.77
704.26	324.54
704.60	323.29
704.93	322.03
705.26	320.79
705.60	319.60
705.93	318.48
706.27	317.48
706.60	316.47
706.94	315.45
707.27	314.35
707.61	313.38
707.94	312.39
708.27	311.32
708.61	310.29
708.94	309.30
709.28	308.39
709.61	307.47
709.94	306.56
710.28	305.56
710.61	304.62
710.95	303.57
711.28	302.69
711.61	301.76
711.95	300.85
712.28	299.98
712.61	299.01
712.95	298.10
713.28	297.22
713.61	296.37
713.95	295.47
714.28	294.63
714.61	293.74
714.95	292.91
715.28	292.06
715.61	291.21
715.95	290.40
716.28	289.56
716.61	288.74
716.95	287.95
717.28	287.27
717.61	286.54
717.94	285.84
718.28	285.07
718.61	284.38
718.94	283.73
719.27	283.06
719.61	282.47
719.94	281.82
720.27	281.16
720.60	280.51
720.94	279.90
721.27	279.35
721.60	278.78
721.93	278.22
722.27	277.72
722.60	277.19
722.93	276.63
723.26	276.14
723.59	275.60
723.93	275.05
724.26	274.48
724.59	273.91
724.92	273.39
725.25	272.87
725.59	272.36
725.92	271.85
726.25	271.35
726.58	270.88
726.91	270.38
727.24	269.88
727.57	269.40
727.91	268.91
728.24	268.41
728.57	267.92
728.90	267.45
729.23	266.97
729.56	266.51
729.89	266.06
730.22	265.52
730.55	265.05
730.89	264.61
731.22	264.19
731.55	263.74
731.88	263.29
732.21	262.87
732.54	262.42
732.87	261.97
733.20	261.53
733.53	261.14
733.86	260.76
734.19	260.39
734.52	259.98
734.85	259.66
735.18	259.24
735.51	258.93
735.84	258.54
736.17	258.15
736.50	257.75
736.83	257.49
737.16	257.14
737.49	256.79
737.82	256.43
738.15	256.08
738.48	255.75
738.81	255.37
739.14	255.03
739.47	254.72
739.80	254.44
740.13	254.16
740.46	253.83
740.79	253.46
741.12	253.14
741.45	252.84
741.78	252.49
742.11	252.22
742.44	251.82
742.77	251.54
743.10	251.24
743.43	250.95
743.75	250.56
744.08	250.42
744.41	250.19
744.74	249.92
745.07	249.64
745.40	249.41
745.73	249.21
746.06	248.94
746.39	248.69
746.71	248.42
747.04	248.14
747.37	247.88
747.70	247.72
748.03	247.46
748.36	247.26
748.68	247.05
749.01	246.80
749.34	246.60
749.67	246.39
750.00	246.18
750.33	246.00
750.65	245.84
750.98	245.49
751.31	245.26
751.64	245.06
751.97	244.91
752.29	244.70
752.62	244.45
752.95	244.29
753.28	244.07
753.60	243.88
753.93	243.71
754.26	243.51
754.59	243.29
754.91	243.09
755.24	242.90
755.57	242.72
755.90	242.55
756.22	242.35
756.55	242.18
756.88	242.02
757.20	241.81
757.53	241.59
757.86	241.47
758.19	241.35
758.51	241.18
758.84	240.97
759.17	240.78
759.49	240.66
759.82	240.53
760.15	240.39
760.47	240.25
760.80	240.10
761.13	240.01
761.45	239.81
761.78	239.68
762.11	239.52
762.43	239.38
762.76	239.23
763.08	239.15
763.41	239.01
763.74	238.86
764.06	238.75
764.39	238.63
764.71	238.48
765.04	238.28
765.37	238.15
765.69	238.04
766.02	237.93
766.34	237.79
766.67	237.62
767.00	237.57
767.32	237.50
767.65	237.44
767.97	237.29
768.30	237.20
768.62	237.08
768.95	236.94
769.27	236.82
769.60	236.77
769.92	236.60
770.25	236.47
770.57	236.33
770.90	236.21
771.22	236.06
771.55	235.95
771.87	235.91
772.20	235.80
772.52	235.76
772.85	235.78
773.17	235.72
773.50	235.61
773.82	235.44
774.15	235.29
774.47	235.09
774.80	235.00
775.12	234.92
775.45	234.84
775.77	234.77
776.09	234.67
776.42	234.55
776.74	234.45
777.07	234.35
777.39	234.31
777.72	234.21
778.04	234.14
778.36	234.04
778.69	233.94
779.01	233.89
779.33	233.74
779.66	233.50
779.98	233.36
780.31	233.30
780.63	233.27
780.95	233.24
781.28	233.20
781.60	233.10
781.92	233.01
782.25	232.94
782.57	232.90
782.89	232.82
783.22	232.75
783.54	232.69
783.86	232.66
784.19	232.57
784.51	232.54
784.83	232.47
785.16	232.43
785.48	232.37
785.80	232.31
786.12	232.24
786.45	232.22
786.77	232.22
787.09	232.13
