SpectraSuite Data File
++++++++++++++++++++++++++++++++++++
Date: Fri Feb 01 17:45:01 EST 2013
User: group
Dark Spectrum Present: No
Reference Spectrum Present: No
Number of Sampled Component Spectra: 1
Spectrometers: USB2E7196
Integration Time (usec): 35000 (USB2E7196)
Spectra Averaged: 100 (USB2E7196)
Boxcar Smoothing: 10 (USB2E7196)
Correct for Electrical Dark: No (USB2E7196)
Strobe/Lamp Enabled: No (USB2E7196)
Correct for Detector Non-linearity: No (USB2E7196)
Correct for Stray Light: No (USB2E7196)
Number of Pixels in Processed Spectrum: 2048
>>>>>Begin Processed Spectral Data<<<<<
339.09	0.00
339.48	212.57
339.86	213.83
340.24	214.92
340.63	217.05
341.01	219.12
341.39	219.42
341.78	220.81
342.16	221.53
342.54	222.37
342.93	210.97
343.31	221.66
343.69	222.21
344.07	222.73
344.46	223.16
344.84	223.53
345.22	223.80
345.60	224.07
345.99	224.26
346.37	224.39
346.75	224.51
347.13	224.56
347.52	224.60
347.90	224.68
348.28	224.65
348.66	224.72
349.05	224.72
349.43	224.74
349.81	224.78
350.19	224.84
350.57	224.90
350.96	225.00
351.34	225.04
351.72	225.13
352.10	225.18
352.48	225.28
352.87	225.32
353.25	225.37
353.63	225.40
354.01	225.47
354.39	225.55
354.77	225.64
355.15	225.76
355.54	225.81
355.92	225.84
356.30	225.93
356.68	226.06
357.06	226.07
357.44	226.11
357.82	226.21
358.20	226.27
358.58	226.31
358.97	226.33
359.35	226.43
359.73	226.50
360.11	226.54
360.49	226.60
360.87	226.65
361.25	226.71
361.63	226.83
362.01	226.85
362.39	226.91
362.77	226.93
363.15	226.93
363.53	227.00
363.91	227.04
364.29	227.06
364.67	226.98
365.05	227.02
365.43	227.06
365.81	227.05
366.19	227.09
366.57	227.14
366.95	227.16
367.33	227.13
367.71	227.12
368.09	227.13
368.47	227.11
368.85	227.11
369.23	227.11
369.61	227.02
369.99	227.05
370.37	227.05
370.75	227.05
371.13	227.01
371.51	226.96
371.89	226.93
372.27	226.91
372.65	226.90
373.03	226.88
373.41	226.84
373.78	226.77
374.16	226.66
374.54	226.59
374.92	226.54
375.30	226.49
375.68	226.41
376.06	226.34
376.44	226.27
376.82	226.24
377.19	226.17
377.57	226.12
377.95	226.03
378.33	225.93
378.71	225.82
379.09	225.75
379.47	225.68
379.84	225.59
380.22	225.52
380.60	225.43
380.98	225.35
381.36	225.25
381.73	225.22
382.11	225.20
382.49	225.14
382.87	225.11
383.25	225.06
383.62	225.12
384.00	225.06
384.38	225.05
384.76	225.01
385.13	224.98
385.51	224.96
385.89	224.89
386.27	224.86
386.64	224.85
387.02	224.79
387.40	224.75
387.78	224.74
388.15	224.71
388.53	224.66
388.91	224.62
389.29	224.64
389.66	224.62
390.04	224.59
390.42	224.59
390.79	224.54
391.17	224.51
391.55	224.42
391.92	224.44
392.30	224.42
392.68	224.39
393.05	224.41
393.43	224.39
393.81	224.43
394.18	224.42
394.56	224.40
394.94	224.47
395.31	224.49
395.69	224.51
396.06	224.56
396.44	224.60
396.82	224.61
397.19	224.67
397.57	224.71
397.95	224.77
398.32	224.79
398.70	224.86
399.07	224.95
399.45	225.00
399.82	225.02
400.20	225.07
400.58	225.12
400.95	225.11
401.33	225.21
401.70	225.32
402.08	225.42
402.45	225.53
402.83	225.64
403.20	225.77
403.58	225.90
403.95	226.00
404.33	226.15
404.71	226.30
405.08	226.49
405.46	226.62
405.83	226.79
406.21	226.95
406.58	227.12
406.96	227.30
407.33	227.50
407.70	227.75
408.08	228.04
408.45	228.33
408.83	228.63
409.20	228.86
409.58	229.09
409.95	229.38
410.33	229.72
410.70	230.00
411.08	230.35
411.45	230.72
411.82	231.10
412.20	231.50
412.57	231.99
412.95	232.35
413.32	232.84
413.69	233.33
414.07	233.87
414.44	234.44
414.82	235.03
415.19	235.69
415.56	236.36
415.94	237.05
416.31	237.83
416.68	238.61
417.06	239.51
417.43	240.39
417.81	241.35
418.18	242.32
418.55	243.35
418.93	244.43
419.30	245.54
419.67	246.73
420.04	247.92
420.42	249.14
420.79	250.59
421.16	252.03
421.54	253.50
421.91	254.99
422.28	256.55
422.66	258.21
423.03	259.80
423.40	261.44
423.77	263.15
424.15	264.93
424.52	266.82
424.89	268.86
425.26	270.76
425.64	272.55
426.01	274.49
426.38	276.56
426.75	278.58
427.13	280.73
427.50	282.96
427.87	285.31
428.24	287.60
428.61	289.80
428.99	292.22
429.36	294.80
429.73	297.38
430.10	299.94
430.47	302.49
430.85	305.18
431.22	307.96
431.59	310.94
431.96	313.72
432.33	316.78
432.70	319.67
433.08	323.18
433.45	326.46
433.82	329.69
434.19	333.30
434.56	336.85
434.93	340.14
435.30	343.39
435.68	347.01
436.05	350.60
436.42	354.09
436.79	357.19
437.16	360.61
437.53	364.15
437.90	367.59
438.27	371.03
438.64	374.55
439.01	377.78
439.38	380.52
439.75	383.20
440.13	386.29
440.50	389.26
440.87	391.54
441.24	394.03
441.61	396.74
441.98	398.63
442.35	400.91
442.72	403.25
443.09	405.53
443.46	406.76
443.83	407.44
444.20	408.08
444.57	409.15
444.94	409.51
445.31	409.94
445.68	410.36
446.05	410.47
446.42	409.98
446.79	409.49
447.16	409.06
447.53	408.70
447.90	407.28
448.27	405.83
448.64	403.94
449.01	402.53
449.37	400.08
449.74	397.69
450.11	394.87
450.48	391.76
450.85	388.58
451.22	385.93
451.59	383.44
451.96	381.03
452.33	377.81
452.70	374.88
453.07	371.40
453.43	367.86
453.80	364.38
454.17	361.08
454.54	357.93
454.91	354.49
455.28	351.17
455.65	348.08
456.02	344.97
456.38	342.23
456.75	338.87
457.12	336.11
457.49	333.34
457.86	330.66
458.23	328.40
458.59	325.83
458.96	323.19
459.33	320.93
459.70	318.56
460.07	316.70
460.43	314.51
460.80	312.44
461.17	310.59
461.54	308.70
461.91	306.88
462.27	305.04
462.64	303.46
463.01	301.73
463.38	300.09
463.74	298.42
464.11	296.94
464.48	295.65
464.85	294.22
465.21	293.11
465.58	291.95
465.95	290.54
466.32	289.41
466.68	288.31
467.05	287.15
467.42	286.02
467.78	284.80
468.15	283.75
468.52	282.91
468.88	281.88
469.25	280.90
469.62	280.08
469.98	279.21
470.35	278.42
470.72	277.70
471.08	276.85
471.45	276.12
471.82	275.41
472.18	274.65
472.55	274.09
472.92	273.41
473.28	272.83
473.65	272.25
474.02	271.69
474.38	271.18
474.75	270.73
475.11	270.31
475.48	269.97
475.85	269.62
476.21	269.32
476.58	269.03
476.94	268.82
477.31	268.63
477.67	268.41
478.04	268.22
478.41	268.10
478.77	268.12
479.14	268.02
479.50	268.03
479.87	268.06
480.23	268.08
480.60	268.07
480.96	268.12
481.33	268.29
481.69	268.47
482.06	268.66
482.42	268.87
482.79	269.08
483.15	269.36
483.52	269.71
483.88	270.01
484.25	270.39
484.61	270.82
484.98	271.22
485.34	271.79
485.71	272.39
486.07	272.96
486.44	273.51
486.80	274.20
487.17	274.94
487.53	275.74
487.90	276.65
488.26	277.64
488.62	278.62
488.99	279.62
489.35	280.64
489.72	281.77
490.08	282.98
490.44	284.26
490.81	285.62
491.17	287.00
491.54	288.53
491.90	290.07
492.26	291.76
492.63	293.54
492.99	295.36
493.36	297.27
493.72	299.35
494.08	301.53
494.45	303.89
494.81	306.32
495.17	308.84
495.54	311.44
495.90	314.22
496.26	317.10
496.63	320.13
496.99	323.39
497.35	326.77
497.72	330.26
498.08	333.87
498.44	337.70
498.80	341.80
499.17	346.00
499.53	350.34
499.89	354.93
500.26	359.59
500.62	364.41
500.98	369.57
501.34	374.86
501.71	380.37
502.07	385.95
502.43	391.83
502.79	397.81
503.16	404.15
503.52	410.60
503.88	417.26
504.24	424.18
504.60	431.32
504.97	438.73
505.33	446.29
505.69	454.37
506.05	462.43
506.41	470.55
506.78	478.98
507.14	487.76
507.50	496.79
507.86	506.13
508.22	515.68
508.59	525.25
508.95	535.20
509.31	545.44
509.67	556.03
510.03	566.70
510.39	577.78
510.75	588.97
511.12	600.38
511.48	612.13
511.84	624.10
512.20	636.15
512.56	648.60
512.92	661.25
513.28	674.09
513.64	687.08
514.00	700.46
514.37	714.04
514.73	727.71
515.09	741.29
515.45	755.27
515.81	769.46
516.17	784.09
516.53	798.94
516.89	813.81
517.25	828.58
517.61	843.69
517.97	858.74
518.33	873.89
518.69	889.48
519.05	905.17
519.41	921.14
519.77	937.46
520.13	953.75
520.49	970.12
520.85	986.28
521.21	1002.70
521.57	1019.78
521.93	1036.38
522.29	1053.66
522.65	1070.89
523.01	1087.95
523.37	1104.93
523.73	1122.12
524.09	1139.09
524.45	1156.30
524.81	1173.96
525.17	1191.65
525.53	1209.65
525.89	1227.57
526.25	1245.44
526.61	1263.03
526.97	1280.90
527.33	1298.41
527.68	1316.02
528.04	1333.44
528.40	1351.16
528.76	1369.58
529.12	1387.23
529.48	1405.23
529.84	1422.32
530.20	1440.05
530.56	1458.27
530.91	1476.88
531.27	1494.95
531.63	1512.62
531.99	1530.43
532.35	1547.64
532.71	1564.96
533.07	1582.55
533.42	1599.89
533.78	1617.28
534.14	1634.73
534.50	1651.30
534.86	1668.58
535.21	1685.18
535.57	1702.67
535.93	1719.60
536.29	1735.75
536.65	1752.27
537.00	1768.51
537.36	1785.43
537.72	1801.30
538.08	1817.19
538.44	1832.61
538.79	1847.89
539.15	1862.89
539.51	1878.11
539.87	1894.00
540.22	1909.12
540.58	1924.21
540.94	1938.73
541.29	1952.98
541.65	1967.25
542.01	1982.02
542.37	1995.82
542.72	2009.60
543.08	2022.78
543.44	2036.78
543.79	2049.62
544.15	2062.07
544.51	2075.10
544.87	2087.50
545.22	2099.98
545.58	2111.77
545.94	2122.96
546.29	2134.31
546.65	2145.87
547.01	2156.65
547.36	2166.84
547.72	2176.96
548.07	2186.52
548.43	2196.43
548.79	2205.75
549.14	2214.66
549.50	2223.31
549.86	2232.31
550.21	2241.17
550.57	2249.79
550.92	2257.73
551.28	2266.09
551.64	2274.65
551.99	2282.47
552.35	2290.03
552.70	2297.56
553.06	2304.97
553.41	2312.75
553.77	2320.05
554.13	2327.52
554.48	2334.94
554.84	2341.97
555.19	2348.31
555.55	2354.79
555.90	2360.53
556.26	2367.00
556.61	2373.03
556.97	2378.88
557.32	2384.37
557.68	2389.76
558.03	2395.23
558.39	2399.98
558.74	2405.86
559.10	2410.92
559.45	2415.69
559.81	2421.09
560.16	2425.94
560.52	2430.15
560.87	2434.48
561.23	2438.20
561.58	2442.06
561.94	2445.80
562.29	2448.80
562.64	2452.97
563.00	2456.52
563.35	2460.97
563.71	2465.18
564.06	2469.43
564.42	2473.28
564.77	2476.88
565.12	2480.40
565.48	2483.32
565.83	2486.16
566.19	2488.46
566.54	2490.16
566.89	2492.49
567.25	2494.01
567.60	2496.17
567.96	2498.86
568.31	2500.70
568.66	2502.62
569.02	2503.95
569.37	2505.04
569.72	2506.92
570.08	2507.60
570.43	2508.15
570.78	2508.06
571.14	2506.99
571.49	2505.97
571.84	2505.88
572.20	2505.30
572.55	2504.59
572.90	2503.46
573.26	2502.78
573.61	2501.23
573.96	2499.99
574.31	2497.29
574.67	2494.46
575.02	2491.01
575.37	2487.73
575.72	2483.97
576.08	2480.78
576.43	2477.52
576.78	2474.07
577.13	2470.87
577.49	2467.68
577.84	2464.48
578.19	2460.91
578.54	2457.44
578.90	2453.48
579.25	2447.96
579.60	2442.97
579.95	2437.88
580.30	2432.69
580.66	2427.19
581.01	2422.15
581.36	2417.02
581.71	2412.97
582.06	2408.57
582.42	2404.16
582.77	2398.66
583.12	2393.97
583.47	2389.21
583.82	2384.20
584.17	2378.64
584.53	2372.95
584.88	2367.13
585.23	2361.07
585.58	2355.36
585.93	2349.53
586.28	2344.33
586.63	2339.18
586.98	2333.74
587.34	2328.66
587.69	2323.47
588.04	2318.11
588.39	2312.09
588.74	2305.26
589.09	2298.41
589.44	2291.18
589.79	2284.54
590.14	2278.57
590.49	2271.58
590.84	2264.46
591.19	2257.91
591.54	2250.97
591.89	2243.12
592.25	2235.83
592.60	2228.06
592.95	2219.97
593.30	2211.97
593.65	2203.80
594.00	2196.05
594.35	2188.03
594.70	2179.24
595.05	2171.60
595.40	2163.51
595.75	2155.54
596.10	2148.90
596.45	2141.72
596.80	2134.93
597.15	2127.95
597.50	2120.44
597.85	2113.32
598.19	2106.26
598.54	2098.83
598.89	2091.51
599.24	2085.06
599.59	2078.03
599.94	2071.11
600.29	2064.04
600.64	2056.86
600.99	2048.80
601.34	2041.35
601.69	2033.65
602.04	2026.27
602.39	2018.21
602.74	2010.81
603.08	2003.30
603.43	1995.57
603.78	1987.43
604.13	1979.50
604.48	1971.55
604.83	1963.89
605.18	1956.51
605.53	1947.76
605.87	1938.70
606.22	1930.56
606.57	1921.64
606.92	1913.05
607.27	1905.23
607.62	1897.66
607.96	1889.65
608.31	1882.42
608.66	1873.98
609.01	1865.63
609.36	1857.28
609.70	1848.31
610.05	1839.34
610.40	1830.75
610.75	1821.64
611.10	1813.03
611.44	1803.65
611.79	1794.52
612.14	1784.83
612.49	1774.44
612.83	1765.02
613.18	1755.79
613.53	1746.84
613.88	1737.37
614.22	1728.23
614.57	1718.45
614.92	1709.32
615.27	1700.91
615.61	1691.59
615.96	1682.52
616.31	1673.95
616.65	1665.47
617.00	1657.05
617.35	1648.37
617.70	1639.14
618.04	1629.67
618.39	1620.34
618.74	1611.73
619.08	1602.42
619.43	1593.83
619.78	1586.01
620.12	1577.94
620.47	1569.60
620.82	1560.32
621.16	1551.79
621.51	1543.23
621.85	1534.68
622.20	1525.26
622.55	1515.76
622.89	1506.93
623.24	1498.21
623.59	1489.72
623.93	1481.37
624.28	1473.11
624.62	1464.66
624.97	1456.49
625.32	1448.65
625.66	1440.82
626.01	1432.75
626.35	1424.55
626.70	1415.77
627.04	1407.08
627.39	1398.28
627.73	1389.79
628.08	1382.03
628.43	1374.01
628.77	1365.79
629.12	1357.40
629.46	1349.31
629.81	1340.82
630.15	1332.46
630.50	1324.24
630.84	1315.19
631.19	1306.11
631.53	1297.59
631.88	1289.03
632.22	1280.47
632.57	1272.35
632.91	1263.82
633.26	1255.55
633.60	1247.11
633.95	1239.08
634.29	1231.13
634.64	1223.54
634.98	1215.49
635.32	1207.59
635.67	1200.09
636.01	1192.72
636.36	1185.05
636.70	1177.60
637.05	1170.31
637.39	1163.20
637.73	1155.98
638.08	1149.32
638.42	1142.68
638.77	1135.62
639.11	1128.38
639.45	1121.21
639.80	1113.72
640.14	1106.65
640.49	1099.35
640.83	1092.37
641.17	1085.49
641.52	1078.42
641.86	1071.17
642.20	1064.63
642.55	1057.52
642.89	1050.38
643.23	1042.93
643.58	1036.44
643.92	1029.60
644.26	1022.95
644.61	1016.06
644.95	1009.34
645.29	1002.13
645.64	994.73
645.98	987.53
646.32	980.75
646.66	974.15
647.01	967.68
647.35	961.35
647.69	954.87
648.04	948.60
648.38	942.17
648.72	935.63
649.06	929.00
649.41	922.37
649.75	915.71
650.09	909.09
650.43	902.68
650.78	895.89
651.12	889.34
651.46	882.90
651.80	876.68
652.14	870.61
652.49	864.71
652.83	858.84
653.17	852.73
653.51	846.53
653.85	840.41
654.20	834.24
654.54	827.46
654.88	821.02
655.22	814.47
655.56	808.08
655.90	801.89
656.25	796.17
656.59	790.22
656.93	784.63
657.27	778.89
657.61	772.85
657.95	767.14
658.29	761.47
658.64	755.61
658.98	749.68
659.32	743.66
659.66	737.81
660.00	731.97
660.34	726.37
660.68	720.92
661.02	715.32
661.36	710.17
661.70	705.30
662.05	700.54
662.39	695.87
662.73	690.94
663.07	686.08
663.41	681.06
663.75	676.13
664.09	671.01
664.43	666.14
664.77	661.63
665.11	656.96
665.45	652.31
665.79	647.87
666.13	643.32
666.47	638.79
666.81	634.27
667.15	629.66
667.49	625.34
667.83	621.12
668.17	616.78
668.51	612.22
668.85	607.71
669.19	603.35
669.53	599.06
669.87	594.86
670.21	590.77
670.55	586.71
670.89	582.92
671.23	579.13
671.57	575.20
671.91	571.27
672.25	567.34
672.58	563.51
672.92	559.69
673.26	556.11
673.60	552.58
673.94	549.07
674.28	545.87
674.62	542.63
674.96	539.19
675.30	536.06
675.64	532.87
675.97	529.71
676.31	526.56
676.65	523.28
676.99	520.23
677.33	517.01
677.67	513.94
678.01	510.57
678.34	507.32
678.68	504.10
679.02	500.94
679.36	497.80
679.70	494.75
680.04	491.65
680.37	488.57
680.71	485.46
681.05	482.52
681.39	479.55
681.73	476.50
682.06	473.73
682.40	470.78
682.74	467.90
683.08	465.08
683.42	462.13
683.75	459.38
684.09	456.50
684.43	453.81
684.77	451.05
685.10	448.38
685.44	445.77
685.78	443.24
686.12	440.77
686.45	438.30
686.79	435.77
687.13	433.36
687.46	430.92
687.80	428.52
688.14	426.01
688.48	423.67
688.81	421.26
689.15	418.82
689.49	416.42
689.82	414.08
690.16	411.76
690.50	409.62
690.83	407.45
691.17	405.25
691.51	403.15
691.84	401.08
692.18	399.05
692.52	396.88
692.85	394.74
693.19	392.65
693.52	390.58
693.86	388.57
694.20	386.56
694.53	384.59
694.87	382.58
695.21	380.65
695.54	378.63
695.88	376.62
696.21	374.69
696.55	372.87
696.88	371.05
697.22	369.20
697.56	367.40
697.89	365.55
698.23	363.81
698.56	361.98
698.90	360.22
699.23	358.37
699.57	356.66
699.90	354.93
700.24	353.18
700.58	351.50
700.91	349.81
701.25	348.20
701.58	346.66
701.92	345.17
702.25	343.65
702.59	342.15
702.92	340.74
703.26	339.28
703.59	337.85
703.93	336.49
704.26	335.14
704.60	333.70
704.93	332.30
705.26	330.91
705.60	329.57
705.93	328.25
706.27	327.06
706.60	325.88
706.94	324.70
707.27	323.48
707.61	322.32
707.94	321.19
708.27	319.95
708.61	318.71
708.94	317.52
709.28	316.40
709.61	315.28
709.94	314.25
710.28	313.11
710.61	311.96
710.95	310.78
711.28	309.76
711.61	308.68
711.95	307.66
712.28	306.58
712.61	305.51
712.95	304.43
713.28	303.39
713.61	302.35
713.95	301.35
714.28	300.39
714.61	299.39
714.95	298.41
715.28	297.47
715.61	296.48
715.95	295.55
716.28	294.53
716.61	293.56
716.95	292.61
717.28	291.75
717.61	290.95
717.94	290.13
718.28	289.20
718.61	288.41
718.94	287.60
719.27	286.86
719.61	286.15
719.94	285.40
720.27	284.61
720.60	283.85
720.94	283.12
721.27	282.44
721.60	281.80
721.93	281.14
722.27	280.49
722.60	279.84
722.93	279.15
723.26	278.59
723.59	277.99
723.93	277.38
724.26	276.79
724.59	276.11
724.92	275.47
725.25	274.90
725.59	274.30
725.92	273.75
726.25	273.18
726.58	272.60
726.91	272.12
727.24	271.59
727.57	271.07
727.91	270.49
728.24	269.93
728.57	269.38
728.90	268.87
729.23	268.34
729.56	267.92
729.89	267.41
730.22	266.86
730.55	266.37
730.89	265.89
731.22	265.38
731.55	264.90
731.88	264.48
732.21	263.99
732.54	263.49
732.87	263.02
733.20	262.57
733.53	262.12
733.86	261.68
734.19	261.25
734.52	260.84
734.85	260.48
735.18	260.08
735.51	259.67
735.84	259.24
736.17	258.86
736.50	258.41
736.83	258.15
737.16	257.81
737.49	257.41
737.82	257.01
738.15	256.62
738.48	256.26
738.81	255.91
739.14	255.57
739.47	255.23
739.80	254.88
740.13	254.54
740.46	254.20
740.79	253.84
741.12	253.53
741.45	253.17
741.78	252.85
742.11	252.54
742.44	252.19
742.77	251.91
743.10	251.59
743.43	251.29
743.75	250.91
744.08	250.71
744.41	250.39
744.74	250.10
745.07	249.79
745.40	249.52
745.73	249.23
746.06	248.93
746.39	248.65
746.71	248.34
747.04	248.06
747.37	247.79
747.70	247.51
748.03	247.21
748.36	246.97
748.68	246.67
749.01	246.39
749.34	246.15
749.67	245.88
750.00	245.61
750.33	245.37
750.65	245.09
750.98	244.73
751.31	244.49
751.64	244.27
751.97	244.11
752.29	243.88
752.62	243.59
752.95	243.33
753.28	243.10
753.60	242.84
753.93	242.62
754.26	242.36
754.59	242.07
754.91	241.83
755.24	241.61
755.57	241.38
755.90	241.17
756.22	240.93
756.55	240.67
756.88	240.46
757.20	240.21
757.53	239.98
757.86	239.78
758.19	239.61
758.51	239.40
758.84	239.14
759.17	238.92
759.49	238.74
759.82	238.65
760.15	238.46
760.47	238.28
760.80	238.11
761.13	237.93
761.45	237.79
761.78	237.61
762.11	237.41
762.43	237.26
762.76	237.10
763.08	236.96
763.41	236.81
763.74	236.64
764.06	236.47
764.39	236.32
764.71	236.15
765.04	235.96
765.37	235.80
765.69	235.62
766.02	235.48
766.34	235.32
766.67	235.11
767.00	234.99
767.32	234.94
767.65	234.81
767.97	234.68
768.30	234.55
768.62	234.41
768.95	234.28
769.27	234.13
769.60	233.97
769.92	233.83
770.25	233.70
770.57	233.56
770.90	233.48
771.22	233.36
771.55	233.24
771.87	233.15
772.20	233.03
772.52	233.06
772.85	233.11
773.17	233.02
773.50	232.92
773.82	232.82
774.15	232.66
774.47	232.55
774.80	232.46
775.12	232.36
775.45	232.30
775.77	232.23
776.09	232.20
776.42	232.13
776.74	232.07
777.07	231.99
777.39	231.96
777.72	231.88
778.04	231.83
778.36	231.74
778.69	231.67
779.01	231.63
779.33	231.48
779.66	231.28
779.98	231.21
780.31	231.15
780.63	231.10
780.95	231.03
781.28	230.95
781.60	230.91
781.92	230.87
782.25	230.81
782.57	230.75
782.89	230.67
783.22	230.62
783.54	230.58
783.86	230.54
784.19	230.47
784.51	230.42
784.83	230.34
785.16	230.29
785.48	230.26
785.80	230.18
786.12	230.14
786.45	230.07
786.77	230.05
