SpectraSuite Data File
++++++++++++++++++++++++++++++++++++
Date: Fri Feb 01 15:28:06 EST 2013
User: group
Dark Spectrum Present: No
Reference Spectrum Present: No
Number of Sampled Component Spectra: 1
Spectrometers: USB2E7196
Integration Time (usec): 35000 (USB2E7196)
Spectra Averaged: 100 (USB2E7196)
Boxcar Smoothing: 10 (USB2E7196)
Correct for Electrical Dark: No (USB2E7196)
Strobe/Lamp Enabled: No (USB2E7196)
Correct for Detector Non-linearity: No (USB2E7196)
Correct for Stray Light: No (USB2E7196)
Number of Pixels in Processed Spectrum: 2048
>>>>>Begin Processed Spectral Data<<<<<
339.09	0.00
339.48	214.87
339.86	216.72
340.24	218.27
340.63	219.29
341.01	222.35
341.39	222.18
341.78	223.00
342.16	224.38
342.54	225.23
342.93	213.31
343.31	224.07
343.69	224.63
344.07	225.08
344.46	225.47
344.84	225.86
345.22	226.08
345.60	226.33
345.99	226.53
346.37	226.66
346.75	226.75
347.13	226.83
347.52	226.87
347.90	226.94
348.28	226.98
348.66	227.04
349.05	227.04
349.43	227.10
349.81	227.12
350.19	227.19
350.57	227.26
350.96	227.33
351.34	227.43
351.72	227.50
352.10	227.60
352.48	227.65
352.87	227.72
353.25	227.77
353.63	227.81
354.01	227.88
354.39	227.93
354.77	227.98
355.15	228.07
355.54	228.13
355.92	228.14
356.30	228.21
356.68	228.33
357.06	228.39
357.44	228.48
357.82	228.54
358.20	228.59
358.58	228.65
358.97	228.71
359.35	228.79
359.73	228.88
360.11	228.90
360.49	229.00
360.87	229.02
361.25	229.08
361.63	229.16
362.01	229.20
362.39	229.27
362.77	229.36
363.15	229.39
363.53	229.42
363.91	229.47
364.29	229.49
364.67	229.41
365.05	229.44
365.43	229.42
365.81	229.45
366.19	229.52
366.57	229.54
366.95	229.56
367.33	229.53
367.71	229.50
368.09	229.52
368.47	229.48
368.85	229.49
369.23	229.49
369.61	229.43
369.99	229.46
370.37	229.46
370.75	229.46
371.13	229.36
371.51	229.30
371.89	229.27
372.27	229.27
372.65	229.22
373.03	229.17
373.41	229.10
373.78	229.09
374.16	229.00
374.54	228.93
374.92	228.83
375.30	228.78
375.68	228.70
376.06	228.65
376.44	228.59
376.82	228.52
377.19	228.46
377.57	228.39
377.95	228.28
378.33	228.17
378.71	228.01
379.09	227.99
379.47	227.94
379.84	227.86
380.22	227.77
380.60	227.71
380.98	227.63
381.36	227.59
381.73	227.47
382.11	227.38
382.49	227.31
382.87	227.27
383.25	227.22
383.62	227.29
384.00	227.21
384.38	227.17
384.76	227.06
385.13	227.06
385.51	227.02
385.89	226.95
386.27	226.93
386.64	226.96
387.02	226.91
387.40	226.89
387.78	226.82
388.15	226.76
388.53	226.72
388.91	226.70
389.29	226.67
389.66	226.66
390.04	226.66
390.42	226.63
390.79	226.61
391.17	226.56
391.55	226.41
391.92	226.40
392.30	226.41
392.68	226.43
393.05	226.40
393.43	226.42
393.81	226.43
394.18	226.41
394.56	226.40
394.94	226.43
395.31	226.41
395.69	226.48
396.06	226.56
396.44	226.61
396.82	226.62
397.19	226.69
397.57	226.73
397.95	226.78
398.32	226.83
398.70	226.89
399.07	226.95
399.45	227.01
399.82	227.08
400.20	227.11
400.58	227.21
400.95	227.23
401.33	227.30
401.70	227.45
402.08	227.56
402.45	227.62
402.83	227.75
403.20	227.87
403.58	227.98
403.95	228.11
404.33	228.23
404.71	228.36
405.08	228.54
405.46	228.67
405.83	228.83
406.21	228.96
406.58	229.13
406.96	229.31
407.33	229.51
407.70	229.72
408.08	229.99
408.45	230.24
408.83	230.48
409.20	230.72
409.58	230.92
409.95	231.17
410.33	231.48
410.70	231.71
411.08	232.02
411.45	232.31
411.82	232.60
412.20	232.99
412.57	233.43
412.95	233.73
413.32	234.16
413.69	234.58
414.07	235.06
414.44	235.54
414.82	236.05
415.19	236.61
415.56	237.16
415.94	237.74
416.31	238.36
416.68	238.98
417.06	239.70
417.43	240.40
417.81	241.20
418.18	241.99
418.55	242.83
418.93	243.72
419.30	244.65
419.67	245.59
420.04	246.52
420.42	247.50
420.79	248.65
421.16	249.76
421.54	250.96
421.91	252.13
422.28	253.37
422.66	254.68
423.03	255.99
423.40	257.34
423.77	258.74
424.15	260.16
424.52	261.70
424.89	263.30
425.26	264.83
425.64	266.27
426.01	267.86
426.38	269.51
426.75	271.18
427.13	272.86
427.50	274.68
427.87	276.55
428.24	278.43
428.61	280.23
428.99	282.21
429.36	284.28
429.73	286.39
430.10	288.37
430.47	290.43
430.85	292.54
431.22	294.75
431.59	297.11
431.96	299.36
432.33	301.83
432.70	304.23
433.08	307.05
433.45	309.68
433.82	312.28
434.19	315.22
434.56	318.01
434.93	320.69
435.30	323.29
435.68	326.22
436.05	329.02
436.42	331.79
436.79	334.33
437.16	337.03
437.53	339.86
437.90	342.67
438.27	345.41
438.64	348.25
439.01	350.83
439.38	353.10
439.75	355.25
440.13	357.74
440.50	360.04
440.87	361.93
441.24	363.89
441.61	366.04
441.98	367.51
442.35	369.31
442.72	371.16
443.09	372.98
443.46	373.93
443.83	374.51
444.20	375.05
444.57	375.84
444.94	376.11
445.31	376.42
445.68	376.84
446.05	376.92
446.42	376.51
446.79	376.09
447.16	375.61
447.53	375.27
447.90	374.07
448.27	372.93
448.64	371.28
449.01	370.12
449.37	368.13
449.74	366.24
450.11	363.98
450.48	361.52
450.85	358.98
451.22	356.86
451.59	354.82
451.96	352.85
452.33	350.25
452.70	347.92
453.07	345.08
453.43	342.14
453.80	339.32
454.17	336.67
454.54	334.13
454.91	331.41
455.28	328.76
455.65	326.26
456.02	323.79
456.38	321.65
456.75	318.98
457.12	316.74
457.49	314.44
457.86	312.29
458.23	310.45
458.59	308.45
458.96	306.36
459.33	304.54
459.70	302.68
460.07	301.21
460.43	299.46
460.80	297.84
461.17	296.42
461.54	294.97
461.91	293.52
462.27	292.06
462.64	290.81
463.01	289.46
463.38	288.18
463.74	286.82
464.11	285.66
464.48	284.61
464.85	283.52
465.21	282.68
465.58	281.75
465.95	280.62
466.32	279.66
466.68	278.79
467.05	277.86
467.42	276.94
467.78	275.99
468.15	275.15
468.52	274.51
468.88	273.65
469.25	272.85
469.62	272.24
469.98	271.57
470.35	270.97
470.72	270.37
471.08	269.72
471.45	269.17
471.82	268.60
472.18	268.02
472.55	267.58
472.92	267.06
473.28	266.61
473.65	266.16
474.02	265.72
474.38	265.34
474.75	265.00
475.11	264.66
475.48	264.38
475.85	264.15
476.21	263.87
476.58	263.65
476.94	263.49
477.31	263.31
477.67	263.13
478.04	262.95
478.41	262.84
478.77	262.85
479.14	262.78
479.50	262.79
479.87	262.83
480.23	262.90
480.60	262.96
480.96	263.02
481.33	263.21
481.69	263.37
482.06	263.57
482.42	263.77
482.79	264.06
483.15	264.35
483.52	264.69
483.88	265.04
484.25	265.46
484.61	265.91
484.98	266.34
485.34	266.91
485.71	267.52
486.07	268.14
486.44	268.72
486.80	269.45
487.17	270.14
487.53	270.98
487.90	271.82
488.26	272.76
488.62	273.72
488.99	274.68
489.35	275.72
489.72	276.82
490.08	278.05
490.44	279.25
490.81	280.63
491.17	281.99
491.54	283.46
491.90	285.01
492.26	286.64
492.63	288.34
492.99	290.13
493.36	292.06
493.72	294.08
494.08	296.18
494.45	298.41
494.81	300.79
495.17	303.23
495.54	305.80
495.90	308.47
496.26	311.32
496.63	314.31
496.99	317.48
497.35	320.71
497.72	324.09
498.08	327.60
498.44	331.23
498.80	335.18
499.17	339.25
499.53	343.39
499.89	347.80
500.26	352.31
500.62	356.95
500.98	361.93
501.34	367.02
501.71	372.36
502.07	377.84
502.43	383.47
502.79	389.30
503.16	395.36
503.52	401.67
503.88	408.10
504.24	414.80
504.60	421.64
504.97	428.81
505.33	436.20
505.69	443.97
506.05	451.69
506.41	459.61
506.78	467.80
507.14	476.30
507.50	485.01
507.86	494.10
508.22	503.31
508.59	512.49
508.95	522.14
509.31	531.98
509.67	542.06
510.03	552.36
510.39	562.94
510.75	573.75
511.12	584.66
511.48	595.92
511.84	607.31
512.20	618.88
512.56	630.89
512.92	643.05
513.28	655.34
513.64	667.90
514.00	680.63
514.37	693.51
514.73	706.53
515.09	719.56
515.45	732.85
515.81	746.54
516.17	760.50
516.53	774.58
516.89	788.77
517.25	802.96
517.61	817.42
517.97	831.94
518.33	846.43
518.69	861.26
519.05	876.37
519.41	891.56
519.77	907.07
520.13	922.49
520.49	937.88
520.85	953.41
521.21	969.20
521.57	985.45
521.93	1001.29
522.29	1017.75
522.65	1034.10
523.01	1050.42
523.37	1066.38
523.73	1082.72
524.09	1098.83
524.45	1115.19
524.81	1131.92
525.17	1148.81
525.53	1165.74
525.89	1182.58
526.25	1199.45
526.61	1215.69
526.97	1232.47
527.33	1249.08
527.68	1265.68
528.04	1282.22
528.40	1298.80
528.76	1315.91
529.12	1332.57
529.48	1349.62
529.84	1365.74
530.20	1382.33
530.56	1399.39
530.91	1416.94
531.27	1433.60
531.63	1450.16
531.99	1466.78
532.35	1482.78
532.71	1498.70
533.07	1515.01
533.42	1530.99
533.78	1547.07
534.14	1563.50
534.50	1578.92
534.86	1594.80
535.21	1610.02
535.57	1625.99
535.93	1641.61
536.29	1656.38
536.65	1671.49
537.00	1686.25
537.36	1701.56
537.72	1716.15
538.08	1730.58
538.44	1744.37
538.79	1758.38
539.15	1772.22
539.51	1785.95
539.87	1800.36
540.22	1814.11
540.58	1827.89
540.94	1841.30
541.29	1854.40
541.65	1867.20
542.01	1880.60
542.37	1892.99
542.72	1905.35
543.08	1917.20
543.44	1929.57
543.79	1940.87
544.15	1951.92
544.51	1963.40
544.87	1974.41
545.22	1985.33
545.58	1995.57
545.94	2005.43
546.29	2015.40
546.65	2025.14
547.01	2034.43
547.36	2043.33
547.72	2051.79
548.07	2059.78
548.43	2068.06
548.79	2075.97
549.14	2083.55
549.50	2090.86
549.86	2098.69
550.21	2106.23
550.57	2113.36
550.92	2120.04
551.28	2127.21
551.64	2134.33
551.99	2140.91
552.35	2147.14
552.70	2153.23
553.06	2159.29
553.41	2165.58
553.77	2171.59
554.13	2177.66
554.48	2183.78
554.84	2189.12
555.19	2194.64
555.55	2199.76
555.90	2204.32
556.26	2209.24
556.61	2214.01
556.97	2218.13
557.32	2222.25
557.68	2226.58
558.03	2230.92
558.39	2234.51
558.74	2239.07
559.10	2242.81
559.45	2246.63
559.81	2250.91
560.16	2254.87
560.52	2258.09
560.87	2261.76
561.23	2264.37
561.58	2267.48
561.94	2270.01
562.29	2272.43
562.64	2275.01
563.00	2277.58
563.35	2281.02
563.71	2284.19
564.06	2287.31
564.42	2290.18
564.77	2292.46
565.12	2294.47
565.48	2296.40
565.83	2298.18
566.19	2299.47
566.54	2300.54
566.89	2301.51
567.25	2302.08
567.60	2303.23
567.96	2304.79
568.31	2305.45
568.66	2306.50
569.02	2306.99
569.37	2307.21
569.72	2308.01
570.08	2308.03
570.43	2308.05
570.78	2307.33
571.14	2305.69
571.49	2304.35
571.84	2304.05
572.20	2302.89
572.55	2301.85
572.90	2300.29
573.26	2299.04
573.61	2297.31
573.96	2295.19
574.31	2292.22
574.67	2289.02
575.02	2285.45
575.37	2281.95
575.72	2277.97
576.08	2274.61
576.43	2271.24
576.78	2267.48
577.13	2264.21
577.49	2261.11
577.84	2257.47
578.19	2253.66
578.54	2249.91
578.90	2245.58
579.25	2240.01
579.60	2234.93
579.95	2229.72
580.30	2224.56
580.66	2219.22
581.01	2214.23
581.36	2209.46
581.71	2205.15
582.06	2200.73
582.42	2196.12
582.77	2190.98
583.12	2186.33
583.47	2181.57
583.82	2176.38
584.17	2171.14
584.53	2165.49
584.88	2159.79
585.23	2154.01
585.58	2148.43
585.93	2142.96
586.28	2138.18
586.63	2132.87
586.98	2127.74
587.34	2123.16
587.69	2118.13
588.04	2112.81
588.39	2106.98
588.74	2100.39
589.09	2094.22
589.44	2087.33
589.79	2081.32
590.14	2075.62
590.49	2069.05
590.84	2062.59
591.19	2056.53
591.54	2050.02
591.89	2042.60
592.25	2035.66
592.60	2028.27
592.95	2020.67
593.30	2013.29
593.65	2005.49
594.00	1998.57
594.35	1991.39
594.70	1983.23
595.05	1976.08
595.40	1968.79
595.75	1961.32
596.10	1954.99
596.45	1948.13
596.80	1941.75
597.15	1934.89
597.50	1927.62
597.85	1921.08
598.19	1914.34
598.54	1907.24
598.89	1900.56
599.24	1894.63
599.59	1887.88
599.94	1881.71
600.29	1875.33
600.64	1868.67
600.99	1861.29
601.34	1854.26
601.69	1847.14
602.04	1840.17
602.39	1832.69
602.74	1825.86
603.08	1819.16
603.43	1812.33
603.78	1805.00
604.13	1797.96
604.48	1790.66
604.83	1783.77
605.18	1776.67
605.53	1768.56
605.87	1760.43
606.22	1753.10
606.57	1745.26
606.92	1737.84
607.27	1730.46
607.62	1723.41
607.96	1716.07
608.31	1709.31
608.66	1701.62
609.01	1694.13
609.36	1686.51
609.70	1678.54
610.05	1670.26
610.40	1662.36
610.75	1654.12
611.10	1646.52
611.44	1638.05
611.79	1630.04
612.14	1621.33
612.49	1612.38
612.83	1604.04
613.18	1595.95
613.53	1587.90
613.88	1579.24
614.22	1571.07
614.57	1562.50
614.92	1554.47
615.27	1546.83
615.61	1538.51
615.96	1530.63
616.31	1523.02
616.65	1515.67
617.00	1508.04
617.35	1500.51
617.70	1492.06
618.04	1483.51
618.39	1475.09
618.74	1467.51
619.08	1459.33
619.43	1451.78
619.78	1444.70
620.12	1437.60
620.47	1429.96
620.82	1421.80
621.16	1414.42
621.51	1406.79
621.85	1399.27
622.20	1390.78
622.55	1382.51
622.89	1374.63
623.24	1367.09
623.59	1359.58
623.93	1352.00
624.28	1344.74
624.62	1337.15
624.97	1330.10
625.32	1323.46
625.66	1316.54
626.01	1309.28
626.35	1301.79
626.70	1293.99
627.04	1286.24
627.39	1278.41
627.73	1271.14
628.08	1264.22
628.43	1256.86
628.77	1249.49
629.12	1241.93
629.46	1234.70
629.81	1227.27
630.15	1220.04
630.50	1212.57
630.84	1204.40
631.19	1196.62
631.53	1189.22
631.88	1181.70
632.22	1174.11
632.57	1166.69
632.91	1159.13
633.26	1151.78
633.60	1144.40
633.95	1137.39
634.29	1130.46
634.64	1123.84
634.98	1116.45
635.32	1109.36
635.67	1102.79
636.01	1096.08
636.36	1089.23
636.70	1082.80
637.05	1076.16
637.39	1069.82
637.73	1063.28
638.08	1057.52
638.42	1051.52
638.77	1044.90
639.11	1038.28
639.45	1031.90
639.80	1025.24
640.14	1018.88
640.49	1012.33
640.83	1006.03
641.17	999.81
641.52	993.48
641.86	987.08
642.20	981.27
642.55	975.06
642.89	968.60
643.23	962.05
643.58	956.34
643.92	950.09
644.26	944.12
644.61	938.15
644.95	932.14
645.29	925.54
645.64	918.83
645.98	912.65
646.32	906.89
646.66	900.88
647.01	895.11
647.35	889.45
647.69	883.66
648.04	878.10
648.38	872.23
648.72	866.22
649.06	860.04
649.41	854.08
649.75	847.94
650.09	842.03
650.43	836.32
650.78	830.15
651.12	824.20
651.46	818.40
651.80	812.52
652.14	807.06
652.49	801.57
652.83	796.33
653.17	790.48
653.51	784.67
653.85	779.24
654.20	773.55
654.54	767.53
654.88	761.71
655.22	755.87
655.56	750.25
655.90	744.72
656.25	739.51
656.59	734.16
656.93	729.12
657.27	723.87
657.61	718.38
657.95	713.30
658.29	708.20
658.64	703.02
658.98	697.78
659.32	692.33
659.66	687.17
660.00	681.88
660.34	677.02
660.68	672.12
661.02	667.10
661.36	662.42
661.70	657.87
662.05	653.57
662.39	649.25
662.73	644.76
663.07	640.51
663.41	636.01
663.75	631.55
664.09	626.97
664.43	622.61
664.77	618.50
665.11	614.21
665.45	610.15
665.79	606.01
666.13	601.84
666.47	597.77
666.81	593.65
667.15	589.55
667.49	585.62
667.83	581.85
668.17	577.93
668.51	573.85
668.85	569.87
669.19	566.05
669.53	562.13
669.87	558.20
670.21	554.47
670.55	550.90
670.89	547.51
671.23	544.09
671.57	540.59
671.91	537.07
672.25	533.67
672.58	530.21
672.92	526.91
673.26	523.79
673.60	520.71
673.94	517.60
674.28	514.71
674.62	511.81
674.96	508.73
675.30	505.81
675.64	502.89
675.97	500.13
676.31	497.31
676.65	494.43
676.99	491.82
677.33	488.99
677.67	486.17
678.01	483.08
678.34	480.17
678.68	477.32
679.02	474.53
679.36	471.71
679.70	468.93
680.04	466.18
680.37	463.33
680.71	460.53
681.05	457.91
681.39	455.19
681.73	452.57
682.06	450.03
682.40	447.56
682.74	445.05
683.08	442.49
683.42	439.88
683.75	437.35
684.09	434.78
684.43	432.32
684.77	429.87
685.10	427.54
685.44	425.22
685.78	422.95
686.12	420.73
686.45	418.48
686.79	416.21
687.13	413.97
687.46	411.77
687.80	409.63
688.14	407.39
688.48	405.31
688.81	403.03
689.15	400.90
689.49	398.69
689.82	396.55
690.16	394.49
690.50	392.51
690.83	390.58
691.17	388.63
691.51	386.72
691.84	384.91
692.18	382.99
692.52	380.99
692.85	379.07
693.19	377.13
693.52	375.29
693.86	373.45
694.20	371.68
694.53	369.87
694.87	368.01
695.21	366.26
695.54	364.45
695.88	362.72
696.21	361.00
696.55	359.38
696.88	357.73
697.22	356.08
697.56	354.49
697.89	352.86
698.23	351.24
698.56	349.59
698.90	347.94
699.23	346.27
699.57	344.71
699.90	343.15
700.24	341.65
700.58	340.07
700.91	338.60
701.25	337.09
701.58	335.73
701.92	334.29
702.25	332.87
702.59	331.49
702.92	330.19
703.26	328.87
703.59	327.55
703.93	326.34
704.26	325.06
704.60	323.70
704.93	322.41
705.26	321.14
705.60	319.99
705.93	318.85
706.27	317.82
706.60	316.81
706.94	315.69
707.27	314.53
707.61	313.51
707.94	312.50
708.27	311.47
708.61	310.38
708.94	309.41
709.28	308.47
709.61	307.54
709.94	306.62
710.28	305.61
710.61	304.60
710.95	303.56
711.28	302.65
711.61	301.74
711.95	300.82
712.28	299.88
712.61	298.91
712.95	297.97
713.28	297.10
713.61	296.15
713.95	295.29
714.28	294.47
714.61	293.57
714.95	292.73
715.28	291.86
715.61	290.99
715.95	290.21
716.28	289.38
716.61	288.51
716.95	287.71
717.28	287.00
717.61	286.28
717.94	285.54
718.28	284.78
718.61	284.07
718.94	283.38
719.27	282.72
719.61	282.05
719.94	281.42
720.27	280.69
720.60	280.06
720.94	279.46
721.27	278.87
721.60	278.30
721.93	277.74
722.27	277.19
722.60	276.66
722.93	276.06
723.26	275.50
723.59	274.97
723.93	274.44
724.26	273.84
724.59	273.31
724.92	272.79
725.25	272.28
725.59	271.76
725.92	271.25
726.25	270.75
726.58	270.27
726.91	269.76
727.24	269.36
727.57	268.86
727.91	268.36
728.24	267.90
728.57	267.45
728.90	266.98
729.23	266.51
729.56	266.10
729.89	265.60
730.22	265.11
730.55	264.63
730.89	264.13
731.22	263.69
731.55	263.22
731.88	262.81
732.21	262.37
732.54	261.94
732.87	261.53
733.20	261.13
733.53	260.74
733.86	260.39
734.19	259.95
734.52	259.58
734.85	259.26
735.18	258.85
735.51	258.48
735.84	258.08
736.17	257.70
736.50	257.26
736.83	257.03
737.16	256.72
737.49	256.40
737.82	256.05
738.15	255.71
738.48	255.40
738.81	255.04
739.14	254.73
739.47	254.42
739.80	254.12
740.13	253.82
740.46	253.49
740.79	253.16
741.12	252.84
741.45	252.52
741.78	252.12
742.11	251.82
742.44	251.46
742.77	251.16
743.10	250.85
743.43	250.59
743.75	250.20
744.08	250.05
744.41	249.79
744.74	249.48
745.07	249.20
745.40	248.92
745.73	248.68
746.06	248.39
746.39	248.10
746.71	247.81
747.04	247.51
747.37	247.22
747.70	246.92
748.03	246.69
748.36	246.50
748.68	246.27
749.01	246.03
749.34	245.80
749.67	245.61
750.00	245.40
750.33	245.25
750.65	245.06
750.98	244.70
751.31	244.48
751.64	244.31
751.97	244.16
752.29	243.96
752.62	243.73
752.95	243.52
753.28	243.33
753.60	243.10
753.93	242.97
754.26	242.80
754.59	242.62
754.91	242.42
755.24	242.23
755.57	242.08
755.90	241.91
756.22	241.74
756.55	241.55
756.88	241.36
757.20	241.12
757.53	240.91
757.86	240.80
758.19	240.66
758.51	240.51
758.84	240.31
759.17	240.13
759.49	239.99
759.82	239.88
760.15	239.76
760.47	239.63
760.80	239.44
761.13	239.31
761.45	239.16
761.78	239.03
762.11	238.88
762.43	238.74
762.76	238.61
763.08	238.50
763.41	238.34
763.74	238.21
764.06	238.08
764.39	237.97
764.71	237.78
765.04	237.66
765.37	237.52
765.69	237.38
766.02	237.26
766.34	237.12
766.67	236.97
767.00	236.87
767.32	236.79
767.65	236.75
767.97	236.62
768.30	236.51
768.62	236.41
768.95	236.27
769.27	236.17
769.60	236.07
769.92	235.93
770.25	235.82
770.57	235.73
770.90	235.61
771.22	235.46
771.55	235.39
771.87	235.27
772.20	235.21
772.52	235.20
772.85	235.23
773.17	235.12
773.50	235.00
773.82	234.89
774.15	234.79
774.47	234.64
774.80	234.55
775.12	234.47
775.45	234.37
775.77	234.27
776.09	234.16
776.42	234.08
776.74	234.04
777.07	233.96
777.39	233.85
777.72	233.79
778.04	233.78
778.36	233.69
778.69	233.60
779.01	233.49
779.33	233.33
779.66	233.17
779.98	233.13
780.31	233.10
780.63	233.03
780.95	232.96
781.28	232.89
781.60	232.82
781.92	232.74
782.25	232.66
782.57	232.62
782.89	232.56
783.22	232.48
783.54	232.37
783.86	232.32
784.19	232.22
784.51	232.17
784.83	232.06
785.16	231.96
785.48	231.91
785.80	231.87
786.12	231.82
786.45	231.75
786.77	231.71
787.09	231.66
