SpectraSuite Data File
++++++++++++++++++++++++++++++++++++
Date: Fri Feb 01 17:04:06 EST 2013
User: group
Dark Spectrum Present: No
Reference Spectrum Present: No
Number of Sampled Component Spectra: 1
Spectrometers: USB2E7196
Integration Time (usec): 35000 (USB2E7196)
Spectra Averaged: 100 (USB2E7196)
Boxcar Smoothing: 10 (USB2E7196)
Correct for Electrical Dark: No (USB2E7196)
Strobe/Lamp Enabled: No (USB2E7196)
Correct for Detector Non-linearity: No (USB2E7196)
Correct for Stray Light: No (USB2E7196)
Number of Pixels in Processed Spectrum: 2048
>>>>>Begin Processed Spectral Data<<<<<
339.09	0.00
339.48	213.37
339.86	214.94
340.24	216.23
340.63	217.56
341.01	220.89
341.39	220.87
341.78	222.16
342.16	223.29
342.54	223.70
342.93	212.07
343.31	222.77
343.69	223.30
344.07	223.75
344.46	224.17
344.84	224.57
345.22	224.78
345.60	225.01
345.99	225.18
346.37	225.29
346.75	225.37
347.13	225.40
347.52	225.46
347.90	225.50
348.28	225.49
348.66	225.51
349.05	225.50
349.43	225.53
349.81	225.54
350.19	225.58
350.57	225.62
350.96	225.66
351.34	225.75
351.72	225.83
352.10	225.90
352.48	225.98
352.87	225.98
353.25	226.05
353.63	226.09
354.01	226.16
354.39	226.21
354.77	226.27
355.15	226.36
355.54	226.43
355.92	226.48
356.30	226.54
356.68	226.65
357.06	226.71
357.44	226.75
357.82	226.80
358.20	226.88
358.58	226.92
358.97	226.99
359.35	227.04
359.73	227.12
360.11	227.19
360.49	227.21
360.87	227.29
361.25	227.34
361.63	227.40
362.01	227.44
362.39	227.46
362.77	227.47
363.15	227.48
363.53	227.47
363.91	227.51
364.29	227.54
364.67	227.48
365.05	227.50
365.43	227.50
365.81	227.51
366.19	227.54
366.57	227.56
366.95	227.54
367.33	227.53
367.71	227.49
368.09	227.48
368.47	227.46
368.85	227.45
369.23	227.40
369.61	227.37
369.99	227.37
370.37	227.36
370.75	227.37
371.13	227.32
371.51	227.27
371.89	227.22
372.27	227.20
372.65	227.13
373.03	227.07
373.41	227.04
373.78	226.96
374.16	226.90
374.54	226.83
374.92	226.77
375.30	226.72
375.68	226.66
376.06	226.62
376.44	226.59
376.82	226.50
377.19	226.44
377.57	226.36
377.95	226.24
378.33	226.16
378.71	226.07
379.09	226.04
379.47	225.97
379.84	225.92
380.22	225.79
380.60	225.74
380.98	225.69
381.36	225.59
381.73	225.54
382.11	225.49
382.49	225.43
382.87	225.37
383.25	225.30
383.62	225.36
384.00	225.29
384.38	225.25
384.76	225.27
385.13	225.30
385.51	225.25
385.89	225.23
386.27	225.20
386.64	225.14
387.02	225.10
387.40	225.11
387.78	225.05
388.15	225.08
388.53	225.05
388.91	225.04
389.29	225.01
389.66	225.01
390.04	224.96
390.42	225.00
390.79	225.00
391.17	224.98
391.55	224.82
391.92	224.83
392.30	224.81
392.68	224.78
393.05	224.77
393.43	224.79
393.81	224.77
394.18	224.75
394.56	224.79
394.94	224.84
395.31	224.82
395.69	224.88
396.06	224.91
396.44	224.95
396.82	224.96
397.19	225.05
397.57	225.09
397.95	225.16
398.32	225.13
398.70	225.17
399.07	225.23
399.45	225.28
399.82	225.36
400.20	225.41
400.58	225.49
400.95	225.49
401.33	225.57
401.70	225.71
402.08	225.81
402.45	225.93
402.83	226.02
403.20	226.13
403.58	226.22
403.95	226.33
404.33	226.46
404.71	226.57
405.08	226.75
405.46	226.90
405.83	227.03
406.21	227.19
406.58	227.35
406.96	227.46
407.33	227.65
407.70	227.83
408.08	228.12
408.45	228.29
408.83	228.51
409.20	228.72
409.58	228.90
409.95	229.16
410.33	229.39
410.70	229.66
411.08	229.96
411.45	230.24
411.82	230.52
412.20	230.84
412.57	231.25
412.95	231.53
413.32	231.95
413.69	232.37
414.07	232.83
414.44	233.31
414.82	233.83
415.19	234.38
415.56	234.89
415.94	235.41
416.31	236.06
416.68	236.71
417.06	237.44
417.43	238.12
417.81	238.86
418.18	239.61
418.55	240.46
418.93	241.32
419.30	242.23
419.67	243.18
420.04	244.14
420.42	245.14
420.79	246.32
421.16	247.42
421.54	248.61
421.91	249.79
422.28	251.03
422.66	252.32
423.03	253.63
423.40	254.96
423.77	256.38
424.15	257.79
424.52	259.25
424.89	260.86
425.26	262.40
425.64	263.89
426.01	265.50
426.38	267.10
426.75	268.75
427.13	270.46
427.50	272.25
427.87	274.13
428.24	275.94
428.61	277.64
428.99	279.58
429.36	281.68
429.73	283.73
430.10	285.74
430.47	287.78
430.85	289.87
431.22	292.13
431.59	294.44
431.96	296.65
432.33	299.12
432.70	301.47
433.08	304.28
433.45	306.89
433.82	309.49
434.19	312.36
434.56	315.19
434.93	317.83
435.30	320.41
435.68	323.21
436.05	326.03
436.42	328.86
436.79	331.33
437.16	334.02
437.53	336.81
437.90	339.60
438.27	342.36
438.64	345.18
439.01	347.73
439.38	349.96
439.75	352.15
440.13	354.63
440.50	356.90
440.87	358.74
441.24	360.62
441.61	362.76
441.98	364.25
442.35	366.05
442.72	367.86
443.09	369.68
443.46	370.72
443.83	371.33
444.20	371.75
444.57	372.60
444.94	372.86
445.31	373.22
445.68	373.59
446.05	373.67
446.42	373.29
446.79	372.90
447.16	372.51
447.53	372.20
447.90	371.10
448.27	369.97
448.64	368.42
449.01	367.33
449.37	365.36
449.74	363.51
450.11	361.26
450.48	358.90
450.85	356.41
451.22	354.31
451.59	352.30
451.96	350.45
452.33	347.85
452.70	345.51
453.07	342.69
453.43	339.80
453.80	337.02
454.17	334.39
454.54	331.86
454.91	329.14
455.28	326.47
455.65	323.99
456.02	321.59
456.38	319.44
456.75	316.77
457.12	314.57
457.49	312.35
457.86	310.22
458.23	308.36
458.59	306.32
458.96	304.22
459.33	302.37
459.70	300.49
460.07	299.03
460.43	297.31
460.80	295.76
461.17	294.35
461.54	292.87
461.91	291.45
462.27	290.04
462.64	288.80
463.01	287.46
463.38	286.12
463.74	284.74
464.11	283.60
464.48	282.60
464.85	281.48
465.21	280.62
465.58	279.69
465.95	278.60
466.32	277.70
466.68	276.81
467.05	275.96
467.42	275.09
467.78	274.17
468.15	273.38
468.52	272.66
468.88	271.81
469.25	271.09
469.62	270.43
469.98	269.75
470.35	269.11
470.72	268.51
471.08	267.92
471.45	267.41
471.82	266.89
472.18	266.30
472.55	265.86
472.92	265.34
473.28	264.91
473.65	264.46
474.02	264.04
474.38	263.70
474.75	263.37
475.11	263.05
475.48	262.80
475.85	262.51
476.21	262.30
476.58	262.12
476.94	261.99
477.31	261.89
477.67	261.76
478.04	261.66
478.41	261.64
478.77	261.67
479.14	261.58
479.50	261.64
479.87	261.72
480.23	261.80
480.60	261.89
480.96	261.96
481.33	262.19
481.69	262.39
482.06	262.58
482.42	262.78
482.79	263.03
483.15	263.34
483.52	263.74
483.88	264.10
484.25	264.51
484.61	264.93
484.98	265.40
485.34	265.98
485.71	266.59
486.07	267.18
486.44	267.73
486.80	268.49
487.17	269.17
487.53	269.97
487.90	270.83
488.26	271.77
488.62	272.75
488.99	273.69
489.35	274.69
489.72	275.81
490.08	277.03
490.44	278.28
490.81	279.62
491.17	281.00
491.54	282.47
491.90	283.99
492.26	285.61
492.63	287.32
492.99	289.11
493.36	290.96
493.72	292.99
494.08	295.09
494.45	297.32
494.81	299.68
495.17	302.11
495.54	304.69
495.90	307.36
496.26	310.16
496.63	313.12
496.99	316.24
497.35	319.51
497.72	322.89
498.08	326.40
498.44	330.03
498.80	333.95
499.17	338.02
499.53	342.18
499.89	346.56
500.26	351.06
500.62	355.68
500.98	360.65
501.34	365.72
501.71	371.01
502.07	376.42
502.43	382.00
502.79	387.79
503.16	393.85
503.52	400.06
503.88	406.41
504.24	412.96
504.60	419.77
504.97	426.87
505.33	434.16
505.69	441.81
506.05	449.57
506.41	457.32
506.78	465.32
507.14	473.68
507.50	482.29
507.86	491.21
508.22	500.34
508.59	509.47
508.95	518.90
509.31	528.70
509.67	538.66
510.03	548.79
510.39	559.26
510.75	569.87
511.12	580.62
511.48	591.71
511.84	603.02
512.20	614.44
512.56	626.23
512.92	638.18
513.28	650.31
513.64	662.60
514.00	675.14
514.37	687.83
514.73	700.64
515.09	713.49
515.45	726.52
515.81	739.82
516.17	753.55
516.53	767.49
516.89	781.36
517.25	795.32
517.61	809.46
517.97	823.56
518.33	837.76
518.69	852.33
519.05	867.03
519.41	881.99
519.77	897.18
520.13	912.23
520.49	927.31
520.85	942.42
521.21	957.74
521.57	973.50
521.93	988.99
522.29	1005.14
522.65	1021.05
523.01	1036.93
523.37	1052.63
523.73	1068.48
524.09	1084.14
524.45	1100.06
524.81	1116.28
525.17	1132.78
525.53	1149.35
525.89	1165.81
526.25	1182.27
526.61	1198.31
526.97	1214.62
527.33	1230.67
527.68	1246.90
528.04	1263.02
528.40	1279.21
528.76	1295.88
529.12	1312.17
529.48	1328.73
529.84	1344.22
530.20	1360.47
530.56	1377.12
530.91	1394.14
531.27	1410.47
531.63	1426.63
531.99	1442.76
532.35	1458.37
532.71	1473.86
533.07	1489.71
533.42	1505.24
533.78	1520.88
534.14	1536.82
534.50	1551.81
534.86	1567.34
535.21	1582.19
535.57	1597.77
535.93	1612.81
536.29	1627.27
536.65	1642.00
537.00	1656.34
537.36	1671.45
537.72	1685.54
538.08	1699.61
538.44	1713.09
538.79	1726.55
539.15	1739.79
539.51	1753.24
539.87	1767.32
540.22	1780.77
540.58	1794.14
540.94	1807.09
541.29	1819.71
541.65	1832.12
542.01	1844.89
542.37	1856.92
542.72	1869.12
543.08	1880.62
543.44	1892.73
543.79	1903.83
544.15	1914.48
544.51	1925.88
544.87	1936.50
545.22	1947.21
545.58	1957.25
545.94	1966.74
546.29	1976.51
546.65	1986.30
547.01	1995.36
547.36	2003.91
547.72	2012.20
548.07	2020.03
548.43	2028.01
548.79	2035.79
549.14	2043.14
549.50	2050.44
549.86	2057.95
550.21	2065.08
550.57	2072.25
550.92	2078.95
551.28	2085.84
551.64	2092.93
551.99	2099.44
552.35	2105.60
552.70	2111.77
553.06	2117.76
553.41	2124.24
553.77	2130.16
554.13	2136.08
554.48	2142.29
554.84	2147.81
555.19	2153.02
555.55	2158.20
555.90	2162.80
556.26	2167.86
556.61	2172.54
556.97	2177.15
557.32	2181.40
557.68	2185.56
558.03	2189.81
558.39	2193.51
558.74	2198.24
559.10	2202.22
559.45	2205.83
559.81	2210.10
560.16	2213.94
560.52	2217.27
560.87	2220.54
561.23	2223.36
561.58	2226.35
561.94	2229.04
562.29	2231.28
562.64	2234.26
563.00	2236.92
563.35	2240.54
563.71	2243.64
564.06	2247.10
564.42	2249.93
564.77	2252.65
565.12	2255.22
565.48	2257.30
565.83	2259.39
566.19	2260.89
566.54	2261.85
566.89	2263.17
567.25	2263.93
567.60	2265.26
567.96	2267.06
568.31	2268.18
568.66	2269.55
569.02	2270.30
569.37	2270.67
569.72	2271.76
570.08	2272.16
570.43	2272.43
570.78	2272.08
571.14	2270.86
571.49	2269.75
571.84	2269.51
572.20	2268.59
572.55	2267.71
572.90	2266.22
573.26	2264.96
573.61	2263.38
573.96	2261.91
574.31	2259.18
574.67	2256.35
575.02	2253.03
575.37	2249.81
575.72	2246.37
576.08	2243.06
576.43	2240.07
576.78	2236.59
577.13	2233.76
577.49	2230.59
577.84	2227.18
578.19	2223.62
578.54	2220.14
578.90	2216.25
579.25	2210.96
579.60	2206.31
579.95	2201.45
580.30	2196.70
580.66	2191.81
581.01	2187.16
581.36	2182.51
581.71	2178.70
582.06	2174.83
582.42	2170.69
582.77	2165.73
583.12	2161.26
583.47	2156.93
583.82	2152.12
584.17	2147.13
584.53	2141.65
584.88	2136.29
585.23	2130.78
585.58	2125.35
585.93	2120.10
586.28	2115.20
586.63	2110.39
586.98	2105.43
587.34	2100.90
587.69	2096.07
588.04	2091.07
588.39	2085.52
588.74	2079.09
589.09	2073.12
589.44	2066.31
589.79	2060.18
590.14	2054.56
590.49	2048.30
590.84	2041.88
591.19	2036.15
591.54	2029.96
591.89	2022.99
592.25	2016.51
592.60	2009.59
592.95	2002.51
593.30	1995.42
593.65	1988.18
594.00	1981.23
594.35	1974.11
594.70	1966.17
595.05	1959.37
595.40	1952.16
595.75	1944.76
596.10	1938.95
596.45	1932.26
596.80	1926.28
597.15	1920.03
597.50	1913.36
597.85	1906.96
598.19	1900.72
598.54	1893.73
598.89	1887.12
599.24	1881.32
599.59	1874.85
599.94	1868.85
600.29	1862.42
600.64	1855.95
600.99	1848.78
601.34	1842.13
601.69	1835.26
602.04	1828.76
602.39	1821.56
602.74	1814.88
603.08	1808.27
603.43	1801.62
603.78	1794.55
604.13	1787.49
604.48	1780.40
604.83	1773.62
605.18	1766.89
605.53	1758.97
605.87	1751.06
606.22	1743.98
606.57	1736.15
606.92	1728.81
607.27	1721.72
607.62	1715.04
607.96	1707.88
608.31	1701.38
608.66	1693.95
609.01	1686.60
609.36	1679.07
609.70	1671.15
610.05	1663.30
610.40	1655.84
610.75	1647.52
611.10	1639.85
611.44	1631.45
611.79	1623.46
612.14	1614.77
612.49	1605.65
612.83	1597.22
613.18	1589.17
613.53	1581.11
613.88	1572.68
614.22	1564.48
614.57	1555.87
614.92	1547.89
615.27	1540.48
615.61	1532.17
615.96	1524.12
616.31	1516.52
616.65	1509.24
617.00	1501.72
617.35	1493.98
617.70	1485.70
618.04	1477.35
618.39	1469.24
618.74	1461.69
619.08	1453.44
619.43	1445.95
619.78	1439.03
620.12	1432.04
620.47	1424.56
620.82	1416.58
621.16	1409.14
621.51	1401.47
621.85	1393.96
622.20	1385.63
622.55	1377.19
622.89	1369.28
623.24	1361.60
623.59	1354.18
623.93	1346.70
624.28	1339.61
624.62	1332.21
624.97	1325.11
625.32	1318.27
625.66	1311.21
626.01	1304.26
626.35	1296.97
626.70	1289.27
627.04	1281.64
627.39	1273.87
627.73	1266.41
628.08	1259.47
628.43	1252.42
628.77	1245.21
629.12	1237.74
629.46	1230.50
629.81	1223.07
630.15	1215.99
630.50	1208.69
630.84	1200.56
631.19	1192.57
631.53	1184.97
631.88	1177.37
632.22	1169.78
632.57	1162.50
632.91	1154.94
633.26	1147.46
633.60	1139.96
633.95	1132.79
634.29	1125.68
634.64	1118.84
634.98	1111.57
635.32	1104.38
635.67	1097.67
636.01	1090.99
636.36	1084.16
636.70	1077.62
637.05	1071.09
637.39	1064.62
637.73	1058.18
638.08	1052.33
638.42	1046.39
638.77	1040.01
639.11	1033.58
639.45	1027.14
639.80	1020.59
640.14	1014.33
640.49	1007.84
640.83	1001.62
641.17	995.51
641.52	989.24
641.86	982.92
642.20	977.19
642.55	970.86
642.89	964.45
643.23	957.99
643.58	952.34
643.92	946.24
644.26	940.34
644.61	934.31
644.95	928.36
645.29	921.89
645.64	915.20
645.98	908.84
646.32	902.89
646.66	896.90
647.01	891.13
647.35	885.42
647.69	879.52
648.04	874.05
648.38	868.30
648.72	862.39
649.06	856.41
649.41	850.53
649.75	844.69
650.09	838.81
650.43	833.11
650.78	826.99
651.12	821.10
651.46	815.34
651.80	809.68
652.14	804.30
652.49	798.89
652.83	793.77
653.17	788.23
653.51	782.67
653.85	777.30
654.20	771.71
654.54	765.83
654.88	760.15
655.22	754.27
655.56	748.59
655.90	743.17
656.25	738.02
656.59	732.72
656.93	727.68
657.27	722.58
657.61	717.10
657.95	711.99
658.29	706.88
658.64	701.68
658.98	696.35
659.32	690.93
659.66	685.79
660.00	680.59
660.34	675.57
660.68	670.63
661.02	665.65
661.36	660.92
661.70	656.40
662.05	652.12
662.39	647.85
662.73	643.40
663.07	639.03
663.41	634.57
663.75	630.07
664.09	625.57
664.43	621.17
664.77	617.11
665.11	612.87
665.45	608.73
665.79	604.70
666.13	600.66
666.47	596.52
666.81	592.41
667.15	588.24
667.49	584.37
667.83	580.49
668.17	576.59
668.51	572.55
668.85	568.48
669.19	564.61
669.53	560.80
669.87	556.92
670.21	553.23
670.55	549.58
670.89	546.13
671.23	542.63
671.57	539.03
671.91	535.52
672.25	532.00
672.58	528.53
672.92	525.08
673.26	521.83
673.60	518.72
673.94	515.56
674.28	512.67
674.62	509.72
674.96	506.65
675.30	503.78
675.64	500.83
675.97	498.08
676.31	495.19
676.65	492.25
676.99	489.59
677.33	486.79
677.67	484.00
678.01	481.01
678.34	478.10
678.68	475.31
679.02	472.47
679.36	469.72
679.70	467.05
680.04	464.33
680.37	461.52
680.71	458.70
681.05	456.09
681.39	453.33
681.73	450.69
682.06	448.23
682.40	445.68
682.74	443.15
683.08	440.64
683.42	438.09
683.75	435.66
684.09	433.09
684.43	430.58
684.77	428.12
685.10	425.83
685.44	423.52
685.78	421.22
686.12	418.95
686.45	416.65
686.79	414.33
687.13	412.09
687.46	409.91
687.80	407.74
688.14	405.57
688.48	403.57
688.81	401.37
689.15	399.20
689.49	397.03
689.82	395.02
690.16	392.93
690.50	390.96
690.83	388.99
691.17	387.02
691.51	385.16
691.84	383.34
692.18	381.36
692.52	379.42
692.85	377.45
693.19	375.62
693.52	373.78
693.86	371.93
694.20	370.22
694.53	368.46
694.87	366.62
695.21	364.82
695.54	363.01
695.88	361.28
696.21	359.58
696.55	357.92
696.88	356.23
697.22	354.56
697.56	352.93
697.89	351.27
698.23	349.68
698.56	348.05
698.90	346.48
699.23	344.85
699.57	343.29
699.90	341.79
700.24	340.25
700.58	338.74
700.91	337.32
701.25	335.85
701.58	334.48
701.92	333.14
702.25	331.79
702.59	330.43
702.92	329.09
703.26	327.77
703.59	326.46
703.93	325.26
704.26	324.03
704.60	322.78
704.93	321.56
705.26	320.29
705.60	319.09
705.93	317.94
706.27	316.94
706.60	315.89
706.94	314.85
707.27	313.70
707.61	312.62
707.94	311.59
708.27	310.51
708.61	309.43
708.94	308.47
709.28	307.48
709.61	306.49
709.94	305.57
710.28	304.55
710.61	303.59
710.95	302.52
711.28	301.60
711.61	300.61
711.95	299.66
712.28	298.73
712.61	297.78
712.95	296.83
713.28	295.94
713.61	295.05
713.95	294.15
714.28	293.34
714.61	292.49
714.95	291.63
715.28	290.76
715.61	289.87
715.95	288.97
716.28	288.09
716.61	287.24
716.95	286.40
717.28	285.67
717.61	284.89
717.94	284.15
718.28	283.31
718.61	282.64
718.94	281.95
719.27	281.30
719.61	280.67
719.94	280.00
720.27	279.27
720.60	278.60
720.94	277.99
721.27	277.40
721.60	276.81
721.93	276.18
722.27	275.65
722.60	275.08
722.93	274.52
723.26	273.99
723.59	273.44
723.93	272.86
724.26	272.30
724.59	271.72
724.92	271.19
725.25	270.71
725.59	270.14
725.92	269.59
726.25	269.05
726.58	268.52
726.91	268.03
727.24	267.52
727.57	267.06
727.91	266.49
728.24	266.00
728.57	265.48
728.90	265.04
729.23	264.52
729.56	264.12
729.89	263.67
730.22	263.18
730.55	262.74
730.89	262.31
731.22	261.88
731.55	261.44
731.88	261.00
732.21	260.56
732.54	260.10
732.87	259.67
733.20	259.28
733.53	258.87
733.86	258.49
734.19	258.14
734.52	257.76
734.85	257.46
735.18	257.01
735.51	256.65
735.84	256.28
736.17	255.91
736.50	255.50
736.83	255.25
737.16	254.93
737.49	254.56
737.82	254.21
738.15	253.89
738.48	253.53
738.81	253.19
739.14	252.86
739.47	252.58
739.80	252.25
740.13	251.92
740.46	251.58
740.79	251.27
741.12	250.90
741.45	250.58
741.78	250.25
742.11	249.99
742.44	249.67
742.77	249.39
743.10	249.10
743.43	248.78
743.75	248.39
744.08	248.24
744.41	247.98
744.74	247.73
745.07	247.43
745.40	247.25
745.73	247.05
746.06	246.78
746.39	246.52
746.71	246.26
747.04	246.02
747.37	245.79
747.70	245.53
748.03	245.31
748.36	245.07
748.68	244.87
749.01	244.59
749.34	244.37
749.67	244.14
750.00	243.92
750.33	243.80
750.65	243.60
750.98	243.27
751.31	243.05
751.64	242.87
751.97	242.72
752.29	242.50
752.62	242.26
752.95	242.07
753.28	241.87
753.60	241.69
753.93	241.52
754.26	241.36
754.59	241.13
754.91	240.93
755.24	240.73
755.57	240.52
755.90	240.37
756.22	240.16
756.55	239.97
756.88	239.77
757.20	239.54
757.53	239.37
757.86	239.21
758.19	239.08
758.51	238.89
758.84	238.66
759.17	238.50
759.49	238.33
759.82	238.16
760.15	237.99
760.47	237.84
760.80	237.63
761.13	237.49
761.45	237.34
761.78	237.16
762.11	237.02
762.43	236.87
762.76	236.74
763.08	236.65
763.41	236.48
763.74	236.34
764.06	236.18
764.39	236.02
764.71	235.85
765.04	235.66
765.37	235.52
765.69	235.37
766.02	235.22
766.34	235.07
766.67	234.92
767.00	234.86
767.32	234.80
767.65	234.77
767.97	234.63
768.30	234.54
768.62	234.46
768.95	234.35
769.27	234.21
769.60	234.11
769.92	233.98
770.25	233.87
770.57	233.77
770.90	233.69
771.22	233.58
771.55	233.50
771.87	233.41
772.20	233.29
772.52	233.28
772.85	233.31
773.17	233.24
773.50	233.14
773.82	232.98
774.15	232.83
774.47	232.67
774.80	232.58
775.12	232.44
775.45	232.37
775.77	232.28
776.09	232.21
776.42	232.13
776.74	232.07
777.07	232.01
777.39	231.93
777.72	231.84
778.04	231.76
778.36	231.68
778.69	231.60
779.01	231.58
779.33	231.41
779.66	231.22
779.98	231.14
780.31	231.10
780.63	231.12
780.95	231.06
781.28	231.01
781.60	230.96
781.92	230.93
782.25	230.85
782.57	230.77
782.89	230.73
783.22	230.67
783.54	230.61
783.86	230.56
784.19	230.52
784.51	230.51
784.83	230.48
785.16	230.45
785.48	230.40
785.80	230.35
786.12	230.32
786.45	230.30
786.77	230.26
787.09	230.19
