SpectraSuite Data File
++++++++++++++++++++++++++++++++++++
Date: Fri Feb 01 16:11:23 EST 2013
User: group
Dark Spectrum Present: No
Reference Spectrum Present: No
Number of Sampled Component Spectra: 1
Spectrometers: USB2E7196
Integration Time (usec): 35000 (USB2E7196)
Spectra Averaged: 100 (USB2E7196)
Boxcar Smoothing: 10 (USB2E7196)
Correct for Electrical Dark: No (USB2E7196)
Strobe/Lamp Enabled: No (USB2E7196)
Correct for Detector Non-linearity: No (USB2E7196)
Correct for Stray Light: No (USB2E7196)
Number of Pixels in Processed Spectrum: 2048
>>>>>Begin Processed Spectral Data<<<<<
339.09	0.00
339.48	214.65
339.86	215.62
340.24	217.43
340.63	218.51
341.01	221.03
341.39	221.23
341.78	222.80
342.16	223.71
342.54	224.15
342.93	212.76
343.31	223.50
343.69	224.02
344.07	224.53
344.46	224.96
344.84	225.36
345.22	225.60
345.60	225.81
345.99	225.98
346.37	226.14
346.75	226.26
347.13	226.34
347.52	226.39
347.90	226.46
348.28	226.50
348.66	226.54
349.05	226.55
349.43	226.62
349.81	226.65
350.19	226.68
350.57	226.75
350.96	226.84
351.34	226.93
351.72	227.03
352.10	227.10
352.48	227.14
352.87	227.18
353.25	227.27
353.63	227.39
354.01	227.45
354.39	227.51
354.77	227.61
355.15	227.70
355.54	227.77
355.92	227.78
356.30	227.83
356.68	227.92
357.06	227.99
357.44	228.04
357.82	228.13
358.20	228.19
358.58	228.23
358.97	228.27
359.35	228.34
359.73	228.42
360.11	228.45
360.49	228.52
360.87	228.56
361.25	228.61
361.63	228.66
362.01	228.74
362.39	228.78
362.77	228.81
363.15	228.84
363.53	228.85
363.91	228.92
364.29	228.94
364.67	228.90
365.05	228.91
365.43	228.93
365.81	228.96
366.19	229.00
366.57	229.05
366.95	229.05
367.33	229.01
367.71	228.99
368.09	228.99
368.47	228.96
368.85	228.91
369.23	228.93
369.61	228.89
369.99	228.86
370.37	228.84
370.75	228.83
371.13	228.76
371.51	228.71
371.89	228.65
372.27	228.61
372.65	228.58
373.03	228.51
373.41	228.44
373.78	228.37
374.16	228.27
374.54	228.15
374.92	228.09
375.30	228.05
375.68	227.98
376.06	227.93
376.44	227.86
376.82	227.84
377.19	227.73
377.57	227.64
377.95	227.57
378.33	227.48
378.71	227.34
379.09	227.28
379.47	227.27
379.84	227.20
380.22	227.11
380.60	227.05
380.98	227.01
381.36	226.93
381.73	226.87
382.11	226.83
382.49	226.83
382.87	226.77
383.25	226.72
383.62	226.77
384.00	226.68
384.38	226.64
384.76	226.60
385.13	226.59
385.51	226.58
385.89	226.50
386.27	226.44
386.64	226.40
387.02	226.36
387.40	226.29
387.78	226.28
388.15	226.25
388.53	226.21
388.91	226.16
389.29	226.15
389.66	226.14
390.04	226.12
390.42	226.08
390.79	226.06
391.17	226.03
391.55	225.90
391.92	225.91
392.30	225.93
392.68	225.94
393.05	225.93
393.43	225.93
393.81	225.96
394.18	225.95
394.56	225.99
394.94	226.01
395.31	226.01
395.69	226.08
396.06	226.12
396.44	226.15
396.82	226.21
397.19	226.31
397.57	226.35
397.95	226.41
398.32	226.45
398.70	226.51
399.07	226.58
399.45	226.68
399.82	226.75
400.20	226.82
400.58	226.87
400.95	226.90
401.33	227.00
401.70	227.16
402.08	227.30
402.45	227.41
402.83	227.54
403.20	227.67
403.58	227.72
403.95	227.86
404.33	227.99
404.71	228.12
405.08	228.28
405.46	228.42
405.83	228.56
406.21	228.69
406.58	228.86
406.96	229.04
407.33	229.19
407.70	229.39
408.08	229.64
408.45	229.88
408.83	230.14
409.20	230.33
409.58	230.50
409.95	230.75
410.33	230.98
410.70	231.20
411.08	231.49
411.45	231.79
411.82	232.05
412.20	232.40
412.57	232.78
412.95	233.05
413.32	233.40
413.69	233.75
414.07	234.18
414.44	234.62
414.82	235.06
415.19	235.59
415.56	236.10
415.94	236.62
416.31	237.21
416.68	237.83
417.06	238.53
417.43	239.22
417.81	239.96
418.18	240.75
418.55	241.58
418.93	242.45
419.30	243.38
419.67	244.32
420.04	245.25
420.42	246.23
420.79	247.39
421.16	248.57
421.54	249.79
421.91	251.03
422.28	252.26
422.66	253.60
423.03	254.90
423.40	256.23
423.77	257.60
424.15	259.02
424.52	260.51
424.89	262.09
425.26	263.59
425.64	265.01
426.01	266.60
426.38	268.26
426.75	269.94
427.13	271.61
427.50	273.43
427.87	275.34
428.24	277.19
428.61	278.98
428.99	280.89
429.36	282.99
429.73	285.03
430.10	287.10
430.47	289.14
430.85	291.29
431.22	293.55
431.59	295.92
431.96	298.17
432.33	300.65
432.70	303.05
433.08	305.87
433.45	308.54
433.82	311.15
434.19	314.02
434.56	316.81
434.93	319.52
435.30	322.15
435.68	325.00
436.05	327.84
436.42	330.64
436.79	333.18
437.16	335.88
437.53	338.72
437.90	341.49
438.27	344.20
438.64	347.01
439.01	349.57
439.38	351.85
439.75	354.02
440.13	356.52
440.50	358.84
440.87	360.69
441.24	362.64
441.61	364.80
441.98	366.30
442.35	368.14
442.72	369.93
443.09	371.71
443.46	372.75
443.83	373.34
444.20	373.82
444.57	374.63
444.94	374.89
445.31	375.22
445.68	375.61
446.05	375.73
446.42	375.33
446.79	374.92
447.16	374.47
447.53	374.16
447.90	372.95
448.27	371.79
448.64	370.19
449.01	369.08
449.37	367.14
449.74	365.19
450.11	362.89
450.48	360.47
450.85	357.95
451.22	355.80
451.59	353.79
451.96	351.82
452.33	349.26
452.70	346.96
453.07	344.15
453.43	341.25
453.80	338.47
454.17	335.85
454.54	333.32
454.91	330.58
455.28	327.91
455.65	325.45
456.02	323.02
456.38	320.85
456.75	318.16
457.12	315.87
457.49	313.69
457.86	311.51
458.23	309.64
458.59	307.58
458.96	305.50
459.33	303.60
459.70	301.75
460.07	300.24
460.43	298.47
460.80	296.87
461.17	295.44
461.54	293.92
461.91	292.49
462.27	291.04
462.64	289.78
463.01	288.43
463.38	287.14
463.74	285.77
464.11	284.64
464.48	283.63
464.85	282.55
465.21	281.67
465.58	280.77
465.95	279.68
466.32	278.80
466.68	277.92
467.05	277.04
467.42	276.15
467.78	275.21
468.15	274.33
468.52	273.66
468.88	272.78
469.25	272.01
469.62	271.34
469.98	270.68
470.35	270.06
470.72	269.45
471.08	268.80
471.45	268.26
471.82	267.71
472.18	267.09
472.55	266.64
472.92	266.13
473.28	265.72
473.65	265.26
474.02	264.84
474.38	264.42
474.75	264.08
475.11	263.71
475.48	263.45
475.85	263.23
476.21	262.98
476.58	262.78
476.94	262.66
477.31	262.49
477.67	262.31
478.04	262.21
478.41	262.15
478.77	262.17
479.14	262.08
479.50	262.11
479.87	262.19
480.23	262.30
480.60	262.37
480.96	262.43
481.33	262.65
481.69	262.83
482.06	263.05
482.42	263.23
482.79	263.49
483.15	263.82
483.52	264.20
483.88	264.58
484.25	264.98
484.61	265.41
484.98	265.89
485.34	266.51
485.71	267.12
486.07	267.73
486.44	268.33
486.80	269.08
487.17	269.81
487.53	270.62
487.90	271.44
488.26	272.39
488.62	273.34
488.99	274.33
489.35	275.41
489.72	276.55
490.08	277.80
490.44	279.06
490.81	280.40
491.17	281.78
491.54	283.29
491.90	284.84
492.26	286.49
492.63	288.25
492.99	290.02
493.36	291.90
493.72	293.99
494.08	296.14
494.45	298.42
494.81	300.80
495.17	303.25
495.54	305.84
495.90	308.58
496.26	311.44
496.63	314.41
496.99	317.55
497.35	320.82
497.72	324.31
498.08	327.84
498.44	331.52
498.80	335.44
499.17	339.40
499.53	343.57
499.89	347.96
500.26	352.48
500.62	357.17
500.98	362.20
501.34	367.30
501.71	372.66
502.07	378.13
502.43	383.78
502.79	389.64
503.16	395.68
503.52	401.91
503.88	408.32
504.24	414.93
504.60	421.78
504.97	428.87
505.33	436.16
505.69	443.90
506.05	451.63
506.41	459.53
506.78	467.74
507.14	476.19
507.50	484.93
507.86	493.95
508.22	503.12
508.59	512.31
508.95	521.79
509.31	531.55
509.67	541.60
510.03	551.85
510.39	562.45
510.75	573.22
511.12	584.16
511.48	595.45
511.84	606.86
512.20	618.39
512.56	630.43
512.92	642.61
513.28	654.96
513.64	667.46
514.00	680.14
514.37	693.11
514.73	706.17
515.09	719.18
515.45	732.44
515.81	746.01
516.17	760.04
516.53	774.18
516.89	788.34
517.25	802.50
517.61	816.91
517.97	831.36
518.33	845.73
518.69	860.47
519.05	875.41
519.41	890.70
519.77	906.22
520.13	921.53
520.49	936.87
520.85	952.11
521.21	967.76
521.57	983.97
521.93	999.74
522.29	1016.01
522.65	1032.24
523.01	1048.42
523.37	1064.43
523.73	1080.47
524.09	1096.60
524.45	1112.90
524.81	1129.49
525.17	1146.35
525.53	1163.14
525.89	1180.04
526.25	1196.86
526.61	1213.27
526.97	1229.91
527.33	1246.33
527.68	1262.95
528.04	1279.44
528.40	1296.02
528.76	1313.11
529.12	1329.66
529.48	1346.38
529.84	1362.44
530.20	1379.07
530.56	1396.05
530.91	1413.34
531.27	1430.08
531.63	1446.52
531.99	1463.13
532.35	1479.01
532.71	1494.73
533.07	1510.94
533.42	1526.94
533.78	1542.95
534.14	1559.10
534.50	1574.44
534.86	1590.13
535.21	1605.26
535.57	1621.07
535.93	1636.60
536.29	1651.29
536.65	1666.46
537.00	1681.21
537.36	1696.43
537.72	1710.86
538.08	1725.22
538.44	1739.10
538.79	1753.04
539.15	1766.57
539.51	1780.09
539.87	1794.52
540.22	1808.13
540.58	1821.71
540.94	1834.79
541.29	1847.42
541.65	1860.11
542.01	1873.17
542.37	1885.49
542.72	1897.84
543.08	1909.59
543.44	1921.86
543.79	1933.06
544.15	1943.85
544.51	1955.54
544.87	1966.50
545.22	1977.41
545.58	1987.65
545.94	1997.17
546.29	2006.83
546.65	2016.73
547.01	2025.96
547.36	2034.69
547.72	2043.21
548.07	2051.13
548.43	2059.29
548.79	2067.37
549.14	2074.78
549.50	2082.10
549.86	2089.80
550.21	2097.11
550.57	2104.26
550.92	2110.82
551.28	2117.97
551.64	2124.98
551.99	2131.29
552.35	2137.42
552.70	2143.43
553.06	2149.34
553.41	2155.83
553.77	2161.75
554.13	2167.70
554.48	2173.84
554.84	2179.18
555.19	2184.34
555.55	2189.56
555.90	2194.07
556.26	2199.15
556.61	2203.90
556.97	2208.22
557.32	2212.28
557.68	2216.30
558.03	2220.65
558.39	2224.41
558.74	2229.00
559.10	2232.80
559.45	2236.48
559.81	2240.73
560.16	2244.61
560.52	2247.74
560.87	2251.11
561.23	2253.81
561.58	2256.71
561.94	2259.12
562.29	2261.41
562.64	2264.34
563.00	2266.86
563.35	2270.45
563.71	2273.44
564.06	2276.59
564.42	2279.45
564.77	2282.10
565.12	2284.54
565.48	2286.42
565.83	2288.31
566.19	2289.69
566.54	2290.47
566.89	2291.57
567.25	2292.22
567.60	2293.42
567.96	2295.25
568.31	2296.04
568.66	2297.37
569.02	2297.93
569.37	2298.36
569.72	2299.37
570.08	2299.47
570.43	2299.58
570.78	2299.01
571.14	2297.64
571.49	2296.40
571.84	2296.09
572.20	2294.83
572.55	2293.69
572.90	2292.03
573.26	2290.67
573.61	2288.83
573.96	2287.35
574.31	2284.46
574.67	2281.44
575.02	2277.77
575.37	2274.39
575.72	2270.69
576.08	2267.26
576.43	2264.03
576.78	2260.39
577.13	2257.11
577.49	2253.91
577.84	2250.48
578.19	2246.61
578.54	2242.94
578.90	2238.77
579.25	2233.38
579.60	2228.59
579.95	2223.69
580.30	2218.63
580.66	2213.32
581.01	2208.44
581.36	2203.54
581.71	2199.48
582.06	2195.15
582.42	2190.83
582.77	2185.61
583.12	2181.20
583.47	2176.54
583.82	2171.62
584.17	2166.53
584.53	2161.18
584.88	2155.63
585.23	2149.95
585.58	2144.63
585.93	2139.07
586.28	2134.09
586.63	2129.06
586.98	2123.96
587.34	2119.29
587.69	2114.55
588.04	2109.66
588.39	2104.12
588.74	2097.66
589.09	2091.53
589.44	2084.81
589.79	2078.84
590.14	2073.27
590.49	2066.59
590.84	2060.19
591.19	2054.12
591.54	2047.64
591.89	2040.27
592.25	2033.49
592.60	2026.21
592.95	2018.66
593.30	2011.40
593.65	2003.94
594.00	1996.83
594.35	1989.61
594.70	1981.48
595.05	1974.43
595.40	1967.03
595.75	1959.50
596.10	1953.29
596.45	1946.60
596.80	1940.39
597.15	1933.81
597.50	1926.80
597.85	1920.31
598.19	1913.81
598.54	1906.84
598.89	1900.22
599.24	1894.28
599.59	1887.73
599.94	1881.53
600.29	1875.15
600.64	1868.65
600.99	1861.23
601.34	1854.39
601.69	1847.39
602.04	1840.60
602.39	1833.15
602.74	1826.21
603.08	1819.39
603.43	1812.70
603.78	1805.39
604.13	1798.08
604.48	1790.83
604.83	1783.98
605.18	1777.05
605.53	1769.07
605.87	1761.06
606.22	1753.71
606.57	1745.72
606.92	1738.32
607.27	1731.15
607.62	1724.35
607.96	1716.99
608.31	1710.56
608.66	1703.04
609.01	1695.66
609.36	1688.20
609.70	1680.16
610.05	1672.20
610.40	1664.57
610.75	1656.18
611.10	1648.42
611.44	1640.04
611.79	1631.99
612.14	1623.29
612.49	1614.24
612.83	1605.72
613.18	1597.60
613.53	1589.58
613.88	1581.15
614.22	1572.79
614.57	1564.18
614.92	1556.13
615.27	1548.64
615.61	1540.27
615.96	1532.16
616.31	1524.42
616.65	1517.05
617.00	1509.53
617.35	1501.80
617.70	1493.51
618.04	1485.15
618.39	1476.94
618.74	1469.44
619.08	1461.10
619.43	1453.50
619.78	1446.52
620.12	1439.46
620.47	1431.89
620.82	1423.73
621.16	1416.24
621.51	1408.68
621.85	1400.95
622.20	1392.43
622.55	1384.02
622.89	1376.23
623.24	1368.60
623.59	1361.14
623.93	1353.59
624.28	1346.31
624.62	1338.79
624.97	1331.61
625.32	1324.65
625.66	1317.64
626.01	1310.48
626.35	1303.10
626.70	1295.31
627.04	1287.61
627.39	1279.78
627.73	1272.30
628.08	1265.45
628.43	1258.18
628.77	1250.87
629.12	1243.51
629.46	1236.29
629.81	1228.78
630.15	1221.48
630.50	1214.14
630.84	1206.01
631.19	1198.07
631.53	1190.51
631.88	1182.99
632.22	1175.44
632.57	1168.29
632.91	1160.81
633.26	1153.29
633.60	1145.82
633.95	1138.77
634.29	1131.64
634.64	1124.90
634.98	1117.56
635.32	1110.28
635.67	1103.65
636.01	1096.99
636.36	1090.09
636.70	1083.58
637.05	1077.19
637.39	1070.73
637.73	1064.15
638.08	1058.21
638.42	1052.24
638.77	1045.93
639.11	1039.34
639.45	1032.91
639.80	1026.16
640.14	1019.76
640.49	1013.31
640.83	1007.02
641.17	1000.83
641.52	994.57
641.86	988.13
642.20	982.32
642.55	976.03
642.89	969.52
643.23	962.94
643.58	957.28
643.92	951.11
644.26	945.04
644.61	938.94
644.95	932.99
645.29	926.43
645.64	919.65
645.98	913.25
646.32	907.40
646.66	901.31
647.01	895.52
647.35	889.77
647.69	883.85
648.04	878.29
648.38	872.43
648.72	866.43
649.06	860.35
649.41	854.42
649.75	848.54
650.09	842.65
650.43	836.82
650.78	830.54
651.12	824.55
651.46	818.79
651.80	813.17
652.14	807.68
652.49	802.38
652.83	797.19
653.17	791.51
653.51	785.79
653.85	780.35
654.20	774.68
654.54	768.61
654.88	762.92
655.22	757.03
655.56	751.33
655.90	745.87
656.25	740.62
656.59	735.30
656.93	730.16
657.27	724.97
657.61	719.55
657.95	714.53
658.29	709.42
658.64	704.16
658.98	698.74
659.32	693.30
659.66	688.11
660.00	682.85
660.34	677.89
660.68	672.99
661.02	667.98
661.36	663.31
661.70	658.86
662.05	654.47
662.39	650.21
662.73	645.73
663.07	641.33
663.41	636.86
663.75	632.38
664.09	627.79
664.43	623.39
664.77	619.29
665.11	614.93
665.45	610.87
665.79	606.78
666.13	602.70
666.47	598.60
666.81	594.36
667.15	590.20
667.49	586.24
667.83	582.38
668.17	578.38
668.51	574.34
668.85	570.31
669.19	566.43
669.53	562.55
669.87	558.70
670.21	554.95
670.55	551.34
670.89	547.89
671.23	544.51
671.57	541.03
671.91	537.53
672.25	534.06
672.58	530.46
672.92	527.05
673.26	523.82
673.60	520.65
673.94	517.59
674.28	514.69
674.62	511.79
674.96	508.73
675.30	505.88
675.64	502.91
675.97	500.11
676.31	497.31
676.65	494.36
676.99	491.67
677.33	488.87
677.67	486.05
678.01	482.99
678.34	479.98
678.68	477.06
679.02	474.25
679.36	471.46
679.70	468.75
680.04	465.98
680.37	463.18
680.71	460.37
681.05	457.70
681.39	454.99
681.73	452.35
682.06	449.84
682.40	447.32
682.74	444.82
683.08	442.23
683.42	439.64
683.75	437.16
684.09	434.55
684.43	432.05
684.77	429.61
685.10	427.32
685.44	425.08
685.78	422.85
686.12	420.55
686.45	418.26
686.79	415.95
687.13	413.77
687.46	411.60
687.80	409.45
688.14	407.23
688.48	405.18
688.81	402.92
689.15	400.72
689.49	398.54
689.82	396.48
690.16	394.48
690.50	392.51
690.83	390.53
691.17	388.56
691.51	386.69
691.84	384.82
692.18	382.90
692.52	380.82
692.85	378.83
693.19	377.00
693.52	375.21
693.86	373.40
694.20	371.56
694.53	369.76
694.87	367.87
695.21	366.06
695.54	364.18
695.88	362.42
696.21	360.71
696.55	359.03
696.88	357.29
697.22	355.61
697.56	353.97
697.89	352.37
698.23	350.78
698.56	349.14
698.90	347.57
699.23	345.94
699.57	344.44
699.90	342.91
700.24	341.35
700.58	339.85
700.91	338.40
701.25	336.96
701.58	335.58
701.92	334.27
702.25	332.93
702.59	331.60
702.92	330.31
703.26	328.98
703.59	327.68
703.93	326.51
704.26	325.28
704.60	323.93
704.93	322.65
705.26	321.34
705.60	320.16
705.93	318.95
706.27	317.86
706.60	316.77
706.94	315.69
707.27	314.52
707.61	313.43
707.94	312.35
708.27	311.28
708.61	310.19
708.94	309.17
709.28	308.19
709.61	307.22
709.94	306.28
710.28	305.24
710.61	304.26
710.95	303.16
711.28	302.22
711.61	301.31
711.95	300.40
712.28	299.51
712.61	298.57
712.95	297.65
713.28	296.79
713.61	295.93
713.95	295.03
714.28	294.20
714.61	293.36
714.95	292.50
715.28	291.65
715.61	290.78
715.95	289.92
716.28	289.02
716.61	288.19
716.95	287.33
717.28	286.61
717.61	285.85
717.94	285.15
718.28	284.34
718.61	283.61
718.94	282.88
719.27	282.19
719.61	281.50
719.94	280.86
720.27	280.13
720.60	279.45
720.94	278.86
721.27	278.26
721.60	277.69
721.93	277.10
722.27	276.55
722.60	276.00
722.93	275.41
723.26	274.90
723.59	274.32
723.93	273.80
724.26	273.27
724.59	272.71
724.92	272.16
725.25	271.67
725.59	271.14
725.92	270.65
726.25	270.17
726.58	269.70
726.91	269.22
727.24	268.78
727.57	268.29
727.91	267.77
728.24	267.30
728.57	266.82
728.90	266.35
729.23	265.88
729.56	265.45
729.89	265.00
730.22	264.49
730.55	264.04
730.89	263.57
731.22	263.10
731.55	262.67
731.88	262.26
732.21	261.82
732.54	261.39
732.87	260.95
733.20	260.55
733.53	260.15
733.86	259.76
734.19	259.34
734.52	259.00
734.85	258.70
735.18	258.32
735.51	257.90
735.84	257.55
736.17	257.17
736.50	256.71
736.83	256.49
737.16	256.17
737.49	255.83
737.82	255.47
738.15	255.13
738.48	254.81
738.81	254.45
739.14	254.13
739.47	253.81
739.80	253.51
740.13	253.19
740.46	252.84
740.79	252.50
741.12	252.18
741.45	251.83
741.78	251.50
742.11	251.18
742.44	250.87
742.77	250.57
743.10	250.30
743.43	250.03
743.75	249.63
744.08	249.51
744.41	249.22
744.74	248.96
745.07	248.68
745.40	248.43
745.73	248.24
746.06	247.97
746.39	247.70
746.71	247.44
747.04	247.15
747.37	246.88
747.70	246.65
748.03	246.41
748.36	246.18
748.68	245.90
749.01	245.67
749.34	245.42
749.67	245.22
750.00	244.99
750.33	244.85
750.65	244.64
750.98	244.27
751.31	244.07
751.64	243.89
751.97	243.71
752.29	243.48
752.62	243.21
752.95	242.96
753.28	242.76
753.60	242.53
753.93	242.36
754.26	242.17
754.59	241.97
754.91	241.74
755.24	241.52
755.57	241.32
755.90	241.13
756.22	240.96
756.55	240.75
756.88	240.51
757.20	240.29
757.53	240.09
757.86	239.91
758.19	239.77
758.51	239.62
758.84	239.41
759.17	239.22
759.49	239.08
759.82	238.99
760.15	238.87
760.47	238.74
760.80	238.60
761.13	238.49
761.45	238.32
761.78	238.19
762.11	238.08
762.43	237.96
762.76	237.85
763.08	237.70
763.41	237.57
763.74	237.48
764.06	237.33
764.39	237.21
764.71	237.11
765.04	236.96
765.37	236.80
765.69	236.70
766.02	236.57
766.34	236.46
766.67	236.30
767.00	236.21
767.32	236.14
767.65	236.08
767.97	235.92
768.30	235.81
768.62	235.72
768.95	235.61
769.27	235.48
769.60	235.36
769.92	235.27
770.25	235.10
770.57	234.97
770.90	234.86
771.22	234.76
771.55	234.66
771.87	234.56
772.20	234.47
772.52	234.47
772.85	234.50
773.17	234.41
773.50	234.33
773.82	234.22
774.15	234.11
774.47	233.97
774.80	233.89
775.12	233.80
775.45	233.71
775.77	233.62
776.09	233.53
776.42	233.43
776.74	233.37
777.07	233.32
777.39	233.25
777.72	233.19
778.04	233.09
778.36	233.01
778.69	232.97
779.01	232.89
779.33	232.73
779.66	232.56
779.98	232.46
780.31	232.37
780.63	232.32
780.95	232.24
781.28	232.17
781.60	232.12
781.92	232.07
782.25	232.01
782.57	231.94
782.89	231.91
783.22	231.87
783.54	231.82
783.86	231.77
784.19	231.71
784.51	231.69
784.83	231.64
785.16	231.57
785.48	231.49
785.80	231.43
786.12	231.38
786.45	231.29
786.77	231.24
787.09	231.19
