SpectraSuite Data File
++++++++++++++++++++++++++++++++++++
Date: Fri Feb 01 16:45:34 EST 2013
User: group
Dark Spectrum Present: No
Reference Spectrum Present: No
Number of Sampled Component Spectra: 1
Spectrometers: USB2E7196
Integration Time (usec): 35000 (USB2E7196)
Spectra Averaged: 100 (USB2E7196)
Boxcar Smoothing: 10 (USB2E7196)
Correct for Electrical Dark: No (USB2E7196)
Strobe/Lamp Enabled: No (USB2E7196)
Correct for Detector Non-linearity: No (USB2E7196)
Correct for Stray Light: No (USB2E7196)
Number of Pixels in Processed Spectrum: 2048
>>>>>Begin Processed Spectral Data<<<<<
339.09	0.00
339.48	213.01
339.86	215.45
340.24	216.34
340.63	217.77
341.01	220.68
341.39	220.14
341.78	221.54
342.16	223.42
342.54	223.63
342.93	211.88
343.31	222.58
343.69	223.13
344.07	223.56
344.46	223.98
344.84	224.36
345.22	224.60
345.60	224.89
345.99	225.10
346.37	225.19
346.75	225.29
347.13	225.35
347.52	225.41
347.90	225.46
348.28	225.49
348.66	225.52
349.05	225.51
349.43	225.53
349.81	225.60
350.19	225.66
350.57	225.73
350.96	225.82
351.34	225.88
351.72	225.97
352.10	226.05
352.48	226.12
352.87	226.17
353.25	226.22
353.63	226.24
354.01	226.26
354.39	226.37
354.77	226.42
355.15	226.48
355.54	226.57
355.92	226.63
356.30	226.69
356.68	226.80
357.06	226.87
357.44	226.95
357.82	227.00
358.20	227.06
358.58	227.11
358.97	227.17
359.35	227.28
359.73	227.35
360.11	227.44
360.49	227.50
360.87	227.53
361.25	227.62
361.63	227.73
362.01	227.81
362.39	227.83
362.77	227.87
363.15	227.92
363.53	227.94
363.91	227.97
364.29	227.98
364.67	227.93
365.05	227.94
365.43	227.94
365.81	227.95
366.19	227.98
366.57	228.03
366.95	228.01
367.33	227.97
367.71	227.95
368.09	227.95
368.47	227.96
368.85	227.98
369.23	227.96
369.61	227.88
369.99	227.88
370.37	227.86
370.75	227.87
371.13	227.86
371.51	227.82
371.89	227.78
372.27	227.79
372.65	227.78
373.03	227.76
373.41	227.73
373.78	227.65
374.16	227.56
374.54	227.49
374.92	227.44
375.30	227.42
375.68	227.34
376.06	227.26
376.44	227.17
376.82	227.11
377.19	227.03
377.57	226.94
377.95	226.84
378.33	226.76
378.71	226.68
379.09	226.61
379.47	226.52
379.84	226.44
380.22	226.36
380.60	226.26
380.98	226.18
381.36	226.11
381.73	226.06
382.11	226.03
382.49	225.93
382.87	225.87
383.25	225.80
383.62	225.87
384.00	225.81
384.38	225.78
384.76	225.74
385.13	225.73
385.51	225.72
385.89	225.64
386.27	225.59
386.64	225.52
387.02	225.48
387.40	225.48
387.78	225.44
388.15	225.37
388.53	225.35
388.91	225.30
389.29	225.28
389.66	225.25
390.04	225.20
390.42	225.20
390.79	225.13
391.17	225.12
391.55	224.99
391.92	224.96
392.30	224.94
392.68	224.87
393.05	224.85
393.43	224.86
393.81	224.91
394.18	224.88
394.56	224.87
394.94	224.88
395.31	224.83
395.69	224.88
396.06	224.91
396.44	224.91
396.82	224.94
397.19	224.98
397.57	224.99
397.95	225.04
398.32	225.04
398.70	225.14
399.07	225.21
399.45	225.26
399.82	225.32
400.20	225.38
400.58	225.45
400.95	225.45
401.33	225.51
401.70	225.64
402.08	225.77
402.45	225.84
402.83	225.97
403.20	226.09
403.58	226.19
403.95	226.30
404.33	226.43
404.71	226.54
405.08	226.73
405.46	226.84
405.83	226.95
406.21	227.11
406.58	227.26
406.96	227.40
407.33	227.58
407.70	227.73
408.08	228.00
408.45	228.20
408.83	228.47
409.20	228.69
409.58	228.87
409.95	229.11
410.33	229.42
410.70	229.64
411.08	229.96
411.45	230.23
411.82	230.54
412.20	230.90
412.57	231.32
412.95	231.60
413.32	232.03
413.69	232.42
414.07	232.86
414.44	233.29
414.82	233.76
415.19	234.32
415.56	234.91
415.94	235.44
416.31	236.09
416.68	236.68
417.06	237.38
417.43	238.06
417.81	238.81
418.18	239.55
418.55	240.43
418.93	241.31
419.30	242.21
419.67	243.16
420.04	244.12
420.42	245.13
420.79	246.32
421.16	247.44
421.54	248.66
421.91	249.86
422.28	251.12
422.66	252.42
423.03	253.73
423.40	255.04
423.77	256.43
424.15	257.86
424.52	259.35
424.89	260.93
425.26	262.48
425.64	263.92
426.01	265.50
426.38	267.08
426.75	268.70
427.13	270.40
427.50	272.21
427.87	274.07
428.24	275.86
428.61	277.59
428.99	279.54
429.36	281.62
429.73	283.65
430.10	285.67
430.47	287.73
430.85	289.79
431.22	292.03
431.59	294.39
431.96	296.64
432.33	299.09
432.70	301.44
433.08	304.21
433.45	306.86
433.82	309.46
434.19	312.36
434.56	315.14
434.93	317.76
435.30	320.32
435.68	323.18
436.05	326.02
436.42	328.78
436.79	331.26
437.16	333.95
437.53	336.76
437.90	339.53
438.27	342.22
438.64	345.01
439.01	347.56
439.38	349.79
439.75	351.90
440.13	354.34
440.50	356.64
440.87	358.46
441.24	360.35
441.61	362.48
441.98	363.96
442.35	365.75
442.72	367.58
443.09	369.43
443.46	370.41
443.83	370.97
444.20	371.47
444.57	372.27
444.94	372.57
445.31	372.91
445.68	373.29
446.05	373.40
446.42	373.09
446.79	372.68
447.16	372.23
447.53	371.94
447.90	370.84
448.27	369.70
448.64	368.17
449.01	367.07
449.37	365.12
449.74	363.26
450.11	361.07
450.48	358.66
450.85	356.13
451.22	354.03
451.59	352.06
451.96	350.13
452.33	347.61
452.70	345.23
453.07	342.46
453.43	339.56
453.80	336.83
454.17	334.13
454.54	331.64
454.91	328.95
455.28	326.29
455.65	323.82
456.02	321.42
456.38	319.28
456.75	316.66
457.12	314.44
457.49	312.21
457.86	310.01
458.23	308.19
458.59	306.16
458.96	304.07
459.33	302.21
459.70	300.40
460.07	298.91
460.43	297.25
460.80	295.67
461.17	294.28
461.54	292.80
461.91	291.41
462.27	289.97
462.64	288.75
463.01	287.43
463.38	286.17
463.74	284.83
464.11	283.69
464.48	282.66
464.85	281.57
465.21	280.73
465.58	279.82
465.95	278.74
466.32	277.86
466.68	276.97
467.05	276.10
467.42	275.21
467.78	274.31
468.15	273.46
468.52	272.77
468.88	271.90
469.25	271.15
469.62	270.53
469.98	269.84
470.35	269.24
470.72	268.65
471.08	267.98
471.45	267.45
471.82	266.94
472.18	266.36
472.55	265.95
472.92	265.43
473.28	265.03
473.65	264.57
474.02	264.12
474.38	263.76
474.75	263.45
475.11	263.12
475.48	262.84
475.85	262.60
476.21	262.36
476.58	262.20
476.94	262.08
477.31	261.89
477.67	261.77
478.04	261.63
478.41	261.59
478.77	261.69
479.14	261.66
479.50	261.67
479.87	261.76
480.23	261.87
480.60	261.93
480.96	262.03
481.33	262.23
481.69	262.45
482.06	262.70
482.42	262.93
482.79	263.18
483.15	263.51
483.52	263.90
483.88	264.30
484.25	264.69
484.61	265.10
484.98	265.56
485.34	266.15
485.71	266.76
486.07	267.36
486.44	267.88
486.80	268.59
487.17	269.30
487.53	270.10
487.90	270.93
488.26	271.91
488.62	272.89
488.99	273.92
489.35	274.97
489.72	276.09
490.08	277.31
490.44	278.57
490.81	279.94
491.17	281.25
491.54	282.73
491.90	284.26
492.26	285.92
492.63	287.65
492.99	289.42
493.36	291.30
493.72	293.37
494.08	295.50
494.45	297.71
494.81	300.12
495.17	302.54
495.54	305.05
495.90	307.72
496.26	310.54
496.63	313.46
496.99	316.58
497.35	319.84
497.72	323.22
498.08	326.75
498.44	330.43
498.80	334.36
499.17	338.36
499.53	342.58
499.89	346.93
500.26	351.48
500.62	356.20
500.98	361.10
501.34	366.14
501.71	371.47
502.07	376.89
502.43	382.45
502.79	388.25
503.16	394.33
503.52	400.58
503.88	406.96
504.24	413.56
504.60	420.40
504.97	427.49
505.33	434.83
505.69	442.48
506.05	450.26
506.41	458.11
506.78	466.19
507.14	474.55
507.50	483.22
507.86	492.20
508.22	501.26
508.59	510.47
508.95	520.05
509.31	529.80
509.67	539.90
510.03	550.19
510.39	560.70
510.75	571.45
511.12	582.32
511.48	593.56
511.84	604.95
512.20	616.39
512.56	628.27
512.92	640.33
513.28	652.60
513.64	665.00
514.00	677.69
514.37	690.61
514.73	703.59
515.09	716.58
515.45	729.77
515.81	743.29
516.17	757.18
516.53	771.18
516.89	785.29
517.25	799.35
517.61	813.73
517.97	828.13
518.33	842.51
518.69	857.15
519.05	871.99
519.41	887.13
519.77	902.56
520.13	917.94
520.49	933.21
520.85	948.46
521.21	964.11
521.57	980.16
521.93	995.86
522.29	1012.15
522.65	1028.35
523.01	1044.37
523.37	1060.28
523.73	1076.27
524.09	1092.19
524.45	1108.37
524.81	1124.81
525.17	1141.35
525.53	1157.99
525.89	1174.67
526.25	1191.47
526.61	1207.71
526.97	1224.30
527.33	1240.77
527.68	1257.17
528.04	1273.46
528.40	1289.92
528.76	1306.67
529.12	1323.05
529.48	1339.74
529.84	1355.57
530.20	1371.92
530.56	1388.77
530.91	1406.07
531.27	1422.70
531.63	1439.03
531.99	1455.42
532.35	1471.23
532.71	1486.95
533.07	1503.12
533.42	1518.96
533.78	1534.78
534.14	1550.90
534.50	1566.06
534.86	1581.62
535.21	1596.62
535.57	1612.46
535.93	1627.78
536.29	1642.46
536.65	1657.49
537.00	1672.03
537.36	1687.17
537.72	1701.52
538.08	1715.92
538.44	1729.42
538.79	1743.23
539.15	1756.68
539.51	1770.07
539.87	1784.35
540.22	1797.91
540.58	1811.53
540.94	1824.61
541.29	1837.31
541.65	1849.84
542.01	1862.92
542.37	1875.12
542.72	1887.40
543.08	1899.06
543.44	1911.47
543.79	1922.60
544.15	1933.45
544.51	1944.98
544.87	1955.89
545.22	1966.65
545.58	1976.66
545.94	1986.39
546.29	1995.97
546.65	2005.87
547.01	2015.24
547.36	2023.80
547.72	2032.23
548.07	2040.12
548.43	2048.10
548.79	2056.00
549.14	2063.38
549.50	2070.51
549.86	2078.04
550.21	2085.21
550.57	2092.28
550.92	2098.74
551.28	2105.73
551.64	2112.66
551.99	2119.13
552.35	2125.23
552.70	2131.31
553.06	2137.31
553.41	2143.52
553.77	2149.49
554.13	2155.41
554.48	2161.44
554.84	2166.91
555.19	2172.08
555.55	2177.08
555.90	2181.67
556.26	2186.61
556.61	2191.44
556.97	2195.94
557.32	2200.17
557.68	2204.36
558.03	2208.62
558.39	2212.13
558.74	2216.68
559.10	2220.67
559.45	2224.38
559.81	2228.60
560.16	2232.43
560.52	2235.73
560.87	2239.28
561.23	2241.96
561.58	2244.94
561.94	2247.52
562.29	2249.79
562.64	2252.58
563.00	2255.14
563.35	2258.67
563.71	2261.79
564.06	2264.94
564.42	2267.87
564.77	2270.27
565.12	2272.68
565.48	2274.69
565.83	2276.72
566.19	2278.08
566.54	2278.70
566.89	2279.82
567.25	2280.52
567.60	2281.86
567.96	2283.51
568.31	2284.40
568.66	2285.78
569.02	2286.45
569.37	2286.89
569.72	2287.86
570.08	2288.06
570.43	2288.21
570.78	2287.59
571.14	2286.13
571.49	2284.82
571.84	2284.45
572.20	2283.59
572.55	2282.62
572.90	2281.02
573.26	2279.83
573.61	2278.30
573.96	2276.92
574.31	2274.09
574.67	2271.20
575.02	2267.71
575.37	2264.38
575.72	2260.62
576.08	2257.19
576.43	2253.95
576.78	2250.46
577.13	2247.39
577.49	2244.31
577.84	2240.86
578.19	2237.33
578.54	2233.78
578.90	2229.76
579.25	2224.24
579.60	2219.33
579.95	2214.40
580.30	2209.55
580.66	2204.28
581.01	2199.38
581.36	2194.50
581.71	2190.47
582.06	2186.07
582.42	2181.76
582.77	2176.56
583.12	2172.23
583.47	2167.74
583.82	2163.01
584.17	2157.76
584.53	2152.29
584.88	2146.91
585.23	2141.40
585.58	2136.07
585.93	2130.70
586.28	2125.93
586.63	2121.05
586.98	2116.04
587.34	2111.34
587.69	2106.65
588.04	2101.53
588.39	2095.94
588.74	2089.58
589.09	2083.29
589.44	2076.65
589.79	2070.66
590.14	2065.17
590.49	2058.63
590.84	2052.26
591.19	2046.24
591.54	2040.01
591.89	2032.96
592.25	2026.33
592.60	2019.16
592.95	2011.73
593.30	2004.54
593.65	1997.10
594.00	1990.06
594.35	1982.90
594.70	1974.99
595.05	1967.89
595.40	1960.81
595.75	1953.49
596.10	1947.38
596.45	1940.88
596.80	1934.91
597.15	1928.34
597.50	1921.52
597.85	1915.03
598.19	1908.52
598.54	1901.36
598.89	1894.73
599.24	1888.78
599.59	1882.04
599.94	1875.86
600.29	1869.42
600.64	1862.93
600.99	1855.57
601.34	1848.87
601.69	1842.01
602.04	1835.33
602.39	1827.97
602.74	1821.22
603.08	1814.58
603.43	1807.84
603.78	1800.66
604.13	1793.39
604.48	1786.21
604.83	1779.13
605.18	1772.40
605.53	1764.58
605.87	1756.74
606.22	1749.52
606.57	1741.76
606.92	1734.50
607.27	1727.37
607.62	1720.58
607.96	1713.38
608.31	1707.06
608.66	1699.60
609.01	1692.32
609.36	1684.74
609.70	1676.75
610.05	1668.67
610.40	1661.00
610.75	1652.74
611.10	1645.10
611.44	1636.74
611.79	1628.79
612.14	1620.38
612.49	1611.18
612.83	1602.81
613.18	1594.77
613.53	1586.81
613.88	1578.30
614.22	1570.12
614.57	1561.62
614.92	1553.72
615.27	1546.21
615.61	1537.78
615.96	1529.55
616.31	1521.77
616.65	1514.48
617.00	1506.97
617.35	1499.31
617.70	1490.94
618.04	1482.50
618.39	1474.27
618.74	1466.63
619.08	1458.38
619.43	1450.77
619.78	1443.94
620.12	1436.68
620.47	1429.10
620.82	1420.83
621.16	1413.30
621.51	1405.63
621.85	1397.99
622.20	1389.56
622.55	1381.17
622.89	1373.33
623.24	1365.84
623.59	1358.37
623.93	1350.84
624.28	1343.66
624.62	1336.16
624.97	1329.00
625.32	1322.33
625.66	1315.41
626.01	1308.46
626.35	1300.99
626.70	1293.22
627.04	1285.46
627.39	1277.76
627.73	1270.39
628.08	1263.48
628.43	1256.32
628.77	1249.03
629.12	1241.51
629.46	1234.29
629.81	1226.88
630.15	1219.56
630.50	1212.25
630.84	1204.02
631.19	1196.09
631.53	1188.56
631.88	1181.07
632.22	1173.49
632.57	1166.10
632.91	1158.47
633.26	1150.94
633.60	1143.59
633.95	1136.52
634.29	1129.51
634.64	1122.81
634.98	1115.38
635.32	1108.21
635.67	1101.51
636.01	1094.96
636.36	1088.10
636.70	1081.51
637.05	1074.97
637.39	1068.59
637.73	1061.99
638.08	1056.13
638.42	1050.11
638.77	1043.70
639.11	1037.13
639.45	1030.74
639.80	1024.15
640.14	1017.82
640.49	1011.31
640.83	1005.04
641.17	998.74
641.52	992.38
641.86	985.92
642.20	980.14
642.55	973.84
642.89	967.44
643.23	960.84
643.58	955.15
643.92	948.95
644.26	942.96
644.61	936.93
644.95	931.00
645.29	924.49
645.64	917.78
645.98	911.43
646.32	905.57
646.66	899.62
647.01	893.77
647.35	888.03
647.69	882.17
648.04	876.58
648.38	870.85
648.72	864.91
649.06	858.87
649.41	853.01
649.75	847.08
650.09	841.12
650.43	835.30
650.78	829.16
651.12	823.27
651.46	817.49
651.80	811.76
652.14	806.29
652.49	800.97
652.83	795.84
653.17	790.21
653.51	784.56
653.85	779.10
654.20	773.52
654.54	767.59
654.88	761.83
655.22	755.87
655.56	750.15
655.90	744.66
656.25	739.46
656.59	734.07
656.93	728.97
657.27	723.86
657.61	718.41
657.95	713.34
658.29	708.29
658.64	703.04
658.98	697.71
659.32	692.28
659.66	687.05
660.00	681.67
660.34	676.63
660.68	671.72
661.02	666.69
661.36	661.96
661.70	657.43
662.05	653.10
662.39	648.89
662.73	644.46
663.07	640.11
663.41	635.57
663.75	631.13
664.09	626.60
664.43	622.15
664.77	618.15
665.11	613.86
665.45	609.70
665.79	605.66
666.13	601.59
666.47	597.48
666.81	593.38
667.15	589.32
667.49	585.42
667.83	581.55
668.17	577.64
668.51	573.58
668.85	569.49
669.19	565.64
669.53	561.76
669.87	557.88
670.21	554.17
670.55	550.55
670.89	547.08
671.23	543.66
671.57	540.12
671.91	536.51
672.25	532.99
672.58	529.45
672.92	525.94
673.26	522.71
673.60	519.54
673.94	516.37
674.28	513.38
674.62	510.44
674.96	507.34
675.30	504.42
675.64	501.48
675.97	498.74
676.31	495.85
676.65	492.96
676.99	490.26
677.33	487.38
677.67	484.58
678.01	481.53
678.34	478.56
678.68	475.71
679.02	472.90
679.36	470.12
679.70	467.38
680.04	464.64
680.37	461.77
680.71	458.94
681.05	456.34
681.39	453.66
681.73	451.05
682.06	448.45
682.40	445.86
682.74	443.32
683.08	440.67
683.42	438.10
683.75	435.56
684.09	433.02
684.43	430.60
684.77	428.12
685.10	425.76
685.44	423.39
685.78	421.11
686.12	418.86
686.45	416.55
686.79	414.29
687.13	412.10
687.46	409.96
687.80	407.84
688.14	405.59
688.48	403.55
688.81	401.29
689.15	399.25
689.49	397.14
689.82	395.07
690.16	393.02
690.50	391.00
690.83	389.11
691.17	387.13
691.51	385.25
691.84	383.44
692.18	381.57
692.52	379.64
692.85	377.71
693.19	375.86
693.52	374.06
693.86	372.24
694.20	370.47
694.53	368.69
694.87	366.86
695.21	365.11
695.54	363.27
695.88	361.55
696.21	359.78
696.55	358.11
696.88	356.41
697.22	354.82
697.56	353.23
697.89	351.57
698.23	349.97
698.56	348.35
698.90	346.77
699.23	345.13
699.57	343.59
699.90	342.00
700.24	340.46
700.58	338.97
700.91	337.52
701.25	336.06
701.58	334.71
701.92	333.35
702.25	331.98
702.59	330.63
702.92	329.30
703.26	328.00
703.59	326.76
703.93	325.61
704.26	324.38
704.60	323.08
704.93	321.83
705.26	320.59
705.60	319.43
705.93	318.25
706.27	317.20
706.60	316.14
706.94	315.10
707.27	313.96
707.61	312.87
707.94	311.84
708.27	310.76
708.61	309.67
708.94	308.68
709.28	307.73
709.61	306.79
709.94	305.85
710.28	304.79
710.61	303.78
710.95	302.67
711.28	301.74
711.61	300.82
711.95	299.89
712.28	298.96
712.61	297.91
712.95	296.97
713.28	296.05
713.61	295.16
713.95	294.29
714.28	293.45
714.61	292.58
714.95	291.68
715.28	290.79
715.61	289.89
715.95	289.02
716.28	288.11
716.61	287.25
716.95	286.41
717.28	285.67
717.61	284.91
717.94	284.16
718.28	283.35
718.61	282.60
718.94	281.91
719.27	281.19
719.61	280.56
719.94	279.87
720.27	279.16
720.60	278.52
720.94	277.82
721.27	277.20
721.60	276.61
721.93	276.05
722.27	275.53
722.60	274.99
722.93	274.41
723.26	273.87
723.59	273.28
723.93	272.72
724.26	272.18
724.59	271.57
724.92	271.03
725.25	270.50
725.59	269.98
725.92	269.44
726.25	268.97
726.58	268.48
726.91	267.99
727.24	267.52
727.57	267.02
727.91	266.55
728.24	266.08
728.57	265.60
728.90	265.13
729.23	264.65
729.56	264.25
729.89	263.80
730.22	263.27
730.55	262.79
730.89	262.38
731.22	261.97
731.55	261.56
731.88	261.16
732.21	260.73
732.54	260.30
732.87	259.90
733.20	259.49
733.53	259.11
733.86	258.74
734.19	258.35
734.52	257.95
734.85	257.62
735.18	257.19
735.51	256.84
735.84	256.47
736.17	256.08
736.50	255.63
736.83	255.36
737.16	255.08
737.49	254.77
737.82	254.42
738.15	254.04
738.48	253.76
738.81	253.43
739.14	253.10
739.47	252.82
739.80	252.49
740.13	252.18
740.46	251.84
740.79	251.52
741.12	251.23
741.45	250.94
741.78	250.60
742.11	250.38
742.44	250.03
742.77	249.72
743.10	249.43
743.43	249.15
743.75	248.79
744.08	248.65
744.41	248.37
744.74	248.08
745.07	247.81
745.40	247.55
745.73	247.31
746.06	247.06
746.39	246.75
746.71	246.48
747.04	246.21
747.37	245.93
747.70	245.71
748.03	245.47
748.36	245.26
748.68	245.00
749.01	244.71
749.34	244.49
749.67	244.30
750.00	244.08
750.33	243.92
750.65	243.69
750.98	243.32
751.31	243.12
751.64	242.92
751.97	242.78
752.29	242.54
752.62	242.30
752.95	242.09
753.28	241.90
753.60	241.70
753.93	241.53
754.26	241.36
754.59	241.14
754.91	240.91
755.24	240.66
755.57	240.54
755.90	240.37
756.22	240.15
756.55	239.90
756.88	239.71
757.20	239.47
757.53	239.30
757.86	239.12
758.19	238.94
758.51	238.74
758.84	238.50
759.17	238.30
759.49	238.15
759.82	238.04
760.15	237.88
760.47	237.75
760.80	237.58
761.13	237.45
761.45	237.27
761.78	237.12
762.11	237.02
762.43	236.81
762.76	236.68
763.08	236.55
763.41	236.43
763.74	236.28
764.06	236.10
764.39	235.94
764.71	235.84
765.04	235.71
765.37	235.55
765.69	235.43
766.02	235.30
766.34	235.14
766.67	234.99
767.00	234.88
767.32	234.82
767.65	234.74
767.97	234.60
768.30	234.50
768.62	234.42
768.95	234.23
769.27	234.13
769.60	233.98
769.92	233.87
770.25	233.76
770.57	233.66
770.90	233.61
771.22	233.52
771.55	233.38
771.87	233.29
772.20	233.19
772.52	233.19
772.85	233.20
773.17	233.13
773.50	233.03
773.82	232.94
774.15	232.78
774.47	232.64
774.80	232.59
775.12	232.50
775.45	232.42
775.77	232.38
776.09	232.33
776.42	232.27
776.74	232.26
777.07	232.19
777.39	232.11
777.72	232.02
778.04	231.95
778.36	231.90
778.69	231.83
779.01	231.81
779.33	231.67
779.66	231.52
779.98	231.44
780.31	231.39
780.63	231.36
780.95	231.30
781.28	231.27
781.60	231.16
781.92	231.08
782.25	231.01
782.57	230.95
782.89	230.88
783.22	230.83
783.54	230.75
783.86	230.70
784.19	230.67
784.51	230.63
784.83	230.56
785.16	230.51
785.48	230.48
785.80	230.42
786.12	230.36
786.45	230.31
786.77	230.28
787.09	230.22
