SpectraSuite Data File
++++++++++++++++++++++++++++++++++++
Date: Fri Feb 01 14:54:18 EST 2013
User: group
Dark Spectrum Present: No
Reference Spectrum Present: No
Number of Sampled Component Spectra: 1
Spectrometers: USB2E7196
Integration Time (usec): 35000 (USB2E7196)
Spectra Averaged: 100 (USB2E7196)
Boxcar Smoothing: 10 (USB2E7196)
Correct for Electrical Dark: No (USB2E7196)
Strobe/Lamp Enabled: No (USB2E7196)
Correct for Detector Non-linearity: No (USB2E7196)
Correct for Stray Light: No (USB2E7196)
Number of Pixels in Processed Spectrum: 2048
>>>>>Begin Processed Spectral Data<<<<<
339.09	0.00
339.48	215.24
339.86	217.54
340.24	218.53
340.63	220.35
341.01	222.45
341.39	222.10
341.78	223.62
342.16	225.22
342.54	225.23
342.93	213.84
343.31	224.66
343.69	225.22
344.07	225.65
344.46	226.08
344.84	226.44
345.22	226.69
345.60	226.94
345.99	227.12
346.37	227.22
346.75	227.32
347.13	227.39
347.52	227.43
347.90	227.51
348.28	227.51
348.66	227.57
349.05	227.57
349.43	227.59
349.81	227.67
350.19	227.70
350.57	227.74
350.96	227.82
351.34	227.88
351.72	227.97
352.10	228.04
352.48	228.09
352.87	228.12
353.25	228.19
353.63	228.26
354.01	228.34
354.39	228.45
354.77	228.56
355.15	228.64
355.54	228.70
355.92	228.73
356.30	228.81
356.68	228.93
357.06	229.01
357.44	229.07
357.82	229.12
358.20	229.19
358.58	229.25
358.97	229.30
359.35	229.38
359.73	229.43
360.11	229.49
360.49	229.55
360.87	229.58
361.25	229.60
361.63	229.67
362.01	229.71
362.39	229.73
362.77	229.73
363.15	229.74
363.53	229.75
363.91	229.77
364.29	229.79
364.67	229.73
365.05	229.72
365.43	229.71
365.81	229.72
366.19	229.74
366.57	229.74
366.95	229.73
367.33	229.69
367.71	229.66
368.09	229.69
368.47	229.65
368.85	229.64
369.23	229.66
369.61	229.57
369.99	229.55
370.37	229.50
370.75	229.55
371.13	229.50
371.51	229.44
371.89	229.40
372.27	229.31
372.65	229.26
373.03	229.20
373.41	229.11
373.78	229.03
374.16	228.93
374.54	228.84
374.92	228.75
375.30	228.68
375.68	228.58
376.06	228.50
376.44	228.43
376.82	228.35
377.19	228.26
377.57	228.19
377.95	228.08
378.33	228.02
378.71	227.85
379.09	227.79
379.47	227.72
379.84	227.61
380.22	227.54
380.60	227.42
380.98	227.34
381.36	227.29
381.73	227.21
382.11	227.13
382.49	227.11
382.87	227.02
383.25	226.97
383.62	227.04
384.00	226.93
384.38	226.84
384.76	226.81
385.13	226.77
385.51	226.74
385.89	226.69
386.27	226.62
386.64	226.60
387.02	226.57
387.40	226.52
387.78	226.51
388.15	226.53
388.53	226.50
388.91	226.51
389.29	226.48
389.66	226.48
390.04	226.46
390.42	226.45
390.79	226.47
391.17	226.45
391.55	226.33
391.92	226.37
392.30	226.40
392.68	226.39
393.05	226.40
393.43	226.39
393.81	226.40
394.18	226.42
394.56	226.40
394.94	226.43
395.31	226.46
395.69	226.53
396.06	226.55
396.44	226.60
396.82	226.64
397.19	226.76
397.57	226.81
397.95	226.87
398.32	226.90
398.70	226.97
399.07	227.05
399.45	227.14
399.82	227.23
400.20	227.28
400.58	227.37
400.95	227.45
401.33	227.57
401.70	227.76
402.08	227.86
402.45	227.97
402.83	228.11
403.20	228.29
403.58	228.38
403.95	228.56
404.33	228.69
404.71	228.84
405.08	228.98
405.46	229.11
405.83	229.26
406.21	229.45
406.58	229.62
406.96	229.77
407.33	229.95
407.70	230.12
408.08	230.43
408.45	230.65
408.83	230.90
409.20	231.10
409.58	231.25
409.95	231.52
410.33	231.80
410.70	232.04
411.08	232.32
411.45	232.65
411.82	232.92
412.20	233.31
412.57	233.71
412.95	234.05
413.32	234.46
413.69	234.91
414.07	235.32
414.44	235.81
414.82	236.30
415.19	236.82
415.56	237.36
415.94	237.87
416.31	238.53
416.68	239.15
417.06	239.84
417.43	240.53
417.81	241.28
418.18	242.05
418.55	242.87
418.93	243.71
419.30	244.58
419.67	245.50
420.04	246.41
420.42	247.42
420.79	248.58
421.16	249.71
421.54	250.89
421.91	252.07
422.28	253.28
422.66	254.59
423.03	255.90
423.40	257.25
423.77	258.66
424.15	260.07
424.52	261.54
424.89	263.16
425.26	264.72
425.64	266.17
426.01	267.75
426.38	269.41
426.75	271.10
427.13	272.81
427.50	274.63
427.87	276.52
428.24	278.36
428.61	280.07
428.99	282.03
429.36	284.12
429.73	286.21
430.10	288.25
430.47	290.36
430.85	292.46
431.22	294.69
431.59	297.07
431.96	299.31
432.33	301.84
432.70	304.22
433.08	307.04
433.45	309.71
433.82	312.33
434.19	315.26
434.56	318.08
434.93	320.75
435.30	323.40
435.68	326.34
436.05	329.13
436.42	331.96
436.79	334.50
437.16	337.22
437.53	340.05
437.90	342.86
438.27	345.60
438.64	348.47
439.01	351.11
439.38	353.37
439.75	355.55
440.13	358.05
440.50	360.41
440.87	362.28
441.24	364.25
441.61	366.46
441.98	367.97
442.35	369.77
442.72	371.65
443.09	373.46
443.46	374.47
443.83	375.12
444.20	375.64
444.57	376.48
444.94	376.79
445.31	377.18
445.68	377.57
446.05	377.68
446.42	377.29
446.79	376.87
447.16	376.41
447.53	376.09
447.90	374.92
448.27	373.78
448.64	372.19
449.01	371.04
449.37	369.09
449.74	367.13
450.11	364.86
450.48	362.41
450.85	359.88
451.22	357.74
451.59	355.71
451.96	353.77
452.33	351.20
452.70	348.80
453.07	345.95
453.43	343.05
453.80	340.25
454.17	337.58
454.54	334.99
454.91	332.28
455.28	329.59
455.65	327.06
456.02	324.57
456.38	322.41
456.75	319.73
457.12	317.43
457.49	315.22
457.86	313.08
458.23	311.16
458.59	309.12
458.96	306.98
459.33	305.09
459.70	303.21
460.07	301.68
460.43	299.98
460.80	298.34
461.17	296.87
461.54	295.36
461.91	293.90
462.27	292.47
462.64	291.22
463.01	289.85
463.38	288.57
463.74	287.18
464.11	285.99
464.48	284.96
464.85	283.82
465.21	282.95
465.58	281.95
465.95	280.85
466.32	279.92
466.68	279.00
467.05	278.07
467.42	277.17
467.78	276.20
468.15	275.29
468.52	274.62
468.88	273.75
469.25	272.95
469.62	272.31
469.98	271.58
470.35	270.94
470.72	270.31
471.08	269.62
471.45	269.07
471.82	268.53
472.18	267.91
472.55	267.48
472.92	266.91
473.28	266.42
473.65	265.98
474.02	265.51
474.38	265.13
474.75	264.84
475.11	264.49
475.48	264.20
475.85	263.96
476.21	263.70
476.58	263.48
476.94	263.30
477.31	263.10
477.67	262.95
478.04	262.83
478.41	262.78
478.77	262.79
479.14	262.74
479.50	262.72
479.87	262.79
480.23	262.87
480.60	262.98
480.96	263.10
481.33	263.28
481.69	263.47
482.06	263.66
482.42	263.82
482.79	264.05
483.15	264.36
483.52	264.70
483.88	265.04
484.25	265.46
484.61	265.89
484.98	266.36
485.34	266.92
485.71	267.47
486.07	268.10
486.44	268.67
486.80	269.35
487.17	270.08
487.53	270.87
487.90	271.73
488.26	272.64
488.62	273.61
488.99	274.60
489.35	275.66
489.72	276.79
490.08	278.00
490.44	279.26
490.81	280.62
491.17	281.97
491.54	283.41
491.90	284.93
492.26	286.56
492.63	288.29
492.99	290.07
493.36	291.95
493.72	293.97
494.08	296.08
494.45	298.30
494.81	300.64
495.17	303.08
495.54	305.62
495.90	308.32
496.26	311.08
496.63	314.00
496.99	317.05
497.35	320.28
497.72	323.66
498.08	327.13
498.44	330.77
498.80	334.68
499.17	338.71
499.53	342.83
499.89	347.21
500.26	351.67
500.62	356.29
500.98	361.22
501.34	366.27
501.71	371.55
502.07	376.97
502.43	382.50
502.79	388.28
503.16	394.26
503.52	400.51
503.88	406.95
504.24	413.57
504.60	420.45
504.97	427.54
505.33	434.81
505.69	442.51
506.05	450.25
506.41	458.08
506.78	466.22
507.14	474.67
507.50	483.28
507.86	492.28
508.22	501.38
508.59	510.56
508.95	520.07
509.31	529.79
509.67	539.89
510.03	550.21
510.39	560.80
510.75	571.59
511.12	582.47
511.48	593.69
511.84	605.10
512.20	616.68
512.56	628.61
512.92	640.77
513.28	653.07
513.64	665.52
514.00	678.24
514.37	691.11
514.73	704.18
515.09	717.31
515.45	730.54
515.81	744.30
516.17	758.27
516.53	772.39
516.89	786.62
517.25	800.83
517.61	815.28
517.97	829.69
518.33	844.14
518.69	858.84
519.05	873.87
519.41	889.13
519.77	904.69
520.13	920.18
520.49	935.57
520.85	951.08
521.21	966.81
521.57	983.04
521.93	998.89
522.29	1015.30
522.65	1031.67
523.01	1047.97
523.37	1064.06
523.73	1080.25
524.09	1096.31
524.45	1112.73
524.81	1129.43
525.17	1146.31
525.53	1163.24
525.89	1180.13
526.25	1197.16
526.61	1213.62
526.97	1230.44
527.33	1246.91
527.68	1263.51
528.04	1280.08
528.40	1296.71
528.76	1313.93
529.12	1330.74
529.48	1347.72
529.84	1363.76
530.20	1380.41
530.56	1397.58
530.91	1415.06
531.27	1432.02
531.63	1448.68
531.99	1465.33
532.35	1481.39
532.71	1497.32
533.07	1513.70
533.42	1529.79
533.78	1545.87
534.14	1562.24
534.50	1577.61
534.86	1593.61
535.21	1608.80
535.57	1624.92
535.93	1640.46
536.29	1655.31
536.65	1670.41
537.00	1685.38
537.36	1700.87
537.72	1715.36
538.08	1729.77
538.44	1743.61
538.79	1757.57
539.15	1771.38
539.51	1785.26
539.87	1799.65
540.22	1813.51
540.58	1827.27
540.94	1840.68
541.29	1853.82
541.65	1866.52
542.01	1879.82
542.37	1892.07
542.72	1904.74
543.08	1916.47
543.44	1928.99
543.79	1940.24
544.15	1951.16
544.51	1962.59
544.87	1973.64
545.22	1984.63
545.58	1994.83
545.94	2004.61
546.29	2014.51
546.65	2024.40
547.01	2033.57
547.36	2042.33
547.72	2050.90
548.07	2058.85
548.43	2067.07
548.79	2074.94
549.14	2082.60
549.50	2089.89
549.86	2097.74
550.21	2104.99
550.57	2112.44
550.92	2119.00
551.28	2125.94
551.64	2133.07
551.99	2139.66
552.35	2145.76
552.70	2151.68
553.06	2157.72
553.41	2164.10
553.77	2169.95
554.13	2175.94
554.48	2182.08
554.84	2187.29
555.19	2192.50
555.55	2197.56
555.90	2201.96
556.26	2206.74
556.61	2211.41
556.97	2215.63
557.32	2219.62
557.68	2223.75
558.03	2227.82
558.39	2231.52
558.74	2236.22
559.10	2240.09
559.45	2243.66
559.81	2247.79
560.16	2251.64
560.52	2254.71
560.87	2257.97
561.23	2260.73
561.58	2263.60
561.94	2265.99
562.29	2268.47
562.64	2271.03
563.00	2273.52
563.35	2276.88
563.71	2279.86
564.06	2282.89
564.42	2285.54
564.77	2287.83
565.12	2289.90
565.48	2291.51
565.83	2293.18
566.19	2294.20
566.54	2294.95
566.89	2295.95
567.25	2296.51
567.60	2297.67
567.96	2299.26
568.31	2299.76
568.66	2300.59
569.02	2300.95
569.37	2301.08
569.72	2301.77
570.08	2301.58
570.43	2301.34
570.78	2300.39
571.14	2298.72
571.49	2297.11
571.84	2296.75
572.20	2295.40
572.55	2294.08
572.90	2292.37
573.26	2290.66
573.61	2288.80
573.96	2286.78
574.31	2283.67
574.67	2280.35
575.02	2276.49
575.37	2272.93
575.72	2268.97
576.08	2265.47
576.43	2261.96
576.78	2258.21
577.13	2254.75
577.49	2251.63
577.84	2248.11
578.19	2244.22
578.54	2240.21
578.90	2235.70
579.25	2229.98
579.60	2224.95
579.95	2219.79
580.30	2214.58
580.66	2209.39
581.01	2204.30
581.36	2199.24
581.71	2194.92
582.06	2190.40
582.42	2185.81
582.77	2180.45
583.12	2175.79
583.47	2170.80
583.82	2165.59
584.17	2160.08
584.53	2154.50
584.88	2148.61
585.23	2142.60
585.58	2137.18
585.93	2131.71
586.28	2126.96
586.63	2121.70
586.98	2116.46
587.34	2111.71
587.69	2106.66
588.04	2101.14
588.39	2095.32
588.74	2088.75
589.09	2082.51
589.44	2075.41
589.79	2069.17
590.14	2063.34
590.49	2056.58
590.84	2050.16
591.19	2044.11
591.54	2037.52
591.89	2029.96
592.25	2023.06
592.60	2015.79
592.95	2007.98
593.30	2000.64
593.65	1992.92
594.00	1985.71
594.35	1978.47
594.70	1970.25
595.05	1962.95
595.40	1955.71
595.75	1948.14
596.10	1941.70
596.45	1934.61
596.80	1928.51
597.15	1921.90
597.50	1914.66
597.85	1908.29
598.19	1901.63
598.54	1894.42
598.89	1887.75
599.24	1881.84
599.59	1875.00
599.94	1868.73
600.29	1862.35
600.64	1855.65
600.99	1848.02
601.34	1841.16
601.69	1834.02
602.04	1827.10
602.39	1819.73
602.74	1812.75
603.08	1806.03
603.43	1799.25
603.78	1792.07
604.13	1784.81
604.48	1777.51
604.83	1770.82
605.18	1763.71
605.53	1755.54
605.87	1747.47
606.22	1740.26
606.57	1732.30
606.92	1725.17
607.27	1717.94
607.62	1711.01
607.96	1703.78
608.31	1697.28
608.66	1689.73
609.01	1682.23
609.36	1674.84
609.70	1666.87
610.05	1658.91
610.40	1651.29
610.75	1643.12
611.10	1635.54
611.44	1627.24
611.79	1619.36
612.14	1610.52
612.49	1601.56
612.83	1593.35
613.18	1585.33
613.53	1577.31
613.88	1568.83
614.22	1560.55
614.57	1552.08
614.92	1544.25
615.27	1536.73
615.61	1528.49
615.96	1520.53
616.31	1512.93
616.65	1505.59
617.00	1498.14
617.35	1490.53
617.70	1482.17
618.04	1473.66
618.39	1465.40
618.74	1457.76
619.08	1449.47
619.43	1442.07
619.78	1435.18
620.12	1428.02
620.47	1420.50
620.82	1412.39
621.16	1405.05
621.51	1397.41
621.85	1389.92
622.20	1381.40
622.55	1373.08
622.89	1365.41
623.24	1357.88
623.59	1350.68
623.93	1343.05
624.28	1335.96
624.62	1328.48
624.97	1321.34
625.32	1314.68
625.66	1307.76
626.01	1300.52
626.35	1293.11
626.70	1285.46
627.04	1277.75
627.39	1270.10
627.73	1262.88
628.08	1255.95
628.43	1248.67
628.77	1241.48
629.12	1233.80
629.46	1226.69
629.81	1219.42
630.15	1212.15
630.50	1204.91
630.84	1196.70
631.19	1188.95
631.53	1181.43
631.88	1173.97
632.22	1166.48
632.57	1159.25
632.91	1151.74
633.26	1144.59
633.60	1137.41
633.95	1130.45
634.29	1123.44
634.64	1116.77
634.98	1109.46
635.32	1102.42
635.67	1095.89
636.01	1089.28
636.36	1082.57
636.70	1076.14
637.05	1069.60
637.39	1063.34
637.73	1056.81
638.08	1051.05
638.42	1045.10
638.77	1038.69
639.11	1032.15
639.45	1025.88
639.80	1019.25
640.14	1012.92
640.49	1006.46
640.83	1000.09
641.17	993.83
641.52	987.67
641.86	981.47
642.20	975.68
642.55	969.45
642.89	963.04
643.23	956.66
643.58	950.93
643.92	944.71
644.26	938.62
644.61	932.64
644.95	926.53
645.29	919.96
645.64	913.22
645.98	907.00
646.32	901.30
646.66	895.29
647.01	889.49
647.35	883.77
647.69	877.94
648.04	872.47
648.38	866.72
648.72	860.64
649.06	854.50
649.41	848.61
649.75	842.62
650.09	836.65
650.43	830.78
650.78	824.67
651.12	818.78
651.46	813.17
651.80	807.34
652.14	802.07
652.49	796.74
652.83	791.65
653.17	785.96
653.51	780.19
653.85	774.78
654.20	769.15
654.54	763.23
654.88	757.56
655.22	751.65
655.56	745.94
655.90	740.59
656.25	735.38
656.59	730.01
656.93	724.99
657.27	719.92
657.61	714.56
657.95	709.51
658.29	704.51
658.64	699.25
658.98	694.00
659.32	688.62
659.66	683.46
660.00	678.19
660.34	673.27
660.68	668.41
661.02	663.41
661.36	658.83
661.70	654.46
662.05	650.10
662.39	645.85
662.73	641.49
663.07	637.12
663.41	632.71
663.75	628.31
664.09	623.82
664.43	619.51
664.77	615.46
665.11	611.32
665.45	607.19
665.79	603.14
666.13	599.03
666.47	594.94
666.81	590.84
667.15	586.79
667.49	582.96
667.83	579.18
668.17	575.36
668.51	571.32
668.85	567.26
669.19	563.48
669.53	559.67
669.87	555.85
670.21	552.23
670.55	548.68
670.89	545.29
671.23	541.90
671.57	538.40
671.91	534.93
672.25	531.47
672.58	528.04
672.92	524.73
673.26	521.67
673.60	518.60
673.94	515.52
674.28	512.59
674.62	509.66
674.96	506.61
675.30	503.75
675.64	500.86
675.97	498.16
676.31	495.32
676.65	492.46
676.99	489.76
677.33	486.88
677.67	484.04
678.01	481.02
678.34	478.09
678.68	475.28
679.02	472.44
679.36	469.73
679.70	467.04
680.04	464.28
680.37	461.43
680.71	458.68
681.05	456.13
681.39	453.49
681.73	450.88
682.06	448.38
682.40	445.79
682.74	443.29
683.08	440.78
683.42	438.22
683.75	435.77
684.09	433.26
684.43	430.86
684.77	428.43
685.10	426.13
685.44	423.84
685.78	421.58
686.12	419.35
686.45	417.04
686.79	414.78
687.13	412.66
687.46	410.47
687.80	408.28
688.14	406.09
688.48	404.03
688.81	401.81
689.15	399.67
689.49	397.58
689.82	395.50
690.16	393.38
690.50	391.46
690.83	389.49
691.17	387.56
691.51	385.68
691.84	383.83
692.18	381.91
692.52	379.94
692.85	378.01
693.19	376.15
693.52	374.36
693.86	372.53
694.20	370.72
694.53	368.93
694.87	367.11
695.21	365.32
695.54	363.48
695.88	361.77
696.21	360.08
696.55	358.41
696.88	356.71
697.22	355.10
697.56	353.49
697.89	351.86
698.23	350.24
698.56	348.63
698.90	347.02
699.23	345.36
699.57	343.81
699.90	342.27
700.24	340.73
700.58	339.18
700.91	337.70
701.25	336.24
701.58	334.89
701.92	333.55
702.25	332.18
702.59	330.84
702.92	329.53
703.26	328.22
703.59	326.94
703.93	325.81
704.26	324.59
704.60	323.31
704.93	322.04
705.26	320.80
705.60	319.66
705.93	318.56
706.27	317.55
706.60	316.52
706.94	315.47
707.27	314.36
707.61	313.34
707.94	312.37
708.27	311.34
708.61	310.27
708.94	309.28
709.28	308.30
709.61	307.37
709.94	306.42
710.28	305.41
710.61	304.46
710.95	303.38
711.28	302.44
711.61	301.48
711.95	300.59
712.28	299.67
712.61	298.67
712.95	297.74
713.28	296.86
713.61	295.98
713.95	295.11
714.28	294.33
714.61	293.44
714.95	292.63
715.28	291.79
715.61	290.96
715.95	290.12
716.28	289.33
716.61	288.53
716.95	287.73
717.28	287.01
717.61	286.27
717.94	285.55
718.28	284.78
718.61	284.10
718.94	283.43
719.27	282.82
719.61	282.26
719.94	281.62
720.27	280.94
720.60	280.30
720.94	279.69
721.27	279.10
721.60	278.57
721.93	277.93
722.27	277.38
722.60	276.82
722.93	276.25
723.26	275.72
723.59	275.17
723.93	274.63
724.26	274.13
724.59	273.59
724.92	273.06
725.25	272.57
725.59	272.04
725.92	271.56
726.25	271.00
726.58	270.50
726.91	270.01
727.24	269.55
727.57	269.09
727.91	268.58
728.24	268.09
728.57	267.60
728.90	267.16
729.23	266.64
729.56	266.21
729.89	265.77
730.22	265.25
730.55	264.78
730.89	264.30
731.22	263.82
731.55	263.39
731.88	262.97
732.21	262.54
732.54	262.11
732.87	261.65
733.20	261.24
733.53	260.81
733.86	260.47
734.19	260.08
734.52	259.69
734.85	259.36
735.18	258.96
735.51	258.56
735.84	258.18
736.17	257.85
736.50	257.42
736.83	257.15
737.16	256.86
737.49	256.49
737.82	256.19
738.15	255.86
738.48	255.48
738.81	255.14
739.14	254.84
739.47	254.50
739.80	254.18
740.13	253.90
740.46	253.58
740.79	253.20
741.12	252.87
741.45	252.53
741.78	252.20
742.11	251.91
742.44	251.58
742.77	251.29
743.10	250.99
743.43	250.74
743.75	250.38
744.08	250.19
744.41	249.92
744.74	249.64
745.07	249.33
745.40	249.12
745.73	248.91
746.06	248.61
746.39	248.37
746.71	248.11
747.04	247.82
747.37	247.61
747.70	247.35
748.03	247.13
748.36	246.89
748.68	246.67
749.01	246.40
749.34	246.18
749.67	245.98
750.00	245.75
750.33	245.59
750.65	245.34
750.98	245.01
751.31	244.79
751.64	244.57
751.97	244.43
752.29	244.23
752.62	244.01
752.95	243.85
753.28	243.63
753.60	243.46
753.93	243.33
754.26	243.10
754.59	242.94
754.91	242.72
755.24	242.58
755.57	242.39
755.90	242.24
756.22	242.07
756.55	241.90
756.88	241.75
757.20	241.52
757.53	241.37
757.86	241.25
758.19	241.13
758.51	241.01
758.84	240.82
759.17	240.66
759.49	240.52
759.82	240.38
760.15	240.26
760.47	240.11
760.80	239.93
761.13	239.83
761.45	239.69
761.78	239.59
762.11	239.47
762.43	239.33
762.76	239.21
763.08	239.14
763.41	238.99
763.74	238.85
764.06	238.73
764.39	238.61
764.71	238.44
765.04	238.30
765.37	238.15
765.69	238.03
766.02	237.89
766.34	237.73
766.67	237.58
767.00	237.47
767.32	237.40
767.65	237.34
767.97	237.19
768.30	237.07
768.62	236.94
768.95	236.76
769.27	236.66
769.60	236.53
769.92	236.37
770.25	236.22
770.57	236.09
770.90	235.99
771.22	235.87
771.55	235.77
771.87	235.67
772.20	235.55
772.52	235.53
772.85	235.52
773.17	235.44
773.50	235.37
773.82	235.23
774.15	235.08
774.47	234.96
774.80	234.87
775.12	234.77
775.45	234.67
775.77	234.64
776.09	234.52
776.42	234.43
776.74	234.37
777.07	234.30
777.39	234.22
777.72	234.11
778.04	234.05
778.36	233.95
778.69	233.86
779.01	233.78
779.33	233.63
779.66	233.42
779.98	233.34
780.31	233.25
780.63	233.23
780.95	233.16
781.28	233.07
781.60	232.97
781.92	232.93
782.25	232.87
782.57	232.77
782.89	232.70
783.22	232.63
783.54	232.52
783.86	232.48
784.19	232.43
784.51	232.41
784.83	232.32
785.16	232.26
785.48	232.24
785.80	232.19
786.12	232.15
786.45	232.10
786.77	232.07
787.09	231.98
