SpectraSuite Data File
++++++++++++++++++++++++++++++++++++
Date: Fri Feb 01 17:43:21 EST 2013
User: group
Dark Spectrum Present: No
Reference Spectrum Present: No
Number of Sampled Component Spectra: 1
Spectrometers: USB2E7196
Integration Time (usec): 35000 (USB2E7196)
Spectra Averaged: 100 (USB2E7196)
Boxcar Smoothing: 10 (USB2E7196)
Correct for Electrical Dark: No (USB2E7196)
Strobe/Lamp Enabled: No (USB2E7196)
Correct for Detector Non-linearity: No (USB2E7196)
Correct for Stray Light: No (USB2E7196)
Number of Pixels in Processed Spectrum: 2048
>>>>>Begin Processed Spectral Data<<<<<
339.09	0.00
339.48	212.41
339.86	214.14
340.24	215.92
340.63	217.11
341.01	219.34
341.39	219.79
341.78	220.56
342.16	222.38
342.54	222.32
342.93	211.09
343.31	221.77
343.69	222.31
344.07	222.77
344.46	223.18
344.84	223.56
345.22	223.81
345.60	224.07
345.99	224.26
346.37	224.40
346.75	224.52
347.13	224.64
347.52	224.69
347.90	224.79
348.28	224.82
348.66	224.85
349.05	224.87
349.43	224.94
349.81	224.97
350.19	225.00
350.57	225.06
350.96	225.14
351.34	225.23
351.72	225.33
352.10	225.44
352.48	225.52
352.87	225.55
353.25	225.62
353.63	225.65
354.01	225.73
354.39	225.80
354.77	225.87
355.15	225.98
355.54	226.03
355.92	226.05
356.30	226.12
356.68	226.27
357.06	226.34
357.44	226.36
357.82	226.44
358.20	226.49
358.58	226.57
358.97	226.63
359.35	226.69
359.73	226.77
360.11	226.80
360.49	226.83
360.87	226.89
361.25	226.94
361.63	227.02
362.01	227.05
362.39	227.07
362.77	227.11
363.15	227.11
363.53	227.14
363.91	227.15
364.29	227.13
364.67	227.04
365.05	227.09
365.43	227.08
365.81	227.05
366.19	227.10
366.57	227.09
366.95	227.09
367.33	227.05
367.71	227.00
368.09	227.02
368.47	227.00
368.85	226.96
369.23	226.97
369.61	226.90
369.99	226.93
370.37	226.92
370.75	226.93
371.13	226.86
371.51	226.82
371.89	226.80
372.27	226.82
372.65	226.79
373.03	226.70
373.41	226.67
373.78	226.63
374.16	226.51
374.54	226.44
374.92	226.37
375.30	226.33
375.68	226.28
376.06	226.22
376.44	226.16
376.82	226.14
377.19	226.05
377.57	225.97
377.95	225.86
378.33	225.77
378.71	225.64
379.09	225.62
379.47	225.56
379.84	225.49
380.22	225.41
380.60	225.32
380.98	225.27
381.36	225.22
381.73	225.17
382.11	225.18
382.49	225.14
382.87	225.08
383.25	225.00
383.62	225.09
384.00	225.01
384.38	224.96
384.76	224.92
385.13	224.93
385.51	224.90
385.89	224.86
386.27	224.82
386.64	224.79
387.02	224.73
387.40	224.70
387.78	224.66
388.15	224.65
388.53	224.65
388.91	224.62
389.29	224.58
389.66	224.55
390.04	224.48
390.42	224.49
390.79	224.47
391.17	224.48
391.55	224.36
391.92	224.39
392.30	224.40
392.68	224.35
393.05	224.33
393.43	224.35
393.81	224.33
394.18	224.34
394.56	224.37
394.94	224.41
395.31	224.41
395.69	224.48
396.06	224.50
396.44	224.51
396.82	224.51
397.19	224.61
397.57	224.68
397.95	224.75
398.32	224.72
398.70	224.78
399.07	224.82
399.45	224.87
399.82	224.91
400.20	224.99
400.58	225.05
400.95	225.08
401.33	225.19
401.70	225.38
402.08	225.43
402.45	225.49
402.83	225.60
403.20	225.75
403.58	225.82
403.95	225.95
404.33	226.10
404.71	226.27
405.08	226.46
405.46	226.57
405.83	226.70
406.21	226.88
406.58	227.04
406.96	227.26
407.33	227.41
407.70	227.62
408.08	227.92
408.45	228.22
408.83	228.46
409.20	228.68
409.58	228.90
409.95	229.22
410.33	229.53
410.70	229.84
411.08	230.17
411.45	230.55
411.82	230.89
412.20	231.31
412.57	231.79
412.95	232.15
413.32	232.64
413.69	233.17
414.07	233.70
414.44	234.26
414.82	234.81
415.19	235.48
415.56	236.17
415.94	236.82
416.31	237.56
416.68	238.34
417.06	239.19
417.43	239.97
417.81	240.93
418.18	241.89
418.55	242.87
418.93	243.95
419.30	245.05
419.67	246.19
420.04	247.34
420.42	248.51
420.79	249.91
421.16	251.31
421.54	252.71
421.91	254.18
422.28	255.70
422.66	257.33
423.03	258.92
423.40	260.52
423.77	262.20
424.15	263.91
424.52	265.71
424.89	267.67
425.26	269.58
425.64	271.30
426.01	273.20
426.38	275.21
426.75	277.20
427.13	279.25
427.50	281.43
427.87	283.67
428.24	285.90
428.61	288.03
428.99	290.35
429.36	292.89
429.73	295.42
430.10	297.90
430.47	300.38
430.85	302.93
431.22	305.62
431.59	308.48
431.96	311.20
432.33	314.20
432.70	317.05
433.08	320.41
433.45	323.61
433.82	326.75
434.19	330.23
434.56	333.64
434.93	336.84
435.30	340.03
435.68	343.53
436.05	347.01
436.42	350.36
436.79	353.39
437.16	356.66
437.53	360.06
437.90	363.47
438.27	366.74
438.64	370.14
439.01	373.25
439.38	375.97
439.75	378.57
440.13	381.60
440.50	384.46
440.87	386.72
441.24	389.10
441.61	391.77
441.98	393.58
442.35	395.74
442.72	397.96
443.09	400.16
443.46	401.35
443.83	402.01
444.20	402.66
444.57	403.71
444.94	404.05
445.31	404.46
445.68	404.82
446.05	404.98
446.42	404.57
446.79	404.11
447.16	403.59
447.53	403.27
447.90	401.87
448.27	400.48
448.64	398.57
449.01	397.20
449.37	394.75
449.74	392.47
450.11	389.76
450.48	386.79
450.85	383.71
451.22	381.15
451.59	378.78
451.96	376.45
452.33	373.28
452.70	370.47
453.07	367.06
453.43	363.58
453.80	360.24
454.17	356.97
454.54	353.87
454.91	350.59
455.28	347.35
455.65	344.31
456.02	341.32
456.38	338.70
456.75	335.43
457.12	332.75
457.49	330.08
457.86	327.50
458.23	325.23
458.59	322.76
458.96	320.23
459.33	317.94
459.70	315.62
460.07	313.82
460.43	311.72
460.80	309.75
461.17	308.01
461.54	306.13
461.91	304.41
462.27	302.66
462.64	301.10
463.01	299.43
463.38	297.85
463.74	296.21
464.11	294.84
464.48	293.63
464.85	292.24
465.21	291.15
465.58	289.96
465.95	288.68
466.32	287.59
466.68	286.48
467.05	285.38
467.42	284.34
467.78	283.20
468.15	282.12
468.52	281.31
468.88	280.25
469.25	279.35
469.62	278.58
469.98	277.75
470.35	277.01
470.72	276.28
471.08	275.49
471.45	274.80
471.82	274.07
472.18	273.34
472.55	272.85
472.92	272.20
473.28	271.67
473.65	271.12
474.02	270.56
474.38	270.09
474.75	269.69
475.11	269.24
475.48	268.87
475.85	268.58
476.21	268.24
476.58	268.01
476.94	267.78
477.31	267.53
477.67	267.32
478.04	267.10
478.41	267.00
478.77	266.98
479.14	266.90
479.50	266.91
479.87	266.92
480.23	266.96
480.60	266.98
480.96	267.03
481.33	267.19
481.69	267.38
482.06	267.56
482.42	267.73
482.79	267.99
483.15	268.32
483.52	268.71
483.88	269.05
484.25	269.42
484.61	269.85
484.98	270.33
485.34	270.92
485.71	271.52
486.07	272.12
486.44	272.74
486.80	273.44
487.17	274.14
487.53	274.99
487.90	275.84
488.26	276.80
488.62	277.79
488.99	278.80
489.35	279.83
489.72	280.98
490.08	282.17
490.44	283.45
490.81	284.78
491.17	286.13
491.54	287.65
491.90	289.20
492.26	290.88
492.63	292.66
492.99	294.50
493.36	296.45
493.72	298.53
494.08	300.66
494.45	302.97
494.81	305.41
495.17	307.85
495.54	310.49
495.90	313.18
496.26	316.04
496.63	319.04
496.99	322.24
497.35	325.58
497.72	329.10
498.08	332.74
498.44	336.50
498.80	340.53
499.17	344.67
499.53	348.99
499.89	353.45
500.26	358.07
500.62	362.85
500.98	367.94
501.34	373.13
501.71	378.62
502.07	384.21
502.43	389.94
502.79	395.95
503.16	402.15
503.52	408.67
503.88	415.26
504.24	422.08
504.60	429.14
504.97	436.47
505.33	443.91
505.69	451.79
506.05	459.88
506.41	467.95
506.78	476.29
507.14	484.97
507.50	493.94
507.86	503.20
508.22	512.67
508.59	522.11
508.95	531.95
509.31	542.00
509.67	552.40
510.03	563.00
510.39	573.88
510.75	584.96
511.12	596.16
511.48	607.70
511.84	619.48
512.20	631.30
512.56	643.59
512.92	656.17
513.28	668.90
513.64	681.72
514.00	694.85
514.37	708.21
514.73	721.65
515.09	735.07
515.45	748.75
515.81	762.70
516.17	777.08
516.53	791.65
516.89	806.25
517.25	820.86
517.61	835.71
517.97	850.58
518.33	865.52
518.69	880.78
519.05	896.41
519.41	912.11
519.77	928.21
520.13	944.23
520.49	960.25
520.85	976.13
521.21	992.29
521.57	1009.08
521.93	1025.48
522.29	1042.37
522.65	1059.28
523.01	1076.24
523.37	1093.09
523.73	1110.01
524.09	1126.80
524.45	1143.78
524.81	1161.14
525.17	1178.65
525.53	1196.26
525.89	1213.87
526.25	1231.60
526.61	1248.69
526.97	1266.27
527.33	1283.50
527.68	1300.88
528.04	1318.11
528.40	1335.47
528.76	1353.50
529.12	1370.90
529.48	1388.76
529.84	1405.75
530.20	1423.38
530.56	1441.02
530.91	1459.24
531.27	1477.06
531.63	1494.41
531.99	1511.96
532.35	1528.99
532.71	1545.92
533.07	1563.26
533.42	1580.27
533.78	1597.25
534.14	1614.53
534.50	1630.75
534.86	1647.72
535.21	1664.00
535.57	1680.99
535.93	1697.57
536.29	1713.32
536.65	1729.56
537.00	1745.18
537.36	1761.73
537.72	1777.04
538.08	1792.77
538.44	1807.60
538.79	1822.44
539.15	1837.21
539.51	1852.09
539.87	1867.49
540.22	1882.36
540.58	1897.07
540.94	1911.30
541.29	1925.17
541.65	1938.96
542.01	1953.40
542.37	1966.95
542.72	1980.45
543.08	1993.51
543.44	2007.11
543.79	2019.68
544.15	2031.86
544.51	2044.78
544.87	2056.86
545.22	2069.17
545.58	2080.64
545.94	2091.66
546.29	2102.81
546.65	2113.93
547.01	2124.53
547.36	2134.38
547.72	2144.09
548.07	2153.37
548.43	2162.96
548.79	2172.14
549.14	2181.04
549.50	2189.49
549.86	2198.25
550.21	2206.80
550.57	2215.12
550.92	2222.96
551.28	2231.26
551.64	2239.53
551.99	2247.18
552.35	2254.63
552.70	2261.72
553.06	2268.88
553.41	2276.32
553.77	2283.34
554.13	2290.55
554.48	2297.75
554.84	2304.55
555.19	2310.81
555.55	2317.08
555.90	2322.58
556.26	2328.91
556.61	2334.71
556.97	2340.39
557.32	2345.66
557.68	2350.90
558.03	2356.23
558.39	2360.89
558.74	2366.50
559.10	2371.34
559.45	2375.97
559.81	2381.10
560.16	2385.93
560.52	2390.09
560.87	2394.54
561.23	2398.09
561.58	2401.79
561.94	2405.32
562.29	2408.39
562.64	2412.30
563.00	2415.82
563.35	2420.30
563.71	2424.15
564.06	2428.17
564.42	2431.87
564.77	2435.44
565.12	2438.79
565.48	2441.72
565.83	2444.48
566.19	2446.73
566.54	2448.27
566.89	2450.39
567.25	2451.76
567.60	2453.88
567.96	2456.50
568.31	2458.02
568.66	2460.10
569.02	2461.55
569.37	2462.51
569.72	2464.22
570.08	2464.85
570.43	2465.34
570.78	2465.33
571.14	2464.37
571.49	2463.47
571.84	2463.63
572.20	2462.86
572.55	2462.06
572.90	2460.81
573.26	2460.01
573.61	2458.41
573.96	2457.39
574.31	2454.56
574.67	2451.92
575.02	2448.66
575.37	2445.20
575.72	2441.72
576.08	2438.44
576.43	2435.23
576.78	2431.94
577.13	2428.74
577.49	2425.63
577.84	2422.46
578.19	2418.87
578.54	2415.44
578.90	2411.55
579.25	2405.90
579.60	2401.11
579.95	2396.26
580.30	2391.21
580.66	2385.99
581.01	2381.12
581.36	2376.07
581.71	2372.10
582.06	2367.77
582.42	2363.37
582.77	2358.26
583.12	2353.77
583.47	2349.26
583.82	2344.44
584.17	2338.98
584.53	2333.44
584.88	2327.78
585.23	2321.97
585.58	2316.22
585.93	2310.62
586.28	2305.31
586.63	2300.23
586.98	2294.91
587.34	2290.04
587.69	2284.87
588.04	2279.62
588.39	2273.78
588.74	2266.95
589.09	2260.52
589.44	2253.49
589.79	2246.94
590.14	2240.97
590.49	2233.84
590.84	2226.89
591.19	2220.29
591.54	2213.52
591.89	2206.00
592.25	2198.95
592.60	2191.27
592.95	2183.42
593.30	2175.48
593.65	2167.56
594.00	2160.12
594.35	2152.37
594.70	2143.52
595.05	2136.12
595.40	2128.15
595.75	2120.13
596.10	2113.65
596.45	2106.48
596.80	2099.68
597.15	2092.69
597.50	2085.38
597.85	2078.58
598.19	2071.59
598.54	2064.46
598.89	2057.30
599.24	2050.92
599.59	2043.92
599.94	2037.08
600.29	2030.25
600.64	2023.16
600.99	2015.36
601.34	2007.94
601.69	2000.26
602.04	1993.02
602.39	1984.90
602.74	1977.57
603.08	1970.27
603.43	1962.84
603.78	1954.88
604.13	1947.18
604.48	1939.47
604.83	1931.95
605.18	1924.57
605.53	1915.94
605.87	1907.05
606.22	1899.15
606.57	1890.35
606.92	1882.06
607.27	1874.50
607.62	1866.97
607.96	1859.27
608.31	1852.10
608.66	1843.88
609.01	1835.86
609.36	1827.77
609.70	1819.19
610.05	1810.46
610.40	1802.23
610.75	1793.19
611.10	1784.86
611.44	1775.63
611.79	1766.73
612.14	1757.12
612.49	1746.97
612.83	1737.77
613.18	1728.72
613.53	1719.85
613.88	1710.57
614.22	1701.52
614.57	1691.87
614.92	1683.10
615.27	1674.96
615.61	1665.83
615.96	1656.92
616.31	1648.41
616.65	1640.22
617.00	1631.83
617.35	1623.24
617.70	1614.09
618.04	1604.67
618.39	1595.47
618.74	1587.14
619.08	1577.96
619.43	1569.61
619.78	1561.87
620.12	1553.99
620.47	1545.72
620.82	1536.53
621.16	1528.21
621.51	1519.79
621.85	1511.36
622.20	1501.89
622.55	1492.42
622.89	1483.78
623.24	1475.27
623.59	1466.95
623.93	1458.53
624.28	1450.48
624.62	1442.25
624.97	1434.24
625.32	1426.76
625.66	1419.01
626.01	1411.08
626.35	1402.95
626.70	1394.43
627.04	1386.04
627.39	1377.35
627.73	1369.11
628.08	1361.58
628.43	1353.60
628.77	1345.68
629.12	1337.47
629.46	1329.53
629.81	1321.15
630.15	1313.04
630.50	1304.96
630.84	1296.07
631.19	1287.36
631.53	1279.03
631.88	1270.58
632.22	1262.12
632.57	1254.07
632.91	1245.72
633.26	1237.52
633.60	1229.36
633.95	1221.38
634.29	1213.44
634.64	1205.98
634.98	1198.07
635.32	1190.13
635.67	1182.78
636.01	1175.33
636.36	1167.84
636.70	1160.66
637.05	1153.54
637.39	1146.43
637.73	1139.28
638.08	1132.70
638.42	1126.10
638.77	1119.06
639.11	1111.96
639.45	1104.99
639.80	1097.74
640.14	1090.64
640.49	1083.45
640.83	1076.52
641.17	1069.75
641.52	1062.94
641.86	1055.91
642.20	1049.44
642.55	1042.44
642.89	1035.49
643.23	1028.22
643.58	1021.82
643.92	1015.11
644.26	1008.53
644.61	1001.90
644.95	995.44
645.29	988.31
645.64	980.93
645.98	973.99
646.32	967.39
646.66	960.78
647.01	954.41
647.35	948.35
647.69	941.97
648.04	935.99
648.38	929.74
648.72	923.21
649.06	916.70
649.41	910.20
649.75	903.80
650.09	897.31
650.43	891.02
650.78	884.32
651.12	877.80
651.46	871.55
651.80	865.37
652.14	859.41
652.49	853.71
652.83	848.14
653.17	842.00
653.51	835.92
653.85	829.93
654.20	823.80
654.54	817.22
654.88	810.96
655.22	804.50
655.56	798.29
655.90	792.31
656.25	786.55
656.59	780.74
656.93	775.24
657.27	769.62
657.61	763.75
657.95	758.22
658.29	752.70
658.64	746.88
658.98	741.08
659.32	735.05
659.66	729.23
660.00	723.47
660.34	718.12
660.68	712.73
661.02	707.33
661.36	702.23
661.70	697.33
662.05	692.62
662.39	687.91
662.73	682.99
663.07	678.22
663.41	673.42
663.75	668.62
664.09	663.61
664.43	658.79
664.77	654.39
665.11	649.84
665.45	645.31
665.79	640.99
666.13	636.52
666.47	632.14
666.81	627.67
667.15	623.13
667.49	618.88
667.83	614.66
668.17	610.40
668.51	606.00
668.85	601.60
669.19	597.36
669.53	593.22
669.87	589.08
670.21	585.10
670.55	581.08
670.89	577.30
671.23	573.64
671.57	569.71
671.91	565.90
672.25	562.03
672.58	558.21
672.92	554.48
673.26	550.97
673.60	547.49
673.94	544.12
674.28	540.93
674.62	537.73
674.96	534.43
675.30	531.22
675.64	528.03
675.97	525.02
676.31	521.88
676.65	518.74
676.99	515.73
677.33	512.59
677.67	509.50
678.01	506.23
678.34	502.94
678.68	499.88
679.02	496.74
679.36	493.71
679.70	490.71
680.04	487.72
680.37	484.58
680.71	481.54
681.05	478.65
681.39	475.70
681.73	472.68
682.06	469.92
682.40	467.21
682.74	464.41
683.08	461.54
683.42	458.72
683.75	455.93
684.09	453.13
684.43	450.40
684.77	447.72
685.10	445.05
685.44	442.48
685.78	439.99
686.12	437.46
686.45	434.95
686.79	432.45
687.13	429.99
687.46	427.63
687.80	425.20
688.14	422.76
688.48	420.53
688.81	418.15
689.15	415.76
689.49	413.32
689.82	411.04
690.16	408.72
690.50	406.54
690.83	404.42
691.17	402.23
691.51	400.10
691.84	398.09
692.18	396.06
692.52	393.98
692.85	391.80
693.19	389.76
693.52	387.73
693.86	385.73
694.20	383.82
694.53	381.88
694.87	379.88
695.21	377.95
695.54	375.92
695.88	374.00
696.21	372.06
696.55	370.21
696.88	368.35
697.22	366.60
697.56	364.80
697.89	363.02
698.23	361.27
698.56	359.53
698.90	357.82
699.23	356.02
699.57	354.31
699.90	352.65
700.24	350.94
700.58	349.29
700.91	347.66
701.25	346.04
701.58	344.53
701.92	343.03
702.25	341.51
702.59	340.03
702.92	338.56
703.26	337.19
703.59	335.83
703.93	334.50
704.26	333.11
704.60	331.73
704.93	330.32
705.26	328.98
705.60	327.66
705.93	326.34
706.27	325.14
706.60	323.91
706.94	322.72
707.27	321.52
707.61	320.34
707.94	319.22
708.27	318.09
708.61	316.92
708.94	315.84
709.28	314.74
709.61	313.65
709.94	312.64
710.28	311.52
710.61	310.44
710.95	309.29
711.28	308.24
711.61	307.24
711.95	306.23
712.28	305.17
712.61	304.13
712.95	303.09
713.28	302.14
713.61	301.16
713.95	300.23
714.28	299.29
714.61	298.34
714.95	297.40
715.28	296.40
715.61	295.40
715.95	294.42
716.28	293.50
716.61	292.60
716.95	291.70
717.28	290.86
717.61	290.00
717.94	289.21
718.28	288.36
718.61	287.51
718.94	286.74
719.27	286.00
719.61	285.27
719.94	284.53
720.27	283.75
720.60	283.04
720.94	282.32
721.27	281.72
721.60	281.10
721.93	280.45
722.27	279.85
722.60	279.27
722.93	278.65
723.26	278.04
723.59	277.45
723.93	276.81
724.26	276.19
724.59	275.58
724.92	274.97
725.25	274.42
725.59	273.85
725.92	273.30
726.25	272.73
726.58	272.15
726.91	271.66
727.24	271.15
727.57	270.62
727.91	270.05
728.24	269.47
728.57	268.92
728.90	268.39
729.23	267.85
729.56	267.37
729.89	266.84
730.22	266.32
730.55	265.79
730.89	265.34
731.22	264.82
731.55	264.35
731.88	263.89
732.21	263.41
732.54	262.97
732.87	262.46
733.20	262.00
733.53	261.57
733.86	261.16
734.19	260.69
734.52	260.30
734.85	259.95
735.18	259.52
735.51	259.17
735.84	258.78
736.17	258.37
736.50	257.91
736.83	257.67
737.16	257.29
737.49	256.95
737.82	256.53
738.15	256.19
738.48	255.84
738.81	255.46
739.14	255.10
739.47	254.74
739.80	254.44
740.13	254.13
740.46	253.81
740.79	253.46
741.12	253.13
741.45	252.78
741.78	252.40
742.11	252.08
742.44	251.68
742.77	251.37
743.10	251.09
743.43	250.79
743.75	250.38
744.08	250.24
744.41	249.89
744.74	249.63
745.07	249.32
745.40	249.06
745.73	248.85
746.06	248.56
746.39	248.28
746.71	248.01
747.04	247.70
747.37	247.42
747.70	247.13
748.03	246.86
748.36	246.61
748.68	246.37
749.01	246.10
749.34	245.88
749.67	245.63
750.00	245.35
750.33	245.18
750.65	244.91
750.98	244.52
751.31	244.33
751.64	244.11
751.97	243.94
752.29	243.68
752.62	243.35
752.95	243.17
753.28	242.91
753.60	242.69
753.93	242.53
754.26	242.31
754.59	242.11
754.91	241.89
755.24	241.66
755.57	241.45
755.90	241.26
756.22	241.06
756.55	240.82
756.88	240.62
757.20	240.34
757.53	240.16
757.86	239.98
758.19	239.78
758.51	239.57
758.84	239.33
759.17	239.14
759.49	238.99
759.82	238.83
760.15	238.66
760.47	238.50
760.80	238.27
761.13	238.15
761.45	237.97
761.78	237.82
762.11	237.64
762.43	237.51
762.76	237.33
763.08	237.17
763.41	237.00
763.74	236.85
764.06	236.69
764.39	236.52
764.71	236.38
765.04	236.22
765.37	236.07
765.69	235.95
766.02	235.80
766.34	235.68
766.67	235.48
767.00	235.39
767.32	235.30
767.65	235.23
767.97	235.06
768.30	234.94
768.62	234.76
768.95	234.61
769.27	234.41
769.60	234.32
769.92	234.17
770.25	234.09
770.57	233.97
770.90	233.84
771.22	233.73
771.55	233.63
771.87	233.51
772.20	233.40
772.52	233.35
772.85	233.37
773.17	233.28
773.50	233.18
773.82	233.02
774.15	232.86
774.47	232.69
774.80	232.59
775.12	232.46
775.45	232.40
775.77	232.36
776.09	232.32
776.42	232.25
776.74	232.21
777.07	232.13
777.39	232.03
777.72	231.94
778.04	231.89
778.36	231.78
778.69	231.72
779.01	231.64
779.33	231.49
779.66	231.28
779.98	231.18
780.31	231.10
780.63	231.10
780.95	231.04
781.28	231.00
781.60	230.92
781.92	230.87
782.25	230.82
782.57	230.72
782.89	230.64
783.22	230.53
783.54	230.42
783.86	230.34
784.19	230.28
784.51	230.28
784.83	230.23
785.16	230.16
785.48	230.11
785.80	230.03
786.12	229.99
786.45	229.96
786.77	229.93
