SpectraSuite Data File
++++++++++++++++++++++++++++++++++++
Date: Fri Feb 01 15:52:34 EST 2013
User: group
Dark Spectrum Present: No
Reference Spectrum Present: No
Number of Sampled Component Spectra: 1
Spectrometers: USB2E7196
Integration Time (usec): 35000 (USB2E7196)
Spectra Averaged: 100 (USB2E7196)
Boxcar Smoothing: 10 (USB2E7196)
Correct for Electrical Dark: No (USB2E7196)
Strobe/Lamp Enabled: No (USB2E7196)
Correct for Detector Non-linearity: No (USB2E7196)
Correct for Stray Light: No (USB2E7196)
Number of Pixels in Processed Spectrum: 2048
>>>>>Begin Processed Spectral Data<<<<<
339.09	0.00
339.48	214.83
339.86	216.23
340.24	217.52
340.63	219.24
341.01	221.93
341.39	221.77
341.78	222.93
342.16	224.11
342.54	224.02
342.93	213.08
343.31	223.84
343.69	224.39
344.07	224.85
344.46	225.28
344.84	225.63
345.22	225.85
345.60	226.11
345.99	226.29
346.37	226.42
346.75	226.54
347.13	226.61
347.52	226.68
347.90	226.76
348.28	226.77
348.66	226.79
349.05	226.81
349.43	226.86
349.81	226.91
350.19	226.93
350.57	226.98
350.96	227.05
351.34	227.17
351.72	227.22
352.10	227.33
352.48	227.40
352.87	227.47
353.25	227.53
353.63	227.59
354.01	227.67
354.39	227.75
354.77	227.84
355.15	227.97
355.54	228.03
355.92	228.07
356.30	228.19
356.68	228.34
357.06	228.40
357.44	228.44
357.82	228.50
358.20	228.62
358.58	228.72
358.97	228.76
359.35	228.82
359.73	228.92
360.11	228.98
360.49	229.03
360.87	229.11
361.25	229.20
361.63	229.28
362.01	229.33
362.39	229.38
362.77	229.41
363.15	229.40
363.53	229.43
363.91	229.46
364.29	229.47
364.67	229.40
365.05	229.41
365.43	229.43
365.81	229.46
366.19	229.49
366.57	229.49
366.95	229.51
367.33	229.49
367.71	229.47
368.09	229.46
368.47	229.45
368.85	229.44
369.23	229.41
369.61	229.35
369.99	229.34
370.37	229.29
370.75	229.31
371.13	229.26
371.51	229.23
371.89	229.19
372.27	229.12
372.65	229.08
373.03	229.03
373.41	228.98
373.78	228.90
374.16	228.78
374.54	228.71
374.92	228.66
375.30	228.60
375.68	228.51
376.06	228.43
376.44	228.33
376.82	228.22
377.19	228.16
377.57	228.08
377.95	227.97
378.33	227.88
378.71	227.77
379.09	227.71
379.47	227.63
379.84	227.55
380.22	227.45
380.60	227.38
380.98	227.30
381.36	227.23
381.73	227.15
382.11	227.13
382.49	227.05
382.87	226.95
383.25	226.87
383.62	226.92
384.00	226.86
384.38	226.82
384.76	226.81
385.13	226.79
385.51	226.73
385.89	226.68
386.27	226.64
386.64	226.60
387.02	226.54
387.40	226.50
387.78	226.44
388.15	226.42
388.53	226.39
388.91	226.37
389.29	226.35
389.66	226.38
390.04	226.32
390.42	226.34
390.79	226.33
391.17	226.32
391.55	226.22
391.92	226.22
392.30	226.23
392.68	226.15
393.05	226.14
393.43	226.17
393.81	226.19
394.18	226.18
394.56	226.20
394.94	226.26
395.31	226.26
395.69	226.32
396.06	226.36
396.44	226.40
396.82	226.42
397.19	226.51
397.57	226.51
397.95	226.57
398.32	226.58
398.70	226.63
399.07	226.71
399.45	226.77
399.82	226.80
400.20	226.87
400.58	226.99
400.95	227.06
401.33	227.20
401.70	227.36
402.08	227.49
402.45	227.60
402.83	227.72
403.20	227.82
403.58	227.92
403.95	228.07
404.33	228.20
404.71	228.34
405.08	228.51
405.46	228.60
405.83	228.76
406.21	228.92
406.58	229.09
406.96	229.26
407.33	229.45
407.70	229.68
408.08	229.94
408.45	230.16
408.83	230.39
409.20	230.57
409.58	230.73
409.95	230.99
410.33	231.25
410.70	231.51
411.08	231.84
411.45	232.17
411.82	232.46
412.20	232.83
412.57	233.23
412.95	233.50
413.32	233.97
413.69	234.37
414.07	234.84
414.44	235.30
414.82	235.79
415.19	236.33
415.56	236.88
415.94	237.45
416.31	238.10
416.68	238.72
417.06	239.43
417.43	240.14
417.81	240.89
418.18	241.66
418.55	242.46
418.93	243.31
419.30	244.20
419.67	245.11
420.04	246.10
420.42	247.12
420.79	248.32
421.16	249.48
421.54	250.66
421.91	251.83
422.28	253.11
422.66	254.43
423.03	255.73
423.40	257.06
423.77	258.43
424.15	259.84
424.52	261.32
424.89	262.93
425.26	264.47
425.64	265.88
426.01	267.47
426.38	269.16
426.75	270.86
427.13	272.55
427.50	274.38
427.87	276.19
428.24	278.02
428.61	279.77
428.99	281.67
429.36	283.77
429.73	285.82
430.10	287.79
430.47	289.85
430.85	291.93
431.22	294.18
431.59	296.58
431.96	298.80
432.33	301.28
432.70	303.70
433.08	306.47
433.45	309.17
433.82	311.78
434.19	314.63
434.56	317.42
434.93	320.07
435.30	322.67
435.68	325.55
436.05	328.40
436.42	331.18
436.79	333.72
437.16	336.40
437.53	339.27
437.90	342.14
438.27	344.89
438.64	347.75
439.01	350.32
439.38	352.52
439.75	354.71
440.13	357.22
440.50	359.49
440.87	361.31
441.24	363.23
441.61	365.38
441.98	366.89
442.35	368.70
442.72	370.57
443.09	372.38
443.46	373.39
443.83	373.95
444.20	374.43
444.57	375.25
444.94	375.56
445.31	375.90
445.68	376.16
446.05	376.20
446.42	375.82
446.79	375.38
447.16	374.96
447.53	374.63
447.90	373.48
448.27	372.33
448.64	370.81
449.01	369.66
449.37	367.68
449.74	365.78
450.11	363.55
450.48	361.07
450.85	358.54
451.22	356.42
451.59	354.45
451.96	352.55
452.33	349.97
452.70	347.63
453.07	344.77
453.43	341.92
453.80	339.19
454.17	336.48
454.54	333.97
454.91	331.23
455.28	328.53
455.65	326.01
456.02	323.57
456.38	321.42
456.75	318.77
457.12	316.55
457.49	314.34
457.86	312.14
458.23	310.32
458.59	308.27
458.96	306.17
459.33	304.32
459.70	302.42
460.07	300.90
460.43	299.16
460.80	297.56
461.17	296.13
461.54	294.63
461.91	293.24
462.27	291.80
462.64	290.56
463.01	289.23
463.38	287.95
463.74	286.58
464.11	285.40
464.48	284.40
464.85	283.25
465.21	282.37
465.58	281.45
465.95	280.36
466.32	279.47
466.68	278.57
467.05	277.63
467.42	276.78
467.78	275.85
468.15	274.98
468.52	274.32
468.88	273.47
469.25	272.70
469.62	272.08
469.98	271.39
470.35	270.75
470.72	270.16
471.08	269.51
471.45	268.96
471.82	268.40
472.18	267.80
472.55	267.40
472.92	266.91
473.28	266.44
473.65	265.98
474.02	265.54
474.38	265.18
474.75	264.85
475.11	264.48
475.48	264.19
475.85	263.96
476.21	263.71
476.58	263.54
476.94	263.39
477.31	263.22
477.67	263.08
478.04	262.97
478.41	262.90
478.77	262.94
479.14	262.88
479.50	262.91
479.87	262.99
480.23	263.04
480.60	263.07
480.96	263.17
481.33	263.36
481.69	263.56
482.06	263.75
482.42	263.95
482.79	264.21
483.15	264.58
483.52	264.95
483.88	265.28
484.25	265.68
484.61	266.06
484.98	266.47
485.34	267.04
485.71	267.65
486.07	268.25
486.44	268.79
486.80	269.54
487.17	270.24
487.53	271.03
487.90	271.91
488.26	272.84
488.62	273.85
488.99	274.83
489.35	275.86
489.72	277.00
490.08	278.23
490.44	279.49
490.81	280.81
491.17	282.19
491.54	283.71
491.90	285.23
492.26	286.92
492.63	288.68
492.99	290.45
493.36	292.36
493.72	294.42
494.08	296.59
494.45	298.81
494.81	301.19
495.17	303.60
495.54	306.12
495.90	308.81
496.26	311.62
496.63	314.59
496.99	317.72
497.35	320.98
497.72	324.39
498.08	327.85
498.44	331.49
498.80	335.42
499.17	339.44
499.53	343.62
499.89	347.97
500.26	352.47
500.62	357.15
500.98	362.06
501.34	367.13
501.71	372.38
502.07	377.79
502.43	383.44
502.79	389.28
503.16	395.42
503.52	401.69
503.88	408.09
504.24	414.74
504.60	421.61
504.97	428.74
505.33	436.09
505.69	443.85
506.05	451.65
506.41	459.54
506.78	467.73
507.14	476.22
507.50	484.94
507.86	493.97
508.22	503.15
508.59	512.38
508.95	522.01
509.31	531.86
509.67	542.00
510.03	552.29
510.39	562.89
510.75	573.66
511.12	584.74
511.48	596.04
511.84	607.44
512.20	618.97
512.56	630.92
512.92	643.03
513.28	655.36
513.64	667.84
514.00	680.51
514.37	693.50
514.73	706.57
515.09	719.59
515.45	732.89
515.81	746.47
516.17	760.46
516.53	774.56
516.89	788.72
517.25	802.83
517.61	817.24
517.97	831.68
518.33	846.16
518.69	860.79
519.05	875.81
519.41	891.01
519.77	906.60
520.13	922.08
520.49	937.45
520.85	952.86
521.21	968.63
521.57	984.82
521.93	1000.50
522.29	1016.83
522.65	1033.07
523.01	1049.20
523.37	1065.24
523.73	1081.48
524.09	1097.59
524.45	1113.91
524.81	1130.58
525.17	1147.40
525.53	1164.25
525.89	1181.10
526.25	1197.94
526.61	1214.30
526.97	1231.01
527.33	1247.39
527.68	1264.00
528.04	1280.56
528.40	1297.15
528.76	1314.12
529.12	1330.80
529.48	1347.66
529.84	1363.63
530.20	1380.31
530.56	1397.35
530.91	1414.72
531.27	1431.33
531.63	1447.84
531.99	1464.43
532.35	1480.42
532.71	1496.19
533.07	1512.47
533.42	1528.36
533.78	1544.38
534.14	1560.68
534.50	1576.04
534.86	1591.95
535.21	1606.99
535.57	1622.90
535.93	1638.33
536.29	1653.11
536.65	1668.02
537.00	1682.79
537.36	1698.09
537.72	1712.53
538.08	1726.93
538.44	1740.70
538.79	1754.64
539.15	1768.23
539.51	1781.98
539.87	1796.26
540.22	1810.07
540.58	1823.77
540.94	1837.03
541.29	1849.92
541.65	1862.52
542.01	1875.74
542.37	1888.03
542.72	1900.59
543.08	1912.24
543.44	1924.70
543.79	1935.94
544.15	1947.03
544.51	1958.61
544.87	1969.65
545.22	1980.55
545.58	1990.75
545.94	2000.51
546.29	2010.47
546.65	2020.23
547.01	2029.40
547.36	2038.15
547.72	2046.51
548.07	2054.37
548.43	2062.48
548.79	2070.47
549.14	2077.95
549.50	2085.26
549.86	2092.88
550.21	2100.24
550.57	2107.40
550.92	2113.89
551.28	2120.93
551.64	2127.94
551.99	2134.47
552.35	2140.48
552.70	2146.52
553.06	2152.49
553.41	2158.89
553.77	2164.81
554.13	2170.96
554.48	2177.05
554.84	2182.53
555.19	2187.93
555.55	2192.98
555.90	2197.40
556.26	2202.22
556.61	2207.08
556.97	2211.33
557.32	2215.41
557.68	2219.44
558.03	2223.91
558.39	2227.64
558.74	2232.36
559.10	2236.24
559.45	2239.87
559.81	2244.31
560.16	2248.22
560.52	2251.58
560.87	2254.87
561.23	2257.43
561.58	2260.30
561.94	2262.75
562.29	2265.07
562.64	2267.62
563.00	2270.26
563.35	2273.85
563.71	2276.97
564.06	2280.05
564.42	2282.85
564.77	2285.39
565.12	2287.69
565.48	2289.45
565.83	2291.33
566.19	2292.54
566.54	2293.42
566.89	2294.53
567.25	2295.08
567.60	2296.37
567.96	2297.94
568.31	2298.89
568.66	2300.11
569.02	2300.67
569.37	2301.13
569.72	2301.98
570.08	2302.24
570.43	2302.47
570.78	2301.86
571.14	2300.46
571.49	2299.23
571.84	2298.99
572.20	2297.80
572.55	2296.79
572.90	2295.23
573.26	2293.91
573.61	2292.30
573.96	2290.53
574.31	2287.60
574.67	2284.59
575.02	2281.00
575.37	2277.71
575.72	2273.83
576.08	2270.56
576.43	2267.46
576.78	2263.72
577.13	2260.62
577.49	2257.47
577.84	2253.86
578.19	2250.25
578.54	2246.55
578.90	2242.32
579.25	2236.79
579.60	2231.98
579.95	2226.83
580.30	2221.83
580.66	2216.60
581.01	2211.70
581.36	2206.68
581.71	2202.47
582.06	2198.00
582.42	2193.49
582.77	2188.07
583.12	2183.48
583.47	2178.57
583.82	2173.38
584.17	2168.10
584.53	2162.52
584.88	2157.00
585.23	2151.12
585.58	2145.46
585.93	2140.01
586.28	2134.99
586.63	2129.89
586.98	2124.77
587.34	2120.17
587.69	2115.23
588.04	2109.90
588.39	2104.13
588.74	2097.72
589.09	2091.55
589.44	2084.58
589.79	2078.54
590.14	2073.01
590.49	2066.46
590.84	2060.24
591.19	2054.25
591.54	2047.90
591.89	2040.44
592.25	2033.53
592.60	2026.37
592.95	2018.82
593.30	2011.47
593.65	2004.15
594.00	1997.16
594.35	1989.99
594.70	1981.92
595.05	1974.66
595.40	1967.49
595.75	1959.98
596.10	1953.74
596.45	1947.01
596.80	1940.96
597.15	1934.31
597.50	1927.15
597.85	1920.74
598.19	1913.94
598.54	1906.77
598.89	1900.09
599.24	1894.19
599.59	1887.38
599.94	1881.24
600.29	1874.87
600.64	1868.30
600.99	1860.89
601.34	1853.99
601.69	1846.88
602.04	1839.91
602.39	1832.63
602.74	1825.71
603.08	1818.86
603.43	1812.19
603.78	1804.92
604.13	1797.90
604.48	1790.53
604.83	1783.72
605.18	1776.71
605.53	1768.72
605.87	1760.78
606.22	1753.54
606.57	1745.73
606.92	1738.65
607.27	1731.47
607.62	1724.70
607.96	1717.45
608.31	1710.68
608.66	1703.08
609.01	1695.63
609.36	1688.23
609.70	1680.26
610.05	1672.22
610.40	1664.56
610.75	1656.25
611.10	1648.56
611.44	1639.96
611.79	1632.11
612.14	1623.42
612.49	1614.35
612.83	1606.05
613.18	1597.91
613.53	1589.90
613.88	1581.30
614.22	1572.93
614.57	1564.38
614.92	1556.32
615.27	1548.62
615.61	1540.26
615.96	1532.29
616.31	1524.63
616.65	1517.19
617.00	1509.52
617.35	1501.87
617.70	1493.54
618.04	1485.02
618.39	1476.84
618.74	1469.20
619.08	1460.87
619.43	1453.31
619.78	1446.31
620.12	1439.06
620.47	1431.53
620.82	1423.38
621.16	1416.03
621.51	1408.37
621.85	1400.75
622.20	1392.17
622.55	1383.91
622.89	1376.19
623.24	1368.50
623.59	1361.02
623.93	1353.47
624.28	1346.29
624.62	1338.62
624.97	1331.47
625.32	1324.82
625.66	1317.75
626.01	1310.67
626.35	1303.21
626.70	1295.54
627.04	1287.84
627.39	1280.13
627.73	1272.70
628.08	1265.72
628.43	1258.32
628.77	1251.03
629.12	1243.41
629.46	1236.25
629.81	1228.86
630.15	1221.55
630.50	1214.13
630.84	1206.02
631.19	1198.09
631.53	1190.65
631.88	1183.20
632.22	1175.60
632.57	1168.17
632.91	1160.61
633.26	1153.11
633.60	1145.80
633.95	1138.68
634.29	1131.64
634.64	1124.97
634.98	1117.51
635.32	1110.38
635.67	1103.79
636.01	1097.17
636.36	1090.28
636.70	1083.86
637.05	1077.21
637.39	1070.72
637.73	1064.21
638.08	1058.25
638.42	1052.28
638.77	1045.79
639.11	1039.17
639.45	1032.78
639.80	1026.13
640.14	1019.76
640.49	1013.27
640.83	1006.95
641.17	1000.64
641.52	994.28
641.86	987.81
642.20	982.15
642.55	975.87
642.89	969.43
643.23	962.83
643.58	957.10
643.92	950.84
644.26	944.70
644.61	938.70
644.95	932.65
645.29	926.07
645.64	919.40
645.98	913.06
646.32	907.28
646.66	901.29
647.01	895.48
647.35	889.64
647.69	883.75
648.04	878.13
648.38	872.40
648.72	866.44
649.06	860.41
649.41	854.47
649.75	848.44
650.09	842.46
650.43	836.72
650.78	830.54
651.12	824.58
651.46	818.94
651.80	813.17
652.14	807.78
652.49	802.43
652.83	797.12
653.17	791.47
653.51	785.73
653.85	780.31
654.20	774.69
654.54	768.81
654.88	763.20
655.22	757.35
655.56	751.72
655.90	746.22
656.25	740.91
656.59	735.52
656.93	730.45
657.27	725.29
657.61	719.82
657.95	714.79
658.29	709.73
658.64	704.53
658.98	699.25
659.32	693.82
659.66	688.62
660.00	683.36
660.34	678.37
660.68	673.47
661.02	668.47
661.36	663.75
661.70	659.26
662.05	654.84
662.39	650.52
662.73	645.97
663.07	641.62
663.41	637.20
663.75	632.69
664.09	628.17
664.43	623.78
664.77	619.71
665.11	615.41
665.45	611.24
665.79	607.08
666.13	602.96
666.47	598.87
666.81	594.74
667.15	590.61
667.49	586.72
667.83	582.89
668.17	578.92
668.51	574.84
668.85	570.73
669.19	566.87
669.53	563.00
669.87	559.11
670.21	555.40
670.55	551.74
670.89	548.37
671.23	544.86
671.57	541.30
671.91	537.69
672.25	534.19
672.58	530.70
672.92	527.35
673.26	524.12
673.60	520.97
673.94	517.81
674.28	514.86
674.62	511.90
674.96	508.74
675.30	505.76
675.64	502.81
675.97	500.10
676.31	497.24
676.65	494.34
676.99	491.63
677.33	488.79
677.67	485.97
678.01	482.88
678.34	479.86
678.68	477.02
679.02	474.22
679.36	471.45
679.70	468.71
680.04	465.90
680.37	463.00
680.71	460.18
681.05	457.58
681.39	454.90
681.73	452.28
682.06	449.81
682.40	447.33
682.74	444.81
683.08	442.27
683.42	439.69
683.75	437.15
684.09	434.63
684.43	432.12
684.77	429.67
685.10	427.35
685.44	425.08
685.78	422.80
686.12	420.56
686.45	418.27
686.79	415.99
687.13	413.83
687.46	411.72
687.80	409.62
688.14	407.41
688.48	405.34
688.81	403.11
689.15	400.97
689.49	398.83
689.82	396.76
690.16	394.67
690.50	392.73
690.83	390.81
691.17	388.85
691.51	386.99
691.84	385.09
692.18	383.14
692.52	381.16
692.85	379.23
693.19	377.31
693.52	375.54
693.86	373.71
694.20	371.94
694.53	370.14
694.87	368.30
695.21	366.52
695.54	364.69
695.88	362.96
696.21	361.22
696.55	359.55
696.88	357.88
697.22	356.21
697.56	354.59
697.89	352.94
698.23	351.30
698.56	349.66
698.90	348.12
699.23	346.51
699.57	344.98
699.90	343.50
700.24	341.99
700.58	340.41
700.91	338.90
701.25	337.46
701.58	336.09
701.92	334.67
702.25	333.31
702.59	331.95
702.92	330.59
703.26	329.28
703.59	327.98
703.93	326.81
704.26	325.54
704.60	324.23
704.93	322.93
705.26	321.69
705.60	320.52
705.93	319.36
706.27	318.30
706.60	317.22
706.94	316.11
707.27	314.97
707.61	313.92
707.94	312.89
708.27	311.79
708.61	310.69
708.94	309.74
709.28	308.73
709.61	307.76
709.94	306.82
710.28	305.81
710.61	304.81
710.95	303.72
711.28	302.83
711.61	301.90
711.95	300.99
712.28	300.00
712.61	299.03
712.95	298.11
713.28	297.24
713.61	296.35
713.95	295.44
714.28	294.61
714.61	293.76
714.95	292.96
715.28	292.04
715.61	291.19
715.95	290.28
716.28	289.45
716.61	288.62
716.95	287.81
717.28	287.05
717.61	286.32
717.94	285.60
718.28	284.77
718.61	284.02
718.94	283.28
719.27	282.66
719.61	282.00
719.94	281.32
720.27	280.58
720.60	279.92
720.94	279.29
721.27	278.69
721.60	278.09
721.93	277.46
722.27	276.94
722.60	276.38
722.93	275.86
723.26	275.32
723.59	274.76
723.93	274.20
724.26	273.64
724.59	273.08
724.92	272.57
725.25	272.07
725.59	271.57
725.92	271.09
726.25	270.57
726.58	270.06
726.91	269.58
727.24	269.14
727.57	268.64
727.91	268.16
728.24	267.71
728.57	267.25
728.90	266.83
729.23	266.38
729.56	265.96
729.89	265.49
730.22	265.00
730.55	264.52
730.89	264.10
731.22	263.67
731.55	263.24
731.88	262.76
732.21	262.34
732.54	261.90
732.87	261.47
733.20	261.10
733.53	260.72
733.86	260.34
734.19	259.93
734.52	259.58
734.85	259.30
735.18	258.91
735.51	258.52
735.84	258.10
736.17	257.70
736.50	257.29
736.83	257.08
737.16	256.73
737.49	256.43
737.82	256.08
738.15	255.74
738.48	255.40
738.81	255.06
739.14	254.72
739.47	254.41
739.80	254.14
740.13	253.84
740.46	253.52
740.79	253.18
741.12	252.85
741.45	252.52
741.78	252.15
742.11	251.82
742.44	251.52
742.77	251.22
743.10	250.92
743.43	250.63
743.75	250.23
744.08	250.10
744.41	249.82
744.74	249.54
745.07	249.26
745.40	249.02
745.73	248.80
746.06	248.53
746.39	248.27
746.71	247.94
747.04	247.63
747.37	247.37
747.70	247.12
748.03	246.87
748.36	246.63
748.68	246.37
749.01	246.14
749.34	245.90
749.67	245.69
750.00	245.49
750.33	245.34
750.65	245.09
750.98	244.75
751.31	244.49
751.64	244.27
751.97	244.09
752.29	243.85
752.62	243.61
752.95	243.40
753.28	243.22
753.60	243.04
753.93	242.89
754.26	242.70
754.59	242.46
754.91	242.26
755.24	242.06
755.57	241.88
755.90	241.69
756.22	241.48
756.55	241.28
756.88	241.08
757.20	240.86
757.53	240.71
757.86	240.52
758.19	240.39
758.51	240.20
758.84	240.00
759.17	239.84
759.49	239.68
759.82	239.58
760.15	239.38
760.47	239.26
760.80	239.08
761.13	238.93
761.45	238.81
761.78	238.67
762.11	238.53
762.43	238.38
762.76	238.27
763.08	238.15
763.41	238.03
763.74	237.92
764.06	237.78
764.39	237.62
764.71	237.51
765.04	237.37
765.37	237.23
765.69	237.11
766.02	236.96
766.34	236.86
766.67	236.70
767.00	236.63
767.32	236.54
767.65	236.47
767.97	236.35
768.30	236.26
768.62	236.17
768.95	236.06
769.27	235.94
769.60	235.82
769.92	235.68
770.25	235.54
770.57	235.43
770.90	235.28
771.22	235.19
771.55	235.10
771.87	235.03
772.20	234.94
772.52	234.95
772.85	235.00
773.17	234.94
773.50	234.82
773.82	234.71
774.15	234.57
774.47	234.43
774.80	234.36
775.12	234.25
775.45	234.18
775.77	234.09
776.09	234.02
776.42	233.98
776.74	233.95
777.07	233.87
777.39	233.79
777.72	233.77
778.04	233.69
778.36	233.61
778.69	233.52
779.01	233.46
779.33	233.31
779.66	233.14
779.98	233.01
780.31	232.96
780.63	232.92
780.95	232.88
781.28	232.82
781.60	232.73
781.92	232.69
782.25	232.57
782.57	232.51
782.89	232.42
783.22	232.31
783.54	232.24
783.86	232.21
784.19	232.14
784.51	232.08
784.83	232.01
785.16	231.96
785.48	231.90
785.80	231.87
786.12	231.82
786.45	231.73
786.77	231.67
787.09	231.61
