SpectraSuite Data File
++++++++++++++++++++++++++++++++++++
Date: Fri Feb 01 15:27:44 EST 2013
User: group
Dark Spectrum Present: No
Reference Spectrum Present: No
Number of Sampled Component Spectra: 1
Spectrometers: USB2E7196
Integration Time (usec): 35000 (USB2E7196)
Spectra Averaged: 100 (USB2E7196)
Boxcar Smoothing: 10 (USB2E7196)
Correct for Electrical Dark: No (USB2E7196)
Strobe/Lamp Enabled: No (USB2E7196)
Correct for Detector Non-linearity: No (USB2E7196)
Correct for Stray Light: No (USB2E7196)
Number of Pixels in Processed Spectrum: 2048
>>>>>Begin Processed Spectral Data<<<<<
339.09	0.00
339.48	214.86
339.86	216.62
340.24	217.93
340.63	219.56
341.01	222.12
341.39	222.45
341.78	222.82
342.16	224.62
342.54	225.51
342.93	213.51
343.31	224.31
343.69	224.86
344.07	225.34
344.46	225.77
344.84	226.13
345.22	226.37
345.60	226.59
345.99	226.80
346.37	226.92
346.75	226.98
347.13	227.08
347.52	227.17
347.90	227.24
348.28	227.24
348.66	227.29
349.05	227.31
349.43	227.37
349.81	227.38
350.19	227.44
350.57	227.50
350.96	227.59
351.34	227.64
351.72	227.72
352.10	227.79
352.48	227.87
352.87	227.92
353.25	228.01
353.63	228.09
354.01	228.15
354.39	228.23
354.77	228.34
355.15	228.43
355.54	228.48
355.92	228.51
356.30	228.58
356.68	228.70
357.06	228.79
357.44	228.82
357.82	228.90
358.20	228.95
358.58	228.94
358.97	228.98
359.35	229.07
359.73	229.14
360.11	229.19
360.49	229.24
360.87	229.29
361.25	229.30
361.63	229.37
362.01	229.41
362.39	229.44
362.77	229.46
363.15	229.47
363.53	229.49
363.91	229.48
364.29	229.50
364.67	229.41
365.05	229.40
365.43	229.41
365.81	229.43
366.19	229.46
366.57	229.53
366.95	229.51
367.33	229.49
367.71	229.45
368.09	229.44
368.47	229.37
368.85	229.36
369.23	229.37
369.61	229.28
369.99	229.29
370.37	229.23
370.75	229.23
371.13	229.15
371.51	229.08
371.89	229.08
372.27	229.05
372.65	229.00
373.03	228.94
373.41	228.87
373.78	228.80
374.16	228.67
374.54	228.55
374.92	228.48
375.30	228.40
375.68	228.36
376.06	228.32
376.44	228.28
376.82	228.20
377.19	228.10
377.57	228.04
377.95	227.89
378.33	227.85
378.71	227.71
379.09	227.66
379.47	227.58
379.84	227.47
380.22	227.38
380.60	227.28
380.98	227.20
381.36	227.14
381.73	227.05
382.11	226.98
382.49	226.90
382.87	226.82
383.25	226.75
383.62	226.75
384.00	226.66
384.38	226.61
384.76	226.55
385.13	226.53
385.51	226.47
385.89	226.43
386.27	226.38
386.64	226.36
387.02	226.33
387.40	226.32
387.78	226.28
388.15	226.26
388.53	226.25
388.91	226.23
389.29	226.19
389.66	226.18
390.04	226.18
390.42	226.24
390.79	226.23
391.17	226.26
391.55	226.11
391.92	226.12
392.30	226.13
392.68	226.16
393.05	226.18
393.43	226.20
393.81	226.24
394.18	226.24
394.56	226.26
394.94	226.29
395.31	226.30
395.69	226.39
396.06	226.45
396.44	226.45
396.82	226.49
397.19	226.58
397.57	226.64
397.95	226.71
398.32	226.73
398.70	226.80
399.07	226.87
399.45	227.01
399.82	227.08
400.20	227.16
400.58	227.23
400.95	227.27
401.33	227.39
401.70	227.56
402.08	227.69
402.45	227.79
402.83	227.91
403.20	228.02
403.58	228.12
403.95	228.27
404.33	228.44
404.71	228.57
405.08	228.78
405.46	228.90
405.83	229.05
406.21	229.22
406.58	229.37
406.96	229.53
407.33	229.73
407.70	229.92
408.08	230.20
408.45	230.44
408.83	230.69
409.20	230.91
409.58	231.07
409.95	231.34
410.33	231.60
410.70	231.85
411.08	232.15
411.45	232.46
411.82	232.73
412.20	233.08
412.57	233.52
412.95	233.80
413.32	234.20
413.69	234.63
414.07	235.04
414.44	235.54
414.82	236.00
415.19	236.53
415.56	237.06
415.94	237.57
416.31	238.22
416.68	238.83
417.06	239.51
417.43	240.21
417.81	240.99
418.18	241.77
418.55	242.61
418.93	243.47
419.30	244.37
419.67	245.33
420.04	246.30
420.42	247.25
420.79	248.43
421.16	249.60
421.54	250.78
421.91	251.99
422.28	253.22
422.66	254.56
423.03	255.87
423.40	257.22
423.77	258.67
424.15	260.05
424.52	261.56
424.89	263.16
425.26	264.67
425.64	266.09
426.01	267.71
426.38	269.35
426.75	271.05
427.13	272.77
427.50	274.55
427.87	276.43
428.24	278.33
428.61	280.04
428.99	282.02
429.36	284.13
429.73	286.19
430.10	288.22
430.47	290.30
430.85	292.39
431.22	294.61
431.59	296.93
431.96	299.18
432.33	301.68
432.70	304.07
433.08	306.88
433.45	309.49
433.82	312.09
434.19	315.01
434.56	317.80
434.93	320.48
435.30	323.11
435.68	326.02
436.05	328.81
436.42	331.64
436.79	334.15
437.16	336.81
437.53	339.71
437.90	342.59
438.27	345.35
438.64	348.24
439.01	350.88
439.38	353.17
439.75	355.38
440.13	357.84
440.50	360.19
440.87	362.04
441.24	364.00
441.61	366.21
441.98	367.71
442.35	369.54
442.72	371.39
443.09	373.22
443.46	374.21
443.83	374.85
444.20	375.38
444.57	376.23
444.94	376.55
445.31	376.85
445.68	377.15
446.05	377.21
446.42	376.76
446.79	376.34
447.16	375.91
447.53	375.56
447.90	374.41
448.27	373.27
448.64	371.74
449.01	370.59
449.37	368.58
449.74	366.67
450.11	364.42
450.48	361.96
450.85	359.40
451.22	357.26
451.59	355.25
451.96	353.25
452.33	350.64
452.70	348.26
453.07	345.41
453.43	342.52
453.80	339.73
454.17	337.08
454.54	334.56
454.91	331.82
455.28	329.18
455.65	326.65
456.02	324.20
456.38	322.01
456.75	319.36
457.12	317.12
457.49	314.86
457.86	312.68
458.23	310.82
458.59	308.76
458.96	306.67
459.33	304.79
459.70	302.94
460.07	301.41
460.43	299.70
460.80	298.07
461.17	296.62
461.54	295.15
461.91	293.71
462.27	292.22
462.64	290.96
463.01	289.58
463.38	288.30
463.74	286.92
464.11	285.79
464.48	284.78
464.85	283.69
465.21	282.86
465.58	281.92
465.95	280.82
466.32	279.93
466.68	278.99
467.05	278.08
467.42	277.20
467.78	276.23
468.15	275.36
468.52	274.66
468.88	273.75
469.25	272.99
469.62	272.36
469.98	271.69
470.35	271.03
470.72	270.43
471.08	269.79
471.45	269.22
471.82	268.66
472.18	268.03
472.55	267.54
472.92	266.99
473.28	266.50
473.65	266.04
474.02	265.58
474.38	265.22
474.75	264.89
475.11	264.50
475.48	264.27
475.85	263.99
476.21	263.80
476.58	263.64
476.94	263.47
477.31	263.29
477.67	263.10
478.04	263.00
478.41	262.93
478.77	262.92
479.14	262.83
479.50	262.81
479.87	262.88
480.23	262.95
480.60	263.02
480.96	263.13
481.33	263.29
481.69	263.46
482.06	263.62
482.42	263.83
482.79	264.09
483.15	264.39
483.52	264.80
483.88	265.14
484.25	265.49
484.61	265.92
484.98	266.38
485.34	266.96
485.71	267.52
486.07	268.13
486.44	268.72
486.80	269.44
487.17	270.16
487.53	270.99
487.90	271.89
488.26	272.79
488.62	273.78
488.99	274.76
489.35	275.84
489.72	276.97
490.08	278.14
490.44	279.37
490.81	280.67
491.17	282.03
491.54	283.50
491.90	285.05
492.26	286.65
492.63	288.35
492.99	290.10
493.36	292.00
493.72	294.01
494.08	296.16
494.45	298.38
494.81	300.79
495.17	303.20
495.54	305.72
495.90	308.46
496.26	311.25
496.63	314.20
496.99	317.32
497.35	320.57
497.72	323.99
498.08	327.54
498.44	331.24
498.80	335.14
499.17	339.18
499.53	343.34
499.89	347.81
500.26	352.36
500.62	357.06
500.98	362.06
501.34	367.15
501.71	372.50
502.07	377.96
502.43	383.54
502.79	389.33
503.16	395.37
503.52	401.57
503.88	407.97
504.24	414.64
504.60	421.55
504.97	428.72
505.33	436.04
505.69	443.75
506.05	451.53
506.41	459.48
506.78	467.66
507.14	476.20
507.50	484.90
507.86	493.92
508.22	503.12
508.59	512.34
508.95	521.97
509.31	531.75
509.67	541.85
510.03	552.13
510.39	562.78
510.75	573.64
511.12	584.64
511.48	595.97
511.84	607.44
512.20	618.93
512.56	630.86
512.92	643.07
513.28	655.33
513.64	667.84
514.00	680.50
514.37	693.47
514.73	706.45
515.09	719.49
515.45	732.83
515.81	746.42
516.17	760.38
516.53	774.48
516.89	788.69
517.25	802.89
517.61	817.38
517.97	831.91
518.33	846.37
518.69	861.21
519.05	876.22
519.41	891.45
519.77	907.11
520.13	922.63
520.49	938.00
520.85	953.52
521.21	969.33
521.57	985.61
521.93	1001.44
522.29	1017.90
522.65	1034.20
523.01	1050.38
523.37	1066.46
523.73	1082.69
524.09	1098.87
524.45	1115.18
524.81	1131.89
525.17	1148.77
525.53	1165.53
525.89	1182.40
526.25	1199.25
526.61	1215.73
526.97	1232.49
527.33	1248.87
527.68	1265.52
528.04	1282.09
528.40	1298.72
528.76	1315.80
529.12	1332.39
529.48	1349.25
529.84	1365.39
530.20	1382.02
530.56	1399.19
530.91	1416.54
531.27	1433.36
531.63	1449.80
531.99	1466.48
532.35	1482.46
532.71	1498.38
533.07	1514.66
533.42	1530.53
533.78	1546.49
534.14	1562.68
534.50	1578.03
534.86	1594.08
535.21	1609.33
535.57	1625.38
535.93	1640.99
536.29	1655.82
536.65	1671.03
537.00	1685.94
537.36	1701.19
537.72	1715.83
538.08	1730.24
538.44	1744.03
538.79	1757.93
539.15	1771.87
539.51	1785.62
539.87	1800.03
540.22	1813.88
540.58	1827.93
540.94	1841.62
541.29	1854.79
541.65	1867.73
542.01	1881.07
542.37	1893.54
542.72	1906.06
543.08	1917.80
543.44	1930.23
543.79	1941.58
544.15	1952.67
544.51	1964.35
544.87	1975.47
545.22	1986.29
545.58	1996.55
545.94	2006.51
546.29	2016.51
546.65	2026.12
547.01	2035.41
547.36	2044.14
547.72	2052.61
548.07	2060.45
548.43	2068.58
548.79	2076.59
549.14	2084.04
549.50	2091.39
549.86	2098.98
550.21	2106.32
550.57	2113.54
550.92	2120.09
551.28	2127.11
551.64	2134.07
551.99	2140.65
552.35	2146.74
552.70	2152.89
553.06	2158.84
553.41	2165.25
553.77	2171.30
554.13	2177.55
554.48	2183.66
554.84	2189.20
555.19	2194.71
555.55	2199.70
555.90	2204.19
556.26	2209.08
556.61	2213.84
556.97	2218.04
557.32	2222.25
557.68	2226.25
558.03	2230.55
558.39	2234.31
558.74	2238.95
559.10	2242.92
559.45	2246.55
559.81	2250.87
560.16	2254.83
560.52	2258.17
560.87	2261.60
561.23	2264.13
561.58	2267.06
561.94	2269.68
562.29	2272.08
562.64	2274.59
563.00	2277.35
563.35	2280.71
563.71	2283.88
564.06	2287.13
564.42	2290.01
564.77	2292.39
565.12	2294.61
565.48	2296.43
565.83	2298.27
566.19	2299.45
566.54	2300.37
566.89	2301.45
567.25	2302.04
567.60	2303.33
567.96	2304.87
568.31	2305.77
568.66	2307.03
569.02	2307.67
569.37	2307.77
569.72	2308.55
570.08	2308.61
570.43	2308.52
570.78	2307.96
571.14	2306.30
571.49	2304.84
571.84	2304.51
572.20	2303.22
572.55	2302.22
572.90	2300.78
573.26	2299.28
573.61	2297.59
573.96	2295.65
574.31	2292.62
574.67	2289.34
575.02	2285.57
575.37	2282.21
575.72	2278.14
576.08	2274.66
576.43	2271.29
576.78	2267.61
577.13	2264.37
577.49	2261.11
577.84	2257.48
578.19	2253.64
578.54	2249.94
578.90	2245.66
579.25	2240.08
579.60	2235.12
579.95	2229.99
580.30	2224.83
580.66	2219.70
581.01	2214.64
581.36	2209.73
581.71	2205.34
582.06	2200.95
582.42	2196.44
582.77	2190.99
583.12	2186.35
583.47	2181.34
583.82	2176.05
584.17	2170.65
584.53	2165.02
584.88	2159.37
585.23	2153.53
585.58	2147.99
585.93	2142.42
586.28	2137.61
586.63	2132.39
586.98	2127.30
587.34	2122.62
587.69	2117.66
588.04	2112.24
588.39	2106.49
588.74	2099.99
589.09	2093.87
589.44	2087.02
589.79	2080.92
590.14	2075.33
590.49	2068.63
590.84	2062.31
591.19	2056.32
591.54	2049.86
591.89	2042.42
592.25	2035.54
592.60	2028.32
592.95	2020.64
593.30	2013.32
593.65	2005.62
594.00	1998.56
594.35	1991.23
594.70	1983.10
595.05	1975.70
595.40	1968.32
595.75	1960.82
596.10	1954.41
596.45	1947.30
596.80	1941.05
597.15	1934.33
597.50	1927.00
597.85	1920.73
598.19	1914.03
598.54	1906.82
598.89	1900.23
599.24	1894.23
599.59	1887.40
599.94	1881.17
600.29	1874.95
600.64	1868.20
600.99	1860.65
601.34	1853.71
601.69	1846.71
602.04	1839.86
602.39	1832.52
602.74	1825.68
603.08	1818.98
603.43	1812.25
603.78	1805.13
604.13	1797.86
604.48	1790.55
604.83	1783.79
605.18	1776.61
605.53	1768.57
605.87	1760.54
606.22	1753.25
606.57	1745.37
606.92	1738.12
607.27	1730.96
607.62	1723.95
607.96	1716.61
608.31	1709.94
608.66	1702.29
609.01	1694.69
609.36	1686.97
609.70	1679.04
610.05	1671.04
610.40	1663.23
610.75	1654.91
611.10	1647.24
611.44	1638.88
611.79	1631.00
612.14	1622.34
612.49	1613.32
612.83	1604.91
613.18	1596.81
613.53	1588.70
613.88	1580.16
614.22	1571.79
614.57	1563.17
614.92	1554.98
615.27	1547.35
615.61	1538.98
615.96	1530.96
616.31	1523.42
616.65	1516.09
617.00	1508.46
617.35	1500.81
617.70	1492.38
618.04	1483.82
618.39	1475.57
618.74	1467.97
619.08	1459.59
619.43	1452.04
619.78	1445.06
620.12	1437.94
620.47	1430.38
620.82	1422.26
621.16	1414.84
621.51	1407.33
621.85	1399.67
622.20	1391.12
622.55	1382.88
622.89	1375.12
623.24	1367.54
623.59	1360.16
623.93	1352.53
624.28	1345.30
624.62	1337.61
624.97	1330.39
625.32	1323.74
625.66	1316.68
626.01	1309.46
626.35	1301.97
626.70	1294.22
627.04	1286.42
627.39	1278.63
627.73	1271.23
628.08	1264.26
628.43	1256.83
628.77	1249.39
629.12	1241.78
629.46	1234.68
629.81	1227.31
630.15	1220.05
630.50	1212.62
630.84	1204.38
631.19	1196.49
631.53	1189.05
631.88	1181.55
632.22	1173.98
632.57	1166.56
632.91	1159.09
633.26	1151.68
633.60	1144.35
633.95	1137.17
634.29	1130.16
634.64	1123.44
634.98	1116.05
635.32	1108.85
635.67	1102.41
636.01	1095.82
636.36	1089.07
636.70	1082.62
637.05	1076.07
637.39	1069.67
637.73	1063.12
638.08	1057.21
638.42	1051.17
638.77	1044.61
639.11	1038.04
639.45	1031.74
639.80	1025.14
640.14	1018.63
640.49	1012.10
640.83	1005.76
641.17	999.55
641.52	993.25
641.86	986.84
642.20	981.02
642.55	974.82
642.89	968.21
643.23	961.71
643.58	955.98
643.92	949.73
644.26	943.56
644.61	937.56
644.95	931.56
645.29	924.95
645.64	918.26
645.98	912.03
646.32	906.21
646.66	900.14
647.01	894.35
647.35	888.73
647.69	882.92
648.04	877.42
648.38	871.62
648.72	865.63
649.06	859.62
649.41	853.71
649.75	847.75
650.09	841.91
650.43	836.06
650.78	829.89
651.12	823.92
651.46	818.28
651.80	812.42
652.14	807.08
652.49	801.71
652.83	796.59
653.17	790.81
653.51	785.04
653.85	779.74
654.20	774.06
654.54	768.02
654.88	762.25
655.22	756.34
655.56	750.70
655.90	745.22
656.25	739.94
656.59	734.60
656.93	729.50
657.27	724.29
657.61	718.91
657.95	713.81
658.29	708.81
658.64	703.59
658.98	698.41
659.32	692.96
659.66	687.78
660.00	682.40
660.34	677.47
660.68	672.64
661.02	667.56
661.36	662.88
661.70	658.44
662.05	654.12
662.39	649.79
662.73	645.33
663.07	640.98
663.41	636.56
663.75	632.02
664.09	627.43
664.43	623.08
664.77	618.93
665.11	614.66
665.45	610.50
665.79	606.38
666.13	602.19
666.47	598.08
666.81	593.88
667.15	589.87
667.49	586.03
667.83	582.23
668.17	578.23
668.51	574.12
668.85	570.02
669.19	566.26
669.53	562.42
669.87	558.46
670.21	554.73
670.55	551.08
670.89	547.66
671.23	544.22
671.57	540.67
671.91	537.11
672.25	533.68
672.58	530.13
672.92	526.74
673.26	523.60
673.60	520.42
673.94	517.35
674.28	514.40
674.62	511.40
674.96	508.24
675.30	505.37
675.64	502.45
675.97	499.73
676.31	496.80
676.65	493.84
676.99	491.16
677.33	488.33
677.67	485.54
678.01	482.55
678.34	479.60
678.68	476.71
679.02	473.94
679.36	471.17
679.70	468.48
680.04	465.71
680.37	462.80
680.71	460.03
681.05	457.44
681.39	454.69
681.73	452.07
682.06	449.53
682.40	446.96
682.74	444.44
683.08	441.88
683.42	439.32
683.75	436.83
684.09	434.30
684.43	431.85
684.77	429.32
685.10	426.95
685.44	424.67
685.78	422.42
686.12	420.14
686.45	417.82
686.79	415.51
687.13	413.32
687.46	411.20
687.80	409.06
688.14	406.87
688.48	404.83
688.81	402.57
689.15	400.43
689.49	398.35
689.82	396.31
690.16	394.28
690.50	392.32
690.83	390.44
691.17	388.51
691.51	386.63
691.84	384.82
692.18	382.96
692.52	380.96
692.85	379.06
693.19	377.19
693.52	375.36
693.86	373.60
694.20	371.83
694.53	370.06
694.87	368.30
695.21	366.52
695.54	364.76
695.88	363.06
696.21	361.38
696.55	359.74
696.88	358.03
697.22	356.38
697.56	354.75
697.89	353.08
698.23	351.47
698.56	349.82
698.90	348.20
699.23	346.53
699.57	345.00
699.90	343.44
700.24	341.91
700.58	340.41
700.91	338.88
701.25	337.46
701.58	336.07
701.92	334.66
702.25	333.30
702.59	331.88
702.92	330.58
703.26	329.28
703.59	328.01
703.93	326.83
704.26	325.60
704.60	324.32
704.93	323.05
705.26	321.77
705.60	320.62
705.93	319.45
706.27	318.43
706.60	317.39
706.94	316.36
707.27	315.22
707.61	314.17
707.94	313.17
708.27	312.07
708.61	310.99
708.94	310.00
709.28	308.98
709.61	308.06
709.94	307.14
710.28	306.09
710.61	305.07
710.95	304.01
711.28	303.08
711.61	302.11
711.95	301.20
712.28	300.23
712.61	299.27
712.95	298.38
713.28	297.48
713.61	296.58
713.95	295.63
714.28	294.79
714.61	293.91
714.95	293.08
715.28	292.23
715.61	291.34
715.95	290.46
716.28	289.60
716.61	288.74
716.95	287.89
717.28	287.12
717.61	286.36
717.94	285.62
718.28	284.80
718.61	284.11
718.94	283.42
719.27	282.77
719.61	282.10
719.94	281.42
720.27	280.68
720.60	279.99
720.94	279.34
721.27	278.73
721.60	278.13
721.93	277.46
722.27	276.92
722.60	276.36
722.93	275.78
723.26	275.29
723.59	274.72
723.93	274.16
724.26	273.64
724.59	273.07
724.92	272.53
725.25	272.05
725.59	271.48
725.92	270.96
726.25	270.49
726.58	269.99
726.91	269.50
727.24	269.05
727.57	268.58
727.91	268.12
728.24	267.69
728.57	267.21
728.90	266.78
729.23	266.28
729.56	265.86
729.89	265.41
730.22	264.90
730.55	264.45
730.89	263.99
731.22	263.59
731.55	263.18
731.88	262.78
732.21	262.35
732.54	261.94
732.87	261.49
733.20	261.10
733.53	260.73
733.86	260.37
734.19	260.00
734.52	259.66
734.85	259.33
735.18	258.93
735.51	258.62
735.84	258.27
736.17	257.94
736.50	257.52
736.83	257.30
737.16	256.95
737.49	256.64
737.82	256.33
738.15	255.97
738.48	255.62
738.81	255.32
739.14	254.99
739.47	254.68
739.80	254.41
740.13	254.13
740.46	253.81
740.79	253.47
741.12	253.18
741.45	252.89
741.78	252.55
742.11	252.30
742.44	251.94
742.77	251.66
743.10	251.33
743.43	251.06
743.75	250.70
744.08	250.58
744.41	250.32
744.74	250.05
745.07	249.76
745.40	249.52
745.73	249.29
746.06	249.01
746.39	248.75
746.71	248.44
747.04	248.13
747.37	247.89
747.70	247.68
748.03	247.41
748.36	247.15
748.68	246.91
749.01	246.64
749.34	246.39
749.67	246.17
750.00	245.96
750.33	245.81
750.65	245.57
750.98	245.23
751.31	244.95
751.64	244.72
751.97	244.55
752.29	244.31
752.62	244.01
752.95	243.80
753.28	243.58
753.60	243.38
753.93	243.19
754.26	242.98
754.59	242.70
754.91	242.49
755.24	242.27
755.57	242.07
755.90	241.88
756.22	241.67
756.55	241.47
756.88	241.23
757.20	240.96
757.53	240.75
757.86	240.53
758.19	240.37
758.51	240.19
758.84	239.97
759.17	239.78
759.49	239.64
759.82	239.51
760.15	239.35
760.47	239.19
760.80	239.01
761.13	238.86
761.45	238.70
761.78	238.57
762.11	238.48
762.43	238.32
762.76	238.15
763.08	238.04
763.41	237.86
763.74	237.77
764.06	237.63
764.39	237.48
764.71	237.32
765.04	237.20
765.37	237.08
765.69	236.92
766.02	236.79
766.34	236.67
766.67	236.49
767.00	236.39
767.32	236.33
767.65	236.27
767.97	236.16
768.30	236.06
768.62	235.90
768.95	235.74
769.27	235.64
769.60	235.54
769.92	235.39
770.25	235.31
770.57	235.19
770.90	235.10
771.22	235.00
771.55	234.95
771.87	234.84
772.20	234.72
772.52	234.74
772.85	234.79
773.17	234.70
773.50	234.61
773.82	234.52
774.15	234.39
774.47	234.29
774.80	234.18
775.12	234.11
775.45	234.05
775.77	233.97
776.09	233.89
776.42	233.86
776.74	233.84
777.07	233.74
777.39	233.69
777.72	233.64
778.04	233.63
778.36	233.57
778.69	233.54
779.01	233.55
779.33	233.42
779.66	233.26
779.98	233.19
780.31	233.18
780.63	233.17
780.95	233.13
781.28	233.06
781.60	233.00
781.92	232.94
782.25	232.93
782.57	232.89
782.89	232.84
783.22	232.79
783.54	232.73
783.86	232.69
784.19	232.64
784.51	232.59
784.83	232.51
785.16	232.46
785.48	232.39
785.80	232.32
786.12	232.26
786.45	232.21
786.77	232.19
787.09	232.13
