SpectraSuite Data File
++++++++++++++++++++++++++++++++++++
Date: Fri Feb 01 16:13:59 EST 2013
User: group
Dark Spectrum Present: No
Reference Spectrum Present: No
Number of Sampled Component Spectra: 1
Spectrometers: USB2E7196
Integration Time (usec): 35000 (USB2E7196)
Spectra Averaged: 100 (USB2E7196)
Boxcar Smoothing: 10 (USB2E7196)
Correct for Electrical Dark: No (USB2E7196)
Strobe/Lamp Enabled: No (USB2E7196)
Correct for Detector Non-linearity: No (USB2E7196)
Correct for Stray Light: No (USB2E7196)
Number of Pixels in Processed Spectrum: 2048
>>>>>Begin Processed Spectral Data<<<<<
339.09	0.00
339.48	214.61
339.86	215.75
340.24	216.90
340.63	218.65
341.01	221.38
341.39	221.19
341.78	221.85
342.16	224.22
342.54	224.24
342.93	212.62
343.31	223.37
343.69	223.89
344.07	224.35
344.46	224.76
344.84	225.12
345.22	225.36
345.60	225.62
345.99	225.81
346.37	225.92
346.75	226.02
347.13	226.08
347.52	226.13
347.90	226.20
348.28	226.24
348.66	226.31
349.05	226.32
349.43	226.35
349.81	226.41
350.19	226.43
350.57	226.52
350.96	226.61
351.34	226.67
351.72	226.75
352.10	226.86
352.48	226.94
352.87	227.01
353.25	227.06
353.63	227.14
354.01	227.22
354.39	227.26
354.77	227.31
355.15	227.41
355.54	227.44
355.92	227.45
356.30	227.51
356.68	227.64
357.06	227.69
357.44	227.73
357.82	227.74
358.20	227.80
358.58	227.85
358.97	227.92
359.35	228.02
359.73	228.11
360.11	228.14
360.49	228.21
360.87	228.25
361.25	228.30
361.63	228.35
362.01	228.40
362.39	228.48
362.77	228.54
363.15	228.57
363.53	228.65
363.91	228.70
364.29	228.75
364.67	228.67
365.05	228.69
365.43	228.69
365.81	228.72
366.19	228.78
366.57	228.82
366.95	228.83
367.33	228.80
367.71	228.78
368.09	228.80
368.47	228.78
368.85	228.76
369.23	228.76
369.61	228.69
369.99	228.71
370.37	228.68
370.75	228.70
371.13	228.64
371.51	228.57
371.89	228.54
372.27	228.48
372.65	228.46
373.03	228.41
373.41	228.40
373.78	228.34
374.16	228.24
374.54	228.16
374.92	228.07
375.30	228.02
375.68	227.96
376.06	227.93
376.44	227.86
376.82	227.81
377.19	227.75
377.57	227.71
377.95	227.58
378.33	227.53
378.71	227.35
379.09	227.32
379.47	227.27
379.84	227.20
380.22	227.14
380.60	227.04
380.98	226.97
381.36	226.91
381.73	226.84
382.11	226.81
382.49	226.73
382.87	226.63
383.25	226.55
383.62	226.61
384.00	226.52
384.38	226.47
384.76	226.44
385.13	226.41
385.51	226.36
385.89	226.28
386.27	226.21
386.64	226.22
387.02	226.17
387.40	226.12
387.78	226.10
388.15	226.06
388.53	226.05
388.91	226.02
389.29	225.94
389.66	225.95
390.04	225.89
390.42	225.88
390.79	225.90
391.17	225.89
391.55	225.74
391.92	225.72
392.30	225.72
392.68	225.67
393.05	225.66
393.43	225.65
393.81	225.69
394.18	225.69
394.56	225.72
394.94	225.75
395.31	225.74
395.69	225.78
396.06	225.81
396.44	225.85
396.82	225.86
397.19	225.96
397.57	226.00
397.95	226.08
398.32	226.12
398.70	226.17
399.07	226.23
399.45	226.29
399.82	226.34
400.20	226.42
400.58	226.52
400.95	226.60
401.33	226.73
401.70	226.88
402.08	226.98
402.45	227.05
402.83	227.16
403.20	227.33
403.58	227.41
403.95	227.53
404.33	227.62
404.71	227.74
405.08	227.94
405.46	228.08
405.83	228.22
406.21	228.34
406.58	228.54
406.96	228.73
407.33	228.93
407.70	229.15
408.08	229.39
408.45	229.59
408.83	229.80
409.20	229.99
409.58	230.18
409.95	230.41
410.33	230.69
410.70	230.94
411.08	231.18
411.45	231.49
411.82	231.80
412.20	232.15
412.57	232.60
412.95	232.89
413.32	233.28
413.69	233.68
414.07	234.13
414.44	234.57
414.82	235.03
415.19	235.54
415.56	236.08
415.94	236.63
416.31	237.25
416.68	237.89
417.06	238.61
417.43	239.30
417.81	240.06
418.18	240.85
418.55	241.66
418.93	242.56
419.30	243.44
419.67	244.37
420.04	245.34
420.42	246.31
420.79	247.49
421.16	248.62
421.54	249.81
421.91	251.02
422.28	252.26
422.66	253.60
423.03	254.96
423.40	256.29
423.77	257.66
424.15	259.10
424.52	260.55
424.89	262.14
425.26	263.69
425.64	265.15
426.01	266.74
426.38	268.38
426.75	270.04
427.13	271.77
427.50	273.57
427.87	275.43
428.24	277.27
428.61	278.98
428.99	280.94
429.36	283.02
429.73	285.07
430.10	287.09
430.47	289.15
430.85	291.22
431.22	293.46
431.59	295.84
431.96	298.08
432.33	300.59
432.70	302.92
433.08	305.71
433.45	308.38
433.82	310.98
434.19	313.90
434.56	316.71
434.93	319.35
435.30	321.96
435.68	324.85
436.05	327.70
436.42	330.51
436.79	333.02
437.16	335.69
437.53	338.55
437.90	341.37
438.27	344.08
438.64	346.92
439.01	349.46
439.38	351.67
439.75	353.87
440.13	356.30
440.50	358.65
440.87	360.49
441.24	362.41
441.61	364.56
441.98	366.01
442.35	367.78
442.72	369.61
443.09	371.41
443.46	372.38
443.83	372.94
444.20	373.45
444.57	374.29
444.94	374.56
445.31	374.88
445.68	375.19
446.05	375.28
446.42	374.91
446.79	374.53
447.16	374.07
447.53	373.73
447.90	372.63
448.27	371.44
448.64	369.87
449.01	368.71
449.37	366.75
449.74	364.87
450.11	362.65
450.48	360.21
450.85	357.73
451.22	355.59
451.59	353.61
451.96	351.67
452.33	349.08
452.70	346.74
453.07	343.88
453.43	341.03
453.80	338.27
454.17	335.54
454.54	333.04
454.91	330.35
455.28	327.67
455.65	325.15
456.02	322.72
456.38	320.60
456.75	317.97
457.12	315.73
457.49	313.52
457.86	311.37
458.23	309.52
458.59	307.43
458.96	305.33
459.33	303.45
459.70	301.57
460.07	300.08
460.43	298.40
460.80	296.82
461.17	295.37
461.54	293.87
461.91	292.48
462.27	291.03
462.64	289.77
463.01	288.40
463.38	287.10
463.74	285.78
464.11	284.57
464.48	283.51
464.85	282.40
465.21	281.53
465.58	280.60
465.95	279.54
466.32	278.67
466.68	277.86
467.05	276.98
467.42	276.08
467.78	275.13
468.15	274.25
468.52	273.58
468.88	272.72
469.25	271.96
469.62	271.33
469.98	270.64
470.35	270.02
470.72	269.42
471.08	268.76
471.45	268.23
471.82	267.70
472.18	267.11
472.55	266.68
472.92	266.15
473.28	265.70
473.65	265.20
474.02	264.74
474.38	264.33
474.75	263.99
475.11	263.68
475.48	263.38
475.85	263.18
476.21	262.95
476.58	262.76
476.94	262.59
477.31	262.43
477.67	262.30
478.04	262.20
478.41	262.19
478.77	262.26
479.14	262.19
479.50	262.18
479.87	262.26
480.23	262.33
480.60	262.39
480.96	262.52
481.33	262.75
481.69	262.99
482.06	263.22
482.42	263.43
482.79	263.67
483.15	264.04
483.52	264.43
483.88	264.79
484.25	265.23
484.61	265.68
484.98	266.14
485.34	266.70
485.71	267.32
486.07	267.90
486.44	268.47
486.80	269.18
487.17	269.95
487.53	270.80
487.90	271.65
488.26	272.61
488.62	273.57
488.99	274.54
489.35	275.58
489.72	276.69
490.08	277.93
490.44	279.20
490.81	280.56
491.17	281.91
491.54	283.38
491.90	284.90
492.26	286.57
492.63	288.31
492.99	290.13
493.36	291.95
493.72	294.04
494.08	296.17
494.45	298.45
494.81	300.80
495.17	303.21
495.54	305.75
495.90	308.46
496.26	311.30
496.63	314.29
496.99	317.40
497.35	320.68
497.72	324.10
498.08	327.60
498.44	331.23
498.80	335.17
499.17	339.23
499.53	343.42
499.89	347.80
500.26	352.33
500.62	357.01
500.98	362.06
501.34	367.16
501.71	372.59
502.07	378.02
502.43	383.71
502.79	389.57
503.16	395.69
503.52	401.96
503.88	408.36
504.24	414.99
504.60	421.91
504.97	429.00
505.33	436.27
505.69	444.00
506.05	451.84
506.41	459.70
506.78	467.86
507.14	476.28
507.50	485.02
507.86	494.02
508.22	503.19
508.59	512.40
508.95	521.96
509.31	531.67
509.67	541.77
510.03	552.05
510.39	562.60
510.75	573.39
511.12	584.29
511.48	595.58
511.84	607.00
512.20	618.48
512.56	630.36
512.92	642.58
513.28	654.92
513.64	667.30
514.00	679.98
514.37	693.00
514.73	706.03
515.09	719.02
515.45	732.30
515.81	745.88
516.17	759.88
516.53	773.94
516.89	788.08
517.25	802.24
517.61	816.62
517.97	831.01
518.33	845.36
518.69	860.13
519.05	874.98
519.41	890.14
519.77	905.64
520.13	921.12
520.49	936.44
520.85	951.82
521.21	967.48
521.57	983.72
521.93	999.34
522.29	1015.76
522.65	1032.04
523.01	1048.18
523.37	1064.17
523.73	1080.16
524.09	1096.17
524.45	1112.40
524.81	1128.96
525.17	1145.63
525.53	1162.45
525.89	1179.39
526.25	1196.20
526.61	1212.53
526.97	1229.22
527.33	1245.67
527.68	1262.19
528.04	1278.64
528.40	1295.06
528.76	1312.16
529.12	1328.76
529.48	1345.56
529.84	1361.44
530.20	1377.93
530.56	1394.88
530.91	1412.18
531.27	1428.91
531.63	1445.38
531.99	1461.97
532.35	1477.93
532.71	1493.80
533.07	1510.01
533.42	1525.76
533.78	1541.73
534.14	1557.98
534.50	1573.20
534.86	1589.00
535.21	1604.14
535.57	1619.96
535.93	1635.39
536.29	1650.14
536.65	1665.00
537.00	1679.75
537.36	1695.03
537.72	1709.50
538.08	1723.77
538.44	1737.48
538.79	1751.34
539.15	1764.92
539.51	1778.55
539.87	1792.87
540.22	1806.60
540.58	1820.19
540.94	1833.37
541.29	1846.06
541.65	1858.74
542.01	1871.79
542.37	1883.88
542.72	1896.15
543.08	1907.90
543.44	1920.36
543.79	1931.46
544.15	1942.50
544.51	1954.08
544.87	1964.87
545.22	1975.74
545.58	1985.88
545.94	1995.72
546.29	2005.53
546.65	2015.37
547.01	2024.61
547.36	2033.11
547.72	2041.54
548.07	2049.56
548.43	2057.79
548.79	2065.68
549.14	2073.23
549.50	2080.74
549.86	2088.54
550.21	2095.97
550.57	2103.01
550.92	2109.65
551.28	2116.79
551.64	2123.80
551.99	2130.18
552.35	2136.37
552.70	2142.38
553.06	2148.46
553.41	2154.69
553.77	2160.64
554.13	2166.58
554.48	2172.66
554.84	2178.16
555.19	2183.25
555.55	2188.29
555.90	2192.81
556.26	2197.90
556.61	2202.46
556.97	2206.79
557.32	2210.91
557.68	2214.98
558.03	2219.20
558.39	2222.67
558.74	2227.21
559.10	2230.99
559.45	2234.62
559.81	2238.75
560.16	2242.55
560.52	2245.74
560.87	2249.23
561.23	2251.87
561.58	2254.79
561.94	2257.24
562.29	2259.65
562.64	2262.42
563.00	2265.06
563.35	2268.48
563.71	2271.62
564.06	2274.84
564.42	2277.54
564.77	2280.12
565.12	2282.57
565.48	2284.75
565.83	2286.65
566.19	2288.02
566.54	2288.92
566.89	2290.00
567.25	2290.82
567.60	2292.11
567.96	2293.86
568.31	2294.59
568.66	2295.80
569.02	2296.53
569.37	2297.05
569.72	2298.00
570.08	2298.29
570.43	2298.31
570.78	2297.80
571.14	2296.19
571.49	2294.85
571.84	2294.62
572.20	2293.52
572.55	2292.33
572.90	2290.55
573.26	2289.31
573.61	2287.47
573.96	2285.88
574.31	2283.06
574.67	2280.08
575.02	2276.49
575.37	2273.17
575.72	2269.52
576.08	2266.02
576.43	2262.59
576.78	2258.86
577.13	2255.69
577.49	2252.55
577.84	2249.10
578.19	2245.30
578.54	2241.77
578.90	2237.72
579.25	2232.14
579.60	2227.27
579.95	2222.42
580.30	2217.42
580.66	2212.16
581.01	2207.24
581.36	2202.24
581.71	2198.19
582.06	2193.83
582.42	2189.47
582.77	2184.29
583.12	2179.79
583.47	2175.33
583.82	2170.51
584.17	2165.34
584.53	2159.65
584.88	2153.94
585.23	2148.17
585.58	2142.72
585.93	2137.30
586.28	2132.43
586.63	2127.60
586.98	2122.54
587.34	2117.78
587.69	2113.02
588.04	2107.90
588.39	2102.29
588.74	2095.90
589.09	2089.77
589.44	2083.00
589.79	2076.96
590.14	2071.26
590.49	2064.70
590.84	2058.16
591.19	2052.16
591.54	2045.62
591.89	2038.57
592.25	2031.94
592.60	2024.88
592.95	2017.50
593.30	2010.18
593.65	2002.49
594.00	1995.30
594.35	1987.91
594.70	1979.85
595.05	1972.73
595.40	1965.43
595.75	1957.94
596.10	1951.82
596.45	1945.08
596.80	1938.94
597.15	1932.43
597.50	1925.55
597.85	1918.95
598.19	1912.55
598.54	1905.51
598.89	1899.00
599.24	1892.98
599.59	1886.40
599.94	1880.06
600.29	1873.64
600.64	1866.94
600.99	1859.67
601.34	1852.90
601.69	1846.05
602.04	1839.22
602.39	1831.99
602.74	1825.25
603.08	1818.57
603.43	1811.80
603.78	1804.44
604.13	1797.21
604.48	1790.11
604.83	1783.14
605.18	1776.35
605.53	1768.31
605.87	1760.23
606.22	1752.99
606.57	1745.08
606.92	1737.72
607.27	1730.68
607.62	1723.93
607.96	1716.96
608.31	1710.61
608.66	1703.03
609.01	1695.57
609.36	1688.06
609.70	1679.95
610.05	1672.00
610.40	1664.43
610.75	1656.10
611.10	1648.62
611.44	1640.19
611.79	1632.00
612.14	1623.37
612.49	1614.21
612.83	1605.76
613.18	1597.73
613.53	1589.69
613.88	1581.22
614.22	1572.99
614.57	1564.34
614.92	1556.21
615.27	1548.56
615.61	1540.05
615.96	1532.00
616.31	1524.29
616.65	1516.91
617.00	1509.37
617.35	1501.66
617.70	1493.36
618.04	1484.96
618.39	1476.59
618.74	1469.04
619.08	1460.67
619.43	1453.17
619.78	1446.22
620.12	1439.25
620.47	1431.82
620.82	1423.57
621.16	1416.04
621.51	1408.25
621.85	1400.64
622.20	1392.13
622.55	1383.68
622.89	1375.95
623.24	1368.37
623.59	1360.93
623.93	1353.42
624.28	1346.17
624.62	1338.71
624.97	1331.48
625.32	1324.48
625.66	1317.38
626.01	1310.22
626.35	1302.93
626.70	1295.10
627.04	1287.48
627.39	1279.55
627.73	1272.04
628.08	1265.16
628.43	1257.96
628.77	1250.65
629.12	1243.12
629.46	1236.03
629.81	1228.55
630.15	1221.20
630.50	1213.73
630.84	1205.62
631.19	1197.60
631.53	1190.04
631.88	1182.38
632.22	1174.75
632.57	1167.52
632.91	1160.12
633.26	1152.73
633.60	1145.14
633.95	1137.97
634.29	1130.81
634.64	1124.10
634.98	1116.71
635.32	1109.59
635.67	1102.84
636.01	1096.27
636.36	1089.47
636.70	1082.81
637.05	1076.27
637.39	1069.80
637.73	1063.42
638.08	1057.59
638.42	1051.63
638.77	1045.26
639.11	1038.75
639.45	1032.36
639.80	1025.74
640.14	1019.25
640.49	1012.76
640.83	1006.58
641.17	1000.48
641.52	994.17
641.86	987.70
642.20	981.87
642.55	975.50
642.89	969.16
643.23	962.56
643.58	956.83
643.92	950.79
644.26	944.82
644.61	938.69
644.95	932.62
645.29	925.88
645.64	919.14
645.98	912.76
646.32	906.77
646.66	900.76
647.01	894.96
647.35	889.29
647.69	883.36
648.04	877.83
648.38	871.89
648.72	865.93
649.06	859.96
649.41	853.98
649.75	848.06
650.09	842.07
650.43	836.34
650.78	830.17
651.12	824.15
651.46	818.44
651.80	812.80
652.14	807.41
652.49	802.09
652.83	796.92
653.17	791.29
653.51	785.62
653.85	780.11
654.20	774.51
654.54	768.51
654.88	762.72
655.22	756.77
655.56	751.14
655.90	745.62
656.25	740.36
656.59	735.02
656.93	729.91
657.27	724.72
657.61	719.22
657.95	714.08
658.29	708.93
658.64	703.62
658.98	698.28
659.32	692.78
659.66	687.62
660.00	682.29
660.34	677.31
660.68	672.44
661.02	667.49
661.36	662.79
661.70	658.32
662.05	654.09
662.39	649.87
662.73	645.38
663.07	641.08
663.41	636.62
663.75	632.20
664.09	627.58
664.43	623.20
664.77	619.13
665.11	614.92
665.45	610.83
665.79	606.80
666.13	602.69
666.47	598.61
666.81	594.48
667.15	590.38
667.49	586.46
667.83	582.63
668.17	578.69
668.51	574.64
668.85	570.54
669.19	566.64
669.53	562.76
669.87	558.93
670.21	555.18
670.55	551.50
670.89	548.05
671.23	544.65
671.57	541.14
671.91	537.57
672.25	534.04
672.58	530.48
672.92	527.04
673.26	523.91
673.60	520.74
673.94	517.63
674.28	514.71
674.62	511.77
674.96	508.67
675.30	505.71
675.64	502.84
675.97	500.09
676.31	497.17
676.65	494.21
676.99	491.48
677.33	488.63
677.67	485.81
678.01	482.74
678.34	479.78
678.68	476.94
679.02	474.23
679.36	471.47
679.70	468.78
680.04	466.03
680.37	463.13
680.71	460.29
681.05	457.58
681.39	454.88
681.73	452.25
682.06	449.71
682.40	447.17
682.74	444.55
683.08	441.99
683.42	439.44
683.75	436.94
684.09	434.37
684.43	431.92
684.77	429.49
685.10	427.18
685.44	424.90
685.78	422.57
686.12	420.17
686.45	417.90
686.79	415.57
687.13	413.34
687.46	411.16
687.80	409.02
688.14	406.87
688.48	404.82
688.81	402.59
689.15	400.45
689.49	398.29
689.82	396.21
690.16	394.11
690.50	392.11
690.83	390.20
691.17	388.21
691.51	386.29
691.84	384.41
692.18	382.43
692.52	380.46
692.85	378.52
693.19	376.70
693.52	374.84
693.86	373.00
694.20	371.21
694.53	369.40
694.87	367.56
695.21	365.75
695.54	363.88
695.88	362.10
696.21	360.35
696.55	358.71
696.88	357.02
697.22	355.39
697.56	353.76
697.89	352.06
698.23	350.47
698.56	348.83
698.90	347.26
699.23	345.63
699.57	344.05
699.90	342.53
700.24	341.00
700.58	339.45
700.91	338.00
701.25	336.58
701.58	335.22
701.92	333.89
702.25	332.55
702.59	331.16
702.92	329.85
703.26	328.50
703.59	327.19
703.93	326.01
704.26	324.77
704.60	323.46
704.93	322.21
705.26	320.99
705.60	319.85
705.93	318.68
706.27	317.68
706.60	316.62
706.94	315.59
707.27	314.43
707.61	313.37
707.94	312.33
708.27	311.24
708.61	310.19
708.94	309.17
709.28	308.16
709.61	307.23
709.94	306.28
710.28	305.33
710.61	304.32
710.95	303.22
711.28	302.29
711.61	301.37
711.95	300.46
712.28	299.53
712.61	298.53
712.95	297.62
713.28	296.71
713.61	295.83
713.95	294.89
714.28	294.07
714.61	293.23
714.95	292.37
715.28	291.56
715.61	290.69
715.95	289.84
716.28	289.00
716.61	288.17
716.95	287.37
717.28	286.60
717.61	285.86
717.94	285.14
718.28	284.35
718.61	283.61
718.94	282.90
719.27	282.24
719.61	281.58
719.94	280.89
720.27	280.15
720.60	279.45
720.94	278.83
721.27	278.21
721.60	277.61
721.93	277.03
722.27	276.46
722.60	275.89
722.93	275.30
723.26	274.78
723.59	274.20
723.93	273.65
724.26	273.11
724.59	272.50
724.92	271.99
725.25	271.46
725.59	270.91
725.92	270.45
726.25	269.92
726.58	269.44
726.91	268.97
727.24	268.50
727.57	268.03
727.91	267.52
728.24	267.06
728.57	266.59
728.90	266.10
729.23	265.59
729.56	265.14
729.89	264.68
730.22	264.17
730.55	263.73
730.89	263.27
731.22	262.83
731.55	262.43
731.88	261.98
732.21	261.55
732.54	261.13
732.87	260.63
733.20	260.25
733.53	259.86
733.86	259.47
734.19	259.12
734.52	258.71
734.85	258.42
735.18	258.00
735.51	257.63
735.84	257.31
736.17	256.95
736.50	256.56
736.83	256.31
737.16	255.99
737.49	255.63
737.82	255.26
738.15	254.91
738.48	254.56
738.81	254.23
739.14	253.90
739.47	253.60
739.80	253.34
740.13	253.02
740.46	252.69
740.79	252.36
741.12	252.03
741.45	251.75
741.78	251.36
742.11	251.08
742.44	250.74
742.77	250.41
743.10	250.14
743.43	249.83
743.75	249.43
744.08	249.25
744.41	248.96
744.74	248.69
745.07	248.41
745.40	248.19
745.73	247.93
746.06	247.69
746.39	247.43
746.71	247.14
747.04	246.84
747.37	246.57
747.70	246.31
748.03	246.07
748.36	245.87
748.68	245.64
749.01	245.39
749.34	245.19
749.67	244.98
750.00	244.76
750.33	244.62
750.65	244.41
750.98	244.10
751.31	243.90
751.64	243.71
751.97	243.57
752.29	243.33
752.62	243.10
752.95	242.90
753.28	242.69
753.60	242.47
753.93	242.32
754.26	242.15
754.59	241.97
754.91	241.77
755.24	241.56
755.57	241.40
755.90	241.25
756.22	241.04
756.55	240.83
756.88	240.64
757.20	240.44
757.53	240.25
757.86	240.12
758.19	239.98
758.51	239.82
758.84	239.58
759.17	239.44
759.49	239.28
759.82	239.15
760.15	239.00
760.47	238.85
760.80	238.64
761.13	238.54
761.45	238.34
761.78	238.18
762.11	238.03
762.43	237.89
762.76	237.74
763.08	237.61
763.41	237.47
763.74	237.33
764.06	237.15
764.39	237.03
764.71	236.85
765.04	236.71
765.37	236.54
765.69	236.43
766.02	236.28
766.34	236.16
766.67	236.02
767.00	235.92
767.32	235.91
767.65	235.88
767.97	235.69
768.30	235.60
768.62	235.47
768.95	235.33
769.27	235.20
769.60	235.13
769.92	235.03
770.25	234.92
770.57	234.78
770.90	234.69
771.22	234.55
771.55	234.46
771.87	234.35
772.20	234.27
772.52	234.26
772.85	234.28
773.17	234.20
773.50	234.09
773.82	233.97
774.15	233.81
774.47	233.67
774.80	233.56
775.12	233.46
775.45	233.40
775.77	233.33
776.09	233.27
776.42	233.15
776.74	233.07
777.07	232.99
777.39	232.91
777.72	232.85
778.04	232.78
778.36	232.70
778.69	232.62
779.01	232.53
779.33	232.38
779.66	232.20
779.98	232.10
780.31	232.03
780.63	232.02
780.95	231.95
781.28	231.85
781.60	231.84
781.92	231.77
782.25	231.70
782.57	231.64
782.89	231.58
783.22	231.50
783.54	231.43
783.86	231.39
784.19	231.32
784.51	231.25
784.83	231.22
785.16	231.17
785.48	231.12
785.80	231.09
786.12	231.04
786.45	230.99
786.77	230.98
787.09	230.93
