SpectraSuite Data File
++++++++++++++++++++++++++++++++++++
Date: Fri Feb 01 14:54:29 EST 2013
User: group
Dark Spectrum Present: No
Reference Spectrum Present: No
Number of Sampled Component Spectra: 1
Spectrometers: USB2E7196
Integration Time (usec): 35000 (USB2E7196)
Spectra Averaged: 100 (USB2E7196)
Boxcar Smoothing: 10 (USB2E7196)
Correct for Electrical Dark: No (USB2E7196)
Strobe/Lamp Enabled: No (USB2E7196)
Correct for Detector Non-linearity: No (USB2E7196)
Correct for Stray Light: No (USB2E7196)
Number of Pixels in Processed Spectrum: 2048
>>>>>Begin Processed Spectral Data<<<<<
339.09	0.00
339.48	215.30
339.86	216.17
340.24	218.52
340.63	219.55
341.01	222.08
341.39	222.17
341.78	223.39
342.16	224.43
342.54	225.38
342.93	213.58
343.31	224.37
343.69	224.90
344.07	225.38
344.46	225.79
344.84	226.15
345.22	226.36
345.60	226.59
345.99	226.80
346.37	226.90
346.75	227.00
347.13	227.06
347.52	227.08
347.90	227.13
348.28	227.15
348.66	227.20
349.05	227.18
349.43	227.18
349.81	227.22
350.19	227.25
350.57	227.25
350.96	227.33
351.34	227.39
351.72	227.50
352.10	227.59
352.48	227.67
352.87	227.76
353.25	227.82
353.63	227.89
354.01	227.94
354.39	228.06
354.77	228.14
355.15	228.25
355.54	228.33
355.92	228.38
356.30	228.47
356.68	228.63
357.06	228.73
357.44	228.81
357.82	228.88
358.20	228.95
358.58	229.01
358.97	229.09
359.35	229.19
359.73	229.26
360.11	229.31
360.49	229.36
360.87	229.38
361.25	229.47
361.63	229.55
362.01	229.62
362.39	229.63
362.77	229.67
363.15	229.67
363.53	229.71
363.91	229.75
364.29	229.76
364.67	229.69
365.05	229.67
365.43	229.69
365.81	229.70
366.19	229.78
366.57	229.85
366.95	229.82
367.33	229.76
367.71	229.75
368.09	229.77
368.47	229.74
368.85	229.70
369.23	229.70
369.61	229.66
369.99	229.65
370.37	229.67
370.75	229.67
371.13	229.61
371.51	229.55
371.89	229.47
372.27	229.41
372.65	229.37
373.03	229.32
373.41	229.28
373.78	229.20
374.16	229.08
374.54	229.01
374.92	228.94
375.30	228.89
375.68	228.80
376.06	228.72
376.44	228.63
376.82	228.57
377.19	228.47
377.57	228.41
377.95	228.30
378.33	228.20
378.71	228.07
379.09	228.03
379.47	227.99
379.84	227.95
380.22	227.88
380.60	227.79
380.98	227.72
381.36	227.62
381.73	227.55
382.11	227.47
382.49	227.36
382.87	227.28
383.25	227.21
383.62	227.23
384.00	227.16
384.38	227.11
384.76	227.10
385.13	227.10
385.51	227.00
385.89	226.91
386.27	226.84
386.64	226.78
387.02	226.72
387.40	226.65
387.78	226.59
388.15	226.55
388.53	226.51
388.91	226.48
389.29	226.46
389.66	226.46
390.04	226.44
390.42	226.46
390.79	226.46
391.17	226.49
391.55	226.39
391.92	226.38
392.30	226.39
392.68	226.34
393.05	226.30
393.43	226.32
393.81	226.36
394.18	226.34
394.56	226.38
394.94	226.44
395.31	226.44
395.69	226.47
396.06	226.53
396.44	226.55
396.82	226.57
397.19	226.67
397.57	226.69
397.95	226.77
398.32	226.78
398.70	226.86
399.07	226.91
399.45	227.00
399.82	227.08
400.20	227.14
400.58	227.26
400.95	227.32
401.33	227.45
401.70	227.58
402.08	227.71
402.45	227.82
402.83	227.92
403.20	228.08
403.58	228.23
403.95	228.34
404.33	228.51
404.71	228.65
405.08	228.83
405.46	228.97
405.83	229.11
406.21	229.29
406.58	229.44
406.96	229.62
407.33	229.77
407.70	229.96
408.08	230.24
408.45	230.46
408.83	230.70
409.20	230.90
409.58	231.10
409.95	231.38
410.33	231.66
410.70	231.91
411.08	232.20
411.45	232.49
411.82	232.84
412.20	233.18
412.57	233.60
412.95	233.89
413.32	234.31
413.69	234.71
414.07	235.16
414.44	235.62
414.82	236.11
415.19	236.67
415.56	237.25
415.94	237.79
416.31	238.42
416.68	239.06
417.06	239.78
417.43	240.49
417.81	241.27
418.18	242.05
418.55	242.87
418.93	243.74
419.30	244.66
419.67	245.55
420.04	246.50
420.42	247.48
420.79	248.69
421.16	249.86
421.54	251.05
421.91	252.24
422.28	253.52
422.66	254.84
423.03	256.12
423.40	257.43
423.77	258.86
424.15	260.26
424.52	261.76
424.89	263.39
425.26	264.94
425.64	266.37
426.01	267.96
426.38	269.66
426.75	271.31
427.13	273.02
427.50	274.87
427.87	276.76
428.24	278.62
428.61	280.36
428.99	282.30
429.36	284.41
429.73	286.50
430.10	288.55
430.47	290.61
430.85	292.78
431.22	295.01
431.59	297.40
431.96	299.70
432.33	302.19
432.70	304.58
433.08	307.36
433.45	310.05
433.82	312.65
434.19	315.53
434.56	318.40
434.93	321.08
435.30	323.70
435.68	326.58
436.05	329.46
436.42	332.22
436.79	334.74
437.16	337.45
437.53	340.30
437.90	343.09
438.27	345.86
438.64	348.69
439.01	351.32
439.38	353.53
439.75	355.62
440.13	358.15
440.50	360.44
440.87	362.31
441.24	364.22
441.61	366.36
441.98	367.84
442.35	369.61
442.72	371.45
443.09	373.23
443.46	374.26
443.83	374.81
444.20	375.37
444.57	376.23
444.94	376.53
445.31	376.81
445.68	377.14
446.05	377.19
446.42	376.84
446.79	376.38
447.16	375.95
447.53	375.64
447.90	374.43
448.27	373.26
448.64	371.66
449.01	370.50
449.37	368.54
449.74	366.69
450.11	364.46
450.48	361.98
450.85	359.43
451.22	357.26
451.59	355.27
451.96	353.29
452.33	350.65
452.70	348.28
453.07	345.51
453.43	342.61
453.80	339.87
454.17	337.16
454.54	334.63
454.91	331.91
455.28	329.23
455.65	326.74
456.02	324.31
456.38	322.20
456.75	319.54
457.12	317.33
457.49	315.03
457.86	312.83
458.23	310.97
458.59	308.93
458.96	306.86
459.33	304.95
459.70	303.12
460.07	301.59
460.43	299.81
460.80	298.13
461.17	296.69
461.54	295.16
461.91	293.72
462.27	292.24
462.64	291.00
463.01	289.67
463.38	288.38
463.74	287.04
464.11	285.84
464.48	284.81
464.85	283.66
465.21	282.83
465.58	281.90
465.95	280.80
466.32	279.89
466.68	278.98
467.05	278.07
467.42	277.16
467.78	276.24
468.15	275.40
468.52	274.76
468.88	273.91
469.25	273.14
469.62	272.51
469.98	271.84
470.35	271.20
470.72	270.59
471.08	269.92
471.45	269.33
471.82	268.79
472.18	268.18
472.55	267.73
472.92	267.19
473.28	266.72
473.65	266.28
474.02	265.84
474.38	265.44
474.75	265.15
475.11	264.78
475.48	264.50
475.85	264.26
476.21	263.98
476.58	263.79
476.94	263.60
477.31	263.43
477.67	263.25
478.04	263.15
478.41	263.08
478.77	263.11
479.14	263.06
479.50	263.04
479.87	263.11
480.23	263.20
480.60	263.25
480.96	263.34
481.33	263.48
481.69	263.67
482.06	263.86
482.42	264.02
482.79	264.28
483.15	264.58
483.52	264.95
483.88	265.31
484.25	265.66
484.61	266.07
484.98	266.52
485.34	267.05
485.71	267.59
486.07	268.17
486.44	268.73
486.80	269.41
487.17	270.11
487.53	270.86
487.90	271.67
488.26	272.59
488.62	273.55
488.99	274.53
489.35	275.55
489.72	276.61
490.08	277.77
490.44	278.99
490.81	280.28
491.17	281.60
491.54	283.06
491.90	284.60
492.26	286.24
492.63	287.93
492.99	289.72
493.36	291.60
493.72	293.62
494.08	295.71
494.45	297.92
494.81	300.27
495.17	302.69
495.54	305.22
495.90	307.86
496.26	310.65
496.63	313.57
496.99	316.65
497.35	319.89
497.72	323.30
498.08	326.79
498.44	330.43
498.80	334.32
499.17	338.33
499.53	342.50
499.89	346.86
500.26	351.32
500.62	355.94
500.98	360.89
501.34	365.92
501.71	371.20
502.07	376.59
502.43	382.23
502.79	388.10
503.16	394.18
503.52	400.42
503.88	406.80
504.24	413.42
504.60	420.31
504.97	427.41
505.33	434.71
505.69	442.37
506.05	450.12
506.41	458.08
506.78	466.20
507.14	474.61
507.50	483.31
507.86	492.35
508.22	501.55
508.59	510.73
508.95	520.31
509.31	530.07
509.67	540.26
510.03	550.44
510.39	560.96
510.75	571.71
511.12	582.67
511.48	593.97
511.84	605.43
512.20	616.96
512.56	628.98
512.92	641.24
513.28	653.58
513.64	666.08
514.00	678.71
514.37	691.62
514.73	704.65
515.09	717.65
515.45	730.89
515.81	744.45
516.17	758.50
516.53	772.58
516.89	786.80
517.25	800.91
517.61	815.38
517.97	829.82
518.33	844.25
518.69	859.04
519.05	874.03
519.41	889.25
519.77	904.78
520.13	920.28
520.49	935.61
520.85	951.09
521.21	966.83
521.57	983.17
521.93	999.05
522.29	1015.48
522.65	1031.79
523.01	1048.08
523.37	1064.24
523.73	1080.46
524.09	1096.69
524.45	1113.07
524.81	1129.70
525.17	1146.63
525.53	1163.45
525.89	1180.42
526.25	1197.30
526.61	1213.78
526.97	1230.64
527.33	1247.20
527.68	1263.78
528.04	1280.39
528.40	1297.12
528.76	1314.22
529.12	1330.82
529.48	1347.70
529.84	1363.86
530.20	1380.62
530.56	1397.68
530.91	1415.04
531.27	1431.88
531.63	1448.45
531.99	1465.16
532.35	1481.21
532.71	1497.10
533.07	1513.59
533.42	1529.59
533.78	1545.67
534.14	1561.93
534.50	1577.29
534.86	1593.17
535.21	1608.37
535.57	1624.40
535.93	1639.98
536.29	1654.96
536.65	1670.20
537.00	1685.14
537.36	1700.56
537.72	1715.20
538.08	1729.77
538.44	1743.75
538.79	1757.77
539.15	1771.50
539.51	1785.27
539.87	1799.70
540.22	1813.63
540.58	1827.48
540.94	1840.90
541.29	1854.00
541.65	1866.88
542.01	1880.26
542.37	1892.74
542.72	1905.42
543.08	1917.26
543.44	1929.60
543.79	1940.90
544.15	1951.92
544.51	1963.45
544.87	1974.39
545.22	1985.18
545.58	1995.35
545.94	2005.17
546.29	2015.02
546.65	2024.93
547.01	2034.19
547.36	2043.05
547.72	2051.42
548.07	2059.32
548.43	2067.58
548.79	2075.54
549.14	2082.98
549.50	2090.27
549.86	2097.97
550.21	2105.27
550.57	2112.45
550.92	2118.97
551.28	2126.02
551.64	2133.02
551.99	2139.67
552.35	2145.85
552.70	2151.87
553.06	2157.84
553.41	2164.09
553.77	2170.04
554.13	2176.06
554.48	2182.23
554.84	2187.51
555.19	2192.77
555.55	2197.78
555.90	2201.98
556.26	2206.70
556.61	2211.33
556.97	2215.48
557.32	2219.56
557.68	2223.49
558.03	2227.69
558.39	2231.51
558.74	2236.07
559.10	2239.91
559.45	2243.30
559.81	2247.35
560.16	2251.13
560.52	2254.28
560.87	2257.65
561.23	2260.20
561.58	2263.00
561.94	2265.31
562.29	2267.72
562.64	2270.41
563.00	2272.91
563.35	2276.39
563.71	2279.46
564.06	2282.75
564.42	2285.45
564.77	2287.74
565.12	2289.89
565.48	2291.63
565.83	2293.23
566.19	2294.29
566.54	2294.95
566.89	2295.97
567.25	2296.59
567.60	2297.81
567.96	2299.38
568.31	2300.05
568.66	2300.83
569.02	2301.15
569.37	2301.34
569.72	2301.98
570.08	2301.78
570.43	2301.69
570.78	2300.95
571.14	2299.30
571.49	2297.68
571.84	2297.12
572.20	2295.68
572.55	2294.39
572.90	2292.51
573.26	2290.81
573.61	2288.94
573.96	2286.88
574.31	2283.76
574.67	2280.51
575.02	2276.74
575.37	2273.13
575.72	2269.08
576.08	2265.66
576.43	2262.30
576.78	2258.36
577.13	2255.03
577.49	2251.81
577.84	2248.13
578.19	2244.37
578.54	2240.40
578.90	2235.98
579.25	2230.48
579.60	2225.47
579.95	2220.33
580.30	2215.25
580.66	2210.01
581.01	2204.91
581.36	2199.95
581.71	2195.71
582.06	2191.06
582.42	2186.36
582.77	2180.87
583.12	2176.15
583.47	2171.12
583.82	2165.80
584.17	2160.53
584.53	2154.89
584.88	2149.20
585.23	2143.20
585.58	2137.55
585.93	2132.17
586.28	2127.37
586.63	2121.96
586.98	2116.80
587.34	2111.97
587.69	2106.83
588.04	2101.41
588.39	2095.53
588.74	2088.95
589.09	2082.55
589.44	2075.60
589.79	2069.53
590.14	2063.86
590.49	2057.22
590.84	2050.74
591.19	2044.66
591.54	2038.00
591.89	2030.25
592.25	2023.27
592.60	2016.12
592.95	2008.30
593.30	2000.77
593.65	1992.92
594.00	1985.72
594.35	1978.34
594.70	1970.22
595.05	1962.96
595.40	1955.70
595.75	1948.16
596.10	1941.69
596.45	1934.89
596.80	1928.69
597.15	1921.81
597.50	1914.53
597.85	1908.06
598.19	1901.55
598.54	1894.35
598.89	1887.73
599.24	1882.00
599.59	1875.22
599.94	1868.84
600.29	1862.55
600.64	1855.94
600.99	1848.40
601.34	1841.61
601.69	1834.49
602.04	1827.63
602.39	1820.25
602.74	1813.45
603.08	1806.79
603.43	1800.17
603.78	1792.95
604.13	1785.67
604.48	1778.43
604.83	1771.71
605.18	1764.51
605.53	1756.41
605.87	1748.43
606.22	1741.15
606.57	1733.24
606.92	1725.92
607.27	1718.72
607.62	1711.76
607.96	1704.49
608.31	1697.97
608.66	1690.37
609.01	1682.94
609.36	1675.23
609.70	1667.28
610.05	1659.11
610.40	1651.43
610.75	1643.16
611.10	1635.46
611.44	1627.22
611.79	1619.19
612.14	1610.45
612.49	1601.49
612.83	1593.31
613.18	1585.24
613.53	1577.18
613.88	1568.65
614.22	1560.54
614.57	1552.03
614.92	1544.07
615.27	1536.52
615.61	1528.25
615.96	1520.36
616.31	1512.77
616.65	1505.58
617.00	1498.17
617.35	1490.63
617.70	1482.36
618.04	1473.85
618.39	1465.67
618.74	1458.03
619.08	1449.78
619.43	1442.36
619.78	1435.54
620.12	1428.24
620.47	1420.78
620.82	1412.75
621.16	1405.47
621.51	1397.79
621.85	1390.29
622.20	1381.75
622.55	1373.43
622.89	1365.61
623.24	1358.07
623.59	1350.79
623.93	1343.35
624.28	1336.09
624.62	1328.58
624.97	1321.27
625.32	1314.74
625.66	1307.70
626.01	1300.59
626.35	1293.25
626.70	1285.57
627.04	1277.86
627.39	1270.29
627.73	1262.83
628.08	1255.91
628.43	1248.52
628.77	1241.22
629.12	1233.71
629.46	1226.63
629.81	1219.40
630.15	1212.31
630.50	1204.93
630.84	1196.81
631.19	1189.03
631.53	1181.51
631.88	1174.06
632.22	1166.64
632.57	1159.35
632.91	1152.02
633.26	1144.74
633.60	1137.59
633.95	1130.56
634.29	1123.68
634.64	1116.99
634.98	1109.86
635.32	1102.89
635.67	1096.49
636.01	1089.97
636.36	1083.22
636.70	1076.80
637.05	1070.22
637.39	1063.85
637.73	1057.43
638.08	1051.60
638.42	1045.63
638.77	1039.40
639.11	1032.84
639.45	1026.53
639.80	1019.97
640.14	1013.55
640.49	1007.07
640.83	1000.77
641.17	994.58
641.52	988.23
641.86	981.92
642.20	976.17
642.55	969.81
642.89	963.38
643.23	956.90
643.58	951.12
643.92	944.98
644.26	938.98
644.61	932.99
644.95	927.01
645.29	920.43
645.64	913.73
645.98	907.40
646.32	901.65
646.66	895.61
647.01	889.86
647.35	884.26
647.69	878.48
648.04	872.98
648.38	867.19
648.72	861.23
649.06	855.25
649.41	849.38
649.75	843.50
650.09	837.57
650.43	831.80
650.78	825.73
651.12	819.83
651.46	814.06
651.80	808.25
652.14	802.93
652.49	797.63
652.83	792.48
653.17	786.83
653.51	781.08
653.85	775.77
654.20	770.08
654.54	764.09
654.88	758.35
655.22	752.52
655.56	746.90
655.90	741.53
656.25	736.21
656.59	730.88
656.93	725.80
657.27	720.69
657.61	715.32
657.95	710.22
658.29	705.18
658.64	700.03
658.98	694.79
659.32	689.31
659.66	684.14
660.00	678.82
660.34	673.91
660.68	669.09
661.02	664.04
661.36	659.35
661.70	654.83
662.05	650.53
662.39	646.22
662.73	641.77
663.07	637.46
663.41	633.05
663.75	628.56
664.09	624.05
664.43	619.64
664.77	615.56
665.11	611.32
665.45	607.22
665.79	603.15
666.13	599.07
666.47	595.04
666.81	590.87
667.15	586.84
667.49	582.99
667.83	579.17
668.17	575.31
668.51	571.34
668.85	567.30
669.19	563.47
669.53	559.68
669.87	555.83
670.21	552.13
670.55	548.58
670.89	545.20
671.23	541.80
671.57	538.38
671.91	534.86
672.25	531.44
672.58	527.96
672.92	524.60
673.26	521.47
673.60	518.34
673.94	515.31
674.28	512.41
674.62	509.51
674.96	506.43
675.30	503.54
675.64	500.57
675.97	497.90
676.31	495.10
676.65	492.17
676.99	489.55
677.33	486.74
677.67	483.92
678.01	480.90
678.34	477.92
678.68	475.07
679.02	472.30
679.36	469.58
679.70	466.92
680.04	464.20
680.37	461.34
680.71	458.60
681.05	456.04
681.39	453.31
681.73	450.66
682.06	448.14
682.40	445.69
682.74	443.22
683.08	440.71
683.42	438.20
683.75	435.73
684.09	433.19
684.43	430.73
684.77	428.36
685.10	426.08
685.44	423.87
685.78	421.60
686.12	419.39
686.45	417.15
686.79	414.82
687.13	412.72
687.46	410.60
687.80	408.50
688.14	406.35
688.48	404.38
688.81	402.18
689.15	400.10
689.49	397.95
689.82	395.93
690.16	393.89
690.50	391.87
690.83	390.00
691.17	388.10
691.51	386.26
691.84	384.39
692.18	382.45
692.52	380.46
692.85	378.57
693.19	376.68
693.52	374.87
693.86	373.11
694.20	371.29
694.53	369.50
694.87	367.60
695.21	365.80
695.54	364.00
695.88	362.28
696.21	360.51
696.55	358.81
696.88	357.07
697.22	355.37
697.56	353.76
697.89	352.09
698.23	350.41
698.56	348.78
698.90	347.18
699.23	345.52
699.57	343.95
699.90	342.43
700.24	340.90
700.58	339.30
700.91	337.80
701.25	336.38
701.58	334.99
701.92	333.72
702.25	332.34
702.59	331.00
702.92	329.72
703.26	328.46
703.59	327.20
703.93	326.08
704.26	324.86
704.60	323.57
704.93	322.35
705.26	321.16
705.60	320.02
705.93	318.93
706.27	317.93
706.60	316.89
706.94	315.81
707.27	314.70
707.61	313.70
707.94	312.68
708.27	311.58
708.61	310.51
708.94	309.55
709.28	308.59
709.61	307.64
709.94	306.66
710.28	305.66
710.61	304.72
710.95	303.66
711.28	302.79
711.61	301.90
711.95	300.97
712.28	300.01
712.61	299.03
712.95	298.08
713.28	297.22
713.61	296.36
713.95	295.44
714.28	294.62
714.61	293.78
714.95	292.96
715.28	292.14
715.61	291.33
715.95	290.46
716.28	289.57
716.61	288.73
716.95	287.97
717.28	287.28
717.61	286.51
717.94	285.79
718.28	285.04
718.61	284.33
718.94	283.69
719.27	283.08
719.61	282.48
719.94	281.85
720.27	281.13
720.60	280.51
720.94	279.94
721.27	279.38
721.60	278.79
721.93	278.22
722.27	277.71
722.60	277.16
722.93	276.59
723.26	276.13
723.59	275.61
723.93	275.06
724.26	274.50
724.59	273.94
724.92	273.42
725.25	272.88
725.59	272.37
725.92	271.85
726.25	271.35
726.58	270.86
726.91	270.38
727.24	269.94
727.57	269.47
727.91	268.98
728.24	268.52
728.57	268.07
728.90	267.59
729.23	267.07
729.56	266.64
729.89	266.17
730.22	265.64
730.55	265.16
730.89	264.69
731.22	264.25
731.55	263.82
731.88	263.40
732.21	262.97
732.54	262.52
732.87	262.06
733.20	261.64
733.53	261.23
733.86	260.81
734.19	260.41
734.52	260.00
734.85	259.72
735.18	259.28
735.51	258.91
735.84	258.52
736.17	258.17
736.50	257.73
736.83	257.48
737.16	257.15
737.49	256.80
737.82	256.45
738.15	256.08
738.48	255.71
738.81	255.34
739.14	255.00
739.47	254.68
739.80	254.41
740.13	254.11
740.46	253.75
740.79	253.40
741.12	253.05
741.45	252.73
741.78	252.31
742.11	252.04
742.44	251.67
742.77	251.39
743.10	251.09
743.43	250.80
743.75	250.37
744.08	250.22
744.41	249.96
744.74	249.73
745.07	249.46
745.40	249.24
745.73	249.05
746.06	248.77
746.39	248.49
746.71	248.17
747.04	247.90
747.37	247.61
747.70	247.40
748.03	247.16
748.36	246.95
748.68	246.71
749.01	246.45
749.34	246.21
749.67	245.99
750.00	245.74
750.33	245.60
750.65	245.42
750.98	245.08
751.31	244.83
751.64	244.57
751.97	244.42
752.29	244.18
752.62	243.91
752.95	243.71
753.28	243.49
753.60	243.29
753.93	243.10
754.26	242.94
754.59	242.73
754.91	242.49
755.24	242.29
755.57	242.12
755.90	241.95
756.22	241.80
756.55	241.58
756.88	241.40
757.20	241.18
757.53	240.99
757.86	240.82
758.19	240.69
758.51	240.55
758.84	240.36
759.17	240.18
759.49	240.08
759.82	239.99
760.15	239.85
760.47	239.70
760.80	239.55
761.13	239.44
761.45	239.27
761.78	239.16
762.11	239.02
762.43	238.86
762.76	238.74
763.08	238.64
763.41	238.55
763.74	238.45
764.06	238.31
764.39	238.19
764.71	238.09
765.04	237.97
765.37	237.85
765.69	237.75
766.02	237.63
766.34	237.49
766.67	237.32
767.00	237.24
767.32	237.20
767.65	237.15
767.97	237.04
768.30	236.92
768.62	236.85
768.95	236.76
769.27	236.67
769.60	236.57
769.92	236.43
770.25	236.30
770.57	236.19
770.90	236.11
771.22	235.98
771.55	235.89
771.87	235.81
772.20	235.71
772.52	235.68
772.85	235.71
773.17	235.61
773.50	235.54
773.82	235.44
774.15	235.31
774.47	235.16
774.80	235.05
775.12	234.97
775.45	234.88
775.77	234.78
776.09	234.66
776.42	234.57
776.74	234.51
777.07	234.41
777.39	234.30
777.72	234.20
778.04	234.15
778.36	234.06
778.69	233.97
779.01	233.90
779.33	233.75
779.66	233.58
779.98	233.52
780.31	233.42
780.63	233.40
780.95	233.34
781.28	233.24
781.60	233.21
781.92	233.15
782.25	233.04
782.57	232.96
782.89	232.94
783.22	232.88
783.54	232.80
783.86	232.77
784.19	232.70
784.51	232.67
784.83	232.60
785.16	232.50
785.48	232.44
785.80	232.38
786.12	232.34
786.45	232.27
786.77	232.21
787.09	232.15
