SpectraSuite Data File
++++++++++++++++++++++++++++++++++++
Date: Fri Feb 01 15:51:47 EST 2013
User: group
Dark Spectrum Present: No
Reference Spectrum Present: No
Number of Sampled Component Spectra: 1
Spectrometers: USB2E7196
Integration Time (usec): 35000 (USB2E7196)
Spectra Averaged: 100 (USB2E7196)
Boxcar Smoothing: 10 (USB2E7196)
Correct for Electrical Dark: No (USB2E7196)
Strobe/Lamp Enabled: No (USB2E7196)
Correct for Detector Non-linearity: No (USB2E7196)
Correct for Stray Light: No (USB2E7196)
Number of Pixels in Processed Spectrum: 2048
>>>>>Begin Processed Spectral Data<<<<<
339.09	0.00
339.48	214.80
339.86	216.10
340.24	217.41
340.63	219.31
341.01	222.13
341.39	221.56
341.78	223.39
342.16	224.27
342.54	225.15
342.93	213.28
343.31	224.08
343.69	224.63
344.07	225.10
344.46	225.54
344.84	225.89
345.22	226.13
345.60	226.36
345.99	226.55
346.37	226.67
346.75	226.74
347.13	226.78
347.52	226.86
347.90	226.90
348.28	226.94
348.66	226.97
349.05	226.91
349.43	226.95
349.81	226.96
350.19	227.01
350.57	227.02
350.96	227.07
351.34	227.10
351.72	227.17
352.10	227.25
352.48	227.29
352.87	227.35
353.25	227.42
353.63	227.51
354.01	227.57
354.39	227.65
354.77	227.76
355.15	227.83
355.54	227.83
355.92	227.87
356.30	227.89
356.68	228.01
357.06	228.07
357.44	228.10
357.82	228.16
358.20	228.22
358.58	228.30
358.97	228.33
359.35	228.43
359.73	228.50
360.11	228.53
360.49	228.58
360.87	228.60
361.25	228.59
361.63	228.64
362.01	228.68
362.39	228.70
362.77	228.71
363.15	228.75
363.53	228.84
363.91	228.86
364.29	228.89
364.67	228.82
365.05	228.85
365.43	228.87
365.81	228.88
366.19	228.94
366.57	228.97
366.95	228.98
367.33	228.95
367.71	228.94
368.09	228.96
368.47	228.95
368.85	228.95
369.23	228.97
369.61	228.93
369.99	228.91
370.37	228.88
370.75	228.86
371.13	228.81
371.51	228.74
371.89	228.72
372.27	228.68
372.65	228.65
373.03	228.63
373.41	228.58
373.78	228.56
374.16	228.47
374.54	228.40
374.92	228.33
375.30	228.26
375.68	228.20
376.06	228.16
376.44	228.11
376.82	228.05
377.19	227.96
377.57	227.89
377.95	227.79
378.33	227.72
378.71	227.62
379.09	227.57
379.47	227.47
379.84	227.38
380.22	227.34
380.60	227.26
380.98	227.16
381.36	227.11
381.73	227.00
382.11	226.91
382.49	226.87
382.87	226.84
383.25	226.77
383.62	226.79
384.00	226.67
384.38	226.61
384.76	226.57
385.13	226.57
385.51	226.53
385.89	226.48
386.27	226.46
386.64	226.45
387.02	226.37
387.40	226.36
387.78	226.35
388.15	226.31
388.53	226.30
388.91	226.30
389.29	226.26
389.66	226.26
390.04	226.24
390.42	226.23
390.79	226.19
391.17	226.21
391.55	226.11
391.92	226.14
392.30	226.18
392.68	226.15
393.05	226.13
393.43	226.13
393.81	226.12
394.18	226.10
394.56	226.11
394.94	226.19
395.31	226.20
395.69	226.24
396.06	226.29
396.44	226.32
396.82	226.33
397.19	226.40
397.57	226.41
397.95	226.48
398.32	226.53
398.70	226.59
399.07	226.66
399.45	226.70
399.82	226.77
400.20	226.81
400.58	226.90
400.95	226.97
401.33	227.07
401.70	227.23
402.08	227.34
402.45	227.44
402.83	227.55
403.20	227.66
403.58	227.76
403.95	227.88
404.33	228.03
404.71	228.18
405.08	228.39
405.46	228.54
405.83	228.68
406.21	228.80
406.58	228.96
406.96	229.12
407.33	229.34
407.70	229.53
408.08	229.82
408.45	230.04
408.83	230.28
409.20	230.52
409.58	230.73
409.95	231.01
410.33	231.29
410.70	231.54
411.08	231.86
411.45	232.13
411.82	232.42
412.20	232.75
412.57	233.17
412.95	233.45
413.32	233.86
413.69	234.27
414.07	234.71
414.44	235.16
414.82	235.63
415.19	236.16
415.56	236.72
415.94	237.24
416.31	237.85
416.68	238.44
417.06	239.11
417.43	239.79
417.81	240.55
418.18	241.33
418.55	242.18
418.93	243.03
419.30	243.94
419.67	244.88
420.04	245.84
420.42	246.80
420.79	247.98
421.16	249.13
421.54	250.31
421.91	251.57
422.28	252.87
422.66	254.20
423.03	255.51
423.40	256.83
423.77	258.26
424.15	259.72
424.52	261.24
424.89	262.86
425.26	264.37
425.64	265.79
426.01	267.37
426.38	268.99
426.75	270.68
427.13	272.43
427.50	274.22
427.87	276.07
428.24	277.97
428.61	279.71
428.99	281.66
429.36	283.79
429.73	285.81
430.10	287.82
430.47	289.84
430.85	291.95
431.22	294.18
431.59	296.58
431.96	298.80
432.33	301.29
432.70	303.65
433.08	306.47
433.45	309.11
433.82	311.71
434.19	314.62
434.56	317.44
434.93	320.07
435.30	322.72
435.68	325.63
436.05	328.42
436.42	331.21
436.79	333.71
437.16	336.41
437.53	339.29
437.90	342.12
438.27	344.85
438.64	347.69
439.01	350.28
439.38	352.46
439.75	354.66
440.13	357.17
440.50	359.51
440.87	361.32
441.24	363.26
441.61	365.40
441.98	366.93
442.35	368.70
442.72	370.57
443.09	372.33
443.46	373.28
443.83	373.89
444.20	374.40
444.57	375.23
444.94	375.46
445.31	375.76
445.68	376.07
446.05	376.19
446.42	375.78
446.79	375.34
447.16	374.93
447.53	374.57
447.90	373.38
448.27	372.24
448.64	370.67
449.01	369.58
449.37	367.67
449.74	365.71
450.11	363.44
450.48	360.96
450.85	358.41
451.22	356.29
451.59	354.22
451.96	352.26
452.33	349.66
452.70	347.32
453.07	344.50
453.43	341.60
453.80	338.82
454.17	336.15
454.54	333.63
454.91	330.87
455.28	328.22
455.65	325.72
456.02	323.29
456.38	321.12
456.75	318.40
457.12	316.11
457.49	313.92
457.86	311.75
458.23	309.91
458.59	307.95
458.96	305.89
459.33	304.04
459.70	302.17
460.07	300.66
460.43	298.95
460.80	297.29
461.17	295.87
461.54	294.39
461.91	293.01
462.27	291.55
462.64	290.32
463.01	288.98
463.38	287.68
463.74	286.29
464.11	285.20
464.48	284.20
464.85	283.12
465.21	282.25
465.58	281.34
465.95	280.22
466.32	279.29
466.68	278.38
467.05	277.52
467.42	276.63
467.78	275.75
468.15	274.86
468.52	274.24
468.88	273.42
469.25	272.61
469.62	271.94
469.98	271.31
470.35	270.68
470.72	270.04
471.08	269.42
471.45	268.89
471.82	268.31
472.18	267.68
472.55	267.22
472.92	266.66
473.28	266.20
473.65	265.78
474.02	265.36
474.38	265.00
474.75	264.69
475.11	264.38
475.48	264.07
475.85	263.88
476.21	263.62
476.58	263.44
476.94	263.35
477.31	263.19
477.67	263.04
478.04	262.95
478.41	262.95
478.77	262.96
479.14	262.93
479.50	262.98
479.87	263.07
480.23	263.19
480.60	263.32
480.96	263.39
481.33	263.59
481.69	263.79
482.06	263.98
482.42	264.14
482.79	264.39
483.15	264.70
483.52	265.05
483.88	265.40
484.25	265.76
484.61	266.17
484.98	266.61
485.34	267.15
485.71	267.71
486.07	268.30
486.44	268.88
486.80	269.57
487.17	270.28
487.53	271.11
487.90	271.95
488.26	272.86
488.62	273.87
488.99	274.82
489.35	275.85
489.72	277.03
490.08	278.24
490.44	279.51
490.81	280.88
491.17	282.25
491.54	283.71
491.90	285.22
492.26	286.89
492.63	288.64
492.99	290.42
493.36	292.34
493.72	294.38
494.08	296.48
494.45	298.73
494.81	301.07
495.17	303.52
495.54	306.07
495.90	308.75
496.26	311.57
496.63	314.57
496.99	317.68
497.35	320.91
497.72	324.32
498.08	327.80
498.44	331.49
498.80	335.43
499.17	339.49
499.53	343.69
499.89	348.05
500.26	352.49
500.62	357.17
500.98	362.12
501.34	367.21
501.71	372.55
502.07	378.04
502.43	383.64
502.79	389.47
503.16	395.56
503.52	401.85
503.88	408.21
504.24	414.86
504.60	421.75
504.97	428.85
505.33	436.17
505.69	443.92
506.05	451.69
506.41	459.56
506.78	467.79
507.14	476.24
507.50	484.96
507.86	494.00
508.22	503.21
508.59	512.37
508.95	522.00
509.31	531.85
509.67	541.91
510.03	552.23
510.39	562.81
510.75	573.64
511.12	584.64
511.48	595.95
511.84	607.40
512.20	618.93
512.56	630.95
512.92	643.12
513.28	655.41
513.64	667.88
514.00	680.59
514.37	693.46
514.73	706.54
515.09	719.56
515.45	732.88
515.81	746.51
516.17	760.58
516.53	774.66
516.89	788.82
517.25	802.98
517.61	817.35
517.97	831.77
518.33	846.19
518.69	860.96
519.05	875.97
519.41	891.06
519.77	906.63
520.13	922.00
520.49	937.41
520.85	952.83
521.21	968.58
521.57	984.83
521.93	1000.58
522.29	1016.84
522.65	1033.07
523.01	1049.32
523.37	1065.34
523.73	1081.43
524.09	1097.40
524.45	1113.65
524.81	1130.25
525.17	1147.11
525.53	1163.90
525.89	1180.78
526.25	1197.56
526.61	1213.85
526.97	1230.60
527.33	1246.93
527.68	1263.54
528.04	1279.94
528.40	1296.50
528.76	1313.54
529.12	1330.13
529.48	1347.07
529.84	1363.24
530.20	1379.91
530.56	1396.83
530.91	1414.26
531.27	1431.03
531.63	1447.56
531.99	1464.11
532.35	1480.15
532.71	1496.06
533.07	1512.27
533.42	1528.10
533.78	1544.03
534.14	1560.33
534.50	1575.67
534.86	1591.62
535.21	1606.71
535.57	1622.75
535.93	1638.49
536.29	1653.20
536.65	1668.24
537.00	1682.93
537.36	1698.14
537.72	1712.63
538.08	1727.06
538.44	1740.76
538.79	1754.54
539.15	1768.10
539.51	1781.82
539.87	1796.12
540.22	1809.68
540.58	1823.48
540.94	1836.80
541.29	1849.72
541.65	1862.44
542.01	1875.70
542.37	1887.98
542.72	1900.41
543.08	1912.06
543.44	1924.08
543.79	1935.36
544.15	1946.23
544.51	1957.71
544.87	1968.67
545.22	1979.48
545.58	1989.58
545.94	1999.30
546.29	2009.22
546.65	2019.16
547.01	2028.38
547.36	2037.05
547.72	2045.66
548.07	2053.45
548.43	2061.53
548.79	2069.68
549.14	2077.18
549.50	2084.49
549.86	2092.29
550.21	2099.68
550.57	2106.95
550.92	2113.49
551.28	2120.53
551.64	2127.76
551.99	2134.29
552.35	2140.44
552.70	2146.59
553.06	2152.60
553.41	2159.10
553.77	2165.16
554.13	2171.37
554.48	2177.65
554.84	2183.03
555.19	2188.23
555.55	2193.49
555.90	2197.97
556.26	2202.71
556.61	2207.44
556.97	2211.72
557.32	2215.83
557.68	2219.96
558.03	2224.15
558.39	2227.92
558.74	2232.55
559.10	2236.21
559.45	2239.91
559.81	2244.25
560.16	2247.99
560.52	2251.17
560.87	2254.43
561.23	2257.10
561.58	2259.85
561.94	2262.28
562.29	2264.80
562.64	2267.47
563.00	2270.05
563.35	2273.62
563.71	2276.69
564.06	2279.83
564.42	2282.71
564.77	2285.12
565.12	2287.28
565.48	2289.19
565.83	2291.23
566.19	2292.48
566.54	2293.55
566.89	2294.74
567.25	2295.28
567.60	2296.64
567.96	2298.48
568.31	2299.28
568.66	2300.27
569.02	2300.85
569.37	2301.05
569.72	2301.73
570.08	2301.88
570.43	2301.95
570.78	2301.24
571.14	2299.85
571.49	2298.60
571.84	2298.26
572.20	2297.04
572.55	2296.06
572.90	2294.42
573.26	2293.05
573.61	2291.32
573.96	2289.54
574.31	2286.59
574.67	2283.59
575.02	2280.00
575.37	2276.54
575.72	2272.73
576.08	2269.53
576.43	2266.19
576.78	2262.69
577.13	2259.72
577.49	2256.85
577.84	2253.36
578.19	2249.73
578.54	2246.08
578.90	2241.79
579.25	2236.26
579.60	2231.31
579.95	2226.38
580.30	2221.46
580.66	2216.24
581.01	2211.23
581.36	2206.27
581.71	2202.08
582.06	2197.61
582.42	2193.05
582.77	2187.89
583.12	2183.53
583.47	2178.62
583.82	2173.66
584.17	2168.43
584.53	2162.89
584.88	2156.94
585.23	2151.04
585.58	2145.61
585.93	2140.26
586.28	2135.53
586.63	2130.43
586.98	2125.37
587.34	2120.59
587.69	2115.72
588.04	2110.37
588.39	2104.76
588.74	2098.31
589.09	2092.16
589.44	2085.37
589.79	2079.56
590.14	2073.94
590.49	2067.34
590.84	2061.13
591.19	2055.23
591.54	2048.77
591.89	2041.28
592.25	2034.59
592.60	2027.45
592.95	2019.80
593.30	2012.27
593.65	2004.68
594.00	1997.60
594.35	1990.44
594.70	1982.42
595.05	1975.12
595.40	1967.79
595.75	1960.34
596.10	1954.12
596.45	1947.30
596.80	1941.16
597.15	1934.50
597.50	1927.21
597.85	1920.71
598.19	1913.97
598.54	1906.72
598.89	1900.02
599.24	1894.25
599.59	1887.42
599.94	1881.18
600.29	1874.87
600.64	1868.37
600.99	1860.94
601.34	1854.13
601.69	1847.20
602.04	1840.21
602.39	1832.90
602.74	1826.15
603.08	1819.21
603.43	1812.51
603.78	1805.24
604.13	1797.97
604.48	1790.55
604.83	1783.83
605.18	1776.69
605.53	1768.69
605.87	1760.76
606.22	1753.50
606.57	1745.54
606.92	1738.40
607.27	1731.24
607.62	1724.33
607.96	1717.03
608.31	1710.33
608.66	1702.66
609.01	1694.98
609.36	1687.54
609.70	1679.56
610.05	1671.48
610.40	1663.88
610.75	1655.54
611.10	1647.78
611.44	1639.33
611.79	1631.45
612.14	1622.73
612.49	1613.70
612.83	1605.33
613.18	1597.13
613.53	1588.99
613.88	1580.29
614.22	1571.97
614.57	1563.33
614.92	1555.28
615.27	1547.66
615.61	1539.47
615.96	1531.53
616.31	1523.95
616.65	1516.56
617.00	1509.01
617.35	1501.36
617.70	1493.02
618.04	1484.43
618.39	1476.32
618.74	1468.80
619.08	1460.33
619.43	1452.81
619.78	1445.94
620.12	1438.72
620.47	1431.28
620.82	1423.15
621.16	1415.90
621.51	1408.30
621.85	1400.79
622.20	1392.25
622.55	1383.93
622.89	1376.00
623.24	1368.40
623.59	1361.16
623.93	1353.64
624.28	1346.46
624.62	1338.96
624.97	1331.86
625.32	1325.20
625.66	1318.20
626.01	1310.95
626.35	1303.45
626.70	1295.70
627.04	1287.84
627.39	1280.11
627.73	1272.67
628.08	1265.72
628.43	1258.36
628.77	1251.00
629.12	1243.49
629.46	1236.34
629.81	1228.94
630.15	1221.76
630.50	1214.24
630.84	1205.91
631.19	1197.95
631.53	1190.42
631.88	1182.90
632.22	1175.28
632.57	1167.92
632.91	1160.38
633.26	1152.98
633.60	1145.76
633.95	1138.71
634.29	1131.77
634.64	1125.11
634.98	1117.77
635.32	1110.62
635.67	1104.08
636.01	1097.39
636.36	1090.45
636.70	1083.95
637.05	1077.31
637.39	1070.74
637.73	1064.29
638.08	1058.37
638.42	1052.40
638.77	1045.89
639.11	1039.19
639.45	1032.79
639.80	1026.14
640.14	1019.62
640.49	1013.16
640.83	1006.81
641.17	1000.52
641.52	994.14
641.86	987.73
642.20	981.84
642.55	975.50
642.89	969.00
643.23	962.43
643.58	956.70
643.92	950.45
644.26	944.36
644.61	938.45
644.95	932.35
645.29	925.75
645.64	919.00
645.98	912.61
646.32	906.85
646.66	900.79
647.01	894.95
647.35	889.25
647.69	883.40
648.04	877.88
648.38	872.05
648.72	866.03
649.06	859.95
649.41	854.05
649.75	848.16
650.09	842.16
650.43	836.40
650.78	830.23
651.12	824.23
651.46	818.48
651.80	812.66
652.14	807.27
652.49	801.85
652.83	796.64
653.17	790.93
653.51	785.11
653.85	779.73
654.20	774.06
654.54	768.12
654.88	762.28
655.22	756.36
655.56	750.63
655.90	745.25
656.25	739.89
656.59	734.56
656.93	729.44
657.27	724.21
657.61	718.75
657.95	713.68
658.29	708.73
658.64	703.51
658.98	698.23
659.32	692.75
659.66	687.63
660.00	682.32
660.34	677.46
660.68	672.53
661.02	667.53
661.36	662.82
661.70	658.32
662.05	654.08
662.39	649.78
662.73	645.37
663.07	640.98
663.41	636.60
663.75	632.06
664.09	627.53
664.43	623.17
664.77	619.12
665.11	614.88
665.45	610.72
665.79	606.69
666.13	602.52
666.47	598.50
666.81	594.33
667.15	590.27
667.49	586.40
667.83	582.70
668.17	578.76
668.51	574.71
668.85	570.69
669.19	566.79
669.53	562.96
669.87	559.05
670.21	555.37
670.55	551.74
670.89	548.41
671.23	545.01
671.57	541.54
671.91	538.00
672.25	534.54
672.58	531.04
672.92	527.66
673.26	524.54
673.60	521.43
673.94	518.30
674.28	515.39
674.62	512.46
674.96	509.30
675.30	506.38
675.64	503.48
675.97	500.70
676.31	497.88
676.65	494.94
676.99	492.22
677.33	489.30
677.67	486.47
678.01	483.34
678.34	480.34
678.68	477.49
679.02	474.59
679.36	471.79
679.70	469.01
680.04	466.21
680.37	463.30
680.71	460.48
681.05	457.90
681.39	455.14
681.73	452.40
682.06	449.86
682.40	447.32
682.74	444.78
683.08	442.20
683.42	439.56
683.75	437.07
684.09	434.56
684.43	432.09
684.77	429.61
685.10	427.30
685.44	425.01
685.78	422.71
686.12	420.51
686.45	418.21
686.79	415.96
687.13	413.74
687.46	411.57
687.80	409.41
688.14	407.17
688.48	405.09
688.81	402.82
689.15	400.69
689.49	398.54
689.82	396.41
690.16	394.34
690.50	392.40
690.83	390.45
691.17	388.44
691.51	386.57
691.84	384.73
692.18	382.72
692.52	380.72
692.85	378.78
693.19	376.87
693.52	375.07
693.86	373.21
694.20	371.44
694.53	369.62
694.87	367.78
695.21	366.00
695.54	364.22
695.88	362.52
696.21	360.79
696.55	359.10
696.88	357.49
697.22	355.79
697.56	354.19
697.89	352.53
698.23	350.95
698.56	349.32
698.90	347.69
699.23	346.08
699.57	344.52
699.90	342.97
700.24	341.45
700.58	339.87
700.91	338.36
701.25	336.92
701.58	335.53
701.92	334.15
702.25	332.77
702.59	331.41
702.92	330.06
703.26	328.74
703.59	327.45
703.93	326.24
704.26	324.99
704.60	323.70
704.93	322.42
705.26	321.14
705.60	319.99
705.93	318.88
706.27	317.85
706.60	316.77
706.94	315.71
707.27	314.61
707.61	313.56
707.94	312.55
708.27	311.51
708.61	310.44
708.94	309.46
709.28	308.49
709.61	307.54
709.94	306.61
710.28	305.60
710.61	304.65
710.95	303.58
711.28	302.69
711.61	301.76
711.95	300.87
712.28	299.97
712.61	299.02
712.95	298.10
713.28	297.27
713.61	296.41
713.95	295.49
714.28	294.62
714.61	293.76
714.95	292.99
715.28	292.10
715.61	291.28
715.95	290.40
716.28	289.53
716.61	288.71
716.95	287.93
717.28	287.24
717.61	286.46
717.94	285.71
718.28	284.92
718.61	284.20
718.94	283.49
719.27	282.81
719.61	282.17
719.94	281.49
720.27	280.75
720.60	280.08
720.94	279.49
721.27	278.88
721.60	278.29
721.93	277.65
722.27	277.10
722.60	276.55
722.93	276.00
723.26	275.49
723.59	274.87
723.93	274.31
724.26	273.70
724.59	273.15
724.92	272.65
725.25	272.14
725.59	271.62
725.92	271.11
726.25	270.57
726.58	270.05
726.91	269.57
727.24	269.09
727.57	268.62
727.91	268.10
728.24	267.62
728.57	267.15
728.90	266.71
729.23	266.21
729.56	265.76
729.89	265.27
730.22	264.76
730.55	264.33
730.89	263.89
731.22	263.46
731.55	263.03
731.88	262.63
732.21	262.18
732.54	261.70
732.87	261.25
733.20	260.88
733.53	260.49
733.86	260.08
734.19	259.68
734.52	259.30
734.85	259.02
735.18	258.63
735.51	258.27
735.84	257.85
736.17	257.48
736.50	257.07
736.83	256.79
737.16	256.47
737.49	256.14
737.82	255.80
738.15	255.45
738.48	255.08
738.81	254.70
739.14	254.34
739.47	254.04
739.80	253.75
740.13	253.44
740.46	253.11
740.79	252.80
741.12	252.49
741.45	252.13
741.78	251.74
742.11	251.44
742.44	251.08
742.77	250.81
743.10	250.50
743.43	250.23
743.75	249.89
744.08	249.73
744.41	249.46
744.74	249.17
745.07	248.89
745.40	248.66
745.73	248.45
746.06	248.22
746.39	247.96
746.71	247.64
747.04	247.38
747.37	247.10
747.70	246.85
748.03	246.61
748.36	246.40
748.68	246.17
749.01	245.93
749.34	245.72
749.67	245.47
750.00	245.27
750.33	245.11
750.65	244.89
750.98	244.54
751.31	244.30
751.64	244.10
751.97	243.93
752.29	243.74
752.62	243.47
752.95	243.26
753.28	243.02
753.60	242.84
753.93	242.68
754.26	242.49
754.59	242.31
754.91	242.09
755.24	241.92
755.57	241.72
755.90	241.55
756.22	241.36
756.55	241.19
756.88	241.01
757.20	240.79
757.53	240.61
757.86	240.46
758.19	240.31
758.51	240.15
758.84	239.94
759.17	239.77
759.49	239.66
759.82	239.52
760.15	239.41
760.47	239.28
760.80	239.10
761.13	238.99
761.45	238.82
761.78	238.66
762.11	238.53
762.43	238.42
762.76	238.28
763.08	238.15
763.41	238.04
763.74	237.89
764.06	237.77
764.39	237.63
764.71	237.48
765.04	237.35
765.37	237.21
765.69	237.08
766.02	236.94
766.34	236.78
766.67	236.64
767.00	236.55
767.32	236.50
767.65	236.44
767.97	236.30
768.30	236.21
768.62	236.12
768.95	236.01
769.27	235.86
769.60	235.72
769.92	235.61
770.25	235.50
770.57	235.40
770.90	235.27
771.22	235.17
771.55	235.08
771.87	235.02
772.20	234.93
772.52	234.93
772.85	234.96
773.17	234.85
773.50	234.75
773.82	234.63
774.15	234.47
774.47	234.30
774.80	234.20
775.12	234.08
775.45	234.00
775.77	233.88
776.09	233.82
776.42	233.76
776.74	233.73
777.07	233.62
777.39	233.54
777.72	233.43
778.04	233.38
778.36	233.30
778.69	233.22
779.01	233.14
779.33	233.01
779.66	232.82
779.98	232.77
780.31	232.70
780.63	232.67
780.95	232.62
781.28	232.58
781.60	232.51
781.92	232.46
782.25	232.40
782.57	232.35
782.89	232.27
783.22	232.18
783.54	232.09
783.86	232.03
784.19	231.97
784.51	231.96
784.83	231.89
785.16	231.84
785.48	231.79
785.80	231.72
786.12	231.67
786.45	231.64
786.77	231.60
787.09	231.57
