SpectraSuite Data File
++++++++++++++++++++++++++++++++++++
Date: Fri Feb 01 16:23:47 EST 2013
User: group
Dark Spectrum Present: No
Reference Spectrum Present: No
Number of Sampled Component Spectra: 1
Spectrometers: USB2E7196
Integration Time (usec): 35000 (USB2E7196)
Spectra Averaged: 100 (USB2E7196)
Boxcar Smoothing: 10 (USB2E7196)
Correct for Electrical Dark: No (USB2E7196)
Strobe/Lamp Enabled: No (USB2E7196)
Correct for Detector Non-linearity: No (USB2E7196)
Correct for Stray Light: No (USB2E7196)
Number of Pixels in Processed Spectrum: 2048
>>>>>Begin Processed Spectral Data<<<<<
339.09	0.00
339.48	213.86
339.86	215.90
340.24	216.83
340.63	218.23
341.01	221.49
341.39	220.73
341.78	221.76
342.16	223.33
342.54	223.52
342.93	212.35
343.31	223.08
343.69	223.61
344.07	224.07
344.46	224.49
344.84	224.86
345.22	225.07
345.60	225.30
345.99	225.48
346.37	225.59
346.75	225.70
347.13	225.73
347.52	225.79
347.90	225.87
348.28	225.87
348.66	225.92
349.05	225.90
349.43	225.94
349.81	225.95
350.19	225.99
350.57	226.04
350.96	226.14
351.34	226.22
351.72	226.32
352.10	226.37
352.48	226.45
352.87	226.51
353.25	226.59
353.63	226.68
354.01	226.77
354.39	226.84
354.77	226.90
355.15	227.01
355.54	227.09
355.92	227.11
356.30	227.19
356.68	227.32
357.06	227.41
357.44	227.48
357.82	227.57
358.20	227.62
358.58	227.70
358.97	227.77
359.35	227.87
359.73	227.95
360.11	228.00
360.49	228.04
360.87	228.11
361.25	228.14
361.63	228.21
362.01	228.27
362.39	228.33
362.77	228.42
363.15	228.43
363.53	228.47
363.91	228.51
364.29	228.54
364.67	228.49
365.05	228.50
365.43	228.54
365.81	228.54
366.19	228.61
366.57	228.64
366.95	228.63
367.33	228.63
367.71	228.64
368.09	228.68
368.47	228.68
368.85	228.65
369.23	228.68
369.61	228.62
369.99	228.61
370.37	228.56
370.75	228.58
371.13	228.54
371.51	228.48
371.89	228.46
372.27	228.40
372.65	228.36
373.03	228.31
373.41	228.24
373.78	228.18
374.16	228.07
374.54	227.99
374.92	227.91
375.30	227.84
375.68	227.74
376.06	227.67
376.44	227.62
376.82	227.56
377.19	227.47
377.57	227.41
377.95	227.33
378.33	227.28
378.71	227.14
379.09	227.11
379.47	227.06
379.84	226.97
380.22	226.92
380.60	226.82
380.98	226.76
381.36	226.72
381.73	226.69
382.11	226.67
382.49	226.61
382.87	226.55
383.25	226.45
383.62	226.51
384.00	226.43
384.38	226.33
384.76	226.30
385.13	226.31
385.51	226.26
385.89	226.19
386.27	226.16
386.64	226.14
387.02	226.05
387.40	226.00
387.78	225.97
388.15	225.91
388.53	225.89
388.91	225.85
389.29	225.82
389.66	225.77
390.04	225.71
390.42	225.72
390.79	225.69
391.17	225.68
391.55	225.55
391.92	225.56
392.30	225.57
392.68	225.54
393.05	225.48
393.43	225.47
393.81	225.50
394.18	225.49
394.56	225.50
394.94	225.55
395.31	225.52
395.69	225.58
396.06	225.61
396.44	225.62
396.82	225.64
397.19	225.71
397.57	225.74
397.95	225.78
398.32	225.75
398.70	225.83
399.07	225.90
399.45	225.99
399.82	226.03
400.20	226.09
400.58	226.16
400.95	226.22
401.33	226.34
401.70	226.49
402.08	226.59
402.45	226.69
402.83	226.77
403.20	226.92
403.58	227.03
403.95	227.20
404.33	227.32
404.71	227.45
405.08	227.62
405.46	227.74
405.83	227.90
406.21	228.08
406.58	228.24
406.96	228.38
407.33	228.50
407.70	228.74
408.08	229.02
408.45	229.24
408.83	229.49
409.20	229.68
409.58	229.81
409.95	230.07
410.33	230.33
410.70	230.60
411.08	230.88
411.45	231.16
411.82	231.43
412.20	231.83
412.57	232.26
412.95	232.54
413.32	232.95
413.69	233.36
414.07	233.77
414.44	234.27
414.82	234.78
415.19	235.33
415.56	235.89
415.94	236.42
416.31	237.03
416.68	237.66
417.06	238.37
417.43	239.09
417.81	239.87
418.18	240.67
418.55	241.51
418.93	242.39
419.30	243.30
419.67	244.25
420.04	245.17
420.42	246.15
420.79	247.33
421.16	248.52
421.54	249.74
421.91	251.02
422.28	252.24
422.66	253.56
423.03	254.85
423.40	256.17
423.77	257.57
424.15	259.02
424.52	260.47
424.89	262.10
425.26	263.66
425.64	265.11
426.01	266.67
426.38	268.33
426.75	269.97
427.13	271.71
427.50	273.52
427.87	275.39
428.24	277.27
428.61	279.03
428.99	280.93
429.36	283.00
429.73	285.04
430.10	287.08
430.47	289.12
430.85	291.24
431.22	293.45
431.59	295.83
431.96	298.05
432.33	300.53
432.70	302.85
433.08	305.62
433.45	308.21
433.82	310.79
434.19	313.66
434.56	316.46
434.93	319.07
435.30	321.68
435.68	324.53
436.05	327.31
436.42	330.08
436.79	332.58
437.16	335.24
437.53	338.03
437.90	340.81
438.27	343.55
438.64	346.37
439.01	348.97
439.38	351.18
439.75	353.34
440.13	355.78
440.50	358.11
440.87	359.99
441.24	361.89
441.61	364.07
441.98	365.54
442.35	367.36
442.72	369.20
443.09	370.99
443.46	372.01
443.83	372.62
444.20	373.11
444.57	373.94
444.94	374.25
445.31	374.60
445.68	374.95
446.05	375.02
446.42	374.62
446.79	374.20
447.16	373.73
447.53	373.42
447.90	372.27
448.27	371.11
448.64	369.52
449.01	368.36
449.37	366.36
449.74	364.45
450.11	362.23
450.48	359.74
450.85	357.20
451.22	355.01
451.59	353.00
451.96	351.08
452.33	348.53
452.70	346.17
453.07	343.33
453.43	340.46
453.80	337.65
454.17	334.96
454.54	332.40
454.91	329.70
455.28	326.98
455.65	324.54
456.02	322.14
456.38	319.98
456.75	317.33
457.12	315.10
457.49	312.86
457.86	310.66
458.23	308.82
458.59	306.78
458.96	304.76
459.33	302.89
459.70	301.02
460.07	299.48
460.43	297.73
460.80	296.13
461.17	294.70
461.54	293.26
461.91	291.89
462.27	290.49
462.64	289.26
463.01	287.96
463.38	286.66
463.74	285.28
464.11	284.13
464.48	283.17
464.85	282.09
465.21	281.27
465.58	280.36
465.95	279.30
466.32	278.41
466.68	277.51
467.05	276.62
467.42	275.73
467.78	274.82
468.15	274.00
468.52	273.34
468.88	272.49
469.25	271.76
469.62	271.13
469.98	270.45
470.35	269.83
470.72	269.25
471.08	268.59
471.45	268.09
471.82	267.58
472.18	266.96
472.55	266.55
472.92	266.04
473.28	265.61
473.65	265.17
474.02	264.75
474.38	264.37
474.75	264.07
475.11	263.75
475.48	263.49
475.85	263.25
476.21	263.04
476.58	262.83
476.94	262.62
477.31	262.45
477.67	262.32
478.04	262.24
478.41	262.20
478.77	262.27
479.14	262.20
479.50	262.21
479.87	262.32
480.23	262.42
480.60	262.50
480.96	262.59
481.33	262.79
481.69	263.01
482.06	263.21
482.42	263.43
482.79	263.70
483.15	264.04
483.52	264.44
483.88	264.81
484.25	265.24
484.61	265.73
484.98	266.20
485.34	266.77
485.71	267.40
486.07	267.96
486.44	268.54
486.80	269.23
487.17	269.93
487.53	270.72
487.90	271.56
488.26	272.47
488.62	273.47
488.99	274.42
489.35	275.47
489.72	276.65
490.08	277.83
490.44	279.07
490.81	280.40
491.17	281.74
491.54	283.21
491.90	284.76
492.26	286.41
492.63	288.15
492.99	289.92
493.36	291.79
493.72	293.88
494.08	296.00
494.45	298.24
494.81	300.68
495.17	303.14
495.54	305.71
495.90	308.44
496.26	311.24
496.63	314.23
496.99	317.33
497.35	320.53
497.72	323.93
498.08	327.45
498.44	331.13
498.80	335.07
499.17	339.09
499.53	343.27
499.89	347.62
500.26	352.10
500.62	356.77
500.98	361.68
501.34	366.73
501.71	372.04
502.07	377.53
502.43	383.11
502.79	388.94
503.16	395.01
503.52	401.27
503.88	407.68
504.24	414.34
504.60	421.28
504.97	428.42
505.33	435.74
505.69	443.43
506.05	451.20
506.41	459.02
506.78	467.18
507.14	475.64
507.50	484.38
507.86	493.48
508.22	502.72
508.59	511.93
508.95	521.58
509.31	531.42
509.67	541.49
510.03	551.78
510.39	562.35
510.75	573.18
511.12	584.07
511.48	595.39
511.84	606.87
512.20	618.41
512.56	630.43
512.92	642.58
513.28	654.91
513.64	667.43
514.00	680.19
514.37	693.17
514.73	706.21
515.09	719.25
515.45	732.47
515.81	745.95
516.17	759.93
516.53	773.96
516.89	788.21
517.25	802.36
517.61	816.80
517.97	831.22
518.33	845.54
518.69	860.32
519.05	875.32
519.41	890.43
519.77	905.91
520.13	921.25
520.49	936.66
520.85	952.01
521.21	967.64
521.57	983.81
521.93	999.43
522.29	1015.75
522.65	1031.91
523.01	1048.05
523.37	1064.09
523.73	1080.19
524.09	1096.18
524.45	1112.36
524.81	1129.00
525.17	1145.72
525.53	1162.52
525.89	1179.41
526.25	1196.29
526.61	1212.56
526.97	1229.19
527.33	1245.53
527.68	1262.15
528.04	1278.63
528.40	1295.21
528.76	1312.24
529.12	1328.78
529.48	1345.64
529.84	1361.55
530.20	1378.18
530.56	1395.15
530.91	1412.47
531.27	1429.18
531.63	1445.71
531.99	1462.26
532.35	1478.08
532.71	1493.78
533.07	1509.97
533.42	1525.76
533.78	1541.61
534.14	1557.91
534.50	1573.24
534.86	1589.00
535.21	1604.03
535.57	1619.71
535.93	1635.05
536.29	1649.68
536.65	1664.66
537.00	1679.31
537.36	1694.61
537.72	1709.03
538.08	1723.38
538.44	1737.16
538.79	1751.00
539.15	1764.46
539.51	1778.06
539.87	1792.35
540.22	1806.09
540.58	1819.67
540.94	1832.76
541.29	1845.60
541.65	1858.02
542.01	1871.10
542.37	1883.43
542.72	1895.78
543.08	1907.55
543.44	1919.87
543.79	1931.10
544.15	1941.96
544.51	1953.54
544.87	1964.40
545.22	1975.18
545.58	1985.36
545.94	1994.95
546.29	2004.82
546.65	2014.68
547.01	2023.80
547.36	2032.37
547.72	2040.72
548.07	2048.49
548.43	2056.80
548.79	2064.75
549.14	2072.31
549.50	2079.62
549.86	2087.41
550.21	2094.66
550.57	2101.75
550.92	2108.29
551.28	2115.20
551.64	2122.38
551.99	2128.81
552.35	2134.76
552.70	2140.91
553.06	2146.88
553.41	2153.25
553.77	2159.17
554.13	2165.08
554.48	2171.20
554.84	2176.73
555.19	2182.09
555.55	2187.30
555.90	2191.72
556.26	2196.58
556.61	2201.24
556.97	2205.49
557.32	2209.34
557.68	2213.50
558.03	2217.79
558.39	2221.46
558.74	2226.05
559.10	2229.86
559.45	2233.53
559.81	2237.98
560.16	2241.77
560.52	2244.97
560.87	2248.31
561.23	2250.98
561.58	2254.03
561.94	2256.63
562.29	2258.97
562.64	2261.61
563.00	2264.37
563.35	2267.98
563.71	2271.07
564.06	2274.28
564.42	2277.16
564.77	2279.76
565.12	2282.05
565.48	2284.07
565.83	2286.10
566.19	2287.48
566.54	2288.28
566.89	2289.46
567.25	2289.95
567.60	2291.14
567.96	2292.92
568.31	2293.78
568.66	2294.94
569.02	2295.62
569.37	2295.96
569.72	2296.82
570.08	2296.96
570.43	2296.97
570.78	2296.43
571.14	2294.90
571.49	2293.75
571.84	2293.45
572.20	2292.49
572.55	2291.39
572.90	2289.87
573.26	2288.56
573.61	2286.90
573.96	2285.21
574.31	2282.32
574.67	2279.59
575.02	2276.17
575.37	2272.74
575.72	2269.08
576.08	2265.75
576.43	2262.45
576.78	2258.83
577.13	2255.84
577.49	2252.91
577.84	2249.36
578.19	2245.58
578.54	2242.20
578.90	2238.04
579.25	2232.55
579.60	2227.58
579.95	2222.69
580.30	2217.78
580.66	2212.60
581.01	2207.76
581.36	2202.95
581.71	2198.80
582.06	2194.27
582.42	2189.89
582.77	2184.77
583.12	2180.33
583.47	2175.81
583.82	2170.92
584.17	2165.71
584.53	2160.15
584.88	2154.56
585.23	2149.05
585.58	2143.66
585.93	2138.07
586.28	2133.21
586.63	2128.28
586.98	2123.18
587.34	2118.50
587.69	2113.52
588.04	2108.28
588.39	2102.76
588.74	2096.37
589.09	2090.25
589.44	2083.58
589.79	2077.44
590.14	2071.89
590.49	2065.30
590.84	2058.88
591.19	2052.77
591.54	2046.30
591.89	2039.11
592.25	2032.32
592.60	2025.07
592.95	2017.62
593.30	2010.35
593.65	2002.86
594.00	1995.89
594.35	1988.68
594.70	1980.75
595.05	1973.60
595.40	1966.41
595.75	1958.82
596.10	1952.71
596.45	1946.21
596.80	1940.04
597.15	1933.69
597.50	1926.57
597.85	1920.24
598.19	1913.51
598.54	1906.40
598.89	1899.90
599.24	1894.00
599.59	1887.31
599.94	1881.16
600.29	1874.81
600.64	1868.30
600.99	1861.00
601.34	1854.20
601.69	1847.23
602.04	1840.41
602.39	1833.15
602.74	1826.25
603.08	1819.60
603.43	1812.83
603.78	1805.28
604.13	1798.14
604.48	1790.71
604.83	1783.96
605.18	1776.96
605.53	1769.00
605.87	1761.05
606.22	1753.88
606.57	1745.96
606.92	1738.74
607.27	1731.56
607.62	1724.61
607.96	1717.39
608.31	1710.69
608.66	1702.99
609.01	1695.51
609.36	1687.98
609.70	1679.94
610.05	1671.93
610.40	1664.35
610.75	1656.06
611.10	1648.54
611.44	1640.10
611.79	1632.10
612.14	1623.32
612.49	1614.03
612.83	1605.76
613.18	1597.67
613.53	1589.58
613.88	1581.04
614.22	1572.79
614.57	1564.19
614.92	1556.12
615.27	1548.56
615.61	1540.30
615.96	1532.36
616.31	1524.82
616.65	1517.34
617.00	1509.85
617.35	1502.21
617.70	1493.76
618.04	1485.26
618.39	1477.02
618.74	1469.47
619.08	1461.21
619.43	1453.69
619.78	1446.96
620.12	1439.70
620.47	1432.19
620.82	1423.92
621.16	1416.50
621.51	1408.79
621.85	1401.20
622.20	1392.75
622.55	1384.35
622.89	1376.53
623.24	1368.82
623.59	1361.47
623.93	1353.96
624.28	1346.70
624.62	1339.15
624.97	1331.93
625.32	1325.08
625.66	1318.00
626.01	1310.84
626.35	1303.33
626.70	1295.62
627.04	1287.80
627.39	1280.04
627.73	1272.53
628.08	1265.68
628.43	1258.31
628.77	1250.96
629.12	1243.44
629.46	1236.30
629.81	1228.85
630.15	1221.50
630.50	1214.14
630.84	1205.85
631.19	1198.05
631.53	1190.51
631.88	1182.92
632.22	1175.34
632.57	1168.10
632.91	1160.50
633.26	1152.97
633.60	1145.67
633.95	1138.42
634.29	1131.51
634.64	1124.83
634.98	1117.57
635.32	1110.37
635.67	1103.81
636.01	1097.20
636.36	1090.25
636.70	1083.63
637.05	1077.01
637.39	1070.55
637.73	1064.01
638.08	1058.12
638.42	1052.04
638.77	1045.61
639.11	1039.05
639.45	1032.68
639.80	1026.02
640.14	1019.74
640.49	1013.24
640.83	1006.87
641.17	1000.69
641.52	994.29
641.86	987.78
642.20	981.97
642.55	975.69
642.89	969.15
643.23	962.60
643.58	956.93
643.92	950.79
644.26	944.75
644.61	938.71
644.95	932.73
645.29	926.12
645.64	919.39
645.98	913.07
646.32	907.31
646.66	901.22
647.01	895.42
647.35	889.69
647.69	883.89
648.04	878.35
648.38	872.64
648.72	866.61
649.06	860.53
649.41	854.63
649.75	848.64
650.09	842.78
650.43	837.02
650.78	830.78
651.12	824.85
651.46	819.07
651.80	813.33
652.14	807.92
652.49	802.56
652.83	797.29
653.17	791.56
653.51	785.78
653.85	780.46
654.20	774.78
654.54	768.72
654.88	762.94
655.22	757.03
655.56	751.25
655.90	745.81
656.25	740.68
656.59	735.26
656.93	730.28
657.27	725.07
657.61	719.59
657.95	714.56
658.29	709.41
658.64	704.21
658.98	698.96
659.32	693.45
659.66	688.23
660.00	682.96
660.34	678.04
660.68	673.08
661.02	668.00
661.36	663.25
661.70	658.73
662.05	654.41
662.39	650.16
662.73	645.63
663.07	641.22
663.41	636.69
663.75	632.24
664.09	627.61
664.43	623.20
664.77	619.06
665.11	614.80
665.45	610.72
665.79	606.60
666.13	602.43
666.47	598.37
666.81	594.23
667.15	590.10
667.49	586.14
667.83	582.33
668.17	578.35
668.51	574.30
668.85	570.30
669.19	566.42
669.53	562.51
669.87	558.68
670.21	554.95
670.55	551.26
670.89	547.76
671.23	544.26
671.57	540.76
671.91	537.22
672.25	533.64
672.58	530.09
672.92	526.69
673.26	523.51
673.60	520.33
673.94	517.20
674.28	514.25
674.62	511.36
674.96	508.20
675.30	505.31
675.64	502.39
675.97	499.58
676.31	496.76
676.65	493.85
676.99	491.14
677.33	488.29
677.67	485.49
678.01	482.48
678.34	479.50
678.68	476.60
679.02	473.76
679.36	470.99
679.70	468.20
680.04	465.47
680.37	462.54
680.71	459.71
681.05	457.10
681.39	454.42
681.73	451.70
682.06	449.24
682.40	446.74
682.74	444.19
683.08	441.68
683.42	439.10
683.75	436.59
684.09	434.05
684.43	431.61
684.77	429.21
685.10	426.87
685.44	424.61
685.78	422.34
686.12	420.09
686.45	417.83
686.79	415.57
687.13	413.33
687.46	411.23
687.80	409.12
688.14	406.89
688.48	404.81
688.81	402.60
689.15	400.43
689.49	398.22
689.82	396.15
690.16	394.05
690.50	392.04
690.83	390.13
691.17	388.08
691.51	386.16
691.84	384.33
692.18	382.42
692.52	380.45
692.85	378.52
693.19	376.65
693.52	374.79
693.86	372.98
694.20	371.23
694.53	369.44
694.87	367.57
695.21	365.82
695.54	363.97
695.88	362.24
696.21	360.53
696.55	358.88
696.88	357.17
697.22	355.56
697.56	353.94
697.89	352.23
698.23	350.68
698.56	349.07
698.90	347.45
699.23	345.81
699.57	344.23
699.90	342.69
700.24	341.19
700.58	339.64
700.91	338.16
701.25	336.72
701.58	335.35
701.92	333.94
702.25	332.54
702.59	331.23
702.92	329.90
703.26	328.57
703.59	327.27
703.93	326.08
704.26	324.79
704.60	323.49
704.93	322.24
705.26	320.95
705.60	319.77
705.93	318.63
706.27	317.56
706.60	316.50
706.94	315.36
707.27	314.19
707.61	313.14
707.94	312.09
708.27	310.97
708.61	309.87
708.94	308.92
709.28	307.90
709.61	306.90
709.94	305.96
710.28	304.92
710.61	303.94
710.95	302.88
711.28	301.95
711.61	300.99
711.95	300.07
712.28	299.12
712.61	298.16
712.95	297.16
713.28	296.28
713.61	295.37
713.95	294.51
714.28	293.69
714.61	292.83
714.95	291.98
715.28	291.15
715.61	290.24
715.95	289.35
716.28	288.49
716.61	287.64
716.95	286.80
717.28	286.05
717.61	285.25
717.94	284.53
718.28	283.74
718.61	283.01
718.94	282.32
719.27	281.66
719.61	280.96
719.94	280.28
720.27	279.53
720.60	278.87
720.94	278.21
721.27	277.58
721.60	277.01
721.93	276.39
722.27	275.80
722.60	275.26
722.93	274.69
723.26	274.15
723.59	273.59
723.93	273.04
724.26	272.48
724.59	271.92
724.92	271.36
725.25	270.85
725.59	270.32
725.92	269.81
726.25	269.27
726.58	268.79
726.91	268.31
727.24	267.86
727.57	267.41
727.91	266.93
728.24	266.44
728.57	265.91
728.90	265.52
729.23	265.05
729.56	264.61
729.89	264.16
730.22	263.68
730.55	263.21
730.89	262.76
731.22	262.34
731.55	261.95
731.88	261.51
732.21	261.04
732.54	260.65
732.87	260.22
733.20	259.87
733.53	259.53
733.86	259.18
734.19	258.77
734.52	258.40
734.85	258.13
735.18	257.73
735.51	257.41
735.84	256.98
736.17	256.65
736.50	256.24
736.83	256.04
737.16	255.68
737.49	255.39
737.82	255.04
738.15	254.72
738.48	254.37
738.81	254.06
739.14	253.78
739.47	253.44
739.80	253.15
740.13	252.83
740.46	252.46
740.79	252.08
741.12	251.80
741.45	251.46
741.78	251.11
742.11	250.85
742.44	250.55
742.77	250.27
743.10	249.96
743.43	249.70
743.75	249.29
744.08	249.20
744.41	248.93
744.74	248.67
745.07	248.36
745.40	248.15
745.73	247.93
746.06	247.67
746.39	247.39
746.71	247.14
747.04	246.85
747.37	246.61
747.70	246.42
748.03	246.15
748.36	245.94
748.68	245.68
749.01	245.43
749.34	245.20
749.67	244.99
750.00	244.77
750.33	244.58
750.65	244.36
750.98	244.01
751.31	243.81
751.64	243.62
751.97	243.46
752.29	243.21
752.62	242.98
752.95	242.74
753.28	242.54
753.60	242.33
753.93	242.18
754.26	241.99
754.59	241.75
754.91	241.54
755.24	241.33
755.57	241.12
755.90	240.95
756.22	240.75
756.55	240.54
756.88	240.33
757.20	240.13
757.53	239.91
757.86	239.74
758.19	239.55
758.51	239.37
758.84	239.17
759.17	238.96
759.49	238.80
759.82	238.67
760.15	238.55
760.47	238.36
760.80	238.17
761.13	237.98
761.45	237.82
761.78	237.69
762.11	237.53
762.43	237.39
762.76	237.20
763.08	237.07
763.41	236.92
763.74	236.78
764.06	236.65
764.39	236.52
764.71	236.39
765.04	236.23
765.37	236.10
765.69	235.98
766.02	235.90
766.34	235.72
766.67	235.56
767.00	235.43
767.32	235.36
767.65	235.31
767.97	235.22
768.30	235.11
768.62	234.98
768.95	234.86
769.27	234.74
769.60	234.68
769.92	234.51
770.25	234.40
770.57	234.29
770.90	234.16
771.22	234.08
771.55	233.94
771.87	233.86
772.20	233.77
772.52	233.77
772.85	233.78
773.17	233.72
773.50	233.65
773.82	233.52
774.15	233.39
774.47	233.26
774.80	233.17
775.12	233.08
775.45	233.03
775.77	232.98
776.09	232.92
776.42	232.85
776.74	232.85
777.07	232.77
777.39	232.71
777.72	232.64
778.04	232.60
778.36	232.55
778.69	232.49
779.01	232.42
779.33	232.25
779.66	232.05
779.98	232.00
780.31	231.95
780.63	231.96
780.95	231.94
781.28	231.86
781.60	231.80
781.92	231.79
782.25	231.73
782.57	231.67
782.89	231.58
783.22	231.51
783.54	231.43
783.86	231.41
784.19	231.35
784.51	231.33
784.83	231.29
785.16	231.23
785.48	231.19
785.80	231.13
786.12	231.09
786.45	231.09
786.77	231.04
787.09	231.00
