SpectraSuite Data File
++++++++++++++++++++++++++++++++++++
Date: Fri Feb 01 16:55:59 EST 2013
User: group
Dark Spectrum Present: No
Reference Spectrum Present: No
Number of Sampled Component Spectra: 1
Spectrometers: USB2E7196
Integration Time (usec): 35000 (USB2E7196)
Spectra Averaged: 100 (USB2E7196)
Boxcar Smoothing: 10 (USB2E7196)
Correct for Electrical Dark: No (USB2E7196)
Strobe/Lamp Enabled: No (USB2E7196)
Correct for Detector Non-linearity: No (USB2E7196)
Correct for Stray Light: No (USB2E7196)
Number of Pixels in Processed Spectrum: 2048
>>>>>Begin Processed Spectral Data<<<<<
339.09	0.00
339.48	213.77
339.86	214.92
340.24	216.15
340.63	217.71
341.01	220.16
341.39	220.50
341.78	221.54
342.16	223.01
342.54	223.27
342.93	211.82
343.31	222.52
343.69	223.07
344.07	223.51
344.46	223.96
344.84	224.34
345.22	224.59
345.60	224.84
345.99	225.02
346.37	225.14
346.75	225.23
347.13	225.27
347.52	225.33
347.90	225.41
348.28	225.48
348.66	225.51
349.05	225.51
349.43	225.52
349.81	225.59
350.19	225.65
350.57	225.73
350.96	225.81
351.34	225.89
351.72	225.94
352.10	226.04
352.48	226.10
352.87	226.13
353.25	226.19
353.63	226.25
354.01	226.31
354.39	226.43
354.77	226.52
355.15	226.65
355.54	226.68
355.92	226.74
356.30	226.80
356.68	226.93
357.06	226.97
357.44	227.04
357.82	227.10
358.20	227.19
358.58	227.24
358.97	227.29
359.35	227.39
359.73	227.46
360.11	227.52
360.49	227.55
360.87	227.65
361.25	227.72
361.63	227.78
362.01	227.84
362.39	227.83
362.77	227.87
363.15	227.87
363.53	227.92
363.91	227.91
364.29	227.94
364.67	227.88
365.05	227.91
365.43	227.92
365.81	227.91
366.19	227.91
366.57	227.92
366.95	227.93
367.33	227.89
367.71	227.87
368.09	227.90
368.47	227.90
368.85	227.84
369.23	227.83
369.61	227.79
369.99	227.79
370.37	227.73
370.75	227.75
371.13	227.69
371.51	227.62
371.89	227.61
372.27	227.56
372.65	227.54
373.03	227.49
373.41	227.47
373.78	227.44
374.16	227.35
374.54	227.28
374.92	227.23
375.30	227.16
375.68	227.09
376.06	227.02
376.44	226.96
376.82	226.87
377.19	226.83
377.57	226.76
377.95	226.66
378.33	226.61
378.71	226.47
379.09	226.41
379.47	226.38
379.84	226.28
380.22	226.20
380.60	226.12
380.98	226.06
381.36	225.95
381.73	225.85
382.11	225.82
382.49	225.77
382.87	225.70
383.25	225.66
383.62	225.72
384.00	225.63
384.38	225.58
384.76	225.54
385.13	225.49
385.51	225.41
385.89	225.38
386.27	225.36
386.64	225.31
387.02	225.24
387.40	225.16
387.78	225.13
388.15	225.09
388.53	225.00
388.91	224.98
389.29	224.95
389.66	224.94
390.04	224.90
390.42	224.87
390.79	224.84
391.17	224.83
391.55	224.71
391.92	224.68
392.30	224.69
392.68	224.69
393.05	224.66
393.43	224.69
393.81	224.70
394.18	224.69
394.56	224.70
394.94	224.78
395.31	224.78
395.69	224.83
396.06	224.89
396.44	225.00
396.82	225.05
397.19	225.13
397.57	225.14
397.95	225.18
398.32	225.21
398.70	225.30
399.07	225.38
399.45	225.43
399.82	225.49
400.20	225.54
400.58	225.60
400.95	225.65
401.33	225.74
401.70	225.86
402.08	225.96
402.45	226.08
402.83	226.17
403.20	226.30
403.58	226.37
403.95	226.50
404.33	226.59
404.71	226.66
405.08	226.84
405.46	226.98
405.83	227.10
406.21	227.21
406.58	227.36
406.96	227.49
407.33	227.67
407.70	227.87
408.08	228.10
408.45	228.30
408.83	228.55
409.20	228.76
409.58	228.94
409.95	229.18
410.33	229.46
410.70	229.67
411.08	230.00
411.45	230.30
411.82	230.58
412.20	230.89
412.57	231.32
412.95	231.60
413.32	231.99
413.69	232.41
414.07	232.90
414.44	233.35
414.82	233.80
415.19	234.32
415.56	234.84
415.94	235.41
416.31	236.07
416.68	236.64
417.06	237.33
417.43	237.99
417.81	238.75
418.18	239.48
418.55	240.29
418.93	241.12
419.30	242.00
419.67	242.94
420.04	243.92
420.42	244.91
420.79	246.09
421.16	247.23
421.54	248.43
421.91	249.56
422.28	250.79
422.66	252.11
423.03	253.41
423.40	254.74
423.77	256.11
424.15	257.51
424.52	259.01
424.89	260.61
425.26	262.17
425.64	263.61
426.01	265.20
426.38	266.89
426.75	268.54
427.13	270.25
427.50	272.06
427.87	273.91
428.24	275.77
428.61	277.50
428.99	279.44
429.36	281.51
429.73	283.61
430.10	285.63
430.47	287.66
430.85	289.79
431.22	292.03
431.59	294.39
431.96	296.63
432.33	299.05
432.70	301.47
433.08	304.28
433.45	306.88
433.82	309.47
434.19	312.35
434.56	315.16
434.93	317.76
435.30	320.32
435.68	323.22
436.05	325.99
436.42	328.77
436.79	331.26
437.16	333.94
437.53	336.72
437.90	339.51
438.27	342.28
438.64	345.04
439.01	347.62
439.38	349.83
439.75	351.96
440.13	354.49
440.50	356.77
440.87	358.58
441.24	360.53
441.61	362.63
441.98	364.11
442.35	365.94
442.72	367.81
443.09	369.62
443.46	370.53
443.83	371.16
444.20	371.64
444.57	372.49
444.94	372.75
445.31	373.08
445.68	373.46
446.05	373.53
446.42	373.22
446.79	372.77
447.16	372.41
447.53	372.14
447.90	371.01
448.27	369.89
448.64	368.35
449.01	367.25
449.37	365.36
449.74	363.47
450.11	361.26
450.48	358.81
450.85	356.35
451.22	354.26
451.59	352.29
451.96	350.36
452.33	347.80
452.70	345.52
453.07	342.74
453.43	339.86
453.80	337.12
454.17	334.47
454.54	332.00
454.91	329.30
455.28	326.64
455.65	324.18
456.02	321.73
456.38	319.60
456.75	316.98
457.12	314.71
457.49	312.51
457.86	310.33
458.23	308.53
458.59	306.47
458.96	304.41
459.33	302.55
459.70	300.74
460.07	299.25
460.43	297.50
460.80	295.90
461.17	294.47
461.54	293.02
461.91	291.58
462.27	290.13
462.64	288.85
463.01	287.49
463.38	286.22
463.74	284.83
464.11	283.66
464.48	282.60
464.85	281.52
465.21	280.68
465.58	279.76
465.95	278.71
466.32	277.80
466.68	276.94
467.05	276.05
467.42	275.17
467.78	274.23
468.15	273.37
468.52	272.75
468.88	271.88
469.25	271.09
469.62	270.53
469.98	269.86
470.35	269.24
470.72	268.66
471.08	267.95
471.45	267.46
471.82	266.92
472.18	266.38
472.55	265.96
472.92	265.42
473.28	264.96
473.65	264.47
474.02	264.07
474.38	263.70
474.75	263.40
475.11	263.05
475.48	262.81
475.85	262.62
476.21	262.37
476.58	262.24
476.94	262.13
477.31	261.91
477.67	261.81
478.04	261.71
478.41	261.66
478.77	261.74
479.14	261.70
479.50	261.74
479.87	261.81
480.23	261.88
480.60	261.96
480.96	262.05
481.33	262.29
481.69	262.46
482.06	262.66
482.42	262.83
482.79	263.09
483.15	263.40
483.52	263.75
483.88	264.11
484.25	264.53
484.61	264.93
484.98	265.42
485.34	265.94
485.71	266.53
486.07	267.13
486.44	267.68
486.80	268.37
487.17	269.09
487.53	269.90
487.90	270.75
488.26	271.70
488.62	272.74
488.99	273.70
489.35	274.77
489.72	275.92
490.08	277.16
490.44	278.40
490.81	279.74
491.17	281.09
491.54	282.56
491.90	284.09
492.26	285.74
492.63	287.47
492.99	289.27
493.36	291.16
493.72	293.22
494.08	295.31
494.45	297.57
494.81	299.92
495.17	302.34
495.54	304.88
495.90	307.55
496.26	310.35
496.63	313.28
496.99	316.37
497.35	319.56
497.72	322.95
498.08	326.45
498.44	330.16
498.80	334.09
499.17	338.09
499.53	342.21
499.89	346.59
500.26	351.04
500.62	355.65
500.98	360.63
501.34	365.71
501.71	371.01
502.07	376.41
502.43	381.99
502.79	387.78
503.16	393.87
503.52	400.12
503.88	406.53
504.24	413.17
504.60	420.02
504.97	427.11
505.33	434.30
505.69	441.98
506.05	449.66
506.41	457.44
506.78	465.55
507.14	473.97
507.50	482.59
507.86	491.55
508.22	500.70
508.59	509.79
508.95	519.19
509.31	528.95
509.67	538.84
510.03	549.00
510.39	559.45
510.75	570.13
511.12	580.90
511.48	591.98
511.84	603.26
512.20	614.58
512.56	626.40
512.92	638.45
513.28	650.68
513.64	662.96
514.00	675.52
514.37	688.28
514.73	701.19
515.09	714.09
515.45	727.21
515.81	740.59
516.17	754.34
516.53	768.29
516.89	782.26
517.25	796.40
517.61	810.69
517.97	824.99
518.33	839.23
518.69	853.82
519.05	868.59
519.41	883.55
519.77	898.84
520.13	913.99
520.49	929.19
520.85	944.26
521.21	959.66
521.57	975.61
521.93	991.16
522.29	1007.28
522.65	1023.12
523.01	1039.05
523.37	1054.84
523.73	1070.78
524.09	1086.65
524.45	1102.58
524.81	1118.92
525.17	1135.33
525.53	1151.88
525.89	1168.43
526.25	1184.95
526.61	1201.08
526.97	1217.58
527.33	1233.91
527.68	1250.15
528.04	1266.37
528.40	1282.63
528.76	1299.55
529.12	1315.98
529.48	1332.64
529.84	1348.34
530.20	1364.88
530.56	1381.66
530.91	1398.75
531.27	1415.32
531.63	1431.50
531.99	1447.88
532.35	1463.60
532.71	1479.33
533.07	1495.36
533.42	1510.98
533.78	1526.81
534.14	1542.86
534.50	1557.88
534.86	1573.42
535.21	1588.45
535.57	1604.05
535.93	1619.43
536.29	1633.81
536.65	1648.49
537.00	1662.78
537.36	1677.84
537.72	1692.00
538.08	1706.06
538.44	1719.67
538.79	1733.23
539.15	1746.69
539.51	1760.18
539.87	1774.12
540.22	1787.46
540.58	1800.91
540.94	1813.88
541.29	1826.41
541.65	1838.76
542.01	1851.64
542.37	1863.71
542.72	1875.96
543.08	1887.53
543.44	1899.70
543.79	1910.89
544.15	1921.75
544.51	1933.21
544.87	1943.91
545.22	1954.64
545.58	1964.85
545.94	1974.44
546.29	1984.13
546.65	1993.99
547.01	2003.20
547.36	2011.81
547.72	2020.37
548.07	2028.26
548.43	2036.32
548.79	2044.21
549.14	2051.78
549.50	2059.04
549.86	2066.53
550.21	2073.67
550.57	2080.80
550.92	2087.32
551.28	2094.29
551.64	2101.21
551.99	2107.72
552.35	2113.81
552.70	2119.88
553.06	2125.78
553.41	2132.14
553.77	2138.09
554.13	2143.76
554.48	2149.86
554.84	2155.48
555.19	2160.66
555.55	2165.75
555.90	2170.46
556.26	2175.47
556.61	2180.18
556.97	2184.63
557.32	2188.83
557.68	2193.07
558.03	2197.34
558.39	2200.92
558.74	2205.47
559.10	2209.51
559.45	2213.21
559.81	2217.55
560.16	2221.48
560.52	2224.69
560.87	2228.10
561.23	2230.85
561.58	2234.01
561.94	2236.43
562.29	2238.82
562.64	2241.59
563.00	2244.09
563.35	2247.46
563.71	2250.64
564.06	2253.74
564.42	2256.68
564.77	2259.43
565.12	2261.87
565.48	2263.92
565.83	2266.10
566.19	2267.65
566.54	2268.39
566.89	2269.68
567.25	2270.40
567.60	2271.64
567.96	2273.53
568.31	2274.39
568.66	2275.69
569.02	2276.38
569.37	2277.03
569.72	2278.08
570.08	2278.26
570.43	2278.52
570.78	2278.23
571.14	2276.87
571.49	2275.65
571.84	2275.49
572.20	2274.60
572.55	2273.68
572.90	2272.10
573.26	2270.82
573.61	2269.25
573.96	2267.87
574.31	2265.06
574.67	2262.34
575.02	2258.95
575.37	2255.65
575.72	2252.16
576.08	2248.94
576.43	2245.75
576.78	2242.25
577.13	2239.08
577.49	2236.26
577.84	2233.10
578.19	2229.45
578.54	2226.17
578.90	2222.37
579.25	2217.02
579.60	2212.14
579.95	2207.34
580.30	2202.55
580.66	2197.52
581.01	2192.68
581.36	2187.95
581.71	2183.99
582.06	2179.81
582.42	2175.53
582.77	2170.67
583.12	2166.51
583.47	2162.06
583.82	2157.37
584.17	2152.30
584.53	2147.05
584.88	2141.60
585.23	2136.04
585.58	2130.72
585.93	2125.28
586.28	2120.60
586.63	2115.72
586.98	2110.80
587.34	2106.22
587.69	2101.50
588.04	2096.54
588.39	2091.05
588.74	2084.75
589.09	2078.79
589.44	2072.09
589.79	2066.16
590.14	2060.48
590.49	2053.87
590.84	2047.56
591.19	2041.80
591.54	2035.57
591.89	2028.46
592.25	2021.77
592.60	2014.69
592.95	2007.35
593.30	2000.15
593.65	1992.67
594.00	1985.73
594.35	1978.67
594.70	1970.73
595.05	1963.88
595.40	1956.63
595.75	1949.32
596.10	1943.30
596.45	1936.71
596.80	1930.76
597.15	1924.35
597.50	1917.45
597.85	1911.04
598.19	1904.55
598.54	1897.43
598.89	1890.73
599.24	1884.89
599.59	1878.57
599.94	1872.36
600.29	1866.14
600.64	1859.63
600.99	1852.30
601.34	1845.58
601.69	1838.68
602.04	1831.97
602.39	1824.59
602.74	1817.94
603.08	1811.30
603.43	1804.58
603.78	1797.37
604.13	1790.19
604.48	1782.93
604.83	1776.22
605.18	1769.54
605.53	1761.76
605.87	1753.83
606.22	1746.78
606.57	1738.79
606.92	1731.40
607.27	1724.54
607.62	1717.78
607.96	1710.71
608.31	1704.32
608.66	1696.82
609.01	1689.36
609.36	1681.99
609.70	1674.09
610.05	1666.15
610.40	1658.63
610.75	1650.33
611.10	1642.72
611.44	1634.32
611.79	1626.53
612.14	1617.95
612.49	1608.70
612.83	1600.20
613.18	1592.19
613.53	1584.12
613.88	1575.81
614.22	1567.56
614.57	1558.89
614.92	1550.85
615.27	1543.38
615.61	1535.03
615.96	1527.06
616.31	1519.58
616.65	1512.21
617.00	1504.75
617.35	1496.98
617.70	1488.64
618.04	1480.33
618.39	1472.08
618.74	1464.63
619.08	1456.39
619.43	1448.71
619.78	1441.86
620.12	1434.81
620.47	1427.35
620.82	1419.19
621.16	1411.66
621.51	1404.01
621.85	1396.37
622.20	1387.93
622.55	1379.55
622.89	1371.80
623.24	1364.14
623.59	1356.63
623.93	1349.12
624.28	1341.85
624.62	1334.46
624.97	1327.32
625.32	1320.59
625.66	1313.67
626.01	1306.53
626.35	1299.12
626.70	1291.49
627.04	1283.88
627.39	1276.12
627.73	1268.66
628.08	1261.74
628.43	1254.61
628.77	1247.41
629.12	1239.85
629.46	1232.73
629.81	1225.28
630.15	1217.98
630.50	1210.70
630.84	1202.54
631.19	1194.57
631.53	1186.99
631.88	1179.44
632.22	1171.84
632.57	1164.47
632.91	1156.95
633.26	1149.45
633.60	1142.00
633.95	1134.85
634.29	1127.78
634.64	1121.04
634.98	1113.79
635.32	1106.75
635.67	1100.07
636.01	1093.44
636.36	1086.69
636.70	1079.99
637.05	1073.43
637.39	1067.09
637.73	1060.58
638.08	1054.68
638.42	1048.73
638.77	1042.44
639.11	1035.94
639.45	1029.53
639.80	1022.95
640.14	1016.59
640.49	1010.18
640.83	1003.94
641.17	997.78
641.52	991.43
641.86	984.97
642.20	979.07
642.55	972.67
642.89	966.26
643.23	959.65
643.58	953.91
643.92	947.91
644.26	941.93
644.61	935.83
644.95	929.80
645.29	923.33
645.64	916.58
645.98	910.31
646.32	904.34
646.66	898.40
647.01	892.59
647.35	886.89
647.69	881.00
648.04	875.49
648.38	869.71
648.72	863.76
649.06	857.73
649.41	851.89
649.75	846.03
650.09	840.12
650.43	834.40
650.78	828.25
651.12	822.27
651.46	816.51
651.80	810.80
652.14	805.46
652.49	800.14
652.83	794.98
653.17	789.27
653.51	783.67
653.85	778.22
654.20	772.66
654.54	766.75
654.88	760.99
655.22	755.06
655.56	749.32
655.90	743.88
656.25	738.75
656.59	733.41
656.93	728.32
657.27	723.17
657.61	717.74
657.95	712.68
658.29	707.57
658.64	702.36
658.98	697.11
659.32	691.60
659.66	686.38
660.00	681.13
660.34	676.27
660.68	671.33
661.02	666.30
661.36	661.57
661.70	656.97
662.05	652.63
662.39	648.35
662.73	643.98
663.07	639.64
663.41	635.20
663.75	630.73
664.09	626.17
664.43	621.78
664.77	617.70
665.11	613.47
665.45	609.44
665.79	605.35
666.13	601.21
666.47	597.13
666.81	592.96
667.15	588.86
667.49	584.91
667.83	581.08
668.17	577.21
668.51	573.16
668.85	569.21
669.19	565.35
669.53	561.56
669.87	557.68
670.21	553.96
670.55	550.34
670.89	546.90
671.23	543.49
671.57	540.01
671.91	536.48
672.25	533.04
672.58	529.51
672.92	526.06
673.26	522.99
673.60	519.88
673.94	516.77
674.28	513.86
674.62	510.94
674.96	507.81
675.30	504.93
675.64	501.98
675.97	499.15
676.31	496.32
676.65	493.41
676.99	490.71
677.33	487.84
677.67	484.93
678.01	481.87
678.34	478.96
678.68	476.07
679.02	473.21
679.36	470.34
679.70	467.57
680.04	464.88
680.37	461.91
680.71	459.03
681.05	456.42
681.39	453.69
681.73	451.01
682.06	448.58
682.40	446.00
682.74	443.51
683.08	440.95
683.42	438.33
683.75	435.82
684.09	433.25
684.43	430.87
684.77	428.48
685.10	426.11
685.44	423.73
685.78	421.45
686.12	419.23
686.45	416.98
686.79	414.69
687.13	412.47
687.46	410.30
687.80	408.21
688.14	406.00
688.48	403.95
688.81	401.72
689.15	399.53
689.49	397.35
689.82	395.29
690.16	393.22
690.50	391.28
690.83	389.36
691.17	387.41
691.51	385.43
691.84	383.58
692.18	381.72
692.52	379.81
692.85	377.84
693.19	375.95
693.52	374.08
693.86	372.26
694.20	370.48
694.53	368.71
694.87	366.83
695.21	365.01
695.54	363.24
695.88	361.49
696.21	359.77
696.55	358.12
696.88	356.39
697.22	354.72
697.56	353.07
697.89	351.38
698.23	349.73
698.56	348.13
698.90	346.56
699.23	344.87
699.57	343.30
699.90	341.76
700.24	340.19
700.58	338.69
700.91	337.23
701.25	335.79
701.58	334.44
701.92	333.10
702.25	331.75
702.59	330.37
702.92	329.06
703.26	327.75
703.59	326.44
703.93	325.25
704.26	324.02
704.60	322.75
704.93	321.49
705.26	320.28
705.60	319.10
705.93	317.90
706.27	316.91
706.60	315.83
706.94	314.76
707.27	313.68
707.61	312.60
707.94	311.52
708.27	310.41
708.61	309.31
708.94	308.27
709.28	307.29
709.61	306.31
709.94	305.35
710.28	304.33
710.61	303.36
710.95	302.26
711.28	301.35
711.61	300.41
711.95	299.51
712.28	298.56
712.61	297.53
712.95	296.57
713.28	295.67
713.61	294.81
713.95	293.95
714.28	293.11
714.61	292.25
714.95	291.45
715.28	290.58
715.61	289.70
715.95	288.84
716.28	287.98
716.61	287.13
716.95	286.31
717.28	285.60
717.61	284.84
717.94	284.08
718.28	283.22
718.61	282.52
718.94	281.82
719.27	281.16
719.61	280.53
719.94	279.89
720.27	279.15
720.60	278.49
720.94	277.84
721.27	277.21
721.60	276.65
721.93	276.04
722.27	275.54
722.60	275.01
722.93	274.49
723.26	273.97
723.59	273.45
723.93	272.91
724.26	272.31
724.59	271.74
724.92	271.23
725.25	270.80
725.59	270.25
725.92	269.76
726.25	269.24
726.58	268.76
726.91	268.29
727.24	267.85
727.57	267.36
727.91	266.86
728.24	266.44
728.57	265.96
728.90	265.48
729.23	264.97
729.56	264.55
729.89	264.06
730.22	263.54
730.55	263.06
730.89	262.62
731.22	262.19
731.55	261.79
731.88	261.33
732.21	260.88
732.54	260.45
732.87	260.00
733.20	259.59
733.53	259.22
733.86	258.81
734.19	258.43
734.52	258.04
734.85	257.72
735.18	257.28
735.51	256.93
735.84	256.55
736.17	256.21
736.50	255.81
736.83	255.60
737.16	255.27
737.49	254.93
737.82	254.58
738.15	254.21
738.48	253.85
738.81	253.54
739.14	253.19
739.47	252.89
739.80	252.57
740.13	252.27
740.46	251.93
740.79	251.61
741.12	251.28
741.45	250.94
741.78	250.59
742.11	250.29
742.44	249.93
742.77	249.67
743.10	249.34
743.43	249.03
743.75	248.62
744.08	248.46
744.41	248.21
744.74	247.93
745.07	247.69
745.40	247.41
745.73	247.20
746.06	246.95
746.39	246.67
746.71	246.41
747.04	246.15
747.37	245.90
747.70	245.65
748.03	245.40
748.36	245.21
748.68	244.96
749.01	244.73
749.34	244.50
749.67	244.22
750.00	244.01
750.33	243.83
750.65	243.58
750.98	243.22
751.31	243.01
751.64	242.77
751.97	242.62
752.29	242.43
752.62	242.15
752.95	241.93
753.28	241.71
753.60	241.50
753.93	241.31
754.26	241.11
754.59	240.88
754.91	240.66
755.24	240.41
755.57	240.21
755.90	240.00
756.22	239.80
756.55	239.63
756.88	239.42
757.20	239.18
757.53	239.02
757.86	238.84
758.19	238.64
758.51	238.47
758.84	238.20
759.17	238.03
759.49	237.86
759.82	237.72
760.15	237.56
760.47	237.42
760.80	237.21
761.13	237.06
761.45	236.90
761.78	236.76
762.11	236.63
762.43	236.50
762.76	236.37
763.08	236.23
763.41	236.07
763.74	235.94
764.06	235.78
764.39	235.62
764.71	235.48
765.04	235.36
765.37	235.24
765.69	235.14
766.02	234.99
766.34	234.85
766.67	234.70
767.00	234.57
767.32	234.49
767.65	234.47
767.97	234.35
768.30	234.26
768.62	234.14
768.95	234.03
769.27	233.91
769.60	233.80
769.92	233.72
770.25	233.60
770.57	233.47
770.90	233.40
771.22	233.34
771.55	233.27
771.87	233.14
772.20	233.04
772.52	233.03
772.85	233.07
773.17	233.00
773.50	232.92
773.82	232.88
774.15	232.74
774.47	232.59
774.80	232.49
775.12	232.40
775.45	232.32
775.77	232.24
776.09	232.18
776.42	232.11
776.74	232.10
777.07	232.03
777.39	231.98
777.72	231.89
778.04	231.81
778.36	231.74
778.69	231.69
779.01	231.65
779.33	231.48
779.66	231.29
779.98	231.25
780.31	231.18
780.63	231.12
780.95	231.09
781.28	231.02
781.60	230.98
781.92	230.93
782.25	230.90
782.57	230.82
782.89	230.78
783.22	230.73
783.54	230.63
783.86	230.60
784.19	230.53
784.51	230.53
784.83	230.47
785.16	230.41
785.48	230.35
785.80	230.30
786.12	230.30
786.45	230.27
786.77	230.20
787.09	230.15
