SpectraSuite Data File
++++++++++++++++++++++++++++++++++++
Date: Fri Feb 01 16:06:41 EST 2013
User: group
Dark Spectrum Present: No
Reference Spectrum Present: No
Number of Sampled Component Spectra: 1
Spectrometers: USB2E7196
Integration Time (usec): 35000 (USB2E7196)
Spectra Averaged: 100 (USB2E7196)
Boxcar Smoothing: 10 (USB2E7196)
Correct for Electrical Dark: No (USB2E7196)
Strobe/Lamp Enabled: No (USB2E7196)
Correct for Detector Non-linearity: No (USB2E7196)
Correct for Stray Light: No (USB2E7196)
Number of Pixels in Processed Spectrum: 2048
>>>>>Begin Processed Spectral Data<<<<<
339.09	0.00
339.48	214.29
339.86	215.66
340.24	217.66
340.63	218.85
341.01	221.18
341.39	221.37
341.78	223.42
342.16	224.12
342.54	224.69
342.93	213.01
343.31	223.80
343.69	224.35
344.07	224.83
344.46	225.25
344.84	225.65
345.22	225.90
345.60	226.18
345.99	226.34
346.37	226.47
346.75	226.54
347.13	226.64
347.52	226.72
347.90	226.83
348.28	226.89
348.66	226.97
349.05	226.96
349.43	226.98
349.81	227.01
350.19	227.05
350.57	227.12
350.96	227.19
351.34	227.26
351.72	227.38
352.10	227.48
352.48	227.55
352.87	227.61
353.25	227.68
353.63	227.75
354.01	227.83
354.39	227.90
354.77	228.01
355.15	228.11
355.54	228.16
355.92	228.17
356.30	228.25
356.68	228.38
357.06	228.46
357.44	228.53
357.82	228.61
358.20	228.69
358.58	228.73
358.97	228.81
359.35	228.88
359.73	228.95
360.11	229.01
360.49	229.07
360.87	229.12
361.25	229.18
361.63	229.30
362.01	229.35
362.39	229.39
362.77	229.44
363.15	229.45
363.53	229.46
363.91	229.48
364.29	229.49
364.67	229.37
365.05	229.37
365.43	229.36
365.81	229.36
366.19	229.38
366.57	229.42
366.95	229.37
367.33	229.34
367.71	229.31
368.09	229.31
368.47	229.27
368.85	229.23
369.23	229.21
369.61	229.10
369.99	229.09
370.37	229.08
370.75	229.08
371.13	229.04
371.51	228.97
371.89	228.91
372.27	228.85
372.65	228.83
373.03	228.78
373.41	228.72
373.78	228.64
374.16	228.52
374.54	228.42
374.92	228.37
375.30	228.34
375.68	228.24
376.06	228.18
376.44	228.12
376.82	228.03
377.19	227.94
377.57	227.87
377.95	227.75
378.33	227.66
378.71	227.52
379.09	227.44
379.47	227.39
379.84	227.30
380.22	227.23
380.60	227.13
380.98	227.06
381.36	226.98
381.73	226.91
382.11	226.89
382.49	226.83
382.87	226.73
383.25	226.62
383.62	226.67
384.00	226.58
384.38	226.52
384.76	226.50
385.13	226.51
385.51	226.41
385.89	226.34
386.27	226.30
386.64	226.26
387.02	226.22
387.40	226.16
387.78	226.16
388.15	226.14
388.53	226.10
388.91	226.05
389.29	226.04
389.66	226.03
390.04	225.97
390.42	225.93
390.79	225.93
391.17	225.92
391.55	225.82
391.92	225.80
392.30	225.79
392.68	225.76
393.05	225.72
393.43	225.75
393.81	225.76
394.18	225.75
394.56	225.78
394.94	225.80
395.31	225.80
395.69	225.86
396.06	225.89
396.44	225.93
396.82	225.99
397.19	226.09
397.57	226.13
397.95	226.22
398.32	226.27
398.70	226.34
399.07	226.46
399.45	226.54
399.82	226.60
400.20	226.67
400.58	226.74
400.95	226.82
401.33	226.89
401.70	227.04
402.08	227.13
402.45	227.22
402.83	227.33
403.20	227.47
403.58	227.55
403.95	227.68
404.33	227.84
404.71	227.95
405.08	228.13
405.46	228.28
405.83	228.43
406.21	228.63
406.58	228.78
406.96	228.91
407.33	229.08
407.70	229.29
408.08	229.58
408.45	229.84
408.83	230.09
409.20	230.33
409.58	230.51
409.95	230.78
410.33	231.10
410.70	231.34
411.08	231.63
411.45	231.94
411.82	232.24
412.20	232.58
412.57	232.98
412.95	233.26
413.32	233.65
413.69	234.05
414.07	234.43
414.44	234.89
414.82	235.38
415.19	235.91
415.56	236.49
415.94	237.03
416.31	237.65
416.68	238.25
417.06	238.96
417.43	239.65
417.81	240.41
418.18	241.17
418.55	242.04
418.93	242.93
419.30	243.82
419.67	244.74
420.04	245.67
420.42	246.66
420.79	247.83
421.16	248.97
421.54	250.14
421.91	251.37
422.28	252.64
422.66	253.94
423.03	255.25
423.40	256.56
423.77	257.94
424.15	259.34
424.52	260.79
424.89	262.42
425.26	263.96
425.64	265.37
426.01	266.89
426.38	268.51
426.75	270.15
427.13	271.86
427.50	273.68
427.87	275.59
428.24	277.46
428.61	279.18
428.99	281.09
429.36	283.15
429.73	285.16
430.10	287.18
430.47	289.24
430.85	291.32
431.22	293.51
431.59	295.87
431.96	298.10
432.33	300.60
432.70	302.95
433.08	305.75
433.45	308.42
433.82	311.07
434.19	313.95
434.56	316.77
434.93	319.40
435.30	322.04
435.68	324.89
436.05	327.69
436.42	330.49
436.79	333.06
437.16	335.78
437.53	338.68
437.90	341.48
438.27	344.21
438.64	347.08
439.01	349.73
439.38	351.96
439.75	354.13
440.13	356.61
440.50	358.92
440.87	360.79
441.24	362.73
441.61	364.88
441.98	366.40
442.35	368.18
442.72	370.06
443.09	371.82
443.46	372.80
443.83	373.39
444.20	373.92
444.57	374.70
444.94	374.99
445.31	375.33
445.68	375.71
446.05	375.80
446.42	375.38
446.79	374.94
447.16	374.48
447.53	374.19
447.90	373.07
448.27	371.94
448.64	370.34
449.01	369.19
449.37	367.24
449.74	365.30
450.11	363.10
450.48	360.61
450.85	358.13
451.22	356.03
451.59	354.04
451.96	352.12
452.33	349.55
452.70	347.23
453.07	344.36
453.43	341.44
453.80	338.68
454.17	336.02
454.54	333.46
454.91	330.76
455.28	328.09
455.65	325.59
456.02	323.17
456.38	321.03
456.75	318.41
457.12	316.16
457.49	313.98
457.86	311.79
458.23	309.98
458.59	307.90
458.96	305.84
459.33	303.96
459.70	302.09
460.07	300.58
460.43	298.87
460.80	297.31
461.17	295.89
461.54	294.39
461.91	292.99
462.27	291.55
462.64	290.31
463.01	288.97
463.38	287.68
463.74	286.28
464.11	285.14
464.48	284.09
464.85	282.98
465.21	282.15
465.58	281.21
465.95	280.07
466.32	279.18
466.68	278.25
467.05	277.40
467.42	276.51
467.78	275.60
468.15	274.69
468.52	274.01
468.88	273.15
469.25	272.38
469.62	271.74
469.98	271.09
470.35	270.46
470.72	269.82
471.08	269.19
471.45	268.63
471.82	268.05
472.18	267.47
472.55	267.03
472.92	266.49
473.28	266.04
473.65	265.60
474.02	265.17
474.38	264.80
474.75	264.44
475.11	264.10
475.48	263.83
475.85	263.58
476.21	263.30
476.58	263.08
476.94	262.93
477.31	262.75
477.67	262.61
478.04	262.50
478.41	262.47
478.77	262.51
479.14	262.48
479.50	262.50
479.87	262.60
480.23	262.66
480.60	262.71
480.96	262.81
481.33	263.02
481.69	263.20
482.06	263.39
482.42	263.60
482.79	263.87
483.15	264.21
483.52	264.64
483.88	265.01
484.25	265.43
484.61	265.85
484.98	266.35
485.34	266.91
485.71	267.51
486.07	268.11
486.44	268.67
486.80	269.35
487.17	270.10
487.53	270.90
487.90	271.77
488.26	272.71
488.62	273.73
488.99	274.70
489.35	275.82
489.72	276.94
490.08	278.15
490.44	279.38
490.81	280.70
491.17	282.04
491.54	283.59
491.90	285.14
492.26	286.84
492.63	288.56
492.99	290.33
493.36	292.26
493.72	294.32
494.08	296.44
494.45	298.73
494.81	301.12
495.17	303.52
495.54	306.10
495.90	308.84
496.26	311.63
496.63	314.63
496.99	317.70
497.35	320.96
497.72	324.36
498.08	327.89
498.44	331.60
498.80	335.54
499.17	339.60
499.53	343.81
499.89	348.19
500.26	352.70
500.62	357.37
500.98	362.36
501.34	367.40
501.71	372.73
502.07	378.17
502.43	383.74
502.79	389.62
503.16	395.73
503.52	402.02
503.88	408.45
504.24	415.09
504.60	421.99
504.97	429.20
505.33	436.57
505.69	444.26
506.05	452.06
506.41	459.97
506.78	468.09
507.14	476.50
507.50	485.23
507.86	494.31
508.22	503.59
508.59	512.79
508.95	522.40
509.31	532.28
509.67	542.38
510.03	552.69
510.39	563.22
510.75	574.02
511.12	584.89
511.48	596.21
511.84	607.65
512.20	619.14
512.56	631.07
512.92	643.25
513.28	655.65
513.64	668.08
514.00	680.75
514.37	693.74
514.73	706.82
515.09	719.83
515.45	733.11
515.81	746.65
516.17	760.56
516.53	774.70
516.89	788.83
517.25	803.06
517.61	817.46
517.97	831.86
518.33	846.23
518.69	861.04
519.05	875.94
519.41	891.06
519.77	906.66
520.13	922.09
520.49	937.38
520.85	952.72
521.21	968.48
521.57	984.74
521.93	1000.42
522.29	1016.72
522.65	1032.93
523.01	1049.12
523.37	1065.13
523.73	1081.24
524.09	1097.25
524.45	1113.48
524.81	1129.97
525.17	1146.74
525.53	1163.64
525.89	1180.47
526.25	1197.26
526.61	1213.67
526.97	1230.39
527.33	1246.84
527.68	1263.40
528.04	1279.86
528.40	1296.38
528.76	1313.30
529.12	1329.88
529.48	1346.86
529.84	1362.84
530.20	1379.45
530.56	1396.42
530.91	1413.82
531.27	1430.56
531.63	1446.97
531.99	1463.59
532.35	1479.67
532.71	1495.44
533.07	1511.81
533.42	1527.71
533.78	1543.65
534.14	1559.93
534.50	1575.30
534.86	1591.03
535.21	1606.17
535.57	1622.09
535.93	1637.58
536.29	1652.48
536.65	1667.46
537.00	1682.06
537.36	1697.32
537.72	1711.83
538.08	1726.14
538.44	1739.79
538.79	1753.67
539.15	1767.31
539.51	1780.94
539.87	1795.18
540.22	1808.89
540.58	1822.43
540.94	1835.69
541.29	1848.46
541.65	1861.09
542.01	1874.24
542.37	1886.48
542.72	1899.03
543.08	1910.66
543.44	1923.00
543.79	1934.21
544.15	1945.02
544.51	1956.65
544.87	1967.57
545.22	1978.35
545.58	1988.48
545.94	1998.20
546.29	2008.02
546.65	2017.99
547.01	2027.21
547.36	2035.91
547.72	2044.50
548.07	2052.40
548.43	2060.66
548.79	2068.72
549.14	2076.16
549.50	2083.48
549.86	2091.10
550.21	2098.26
550.57	2105.48
550.92	2112.06
551.28	2118.98
551.64	2126.16
551.99	2132.68
552.35	2138.85
552.70	2145.04
553.06	2151.04
553.41	2157.54
553.77	2163.58
554.13	2169.53
554.48	2175.71
554.84	2181.14
555.19	2186.30
555.55	2191.51
555.90	2195.85
556.26	2200.76
556.61	2205.55
556.97	2209.92
557.32	2214.10
557.68	2218.05
558.03	2222.45
558.39	2226.19
558.74	2230.88
559.10	2234.77
559.45	2238.38
559.81	2242.68
560.16	2246.25
560.52	2249.44
560.87	2252.67
561.23	2255.41
561.58	2258.37
561.94	2260.77
562.29	2263.13
562.64	2265.94
563.00	2268.48
563.35	2271.97
563.71	2275.11
564.06	2278.28
564.42	2281.06
564.77	2283.72
565.12	2286.18
565.48	2287.95
565.83	2289.85
566.19	2291.23
566.54	2292.12
566.89	2293.24
567.25	2293.72
567.60	2295.20
567.96	2296.99
568.31	2297.79
568.66	2298.77
569.02	2299.31
569.37	2299.80
569.72	2300.65
570.08	2300.80
570.43	2300.86
570.78	2300.21
571.14	2298.72
571.49	2297.36
571.84	2296.93
572.20	2295.76
572.55	2294.55
572.90	2293.13
573.26	2291.57
573.61	2289.72
573.96	2288.01
574.31	2285.15
574.67	2282.27
575.02	2278.74
575.37	2275.32
575.72	2271.74
576.08	2268.51
576.43	2265.23
576.78	2261.48
577.13	2258.34
577.49	2255.20
577.84	2251.75
578.19	2248.13
578.54	2244.54
578.90	2240.38
579.25	2234.97
579.60	2230.03
579.95	2225.20
580.30	2220.11
580.66	2215.02
581.01	2210.07
581.36	2205.20
581.71	2200.97
582.06	2196.57
582.42	2192.05
582.77	2186.93
583.12	2182.36
583.47	2177.69
583.82	2172.66
584.17	2167.59
584.53	2162.16
584.88	2156.50
585.23	2150.67
585.58	2145.27
585.93	2139.73
586.28	2134.98
586.63	2129.82
586.98	2124.77
587.34	2120.09
587.69	2115.40
588.04	2110.22
588.39	2104.56
588.74	2098.07
589.09	2091.94
589.44	2085.14
589.79	2079.15
590.14	2073.54
590.49	2067.00
590.84	2060.55
591.19	2054.61
591.54	2048.03
591.89	2040.63
592.25	2033.80
592.60	2026.68
592.95	2019.04
593.30	2011.72
593.65	2004.05
594.00	1997.08
594.35	1989.77
594.70	1981.77
595.05	1974.50
595.40	1967.19
595.75	1959.75
596.10	1953.58
596.45	1946.79
596.80	1940.74
597.15	1934.24
597.50	1927.02
597.85	1920.51
598.19	1913.91
598.54	1906.91
598.89	1900.24
599.24	1894.24
599.59	1887.72
599.94	1881.55
600.29	1875.25
600.64	1868.71
600.99	1861.37
601.34	1854.54
601.69	1847.56
602.04	1840.54
602.39	1833.11
602.74	1826.43
603.08	1819.67
603.43	1812.90
603.78	1805.64
604.13	1798.40
604.48	1791.00
604.83	1784.14
605.18	1777.27
605.53	1769.37
605.87	1761.23
606.22	1754.09
606.57	1746.36
606.92	1738.97
607.27	1731.74
607.62	1724.86
607.96	1717.61
608.31	1711.07
608.66	1703.55
609.01	1696.15
609.36	1688.73
609.70	1680.75
610.05	1672.56
610.40	1664.92
610.75	1656.58
611.10	1648.91
611.44	1640.49
611.79	1632.53
612.14	1623.97
612.49	1614.78
612.83	1606.30
613.18	1598.34
613.53	1590.17
613.88	1581.51
614.22	1573.35
614.57	1564.79
614.92	1556.80
615.27	1549.22
615.61	1540.77
615.96	1532.79
616.31	1525.07
616.65	1517.62
617.00	1510.06
617.35	1502.45
617.70	1494.25
618.04	1485.77
618.39	1477.53
618.74	1469.81
619.08	1461.53
619.43	1453.84
619.78	1446.82
620.12	1439.66
620.47	1432.07
620.82	1423.99
621.16	1416.67
621.51	1408.92
621.85	1401.27
622.20	1392.63
622.55	1384.37
622.89	1376.47
623.24	1368.80
623.59	1361.48
623.93	1353.90
624.28	1346.71
624.62	1339.18
624.97	1331.82
625.32	1325.00
625.66	1318.02
626.01	1310.97
626.35	1303.47
626.70	1295.82
627.04	1288.18
627.39	1280.39
627.73	1272.88
628.08	1265.96
628.43	1258.58
628.77	1251.17
629.12	1243.59
629.46	1236.48
629.81	1228.91
630.15	1221.76
630.50	1214.30
630.84	1206.09
631.19	1198.30
631.53	1190.71
631.88	1183.14
632.22	1175.59
632.57	1168.27
632.91	1160.65
633.26	1153.13
633.60	1145.77
633.95	1138.65
634.29	1131.61
634.64	1124.88
634.98	1117.54
635.32	1110.31
635.67	1103.62
636.01	1097.09
636.36	1090.35
636.70	1083.79
637.05	1077.28
637.39	1070.87
637.73	1064.33
638.08	1058.35
638.42	1052.32
638.77	1045.87
639.11	1039.32
639.45	1032.89
639.80	1026.26
640.14	1019.89
640.49	1013.44
640.83	1007.10
641.17	1000.80
641.52	994.46
641.86	988.10
642.20	982.20
642.55	975.90
642.89	969.49
643.23	962.87
643.58	957.04
643.92	950.83
644.26	944.81
644.61	938.62
644.95	932.66
645.29	926.07
645.64	919.33
645.98	913.06
646.32	907.14
646.66	901.10
647.01	895.31
647.35	889.57
647.69	883.73
648.04	878.12
648.38	872.38
648.72	866.39
649.06	860.25
649.41	854.42
649.75	848.43
650.09	842.53
650.43	836.75
650.78	830.59
651.12	824.70
651.46	818.96
651.80	813.27
652.14	807.85
652.49	802.53
652.83	797.30
653.17	791.56
653.51	785.92
653.85	780.47
654.20	774.78
654.54	768.76
654.88	762.97
655.22	757.11
655.56	751.41
655.90	745.97
656.25	740.75
656.59	735.39
656.93	730.33
657.27	725.17
657.61	719.72
657.95	714.69
658.29	709.65
658.64	704.36
658.98	699.13
659.32	693.71
659.66	688.45
660.00	683.18
660.34	678.30
660.68	673.39
661.02	668.41
661.36	663.76
661.70	659.31
662.05	655.03
662.39	650.70
662.73	646.23
663.07	641.80
663.41	637.33
663.75	632.89
664.09	628.31
664.43	623.89
664.77	619.78
665.11	615.46
665.45	611.26
665.79	607.20
666.13	603.04
666.47	598.91
666.81	594.82
667.15	590.67
667.49	586.78
667.83	582.94
668.17	579.00
668.51	574.96
668.85	570.84
669.19	566.93
669.53	563.12
669.87	559.21
670.21	555.56
670.55	551.91
670.89	548.41
671.23	544.95
671.57	541.45
671.91	537.91
672.25	534.43
672.58	530.91
672.92	527.50
673.26	524.32
673.60	521.15
673.94	518.03
674.28	515.15
674.62	512.18
674.96	509.09
675.30	506.25
675.64	503.25
675.97	500.54
676.31	497.68
676.65	494.72
676.99	492.03
677.33	489.13
677.67	486.32
678.01	483.30
678.34	480.36
678.68	477.47
679.02	474.69
679.36	471.92
679.70	469.19
680.04	466.40
680.37	463.53
680.71	460.72
681.05	458.04
681.39	455.31
681.73	452.58
682.06	450.03
682.40	447.46
682.74	444.97
683.08	442.37
683.42	439.77
683.75	437.28
684.09	434.70
684.43	432.20
684.77	429.76
685.10	427.42
685.44	425.07
685.78	422.79
686.12	420.49
686.45	418.16
686.79	415.87
687.13	413.65
687.46	411.46
687.80	409.32
688.14	407.15
688.48	405.09
688.81	402.90
689.15	400.73
689.49	398.55
689.82	396.42
690.16	394.37
690.50	392.41
690.83	390.46
691.17	388.52
691.51	386.67
691.84	384.82
692.18	382.87
692.52	380.91
692.85	378.96
693.19	377.07
693.52	375.23
693.86	373.44
694.20	371.67
694.53	369.86
694.87	368.01
695.21	366.23
695.54	364.41
695.88	362.67
696.21	360.97
696.55	359.29
696.88	357.64
697.22	356.00
697.56	354.38
697.89	352.75
698.23	351.11
698.56	349.49
698.90	347.86
699.23	346.23
699.57	344.67
699.90	343.13
700.24	341.63
700.58	340.12
700.91	338.57
701.25	337.14
701.58	335.81
701.92	334.46
702.25	333.06
702.59	331.65
702.92	330.29
703.26	328.94
703.59	327.68
703.93	326.48
704.26	325.23
704.60	323.93
704.93	322.65
705.26	321.43
705.60	320.25
705.93	319.11
706.27	318.10
706.60	317.07
706.94	316.02
707.27	314.87
707.61	313.81
707.94	312.79
708.27	311.68
708.61	310.61
708.94	309.60
709.28	308.64
709.61	307.71
709.94	306.78
710.28	305.76
710.61	304.77
710.95	303.70
711.28	302.75
711.61	301.78
711.95	300.88
712.28	299.89
712.61	298.91
712.95	298.01
713.28	297.11
713.61	296.19
713.95	295.32
714.28	294.46
714.61	293.59
714.95	292.74
715.28	291.91
715.61	290.99
715.95	290.13
716.28	289.21
716.61	288.38
716.95	287.55
717.28	286.79
717.61	286.02
717.94	285.28
718.28	284.52
718.61	283.83
718.94	283.11
719.27	282.49
719.61	281.81
719.94	281.14
720.27	280.39
720.60	279.73
720.94	279.05
721.27	278.48
721.60	277.92
721.93	277.34
722.27	276.78
722.60	276.21
722.93	275.64
723.26	275.16
723.59	274.59
723.93	274.05
724.26	273.50
724.59	272.94
724.92	272.40
725.25	271.88
725.59	271.33
725.92	270.82
726.25	270.30
726.58	269.79
726.91	269.28
727.24	268.82
727.57	268.33
727.91	267.84
728.24	267.35
728.57	266.85
728.90	266.37
729.23	265.87
729.56	265.49
729.89	265.01
730.22	264.50
730.55	264.05
730.89	263.63
731.22	263.14
731.55	262.73
731.88	262.31
732.21	261.89
732.54	261.43
732.87	260.97
733.20	260.54
733.53	260.15
733.86	259.78
734.19	259.37
734.52	259.02
734.85	258.72
735.18	258.34
735.51	257.97
735.84	257.61
736.17	257.27
736.50	256.87
736.83	256.60
737.16	256.29
737.49	255.94
737.82	255.57
738.15	255.28
738.48	254.92
738.81	254.60
739.14	254.26
739.47	253.99
739.80	253.71
740.13	253.45
740.46	253.17
740.79	252.86
741.12	252.57
741.45	252.25
741.78	251.92
742.11	251.64
742.44	251.31
742.77	251.01
743.10	250.70
743.43	250.38
743.75	250.04
744.08	249.91
744.41	249.67
744.74	249.43
745.07	249.17
745.40	248.94
745.73	248.71
746.06	248.46
746.39	248.22
746.71	247.99
747.04	247.72
747.37	247.45
747.70	247.20
748.03	246.95
748.36	246.73
748.68	246.51
749.01	246.26
749.34	246.08
749.67	245.87
750.00	245.69
750.33	245.57
750.65	245.37
750.98	244.99
751.31	244.76
751.64	244.53
751.97	244.38
752.29	244.14
752.62	243.87
752.95	243.66
753.28	243.43
753.60	243.25
753.93	243.07
754.26	242.87
754.59	242.65
754.91	242.46
755.24	242.26
755.57	242.02
755.90	241.85
756.22	241.65
756.55	241.43
756.88	241.19
757.20	240.95
757.53	240.73
757.86	240.57
758.19	240.42
758.51	240.27
758.84	240.05
759.17	239.89
759.49	239.75
759.82	239.62
760.15	239.46
760.47	239.28
760.80	239.10
761.13	238.99
761.45	238.85
761.78	238.67
762.11	238.56
762.43	238.42
762.76	238.27
763.08	238.12
763.41	238.01
763.74	237.92
764.06	237.78
764.39	237.62
764.71	237.47
765.04	237.34
765.37	237.17
765.69	237.05
766.02	236.96
766.34	236.83
766.67	236.67
767.00	236.58
767.32	236.50
767.65	236.41
767.97	236.26
768.30	236.14
768.62	236.03
768.95	235.85
769.27	235.73
769.60	235.59
769.92	235.46
770.25	235.34
770.57	235.20
770.90	235.09
771.22	234.99
771.55	234.87
771.87	234.77
772.20	234.66
772.52	234.62
772.85	234.59
773.17	234.49
773.50	234.40
773.82	234.27
774.15	234.12
774.47	233.97
774.80	233.89
775.12	233.77
775.45	233.71
775.77	233.66
776.09	233.59
776.42	233.50
776.74	233.43
777.07	233.33
777.39	233.27
777.72	233.17
778.04	233.12
778.36	233.06
778.69	233.00
779.01	232.94
779.33	232.78
779.66	232.59
779.98	232.54
780.31	232.48
780.63	232.43
780.95	232.39
781.28	232.35
781.60	232.27
781.92	232.20
782.25	232.11
782.57	232.06
782.89	231.98
783.22	231.93
783.54	231.87
783.86	231.82
784.19	231.76
784.51	231.74
784.83	231.66
785.16	231.62
785.48	231.59
785.80	231.55
786.12	231.53
786.45	231.51
786.77	231.50
787.09	231.46
