SpectraSuite Data File
++++++++++++++++++++++++++++++++++++
Date: Fri Feb 01 15:20:34 EST 2013
User: group
Dark Spectrum Present: No
Reference Spectrum Present: No
Number of Sampled Component Spectra: 1
Spectrometers: USB2E7196
Integration Time (usec): 35000 (USB2E7196)
Spectra Averaged: 100 (USB2E7196)
Boxcar Smoothing: 10 (USB2E7196)
Correct for Electrical Dark: No (USB2E7196)
Strobe/Lamp Enabled: No (USB2E7196)
Correct for Detector Non-linearity: No (USB2E7196)
Correct for Stray Light: No (USB2E7196)
Number of Pixels in Processed Spectrum: 2048
>>>>>Begin Processed Spectral Data<<<<<
339.09	0.00
339.48	215.86
339.86	217.01
340.24	217.86
340.63	219.54
341.01	222.69
341.39	221.51
341.78	223.11
342.16	224.57
342.54	225.39
342.93	213.55
343.31	224.36
343.69	224.87
344.07	225.31
344.46	225.74
344.84	226.12
345.22	226.31
345.60	226.58
345.99	226.78
346.37	226.92
346.75	227.02
347.13	227.08
347.52	227.12
347.90	227.19
348.28	227.23
348.66	227.30
349.05	227.25
349.43	227.30
349.81	227.33
350.19	227.40
350.57	227.45
350.96	227.51
351.34	227.58
351.72	227.64
352.10	227.74
352.48	227.82
352.87	227.88
353.25	227.95
353.63	228.01
354.01	228.06
354.39	228.13
354.77	228.17
355.15	228.23
355.54	228.30
355.92	228.32
356.30	228.37
356.68	228.47
357.06	228.57
357.44	228.62
357.82	228.65
358.20	228.73
358.58	228.79
358.97	228.86
359.35	228.92
359.73	228.99
360.11	229.01
360.49	229.08
360.87	229.10
361.25	229.15
361.63	229.20
362.01	229.25
362.39	229.27
362.77	229.31
363.15	229.37
363.53	229.38
363.91	229.40
364.29	229.42
364.67	229.34
365.05	229.36
365.43	229.36
365.81	229.39
366.19	229.43
366.57	229.48
366.95	229.45
367.33	229.40
367.71	229.42
368.09	229.44
368.47	229.38
368.85	229.34
369.23	229.33
369.61	229.31
369.99	229.29
370.37	229.27
370.75	229.30
371.13	229.21
371.51	229.15
371.89	229.12
372.27	229.09
372.65	229.03
373.03	228.99
373.41	228.92
373.78	228.82
374.16	228.71
374.54	228.57
374.92	228.51
375.30	228.49
375.68	228.38
376.06	228.29
376.44	228.20
376.82	228.17
377.19	228.08
377.57	227.97
377.95	227.86
378.33	227.77
378.71	227.61
379.09	227.57
379.47	227.50
379.84	227.41
380.22	227.30
380.60	227.21
380.98	227.11
381.36	227.04
381.73	226.98
382.11	226.92
382.49	226.87
382.87	226.78
383.25	226.70
383.62	226.77
384.00	226.71
384.38	226.69
384.76	226.64
385.13	226.66
385.51	226.63
385.89	226.57
386.27	226.55
386.64	226.51
387.02	226.46
387.40	226.41
387.78	226.37
388.15	226.35
388.53	226.35
388.91	226.32
389.29	226.29
389.66	226.28
390.04	226.28
390.42	226.30
390.79	226.31
391.17	226.27
391.55	226.15
391.92	226.12
392.30	226.11
392.68	226.09
393.05	226.10
393.43	226.11
393.81	226.15
394.18	226.12
394.56	226.18
394.94	226.25
395.31	226.29
395.69	226.35
396.06	226.39
396.44	226.45
396.82	226.50
397.19	226.62
397.57	226.68
397.95	226.77
398.32	226.78
398.70	226.85
399.07	226.97
399.45	227.02
399.82	227.15
400.20	227.22
400.58	227.33
400.95	227.35
401.33	227.45
401.70	227.60
402.08	227.72
402.45	227.80
402.83	227.91
403.20	228.01
403.58	228.10
403.95	228.24
404.33	228.36
404.71	228.49
405.08	228.64
405.46	228.74
405.83	228.88
406.21	229.07
406.58	229.24
406.96	229.40
407.33	229.59
407.70	229.77
408.08	230.03
408.45	230.25
408.83	230.50
409.20	230.71
409.58	230.93
409.95	231.20
410.33	231.48
410.70	231.75
411.08	232.04
411.45	232.36
411.82	232.64
412.20	233.00
412.57	233.44
412.95	233.72
413.32	234.14
413.69	234.54
414.07	234.95
414.44	235.42
414.82	235.88
415.19	236.42
415.56	236.97
415.94	237.52
416.31	238.13
416.68	238.75
417.06	239.47
417.43	240.14
417.81	240.89
418.18	241.66
418.55	242.42
418.93	243.29
419.30	244.20
419.67	245.13
420.04	246.07
420.42	247.04
420.79	248.26
421.16	249.41
421.54	250.61
421.91	251.81
422.28	253.07
422.66	254.41
423.03	255.69
423.40	257.01
423.77	258.41
424.15	259.83
424.52	261.30
424.89	262.89
425.26	264.42
425.64	265.87
426.01	267.44
426.38	269.13
426.75	270.81
427.13	272.51
427.50	274.32
427.87	276.22
428.24	278.11
428.61	279.84
428.99	281.80
429.36	283.94
429.73	286.06
430.10	288.13
430.47	290.23
430.85	292.38
431.22	294.62
431.59	297.01
431.96	299.25
432.33	301.78
432.70	304.18
433.08	307.02
433.45	309.66
433.82	312.32
434.19	315.22
434.56	318.06
434.93	320.72
435.30	323.36
435.68	326.26
436.05	329.09
436.42	331.86
436.79	334.38
437.16	337.09
437.53	339.89
437.90	342.67
438.27	345.43
438.64	348.23
439.01	350.87
439.38	353.10
439.75	355.31
440.13	357.77
440.50	360.14
440.87	362.02
441.24	364.00
441.61	366.13
441.98	367.63
442.35	369.46
442.72	371.34
443.09	373.17
443.46	374.17
443.83	374.76
444.20	375.33
444.57	376.20
444.94	376.46
445.31	376.81
445.68	377.19
446.05	377.21
446.42	376.89
446.79	376.46
447.16	376.08
447.53	375.75
447.90	374.62
448.27	373.44
448.64	371.79
449.01	370.65
449.37	368.70
449.74	366.79
450.11	364.53
450.48	362.07
450.85	359.54
451.22	357.38
451.59	355.31
451.96	353.33
452.33	350.72
452.70	348.36
453.07	345.51
453.43	342.59
453.80	339.84
454.17	337.11
454.54	334.57
454.91	331.80
455.28	329.11
455.65	326.61
456.02	324.16
456.38	322.00
456.75	319.29
457.12	317.01
457.49	314.82
457.86	312.63
458.23	310.75
458.59	308.69
458.96	306.61
459.33	304.78
459.70	302.88
460.07	301.30
460.43	299.61
460.80	297.97
461.17	296.50
461.54	294.99
461.91	293.55
462.27	292.06
462.64	290.79
463.01	289.44
463.38	288.13
463.74	286.76
464.11	285.62
464.48	284.63
464.85	283.52
465.21	282.62
465.58	281.69
465.95	280.54
466.32	279.63
466.68	278.69
467.05	277.81
467.42	276.93
467.78	276.01
468.15	275.08
468.52	274.40
468.88	273.54
469.25	272.77
469.62	272.15
469.98	271.46
470.35	270.81
470.72	270.21
471.08	269.55
471.45	268.98
471.82	268.44
472.18	267.79
472.55	267.39
472.92	266.86
473.28	266.37
473.65	265.96
474.02	265.53
474.38	265.15
474.75	264.80
475.11	264.46
475.48	264.19
475.85	263.95
476.21	263.74
476.58	263.58
476.94	263.45
477.31	263.27
477.67	263.13
478.04	263.05
478.41	262.97
478.77	263.01
479.14	262.95
479.50	262.95
479.87	263.06
480.23	263.07
480.60	263.17
480.96	263.29
481.33	263.50
481.69	263.67
482.06	263.88
482.42	264.10
482.79	264.36
483.15	264.72
483.52	265.11
483.88	265.45
484.25	265.81
484.61	266.20
484.98	266.66
485.34	267.23
485.71	267.78
486.07	268.39
486.44	268.94
486.80	269.66
487.17	270.38
487.53	271.19
487.90	272.06
488.26	272.96
488.62	273.94
488.99	274.88
489.35	275.94
489.72	277.07
490.08	278.25
490.44	279.52
490.81	280.83
491.17	282.15
491.54	283.66
491.90	285.21
492.26	286.88
492.63	288.62
492.99	290.43
493.36	292.34
493.72	294.39
494.08	296.50
494.45	298.74
494.81	301.07
495.17	303.48
495.54	306.06
495.90	308.74
496.26	311.52
496.63	314.52
496.99	317.61
497.35	320.90
497.72	324.30
498.08	327.77
498.44	331.41
498.80	335.36
499.17	339.33
499.53	343.52
499.89	347.93
500.26	352.44
500.62	357.02
500.98	361.97
501.34	367.01
501.71	372.33
502.07	377.77
502.43	383.36
502.79	389.19
503.16	395.25
503.52	401.55
503.88	408.00
504.24	414.58
504.60	421.47
504.97	428.47
505.33	435.81
505.69	443.51
506.05	451.27
506.41	459.18
506.78	467.37
507.14	475.81
507.50	484.54
507.86	493.56
508.22	502.76
508.59	511.96
508.95	521.57
509.31	531.32
509.67	541.42
510.03	551.75
510.39	562.27
510.75	573.03
511.12	583.96
511.48	595.22
511.84	606.73
512.20	618.27
512.56	630.33
512.92	642.54
513.28	654.89
513.64	667.43
514.00	679.94
514.37	692.92
514.73	706.01
515.09	719.00
515.45	732.33
515.81	745.90
516.17	760.01
516.53	774.17
516.89	788.38
517.25	802.59
517.61	817.06
517.97	831.64
518.33	846.13
518.69	860.87
519.05	875.91
519.41	891.15
519.77	906.73
520.13	922.15
520.49	937.52
520.85	952.96
521.21	968.80
521.57	985.25
521.93	1001.06
522.29	1017.48
522.65	1033.82
523.01	1050.00
523.37	1066.08
523.73	1082.20
524.09	1098.27
524.45	1114.69
524.81	1131.34
525.17	1148.34
525.53	1165.21
525.89	1182.14
526.25	1199.12
526.61	1215.46
526.97	1232.23
527.33	1248.65
527.68	1265.35
528.04	1281.93
528.40	1298.62
528.76	1315.60
529.12	1332.23
529.48	1349.15
529.84	1365.12
530.20	1381.79
530.56	1399.03
530.91	1416.57
531.27	1433.50
531.63	1450.07
531.99	1466.73
532.35	1482.83
532.71	1498.75
533.07	1514.99
533.42	1530.92
533.78	1546.98
534.14	1563.39
534.50	1578.85
534.86	1594.87
535.21	1610.06
535.57	1626.10
535.93	1641.70
536.29	1656.67
536.65	1671.86
537.00	1686.65
537.36	1702.14
537.72	1716.76
538.08	1730.98
538.44	1744.92
538.79	1758.78
539.15	1772.56
539.51	1786.39
539.87	1800.82
540.22	1814.51
540.58	1828.39
540.94	1841.84
541.29	1854.88
541.65	1867.78
542.01	1881.15
542.37	1893.46
542.72	1906.00
543.08	1917.72
543.44	1930.09
543.79	1941.41
544.15	1952.50
544.51	1964.10
544.87	1975.16
545.22	1986.03
545.58	1996.45
545.94	2006.16
546.29	2016.11
546.65	2025.88
547.01	2035.23
547.36	2043.87
547.72	2052.30
548.07	2060.26
548.43	2068.51
548.79	2076.44
549.14	2083.93
549.50	2091.20
549.86	2099.06
550.21	2106.45
550.57	2113.73
550.92	2120.23
551.28	2127.28
551.64	2134.25
551.99	2140.91
552.35	2147.09
552.70	2153.12
553.06	2159.19
553.41	2165.48
553.77	2171.43
554.13	2177.72
554.48	2183.71
554.84	2189.08
555.19	2194.52
555.55	2199.54
555.90	2203.88
556.26	2208.76
556.61	2213.45
556.97	2217.56
557.32	2221.57
557.68	2225.59
558.03	2229.95
558.39	2233.83
558.74	2238.30
559.10	2242.15
559.45	2245.79
559.81	2250.03
560.16	2253.91
560.52	2257.02
560.87	2260.60
561.23	2263.18
561.58	2266.10
561.94	2268.66
562.29	2271.23
562.64	2273.85
563.00	2276.61
563.35	2280.24
563.71	2283.39
564.06	2286.69
564.42	2289.68
564.77	2292.19
565.12	2294.32
565.48	2296.05
565.83	2297.74
566.19	2299.10
566.54	2300.18
566.89	2301.11
567.25	2301.68
567.60	2303.06
567.96	2304.65
568.31	2305.32
568.66	2306.49
569.02	2306.99
569.37	2307.24
569.72	2307.97
570.08	2308.05
570.43	2307.95
570.78	2307.13
571.14	2305.70
571.49	2304.19
571.84	2303.64
572.20	2302.35
572.55	2301.41
572.90	2299.94
573.26	2298.57
573.61	2296.81
573.96	2294.80
574.31	2291.80
574.67	2288.48
575.02	2284.75
575.37	2281.36
575.72	2277.44
576.08	2274.04
576.43	2270.58
576.78	2266.73
577.13	2263.39
577.49	2260.23
577.84	2256.66
578.19	2252.96
578.54	2248.96
578.90	2244.68
579.25	2239.19
579.60	2234.16
579.95	2229.06
580.30	2223.77
580.66	2218.45
581.01	2213.42
581.36	2208.41
581.71	2204.31
582.06	2199.99
582.42	2195.38
582.77	2190.06
583.12	2185.34
583.47	2180.44
583.82	2175.26
584.17	2170.03
584.53	2164.58
584.88	2158.89
585.23	2152.89
585.58	2147.35
585.93	2141.98
586.28	2137.18
586.63	2131.97
586.98	2126.85
587.34	2122.03
587.69	2117.01
588.04	2111.68
588.39	2105.81
588.74	2099.28
589.09	2092.96
589.44	2086.13
589.79	2080.00
590.14	2074.33
590.49	2067.83
590.84	2061.49
591.19	2055.44
591.54	2048.89
591.89	2041.24
592.25	2034.32
592.60	2027.12
592.95	2019.44
593.30	2011.89
593.65	2004.15
594.00	1997.18
594.35	1989.90
594.70	1981.73
595.05	1974.52
595.40	1967.18
595.75	1959.73
596.10	1953.36
596.45	1946.46
596.80	1940.11
597.15	1933.32
597.50	1926.11
597.85	1919.57
598.19	1912.78
598.54	1905.63
598.89	1899.04
599.24	1893.26
599.59	1886.46
599.94	1880.34
600.29	1873.97
600.64	1867.35
600.99	1859.87
601.34	1852.85
601.69	1845.84
602.04	1838.96
602.39	1831.65
602.74	1824.82
603.08	1818.17
603.43	1811.51
603.78	1804.18
604.13	1796.97
604.48	1789.78
604.83	1782.89
605.18	1775.82
605.53	1767.76
605.87	1759.73
606.22	1752.40
606.57	1744.28
606.92	1737.02
607.27	1729.57
607.62	1722.54
607.96	1715.28
608.31	1708.55
608.66	1700.89
609.01	1693.21
609.36	1685.76
609.70	1677.64
610.05	1669.56
610.40	1661.74
610.75	1653.37
611.10	1645.77
611.44	1637.48
611.79	1629.47
612.14	1620.84
612.49	1611.82
612.83	1603.45
613.18	1595.34
613.53	1587.34
613.88	1578.93
614.22	1570.61
614.57	1562.17
614.92	1554.20
615.27	1546.59
615.61	1538.35
615.96	1530.30
616.31	1522.80
616.65	1515.30
617.00	1507.76
617.35	1500.12
617.70	1491.74
618.04	1483.18
618.39	1474.90
618.74	1467.22
619.08	1458.89
619.43	1451.31
619.78	1444.39
620.12	1437.23
620.47	1429.61
620.82	1421.35
621.16	1414.02
621.51	1406.38
621.85	1398.71
622.20	1390.11
622.55	1381.85
622.89	1373.93
623.24	1366.38
623.59	1359.00
623.93	1351.48
624.28	1344.27
624.62	1336.68
624.97	1329.49
625.32	1322.74
625.66	1315.66
626.01	1308.39
626.35	1300.93
626.70	1293.11
627.04	1285.24
627.39	1277.53
627.73	1270.13
628.08	1263.28
628.43	1255.81
628.77	1248.41
629.12	1240.92
629.46	1233.75
629.81	1226.29
630.15	1219.03
630.50	1211.64
630.84	1203.35
631.19	1195.53
631.53	1188.09
631.88	1180.62
632.22	1173.12
632.57	1165.77
632.91	1158.32
633.26	1150.91
633.60	1143.57
633.95	1136.54
634.29	1129.60
634.64	1122.85
634.98	1115.65
635.32	1108.46
635.67	1101.98
636.01	1095.39
636.36	1088.58
636.70	1082.19
637.05	1075.67
637.39	1069.28
637.73	1062.80
638.08	1057.04
638.42	1050.99
638.77	1044.47
639.11	1037.79
639.45	1031.37
639.80	1024.82
640.14	1018.36
640.49	1011.90
640.83	1005.59
641.17	999.30
641.52	992.91
641.86	986.56
642.20	980.68
642.55	974.40
642.89	967.91
643.23	961.40
643.58	955.67
643.92	949.46
644.26	943.30
644.61	937.25
644.95	931.22
645.29	924.61
645.64	917.85
645.98	911.51
646.32	905.75
646.66	899.72
647.01	893.89
647.35	888.19
647.69	882.38
648.04	876.92
648.38	871.19
648.72	865.22
649.06	859.09
649.41	853.17
649.75	847.13
650.09	841.13
650.43	835.36
650.78	829.12
651.12	823.11
651.46	817.45
651.80	811.62
652.14	806.26
652.49	800.88
652.83	795.78
653.17	790.12
653.51	784.35
653.85	778.90
654.20	773.26
654.54	767.29
654.88	761.65
655.22	755.81
655.56	750.10
655.90	744.69
656.25	739.49
656.59	734.19
656.93	729.12
657.27	724.06
657.61	718.62
657.95	713.51
658.29	708.43
658.64	703.22
658.98	698.04
659.32	692.56
659.66	687.35
660.00	681.99
660.34	677.06
660.68	672.22
661.02	667.22
661.36	662.52
661.70	658.06
662.05	653.66
662.39	649.32
662.73	644.89
663.07	640.44
663.41	635.96
663.75	631.43
664.09	626.94
664.43	622.53
664.77	618.42
665.11	614.22
665.45	610.12
665.79	606.00
666.13	601.85
666.47	597.75
666.81	593.61
667.15	589.51
667.49	585.70
667.83	581.87
668.17	577.92
668.51	573.83
668.85	569.77
669.19	565.85
669.53	561.96
669.87	558.02
670.21	554.42
670.55	550.86
670.89	547.40
671.23	543.99
671.57	540.44
671.91	536.92
672.25	533.44
672.58	529.92
672.92	526.57
673.26	523.44
673.60	520.28
673.94	517.12
674.28	514.23
674.62	511.20
674.96	508.08
675.30	505.22
675.64	502.29
675.97	499.58
676.31	496.80
676.65	493.94
676.99	491.28
677.33	488.47
677.67	485.63
678.01	482.62
678.34	479.58
678.68	476.76
679.02	473.93
679.36	471.16
679.70	468.48
680.04	465.74
680.37	462.84
680.71	460.07
681.05	457.51
681.39	454.81
681.73	452.19
682.06	449.70
682.40	447.13
682.74	444.65
683.08	442.07
683.42	439.48
683.75	437.00
684.09	434.50
684.43	431.97
684.77	429.43
685.10	427.18
685.44	424.92
685.78	422.70
686.12	420.50
686.45	418.27
686.79	416.00
687.13	413.78
687.46	411.69
687.80	409.53
688.14	407.34
688.48	405.23
688.81	402.96
689.15	400.83
689.49	398.72
689.82	396.65
690.16	394.58
690.50	392.58
690.83	390.56
691.17	388.54
691.51	386.65
691.84	384.93
692.18	382.93
692.52	380.94
692.85	378.96
693.19	377.08
693.52	375.24
693.86	373.40
694.20	371.66
694.53	369.82
694.87	368.00
695.21	366.26
695.54	364.49
695.88	362.81
696.21	361.07
696.55	359.41
696.88	357.73
697.22	356.12
697.56	354.54
697.89	352.95
698.23	351.37
698.56	349.75
698.90	348.11
699.23	346.48
699.57	344.91
699.90	343.39
700.24	341.84
700.58	340.29
700.91	338.80
701.25	337.30
701.58	335.94
701.92	334.54
702.25	333.15
702.59	331.80
702.92	330.44
703.26	329.14
703.59	327.83
703.93	326.66
704.26	325.40
704.60	324.11
704.93	322.82
705.26	321.57
705.60	320.39
705.93	319.20
706.27	318.20
706.60	317.20
706.94	316.08
707.27	314.94
707.61	313.87
707.94	312.85
708.27	311.79
708.61	310.74
708.94	309.74
709.28	308.77
709.61	307.80
709.94	306.86
710.28	305.85
710.61	304.88
710.95	303.78
711.28	302.88
711.61	301.90
711.95	300.98
712.28	300.01
712.61	299.04
712.95	298.12
713.28	297.23
713.61	296.33
713.95	295.45
714.28	294.63
714.61	293.74
714.95	292.92
715.28	292.04
715.61	291.17
715.95	290.31
716.28	289.42
716.61	288.59
716.95	287.77
717.28	287.01
717.61	286.23
717.94	285.50
718.28	284.66
718.61	283.90
718.94	283.20
719.27	282.53
719.61	281.93
719.94	281.25
720.27	280.53
720.60	279.83
720.94	279.20
721.27	278.62
721.60	278.08
721.93	277.44
722.27	276.88
722.60	276.30
722.93	275.73
723.26	275.18
723.59	274.63
723.93	274.06
724.26	273.49
724.59	272.93
724.92	272.43
725.25	271.95
725.59	271.48
725.92	270.96
726.25	270.44
726.58	269.91
726.91	269.45
727.24	268.98
727.57	268.54
727.91	268.06
728.24	267.55
728.57	267.04
728.90	266.58
729.23	266.11
729.56	265.73
729.89	265.27
730.22	264.84
730.55	264.40
730.89	264.02
731.22	263.59
731.55	263.16
731.88	262.76
732.21	262.33
732.54	261.88
732.87	261.46
733.20	261.06
733.53	260.69
733.86	260.31
734.19	259.92
734.52	259.55
734.85	259.23
735.18	258.85
735.51	258.49
735.84	258.14
736.17	257.79
736.50	257.34
736.83	257.12
737.16	256.78
737.49	256.43
737.82	256.06
738.15	255.76
738.48	255.44
738.81	255.12
739.14	254.81
739.47	254.50
739.80	254.20
740.13	253.88
740.46	253.53
740.79	253.19
741.12	252.89
741.45	252.54
741.78	252.17
742.11	251.90
742.44	251.60
742.77	251.30
743.10	251.00
743.43	250.72
743.75	250.33
744.08	250.20
744.41	249.93
744.74	249.66
745.07	249.40
745.40	249.13
745.73	248.85
746.06	248.55
746.39	248.31
746.71	248.06
747.04	247.81
747.37	247.56
747.70	247.31
748.03	247.05
748.36	246.84
748.68	246.63
749.01	246.41
749.34	246.19
749.67	245.99
750.00	245.77
750.33	245.61
750.65	245.42
750.98	245.07
751.31	244.83
751.64	244.59
751.97	244.42
752.29	244.23
752.62	243.98
752.95	243.77
753.28	243.51
753.60	243.32
753.93	243.17
754.26	242.98
754.59	242.75
754.91	242.54
755.24	242.36
755.57	242.16
755.90	241.94
756.22	241.70
756.55	241.48
756.88	241.27
757.20	241.06
757.53	240.87
757.86	240.67
758.19	240.52
758.51	240.38
758.84	240.16
759.17	239.97
759.49	239.82
759.82	239.75
760.15	239.62
760.47	239.49
760.80	239.28
761.13	239.15
761.45	238.99
761.78	238.87
762.11	238.71
762.43	238.57
762.76	238.45
763.08	238.37
763.41	238.23
763.74	238.12
764.06	237.97
764.39	237.82
764.71	237.69
765.04	237.57
765.37	237.42
765.69	237.27
766.02	237.18
766.34	237.04
766.67	236.91
767.00	236.83
767.32	236.75
767.65	236.68
767.97	236.55
768.30	236.46
768.62	236.31
768.95	236.18
769.27	236.08
769.60	235.98
769.92	235.83
770.25	235.71
770.57	235.60
770.90	235.49
771.22	235.38
771.55	235.26
771.87	235.14
772.20	235.06
772.52	235.07
772.85	235.07
773.17	234.99
773.50	234.86
773.82	234.74
774.15	234.59
774.47	234.43
774.80	234.33
775.12	234.24
775.45	234.16
775.77	234.10
776.09	233.99
776.42	233.92
776.74	233.87
777.07	233.80
777.39	233.71
777.72	233.62
778.04	233.54
778.36	233.50
778.69	233.46
779.01	233.39
779.33	233.20
779.66	233.03
779.98	232.94
780.31	232.86
780.63	232.82
780.95	232.78
781.28	232.70
781.60	232.62
781.92	232.55
782.25	232.50
782.57	232.42
782.89	232.37
783.22	232.31
783.54	232.23
783.86	232.20
784.19	232.17
784.51	232.14
784.83	232.13
785.16	232.04
785.48	231.97
785.80	231.91
786.12	231.90
786.45	231.84
786.77	231.83
787.09	231.77
