SpectraSuite Data File
++++++++++++++++++++++++++++++++++++
Date: Fri Feb 01 15:28:51 EST 2013
User: group
Dark Spectrum Present: No
Reference Spectrum Present: No
Number of Sampled Component Spectra: 1
Spectrometers: USB2E7196
Integration Time (usec): 35000 (USB2E7196)
Spectra Averaged: 100 (USB2E7196)
Boxcar Smoothing: 10 (USB2E7196)
Correct for Electrical Dark: No (USB2E7196)
Strobe/Lamp Enabled: No (USB2E7196)
Correct for Detector Non-linearity: No (USB2E7196)
Correct for Stray Light: No (USB2E7196)
Number of Pixels in Processed Spectrum: 2048
>>>>>Begin Processed Spectral Data<<<<<
339.09	0.00
339.48	215.42
339.86	216.31
340.24	218.08
340.63	219.93
341.01	222.27
341.39	221.71
341.78	223.98
342.16	224.43
342.54	225.02
342.93	213.50
343.31	224.28
343.69	224.82
344.07	225.28
344.46	225.71
344.84	226.03
345.22	226.27
345.60	226.52
345.99	226.67
346.37	226.79
346.75	226.85
347.13	226.90
347.52	226.95
347.90	226.99
348.28	227.04
348.66	227.08
349.05	227.06
349.43	227.09
349.81	227.16
350.19	227.15
350.57	227.20
350.96	227.25
351.34	227.34
351.72	227.39
352.10	227.50
352.48	227.57
352.87	227.67
353.25	227.70
353.63	227.77
354.01	227.83
354.39	227.91
354.77	228.03
355.15	228.11
355.54	228.18
355.92	228.24
356.30	228.27
356.68	228.40
357.06	228.47
357.44	228.54
357.82	228.56
358.20	228.64
358.58	228.69
358.97	228.78
359.35	228.87
359.73	228.95
360.11	229.01
360.49	229.07
360.87	229.09
361.25	229.16
361.63	229.24
362.01	229.29
362.39	229.33
362.77	229.35
363.15	229.38
363.53	229.37
363.91	229.39
364.29	229.41
364.67	229.33
365.05	229.33
365.43	229.37
365.81	229.38
366.19	229.46
366.57	229.50
366.95	229.49
367.33	229.45
367.71	229.40
368.09	229.40
368.47	229.39
368.85	229.37
369.23	229.41
369.61	229.35
369.99	229.35
370.37	229.31
370.75	229.32
371.13	229.31
371.51	229.28
371.89	229.23
372.27	229.19
372.65	229.15
373.03	229.11
373.41	229.02
373.78	229.00
374.16	228.89
374.54	228.80
374.92	228.73
375.30	228.65
375.68	228.58
376.06	228.51
376.44	228.40
376.82	228.33
377.19	228.23
377.57	228.14
377.95	228.03
378.33	227.96
378.71	227.88
379.09	227.81
379.47	227.77
379.84	227.69
380.22	227.64
380.60	227.57
380.98	227.50
381.36	227.44
381.73	227.36
382.11	227.32
382.49	227.28
382.87	227.18
383.25	227.15
383.62	227.21
384.00	227.16
384.38	227.11
384.76	227.09
385.13	227.08
385.51	227.03
385.89	226.99
386.27	226.93
386.64	226.85
387.02	226.76
387.40	226.71
387.78	226.67
388.15	226.66
388.53	226.61
388.91	226.62
389.29	226.58
389.66	226.56
390.04	226.51
390.42	226.49
390.79	226.48
391.17	226.46
391.55	226.35
391.92	226.32
392.30	226.31
392.68	226.28
393.05	226.28
393.43	226.30
393.81	226.29
394.18	226.30
394.56	226.34
394.94	226.40
395.31	226.44
395.69	226.46
396.06	226.50
396.44	226.56
396.82	226.57
397.19	226.66
397.57	226.66
397.95	226.70
398.32	226.76
398.70	226.85
399.07	226.95
399.45	226.99
399.82	227.05
400.20	227.14
400.58	227.24
400.95	227.24
401.33	227.34
401.70	227.49
402.08	227.59
402.45	227.69
402.83	227.79
403.20	227.89
403.58	228.04
403.95	228.16
404.33	228.29
404.71	228.42
405.08	228.62
405.46	228.80
405.83	228.95
406.21	229.08
406.58	229.22
406.96	229.37
407.33	229.56
407.70	229.76
408.08	230.03
408.45	230.26
408.83	230.52
409.20	230.77
409.58	230.92
409.95	231.18
410.33	231.43
410.70	231.66
411.08	231.94
411.45	232.21
411.82	232.48
412.20	232.83
412.57	233.24
412.95	233.54
413.32	233.94
413.69	234.36
414.07	234.83
414.44	235.30
414.82	235.76
415.19	236.33
415.56	236.90
415.94	237.45
416.31	238.09
416.68	238.72
417.06	239.43
417.43	240.16
417.81	240.94
418.18	241.73
418.55	242.61
418.93	243.48
419.30	244.42
419.67	245.38
420.04	246.36
420.42	247.35
420.79	248.54
421.16	249.70
421.54	250.89
421.91	252.10
422.28	253.39
422.66	254.75
423.03	256.04
423.40	257.37
423.77	258.78
424.15	260.21
424.52	261.72
424.89	263.33
425.26	264.87
425.64	266.33
426.01	267.97
426.38	269.64
426.75	271.37
427.13	273.06
427.50	274.85
427.87	276.71
428.24	278.56
428.61	280.27
428.99	282.22
429.36	284.34
429.73	286.40
430.10	288.44
430.47	290.50
430.85	292.65
431.22	294.91
431.59	297.30
431.96	299.55
432.33	302.02
432.70	304.41
433.08	307.26
433.45	309.88
433.82	312.49
434.19	315.38
434.56	318.15
434.93	320.85
435.30	323.48
435.68	326.34
436.05	329.19
436.42	332.05
436.79	334.58
437.16	337.31
437.53	340.21
437.90	343.01
438.27	345.77
438.64	348.61
439.01	351.20
439.38	353.42
439.75	355.58
440.13	358.06
440.50	360.41
440.87	362.24
441.24	364.26
441.61	366.45
441.98	367.94
442.35	369.78
442.72	371.61
443.09	373.46
443.46	374.50
443.83	375.12
444.20	375.60
444.57	376.43
444.94	376.66
445.31	376.95
445.68	377.23
446.05	377.30
446.42	376.90
446.79	376.46
447.16	376.00
447.53	375.71
447.90	374.58
448.27	373.39
448.64	371.83
449.01	370.64
449.37	368.61
449.74	366.68
450.11	364.39
450.48	361.94
450.85	359.36
451.22	357.21
451.59	355.14
451.96	353.19
452.33	350.57
452.70	348.24
453.07	345.37
453.43	342.51
453.80	339.73
454.17	337.03
454.54	334.49
454.91	331.75
455.28	329.06
455.65	326.56
456.02	324.11
456.38	321.88
456.75	319.21
457.12	316.94
457.49	314.70
457.86	312.58
458.23	310.72
458.59	308.67
458.96	306.56
459.33	304.72
459.70	302.87
460.07	301.38
460.43	299.69
460.80	298.04
461.17	296.57
461.54	295.05
461.91	293.68
462.27	292.25
462.64	291.01
463.01	289.62
463.38	288.30
463.74	286.92
464.11	285.78
464.48	284.77
464.85	283.68
465.21	282.81
465.58	281.88
465.95	280.75
466.32	279.84
466.68	278.97
467.05	278.06
467.42	277.18
467.78	276.21
468.15	275.30
468.52	274.73
468.88	273.85
469.25	273.09
469.62	272.42
469.98	271.72
470.35	271.06
470.72	270.45
471.08	269.79
471.45	269.26
471.82	268.71
472.18	268.12
472.55	267.70
472.92	267.17
473.28	266.70
473.65	266.28
474.02	265.88
474.38	265.49
474.75	265.13
475.11	264.73
475.48	264.48
475.85	264.21
476.21	263.91
476.58	263.73
476.94	263.60
477.31	263.45
477.67	263.30
478.04	263.17
478.41	263.09
478.77	263.12
479.14	263.08
479.50	263.06
479.87	263.14
480.23	263.18
480.60	263.26
480.96	263.35
481.33	263.56
481.69	263.72
482.06	263.90
482.42	264.10
482.79	264.37
483.15	264.68
483.52	265.08
483.88	265.45
484.25	265.87
484.61	266.29
484.98	266.74
485.34	267.28
485.71	267.92
486.07	268.55
486.44	269.13
486.80	269.80
487.17	270.54
487.53	271.31
487.90	272.16
488.26	273.11
488.62	274.10
488.99	275.03
489.35	276.06
489.72	277.16
490.08	278.40
490.44	279.63
490.81	280.94
491.17	282.27
491.54	283.74
491.90	285.28
492.26	286.92
492.63	288.60
492.99	290.42
493.36	292.31
493.72	294.35
494.08	296.43
494.45	298.72
494.81	301.11
495.17	303.55
495.54	306.14
495.90	308.78
496.26	311.57
496.63	314.54
496.99	317.68
497.35	320.99
497.72	324.36
498.08	327.87
498.44	331.55
498.80	335.52
499.17	339.56
499.53	343.71
499.89	348.08
500.26	352.64
500.62	357.29
500.98	362.24
501.34	367.32
501.71	372.67
502.07	378.08
502.43	383.71
502.79	389.62
503.16	395.67
503.52	401.96
503.88	408.42
504.24	415.07
504.60	421.98
504.97	429.10
505.33	436.47
505.69	444.22
506.05	451.99
506.41	459.87
506.78	468.07
507.14	476.55
507.50	485.23
507.86	494.32
508.22	503.51
508.59	512.72
508.95	522.28
509.31	532.16
509.67	542.24
510.03	552.52
510.39	563.01
510.75	573.79
511.12	584.73
511.48	595.98
511.84	607.42
512.20	618.95
512.56	630.93
512.92	643.07
513.28	655.39
513.64	667.92
514.00	680.64
514.37	693.62
514.73	706.69
515.09	719.77
515.45	733.00
515.81	746.63
516.17	760.66
516.53	774.81
516.89	788.93
517.25	803.19
517.61	817.65
517.97	832.11
518.33	846.70
518.69	861.54
519.05	876.66
519.41	891.87
519.77	907.48
520.13	922.94
520.49	938.45
520.85	953.96
521.21	969.78
521.57	986.06
521.93	1001.88
522.29	1018.31
522.65	1034.75
523.01	1051.05
523.37	1067.15
523.73	1083.32
524.09	1099.55
524.45	1115.95
524.81	1132.63
525.17	1149.50
525.53	1166.49
525.89	1183.34
526.25	1200.27
526.61	1216.62
526.97	1233.41
527.33	1249.97
527.68	1266.59
528.04	1282.99
528.40	1299.63
528.76	1316.66
529.12	1333.31
529.48	1350.17
529.84	1366.20
530.20	1382.86
530.56	1399.94
530.91	1417.30
531.27	1434.18
531.63	1450.61
531.99	1467.20
532.35	1483.18
532.71	1499.06
533.07	1515.38
533.42	1531.32
533.78	1547.35
534.14	1563.69
534.50	1579.09
534.86	1595.03
535.21	1610.34
535.57	1626.45
535.93	1641.96
536.29	1656.86
536.65	1672.04
537.00	1686.86
537.36	1702.24
537.72	1716.79
538.08	1731.25
538.44	1745.19
538.79	1759.15
539.15	1772.93
539.51	1786.82
539.87	1801.44
540.22	1815.26
540.58	1828.98
540.94	1842.40
541.29	1855.39
541.65	1868.12
542.01	1881.53
542.37	1893.70
542.72	1906.19
543.08	1917.94
543.44	1930.32
543.79	1941.54
544.15	1952.49
544.51	1964.09
544.87	1975.03
545.22	1985.77
545.58	1996.14
545.94	2005.90
546.29	2015.77
546.65	2025.74
547.01	2035.04
547.36	2043.65
547.72	2052.21
548.07	2060.17
548.43	2068.32
548.79	2076.34
549.14	2083.97
549.50	2091.21
549.86	2099.08
550.21	2106.40
550.57	2113.75
550.92	2120.51
551.28	2127.65
551.64	2134.73
551.99	2141.36
552.35	2147.65
552.70	2153.87
553.06	2159.69
553.41	2166.03
553.77	2172.07
554.13	2178.04
554.48	2184.13
554.84	2189.59
555.19	2194.85
555.55	2199.91
555.90	2204.44
556.26	2209.30
556.61	2214.02
556.97	2218.33
557.32	2222.46
557.68	2226.62
558.03	2230.96
558.39	2234.57
558.74	2239.12
559.10	2242.98
559.45	2246.61
559.81	2250.96
560.16	2254.78
560.52	2258.07
560.87	2261.55
561.23	2264.14
561.58	2267.07
561.94	2269.61
562.29	2271.89
562.64	2274.58
563.00	2277.27
563.35	2280.92
563.71	2284.05
564.06	2287.11
564.42	2290.01
564.77	2292.47
565.12	2294.68
565.48	2296.32
565.83	2298.25
566.19	2299.62
566.54	2300.67
566.89	2301.94
567.25	2302.40
567.60	2303.73
567.96	2305.42
568.31	2306.24
568.66	2307.28
569.02	2307.93
569.37	2308.13
569.72	2308.99
570.08	2309.29
570.43	2309.25
570.78	2308.39
571.14	2306.84
571.49	2305.53
571.84	2304.99
572.20	2303.72
572.55	2302.62
572.90	2301.07
573.26	2299.59
573.61	2297.76
573.96	2295.81
574.31	2292.63
574.67	2289.60
575.02	2285.84
575.37	2282.28
575.72	2278.38
576.08	2275.16
576.43	2271.74
576.78	2268.10
577.13	2264.91
577.49	2261.65
577.84	2258.04
578.19	2254.27
578.54	2250.44
578.90	2246.23
579.25	2240.66
579.60	2235.74
579.95	2230.70
580.30	2225.61
580.66	2220.19
581.01	2215.21
581.36	2210.16
581.71	2205.78
582.06	2201.26
582.42	2196.76
582.77	2191.43
583.12	2186.71
583.47	2181.75
583.82	2176.59
584.17	2171.23
584.53	2165.58
584.88	2159.64
585.23	2153.77
585.58	2148.28
585.93	2142.80
586.28	2137.97
586.63	2132.85
586.98	2127.75
587.34	2122.91
587.69	2118.10
588.04	2112.98
588.39	2107.15
588.74	2100.68
589.09	2094.58
589.44	2087.75
589.79	2081.46
590.14	2075.70
590.49	2069.06
590.84	2062.73
591.19	2056.61
591.54	2050.10
591.89	2042.80
592.25	2036.07
592.60	2028.94
592.95	2021.26
593.30	2013.86
593.65	2005.97
594.00	1998.79
594.35	1991.36
594.70	1983.29
595.05	1975.84
595.40	1968.45
595.75	1960.89
596.10	1954.52
596.45	1947.64
596.80	1941.33
597.15	1934.74
597.50	1927.67
597.85	1921.25
598.19	1914.50
598.54	1907.34
598.89	1900.56
599.24	1894.61
599.59	1887.78
599.94	1881.46
600.29	1875.06
600.64	1868.44
600.99	1861.09
601.34	1854.28
601.69	1847.19
602.04	1840.28
602.39	1832.81
602.74	1825.97
603.08	1819.14
603.43	1812.52
603.78	1805.18
604.13	1797.97
604.48	1790.69
604.83	1783.90
605.18	1776.97
605.53	1768.79
605.87	1760.89
606.22	1753.69
606.57	1745.48
606.92	1738.14
607.27	1731.00
607.62	1724.15
607.96	1716.88
608.31	1710.25
608.66	1702.53
609.01	1695.04
609.36	1687.43
609.70	1679.50
610.05	1671.46
610.40	1663.88
610.75	1655.50
611.10	1647.90
611.44	1639.58
611.79	1631.64
612.14	1622.92
612.49	1613.66
612.83	1605.41
613.18	1597.29
613.53	1589.22
613.88	1580.90
614.22	1572.71
614.57	1564.09
614.92	1555.94
615.27	1548.42
615.61	1540.12
615.96	1532.19
616.31	1524.65
616.65	1517.23
617.00	1509.75
617.35	1502.02
617.70	1493.69
618.04	1485.06
618.39	1476.71
618.74	1468.97
619.08	1460.62
619.43	1452.92
619.78	1446.00
620.12	1438.96
620.47	1431.38
620.82	1423.19
621.16	1415.75
621.51	1408.17
621.85	1400.47
622.20	1392.08
622.55	1383.63
622.89	1375.76
623.24	1368.10
623.59	1360.70
623.93	1353.28
624.28	1345.98
624.62	1338.43
624.97	1331.16
625.32	1324.48
625.66	1317.63
626.01	1310.51
626.35	1303.04
626.70	1295.37
627.04	1287.68
627.39	1279.75
627.73	1272.33
628.08	1265.33
628.43	1258.00
628.77	1250.56
629.12	1242.96
629.46	1235.71
629.81	1228.27
630.15	1220.97
630.50	1213.51
630.84	1205.27
631.19	1197.28
631.53	1189.74
631.88	1182.17
632.22	1174.70
632.57	1167.38
632.91	1159.71
633.26	1152.31
633.60	1144.92
633.95	1137.83
634.29	1130.80
634.64	1124.14
634.98	1116.59
635.32	1109.48
635.67	1102.86
636.01	1096.19
636.36	1089.49
636.70	1082.90
637.05	1076.34
637.39	1069.91
637.73	1063.47
638.08	1057.62
638.42	1051.63
638.77	1045.21
639.11	1038.60
639.45	1032.15
639.80	1025.50
640.14	1019.16
640.49	1012.59
640.83	1006.35
641.17	1000.09
641.52	993.68
641.86	987.32
642.20	981.69
642.55	975.39
642.89	968.81
643.23	962.24
643.58	956.49
643.92	950.35
644.26	944.38
644.61	938.33
644.95	932.36
645.29	925.77
645.64	919.03
645.98	912.69
646.32	906.89
646.66	900.77
647.01	894.93
647.35	889.25
647.69	883.43
648.04	877.85
648.38	872.11
648.72	866.17
649.06	859.95
649.41	853.96
649.75	848.00
650.09	842.13
650.43	836.38
650.78	830.10
651.12	824.12
651.46	818.34
651.80	812.62
652.14	807.10
652.49	801.78
652.83	796.62
653.17	790.89
653.51	785.06
653.85	779.61
654.20	774.01
654.54	767.95
654.88	762.17
655.22	756.32
655.56	750.61
655.90	745.16
656.25	739.96
656.59	734.63
656.93	729.56
657.27	724.43
657.61	718.98
657.95	713.93
658.29	708.86
658.64	703.58
658.98	698.26
659.32	692.80
659.66	687.55
660.00	682.17
660.34	677.28
660.68	672.45
661.02	667.52
661.36	662.78
661.70	658.28
662.05	653.93
662.39	649.60
662.73	645.12
663.07	640.77
663.41	636.34
663.75	631.86
664.09	627.22
664.43	622.77
664.77	618.67
665.11	614.44
665.45	610.34
665.79	606.35
666.13	602.22
666.47	598.13
666.81	593.99
667.15	589.89
667.49	586.00
667.83	582.19
668.17	578.28
668.51	574.23
668.85	570.22
669.19	566.33
669.53	562.47
669.87	558.58
670.21	554.85
670.55	551.24
670.89	547.81
671.23	544.42
671.57	540.91
671.91	537.40
672.25	533.87
672.58	530.37
672.92	526.91
673.26	523.74
673.60	520.65
673.94	517.51
674.28	514.62
674.62	511.65
674.96	508.53
675.30	505.61
675.64	502.75
675.97	500.01
676.31	497.20
676.65	494.29
676.99	491.60
677.33	488.68
677.67	485.89
678.01	482.85
678.34	479.86
678.68	477.00
679.02	474.22
679.36	471.51
679.70	468.79
680.04	466.04
680.37	463.18
680.71	460.40
681.05	457.84
681.39	455.16
681.73	452.53
682.06	450.05
682.40	447.54
682.74	444.98
683.08	442.40
683.42	439.84
683.75	437.37
684.09	434.87
684.43	432.48
684.77	429.98
685.10	427.68
685.44	425.38
685.78	423.13
686.12	420.83
686.45	418.51
686.79	416.23
687.13	414.08
687.46	411.97
687.80	409.82
688.14	407.55
688.48	405.48
688.81	403.23
689.15	401.10
689.49	398.92
689.82	396.86
690.16	394.78
690.50	392.83
690.83	390.88
691.17	388.89
691.51	386.97
691.84	385.16
692.18	383.20
692.52	381.28
692.85	379.36
693.19	377.48
693.52	375.65
693.86	373.84
694.20	372.04
694.53	370.15
694.87	368.29
695.21	366.52
695.54	364.72
695.88	363.02
696.21	361.28
696.55	359.60
696.88	357.92
697.22	356.26
697.56	354.61
697.89	352.98
698.23	351.39
698.56	349.75
698.90	348.10
699.23	346.48
699.57	344.92
699.90	343.37
700.24	341.88
700.58	340.37
700.91	338.86
701.25	337.44
701.58	336.14
701.92	334.80
702.25	333.44
702.59	332.06
702.92	330.73
703.26	329.42
703.59	328.15
703.93	326.97
704.26	325.75
704.60	324.42
704.93	323.13
705.26	321.84
705.60	320.71
705.93	319.61
706.27	318.60
706.60	317.50
706.94	316.45
707.27	315.29
707.61	314.20
707.94	313.17
708.27	312.06
708.61	310.95
708.94	309.98
709.28	308.98
709.61	308.05
709.94	307.08
710.28	306.05
710.61	305.05
710.95	303.95
711.28	303.02
711.61	302.09
711.95	301.16
712.28	300.23
712.61	299.23
712.95	298.30
713.28	297.40
713.61	296.52
713.95	295.58
714.28	294.75
714.61	293.92
714.95	293.10
715.28	292.23
715.61	291.34
715.95	290.40
716.28	289.55
716.61	288.73
716.95	287.92
717.28	287.19
717.61	286.46
717.94	285.73
718.28	284.91
718.61	284.19
718.94	283.52
719.27	282.83
719.61	282.17
719.94	281.46
720.27	280.74
720.60	280.08
720.94	279.47
721.27	278.90
721.60	278.31
721.93	277.68
722.27	277.17
722.60	276.60
722.93	276.08
723.26	275.52
723.59	274.95
723.93	274.37
724.26	273.79
724.59	273.19
724.92	272.66
725.25	272.19
725.59	271.68
725.92	271.15
726.25	270.69
726.58	270.20
726.91	269.70
727.24	269.21
727.57	268.74
727.91	268.27
728.24	267.73
728.57	267.25
728.90	266.76
729.23	266.27
729.56	265.86
729.89	265.41
730.22	264.91
730.55	264.47
730.89	264.04
731.22	263.59
731.55	263.17
731.88	262.73
732.21	262.28
732.54	261.89
732.87	261.50
733.20	261.09
733.53	260.73
733.86	260.43
734.19	260.04
734.52	259.67
734.85	259.36
735.18	258.96
735.51	258.61
735.84	258.29
736.17	257.94
736.50	257.55
736.83	257.28
737.16	256.97
737.49	256.61
737.82	256.29
738.15	255.98
738.48	255.65
738.81	255.34
739.14	255.01
739.47	254.69
739.80	254.36
740.13	254.06
740.46	253.72
740.79	253.35
741.12	253.05
741.45	252.73
741.78	252.39
742.11	252.08
742.44	251.74
742.77	251.45
743.10	251.15
743.43	250.86
743.75	250.48
744.08	250.33
744.41	250.06
744.74	249.79
745.07	249.51
745.40	249.26
745.73	249.07
746.06	248.83
746.39	248.57
746.71	248.34
747.04	248.02
747.37	247.80
747.70	247.55
748.03	247.30
748.36	247.04
748.68	246.78
749.01	246.57
749.34	246.38
749.67	246.16
750.00	245.92
750.33	245.73
750.65	245.50
750.98	245.19
751.31	244.97
751.64	244.74
751.97	244.57
752.29	244.39
752.62	244.12
752.95	243.87
753.28	243.64
753.60	243.39
753.93	243.23
754.26	243.03
754.59	242.80
754.91	242.60
755.24	242.44
755.57	242.27
755.90	242.09
756.22	241.87
756.55	241.64
756.88	241.44
757.20	241.25
757.53	241.06
757.86	240.86
758.19	240.67
758.51	240.52
758.84	240.29
759.17	240.09
759.49	239.93
759.82	239.86
760.15	239.72
760.47	239.58
760.80	239.42
761.13	239.26
761.45	239.11
761.78	239.01
762.11	238.86
762.43	238.70
762.76	238.56
763.08	238.42
763.41	238.32
763.74	238.17
764.06	238.02
764.39	237.89
764.71	237.73
765.04	237.58
765.37	237.43
765.69	237.31
766.02	237.17
766.34	237.00
766.67	236.83
767.00	236.73
767.32	236.66
767.65	236.60
767.97	236.49
768.30	236.34
768.62	236.20
768.95	236.06
769.27	235.93
769.60	235.84
769.92	235.71
770.25	235.56
770.57	235.46
770.90	235.35
771.22	235.27
771.55	235.19
771.87	235.11
772.20	235.05
772.52	235.05
772.85	235.11
773.17	235.03
773.50	234.90
773.82	234.80
774.15	234.63
774.47	234.50
774.80	234.36
775.12	234.28
775.45	234.20
775.77	234.10
776.09	234.05
776.42	233.94
776.74	233.92
777.07	233.88
777.39	233.84
777.72	233.78
778.04	233.73
778.36	233.68
778.69	233.64
779.01	233.57
779.33	233.43
779.66	233.24
779.98	233.16
780.31	233.12
780.63	233.08
780.95	233.08
781.28	233.02
781.60	232.98
781.92	232.95
782.25	232.88
782.57	232.84
782.89	232.77
783.22	232.74
783.54	232.65
783.86	232.60
784.19	232.49
784.51	232.49
784.83	232.40
785.16	232.34
785.48	232.28
785.80	232.23
786.12	232.18
786.45	232.12
786.77	232.09
787.09	232.05
