SpectraSuite Data File
++++++++++++++++++++++++++++++++++++
Date: Fri Feb 01 14:56:22 EST 2013
User: group
Dark Spectrum Present: No
Reference Spectrum Present: No
Number of Sampled Component Spectra: 1
Spectrometers: USB2E7196
Integration Time (usec): 35000 (USB2E7196)
Spectra Averaged: 100 (USB2E7196)
Boxcar Smoothing: 10 (USB2E7196)
Correct for Electrical Dark: No (USB2E7196)
Strobe/Lamp Enabled: No (USB2E7196)
Correct for Detector Non-linearity: No (USB2E7196)
Correct for Stray Light: No (USB2E7196)
Number of Pixels in Processed Spectrum: 2048
>>>>>Begin Processed Spectral Data<<<<<
339.09	0.00
339.48	215.89
339.86	216.96
340.24	217.92
340.63	219.26
341.01	222.71
341.39	222.25
341.78	223.70
342.16	225.48
342.54	225.16
342.93	213.69
343.31	224.48
343.69	225.01
344.07	225.47
344.46	225.90
344.84	226.30
345.22	226.50
345.60	226.77
345.99	226.93
346.37	227.02
346.75	227.12
347.13	227.23
347.52	227.27
347.90	227.33
348.28	227.37
348.66	227.38
349.05	227.34
349.43	227.38
349.81	227.43
350.19	227.47
350.57	227.51
350.96	227.58
351.34	227.67
351.72	227.71
352.10	227.80
352.48	227.89
352.87	227.93
353.25	228.01
353.63	228.07
354.01	228.16
354.39	228.23
354.77	228.33
355.15	228.41
355.54	228.52
355.92	228.53
356.30	228.59
356.68	228.75
357.06	228.84
357.44	228.88
357.82	228.96
358.20	229.01
358.58	229.09
358.97	229.17
359.35	229.24
359.73	229.33
360.11	229.40
360.49	229.44
360.87	229.49
361.25	229.56
361.63	229.65
362.01	229.68
362.39	229.71
362.77	229.73
363.15	229.74
363.53	229.74
363.91	229.76
364.29	229.75
364.67	229.66
365.05	229.68
365.43	229.71
365.81	229.70
366.19	229.74
366.57	229.77
366.95	229.74
367.33	229.70
367.71	229.69
368.09	229.68
368.47	229.68
368.85	229.64
369.23	229.62
369.61	229.53
369.99	229.52
370.37	229.48
370.75	229.45
371.13	229.39
371.51	229.36
371.89	229.35
372.27	229.33
372.65	229.30
373.03	229.24
373.41	229.18
373.78	229.11
374.16	228.99
374.54	228.88
374.92	228.80
375.30	228.74
375.68	228.64
376.06	228.57
376.44	228.47
376.82	228.38
377.19	228.32
377.57	228.24
377.95	228.12
378.33	228.04
378.71	227.93
379.09	227.90
379.47	227.82
379.84	227.72
380.22	227.62
380.60	227.52
380.98	227.44
381.36	227.36
381.73	227.28
382.11	227.26
382.49	227.16
382.87	227.09
383.25	227.01
383.62	227.05
384.00	226.96
384.38	226.91
384.76	226.90
385.13	226.84
385.51	226.78
385.89	226.74
386.27	226.69
386.64	226.66
387.02	226.58
387.40	226.52
387.78	226.51
388.15	226.47
388.53	226.43
388.91	226.37
389.29	226.34
389.66	226.32
390.04	226.28
390.42	226.33
390.79	226.34
391.17	226.30
391.55	226.19
391.92	226.21
392.30	226.20
392.68	226.19
393.05	226.20
393.43	226.23
393.81	226.22
394.18	226.21
394.56	226.24
394.94	226.31
395.31	226.33
395.69	226.40
396.06	226.45
396.44	226.50
396.82	226.56
397.19	226.68
397.57	226.70
397.95	226.77
398.32	226.79
398.70	226.83
399.07	226.95
399.45	227.02
399.82	227.10
400.20	227.17
400.58	227.24
400.95	227.26
401.33	227.39
401.70	227.58
402.08	227.71
402.45	227.83
402.83	227.95
403.20	228.08
403.58	228.16
403.95	228.34
404.33	228.48
404.71	228.63
405.08	228.80
405.46	228.96
405.83	229.14
406.21	229.31
406.58	229.51
406.96	229.71
407.33	229.93
407.70	230.14
408.08	230.44
408.45	230.72
408.83	231.01
409.20	231.21
409.58	231.39
409.95	231.66
410.33	231.95
410.70	232.24
411.08	232.59
411.45	232.92
411.82	233.20
412.20	233.57
412.57	233.99
412.95	234.33
413.32	234.76
413.69	235.20
414.07	235.61
414.44	236.07
414.82	236.54
415.19	237.10
415.56	237.65
415.94	238.20
416.31	238.80
416.68	239.43
417.06	240.12
417.43	240.82
417.81	241.60
418.18	242.35
418.55	243.14
418.93	243.98
419.30	244.89
419.67	245.81
420.04	246.75
420.42	247.70
420.79	248.86
421.16	249.97
421.54	251.14
421.91	252.38
422.28	253.63
422.66	254.96
423.03	256.25
423.40	257.57
423.77	258.96
424.15	260.39
424.52	261.85
424.89	263.46
425.26	265.01
425.64	266.43
426.01	268.03
426.38	269.68
426.75	271.32
427.13	273.05
427.50	274.90
427.87	276.77
428.24	278.64
428.61	280.35
428.99	282.32
429.36	284.43
429.73	286.47
430.10	288.49
430.47	290.54
430.85	292.64
431.22	294.89
431.59	297.31
431.96	299.52
432.33	302.01
432.70	304.39
433.08	307.18
433.45	309.87
433.82	312.50
434.19	315.42
434.56	318.25
434.93	320.88
435.30	323.51
435.68	326.41
436.05	329.28
436.42	332.15
436.79	334.67
437.16	337.35
437.53	340.22
437.90	343.03
438.27	345.71
438.64	348.58
439.01	351.14
439.38	353.37
439.75	355.55
440.13	358.06
440.50	360.38
440.87	362.25
441.24	364.16
441.61	366.31
441.98	367.83
442.35	369.67
442.72	371.54
443.09	373.30
443.46	374.32
443.83	374.87
444.20	375.34
444.57	376.15
444.94	376.45
445.31	376.78
445.68	377.19
446.05	377.31
446.42	376.91
446.79	376.47
447.16	376.00
447.53	375.70
447.90	374.52
448.27	373.45
448.64	371.88
449.01	370.68
449.37	368.71
449.74	366.79
450.11	364.54
450.48	362.05
450.85	359.50
451.22	357.37
451.59	355.33
451.96	353.39
452.33	350.79
452.70	348.43
453.07	345.57
453.43	342.64
453.80	339.88
454.17	337.19
454.54	334.71
454.91	332.01
455.28	329.34
455.65	326.82
456.02	324.29
456.38	322.13
456.75	319.47
457.12	317.22
457.49	314.95
457.86	312.77
458.23	310.91
458.59	308.88
458.96	306.77
459.33	304.96
459.70	303.07
460.07	301.56
460.43	299.81
460.80	298.21
461.17	296.74
461.54	295.22
461.91	293.80
462.27	292.32
462.64	291.05
463.01	289.70
463.38	288.40
463.74	287.08
464.11	285.91
464.48	284.94
464.85	283.82
465.21	282.95
465.58	281.98
465.95	280.85
466.32	279.97
466.68	279.07
467.05	278.13
467.42	277.23
467.78	276.31
468.15	275.46
468.52	274.76
468.88	273.91
469.25	273.15
469.62	272.50
469.98	271.80
470.35	271.16
470.72	270.52
471.08	269.88
471.45	269.32
471.82	268.73
472.18	268.12
472.55	267.67
472.92	267.18
473.28	266.72
473.65	266.26
474.02	265.78
474.38	265.41
474.75	265.05
475.11	264.69
475.48	264.40
475.85	264.13
476.21	263.87
476.58	263.67
476.94	263.50
477.31	263.32
477.67	263.17
478.04	263.04
478.41	262.98
478.77	263.00
479.14	262.89
479.50	262.93
479.87	262.95
480.23	263.00
480.60	263.03
480.96	263.11
481.33	263.33
481.69	263.53
482.06	263.70
482.42	263.92
482.79	264.18
483.15	264.50
483.52	264.85
483.88	265.21
484.25	265.62
484.61	266.03
484.98	266.43
485.34	266.96
485.71	267.52
486.07	268.09
486.44	268.61
486.80	269.33
487.17	270.05
487.53	270.85
487.90	271.71
488.26	272.63
488.62	273.63
488.99	274.57
489.35	275.56
489.72	276.70
490.08	277.90
490.44	279.10
490.81	280.43
491.17	281.78
491.54	283.26
491.90	284.75
492.26	286.39
492.63	288.12
492.99	289.91
493.36	291.84
493.72	293.88
494.08	295.99
494.45	298.21
494.81	300.56
495.17	303.00
495.54	305.54
495.90	308.19
496.26	310.94
496.63	313.90
496.99	317.03
497.35	320.23
497.72	323.57
498.08	327.04
498.44	330.65
498.80	334.57
499.17	338.59
499.53	342.72
499.89	347.10
500.26	351.60
500.62	356.22
500.98	361.15
501.34	366.25
501.71	371.53
502.07	376.98
502.43	382.53
502.79	388.31
503.16	394.34
503.52	400.60
503.88	406.98
504.24	413.56
504.60	420.48
504.97	427.57
505.33	434.95
505.69	442.62
506.05	450.38
506.41	458.25
506.78	466.37
507.14	474.89
507.50	483.52
507.86	492.49
508.22	501.61
508.59	510.75
508.95	520.28
509.31	530.07
509.67	540.15
510.03	550.40
510.39	560.96
510.75	571.79
511.12	582.76
511.48	594.16
511.84	605.64
512.20	617.10
512.56	629.11
512.92	641.22
513.28	653.52
513.64	666.01
514.00	678.75
514.37	691.63
514.73	704.58
515.09	717.71
515.45	731.05
515.81	744.70
516.17	758.70
516.53	772.76
516.89	787.03
517.25	801.19
517.61	815.68
517.97	830.07
518.33	844.45
518.69	859.27
519.05	874.20
519.41	889.39
519.77	904.87
520.13	920.26
520.49	935.78
520.85	951.25
521.21	967.03
521.57	983.28
521.93	999.16
522.29	1015.61
522.65	1031.81
523.01	1048.11
523.37	1064.26
523.73	1080.56
524.09	1096.71
524.45	1113.07
524.81	1129.76
525.17	1146.76
525.53	1163.82
525.89	1180.89
526.25	1197.67
526.61	1214.11
526.97	1230.86
527.33	1247.49
527.68	1264.29
528.04	1280.78
528.40	1297.55
528.76	1314.66
529.12	1331.28
529.48	1348.22
529.84	1364.41
530.20	1381.16
530.56	1398.24
530.91	1415.61
531.27	1432.38
531.63	1448.97
531.99	1465.56
532.35	1481.67
532.71	1497.50
533.07	1513.82
533.42	1529.70
533.78	1545.85
534.14	1562.08
534.50	1577.48
534.86	1593.44
535.21	1608.54
535.57	1624.54
535.93	1640.05
536.29	1654.96
536.65	1670.21
537.00	1685.08
537.36	1700.40
537.72	1715.04
538.08	1729.57
538.44	1743.49
538.79	1757.52
539.15	1771.41
539.51	1785.31
539.87	1799.71
540.22	1813.59
540.58	1827.51
540.94	1841.05
541.29	1854.18
541.65	1867.17
542.01	1880.60
542.37	1892.95
542.72	1905.51
543.08	1917.40
543.44	1929.89
543.79	1941.12
544.15	1952.13
544.51	1963.71
544.87	1974.82
545.22	1985.66
545.58	1995.93
545.94	2005.75
546.29	2015.58
546.65	2025.38
547.01	2034.56
547.36	2043.38
547.72	2051.88
548.07	2059.73
548.43	2067.86
548.79	2075.79
549.14	2083.43
549.50	2090.80
549.86	2098.58
550.21	2105.98
550.57	2113.20
550.92	2119.71
551.28	2126.90
551.64	2133.99
551.99	2140.70
552.35	2146.69
552.70	2152.83
553.06	2158.74
553.41	2165.06
553.77	2171.11
554.13	2177.16
554.48	2183.31
554.84	2188.58
555.19	2193.76
555.55	2198.63
555.90	2203.02
556.26	2207.73
556.61	2212.29
556.97	2216.27
557.32	2220.37
557.68	2224.42
558.03	2228.66
558.39	2232.40
558.74	2236.84
559.10	2240.55
559.45	2243.99
559.81	2248.24
560.16	2251.74
560.52	2254.86
560.87	2258.27
561.23	2260.93
561.58	2263.74
561.94	2266.14
562.29	2268.57
562.64	2271.27
563.00	2273.96
563.35	2277.35
563.71	2280.52
564.06	2283.55
564.42	2286.51
564.77	2288.80
565.12	2290.95
565.48	2292.62
565.83	2294.42
566.19	2295.64
566.54	2296.63
566.89	2297.62
567.25	2298.20
567.60	2299.82
567.96	2301.35
568.31	2302.12
568.66	2302.91
569.02	2303.38
569.37	2303.70
569.72	2304.22
570.08	2304.07
570.43	2303.88
570.78	2302.97
571.14	2301.37
571.49	2299.87
571.84	2299.34
572.20	2297.96
572.55	2296.74
572.90	2295.10
573.26	2293.46
573.61	2291.59
573.96	2289.50
574.31	2286.31
574.67	2283.12
575.02	2279.07
575.37	2275.62
575.72	2271.47
576.08	2268.25
576.43	2264.84
576.78	2260.87
577.13	2257.74
577.49	2254.56
577.84	2250.95
578.19	2247.27
578.54	2243.20
578.90	2238.72
579.25	2233.15
579.60	2228.15
579.95	2223.11
580.30	2217.85
580.66	2212.44
581.01	2207.32
581.36	2202.12
581.71	2197.86
582.06	2193.21
582.42	2188.58
582.77	2183.12
583.12	2178.43
583.47	2173.35
583.82	2168.05
584.17	2162.66
584.53	2156.94
584.88	2151.10
585.23	2145.18
585.58	2139.61
585.93	2134.21
586.28	2129.46
586.63	2124.17
586.98	2119.05
587.34	2114.06
587.69	2109.04
588.04	2103.57
588.39	2097.75
588.74	2091.33
589.09	2084.96
589.44	2078.11
589.79	2072.13
590.14	2066.49
590.49	2059.67
590.84	2053.19
591.19	2047.01
591.54	2040.54
591.89	2032.85
592.25	2025.87
592.60	2018.61
592.95	2010.81
593.30	2003.28
593.65	1995.58
594.00	1988.44
594.35	1980.98
594.70	1972.93
595.05	1965.63
595.40	1958.58
595.75	1951.02
596.10	1944.65
596.45	1937.77
596.80	1931.55
597.15	1924.58
597.50	1917.22
597.85	1910.88
598.19	1904.14
598.54	1896.98
598.89	1890.21
599.24	1884.37
599.59	1877.67
599.94	1871.38
600.29	1865.05
600.64	1858.47
600.99	1850.90
601.34	1843.98
601.69	1837.07
602.04	1830.05
602.39	1822.70
602.74	1815.77
603.08	1809.10
603.43	1802.41
603.78	1795.17
604.13	1787.87
604.48	1780.60
604.83	1773.77
605.18	1766.68
605.53	1758.60
605.87	1750.69
606.22	1743.43
606.57	1735.53
606.92	1728.19
607.27	1720.95
607.62	1713.96
607.96	1706.62
608.31	1700.00
608.66	1692.38
609.01	1684.69
609.36	1677.24
609.70	1669.16
610.05	1660.95
610.40	1653.12
610.75	1644.73
611.10	1637.15
611.44	1628.78
611.79	1620.90
612.14	1612.38
612.49	1603.34
612.83	1595.05
613.18	1586.93
613.53	1578.93
613.88	1570.42
614.22	1562.27
614.57	1553.68
614.92	1545.65
615.27	1538.01
615.61	1529.71
615.96	1521.71
616.31	1514.19
616.65	1506.77
617.00	1499.30
617.35	1491.77
617.70	1483.52
618.04	1474.99
618.39	1466.79
618.74	1459.22
619.08	1450.88
619.43	1443.19
619.78	1436.32
620.12	1429.15
620.47	1421.67
620.82	1413.59
621.16	1406.32
621.51	1398.73
621.85	1391.19
622.20	1382.78
622.55	1374.70
622.89	1366.94
623.24	1359.45
623.59	1352.12
623.93	1344.64
624.28	1337.43
624.62	1329.85
624.97	1322.72
625.32	1316.10
625.66	1309.12
626.01	1301.89
626.35	1294.57
626.70	1286.94
627.04	1279.21
627.39	1271.55
627.73	1264.14
628.08	1257.16
628.43	1249.74
628.77	1242.41
629.12	1234.95
629.46	1227.81
629.81	1220.43
630.15	1213.27
630.50	1205.85
630.84	1197.76
631.19	1190.04
631.53	1182.60
631.88	1175.17
632.22	1167.58
632.57	1160.40
632.91	1152.93
633.26	1145.57
633.60	1138.21
633.95	1131.26
634.29	1124.33
634.64	1117.76
634.98	1110.49
635.32	1103.55
635.67	1097.13
636.01	1090.62
636.36	1083.86
636.70	1077.48
637.05	1070.95
637.39	1064.48
637.73	1058.05
638.08	1052.18
638.42	1046.12
638.77	1039.66
639.11	1033.15
639.45	1026.89
639.80	1020.17
640.14	1013.77
640.49	1007.33
640.83	1001.11
641.17	994.83
641.52	988.59
641.86	982.13
642.20	976.38
642.55	969.97
642.89	963.49
643.23	956.88
643.58	951.15
643.92	944.92
644.26	938.82
644.61	932.97
644.95	927.00
645.29	920.43
645.64	913.71
645.98	907.51
646.32	901.76
646.66	895.76
647.01	890.02
647.35	884.27
647.69	878.58
648.04	873.11
648.38	867.30
648.72	861.27
649.06	855.25
649.41	849.36
649.75	843.42
650.09	837.54
650.43	831.83
650.78	825.67
651.12	819.76
651.46	814.07
651.80	808.21
652.14	802.72
652.49	797.41
652.83	792.24
653.17	786.50
653.51	780.75
653.85	775.38
654.20	769.75
654.54	763.92
654.88	758.16
655.22	752.35
655.56	746.80
655.90	741.43
656.25	736.18
656.59	730.82
656.93	725.77
657.27	720.61
657.61	715.17
657.95	710.18
658.29	705.19
658.64	700.00
658.98	694.85
659.32	689.44
659.66	684.24
660.00	678.96
660.34	674.12
660.68	669.32
661.02	664.31
661.36	659.62
661.70	655.09
662.05	650.73
662.39	646.42
662.73	641.98
663.07	637.59
663.41	633.21
663.75	628.77
664.09	624.28
664.43	619.95
664.77	615.88
665.11	611.68
665.45	607.58
665.79	603.59
666.13	599.47
666.47	595.47
666.81	591.34
667.15	587.33
667.49	583.55
667.83	579.76
668.17	575.89
668.51	571.90
668.85	567.96
669.19	564.19
669.53	560.35
669.87	556.43
670.21	552.78
670.55	549.22
670.89	545.91
671.23	542.44
671.57	538.95
671.91	535.50
672.25	532.02
672.58	528.50
672.92	525.07
673.26	521.98
673.60	518.89
673.94	515.86
674.28	513.02
674.62	510.04
674.96	506.90
675.30	504.08
675.64	501.15
675.97	498.37
676.31	495.48
676.65	492.57
676.99	490.00
677.33	487.18
677.67	484.41
678.01	481.36
678.34	478.47
678.68	475.67
679.02	472.84
679.36	470.11
679.70	467.43
680.04	464.72
680.37	461.87
680.71	459.07
681.05	456.45
681.39	453.78
681.73	451.13
682.06	448.66
682.40	446.05
682.74	443.60
683.08	441.15
683.42	438.59
683.75	436.16
684.09	433.61
684.43	431.18
684.77	428.71
685.10	426.42
685.44	424.13
685.78	421.80
686.12	419.56
686.45	417.33
686.79	415.06
687.13	412.93
687.46	410.76
687.80	408.68
688.14	406.48
688.48	404.36
688.81	402.15
689.15	399.96
689.49	397.87
689.82	395.79
690.16	393.66
690.50	391.73
690.83	389.82
691.17	387.90
691.51	385.98
691.84	384.12
692.18	382.14
692.52	380.18
692.85	378.32
693.19	376.48
693.52	374.64
693.86	372.86
694.20	371.04
694.53	369.24
694.87	367.40
695.21	365.61
695.54	363.80
695.88	362.11
696.21	360.39
696.55	358.69
696.88	357.02
697.22	355.41
697.56	353.80
697.89	352.09
698.23	350.46
698.56	348.84
698.90	347.25
699.23	345.67
699.57	344.17
699.90	342.63
700.24	341.13
700.58	339.61
700.91	338.10
701.25	336.67
701.58	335.33
701.92	333.94
702.25	332.59
702.59	331.26
702.92	329.93
703.26	328.64
703.59	327.39
703.93	326.19
704.26	324.96
704.60	323.69
704.93	322.42
705.26	321.21
705.60	320.08
705.93	318.93
706.27	317.86
706.60	316.83
706.94	315.75
707.27	314.63
707.61	313.57
707.94	312.52
708.27	311.44
708.61	310.38
708.94	309.40
709.28	308.40
709.61	307.47
709.94	306.55
710.28	305.60
710.61	304.67
710.95	303.65
711.28	302.76
711.61	301.85
711.95	300.96
712.28	300.00
712.61	299.00
712.95	298.09
713.28	297.28
713.61	296.36
713.95	295.48
714.28	294.67
714.61	293.85
714.95	293.06
715.28	292.20
715.61	291.31
715.95	290.46
716.28	289.64
716.61	288.81
716.95	288.02
717.28	287.26
717.61	286.46
717.94	285.70
718.28	284.88
718.61	284.19
718.94	283.52
719.27	282.85
719.61	282.23
719.94	281.60
720.27	280.87
720.60	280.21
720.94	279.64
721.27	279.04
721.60	278.44
721.93	277.85
722.27	277.34
722.60	276.83
722.93	276.28
723.26	275.77
723.59	275.20
723.93	274.63
724.26	274.07
724.59	273.53
724.92	273.04
725.25	272.56
725.59	271.98
725.92	271.47
726.25	271.05
726.58	270.57
726.91	270.07
727.24	269.63
727.57	269.18
727.91	268.69
728.24	268.23
728.57	267.73
728.90	267.26
729.23	266.73
729.56	266.31
729.89	265.82
730.22	265.35
730.55	264.90
730.89	264.47
731.22	264.02
731.55	263.61
731.88	263.19
732.21	262.79
732.54	262.38
732.87	261.99
733.20	261.54
733.53	261.17
733.86	260.78
734.19	260.37
734.52	259.96
734.85	259.64
735.18	259.21
735.51	258.85
735.84	258.49
736.17	258.15
736.50	257.70
736.83	257.47
737.16	257.13
737.49	256.79
737.82	256.40
738.15	256.07
738.48	255.72
738.81	255.39
739.14	255.03
739.47	254.70
739.80	254.38
740.13	254.05
740.46	253.71
740.79	253.36
741.12	253.04
741.45	252.71
741.78	252.31
742.11	252.05
742.44	251.70
742.77	251.38
743.10	251.07
743.43	250.78
743.75	250.37
744.08	250.19
744.41	249.91
744.74	249.64
745.07	249.36
745.40	249.10
745.73	248.83
746.06	248.55
746.39	248.28
746.71	248.01
747.04	247.73
747.37	247.46
747.70	247.23
748.03	246.98
748.36	246.77
748.68	246.52
749.01	246.22
749.34	246.03
749.67	245.79
750.00	245.56
750.33	245.40
750.65	245.22
750.98	244.88
751.31	244.67
751.64	244.43
751.97	244.28
752.29	244.06
752.62	243.81
752.95	243.60
753.28	243.37
753.60	243.14
753.93	242.99
754.26	242.79
754.59	242.56
754.91	242.38
755.24	242.20
755.57	242.04
755.90	241.88
756.22	241.68
756.55	241.49
756.88	241.32
757.20	241.11
757.53	240.92
757.86	240.74
758.19	240.58
758.51	240.45
758.84	240.27
759.17	240.11
759.49	239.97
759.82	239.89
760.15	239.79
760.47	239.63
760.80	239.44
761.13	239.30
761.45	239.17
761.78	239.00
762.11	238.86
762.43	238.72
762.76	238.59
763.08	238.44
763.41	238.34
763.74	238.22
764.06	238.05
764.39	237.93
764.71	237.83
765.04	237.69
765.37	237.58
765.69	237.43
766.02	237.31
766.34	237.17
766.67	236.99
767.00	236.89
767.32	236.85
767.65	236.81
767.97	236.72
768.30	236.58
768.62	236.47
768.95	236.34
769.27	236.27
769.60	236.19
769.92	236.09
770.25	236.00
770.57	235.85
770.90	235.80
771.22	235.72
771.55	235.60
771.87	235.52
772.20	235.39
772.52	235.37
772.85	235.40
773.17	235.35
773.50	235.27
773.82	235.17
774.15	235.03
774.47	234.87
774.80	234.78
775.12	234.71
775.45	234.64
775.77	234.57
776.09	234.47
776.42	234.37
776.74	234.31
777.07	234.21
777.39	234.17
777.72	234.06
778.04	233.95
778.36	233.87
778.69	233.79
779.01	233.72
779.33	233.60
779.66	233.41
779.98	233.31
780.31	233.23
780.63	233.19
780.95	233.14
781.28	233.06
781.60	232.96
781.92	232.90
782.25	232.83
782.57	232.76
782.89	232.69
783.22	232.62
783.54	232.55
783.86	232.48
784.19	232.40
784.51	232.38
784.83	232.33
785.16	232.27
785.48	232.23
785.80	232.18
786.12	232.12
786.45	232.08
786.77	232.04
787.09	231.99
