SpectraSuite Data File
++++++++++++++++++++++++++++++++++++
Date: Fri Feb 01 15:16:27 EST 2013
User: group
Dark Spectrum Present: No
Reference Spectrum Present: No
Number of Sampled Component Spectra: 1
Spectrometers: USB2E7196
Integration Time (usec): 35000 (USB2E7196)
Spectra Averaged: 100 (USB2E7196)
Boxcar Smoothing: 10 (USB2E7196)
Correct for Electrical Dark: No (USB2E7196)
Strobe/Lamp Enabled: No (USB2E7196)
Correct for Detector Non-linearity: No (USB2E7196)
Correct for Stray Light: No (USB2E7196)
Number of Pixels in Processed Spectrum: 2048
>>>>>Begin Processed Spectral Data<<<<<
339.09	0.00
339.48	214.73
339.86	216.57
340.24	218.19
340.63	219.06
341.01	222.02
341.39	221.59
341.78	222.92
342.16	224.64
342.54	224.70
342.93	213.29
343.31	224.08
343.69	224.65
344.07	225.12
344.46	225.52
344.84	225.91
345.22	226.15
345.60	226.41
345.99	226.61
346.37	226.71
346.75	226.85
347.13	226.97
347.52	227.06
347.90	227.17
348.28	227.20
348.66	227.28
349.05	227.28
349.43	227.30
349.81	227.35
350.19	227.40
350.57	227.44
350.96	227.51
351.34	227.60
351.72	227.67
352.10	227.75
352.48	227.85
352.87	227.90
353.25	227.97
353.63	228.04
354.01	228.11
354.39	228.23
354.77	228.32
355.15	228.40
355.54	228.44
355.92	228.45
356.30	228.52
356.68	228.64
357.06	228.73
357.44	228.79
357.82	228.84
358.20	228.91
358.58	228.97
358.97	229.01
359.35	229.10
359.73	229.18
360.11	229.25
360.49	229.29
360.87	229.35
361.25	229.42
361.63	229.49
362.01	229.57
362.39	229.56
362.77	229.53
363.15	229.55
363.53	229.57
363.91	229.58
364.29	229.59
364.67	229.50
365.05	229.47
365.43	229.49
365.81	229.51
366.19	229.56
366.57	229.62
366.95	229.62
367.33	229.54
367.71	229.50
368.09	229.50
368.47	229.47
368.85	229.45
369.23	229.41
369.61	229.30
369.99	229.28
370.37	229.27
370.75	229.31
371.13	229.24
371.51	229.16
371.89	229.12
372.27	229.07
372.65	229.01
373.03	229.01
373.41	228.94
373.78	228.82
374.16	228.72
374.54	228.60
374.92	228.51
375.30	228.45
375.68	228.37
376.06	228.29
376.44	228.19
376.82	228.10
377.19	228.07
377.57	227.98
377.95	227.90
378.33	227.82
378.71	227.68
379.09	227.63
379.47	227.61
379.84	227.49
380.22	227.40
380.60	227.33
380.98	227.22
381.36	227.18
381.73	227.16
382.11	227.08
382.49	227.04
382.87	226.96
383.25	226.93
383.62	226.99
384.00	226.94
384.38	226.89
384.76	226.86
385.13	226.79
385.51	226.81
385.89	226.75
386.27	226.68
386.64	226.66
387.02	226.58
387.40	226.51
387.78	226.51
388.15	226.50
388.53	226.46
388.91	226.43
389.29	226.38
389.66	226.38
390.04	226.36
390.42	226.34
390.79	226.34
391.17	226.33
391.55	226.21
391.92	226.18
392.30	226.21
392.68	226.20
393.05	226.20
393.43	226.19
393.81	226.21
394.18	226.25
394.56	226.28
394.94	226.35
395.31	226.38
395.69	226.47
396.06	226.51
396.44	226.56
396.82	226.62
397.19	226.72
397.57	226.75
397.95	226.82
398.32	226.86
398.70	226.94
399.07	227.04
399.45	227.10
399.82	227.20
400.20	227.26
400.58	227.36
400.95	227.44
401.33	227.53
401.70	227.68
402.08	227.77
402.45	227.89
402.83	228.01
403.20	228.16
403.58	228.25
403.95	228.41
404.33	228.60
404.71	228.73
405.08	228.91
405.46	229.04
405.83	229.19
406.21	229.37
406.58	229.53
406.96	229.68
407.33	229.89
407.70	230.07
408.08	230.37
408.45	230.58
408.83	230.83
409.20	231.05
409.58	231.24
409.95	231.52
410.33	231.77
410.70	232.00
411.08	232.27
411.45	232.57
411.82	232.84
412.20	233.21
412.57	233.62
412.95	233.91
413.32	234.33
413.69	234.74
414.07	235.13
414.44	235.61
414.82	236.08
415.19	236.61
415.56	237.19
415.94	237.69
416.31	238.32
416.68	238.94
417.06	239.67
417.43	240.38
417.81	241.15
418.18	241.94
418.55	242.79
418.93	243.67
419.30	244.60
419.67	245.52
420.04	246.45
420.42	247.40
420.79	248.56
421.16	249.71
421.54	250.87
421.91	252.11
422.28	253.33
422.66	254.67
423.03	255.97
423.40	257.29
423.77	258.71
424.15	260.10
424.52	261.58
424.89	263.18
425.26	264.71
425.64	266.13
426.01	267.70
426.38	269.28
426.75	270.96
427.13	272.68
427.50	274.53
427.87	276.40
428.24	278.29
428.61	280.04
428.99	281.97
429.36	284.09
429.73	286.16
430.10	288.20
430.47	290.27
430.85	292.39
431.22	294.63
431.59	297.03
431.96	299.30
432.33	301.79
432.70	304.12
433.08	306.94
433.45	309.58
433.82	312.19
434.19	315.18
434.56	317.99
434.93	320.64
435.30	323.21
435.68	326.11
436.05	328.95
436.42	331.76
436.79	334.31
437.16	337.03
437.53	339.88
437.90	342.69
438.27	345.45
438.64	348.33
439.01	350.91
439.38	353.19
439.75	355.38
440.13	357.88
440.50	360.27
440.87	362.11
441.24	364.10
441.61	366.31
441.98	367.79
442.35	369.57
442.72	371.44
443.09	373.23
443.46	374.23
443.83	374.82
444.20	375.32
444.57	376.17
444.94	376.45
445.31	376.80
445.68	377.20
446.05	377.26
446.42	376.86
446.79	376.42
447.16	375.94
447.53	375.60
447.90	374.44
448.27	373.27
448.64	371.68
449.01	370.47
449.37	368.43
449.74	366.48
450.11	364.26
450.48	361.79
450.85	359.31
451.22	357.15
451.59	355.10
451.96	353.17
452.33	350.56
452.70	348.19
453.07	345.37
453.43	342.45
453.80	339.66
454.17	336.97
454.54	334.46
454.91	331.74
455.28	329.08
455.65	326.54
456.02	324.11
456.38	321.95
456.75	319.34
457.12	317.15
457.49	314.97
457.86	312.78
458.23	310.92
458.59	308.87
458.96	306.78
459.33	304.94
459.70	303.07
460.07	301.53
460.43	299.82
460.80	298.17
461.17	296.68
461.54	295.24
461.91	293.78
462.27	292.33
462.64	291.06
463.01	289.68
463.38	288.43
463.74	287.03
464.11	285.86
464.48	284.83
464.85	283.69
465.21	282.83
465.58	281.91
465.95	280.77
466.32	279.86
466.68	278.96
467.05	278.07
467.42	277.17
467.78	276.25
468.15	275.36
468.52	274.69
468.88	273.85
469.25	273.05
469.62	272.44
469.98	271.71
470.35	271.00
470.72	270.40
471.08	269.69
471.45	269.13
471.82	268.60
472.18	267.94
472.55	267.51
472.92	266.96
473.28	266.45
473.65	266.01
474.02	265.57
474.38	265.17
474.75	264.85
475.11	264.45
475.48	264.15
475.85	263.93
476.21	263.68
476.58	263.46
476.94	263.30
477.31	263.09
477.67	262.98
478.04	262.94
478.41	262.89
478.77	262.93
479.14	262.88
479.50	262.89
479.87	262.98
480.23	263.05
480.60	263.13
480.96	263.24
481.33	263.44
481.69	263.66
482.06	263.87
482.42	264.06
482.79	264.31
483.15	264.64
483.52	265.04
483.88	265.38
484.25	265.78
484.61	266.21
484.98	266.69
485.34	267.21
485.71	267.81
486.07	268.40
486.44	268.96
486.80	269.67
487.17	270.37
487.53	271.16
487.90	271.98
488.26	272.92
488.62	273.90
488.99	274.84
489.35	275.79
489.72	276.91
490.08	278.07
490.44	279.33
490.81	280.66
491.17	281.99
491.54	283.48
491.90	285.05
492.26	286.69
492.63	288.41
492.99	290.19
493.36	292.06
493.72	294.11
494.08	296.17
494.45	298.41
494.81	300.76
495.17	303.21
495.54	305.75
495.90	308.44
496.26	311.25
496.63	314.26
496.99	317.43
497.35	320.67
497.72	324.10
498.08	327.61
498.44	331.25
498.80	335.14
499.17	339.14
499.53	343.32
499.89	347.65
500.26	352.16
500.62	356.86
500.98	361.77
501.34	366.84
501.71	372.22
502.07	377.68
502.43	383.28
502.79	389.09
503.16	395.17
503.52	401.35
503.88	407.76
504.24	414.35
504.60	421.22
504.97	428.30
505.33	435.63
505.69	443.32
506.05	451.07
506.41	458.93
506.78	467.13
507.14	475.49
507.50	484.21
507.86	493.21
508.22	502.34
508.59	511.56
508.95	521.15
509.31	530.99
509.67	541.11
510.03	551.41
510.39	561.98
510.75	572.77
511.12	583.78
511.48	595.04
511.84	606.53
512.20	618.05
512.56	630.12
512.92	642.36
513.28	654.68
513.64	667.15
514.00	679.96
514.37	692.87
514.73	705.99
515.09	719.02
515.45	732.38
515.81	746.03
516.17	760.01
516.53	774.13
516.89	788.26
517.25	802.46
517.61	816.90
517.97	831.38
518.33	845.83
518.69	860.66
519.05	875.71
519.41	890.79
519.77	906.36
520.13	921.80
520.49	937.24
520.85	952.81
521.21	968.68
521.57	984.95
521.93	1000.86
522.29	1017.30
522.65	1033.59
523.01	1049.91
523.37	1065.97
523.73	1082.28
524.09	1098.44
524.45	1114.85
524.81	1131.50
525.17	1148.51
525.53	1165.53
525.89	1182.53
526.25	1199.35
526.61	1215.81
526.97	1232.69
527.33	1249.30
527.68	1266.01
528.04	1282.54
528.40	1299.21
528.76	1316.29
529.12	1332.93
529.48	1349.73
529.84	1365.86
530.20	1382.60
530.56	1399.57
530.91	1417.06
531.27	1433.87
531.63	1450.43
531.99	1467.14
532.35	1483.14
532.71	1498.89
533.07	1515.19
533.42	1531.24
533.78	1547.31
534.14	1563.74
534.50	1579.16
534.86	1594.98
535.21	1610.19
535.57	1626.18
535.93	1641.67
536.29	1656.43
536.65	1671.57
537.00	1686.57
537.36	1701.86
537.72	1716.54
538.08	1731.09
538.44	1744.96
538.79	1758.95
539.15	1772.72
539.51	1786.40
539.87	1800.83
540.22	1814.75
540.58	1828.55
540.94	1841.90
541.29	1855.09
541.65	1867.82
542.01	1881.21
542.37	1893.69
542.72	1906.10
543.08	1917.96
543.44	1930.54
543.79	1941.87
544.15	1952.94
544.51	1964.51
544.87	1975.57
545.22	1986.28
545.58	1996.53
545.94	2006.30
546.29	2016.24
546.65	2026.07
547.01	2035.48
547.36	2044.29
547.72	2052.75
548.07	2060.62
548.43	2068.84
548.79	2076.86
549.14	2084.37
549.50	2091.65
549.86	2099.28
550.21	2106.76
550.57	2113.90
550.92	2120.36
551.28	2127.50
551.64	2134.55
551.99	2141.10
552.35	2147.30
552.70	2153.51
553.06	2159.50
553.41	2165.86
553.77	2171.88
554.13	2178.07
554.48	2184.11
554.84	2189.49
555.19	2194.69
555.55	2199.89
555.90	2204.36
556.26	2209.18
556.61	2213.92
556.97	2218.06
557.32	2222.25
557.68	2226.13
558.03	2230.42
558.39	2234.15
558.74	2238.79
559.10	2242.57
559.45	2246.06
559.81	2250.39
560.16	2254.18
560.52	2257.45
560.87	2260.96
561.23	2263.42
561.58	2266.08
561.94	2268.59
562.29	2271.06
562.64	2273.93
563.00	2276.47
563.35	2280.05
563.71	2283.09
564.06	2286.24
564.42	2289.13
564.77	2291.52
565.12	2293.75
565.48	2295.53
565.83	2297.39
566.19	2298.54
566.54	2299.48
566.89	2300.71
567.25	2301.15
567.60	2302.54
567.96	2304.06
568.31	2304.82
568.66	2305.86
569.02	2306.54
569.37	2306.87
569.72	2307.49
570.08	2307.46
570.43	2307.46
570.78	2306.55
571.14	2304.93
571.49	2303.50
571.84	2303.14
572.20	2302.02
572.55	2300.91
572.90	2299.34
573.26	2297.91
573.61	2296.26
573.96	2294.32
574.31	2291.12
574.67	2287.99
575.02	2284.19
575.37	2280.73
575.72	2276.62
576.08	2273.35
576.43	2270.06
576.78	2266.15
577.13	2262.97
577.49	2259.82
577.84	2256.23
578.19	2252.57
578.54	2248.78
578.90	2244.41
579.25	2238.80
579.60	2233.80
579.95	2228.74
580.30	2223.70
580.66	2218.27
581.01	2213.17
581.36	2208.24
581.71	2203.99
582.06	2199.48
582.42	2194.91
582.77	2189.58
583.12	2185.02
583.47	2179.99
583.82	2174.75
584.17	2169.45
584.53	2163.84
584.88	2158.11
585.23	2152.18
585.58	2146.47
585.93	2141.13
586.28	2136.49
586.63	2131.31
586.98	2125.94
587.34	2121.25
587.69	2116.28
588.04	2110.89
588.39	2105.19
588.74	2098.64
589.09	2092.46
589.44	2085.58
589.79	2079.55
590.14	2073.85
590.49	2067.24
590.84	2061.06
591.19	2054.90
591.54	2048.45
591.89	2040.88
592.25	2033.98
592.60	2026.62
592.95	2018.92
593.30	2011.43
593.65	2003.57
594.00	1996.62
594.35	1989.46
594.70	1981.32
595.05	1973.97
595.40	1966.68
595.75	1959.12
596.10	1952.94
596.45	1946.04
596.80	1939.75
597.15	1932.98
597.50	1925.71
597.85	1919.17
598.19	1912.43
598.54	1905.37
598.89	1898.68
599.24	1892.89
599.59	1886.01
599.94	1879.72
600.29	1873.41
600.64	1866.63
600.99	1859.08
601.34	1851.99
601.69	1844.93
602.04	1837.96
602.39	1830.45
602.74	1823.52
603.08	1816.64
603.43	1809.76
603.78	1802.46
604.13	1795.21
604.48	1787.82
604.83	1781.05
605.18	1773.96
605.53	1765.77
605.87	1757.72
606.22	1750.41
606.57	1742.39
606.92	1735.24
607.27	1728.01
607.62	1721.10
607.96	1713.86
608.31	1707.11
608.66	1699.45
609.01	1691.82
609.36	1684.27
609.70	1676.30
610.05	1668.23
610.40	1660.58
610.75	1652.25
611.10	1644.61
611.44	1636.30
611.79	1628.32
612.14	1619.64
612.49	1610.64
612.83	1602.34
613.18	1594.26
613.53	1586.23
613.88	1577.72
614.22	1569.37
614.57	1560.95
614.92	1552.94
615.27	1545.30
615.61	1537.17
615.96	1529.27
616.31	1521.76
616.65	1514.42
617.00	1506.86
617.35	1499.28
617.70	1490.82
618.04	1482.20
618.39	1473.94
618.74	1466.38
619.08	1458.09
619.43	1450.54
619.78	1443.62
620.12	1436.54
620.47	1428.97
620.82	1420.78
621.16	1413.35
621.51	1405.74
621.85	1398.07
622.20	1389.46
622.55	1381.17
622.89	1373.31
623.24	1365.77
623.59	1358.34
623.93	1350.76
624.28	1343.57
624.62	1336.08
624.97	1329.03
625.32	1322.44
625.66	1315.42
626.01	1308.16
626.35	1300.75
626.70	1293.01
627.04	1285.23
627.39	1277.40
627.73	1270.01
628.08	1263.07
628.43	1255.84
628.77	1248.45
629.12	1240.91
629.46	1233.79
629.81	1226.37
630.15	1219.18
630.50	1211.71
630.84	1203.53
631.19	1195.67
631.53	1188.25
631.88	1180.75
632.22	1173.00
632.57	1165.61
632.91	1158.14
633.26	1150.78
633.60	1143.42
633.95	1136.43
634.29	1129.40
634.64	1122.72
634.98	1115.31
635.32	1108.18
635.67	1101.65
636.01	1095.08
636.36	1088.37
636.70	1081.93
637.05	1075.36
637.39	1068.88
637.73	1062.29
638.08	1056.46
638.42	1050.55
638.77	1044.06
639.11	1037.36
639.45	1031.08
639.80	1024.43
640.14	1017.96
640.49	1011.38
640.83	1005.11
641.17	998.75
641.52	992.49
641.86	986.11
642.20	980.34
642.55	974.09
642.89	967.48
643.23	960.94
643.58	955.10
643.92	948.84
644.26	942.83
644.61	936.87
644.95	930.88
645.29	924.21
645.64	917.44
645.98	911.11
646.32	905.35
646.66	899.40
647.01	893.64
647.35	888.08
647.69	882.32
648.04	876.77
648.38	870.99
648.72	864.95
649.06	858.78
649.41	852.89
649.75	846.80
650.09	840.88
650.43	835.06
650.78	828.86
651.12	822.86
651.46	817.10
651.80	811.29
652.14	805.87
652.49	800.57
652.83	795.34
653.17	789.58
653.51	783.79
653.85	778.41
654.20	772.80
654.54	766.79
654.88	761.06
655.22	755.20
655.56	749.56
655.90	744.14
656.25	739.01
656.59	733.65
656.93	728.67
657.27	723.54
657.61	718.04
657.95	713.03
658.29	707.99
658.64	702.83
658.98	697.56
659.32	692.11
659.66	686.92
660.00	681.61
660.34	676.76
660.68	671.95
661.02	666.90
661.36	662.23
661.70	657.72
662.05	653.38
662.39	649.03
662.73	644.61
663.07	640.26
663.41	635.79
663.75	631.28
664.09	626.73
664.43	622.36
664.77	618.41
665.11	614.11
665.45	610.05
665.79	605.98
666.13	601.80
666.47	597.79
666.81	593.64
667.15	589.59
667.49	585.72
667.83	581.94
668.17	578.03
668.51	573.95
668.85	569.93
669.19	566.13
669.53	562.26
669.87	558.40
670.21	554.65
670.55	551.02
670.89	547.63
671.23	544.22
671.57	540.76
671.91	537.20
672.25	533.81
672.58	530.31
672.92	526.93
673.26	523.78
673.60	520.64
673.94	517.55
674.28	514.64
674.62	511.68
674.96	508.54
675.30	505.59
675.64	502.65
675.97	499.94
676.31	497.09
676.65	494.23
676.99	491.47
677.33	488.67
677.67	485.78
678.01	482.72
678.34	479.67
678.68	476.79
679.02	473.96
679.36	471.21
679.70	468.47
680.04	465.69
680.37	462.83
680.71	460.04
681.05	457.43
681.39	454.72
681.73	452.07
682.06	449.55
682.40	447.01
682.74	444.52
683.08	441.90
683.42	439.25
683.75	436.72
684.09	434.19
684.43	431.74
684.77	429.34
685.10	427.02
685.44	424.74
685.78	422.41
686.12	420.16
686.45	417.82
686.79	415.54
687.13	413.34
687.46	411.22
687.80	409.07
688.14	406.83
688.48	404.78
688.81	402.52
689.15	400.38
689.49	398.21
689.82	396.09
690.16	394.00
690.50	392.04
690.83	390.08
691.17	388.09
691.51	386.16
691.84	384.31
692.18	382.39
692.52	380.44
692.85	378.57
693.19	376.71
693.52	374.88
693.86	373.08
694.20	371.27
694.53	369.45
694.87	367.58
695.21	365.79
695.54	363.94
695.88	362.23
696.21	360.52
696.55	358.85
696.88	357.16
697.22	355.53
697.56	353.94
697.89	352.32
698.23	350.71
698.56	349.13
698.90	347.53
699.23	345.92
699.57	344.38
699.90	342.80
700.24	341.26
700.58	339.71
700.91	338.20
701.25	336.81
701.58	335.49
701.92	334.17
702.25	332.84
702.59	331.51
702.92	330.17
703.26	328.89
703.59	327.65
703.93	326.49
704.26	325.26
704.60	323.97
704.93	322.68
705.26	321.48
705.60	320.30
705.93	319.15
706.27	318.16
706.60	317.08
706.94	316.04
707.27	314.93
707.61	313.93
707.94	312.92
708.27	311.81
708.61	310.71
708.94	309.72
709.28	308.75
709.61	307.80
709.94	306.87
710.28	305.87
710.61	304.91
710.95	303.86
711.28	302.98
711.61	302.04
711.95	301.17
712.28	300.21
712.61	299.24
712.95	298.34
713.28	297.42
713.61	296.53
713.95	295.64
714.28	294.86
714.61	293.99
714.95	293.17
715.28	292.34
715.61	291.48
715.95	290.62
716.28	289.78
716.61	288.96
716.95	288.19
717.28	287.44
717.61	286.69
717.94	285.92
718.28	285.11
718.61	284.41
718.94	283.70
719.27	283.09
719.61	282.47
719.94	281.79
720.27	281.07
720.60	280.42
720.94	279.77
721.27	279.13
721.60	278.56
721.93	277.93
722.27	277.36
722.60	276.80
722.93	276.22
723.26	275.67
723.59	275.12
723.93	274.56
724.26	273.99
724.59	273.38
724.92	272.86
725.25	272.35
725.59	271.79
725.92	271.28
726.25	270.71
726.58	270.18
726.91	269.68
727.24	269.21
727.57	268.74
727.91	268.24
728.24	267.77
728.57	267.25
728.90	266.80
729.23	266.30
729.56	265.88
729.89	265.40
730.22	264.91
730.55	264.40
730.89	263.94
731.22	263.47
731.55	263.03
731.88	262.59
732.21	262.14
732.54	261.70
732.87	261.29
733.20	260.89
733.53	260.47
733.86	260.06
734.19	259.65
734.52	259.26
734.85	258.94
735.18	258.52
735.51	258.16
735.84	257.76
736.17	257.38
736.50	256.97
736.83	256.75
737.16	256.40
737.49	256.08
737.82	255.70
738.15	255.36
738.48	255.04
738.81	254.73
739.14	254.41
739.47	254.11
739.80	253.74
740.13	253.42
740.46	253.11
740.79	252.78
741.12	252.49
741.45	252.17
741.78	251.85
742.11	251.60
742.44	251.30
742.77	251.02
743.10	250.75
743.43	250.44
743.75	250.05
744.08	249.93
744.41	249.66
744.74	249.42
745.07	249.17
745.40	248.94
745.73	248.74
746.06	248.49
746.39	248.24
746.71	248.05
747.04	247.83
747.37	247.57
747.70	247.32
748.03	247.09
748.36	246.89
748.68	246.65
749.01	246.38
749.34	246.17
749.67	245.95
750.00	245.76
750.33	245.63
750.65	245.45
750.98	245.11
751.31	244.93
751.64	244.73
751.97	244.60
752.29	244.38
752.62	244.12
752.95	243.92
753.28	243.71
753.60	243.51
753.93	243.34
754.26	243.17
754.59	242.97
754.91	242.79
755.24	242.58
755.57	242.39
755.90	242.22
756.22	242.02
756.55	241.83
756.88	241.62
757.20	241.38
757.53	241.20
757.86	241.03
758.19	240.84
758.51	240.69
758.84	240.49
759.17	240.31
759.49	240.16
759.82	240.03
760.15	239.90
760.47	239.73
760.80	239.58
761.13	239.47
761.45	239.34
761.78	239.17
762.11	239.05
762.43	238.93
762.76	238.79
763.08	238.68
763.41	238.53
763.74	238.42
764.06	238.28
764.39	238.12
764.71	237.98
765.04	237.84
765.37	237.70
765.69	237.53
766.02	237.40
766.34	237.31
766.67	237.15
767.00	237.04
767.32	236.94
767.65	236.88
767.97	236.74
768.30	236.62
768.62	236.47
768.95	236.32
769.27	236.20
769.60	236.10
769.92	235.96
770.25	235.85
770.57	235.72
770.90	235.59
771.22	235.46
771.55	235.36
771.87	235.27
772.20	235.15
772.52	235.15
772.85	235.14
773.17	234.97
773.50	234.88
773.82	234.77
774.15	234.64
774.47	234.46
774.80	234.36
775.12	234.23
775.45	234.15
775.77	234.06
776.09	233.95
776.42	233.84
776.74	233.77
777.07	233.69
777.39	233.62
777.72	233.55
778.04	233.49
778.36	233.42
778.69	233.32
779.01	233.26
779.33	233.08
779.66	232.93
779.98	232.86
780.31	232.77
780.63	232.74
780.95	232.70
781.28	232.64
781.60	232.54
781.92	232.50
782.25	232.46
782.57	232.39
782.89	232.35
783.22	232.30
783.54	232.18
783.86	232.12
784.19	232.03
784.51	232.01
784.83	231.95
785.16	231.90
785.48	231.90
785.80	231.87
786.12	231.86
786.45	231.84
786.77	231.79
787.09	231.75
