SpectraSuite Data File
++++++++++++++++++++++++++++++++++++
Date: Fri Feb 01 17:31:43 EST 2013
User: group
Dark Spectrum Present: No
Reference Spectrum Present: No
Number of Sampled Component Spectra: 1
Spectrometers: USB2E7196
Integration Time (usec): 35000 (USB2E7196)
Spectra Averaged: 100 (USB2E7196)
Boxcar Smoothing: 10 (USB2E7196)
Correct for Electrical Dark: No (USB2E7196)
Strobe/Lamp Enabled: No (USB2E7196)
Correct for Detector Non-linearity: No (USB2E7196)
Correct for Stray Light: No (USB2E7196)
Number of Pixels in Processed Spectrum: 2048
>>>>>Begin Processed Spectral Data<<<<<
339.09	0.00
339.48	213.27
339.86	214.68
340.24	216.04
340.63	217.26
341.01	220.49
341.39	219.71
341.78	221.38
342.16	222.11
342.54	222.67
342.93	211.41
343.31	222.11
343.69	222.59
344.07	223.04
344.46	223.48
344.84	223.86
345.22	224.06
345.60	224.32
345.99	224.49
346.37	224.62
346.75	224.74
347.13	224.78
347.52	224.81
347.90	224.86
348.28	224.90
348.66	224.98
349.05	224.98
349.43	225.05
349.81	225.07
350.19	225.13
350.57	225.18
350.96	225.22
351.34	225.27
351.72	225.37
352.10	225.47
352.48	225.49
352.87	225.51
353.25	225.58
353.63	225.64
354.01	225.69
354.39	225.79
354.77	225.84
355.15	225.97
355.54	226.04
355.92	226.11
356.30	226.20
356.68	226.30
357.06	226.35
357.44	226.33
357.82	226.41
358.20	226.49
358.58	226.56
358.97	226.64
359.35	226.72
359.73	226.82
360.11	226.85
360.49	226.95
360.87	227.02
361.25	227.08
361.63	227.13
362.01	227.20
362.39	227.19
362.77	227.28
363.15	227.30
363.53	227.35
363.91	227.36
364.29	227.37
364.67	227.29
365.05	227.33
365.43	227.39
365.81	227.43
366.19	227.46
366.57	227.49
366.95	227.52
367.33	227.51
367.71	227.51
368.09	227.56
368.47	227.52
368.85	227.54
369.23	227.54
369.61	227.51
369.99	227.53
370.37	227.57
370.75	227.54
371.13	227.50
371.51	227.44
371.89	227.46
372.27	227.43
372.65	227.42
373.03	227.38
373.41	227.32
373.78	227.27
374.16	227.21
374.54	227.13
374.92	227.05
375.30	226.98
375.68	226.92
376.06	226.85
376.44	226.82
376.82	226.75
377.19	226.69
377.57	226.64
377.95	226.53
378.33	226.46
378.71	226.36
379.09	226.31
379.47	226.24
379.84	226.13
380.22	226.03
380.60	225.95
380.98	225.89
381.36	225.82
381.73	225.77
382.11	225.74
382.49	225.70
382.87	225.62
383.25	225.58
383.62	225.64
384.00	225.56
384.38	225.51
384.76	225.46
385.13	225.45
385.51	225.40
385.89	225.32
386.27	225.26
386.64	225.22
387.02	225.15
387.40	225.15
387.78	225.12
388.15	225.08
388.53	225.05
388.91	225.00
389.29	224.99
389.66	224.93
390.04	224.86
390.42	224.84
390.79	224.82
391.17	224.78
391.55	224.60
391.92	224.58
392.30	224.54
392.68	224.51
393.05	224.51
393.43	224.50
393.81	224.54
394.18	224.52
394.56	224.52
394.94	224.57
395.31	224.55
395.69	224.63
396.06	224.65
396.44	224.68
396.82	224.71
397.19	224.80
397.57	224.85
397.95	224.89
398.32	224.90
398.70	224.94
399.07	225.02
399.45	225.09
399.82	225.17
400.20	225.27
400.58	225.30
400.95	225.31
401.33	225.42
401.70	225.58
402.08	225.69
402.45	225.77
402.83	225.86
403.20	225.96
403.58	226.01
403.95	226.14
404.33	226.26
404.71	226.37
405.08	226.52
405.46	226.64
405.83	226.80
406.21	226.96
406.58	227.14
406.96	227.26
407.33	227.43
407.70	227.62
408.08	227.85
408.45	228.10
408.83	228.36
409.20	228.54
409.58	228.70
409.95	228.97
410.33	229.25
410.70	229.46
411.08	229.77
411.45	230.11
411.82	230.41
412.20	230.73
412.57	231.11
412.95	231.42
413.32	231.85
413.69	232.26
414.07	232.74
414.44	233.23
414.82	233.78
415.19	234.35
415.56	234.96
415.94	235.54
416.31	236.22
416.68	236.88
417.06	237.65
417.43	238.35
417.81	239.12
418.18	239.94
418.55	240.82
418.93	241.73
419.30	242.63
419.67	243.62
420.04	244.64
420.42	245.73
420.79	246.98
421.16	248.16
421.54	249.40
421.91	250.64
422.28	251.98
422.66	253.37
423.03	254.74
423.40	256.07
423.77	257.54
424.15	259.01
424.52	260.55
424.89	262.21
425.26	263.84
425.64	265.38
426.01	267.03
426.38	268.77
426.75	270.51
427.13	272.36
427.50	274.26
427.87	276.23
428.24	278.17
428.61	280.00
428.99	282.05
429.36	284.23
429.73	286.35
430.10	288.41
430.47	290.54
430.85	292.75
431.22	295.08
431.59	297.54
431.96	299.87
432.33	302.49
432.70	304.98
433.08	307.90
433.45	310.64
433.82	313.36
434.19	316.37
434.56	319.27
434.93	322.04
435.30	324.77
435.68	327.79
436.05	330.70
436.42	333.57
436.79	336.17
437.16	338.99
437.53	342.00
437.90	344.95
438.27	347.81
438.64	350.69
439.01	353.43
439.38	355.73
439.75	358.01
440.13	360.53
440.50	362.92
440.87	364.85
441.24	366.85
441.61	369.12
441.98	370.68
442.35	372.63
442.72	374.53
443.09	376.36
443.46	377.43
443.83	378.06
444.20	378.62
444.57	379.52
444.94	379.78
445.31	380.11
445.68	380.50
446.05	380.59
446.42	380.25
446.79	379.83
447.16	379.40
447.53	379.06
447.90	377.94
448.27	376.76
448.64	375.10
449.01	373.94
449.37	371.89
449.74	369.94
450.11	367.57
450.48	364.99
450.85	362.42
451.22	360.18
451.59	358.07
451.96	356.06
452.33	353.32
452.70	350.90
453.07	347.96
453.43	344.93
453.80	342.05
454.17	339.26
454.54	336.62
454.91	333.76
455.28	330.97
455.65	328.36
456.02	325.80
456.38	323.58
456.75	320.85
457.12	318.49
457.49	316.15
457.86	313.92
458.23	312.03
458.59	309.90
458.96	307.72
459.33	305.79
459.70	303.82
460.07	302.26
460.43	300.48
460.80	298.79
461.17	297.31
461.54	295.75
461.91	294.23
462.27	292.72
462.64	291.47
463.01	290.08
463.38	288.70
463.74	287.30
464.11	286.11
464.48	285.00
464.85	283.88
465.21	282.98
465.58	281.99
465.95	280.83
466.32	279.85
466.68	278.92
467.05	278.00
467.42	277.09
467.78	276.10
468.15	275.19
468.52	274.53
468.88	273.64
469.25	272.84
469.62	272.24
469.98	271.51
470.35	270.83
470.72	270.21
471.08	269.56
471.45	268.99
471.82	268.44
472.18	267.82
472.55	267.34
472.92	266.79
473.28	266.35
473.65	265.84
474.02	265.41
474.38	265.03
474.75	264.71
475.11	264.36
475.48	264.09
475.85	263.85
476.21	263.56
476.58	263.38
476.94	263.23
477.31	263.07
477.67	262.92
478.04	262.80
478.41	262.73
478.77	262.75
479.14	262.69
479.50	262.68
479.87	262.72
480.23	262.82
480.60	262.90
480.96	262.91
481.33	263.14
481.69	263.34
482.06	263.53
482.42	263.75
482.79	264.01
483.15	264.36
483.52	264.74
483.88	265.09
484.25	265.45
484.61	265.86
484.98	266.27
485.34	266.82
485.71	267.42
486.07	268.01
486.44	268.59
486.80	269.27
487.17	269.99
487.53	270.83
487.90	271.65
488.26	272.58
488.62	273.62
488.99	274.58
489.35	275.62
489.72	276.71
490.08	277.87
490.44	279.04
490.81	280.32
491.17	281.61
491.54	283.11
491.90	284.63
492.26	286.34
492.63	288.11
492.99	289.88
493.36	291.74
493.72	293.77
494.08	295.84
494.45	298.10
494.81	300.44
495.17	302.84
495.54	305.42
495.90	308.08
496.26	310.82
496.63	313.76
496.99	316.87
497.35	320.13
497.72	323.54
498.08	327.05
498.44	330.71
498.80	334.68
499.17	338.66
499.53	342.79
499.89	347.09
500.26	351.46
500.62	356.08
500.98	361.02
501.34	366.04
501.71	371.28
502.07	376.64
502.43	382.20
502.79	387.99
503.16	393.93
503.52	400.12
503.88	406.45
504.24	413.00
504.60	419.75
504.97	426.77
505.33	433.99
505.69	441.54
506.05	449.18
506.41	456.85
506.78	464.89
507.14	473.20
507.50	481.76
507.86	490.66
508.22	499.69
508.59	508.72
508.95	518.13
509.31	527.83
509.67	537.72
510.03	547.80
510.39	558.08
510.75	568.65
511.12	579.28
511.48	590.38
511.84	601.57
512.20	612.78
512.56	624.44
512.92	636.27
513.28	648.34
513.64	660.55
514.00	673.00
514.37	685.63
514.73	698.30
515.09	710.98
515.45	723.90
515.81	737.08
516.17	750.67
516.53	764.41
516.89	778.19
517.25	791.92
517.61	805.89
517.97	819.99
518.33	834.09
518.69	848.50
519.05	863.02
519.41	877.71
519.77	892.80
520.13	907.81
520.49	922.80
520.85	937.71
521.21	952.84
521.57	968.64
521.93	983.95
522.29	999.80
522.65	1015.67
523.01	1031.38
523.37	1047.04
523.73	1062.71
524.09	1078.38
524.45	1094.19
524.81	1110.34
525.17	1126.60
525.53	1142.92
525.89	1159.23
526.25	1175.62
526.61	1191.42
526.97	1207.67
527.33	1223.72
527.68	1239.76
528.04	1255.68
528.40	1271.75
528.76	1288.47
529.12	1304.56
529.48	1320.86
529.84	1336.47
530.20	1352.56
530.56	1369.01
530.91	1385.88
531.27	1402.25
531.63	1418.16
531.99	1434.26
532.35	1449.90
532.71	1465.40
533.07	1481.27
533.42	1496.83
533.78	1512.43
534.14	1528.39
534.50	1543.42
534.86	1558.93
535.21	1573.83
535.57	1589.35
535.93	1604.53
536.29	1618.85
536.65	1633.45
537.00	1647.90
537.36	1662.96
537.72	1677.20
538.08	1691.45
538.44	1705.05
538.79	1718.73
539.15	1732.14
539.51	1745.68
539.87	1759.83
540.22	1773.38
540.58	1786.89
540.94	1799.99
541.29	1812.65
541.65	1825.10
542.01	1838.17
542.37	1850.39
542.72	1862.78
543.08	1874.60
543.44	1886.87
543.79	1898.15
544.15	1909.19
544.51	1920.75
544.87	1931.64
545.22	1942.46
545.58	1952.60
545.94	1962.38
546.29	1972.24
546.65	1982.30
547.01	1991.65
547.36	2000.33
547.72	2009.00
548.07	2017.04
548.43	2025.15
548.79	2033.10
549.14	2040.77
549.50	2048.13
549.86	2055.87
550.21	2063.26
550.57	2070.67
550.92	2077.65
551.28	2084.87
551.64	2092.11
551.99	2098.88
552.35	2105.33
552.70	2111.68
553.06	2118.04
553.41	2124.66
553.77	2130.84
554.13	2136.95
554.48	2143.38
554.84	2149.35
555.19	2154.77
555.55	2160.21
555.90	2165.09
556.26	2170.60
556.61	2175.79
556.97	2180.68
557.32	2185.17
557.68	2189.61
558.03	2194.12
558.39	2198.00
558.74	2203.02
559.10	2207.21
559.45	2211.29
559.81	2215.67
560.16	2219.89
560.52	2223.53
560.87	2227.24
561.23	2230.33
561.58	2233.67
561.94	2236.54
562.29	2239.05
562.64	2242.28
563.00	2245.29
563.35	2249.24
563.71	2252.78
564.06	2256.20
564.42	2259.35
564.77	2262.32
565.12	2265.31
565.48	2267.56
565.83	2269.93
566.19	2271.72
566.54	2273.08
566.89	2274.65
567.25	2275.91
567.60	2277.65
567.96	2279.87
568.31	2281.09
568.66	2282.70
569.02	2283.73
569.37	2284.48
569.72	2285.86
570.08	2286.51
570.43	2286.91
570.78	2286.94
571.14	2285.78
571.49	2284.83
571.84	2284.79
572.20	2284.15
572.55	2283.35
572.90	2282.27
573.26	2281.28
573.61	2279.94
573.96	2278.79
574.31	2276.40
574.67	2273.87
575.02	2270.51
575.37	2267.33
575.72	2263.99
576.08	2260.94
576.43	2258.00
576.78	2254.81
577.13	2251.83
577.49	2249.01
577.84	2245.95
578.19	2242.42
578.54	2239.29
578.90	2235.62
579.25	2230.54
579.60	2226.06
579.95	2221.41
580.30	2216.77
580.66	2211.95
581.01	2207.29
581.36	2202.55
581.71	2198.65
582.06	2194.51
582.42	2190.51
582.77	2185.74
583.12	2181.65
583.47	2177.36
583.82	2172.87
584.17	2167.86
584.53	2162.90
584.88	2157.52
585.23	2152.11
585.58	2146.88
585.93	2141.58
586.28	2137.00
586.63	2132.40
586.98	2127.57
587.34	2123.01
587.69	2118.31
588.04	2113.41
588.39	2108.14
588.74	2101.92
589.09	2096.05
589.44	2089.56
589.79	2083.77
590.14	2078.31
590.49	2071.87
590.84	2065.64
591.19	2059.85
591.54	2053.60
591.89	2046.58
592.25	2040.18
592.60	2033.15
592.95	2025.96
593.30	2018.79
593.65	2011.44
594.00	2004.43
594.35	1997.22
594.70	1989.32
595.05	1982.56
595.40	1975.42
595.75	1967.95
596.10	1961.99
596.45	1955.38
596.80	1949.40
597.15	1942.94
597.50	1936.06
597.85	1929.74
598.19	1923.32
598.54	1916.27
598.89	1909.81
599.24	1903.99
599.59	1897.38
599.94	1891.17
600.29	1884.68
600.64	1878.19
600.99	1870.90
601.34	1864.33
601.69	1857.42
602.04	1850.78
602.39	1843.36
602.74	1836.68
603.08	1830.14
603.43	1823.45
603.78	1816.12
604.13	1808.92
604.48	1801.78
604.83	1794.92
605.18	1788.14
605.53	1780.13
605.87	1772.27
606.22	1764.92
606.57	1756.80
606.92	1749.42
607.27	1742.42
607.62	1735.73
607.96	1728.72
608.31	1722.23
608.66	1714.60
609.01	1707.24
609.36	1699.72
609.70	1691.71
610.05	1683.64
610.40	1675.92
610.75	1667.60
611.10	1659.96
611.44	1651.49
611.79	1643.38
612.14	1634.75
612.49	1625.51
612.83	1616.93
613.18	1608.76
613.53	1600.72
613.88	1592.27
614.22	1583.99
614.57	1575.20
614.92	1567.10
615.27	1559.39
615.61	1550.93
615.96	1542.68
616.31	1534.85
616.65	1527.41
617.00	1519.86
617.35	1512.02
617.70	1503.77
618.04	1495.16
618.39	1486.81
618.74	1479.17
619.08	1470.85
619.43	1463.11
619.78	1456.09
620.12	1449.05
620.47	1441.42
620.82	1433.14
621.16	1425.47
621.51	1417.58
621.85	1409.89
622.20	1401.30
622.55	1392.77
622.89	1384.80
623.24	1377.12
623.59	1369.55
623.93	1361.91
624.28	1354.61
624.62	1347.18
624.97	1339.84
625.32	1332.97
625.66	1325.89
626.01	1318.64
626.35	1311.15
626.70	1303.33
627.04	1295.55
627.39	1287.68
627.73	1280.14
628.08	1273.31
628.43	1266.18
628.77	1258.92
629.12	1251.42
629.46	1244.29
629.81	1236.65
630.15	1229.33
630.50	1221.92
630.84	1213.74
631.19	1205.68
631.53	1198.05
631.88	1190.21
632.22	1182.43
632.57	1175.03
632.91	1167.39
633.26	1159.97
633.60	1152.39
633.95	1145.15
634.29	1137.92
634.64	1131.11
634.98	1123.62
635.32	1116.28
635.67	1109.42
636.01	1102.63
636.36	1095.72
636.70	1089.04
637.05	1082.54
637.39	1076.00
637.73	1069.43
638.08	1063.46
638.42	1057.39
638.77	1050.87
639.11	1044.43
639.45	1037.97
639.80	1031.25
640.14	1024.81
640.49	1018.19
640.83	1011.86
641.17	1005.67
641.52	999.26
641.86	992.72
642.20	986.81
642.55	980.40
642.89	973.93
643.23	967.32
643.58	961.58
643.92	955.38
644.26	949.33
644.61	943.21
644.95	937.03
645.29	930.48
645.64	923.66
645.98	917.23
646.32	911.14
646.66	905.12
647.01	899.29
647.35	893.49
647.69	887.51
648.04	881.91
648.38	876.03
648.72	870.14
649.06	864.09
649.41	858.20
649.75	852.22
650.09	846.30
650.43	840.48
650.78	834.26
651.12	828.22
651.46	822.44
651.80	816.74
652.14	811.40
652.49	805.99
652.83	800.89
653.17	795.27
653.51	789.59
653.85	784.15
654.20	778.54
654.54	772.53
654.88	766.77
655.22	760.94
655.56	755.23
655.90	749.70
656.25	744.39
656.59	739.01
656.93	734.00
657.27	728.82
657.61	723.46
657.95	718.38
658.29	713.17
658.64	707.88
658.98	702.61
659.32	697.14
659.66	691.85
660.00	686.51
660.34	681.51
660.68	676.57
661.02	671.54
661.36	666.84
661.70	662.33
662.05	657.99
662.39	653.70
662.73	649.21
663.07	644.81
663.41	640.40
663.75	635.98
664.09	631.26
664.43	626.82
664.77	622.66
665.11	618.43
665.45	614.33
665.79	610.24
666.13	606.05
666.47	601.94
666.81	597.82
667.15	593.71
667.49	589.75
667.83	585.88
668.17	581.90
668.51	577.78
668.85	573.72
669.19	569.85
669.53	565.94
669.87	562.02
670.21	558.28
670.55	554.63
670.89	551.12
671.23	547.72
671.57	544.22
671.91	540.67
672.25	537.05
672.58	533.52
672.92	530.04
673.26	526.83
673.60	523.58
673.94	520.44
674.28	517.42
674.62	514.53
674.96	511.48
675.30	508.54
675.64	505.62
675.97	502.81
676.31	499.89
676.65	496.94
676.99	494.25
677.33	491.38
677.67	488.48
678.01	485.43
678.34	482.43
678.68	479.53
679.02	476.71
679.36	473.87
679.70	471.11
680.04	468.37
680.37	465.49
680.71	462.70
681.05	460.04
681.39	457.34
681.73	454.62
682.06	452.00
682.40	449.41
682.74	446.82
683.08	444.23
683.42	441.64
683.75	439.11
684.09	436.46
684.43	433.94
684.77	431.47
685.10	429.12
685.44	426.78
685.78	424.46
686.12	422.17
686.45	419.87
686.79	417.59
687.13	415.30
687.46	413.07
687.80	410.85
688.14	408.60
688.48	406.52
688.81	404.27
689.15	402.08
689.49	399.90
689.82	397.81
690.16	395.69
690.50	393.67
690.83	391.72
691.17	389.76
691.51	387.87
691.84	386.03
692.18	384.02
692.52	382.06
692.85	380.08
693.19	378.15
693.52	376.29
693.86	374.39
694.20	372.64
694.53	370.82
694.87	368.95
695.21	367.12
695.54	365.25
695.88	363.46
696.21	361.76
696.55	360.06
696.88	358.32
697.22	356.61
697.56	354.96
697.89	353.31
698.23	351.69
698.56	350.04
698.90	348.40
699.23	346.79
699.57	345.19
699.90	343.59
700.24	342.03
700.58	340.49
700.91	339.02
701.25	337.57
701.58	336.17
701.92	334.83
702.25	333.46
702.59	332.10
702.92	330.75
703.26	329.42
703.59	328.15
703.93	326.96
704.26	325.76
704.60	324.48
704.93	323.15
705.26	321.86
705.60	320.62
705.93	319.46
706.27	318.34
706.60	317.28
706.94	316.25
707.27	315.10
707.61	314.02
707.94	313.02
708.27	311.92
708.61	310.82
708.94	309.78
709.28	308.81
709.61	307.85
709.94	306.92
710.28	305.85
710.61	304.83
710.95	303.73
711.28	302.79
711.61	301.84
711.95	300.93
712.28	299.97
712.61	299.03
712.95	298.06
713.28	297.17
713.61	296.26
713.95	295.32
714.28	294.48
714.61	293.58
714.95	292.69
715.28	291.82
715.61	290.97
715.95	290.11
716.28	289.21
716.61	288.32
716.95	287.46
717.28	286.70
717.61	285.90
717.94	285.12
718.28	284.29
718.61	283.52
718.94	282.79
719.27	282.16
719.61	281.47
719.94	280.81
720.27	280.11
720.60	279.39
720.94	278.75
721.27	278.11
721.60	277.49
721.93	276.84
722.27	276.24
722.60	275.62
722.93	275.00
723.26	274.46
723.59	273.88
723.93	273.31
724.26	272.75
724.59	272.19
724.92	271.66
725.25	271.15
725.59	270.62
725.92	270.09
726.25	269.53
726.58	269.01
726.91	268.51
727.24	268.06
727.57	267.56
727.91	267.05
728.24	266.58
728.57	266.10
728.90	265.64
729.23	265.14
729.56	264.71
729.89	264.23
730.22	263.71
730.55	263.25
730.89	262.81
731.22	262.36
731.55	261.96
731.88	261.50
732.21	261.05
732.54	260.58
732.87	260.15
733.20	259.72
733.53	259.32
733.86	258.94
734.19	258.50
734.52	258.12
734.85	257.82
735.18	257.36
735.51	256.99
735.84	256.57
736.17	256.25
736.50	255.86
736.83	255.63
737.16	255.30
737.49	254.98
737.82	254.60
738.15	254.26
738.48	253.89
738.81	253.57
739.14	253.21
739.47	252.91
739.80	252.59
740.13	252.33
740.46	251.98
740.79	251.59
741.12	251.28
741.45	250.95
741.78	250.59
742.11	250.31
742.44	249.99
742.77	249.72
743.10	249.39
743.43	249.05
743.75	248.67
744.08	248.52
744.41	248.22
744.74	247.93
745.07	247.63
745.40	247.39
745.73	247.14
746.06	246.88
746.39	246.62
746.71	246.29
747.04	246.02
747.37	245.75
747.70	245.52
748.03	245.25
748.36	245.04
748.68	244.79
749.01	244.55
749.34	244.33
749.67	244.07
750.00	243.85
750.33	243.69
750.65	243.47
750.98	243.12
751.31	242.91
751.64	242.69
751.97	242.54
752.29	242.30
752.62	242.03
752.95	241.81
753.28	241.57
753.60	241.42
753.93	241.20
754.26	241.02
754.59	240.81
754.91	240.58
755.24	240.35
755.57	240.14
755.90	239.95
756.22	239.74
756.55	239.58
756.88	239.38
757.20	239.13
757.53	238.93
757.86	238.80
758.19	238.63
758.51	238.48
758.84	238.27
759.17	238.10
759.49	237.99
759.82	237.90
760.15	237.75
760.47	237.61
760.80	237.45
761.13	237.32
761.45	237.16
761.78	237.02
762.11	236.91
762.43	236.77
762.76	236.65
763.08	236.53
763.41	236.38
763.74	236.29
764.06	236.16
764.39	236.00
764.71	235.84
765.04	235.70
765.37	235.57
765.69	235.46
766.02	235.33
766.34	235.18
766.67	235.04
767.00	234.94
767.32	234.85
767.65	234.79
767.97	234.68
768.30	234.59
768.62	234.49
768.95	234.35
769.27	234.22
769.60	234.12
769.92	234.04
770.25	233.93
770.57	233.77
770.90	233.68
771.22	233.59
771.55	233.48
771.87	233.39
772.20	233.30
772.52	233.27
772.85	233.31
773.17	233.24
773.50	233.12
773.82	233.01
774.15	232.90
774.47	232.74
774.80	232.63
775.12	232.54
775.45	232.46
775.77	232.39
776.09	232.35
776.42	232.24
776.74	232.15
777.07	232.05
777.39	231.99
777.72	231.89
778.04	231.84
778.36	231.75
778.69	231.68
779.01	231.59
779.33	231.45
779.66	231.25
779.98	231.15
780.31	231.08
780.63	231.04
780.95	230.97
781.28	230.94
781.60	230.88
781.92	230.85
782.25	230.78
782.57	230.72
782.89	230.66
783.22	230.61
783.54	230.54
783.86	230.48
784.19	230.42
784.51	230.38
784.83	230.31
785.16	230.25
785.48	230.19
785.80	230.15
786.12	230.09
786.45	230.03
786.77	229.98
787.09	229.96
