SpectraSuite Data File
++++++++++++++++++++++++++++++++++++
Date: Fri Feb 01 16:22:12 EST 2013
User: group
Dark Spectrum Present: No
Reference Spectrum Present: No
Number of Sampled Component Spectra: 1
Spectrometers: USB2E7196
Integration Time (usec): 35000 (USB2E7196)
Spectra Averaged: 100 (USB2E7196)
Boxcar Smoothing: 10 (USB2E7196)
Correct for Electrical Dark: No (USB2E7196)
Strobe/Lamp Enabled: No (USB2E7196)
Correct for Detector Non-linearity: No (USB2E7196)
Correct for Stray Light: No (USB2E7196)
Number of Pixels in Processed Spectrum: 2048
>>>>>Begin Processed Spectral Data<<<<<
339.09	0.00
339.48	214.34
339.86	215.53
340.24	216.98
340.63	218.84
341.01	221.62
341.39	221.39
341.78	222.38
342.16	223.19
342.54	223.79
342.93	212.53
343.31	223.29
343.69	223.82
344.07	224.29
344.46	224.70
344.84	225.05
345.22	225.29
345.60	225.55
345.99	225.74
346.37	225.88
346.75	226.00
347.13	226.07
347.52	226.10
347.90	226.18
348.28	226.20
348.66	226.24
349.05	226.20
349.43	226.25
349.81	226.33
350.19	226.41
350.57	226.45
350.96	226.53
351.34	226.59
351.72	226.65
352.10	226.75
352.48	226.82
352.87	226.86
353.25	226.90
353.63	226.93
354.01	226.98
354.39	227.05
354.77	227.14
355.15	227.25
355.54	227.30
355.92	227.34
356.30	227.38
356.68	227.52
357.06	227.61
357.44	227.61
357.82	227.66
358.20	227.71
358.58	227.76
358.97	227.81
359.35	227.87
359.73	227.95
360.11	228.00
360.49	228.06
360.87	228.13
361.25	228.20
361.63	228.24
362.01	228.28
362.39	228.33
362.77	228.34
363.15	228.36
363.53	228.38
363.91	228.45
364.29	228.46
364.67	228.39
365.05	228.41
365.43	228.47
365.81	228.49
366.19	228.54
366.57	228.62
366.95	228.62
367.33	228.60
367.71	228.59
368.09	228.60
368.47	228.55
368.85	228.53
369.23	228.52
369.61	228.49
369.99	228.48
370.37	228.46
370.75	228.50
371.13	228.41
371.51	228.36
371.89	228.29
372.27	228.26
372.65	228.21
373.03	228.16
373.41	228.08
373.78	227.98
374.16	227.89
374.54	227.79
374.92	227.73
375.30	227.68
375.68	227.59
376.06	227.53
376.44	227.53
376.82	227.46
377.19	227.37
377.57	227.32
377.95	227.26
378.33	227.18
378.71	227.04
379.09	226.99
379.47	226.95
379.84	226.89
380.22	226.82
380.60	226.70
380.98	226.65
381.36	226.60
381.73	226.56
382.11	226.51
382.49	226.46
382.87	226.38
383.25	226.32
383.62	226.39
384.00	226.31
384.38	226.24
384.76	226.18
385.13	226.14
385.51	226.08
385.89	226.00
386.27	225.93
386.64	225.90
387.02	225.86
387.40	225.78
387.78	225.75
388.15	225.69
388.53	225.67
388.91	225.61
389.29	225.56
389.66	225.55
390.04	225.50
390.42	225.49
390.79	225.47
391.17	225.47
391.55	225.33
391.92	225.31
392.30	225.28
392.68	225.31
393.05	225.33
393.43	225.32
393.81	225.33
394.18	225.36
394.56	225.37
394.94	225.37
395.31	225.42
395.69	225.45
396.06	225.50
396.44	225.56
396.82	225.60
397.19	225.70
397.57	225.74
397.95	225.77
398.32	225.79
398.70	225.86
399.07	225.91
399.45	225.95
399.82	226.02
400.20	226.08
400.58	226.14
400.95	226.18
401.33	226.30
401.70	226.49
402.08	226.56
402.45	226.68
402.83	226.83
403.20	226.95
403.58	227.04
403.95	227.17
404.33	227.29
404.71	227.42
405.08	227.59
405.46	227.73
405.83	227.91
406.21	228.04
406.58	228.22
406.96	228.39
407.33	228.61
407.70	228.81
408.08	229.08
408.45	229.29
408.83	229.55
409.20	229.76
409.58	229.90
409.95	230.19
410.33	230.42
410.70	230.68
411.08	230.94
411.45	231.29
411.82	231.60
412.20	231.97
412.57	232.38
412.95	232.67
413.32	233.07
413.69	233.47
414.07	233.95
414.44	234.39
414.82	234.89
415.19	235.45
415.56	236.00
415.94	236.59
416.31	237.22
416.68	237.82
417.06	238.53
417.43	239.20
417.81	240.01
418.18	240.80
418.55	241.61
418.93	242.52
419.30	243.37
419.67	244.30
420.04	245.25
420.42	246.22
420.79	247.43
421.16	248.57
421.54	249.79
421.91	250.97
422.28	252.22
422.66	253.54
423.03	254.80
423.40	256.12
423.77	257.47
424.15	258.92
424.52	260.40
424.89	261.98
425.26	263.59
425.64	264.96
426.01	266.56
426.38	268.21
426.75	269.86
427.13	271.62
427.50	273.41
427.87	275.26
428.24	277.14
428.61	278.84
428.99	280.76
429.36	282.80
429.73	284.88
430.10	286.90
430.47	288.98
430.85	291.12
431.22	293.35
431.59	295.73
431.96	297.93
432.33	300.43
432.70	302.78
433.08	305.50
433.45	308.17
433.82	310.75
434.19	313.65
434.56	316.45
434.93	319.07
435.30	321.68
435.68	324.55
436.05	327.32
436.42	330.12
436.79	332.66
437.16	335.36
437.53	338.15
437.90	340.90
438.27	343.57
438.64	346.35
439.01	348.93
439.38	351.16
439.75	353.32
440.13	355.75
440.50	358.04
440.87	359.87
441.24	361.74
441.61	363.93
441.98	365.40
442.35	367.18
442.72	369.00
443.09	370.82
443.46	371.85
443.83	372.45
444.20	372.97
444.57	373.81
444.94	374.10
445.31	374.44
445.68	374.83
446.05	374.92
446.42	374.57
446.79	374.15
447.16	373.75
447.53	373.45
447.90	372.31
448.27	371.17
448.64	369.68
449.01	368.57
449.37	366.58
449.74	364.70
450.11	362.44
450.48	360.01
450.85	357.45
451.22	355.35
451.59	353.36
451.96	351.42
452.33	348.81
452.70	346.44
453.07	343.63
453.43	340.73
453.80	337.98
454.17	335.30
454.54	332.77
454.91	330.02
455.28	327.37
455.65	324.94
456.02	322.52
456.38	320.33
456.75	317.69
457.12	315.47
457.49	313.25
457.86	311.12
458.23	309.30
458.59	307.27
458.96	305.16
459.33	303.29
459.70	301.46
460.07	299.96
460.43	298.27
460.80	296.69
461.17	295.30
461.54	293.83
461.91	292.42
462.27	291.00
462.64	289.75
463.01	288.38
463.38	287.10
463.74	285.79
464.11	284.63
464.48	283.64
464.85	282.52
465.21	281.66
465.58	280.73
465.95	279.63
466.32	278.76
466.68	277.88
467.05	276.97
467.42	276.06
467.78	275.11
468.15	274.23
468.52	273.54
468.88	272.67
469.25	271.91
469.62	271.33
469.98	270.64
470.35	270.02
470.72	269.44
471.08	268.75
471.45	268.19
471.82	267.68
472.18	267.07
472.55	266.63
472.92	266.13
473.28	265.69
473.65	265.23
474.02	264.78
474.38	264.44
474.75	264.15
475.11	263.82
475.48	263.55
475.85	263.33
476.21	263.10
476.58	262.90
476.94	262.75
477.31	262.52
477.67	262.38
478.04	262.25
478.41	262.18
478.77	262.23
479.14	262.18
479.50	262.20
479.87	262.29
480.23	262.39
480.60	262.49
480.96	262.60
481.33	262.84
481.69	263.05
482.06	263.21
482.42	263.42
482.79	263.69
483.15	264.03
483.52	264.40
483.88	264.76
484.25	265.18
484.61	265.62
484.98	266.11
485.34	266.70
485.71	267.31
486.07	267.93
486.44	268.52
486.80	269.24
487.17	269.97
487.53	270.76
487.90	271.58
488.26	272.48
488.62	273.49
488.99	274.44
489.35	275.47
489.72	276.63
490.08	277.84
490.44	279.09
490.81	280.43
491.17	281.80
491.54	283.30
491.90	284.82
492.26	286.45
492.63	288.18
492.99	289.94
493.36	291.86
493.72	293.88
494.08	295.99
494.45	298.22
494.81	300.57
495.17	303.02
495.54	305.64
495.90	308.29
496.26	311.07
496.63	314.03
496.99	317.13
497.35	320.35
497.72	323.72
498.08	327.22
498.44	330.89
498.80	334.85
499.17	338.88
499.53	343.05
499.89	347.41
500.26	351.94
500.62	356.66
500.98	361.65
501.34	366.75
501.71	372.10
502.07	377.59
502.43	383.22
502.79	389.00
503.16	395.09
503.52	401.39
503.88	407.79
504.24	414.43
504.60	421.37
504.97	428.62
505.33	436.02
505.69	443.77
506.05	451.56
506.41	459.40
506.78	467.59
507.14	476.13
507.50	484.90
507.86	493.96
508.22	503.04
508.59	512.17
508.95	521.74
509.31	531.53
509.67	541.56
510.03	551.91
510.39	562.56
510.75	573.34
511.12	584.29
511.48	595.56
511.84	607.09
512.20	618.59
512.56	630.46
512.92	642.64
513.28	654.97
513.64	667.47
514.00	680.16
514.37	693.13
514.73	706.12
515.09	719.18
515.45	732.39
515.81	746.11
516.17	760.17
516.53	774.29
516.89	788.40
517.25	802.60
517.61	816.98
517.97	831.36
518.33	845.74
518.69	860.56
519.05	875.54
519.41	890.65
519.77	906.17
520.13	921.65
520.49	936.90
520.85	952.29
521.21	967.94
521.57	984.25
521.93	999.83
522.29	1016.19
522.65	1032.30
523.01	1048.49
523.37	1064.51
523.73	1080.54
524.09	1096.63
524.45	1113.00
524.81	1129.61
525.17	1146.32
525.53	1163.25
525.89	1180.11
526.25	1196.83
526.61	1213.23
526.97	1229.95
527.33	1246.36
527.68	1262.83
528.04	1279.28
528.40	1295.81
528.76	1312.76
529.12	1329.18
529.48	1346.12
529.84	1362.04
530.20	1378.75
530.56	1395.64
530.91	1412.91
531.27	1429.68
531.63	1446.02
531.99	1462.42
532.35	1478.32
532.71	1494.23
533.07	1510.36
533.42	1526.25
533.78	1542.26
534.14	1558.41
534.50	1573.63
534.86	1589.51
535.21	1604.67
535.57	1620.56
535.93	1635.92
536.29	1650.62
536.65	1665.50
537.00	1680.08
537.36	1695.31
537.72	1709.62
538.08	1724.12
538.44	1737.88
538.79	1751.77
539.15	1765.37
539.51	1779.07
539.87	1793.31
540.22	1806.91
540.58	1820.49
540.94	1833.70
541.29	1846.53
541.65	1859.07
542.01	1872.23
542.37	1884.43
542.72	1896.79
543.08	1908.55
543.44	1920.89
543.79	1932.18
544.15	1943.23
544.51	1954.81
544.87	1965.64
545.22	1976.40
545.58	1986.60
545.94	1996.26
546.29	2005.96
546.65	2015.82
547.01	2025.05
547.36	2033.60
547.72	2042.07
548.07	2049.94
548.43	2058.02
548.79	2065.98
549.14	2073.52
549.50	2080.72
549.86	2088.13
550.21	2095.39
550.57	2102.43
550.92	2108.97
551.28	2116.02
551.64	2123.07
551.99	2129.43
552.35	2135.66
552.70	2141.75
553.06	2147.57
553.41	2153.88
553.77	2159.98
554.13	2166.08
554.48	2172.20
554.84	2177.83
555.19	2183.09
555.55	2188.26
555.90	2192.75
556.26	2197.63
556.61	2202.21
556.97	2206.56
557.32	2210.96
557.68	2215.06
558.03	2219.28
558.39	2222.92
558.74	2227.45
559.10	2231.34
559.45	2235.17
559.81	2239.50
560.16	2243.37
560.52	2246.64
560.87	2250.06
561.23	2252.65
561.58	2255.46
561.94	2258.02
562.29	2260.33
562.64	2262.95
563.00	2265.54
563.35	2269.10
563.71	2272.28
564.06	2275.65
564.42	2278.51
564.77	2281.01
565.12	2283.37
565.48	2285.46
565.83	2287.51
566.19	2288.92
566.54	2289.77
566.89	2290.83
567.25	2291.35
567.60	2292.70
567.96	2294.38
568.31	2295.24
568.66	2296.29
569.02	2296.87
569.37	2297.18
569.72	2298.09
570.08	2298.40
570.43	2298.57
570.78	2297.94
571.14	2296.41
571.49	2295.15
571.84	2294.87
572.20	2293.77
572.55	2292.68
572.90	2291.15
573.26	2289.69
573.61	2288.01
573.96	2286.24
574.31	2283.44
574.67	2280.57
575.02	2277.05
575.37	2273.77
575.72	2270.11
576.08	2266.81
576.43	2263.74
576.78	2260.10
577.13	2256.92
577.49	2253.74
577.84	2250.20
578.19	2246.62
578.54	2243.06
578.90	2238.90
579.25	2233.50
579.60	2228.51
579.95	2223.50
580.30	2218.53
580.66	2213.33
581.01	2208.38
581.36	2203.80
581.71	2199.61
582.06	2195.15
582.42	2190.83
582.77	2185.64
583.12	2181.11
583.47	2176.45
583.82	2171.39
584.17	2166.19
584.53	2160.64
584.88	2155.00
585.23	2149.25
585.58	2143.71
585.93	2138.31
586.28	2133.50
586.63	2128.46
586.98	2123.57
587.34	2118.94
587.69	2114.05
588.04	2108.88
588.39	2103.30
588.74	2096.78
589.09	2090.70
589.44	2083.90
589.79	2077.91
590.14	2072.31
590.49	2065.80
590.84	2059.52
591.19	2053.49
591.54	2047.11
591.89	2039.94
592.25	2033.13
592.60	2025.99
592.95	2018.44
593.30	2011.08
593.65	2003.62
594.00	1996.56
594.35	1989.23
594.70	1981.35
595.05	1974.25
595.40	1967.16
595.75	1959.81
596.10	1953.58
596.45	1946.90
596.80	1941.00
597.15	1934.27
597.50	1927.13
597.85	1920.57
598.19	1913.89
598.54	1906.76
598.89	1900.11
599.24	1894.24
599.59	1887.73
599.94	1881.61
600.29	1875.36
600.64	1868.85
600.99	1861.50
601.34	1854.72
601.69	1847.86
602.04	1840.99
602.39	1833.57
602.74	1826.64
603.08	1819.75
603.43	1813.05
603.78	1805.73
604.13	1798.26
604.48	1790.98
604.83	1784.22
605.18	1777.41
605.53	1769.55
605.87	1761.62
606.22	1754.49
606.57	1746.54
606.92	1739.23
607.27	1732.06
607.62	1725.07
607.96	1717.80
608.31	1711.15
608.66	1703.52
609.01	1695.99
609.36	1688.47
609.70	1680.46
610.05	1672.42
610.40	1664.65
610.75	1656.23
611.10	1648.51
611.44	1640.25
611.79	1632.34
612.14	1623.63
612.49	1614.44
612.83	1606.05
613.18	1597.99
613.53	1589.81
613.88	1581.32
614.22	1573.08
614.57	1564.42
614.92	1556.55
615.27	1548.92
615.61	1540.49
615.96	1532.53
616.31	1524.79
616.65	1517.16
617.00	1509.65
617.35	1501.98
617.70	1493.81
618.04	1485.41
618.39	1477.19
618.74	1469.64
619.08	1461.27
619.43	1453.74
619.78	1446.87
620.12	1439.66
620.47	1432.06
620.82	1423.84
621.16	1416.36
621.51	1408.77
621.85	1401.18
622.20	1392.51
622.55	1384.13
622.89	1376.34
623.24	1368.61
623.59	1361.26
623.93	1353.90
624.28	1346.70
624.62	1339.17
624.97	1331.97
625.32	1325.25
625.66	1318.31
626.01	1310.99
626.35	1303.56
626.70	1295.79
627.04	1287.91
627.39	1280.09
627.73	1272.73
628.08	1265.87
628.43	1258.65
628.77	1251.27
629.12	1243.68
629.46	1236.61
629.81	1229.19
630.15	1221.96
630.50	1214.63
630.84	1206.46
631.19	1198.54
631.53	1190.97
631.88	1183.41
632.22	1175.76
632.57	1168.33
632.91	1160.69
633.26	1153.36
633.60	1146.00
633.95	1138.79
634.29	1131.89
634.64	1125.17
634.98	1117.82
635.32	1110.61
635.67	1103.96
636.01	1097.27
636.36	1090.42
636.70	1083.89
637.05	1077.30
637.39	1070.80
637.73	1064.14
638.08	1058.14
638.42	1052.09
638.77	1045.65
639.11	1039.11
639.45	1032.74
639.80	1026.10
640.14	1019.75
640.49	1013.26
640.83	1006.91
641.17	1000.69
641.52	994.24
641.86	987.82
642.20	981.88
642.55	975.54
642.89	969.00
643.23	962.46
643.58	956.72
643.92	950.51
644.26	944.49
644.61	938.42
644.95	932.38
645.29	925.85
645.64	919.14
645.98	912.80
646.32	906.92
646.66	900.83
647.01	894.99
647.35	889.16
647.69	883.25
648.04	877.71
648.38	871.95
648.72	866.04
649.06	859.96
649.41	854.12
649.75	848.14
650.09	842.19
650.43	836.37
650.78	830.25
651.12	824.40
651.46	818.62
651.80	812.88
652.14	807.63
652.49	802.26
652.83	796.98
653.17	791.23
653.51	785.55
653.85	780.18
654.20	774.60
654.54	768.65
654.88	762.93
655.22	756.98
655.56	751.31
655.90	745.87
656.25	740.69
656.59	735.26
656.93	730.22
657.27	725.13
657.61	719.67
657.95	714.57
658.29	709.31
658.64	704.09
658.98	698.76
659.32	693.23
659.66	688.06
660.00	682.83
660.34	677.99
660.68	673.03
661.02	668.03
661.36	663.29
661.70	658.78
662.05	654.41
662.39	650.10
662.73	645.63
663.07	641.20
663.41	636.66
663.75	632.25
664.09	627.66
664.43	623.20
664.77	619.09
665.11	614.80
665.45	610.76
665.79	606.70
666.13	602.64
666.47	598.62
666.81	594.45
667.15	590.37
667.49	586.41
667.83	582.64
668.17	578.71
668.51	574.66
668.85	570.65
669.19	566.82
669.53	563.05
669.87	559.18
670.21	555.45
670.55	551.83
670.89	548.41
671.23	545.06
671.57	541.54
671.91	538.03
672.25	534.54
672.58	530.99
672.92	527.52
673.26	524.33
673.60	521.13
673.94	518.00
674.28	515.04
674.62	512.08
674.96	508.93
675.30	505.97
675.64	503.03
675.97	500.26
676.31	497.38
676.65	494.41
676.99	491.67
677.33	488.81
677.67	485.98
678.01	482.92
678.34	479.89
678.68	477.01
679.02	474.16
679.36	471.42
679.70	468.70
680.04	465.91
680.37	463.07
680.71	460.24
681.05	457.60
681.39	454.87
681.73	452.22
682.06	449.72
682.40	447.17
682.74	444.61
683.08	442.04
683.42	439.46
683.75	436.93
684.09	434.41
684.43	431.91
684.77	429.44
685.10	427.06
685.44	424.74
685.78	422.51
686.12	420.26
686.45	417.92
686.79	415.63
687.13	413.48
687.46	411.26
687.80	409.11
688.14	406.91
688.48	404.88
688.81	402.63
689.15	400.42
689.49	398.27
689.82	396.18
690.16	394.09
690.50	392.17
690.83	390.24
691.17	388.23
691.51	386.33
691.84	384.52
692.18	382.55
692.52	380.56
692.85	378.60
693.19	376.73
693.52	374.85
693.86	373.00
694.20	371.20
694.53	369.38
694.87	367.54
695.21	365.73
695.54	363.86
695.88	362.12
696.21	360.37
696.55	358.71
696.88	357.06
697.22	355.39
697.56	353.70
697.89	352.05
698.23	350.43
698.56	348.83
698.90	347.25
699.23	345.67
699.57	344.14
699.90	342.61
700.24	341.08
700.58	339.59
700.91	338.11
701.25	336.64
701.58	335.27
701.92	333.93
702.25	332.57
702.59	331.25
702.92	329.91
703.26	328.64
703.59	327.36
703.93	326.18
704.26	324.93
704.60	323.65
704.93	322.38
705.26	321.15
705.60	320.01
705.93	318.86
706.27	317.83
706.60	316.75
706.94	315.65
707.27	314.49
707.61	313.41
707.94	312.39
708.27	311.33
708.61	310.29
708.94	309.23
709.28	308.26
709.61	307.26
709.94	306.34
710.28	305.30
710.61	304.32
710.95	303.23
711.28	302.30
711.61	301.36
711.95	300.45
712.28	299.49
712.61	298.49
712.95	297.52
713.28	296.63
713.61	295.77
713.95	294.87
714.28	294.05
714.61	293.21
714.95	292.31
715.28	291.44
715.61	290.56
715.95	289.74
716.28	288.84
716.61	287.99
716.95	287.13
717.28	286.43
717.61	285.65
717.94	284.90
718.28	284.08
718.61	283.35
718.94	282.62
719.27	281.95
719.61	281.28
719.94	280.65
720.27	279.92
720.60	279.21
720.94	278.61
721.27	277.97
721.60	277.41
721.93	276.81
722.27	276.29
722.60	275.73
722.93	275.13
723.26	274.61
723.59	274.05
723.93	273.52
724.26	272.93
724.59	272.33
724.92	271.81
725.25	271.32
725.59	270.77
725.92	270.27
726.25	269.76
726.58	269.22
726.91	268.72
727.24	268.27
727.57	267.83
727.91	267.27
728.24	266.81
728.57	266.30
728.90	265.86
729.23	265.33
729.56	264.90
729.89	264.45
730.22	264.01
730.55	263.59
730.89	263.12
731.22	262.67
731.55	262.27
731.88	261.83
732.21	261.43
732.54	261.02
732.87	260.59
733.20	260.18
733.53	259.83
733.86	259.43
734.19	259.04
734.52	258.63
734.85	258.34
735.18	257.94
735.51	257.59
735.84	257.23
736.17	256.91
736.50	256.52
736.83	256.27
737.16	255.88
737.49	255.52
737.82	255.16
738.15	254.79
738.48	254.49
738.81	254.18
739.14	253.87
739.47	253.56
739.80	253.26
740.13	252.95
740.46	252.61
740.79	252.27
741.12	251.93
741.45	251.65
741.78	251.34
742.11	251.05
742.44	250.71
742.77	250.43
743.10	250.07
743.43	249.75
743.75	249.36
744.08	249.26
744.41	248.99
744.74	248.72
745.07	248.47
745.40	248.19
745.73	247.93
746.06	247.65
746.39	247.40
746.71	247.10
747.04	246.82
747.37	246.57
747.70	246.33
748.03	246.09
748.36	245.88
748.68	245.61
749.01	245.36
749.34	245.08
749.67	244.87
750.00	244.69
750.33	244.57
750.65	244.37
750.98	243.98
751.31	243.78
751.64	243.58
751.97	243.40
752.29	243.21
752.62	242.96
752.95	242.77
753.28	242.51
753.60	242.33
753.93	242.22
754.26	242.02
754.59	241.81
754.91	241.57
755.24	241.30
755.57	241.14
755.90	240.96
756.22	240.80
756.55	240.57
756.88	240.38
757.20	240.10
757.53	239.90
757.86	239.79
758.19	239.63
758.51	239.47
758.84	239.27
759.17	239.09
759.49	238.91
759.82	238.78
760.15	238.66
760.47	238.51
760.80	238.29
761.13	238.14
761.45	237.99
761.78	237.87
762.11	237.75
762.43	237.58
762.76	237.43
763.08	237.32
763.41	237.18
763.74	237.05
764.06	236.90
764.39	236.78
764.71	236.58
765.04	236.44
765.37	236.31
765.69	236.17
766.02	236.04
766.34	235.92
766.67	235.76
767.00	235.63
767.32	235.56
767.65	235.53
767.97	235.43
768.30	235.30
768.62	235.21
768.95	235.10
769.27	235.01
769.60	234.92
769.92	234.80
770.25	234.68
770.57	234.60
770.90	234.52
771.22	234.40
771.55	234.34
771.87	234.28
772.20	234.18
772.52	234.23
772.85	234.26
773.17	234.19
773.50	234.09
773.82	233.98
774.15	233.87
774.47	233.71
774.80	233.63
775.12	233.55
775.45	233.43
775.77	233.34
776.09	233.28
776.42	233.18
776.74	233.15
777.07	233.08
777.39	232.97
777.72	232.91
778.04	232.84
778.36	232.75
778.69	232.68
779.01	232.63
779.33	232.45
779.66	232.27
779.98	232.21
780.31	232.14
780.63	232.16
780.95	232.09
781.28	232.02
781.60	231.96
781.92	231.95
782.25	231.93
782.57	231.87
782.89	231.82
783.22	231.77
783.54	231.67
783.86	231.65
784.19	231.58
784.51	231.54
784.83	231.49
785.16	231.43
785.48	231.35
785.80	231.29
786.12	231.23
786.45	231.20
786.77	231.15
787.09	231.10
