SpectraSuite Data File
++++++++++++++++++++++++++++++++++++
Date: Fri Feb 01 16:45:57 EST 2013
User: group
Dark Spectrum Present: No
Reference Spectrum Present: No
Number of Sampled Component Spectra: 1
Spectrometers: USB2E7196
Integration Time (usec): 35000 (USB2E7196)
Spectra Averaged: 100 (USB2E7196)
Boxcar Smoothing: 10 (USB2E7196)
Correct for Electrical Dark: No (USB2E7196)
Strobe/Lamp Enabled: No (USB2E7196)
Correct for Detector Non-linearity: No (USB2E7196)
Correct for Stray Light: No (USB2E7196)
Number of Pixels in Processed Spectrum: 2048
>>>>>Begin Processed Spectral Data<<<<<
339.09	0.00
339.48	212.88
339.86	214.86
340.24	216.22
340.63	217.68
341.01	220.59
341.39	220.40
341.78	221.55
342.16	222.87
342.54	223.75
342.93	211.81
343.31	222.52
343.69	223.07
344.07	223.54
344.46	223.97
344.84	224.35
345.22	224.56
345.60	224.80
345.99	224.99
346.37	225.11
346.75	225.16
347.13	225.24
347.52	225.31
347.90	225.40
348.28	225.43
348.66	225.47
349.05	225.48
349.43	225.52
349.81	225.58
350.19	225.63
350.57	225.70
350.96	225.77
351.34	225.85
351.72	225.94
352.10	226.02
352.48	226.09
352.87	226.13
353.25	226.21
353.63	226.27
354.01	226.32
354.39	226.41
354.77	226.48
355.15	226.55
355.54	226.57
355.92	226.56
356.30	226.64
356.68	226.74
357.06	226.81
357.44	226.83
357.82	226.89
358.20	226.96
358.58	227.01
358.97	227.08
359.35	227.15
359.73	227.26
360.11	227.30
360.49	227.33
360.87	227.40
361.25	227.47
361.63	227.56
362.01	227.63
362.39	227.64
362.77	227.72
363.15	227.77
363.53	227.82
363.91	227.89
364.29	227.95
364.67	227.90
365.05	227.88
365.43	227.94
365.81	227.94
366.19	227.94
366.57	227.95
366.95	227.95
367.33	227.89
367.71	227.85
368.09	227.89
368.47	227.91
368.85	227.86
369.23	227.84
369.61	227.78
369.99	227.79
370.37	227.78
370.75	227.78
371.13	227.72
371.51	227.67
371.89	227.61
372.27	227.56
372.65	227.53
373.03	227.55
373.41	227.50
373.78	227.45
374.16	227.38
374.54	227.33
374.92	227.23
375.30	227.19
375.68	227.12
376.06	227.03
376.44	226.96
376.82	226.94
377.19	226.87
377.57	226.82
377.95	226.69
378.33	226.61
378.71	226.48
379.09	226.41
379.47	226.37
379.84	226.28
380.22	226.20
380.60	226.11
380.98	226.03
381.36	225.96
381.73	225.88
382.11	225.85
382.49	225.78
382.87	225.76
383.25	225.69
383.62	225.74
384.00	225.68
384.38	225.62
384.76	225.59
385.13	225.57
385.51	225.50
385.89	225.45
386.27	225.44
386.64	225.42
387.02	225.40
387.40	225.37
387.78	225.32
388.15	225.29
388.53	225.27
388.91	225.22
389.29	225.17
389.66	225.17
390.04	225.11
390.42	225.10
390.79	225.03
391.17	225.03
391.55	224.92
391.92	224.92
392.30	224.92
392.68	224.87
393.05	224.87
393.43	224.86
393.81	224.87
394.18	224.85
394.56	224.84
394.94	224.87
395.31	224.85
395.69	224.93
396.06	224.96
396.44	224.95
396.82	224.94
397.19	225.04
397.57	225.09
397.95	225.15
398.32	225.15
398.70	225.20
399.07	225.26
399.45	225.29
399.82	225.31
400.20	225.34
400.58	225.39
400.95	225.43
401.33	225.53
401.70	225.66
402.08	225.74
402.45	225.83
402.83	225.93
403.20	226.02
403.58	226.09
403.95	226.20
404.33	226.33
404.71	226.47
405.08	226.61
405.46	226.71
405.83	226.87
406.21	227.00
406.58	227.20
406.96	227.36
407.33	227.55
407.70	227.75
408.08	228.05
408.45	228.25
408.83	228.47
409.20	228.66
409.58	228.84
409.95	229.11
410.33	229.39
410.70	229.63
411.08	229.94
411.45	230.21
411.82	230.49
412.20	230.85
412.57	231.25
412.95	231.59
413.32	231.99
413.69	232.40
414.07	232.87
414.44	233.32
414.82	233.80
415.19	234.39
415.56	234.95
415.94	235.49
416.31	236.12
416.68	236.75
417.06	237.44
417.43	238.12
417.81	238.88
418.18	239.64
418.55	240.47
418.93	241.33
419.30	242.25
419.67	243.20
420.04	244.14
420.42	245.14
420.79	246.31
421.16	247.45
421.54	248.61
421.91	249.80
422.28	251.06
422.66	252.40
423.03	253.67
423.40	254.98
423.77	256.37
424.15	257.78
424.52	259.27
424.89	260.92
425.26	262.46
425.64	263.91
426.01	265.50
426.38	267.11
426.75	268.82
427.13	270.53
427.50	272.30
427.87	274.18
428.24	276.04
428.61	277.72
428.99	279.65
429.36	281.72
429.73	283.79
430.10	285.79
430.47	287.81
430.85	289.90
431.22	292.10
431.59	294.46
431.96	296.73
432.33	299.19
432.70	301.55
433.08	304.34
433.45	306.94
433.82	309.50
434.19	312.39
434.56	315.14
434.93	317.75
435.30	320.34
435.68	323.16
436.05	325.93
436.42	328.73
436.79	331.23
437.16	333.92
437.53	336.72
437.90	339.46
438.27	342.16
438.64	344.92
439.01	347.49
439.38	349.70
439.75	351.83
440.13	354.26
440.50	356.51
440.87	358.35
441.24	360.27
441.61	362.43
441.98	363.94
442.35	365.74
442.72	367.57
443.09	369.39
443.46	370.38
443.83	370.98
444.20	371.48
444.57	372.30
444.94	372.59
445.31	372.90
445.68	373.28
446.05	373.36
446.42	373.04
446.79	372.69
447.16	372.27
447.53	371.94
447.90	370.83
448.27	369.74
448.64	368.17
449.01	367.04
449.37	365.06
449.74	363.18
450.11	360.96
450.48	358.53
450.85	356.02
451.22	353.92
451.59	351.91
451.96	349.98
452.33	347.46
452.70	345.15
453.07	342.39
453.43	339.54
453.80	336.83
454.17	334.15
454.54	331.62
454.91	328.95
455.28	326.33
455.65	323.85
456.02	321.40
456.38	319.28
456.75	316.66
457.12	314.44
457.49	312.21
457.86	310.04
458.23	308.24
458.59	306.22
458.96	304.18
459.33	302.37
459.70	300.55
460.07	299.05
460.43	297.31
460.80	295.70
461.17	294.28
461.54	292.79
461.91	291.39
462.27	289.95
462.64	288.70
463.01	287.36
463.38	286.10
463.74	284.78
464.11	283.66
464.48	282.69
464.85	281.60
465.21	280.80
465.58	279.89
465.95	278.77
466.32	277.88
466.68	277.04
467.05	276.15
467.42	275.28
467.78	274.33
468.15	273.48
468.52	272.84
468.88	272.04
469.25	271.31
469.62	270.72
469.98	270.04
470.35	269.37
470.72	268.82
471.08	268.22
471.45	267.70
471.82	267.18
472.18	266.55
472.55	266.17
472.92	265.64
473.28	265.22
473.65	264.83
474.02	264.40
474.38	263.99
474.75	263.64
475.11	263.31
475.48	263.06
475.85	262.90
476.21	262.67
476.58	262.48
476.94	262.33
477.31	262.15
477.67	262.03
478.04	261.98
478.41	261.89
478.77	261.95
479.14	261.91
479.50	261.92
479.87	262.00
480.23	262.09
480.60	262.17
480.96	262.26
481.33	262.44
481.69	262.65
482.06	262.88
482.42	263.10
482.79	263.39
483.15	263.71
483.52	264.07
483.88	264.41
484.25	264.81
484.61	265.23
484.98	265.68
485.34	266.23
485.71	266.79
486.07	267.42
486.44	267.94
486.80	268.63
487.17	269.36
487.53	270.15
487.90	271.00
488.26	271.90
488.62	272.92
488.99	273.90
489.35	274.91
489.72	276.01
490.08	277.23
490.44	278.46
490.81	279.80
491.17	281.15
491.54	282.64
491.90	284.17
492.26	285.82
492.63	287.58
492.99	289.34
493.36	291.19
493.72	293.23
494.08	295.34
494.45	297.56
494.81	299.92
495.17	302.38
495.54	304.96
495.90	307.63
496.26	310.41
496.63	313.35
496.99	316.46
497.35	319.79
497.72	323.19
498.08	326.69
498.44	330.38
498.80	334.30
499.17	338.32
499.53	342.50
499.89	346.84
500.26	351.32
500.62	356.03
500.98	361.06
501.34	366.16
501.71	371.50
502.07	376.94
502.43	382.57
502.79	388.36
503.16	394.39
503.52	400.70
503.88	407.06
504.24	413.71
504.60	420.59
504.97	427.64
505.33	434.96
505.69	442.60
506.05	450.39
506.41	458.28
506.78	466.41
507.14	474.80
507.50	483.55
507.86	492.57
508.22	501.73
508.59	510.89
508.95	520.44
509.31	530.15
509.67	540.21
510.03	550.43
510.39	560.96
510.75	571.72
511.12	582.61
511.48	593.93
511.84	605.35
512.20	616.77
512.56	628.64
512.92	640.71
513.28	653.02
513.64	665.39
514.00	677.94
514.37	690.86
514.73	703.84
515.09	716.76
515.45	729.96
515.81	743.54
516.17	757.38
516.53	771.41
516.89	785.51
517.25	799.62
517.61	813.93
517.97	828.33
518.33	842.63
518.69	857.29
519.05	872.14
519.41	887.25
519.77	902.76
520.13	918.16
520.49	933.40
520.85	948.71
521.21	964.29
521.57	980.41
521.93	996.06
522.29	1012.23
522.65	1028.44
523.01	1044.49
523.37	1060.26
523.73	1076.32
524.09	1092.28
524.45	1108.48
524.81	1124.95
525.17	1141.64
525.53	1158.34
525.89	1175.09
526.25	1191.84
526.61	1208.00
526.97	1224.46
527.33	1240.78
527.68	1257.20
528.04	1273.52
528.40	1290.00
528.76	1306.90
529.12	1323.33
529.48	1340.08
529.84	1356.00
530.20	1372.41
530.56	1389.21
530.91	1406.51
531.27	1423.21
531.63	1439.44
531.99	1455.93
532.35	1471.77
532.71	1487.55
533.07	1503.55
533.42	1519.36
533.78	1535.20
534.14	1551.33
534.50	1566.50
534.86	1582.22
535.21	1597.21
535.57	1613.00
535.93	1628.23
536.29	1642.88
536.65	1657.79
537.00	1672.38
537.36	1687.53
537.72	1701.89
538.08	1716.15
538.44	1729.66
538.79	1743.28
539.15	1756.65
539.51	1770.09
539.87	1784.05
540.22	1797.39
540.58	1811.13
540.94	1824.20
541.29	1836.79
541.65	1849.34
542.01	1862.34
542.37	1874.52
542.72	1886.82
543.08	1898.43
543.44	1910.73
543.79	1921.82
544.15	1932.55
544.51	1943.95
544.87	1954.86
545.22	1965.43
545.58	1975.52
545.94	1985.19
546.29	1994.91
546.65	2004.89
547.01	2014.00
547.36	2022.80
547.72	2031.35
548.07	2038.98
548.43	2047.10
548.79	2054.95
549.14	2062.50
549.50	2069.79
549.86	2077.26
550.21	2084.41
550.57	2091.47
550.92	2097.94
551.28	2104.97
551.64	2112.03
551.99	2118.34
552.35	2124.39
552.70	2130.53
553.06	2136.51
553.41	2142.85
553.77	2148.88
554.13	2154.75
554.48	2161.01
554.84	2166.56
555.19	2171.73
555.55	2177.00
555.90	2181.39
556.26	2186.47
556.61	2191.09
556.97	2195.52
557.32	2199.76
557.68	2203.87
558.03	2208.13
558.39	2211.89
558.74	2216.52
559.10	2220.47
559.45	2224.21
559.81	2228.40
560.16	2232.27
560.52	2235.50
560.87	2238.83
561.23	2241.50
561.58	2244.56
561.94	2247.03
562.29	2249.32
562.64	2252.10
563.00	2254.56
563.35	2258.09
563.71	2261.19
564.06	2264.46
564.42	2267.36
564.77	2269.89
565.12	2272.31
565.48	2274.39
565.83	2276.27
566.19	2277.59
566.54	2278.47
566.89	2279.67
567.25	2280.44
567.60	2281.77
567.96	2283.69
568.31	2284.63
568.66	2285.92
569.02	2286.52
569.37	2286.97
569.72	2288.02
570.08	2288.27
570.43	2288.48
570.78	2288.02
571.14	2286.68
571.49	2285.27
571.84	2284.89
572.20	2283.90
572.55	2283.03
572.90	2281.47
573.26	2280.17
573.61	2278.59
573.96	2277.09
574.31	2274.46
574.67	2271.68
575.02	2268.24
575.37	2264.91
575.72	2261.36
576.08	2257.95
576.43	2254.73
576.78	2251.13
577.13	2247.83
577.49	2244.74
577.84	2241.31
578.19	2237.66
578.54	2234.13
578.90	2230.18
579.25	2224.85
579.60	2219.95
579.95	2215.04
580.30	2210.16
580.66	2205.05
581.01	2200.13
581.36	2195.24
581.71	2191.01
582.06	2186.48
582.42	2182.10
582.77	2176.79
583.12	2172.30
583.47	2167.78
583.82	2162.82
584.17	2157.61
584.53	2152.27
584.88	2146.90
585.23	2141.31
585.58	2135.99
585.93	2130.52
586.28	2125.77
586.63	2120.75
586.98	2115.77
587.34	2111.06
587.69	2106.34
588.04	2101.15
588.39	2095.59
588.74	2089.12
589.09	2083.00
589.44	2076.44
589.79	2070.49
590.14	2064.97
590.49	2058.30
590.84	2051.84
591.19	2045.98
591.54	2039.63
591.89	2032.39
592.25	2025.68
592.60	2018.55
592.95	2011.12
593.30	2003.98
593.65	1996.40
594.00	1989.45
594.35	1982.44
594.70	1974.47
595.05	1967.33
595.40	1960.25
595.75	1952.79
596.10	1946.79
596.45	1940.28
596.80	1934.11
597.15	1927.62
597.50	1920.74
597.85	1914.61
598.19	1908.20
598.54	1901.21
598.89	1894.62
599.24	1888.79
599.59	1882.17
599.94	1875.97
600.29	1869.67
600.64	1863.16
600.99	1855.92
601.34	1849.16
601.69	1842.16
602.04	1835.64
602.39	1828.35
602.74	1821.59
603.08	1814.91
603.43	1808.30
603.78	1800.94
604.13	1793.83
604.48	1786.61
604.83	1779.78
605.18	1772.87
605.53	1765.09
605.87	1757.04
606.22	1749.85
606.57	1741.97
606.92	1734.58
607.27	1727.49
607.62	1720.57
607.96	1713.28
608.31	1706.74
608.66	1699.20
609.01	1691.65
609.36	1683.92
609.70	1675.99
610.05	1667.93
610.40	1660.42
610.75	1652.09
611.10	1644.51
611.44	1636.12
611.79	1628.23
612.14	1619.61
612.49	1610.42
612.83	1601.91
613.18	1593.89
613.53	1585.86
613.88	1577.40
614.22	1569.18
614.57	1560.62
614.92	1552.71
615.27	1545.28
615.61	1536.97
615.96	1528.99
616.31	1521.37
616.65	1513.99
617.00	1506.37
617.35	1498.70
617.70	1490.34
618.04	1481.87
618.39	1473.55
618.74	1466.00
619.08	1457.61
619.43	1450.01
619.78	1443.19
620.12	1436.02
620.47	1428.56
620.82	1420.55
621.16	1413.08
621.51	1405.50
621.85	1397.85
622.20	1389.35
622.55	1380.98
622.89	1373.17
623.24	1365.49
623.59	1358.04
623.93	1350.48
624.28	1343.48
624.62	1336.04
624.97	1328.84
625.32	1322.06
625.66	1315.18
626.01	1307.99
626.35	1300.70
626.70	1292.97
627.04	1285.23
627.39	1277.56
627.73	1270.13
628.08	1263.03
628.43	1255.79
628.77	1248.42
629.12	1240.95
629.46	1233.85
629.81	1226.39
630.15	1219.10
630.50	1211.71
630.84	1203.72
631.19	1195.83
631.53	1188.16
631.88	1180.63
632.22	1173.12
632.57	1165.73
632.91	1158.18
633.26	1150.84
633.60	1143.32
633.95	1136.26
634.29	1129.19
634.64	1122.49
634.98	1115.20
635.32	1108.13
635.67	1101.55
636.01	1094.96
636.36	1088.13
636.70	1081.48
637.05	1074.93
637.39	1068.48
637.73	1062.03
638.08	1056.08
638.42	1050.15
638.77	1043.76
639.11	1037.22
639.45	1030.80
639.80	1024.18
640.14	1017.81
640.49	1011.28
640.83	1005.07
641.17	998.85
641.52	992.52
641.86	985.98
642.20	980.10
642.55	973.83
642.89	967.31
643.23	960.83
643.58	955.18
643.92	949.07
644.26	942.99
644.61	937.07
644.95	931.06
645.29	924.47
645.64	917.77
645.98	911.42
646.32	905.59
646.66	899.59
647.01	893.85
647.35	888.10
647.69	882.22
648.04	876.65
648.38	870.77
648.72	864.80
649.06	858.84
649.41	852.99
649.75	847.03
650.09	841.15
650.43	835.30
650.78	829.11
651.12	823.19
651.46	817.47
651.80	811.71
652.14	806.32
652.49	800.99
652.83	795.75
653.17	790.12
653.51	784.37
653.85	778.93
654.20	773.38
654.54	767.35
654.88	761.61
655.22	755.67
655.56	750.06
655.90	744.59
656.25	739.37
656.59	733.98
656.93	728.96
657.27	723.80
657.61	718.34
657.95	713.24
658.29	708.10
658.64	702.86
658.98	697.54
659.32	692.08
659.66	686.86
660.00	681.60
660.34	676.65
660.68	671.71
661.02	666.65
661.36	661.86
661.70	657.41
662.05	653.10
662.39	648.89
662.73	644.46
663.07	640.11
663.41	635.66
663.75	631.18
664.09	626.62
664.43	622.23
664.77	618.19
665.11	613.88
665.45	609.70
665.79	605.59
666.13	601.44
666.47	597.31
666.81	593.17
667.15	589.04
667.49	585.12
667.83	581.28
668.17	577.44
668.51	573.39
668.85	569.33
669.19	565.49
669.53	561.60
669.87	557.68
670.21	553.99
670.55	550.36
670.89	546.93
671.23	543.52
671.57	540.01
671.91	536.46
672.25	533.03
672.58	529.57
672.92	526.17
673.26	523.01
673.60	519.92
673.94	516.79
674.28	513.87
674.62	510.95
674.96	507.89
675.30	505.00
675.64	502.05
675.97	499.30
676.31	496.39
676.65	493.51
676.99	490.80
677.33	487.93
677.67	485.12
678.01	482.14
678.34	479.11
678.68	476.24
679.02	473.41
679.36	470.56
679.70	467.83
680.04	465.10
680.37	462.24
680.71	459.48
681.05	456.84
681.39	454.13
681.73	451.44
682.06	448.86
682.40	446.23
682.74	443.75
683.08	441.18
683.42	438.59
683.75	436.08
684.09	433.49
684.43	430.99
684.77	428.50
685.10	426.07
685.44	423.74
685.78	421.42
686.12	419.20
686.45	416.96
686.79	414.69
687.13	412.44
687.46	410.27
687.80	408.03
688.14	405.87
688.48	403.80
688.81	401.53
689.15	399.42
689.49	397.27
689.82	395.13
690.16	393.10
690.50	391.15
690.83	389.22
691.17	387.26
691.51	385.35
691.84	383.48
692.18	381.64
692.52	379.69
692.85	377.75
693.19	375.86
693.52	373.98
693.86	372.14
694.20	370.38
694.53	368.58
694.87	366.71
695.21	364.86
695.54	362.99
695.88	361.29
696.21	359.56
696.55	357.88
696.88	356.19
697.22	354.52
697.56	352.89
697.89	351.17
698.23	349.59
698.56	347.99
698.90	346.40
699.23	344.69
699.57	343.14
699.90	341.61
700.24	340.05
700.58	338.53
700.91	337.03
701.25	335.62
701.58	334.28
701.92	332.93
702.25	331.60
702.59	330.31
702.92	329.01
703.26	327.68
703.59	326.43
703.93	325.23
704.26	323.96
704.60	322.64
704.93	321.41
705.26	320.16
705.60	319.00
705.93	317.84
706.27	316.84
706.60	315.78
706.94	314.72
707.27	313.62
707.61	312.60
707.94	311.57
708.27	310.45
708.61	309.34
708.94	308.40
709.28	307.42
709.61	306.43
709.94	305.51
710.28	304.50
710.61	303.47
710.95	302.41
711.28	301.54
711.61	300.64
711.95	299.74
712.28	298.79
712.61	297.83
712.95	296.90
713.28	296.03
713.61	295.10
713.95	294.19
714.28	293.35
714.61	292.43
714.95	291.58
715.28	290.74
715.61	289.88
715.95	288.98
716.28	288.11
716.61	287.28
716.95	286.41
717.28	285.63
717.61	284.93
717.94	284.20
718.28	283.37
718.61	282.66
718.94	281.92
719.27	281.27
719.61	280.60
719.94	279.97
720.27	279.23
720.60	278.59
720.94	278.00
721.27	277.39
721.60	276.83
721.93	276.22
722.27	275.65
722.60	275.05
722.93	274.45
723.26	273.89
723.59	273.32
723.93	272.78
724.26	272.26
724.59	271.66
724.92	271.11
725.25	270.63
725.59	270.05
725.92	269.53
726.25	269.00
726.58	268.48
726.91	267.92
727.24	267.47
727.57	266.96
727.91	266.41
728.24	265.92
728.57	265.40
728.90	264.94
729.23	264.48
729.56	264.08
729.89	263.61
730.22	263.10
730.55	262.65
730.89	262.19
731.22	261.74
731.55	261.33
731.88	260.91
732.21	260.44
732.54	259.99
732.87	259.55
733.20	259.15
733.53	258.76
733.86	258.39
734.19	257.97
734.52	257.61
734.85	257.29
735.18	256.89
735.51	256.54
735.84	256.20
736.17	255.82
736.50	255.40
736.83	255.20
737.16	254.91
737.49	254.57
737.82	254.24
738.15	253.88
738.48	253.55
738.81	253.24
739.14	252.91
739.47	252.62
739.80	252.34
740.13	252.04
740.46	251.74
740.79	251.43
741.12	251.09
741.45	250.79
741.78	250.50
742.11	250.25
742.44	249.92
742.77	249.61
743.10	249.31
743.43	249.01
743.75	248.65
744.08	248.49
744.41	248.23
744.74	247.94
745.07	247.67
745.40	247.41
745.73	247.19
746.06	246.91
746.39	246.67
746.71	246.38
747.04	246.13
747.37	245.89
747.70	245.65
748.03	245.43
748.36	245.18
748.68	244.89
749.01	244.64
749.34	244.46
749.67	244.28
750.00	244.09
750.33	243.98
750.65	243.77
750.98	243.46
751.31	243.25
751.64	243.05
751.97	242.91
752.29	242.69
752.62	242.40
752.95	242.23
753.28	242.02
753.60	241.87
753.93	241.66
754.26	241.44
754.59	241.23
754.91	241.05
755.24	240.89
755.57	240.71
755.90	240.53
756.22	240.33
756.55	240.12
756.88	239.91
757.20	239.62
757.53	239.40
757.86	239.20
758.19	239.01
758.51	238.87
758.84	238.65
759.17	238.53
759.49	238.38
759.82	238.24
760.15	238.10
760.47	237.92
760.80	237.75
761.13	237.62
761.45	237.48
761.78	237.33
762.11	237.16
762.43	237.01
762.76	236.88
763.08	236.75
763.41	236.61
763.74	236.51
764.06	236.41
764.39	236.26
764.71	236.11
765.04	235.97
765.37	235.80
765.69	235.68
766.02	235.52
766.34	235.41
766.67	235.26
767.00	235.13
767.32	235.03
767.65	234.98
767.97	234.87
768.30	234.73
768.62	234.58
768.95	234.47
769.27	234.34
769.60	234.21
769.92	234.07
770.25	233.96
770.57	233.81
770.90	233.69
771.22	233.57
771.55	233.48
771.87	233.39
772.20	233.32
772.52	233.29
772.85	233.29
773.17	233.17
773.50	233.06
773.82	232.97
774.15	232.83
774.47	232.65
774.80	232.53
775.12	232.45
775.45	232.35
775.77	232.26
776.09	232.21
776.42	232.12
776.74	232.09
777.07	231.98
777.39	231.91
777.72	231.82
778.04	231.75
778.36	231.66
778.69	231.59
779.01	231.50
779.33	231.35
779.66	231.18
779.98	231.11
780.31	231.04
780.63	231.02
780.95	230.99
781.28	230.96
781.60	230.91
781.92	230.83
782.25	230.78
782.57	230.72
782.89	230.63
783.22	230.59
783.54	230.49
783.86	230.46
784.19	230.40
784.51	230.35
784.83	230.30
785.16	230.27
785.48	230.23
785.80	230.18
786.12	230.16
786.45	230.09
786.77	230.07
787.09	230.03
