SpectraSuite Data File
++++++++++++++++++++++++++++++++++++
Date: Fri Feb 01 15:31:45 EST 2013
User: group
Dark Spectrum Present: No
Reference Spectrum Present: No
Number of Sampled Component Spectra: 1
Spectrometers: USB2E7196
Integration Time (usec): 35000 (USB2E7196)
Spectra Averaged: 100 (USB2E7196)
Boxcar Smoothing: 10 (USB2E7196)
Correct for Electrical Dark: No (USB2E7196)
Strobe/Lamp Enabled: No (USB2E7196)
Correct for Detector Non-linearity: No (USB2E7196)
Correct for Stray Light: No (USB2E7196)
Number of Pixels in Processed Spectrum: 2048
>>>>>Begin Processed Spectral Data<<<<<
339.09	0.00
339.48	214.91
339.86	216.84
340.24	218.03
340.63	219.35
341.01	222.37
341.39	221.65
341.78	223.33
342.16	224.38
342.54	224.72
342.93	213.36
343.31	224.15
343.69	224.72
344.07	225.17
344.46	225.59
344.84	225.98
345.22	226.20
345.60	226.46
345.99	226.67
346.37	226.79
346.75	226.91
347.13	226.98
347.52	227.05
347.90	227.12
348.28	227.14
348.66	227.20
349.05	227.20
349.43	227.25
349.81	227.29
350.19	227.37
350.57	227.45
350.96	227.53
351.34	227.60
351.72	227.65
352.10	227.77
352.48	227.83
352.87	227.90
353.25	227.97
353.63	228.02
354.01	228.07
354.39	228.18
354.77	228.25
355.15	228.35
355.54	228.42
355.92	228.46
356.30	228.55
356.68	228.68
357.06	228.75
357.44	228.78
357.82	228.85
358.20	228.87
358.58	228.89
358.97	228.95
359.35	229.01
359.73	229.12
360.11	229.14
360.49	229.20
360.87	229.21
361.25	229.28
361.63	229.35
362.01	229.38
362.39	229.38
362.77	229.40
363.15	229.42
363.53	229.44
363.91	229.45
364.29	229.43
364.67	229.35
365.05	229.38
365.43	229.41
365.81	229.42
366.19	229.46
366.57	229.51
366.95	229.47
367.33	229.42
367.71	229.38
368.09	229.38
368.47	229.36
368.85	229.33
369.23	229.32
369.61	229.25
369.99	229.25
370.37	229.20
370.75	229.20
371.13	229.13
371.51	229.07
371.89	229.06
372.27	229.01
372.65	228.93
373.03	228.88
373.41	228.83
373.78	228.77
374.16	228.64
374.54	228.52
374.92	228.46
375.30	228.41
375.68	228.31
376.06	228.26
376.44	228.18
376.82	228.11
377.19	228.01
377.57	228.00
377.95	227.88
378.33	227.82
378.71	227.69
379.09	227.63
379.47	227.59
379.84	227.49
380.22	227.41
380.60	227.36
380.98	227.26
381.36	227.18
381.73	227.11
382.11	227.08
382.49	227.02
382.87	226.99
383.25	226.92
383.62	226.98
384.00	226.90
384.38	226.85
384.76	226.81
385.13	226.77
385.51	226.68
385.89	226.65
386.27	226.59
386.64	226.58
387.02	226.55
387.40	226.50
387.78	226.45
388.15	226.44
388.53	226.35
388.91	226.31
389.29	226.24
389.66	226.20
390.04	226.19
390.42	226.22
390.79	226.22
391.17	226.20
391.55	226.13
391.92	226.10
392.30	226.12
392.68	226.08
393.05	226.09
393.43	226.11
393.81	226.14
394.18	226.15
394.56	226.15
394.94	226.20
395.31	226.21
395.69	226.28
396.06	226.36
396.44	226.43
396.82	226.50
397.19	226.61
397.57	226.67
397.95	226.69
398.32	226.71
398.70	226.75
399.07	226.84
399.45	226.89
399.82	226.99
400.20	227.03
400.58	227.13
400.95	227.18
401.33	227.28
401.70	227.41
402.08	227.47
402.45	227.59
402.83	227.70
403.20	227.80
403.58	227.89
403.95	227.99
404.33	228.17
404.71	228.31
405.08	228.49
405.46	228.63
405.83	228.81
406.21	228.95
406.58	229.11
406.96	229.30
407.33	229.47
407.70	229.65
408.08	229.94
408.45	230.18
408.83	230.44
409.20	230.64
409.58	230.81
409.95	231.11
410.33	231.39
410.70	231.63
411.08	231.96
411.45	232.27
411.82	232.56
412.20	232.86
412.57	233.27
412.95	233.57
413.32	233.98
413.69	234.36
414.07	234.82
414.44	235.30
414.82	235.75
415.19	236.32
415.56	236.90
415.94	237.42
416.31	238.05
416.68	238.66
417.06	239.39
417.43	240.09
417.81	240.87
418.18	241.66
418.55	242.55
418.93	243.40
419.30	244.31
419.67	245.28
420.04	246.25
420.42	247.22
420.79	248.43
421.16	249.58
421.54	250.79
421.91	252.01
422.28	253.27
422.66	254.59
423.03	255.89
423.40	257.22
423.77	258.62
424.15	260.07
424.52	261.59
424.89	263.21
425.26	264.78
425.64	266.22
426.01	267.80
426.38	269.45
426.75	271.12
427.13	272.86
427.50	274.67
427.87	276.54
428.24	278.41
428.61	280.15
428.99	282.09
429.36	284.21
429.73	286.27
430.10	288.30
430.47	290.39
430.85	292.50
431.22	294.75
431.59	297.17
431.96	299.39
432.33	301.85
432.70	304.17
433.08	306.97
433.45	309.63
433.82	312.27
434.19	315.14
434.56	317.97
434.93	320.59
435.30	323.24
435.68	326.18
436.05	329.02
436.42	331.82
436.79	334.37
437.16	337.03
437.53	339.88
437.90	342.71
438.27	345.46
438.64	348.32
439.01	350.87
439.38	353.07
439.75	355.25
440.13	357.73
440.50	360.11
440.87	361.94
441.24	363.86
441.61	366.02
441.98	367.53
442.35	369.38
442.72	371.30
443.09	373.07
443.46	374.05
443.83	374.67
444.20	375.16
444.57	375.98
444.94	376.32
445.31	376.62
445.68	377.00
446.05	377.04
446.42	376.59
446.79	376.24
447.16	375.85
447.53	375.52
447.90	374.37
448.27	373.23
448.64	371.73
449.01	370.62
449.37	368.63
449.74	366.71
450.11	364.40
450.48	361.86
450.85	359.33
451.22	357.18
451.59	355.13
451.96	353.21
452.33	350.60
452.70	348.19
453.07	345.36
453.43	342.40
453.80	339.64
454.17	336.99
454.54	334.44
454.91	331.68
455.28	329.01
455.65	326.51
456.02	324.00
456.38	321.79
456.75	319.13
457.12	316.87
457.49	314.64
457.86	312.48
458.23	310.63
458.59	308.58
458.96	306.45
459.33	304.59
459.70	302.71
460.07	301.22
460.43	299.50
460.80	297.92
461.17	296.48
461.54	294.95
461.91	293.51
462.27	292.03
462.64	290.78
463.01	289.44
463.38	288.12
463.74	286.78
464.11	285.62
464.48	284.58
464.85	283.46
465.21	282.61
465.58	281.66
465.95	280.55
466.32	279.61
466.68	278.75
467.05	277.82
467.42	276.92
467.78	275.97
468.15	275.08
468.52	274.37
468.88	273.50
469.25	272.77
469.62	272.15
469.98	271.47
470.35	270.82
470.72	270.23
471.08	269.62
471.45	269.09
471.82	268.53
472.18	267.92
472.55	267.44
472.92	266.90
473.28	266.41
473.65	265.98
474.02	265.54
474.38	265.19
474.75	264.87
475.11	264.51
475.48	264.24
475.85	264.04
476.21	263.80
476.58	263.61
476.94	263.45
477.31	263.27
477.67	263.11
478.04	262.96
478.41	262.88
478.77	262.94
479.14	262.85
479.50	262.90
479.87	262.95
480.23	263.03
480.60	263.12
480.96	263.22
481.33	263.44
481.69	263.61
482.06	263.77
482.42	263.99
482.79	264.25
483.15	264.53
483.52	264.90
483.88	265.31
484.25	265.71
484.61	266.15
484.98	266.58
485.34	267.16
485.71	267.81
486.07	268.41
486.44	268.96
486.80	269.67
487.17	270.35
487.53	271.18
487.90	272.07
488.26	273.00
488.62	274.03
488.99	275.02
489.35	276.08
489.72	277.20
490.08	278.39
490.44	279.64
490.81	281.02
491.17	282.38
491.54	283.82
491.90	285.35
492.26	286.95
492.63	288.71
492.99	290.43
493.36	292.30
493.72	294.35
494.08	296.43
494.45	298.69
494.81	301.07
495.17	303.48
495.54	305.97
495.90	308.65
496.26	311.40
496.63	314.31
496.99	317.48
497.35	320.79
497.72	324.23
498.08	327.78
498.44	331.45
498.80	335.33
499.17	339.41
499.53	343.62
499.89	348.02
500.26	352.56
500.62	357.24
500.98	362.23
501.34	367.32
501.71	372.70
502.07	378.10
502.43	383.74
502.79	389.57
503.16	395.71
503.52	401.94
503.88	408.34
504.24	415.06
504.60	421.94
504.97	429.00
505.33	436.33
505.69	443.95
506.05	451.74
506.41	459.66
506.78	467.83
507.14	476.27
507.50	485.00
507.86	494.02
508.22	503.30
508.59	512.51
508.95	522.07
509.31	531.88
509.67	542.04
510.03	552.36
510.39	562.90
510.75	573.71
511.12	584.68
511.48	595.99
511.84	607.38
512.20	618.92
512.56	630.92
512.92	643.07
513.28	655.45
513.64	667.93
514.00	680.58
514.37	693.54
514.73	706.69
515.09	719.80
515.45	733.15
515.81	746.63
516.17	760.64
516.53	774.75
516.89	788.91
517.25	803.02
517.61	817.42
517.97	831.96
518.33	846.47
518.69	861.30
519.05	876.33
519.41	891.54
519.77	907.16
520.13	922.64
520.49	938.10
520.85	953.59
521.21	969.38
521.57	985.74
521.93	1001.54
522.29	1017.81
522.65	1034.07
523.01	1050.28
523.37	1066.37
523.73	1082.56
524.09	1098.77
524.45	1115.19
524.81	1131.98
525.17	1148.92
525.53	1165.88
525.89	1182.72
526.25	1199.60
526.61	1216.05
526.97	1232.92
527.33	1249.37
527.68	1266.08
528.04	1282.62
528.40	1299.33
528.76	1316.31
529.12	1332.94
529.48	1349.84
529.84	1366.12
530.20	1382.72
530.56	1399.72
530.91	1417.18
531.27	1433.99
531.63	1450.39
531.99	1467.03
532.35	1482.90
532.71	1498.75
533.07	1515.07
533.42	1531.08
533.78	1547.17
534.14	1563.43
534.50	1578.64
534.86	1594.62
535.21	1609.77
535.57	1625.72
535.93	1641.15
536.29	1656.03
536.65	1671.22
537.00	1685.90
537.36	1701.09
537.72	1715.65
538.08	1730.25
538.44	1744.10
538.79	1758.00
539.15	1771.94
539.51	1785.65
539.87	1800.20
540.22	1814.01
540.58	1827.84
540.94	1841.22
541.29	1854.27
541.65	1867.10
542.01	1880.50
542.37	1892.79
542.72	1905.32
543.08	1917.08
543.44	1929.61
543.79	1941.00
544.15	1951.94
544.51	1963.71
544.87	1974.79
545.22	1985.64
545.58	1995.75
545.94	2005.64
546.29	2015.60
546.65	2025.23
547.01	2034.61
547.36	2043.36
547.72	2051.92
548.07	2059.83
548.43	2068.01
548.79	2075.96
549.14	2083.49
549.50	2090.93
549.86	2098.69
550.21	2106.01
550.57	2113.34
550.92	2119.79
551.28	2126.75
551.64	2133.93
551.99	2140.33
552.35	2146.49
552.70	2152.63
553.06	2158.74
553.41	2165.09
553.77	2171.15
554.13	2177.28
554.48	2183.41
554.84	2188.80
555.19	2193.99
555.55	2199.03
555.90	2203.55
556.26	2208.45
556.61	2213.27
556.97	2217.37
557.32	2221.25
557.68	2225.34
558.03	2229.55
558.39	2233.39
558.74	2238.05
559.10	2241.93
559.45	2245.69
559.81	2249.96
560.16	2253.78
560.52	2256.98
560.87	2260.40
561.23	2262.95
561.58	2266.02
561.94	2268.40
562.29	2270.81
562.64	2273.60
563.00	2276.30
563.35	2279.90
563.71	2282.89
564.06	2285.95
564.42	2288.81
564.77	2291.64
565.12	2293.98
565.48	2295.72
565.83	2297.56
566.19	2298.81
566.54	2299.74
566.89	2300.95
567.25	2301.55
567.60	2302.86
567.96	2304.63
568.31	2305.47
568.66	2306.61
569.02	2307.14
569.37	2307.55
569.72	2308.15
570.08	2308.20
570.43	2308.14
570.78	2307.33
571.14	2305.91
571.49	2304.59
571.84	2304.20
572.20	2302.86
572.55	2301.62
572.90	2300.14
573.26	2298.74
573.61	2297.01
573.96	2295.09
574.31	2291.88
574.67	2288.72
575.02	2285.28
575.37	2281.67
575.72	2277.68
576.08	2274.32
576.43	2270.99
576.78	2267.16
577.13	2264.17
577.49	2261.05
577.84	2257.56
578.19	2253.81
578.54	2249.98
578.90	2245.59
579.25	2240.04
579.60	2234.99
579.95	2229.99
580.30	2224.87
580.66	2219.48
581.01	2214.53
581.36	2209.39
581.71	2205.18
582.06	2200.71
582.42	2195.98
582.77	2190.71
583.12	2186.07
583.47	2181.24
583.82	2175.97
584.17	2170.74
584.53	2165.18
584.88	2159.37
585.23	2153.39
585.58	2147.87
585.93	2142.36
586.28	2137.59
586.63	2132.51
586.98	2127.36
587.34	2122.63
587.69	2117.83
588.04	2112.56
588.39	2106.77
588.74	2100.43
589.09	2094.26
589.44	2087.40
589.79	2081.35
590.14	2075.62
590.49	2069.13
590.84	2062.70
591.19	2056.67
591.54	2050.00
591.89	2042.40
592.25	2035.67
592.60	2028.46
592.95	2020.81
593.30	2013.54
593.65	2005.94
594.00	1998.92
594.35	1991.69
594.70	1983.63
595.05	1976.17
595.40	1969.02
595.75	1961.55
596.10	1955.27
596.45	1948.42
596.80	1942.12
597.15	1935.37
597.50	1928.13
597.85	1921.58
598.19	1914.89
598.54	1907.79
598.89	1901.32
599.24	1895.54
599.59	1888.79
599.94	1882.55
600.29	1876.24
600.64	1869.56
600.99	1862.16
601.34	1855.24
601.69	1848.24
602.04	1841.19
602.39	1833.88
602.74	1826.88
603.08	1820.14
603.43	1813.42
603.78	1806.15
604.13	1799.02
604.48	1791.66
604.83	1784.88
605.18	1777.88
605.53	1769.83
605.87	1761.80
606.22	1754.48
606.57	1746.41
606.92	1739.04
607.27	1731.80
607.62	1724.76
607.96	1717.39
608.31	1710.49
608.66	1702.70
609.01	1695.18
609.36	1687.60
609.70	1679.55
610.05	1671.44
610.40	1663.67
610.75	1655.29
611.10	1647.61
611.44	1639.21
611.79	1631.27
612.14	1622.53
612.49	1613.39
612.83	1605.04
613.18	1596.93
613.53	1588.81
613.88	1580.28
614.22	1571.86
614.57	1563.26
614.92	1555.08
615.27	1547.53
615.61	1539.22
615.96	1531.23
616.31	1523.53
616.65	1516.18
617.00	1508.61
617.35	1500.92
617.70	1492.51
618.04	1483.95
618.39	1475.66
618.74	1468.05
619.08	1459.71
619.43	1452.07
619.78	1445.17
620.12	1437.94
620.47	1430.32
620.82	1422.17
621.16	1414.77
621.51	1407.23
621.85	1399.58
622.20	1391.10
622.55	1382.82
622.89	1375.07
623.24	1367.51
623.59	1360.11
623.93	1352.52
624.28	1345.20
624.62	1337.61
624.97	1330.43
625.32	1323.67
625.66	1316.65
626.01	1309.37
626.35	1301.94
626.70	1294.25
627.04	1286.42
627.39	1278.66
627.73	1271.22
628.08	1264.17
628.43	1256.83
628.77	1249.45
629.12	1241.88
629.46	1234.75
629.81	1227.29
630.15	1220.04
630.50	1212.62
630.84	1204.40
631.19	1196.56
631.53	1189.20
631.88	1181.69
632.22	1174.05
632.57	1166.68
632.91	1159.14
633.26	1151.78
633.60	1144.48
633.95	1137.49
634.29	1130.52
634.64	1123.84
634.98	1116.60
635.32	1109.46
635.67	1102.90
636.01	1096.30
636.36	1089.52
636.70	1083.07
637.05	1076.46
637.39	1070.00
637.73	1063.47
638.08	1057.66
638.42	1051.66
638.77	1045.17
639.11	1038.54
639.45	1032.31
639.80	1025.72
640.14	1019.31
640.49	1012.82
640.83	1006.46
641.17	1000.20
641.52	993.79
641.86	987.40
642.20	981.48
642.55	975.30
642.89	968.88
643.23	962.30
643.58	956.55
643.92	950.32
644.26	944.30
644.61	938.27
644.95	932.26
645.29	925.66
645.64	918.83
645.98	912.45
646.32	906.77
646.66	900.53
647.01	894.70
647.35	889.05
647.69	883.28
648.04	877.80
648.38	871.95
648.72	866.02
649.06	859.97
649.41	854.11
649.75	848.12
650.09	842.16
650.43	836.35
650.78	830.16
651.12	824.29
651.46	818.56
651.80	812.83
652.14	807.37
652.49	802.01
652.83	796.92
653.17	791.21
653.51	785.37
653.85	780.11
654.20	774.55
654.54	768.44
654.88	762.64
655.22	756.72
655.56	751.05
655.90	745.62
656.25	740.33
656.59	735.05
656.93	729.99
657.27	724.77
657.61	719.35
657.95	714.28
658.29	709.17
658.64	703.90
658.98	698.67
659.32	693.26
659.66	688.05
660.00	682.78
660.34	677.88
660.68	672.93
661.02	667.85
661.36	663.04
661.70	658.63
662.05	654.26
662.39	649.97
662.73	645.47
663.07	641.03
663.41	636.52
663.75	631.90
664.09	627.23
664.43	622.84
664.77	618.72
665.11	614.43
665.45	610.26
665.79	606.14
666.13	601.91
666.47	597.81
666.81	593.64
667.15	589.44
667.49	585.56
667.83	581.82
668.17	577.92
668.51	573.89
668.85	569.86
669.19	565.99
669.53	562.18
669.87	558.35
670.21	554.65
670.55	551.02
670.89	547.67
671.23	544.26
671.57	540.76
671.91	537.17
672.25	533.67
672.58	530.14
672.92	526.76
673.26	523.66
673.60	520.51
673.94	517.42
674.28	514.58
674.62	511.64
674.96	508.54
675.30	505.62
675.64	502.65
675.97	499.87
676.31	496.99
676.65	494.01
676.99	491.27
677.33	488.42
677.67	485.59
678.01	482.55
678.34	479.60
678.68	476.72
679.02	473.94
679.36	471.25
679.70	468.56
680.04	465.80
680.37	462.87
680.71	460.11
681.05	457.46
681.39	454.76
681.73	452.09
682.06	449.54
682.40	447.00
682.74	444.52
683.08	441.95
683.42	439.38
683.75	436.89
684.09	434.33
684.43	431.89
684.77	429.52
685.10	427.16
685.44	424.85
685.78	422.57
686.12	420.40
686.45	418.15
686.79	415.86
687.13	413.68
687.46	411.56
687.80	409.36
688.14	407.18
688.48	405.10
688.81	402.83
689.15	400.72
689.49	398.55
689.82	396.49
690.16	394.42
690.50	392.49
690.83	390.53
691.17	388.58
691.51	386.64
691.84	384.79
692.18	382.89
692.52	380.93
692.85	379.03
693.19	377.15
693.52	375.27
693.86	373.48
694.20	371.73
694.53	369.95
694.87	368.13
695.21	366.37
695.54	364.57
695.88	362.91
696.21	361.19
696.55	359.53
696.88	357.86
697.22	356.24
697.56	354.64
697.89	353.01
698.23	351.44
698.56	349.86
698.90	348.24
699.23	346.55
699.57	345.01
699.90	343.49
700.24	341.91
700.58	340.40
700.91	338.89
701.25	337.40
701.58	336.05
701.92	334.72
702.25	333.31
702.59	331.94
702.92	330.56
703.26	329.24
703.59	327.97
703.93	326.75
704.26	325.54
704.60	324.23
704.93	322.96
705.26	321.72
705.60	320.53
705.93	319.34
706.27	318.32
706.60	317.26
706.94	316.17
707.27	315.03
707.61	313.94
707.94	312.92
708.27	311.81
708.61	310.72
708.94	309.66
709.28	308.69
709.61	307.68
709.94	306.75
710.28	305.73
710.61	304.72
710.95	303.60
711.28	302.63
711.61	301.67
711.95	300.78
712.28	299.78
712.61	298.80
712.95	297.87
713.28	297.02
713.61	296.10
713.95	295.19
714.28	294.37
714.61	293.49
714.95	292.59
715.28	291.75
715.61	290.85
715.95	290.03
716.28	289.14
716.61	288.34
716.95	287.54
717.28	286.79
717.61	286.02
717.94	285.30
718.28	284.52
718.61	283.81
718.94	283.11
719.27	282.48
719.61	281.84
719.94	281.25
720.27	280.52
720.60	279.91
720.94	279.32
721.27	278.72
721.60	278.17
721.93	277.60
722.27	277.06
722.60	276.54
722.93	275.94
723.26	275.45
723.59	274.88
723.93	274.30
724.26	273.77
724.59	273.27
724.92	272.75
725.25	272.27
725.59	271.74
725.92	271.24
726.25	270.75
726.58	270.23
726.91	269.73
727.24	269.28
727.57	268.78
727.91	268.29
728.24	267.87
728.57	267.41
728.90	267.00
729.23	266.52
729.56	266.11
729.89	265.66
730.22	265.18
730.55	264.75
730.89	264.34
731.22	263.92
731.55	263.49
731.88	263.07
732.21	262.65
732.54	262.24
732.87	261.81
733.20	261.42
733.53	261.04
733.86	260.64
734.19	260.24
734.52	259.85
734.85	259.54
735.18	259.09
735.51	258.72
735.84	258.34
736.17	257.99
736.50	257.57
736.83	257.35
737.16	257.02
737.49	256.67
737.82	256.33
738.15	256.00
738.48	255.66
738.81	255.34
739.14	255.01
739.47	254.69
739.80	254.38
740.13	254.06
740.46	253.72
740.79	253.39
741.12	253.06
741.45	252.75
741.78	252.38
742.11	252.11
742.44	251.78
742.77	251.48
743.10	251.18
743.43	250.87
743.75	250.51
744.08	250.34
744.41	250.07
744.74	249.77
745.07	249.46
745.40	249.20
745.73	248.97
746.06	248.69
746.39	248.41
746.71	248.13
747.04	247.86
747.37	247.63
747.70	247.39
748.03	247.12
748.36	246.89
748.68	246.67
749.01	246.40
749.34	246.15
749.67	245.94
750.00	245.72
750.33	245.56
750.65	245.31
750.98	244.96
751.31	244.74
751.64	244.55
751.97	244.41
752.29	244.15
752.62	243.89
752.95	243.71
753.28	243.51
753.60	243.29
753.93	243.10
754.26	242.88
754.59	242.66
754.91	242.47
755.24	242.30
755.57	242.08
755.90	241.91
756.22	241.75
756.55	241.54
756.88	241.37
757.20	241.15
757.53	240.98
757.86	240.78
758.19	240.63
758.51	240.46
758.84	240.24
759.17	240.12
759.49	239.99
759.82	239.85
760.15	239.71
760.47	239.58
760.80	239.42
761.13	239.31
761.45	239.12
761.78	239.01
762.11	238.85
762.43	238.73
762.76	238.58
763.08	238.46
763.41	238.31
763.74	238.13
764.06	237.98
764.39	237.85
764.71	237.75
765.04	237.61
765.37	237.49
765.69	237.36
766.02	237.20
766.34	237.06
766.67	236.90
767.00	236.80
767.32	236.74
767.65	236.68
767.97	236.58
768.30	236.50
768.62	236.39
768.95	236.28
769.27	236.14
769.60	236.06
769.92	235.92
770.25	235.86
770.57	235.77
770.90	235.68
771.22	235.53
771.55	235.45
771.87	235.36
772.20	235.25
772.52	235.27
772.85	235.32
773.17	235.23
773.50	235.14
773.82	235.04
774.15	234.91
774.47	234.79
774.80	234.64
775.12	234.55
775.45	234.45
775.77	234.37
776.09	234.30
776.42	234.19
776.74	234.16
777.07	234.04
777.39	233.96
777.72	233.89
778.04	233.87
778.36	233.76
778.69	233.71
779.01	233.63
779.33	233.43
779.66	233.27
779.98	233.20
780.31	233.14
780.63	233.10
780.95	233.06
781.28	232.97
781.60	232.94
781.92	232.89
782.25	232.82
782.57	232.76
782.89	232.70
783.22	232.66
783.54	232.56
783.86	232.49
784.19	232.44
784.51	232.41
784.83	232.34
785.16	232.30
785.48	232.24
785.80	232.18
786.12	232.18
786.45	232.15
786.77	232.12
787.09	232.06
