SpectraSuite Data File
++++++++++++++++++++++++++++++++++++
Date: Fri Feb 01 16:17:47 EST 2013
User: group
Dark Spectrum Present: No
Reference Spectrum Present: No
Number of Sampled Component Spectra: 1
Spectrometers: USB2E7196
Integration Time (usec): 35000 (USB2E7196)
Spectra Averaged: 100 (USB2E7196)
Boxcar Smoothing: 10 (USB2E7196)
Correct for Electrical Dark: No (USB2E7196)
Strobe/Lamp Enabled: No (USB2E7196)
Correct for Detector Non-linearity: No (USB2E7196)
Correct for Stray Light: No (USB2E7196)
Number of Pixels in Processed Spectrum: 2048
>>>>>Begin Processed Spectral Data<<<<<
339.09	0.00
339.48	214.15
339.86	215.02
340.24	217.22
340.63	218.27
341.01	221.48
341.39	220.65
341.78	222.26
342.16	223.02
342.54	224.67
342.93	212.55
343.31	223.28
343.69	223.81
344.07	224.30
344.46	224.70
344.84	225.08
345.22	225.31
345.60	225.60
345.99	225.78
346.37	225.95
346.75	226.04
347.13	226.11
347.52	226.14
347.90	226.22
348.28	226.27
348.66	226.30
349.05	226.28
349.43	226.28
349.81	226.33
350.19	226.38
350.57	226.45
350.96	226.56
351.34	226.64
351.72	226.75
352.10	226.84
352.48	226.93
352.87	226.97
353.25	227.04
353.63	227.07
354.01	227.15
354.39	227.22
354.77	227.29
355.15	227.42
355.54	227.50
355.92	227.51
356.30	227.58
356.68	227.74
357.06	227.80
357.44	227.86
357.82	227.92
358.20	227.98
358.58	228.04
358.97	228.11
359.35	228.20
359.73	228.27
360.11	228.34
360.49	228.40
360.87	228.47
361.25	228.51
361.63	228.60
362.01	228.66
362.39	228.69
362.77	228.73
363.15	228.75
363.53	228.77
363.91	228.81
364.29	228.81
364.67	228.72
365.05	228.78
365.43	228.82
365.81	228.83
366.19	228.86
366.57	228.85
366.95	228.83
367.33	228.77
367.71	228.74
368.09	228.70
368.47	228.70
368.85	228.67
369.23	228.64
369.61	228.59
369.99	228.59
370.37	228.59
370.75	228.63
371.13	228.56
371.51	228.51
371.89	228.46
372.27	228.45
372.65	228.42
373.03	228.32
373.41	228.24
373.78	228.19
374.16	228.09
374.54	228.01
374.92	227.95
375.30	227.91
375.68	227.86
376.06	227.82
376.44	227.73
376.82	227.68
377.19	227.62
377.57	227.54
377.95	227.41
378.33	227.31
378.71	227.13
379.09	227.07
379.47	227.00
379.84	226.93
380.22	226.84
380.60	226.73
380.98	226.68
381.36	226.62
381.73	226.53
382.11	226.48
382.49	226.44
382.87	226.34
383.25	226.29
383.62	226.31
384.00	226.21
384.38	226.16
384.76	226.12
385.13	226.08
385.51	226.04
385.89	226.00
386.27	225.95
386.64	225.95
387.02	225.91
387.40	225.86
387.78	225.82
388.15	225.80
388.53	225.79
388.91	225.76
389.29	225.72
389.66	225.70
390.04	225.64
390.42	225.63
390.79	225.64
391.17	225.58
391.55	225.47
391.92	225.47
392.30	225.50
392.68	225.48
393.05	225.51
393.43	225.52
393.81	225.54
394.18	225.55
394.56	225.59
394.94	225.62
395.31	225.62
395.69	225.71
396.06	225.73
396.44	225.74
396.82	225.78
397.19	225.89
397.57	225.95
397.95	226.05
398.32	226.04
398.70	226.12
399.07	226.23
399.45	226.35
399.82	226.44
400.20	226.47
400.58	226.54
400.95	226.58
401.33	226.69
401.70	226.84
402.08	226.92
402.45	226.99
402.83	227.09
403.20	227.21
403.58	227.30
403.95	227.43
404.33	227.59
404.71	227.73
405.08	227.89
405.46	228.01
405.83	228.15
406.21	228.32
406.58	228.46
406.96	228.59
407.33	228.72
407.70	228.89
408.08	229.14
408.45	229.36
408.83	229.60
409.20	229.81
409.58	229.96
409.95	230.21
410.33	230.47
410.70	230.71
411.08	231.02
411.45	231.29
411.82	231.63
412.20	231.93
412.57	232.32
412.95	232.60
413.32	233.00
413.69	233.38
414.07	233.85
414.44	234.29
414.82	234.79
415.19	235.33
415.56	235.89
415.94	236.44
416.31	237.07
416.68	237.65
417.06	238.35
417.43	239.04
417.81	239.83
418.18	240.60
418.55	241.44
418.93	242.30
419.30	243.19
419.67	244.08
420.04	245.03
420.42	246.03
420.79	247.21
421.16	248.37
421.54	249.57
421.91	250.76
422.28	252.00
422.66	253.32
423.03	254.61
423.40	255.90
423.77	257.30
424.15	258.74
424.52	260.23
424.89	261.85
425.26	263.40
425.64	264.79
426.01	266.37
426.38	268.00
426.75	269.68
427.13	271.40
427.50	273.21
427.87	275.10
428.24	276.95
428.61	278.70
428.99	280.65
429.36	282.76
429.73	284.82
430.10	286.88
430.47	288.95
430.85	291.05
431.22	293.34
431.59	295.75
431.96	297.97
432.33	300.49
432.70	302.84
433.08	305.66
433.45	308.35
433.82	310.97
434.19	313.87
434.56	316.67
434.93	319.32
435.30	321.95
435.68	324.82
436.05	327.67
436.42	330.45
436.79	332.96
437.16	335.60
437.53	338.42
437.90	341.18
438.27	343.88
438.64	346.69
439.01	349.23
439.38	351.41
439.75	353.62
440.13	356.10
440.50	358.43
440.87	360.23
441.24	362.16
441.61	364.30
441.98	365.75
442.35	367.55
442.72	369.43
443.09	371.21
443.46	372.17
443.83	372.73
444.20	373.18
444.57	374.03
444.94	374.32
445.31	374.66
445.68	375.00
446.05	375.09
446.42	374.73
446.79	374.33
447.16	373.90
447.53	373.55
447.90	372.36
448.27	371.20
448.64	369.64
449.01	368.46
449.37	366.54
449.74	364.64
450.11	362.37
450.48	359.92
450.85	357.43
451.22	355.35
451.59	353.34
451.96	351.44
452.33	348.79
452.70	346.47
453.07	343.64
453.43	340.79
453.80	338.02
454.17	335.32
454.54	332.78
454.91	330.03
455.28	327.33
455.65	324.85
456.02	322.40
456.38	320.25
456.75	317.64
457.12	315.35
457.49	313.16
457.86	311.00
458.23	309.09
458.59	307.02
458.96	304.92
459.33	303.05
459.70	301.22
460.07	299.71
460.43	297.99
460.80	296.43
461.17	295.01
461.54	293.50
461.91	292.08
462.27	290.65
462.64	289.39
463.01	288.06
463.38	286.80
463.74	285.45
464.11	284.32
464.48	283.28
464.85	282.17
465.21	281.31
465.58	280.43
465.95	279.34
466.32	278.42
466.68	277.52
467.05	276.64
467.42	275.72
467.78	274.80
468.15	273.93
468.52	273.24
468.88	272.37
469.25	271.63
469.62	271.07
469.98	270.38
470.35	269.77
470.72	269.16
471.08	268.49
471.45	267.94
471.82	267.41
472.18	266.79
472.55	266.36
472.92	265.85
473.28	265.38
473.65	264.93
474.02	264.53
474.38	264.17
474.75	263.87
475.11	263.54
475.48	263.31
475.85	263.07
476.21	262.83
476.58	262.64
476.94	262.48
477.31	262.29
477.67	262.18
478.04	262.10
478.41	262.07
478.77	262.12
479.14	262.06
479.50	262.06
479.87	262.16
480.23	262.27
480.60	262.36
480.96	262.43
481.33	262.65
481.69	262.85
482.06	263.04
482.42	263.24
482.79	263.50
483.15	263.81
483.52	264.20
483.88	264.61
484.25	265.03
484.61	265.47
484.98	265.96
485.34	266.54
485.71	267.12
486.07	267.73
486.44	268.28
486.80	269.00
487.17	269.75
487.53	270.56
487.90	271.40
488.26	272.37
488.62	273.40
488.99	274.40
489.35	275.44
489.72	276.61
490.08	277.80
490.44	279.07
490.81	280.39
491.17	281.77
491.54	283.21
491.90	284.76
492.26	286.43
492.63	288.16
492.99	289.95
493.36	291.86
493.72	293.91
494.08	296.02
494.45	298.29
494.81	300.67
495.17	303.11
495.54	305.68
495.90	308.37
496.26	311.13
496.63	314.09
496.99	317.21
497.35	320.43
497.72	323.91
498.08	327.46
498.44	331.15
498.80	335.10
499.17	339.15
499.53	343.29
499.89	347.63
500.26	352.13
500.62	356.79
500.98	361.76
501.34	366.80
501.71	372.17
502.07	377.61
502.43	383.21
502.79	389.05
503.16	395.16
503.52	401.47
503.88	407.91
504.24	414.56
504.60	421.43
504.97	428.63
505.33	435.89
505.69	443.57
506.05	451.44
506.41	459.32
506.78	467.51
507.14	476.00
507.50	484.76
507.86	493.78
508.22	503.02
508.59	512.21
508.95	521.83
509.31	531.59
509.67	541.63
510.03	551.94
510.39	562.50
510.75	573.28
511.12	584.18
511.48	595.51
511.84	606.94
512.20	618.54
512.56	630.40
512.92	642.57
513.28	654.94
513.64	667.38
514.00	680.11
514.37	693.05
514.73	706.12
515.09	719.12
515.45	732.46
515.81	746.00
516.17	760.08
516.53	774.18
516.89	788.37
517.25	802.57
517.61	816.99
517.97	831.46
518.33	845.89
518.69	860.60
519.05	875.57
519.41	890.71
519.77	906.16
520.13	921.63
520.49	937.04
520.85	952.39
521.21	967.95
521.57	984.07
521.93	999.81
522.29	1016.18
522.65	1032.49
523.01	1048.62
523.37	1064.66
523.73	1080.77
524.09	1096.84
524.45	1113.13
524.81	1129.72
525.17	1146.49
525.53	1163.30
525.89	1180.08
526.25	1196.97
526.61	1213.33
526.97	1230.05
527.33	1246.53
527.68	1263.01
528.04	1279.49
528.40	1296.05
528.76	1313.13
529.12	1329.77
529.48	1346.47
529.84	1362.47
530.20	1379.04
530.56	1395.90
530.91	1413.17
531.27	1429.85
531.63	1446.26
531.99	1462.87
532.35	1478.86
532.71	1494.65
533.07	1510.93
533.42	1526.82
533.78	1542.69
534.14	1558.87
534.50	1574.13
534.86	1589.99
535.21	1605.13
535.57	1620.96
535.93	1636.50
536.29	1651.22
536.65	1666.18
537.00	1680.94
537.36	1696.27
537.72	1710.65
538.08	1725.17
538.44	1738.87
538.79	1752.68
539.15	1766.31
539.51	1779.91
539.87	1794.35
540.22	1808.02
540.58	1821.71
540.94	1835.01
541.29	1847.80
541.65	1860.55
542.01	1873.74
542.37	1886.02
542.72	1898.55
543.08	1910.25
543.44	1922.46
543.79	1933.70
544.15	1944.69
544.51	1956.32
544.87	1967.01
545.22	1977.76
545.58	1987.76
545.94	1997.52
546.29	2007.41
546.65	2017.25
547.01	2026.41
547.36	2034.85
547.72	2043.27
548.07	2051.08
548.43	2059.11
548.79	2067.31
549.14	2074.55
549.50	2081.85
549.86	2089.43
550.21	2096.55
550.57	2103.78
550.92	2110.32
551.28	2117.23
551.64	2124.21
551.99	2130.71
552.35	2136.91
552.70	2143.20
553.06	2149.41
553.41	2155.93
553.77	2161.85
554.13	2167.85
554.48	2174.10
554.84	2179.59
555.19	2184.96
555.55	2190.05
555.90	2194.55
556.26	2199.38
556.61	2204.24
556.97	2208.57
557.32	2212.59
557.68	2216.72
558.03	2220.99
558.39	2224.74
558.74	2229.45
559.10	2233.31
559.45	2236.97
559.81	2241.13
560.16	2244.92
560.52	2247.99
560.87	2251.12
561.23	2253.90
561.58	2256.86
561.94	2259.20
562.29	2261.64
562.64	2264.27
563.00	2266.81
563.35	2270.26
563.71	2273.27
564.06	2276.49
564.42	2279.29
564.77	2282.08
565.12	2284.38
565.48	2286.31
565.83	2288.18
566.19	2289.49
566.54	2290.28
566.89	2291.36
567.25	2292.08
567.60	2293.35
567.96	2295.23
568.31	2296.24
568.66	2297.21
569.02	2297.83
569.37	2298.30
569.72	2299.09
570.08	2299.28
570.43	2299.42
570.78	2298.83
571.14	2297.40
571.49	2296.11
571.84	2295.91
572.20	2294.75
572.55	2293.79
572.90	2292.24
573.26	2290.88
573.61	2289.32
573.96	2287.87
574.31	2284.94
574.67	2282.04
575.02	2278.53
575.37	2275.04
575.72	2271.32
576.08	2268.10
576.43	2264.82
576.78	2261.24
577.13	2258.21
577.49	2255.18
577.84	2251.75
578.19	2248.23
578.54	2244.80
578.90	2240.61
579.25	2235.05
579.60	2230.12
579.95	2225.16
580.30	2220.19
580.66	2215.02
581.01	2210.13
581.36	2205.19
581.71	2201.28
582.06	2196.97
582.42	2192.54
582.77	2187.58
583.12	2183.01
583.47	2178.37
583.82	2173.47
584.17	2168.28
584.53	2162.93
584.88	2157.30
585.23	2151.71
585.58	2146.28
585.93	2140.72
586.28	2136.14
586.63	2131.13
586.98	2126.12
587.34	2121.43
587.69	2116.68
588.04	2111.45
588.39	2105.75
588.74	2099.29
589.09	2093.04
589.44	2086.18
589.79	2080.06
590.14	2074.44
590.49	2068.01
590.84	2061.60
591.19	2055.54
591.54	2049.00
591.89	2041.54
592.25	2034.88
592.60	2027.60
592.95	2020.04
593.30	2012.72
593.65	2004.98
594.00	1998.00
594.35	1990.76
594.70	1982.71
595.05	1975.35
595.40	1968.19
595.75	1960.76
596.10	1954.62
596.45	1947.87
596.80	1941.75
597.15	1935.20
597.50	1927.99
597.85	1921.43
598.19	1914.90
598.54	1907.83
598.89	1901.29
599.24	1895.40
599.59	1888.75
599.94	1882.48
600.29	1876.15
600.64	1869.52
600.99	1862.18
601.34	1855.34
601.69	1848.28
602.04	1841.54
602.39	1834.34
602.74	1827.56
603.08	1820.84
603.43	1814.15
603.78	1806.93
604.13	1799.81
604.48	1792.62
604.83	1785.72
605.18	1778.80
605.53	1770.66
605.87	1762.71
606.22	1755.45
606.57	1747.48
606.92	1740.18
607.27	1733.09
607.62	1726.22
607.96	1719.13
608.31	1712.51
608.66	1704.81
609.01	1697.36
609.36	1689.65
609.70	1681.58
610.05	1673.57
610.40	1665.80
610.75	1657.43
611.10	1649.63
611.44	1641.05
611.79	1632.98
612.14	1624.36
612.49	1615.18
612.83	1606.75
613.18	1598.57
613.53	1590.51
613.88	1581.97
614.22	1573.55
614.57	1564.82
614.92	1556.76
615.27	1549.09
615.61	1540.67
615.96	1532.77
616.31	1525.08
616.65	1517.83
617.00	1510.24
617.35	1502.44
617.70	1494.06
618.04	1485.50
618.39	1477.31
618.74	1469.81
619.08	1461.44
619.43	1453.87
619.78	1446.92
620.12	1439.93
620.47	1432.50
620.82	1424.15
621.16	1416.81
621.51	1409.28
621.85	1401.74
622.20	1393.30
622.55	1384.86
622.89	1377.09
623.24	1369.32
623.59	1361.95
623.93	1354.32
624.28	1347.16
624.62	1339.70
624.97	1332.59
625.32	1325.86
625.66	1318.90
626.01	1311.77
626.35	1304.35
626.70	1296.65
627.04	1288.96
627.39	1281.15
627.73	1273.69
628.08	1266.94
628.43	1259.56
628.77	1252.12
629.12	1244.57
629.46	1237.23
629.81	1229.91
630.15	1222.69
630.50	1215.31
630.84	1207.10
631.19	1199.15
631.53	1191.59
631.88	1184.03
632.22	1176.39
632.57	1169.08
632.91	1161.49
633.26	1154.01
633.60	1146.63
633.95	1139.43
634.29	1132.39
634.64	1125.72
634.98	1118.32
635.32	1111.10
635.67	1104.59
636.01	1097.94
636.36	1091.18
636.70	1084.69
637.05	1078.12
637.39	1071.57
637.73	1065.09
638.08	1059.18
638.42	1053.29
638.77	1046.85
639.11	1040.26
639.45	1033.86
639.80	1027.15
640.14	1020.78
640.49	1014.23
640.83	1007.90
641.17	1001.59
641.52	995.16
641.86	988.69
642.20	982.79
642.55	976.43
642.89	969.85
643.23	963.31
643.58	957.47
643.92	951.24
644.26	945.09
644.61	939.01
644.95	933.03
645.29	926.37
645.64	919.52
645.98	913.12
646.32	907.25
646.66	901.18
647.01	895.40
647.35	889.57
647.69	883.69
648.04	878.20
648.38	872.48
648.72	866.55
649.06	860.45
649.41	854.57
649.75	848.64
650.09	842.72
650.43	836.92
650.78	830.76
651.12	824.84
651.46	819.08
651.80	813.41
652.14	807.96
652.49	802.58
652.83	797.38
653.17	791.61
653.51	785.86
653.85	780.49
654.20	774.81
654.54	768.89
654.88	763.15
655.22	757.25
655.56	751.49
655.90	745.98
656.25	740.72
656.59	735.32
656.93	730.25
657.27	725.04
657.61	719.59
657.95	714.45
658.29	709.30
658.64	704.06
658.98	698.81
659.32	693.32
659.66	688.16
660.00	682.90
660.34	678.05
660.68	673.09
661.02	668.03
661.36	663.31
661.70	658.77
662.05	654.47
662.39	650.19
662.73	645.74
663.07	641.40
663.41	636.96
663.75	632.47
664.09	627.83
664.43	623.46
664.77	619.34
665.11	615.10
665.45	611.05
665.79	607.03
666.13	602.81
666.47	598.73
666.81	594.57
667.15	590.45
667.49	586.56
667.83	582.80
668.17	578.90
668.51	574.83
668.85	570.81
669.19	566.91
669.53	563.02
669.87	559.14
670.21	555.44
670.55	551.79
670.89	548.41
671.23	545.03
671.57	541.53
671.91	537.98
672.25	534.50
672.58	530.90
672.92	527.44
673.26	524.27
673.60	521.03
673.94	517.92
674.28	514.96
674.62	511.98
674.96	508.85
675.30	505.91
675.64	502.96
675.97	500.16
676.31	497.26
676.65	494.28
676.99	491.53
677.33	488.61
677.67	485.80
678.01	482.76
678.34	479.75
678.68	476.90
679.02	474.09
679.36	471.29
679.70	468.64
680.04	465.88
680.37	463.00
680.71	460.26
681.05	457.64
681.39	454.95
681.73	452.28
682.06	449.73
682.40	447.15
682.74	444.60
683.08	442.03
683.42	439.45
683.75	436.95
684.09	434.40
684.43	431.93
684.77	429.45
685.10	427.08
685.44	424.76
685.78	422.43
686.12	420.20
686.45	417.95
686.79	415.60
687.13	413.37
687.46	411.21
687.80	409.06
688.14	406.86
688.48	404.75
688.81	402.49
689.15	400.30
689.49	398.14
689.82	396.09
690.16	393.99
690.50	392.00
690.83	390.06
691.17	388.07
691.51	386.17
691.84	384.27
692.18	382.34
692.52	380.32
692.85	378.35
693.19	376.44
693.52	374.58
693.86	372.76
694.20	371.00
694.53	369.18
694.87	367.32
695.21	365.52
695.54	363.74
695.88	362.03
696.21	360.30
696.55	358.60
696.88	356.88
697.22	355.24
697.56	353.65
697.89	352.00
698.23	350.43
698.56	348.83
698.90	347.27
699.23	345.61
699.57	344.08
699.90	342.56
700.24	341.01
700.58	339.48
700.91	338.02
701.25	336.55
701.58	335.15
701.92	333.78
702.25	332.40
702.59	331.07
702.92	329.74
703.26	328.44
703.59	327.19
703.93	326.00
704.26	324.78
704.60	323.46
704.93	322.20
705.26	320.95
705.60	319.76
705.93	318.59
706.27	317.54
706.60	316.48
706.94	315.37
707.27	314.27
707.61	313.20
707.94	312.19
708.27	311.08
708.61	310.03
708.94	309.04
709.28	308.06
709.61	307.06
709.94	306.11
710.28	305.05
710.61	304.04
710.95	302.97
711.28	302.04
711.61	301.10
711.95	300.17
712.28	299.24
712.61	298.28
712.95	297.39
713.28	296.54
713.61	295.62
713.95	294.76
714.28	293.91
714.61	293.07
714.95	292.21
715.28	291.40
715.61	290.55
715.95	289.69
716.28	288.82
716.61	287.97
716.95	287.14
717.28	286.46
717.61	285.70
717.94	284.96
718.28	284.16
718.61	283.45
718.94	282.75
719.27	282.06
719.61	281.43
719.94	280.72
720.27	280.00
720.60	279.39
720.94	278.76
721.27	278.16
721.60	277.56
721.93	276.96
722.27	276.36
722.60	275.76
722.93	275.18
723.26	274.66
723.59	274.11
723.93	273.56
724.26	272.97
724.59	272.41
724.92	271.92
725.25	271.43
725.59	270.90
725.92	270.42
726.25	269.93
726.58	269.41
726.91	268.91
727.24	268.43
727.57	267.93
727.91	267.44
728.24	266.97
728.57	266.46
728.90	265.99
729.23	265.51
729.56	265.08
729.89	264.59
730.22	264.08
730.55	263.60
730.89	263.17
731.22	262.75
731.55	262.33
731.88	261.89
732.21	261.44
732.54	260.99
732.87	260.55
733.20	260.11
733.53	259.69
733.86	259.33
734.19	258.91
734.52	258.52
734.85	258.17
735.18	257.71
735.51	257.33
735.84	256.98
736.17	256.65
736.50	256.29
736.83	256.11
737.16	255.79
737.49	255.46
737.82	255.10
738.15	254.78
738.48	254.44
738.81	254.12
739.14	253.78
739.47	253.46
739.80	253.14
740.13	252.83
740.46	252.53
740.79	252.22
741.12	251.91
741.45	251.61
741.78	251.30
742.11	251.08
742.44	250.75
742.77	250.47
743.10	250.14
743.43	249.84
743.75	249.46
744.08	249.32
744.41	249.06
744.74	248.79
745.07	248.51
745.40	248.27
745.73	248.06
746.06	247.81
746.39	247.54
746.71	247.30
747.04	247.06
747.37	246.82
747.70	246.56
748.03	246.30
748.36	246.10
748.68	245.84
749.01	245.59
749.34	245.38
749.67	245.14
750.00	244.94
750.33	244.79
750.65	244.56
750.98	244.22
751.31	243.96
751.64	243.75
751.97	243.60
752.29	243.41
752.62	243.14
752.95	242.90
753.28	242.71
753.60	242.48
753.93	242.32
754.26	242.11
754.59	241.92
754.91	241.74
755.24	241.49
755.57	241.29
755.90	241.11
756.22	240.96
756.55	240.73
756.88	240.51
757.20	240.26
757.53	240.06
757.86	239.89
758.19	239.76
758.51	239.61
758.84	239.36
759.17	239.16
759.49	239.03
759.82	238.95
760.15	238.83
760.47	238.70
760.80	238.49
761.13	238.33
761.45	238.13
761.78	238.00
762.11	237.90
762.43	237.77
762.76	237.59
763.08	237.43
763.41	237.33
763.74	237.26
764.06	237.09
764.39	236.96
764.71	236.83
765.04	236.67
765.37	236.53
765.69	236.42
766.02	236.31
766.34	236.14
766.67	235.98
767.00	235.85
767.32	235.74
767.65	235.71
767.97	235.61
768.30	235.56
768.62	235.41
768.95	235.27
769.27	235.13
769.60	235.05
769.92	234.92
770.25	234.83
770.57	234.68
770.90	234.61
771.22	234.53
771.55	234.42
771.87	234.34
772.20	234.20
772.52	234.15
772.85	234.16
773.17	234.07
773.50	233.98
773.82	233.88
774.15	233.74
774.47	233.61
774.80	233.52
775.12	233.38
775.45	233.31
775.77	233.23
776.09	233.17
776.42	233.10
776.74	233.08
777.07	232.96
777.39	232.85
777.72	232.74
778.04	232.66
778.36	232.59
778.69	232.52
779.01	232.47
779.33	232.32
779.66	232.14
779.98	232.08
780.31	232.02
780.63	231.99
780.95	231.94
781.28	231.86
781.60	231.78
781.92	231.72
782.25	231.65
782.57	231.62
782.89	231.53
783.22	231.47
783.54	231.37
783.86	231.35
784.19	231.28
784.51	231.27
784.83	231.20
785.16	231.13
785.48	231.10
785.80	231.05
786.12	231.02
786.45	230.99
786.77	230.95
787.09	230.88
