SpectraSuite Data File
++++++++++++++++++++++++++++++++++++
Date: Fri Feb 01 16:33:17 EST 2013
User: group
Dark Spectrum Present: No
Reference Spectrum Present: No
Number of Sampled Component Spectra: 1
Spectrometers: USB2E7196
Integration Time (usec): 35000 (USB2E7196)
Spectra Averaged: 100 (USB2E7196)
Boxcar Smoothing: 10 (USB2E7196)
Correct for Electrical Dark: No (USB2E7196)
Strobe/Lamp Enabled: No (USB2E7196)
Correct for Detector Non-linearity: No (USB2E7196)
Correct for Stray Light: No (USB2E7196)
Number of Pixels in Processed Spectrum: 2048
>>>>>Begin Processed Spectral Data<<<<<
339.09	0.00
339.48	213.87
339.86	215.26
340.24	217.70
340.63	218.54
341.01	221.55
341.39	220.82
341.78	222.63
342.16	223.75
342.54	223.98
342.93	212.52
343.31	223.26
343.69	223.84
344.07	224.29
344.46	224.70
344.84	225.08
345.22	225.28
345.60	225.53
345.99	225.69
346.37	225.79
346.75	225.90
347.13	225.95
347.52	226.01
347.90	226.07
348.28	226.09
348.66	226.13
349.05	226.12
349.43	226.17
349.81	226.22
350.19	226.26
350.57	226.31
350.96	226.39
351.34	226.46
351.72	226.51
352.10	226.64
352.48	226.70
352.87	226.75
353.25	226.84
353.63	226.91
354.01	227.02
354.39	227.11
354.77	227.20
355.15	227.33
355.54	227.39
355.92	227.40
356.30	227.46
356.68	227.59
357.06	227.66
357.44	227.71
357.82	227.78
358.20	227.85
358.58	227.93
358.97	227.97
359.35	228.06
359.73	228.10
360.11	228.15
360.49	228.18
360.87	228.24
361.25	228.31
361.63	228.36
362.01	228.38
362.39	228.41
362.77	228.42
363.15	228.41
363.53	228.41
363.91	228.47
364.29	228.47
364.67	228.39
365.05	228.37
365.43	228.41
365.81	228.41
366.19	228.47
366.57	228.52
366.95	228.54
367.33	228.49
367.71	228.51
368.09	228.53
368.47	228.56
368.85	228.54
369.23	228.55
369.61	228.48
369.99	228.47
370.37	228.44
370.75	228.46
371.13	228.41
371.51	228.37
371.89	228.35
372.27	228.32
372.65	228.31
373.03	228.28
373.41	228.23
373.78	228.18
374.16	228.09
374.54	227.95
374.92	227.87
375.30	227.81
375.68	227.73
376.06	227.63
376.44	227.53
376.82	227.44
377.19	227.35
377.57	227.32
377.95	227.23
378.33	227.17
378.71	227.05
379.09	227.01
379.47	226.96
379.84	226.89
380.22	226.81
380.60	226.72
380.98	226.61
381.36	226.54
381.73	226.45
382.11	226.42
382.49	226.38
382.87	226.30
383.25	226.28
383.62	226.32
384.00	226.28
384.38	226.21
384.76	226.18
385.13	226.14
385.51	226.08
385.89	226.04
386.27	225.98
386.64	225.94
387.02	225.88
387.40	225.82
387.78	225.77
388.15	225.75
388.53	225.73
388.91	225.74
389.29	225.68
389.66	225.70
390.04	225.68
390.42	225.66
390.79	225.65
391.17	225.63
391.55	225.52
391.92	225.52
392.30	225.52
392.68	225.49
393.05	225.50
393.43	225.52
393.81	225.50
394.18	225.52
394.56	225.53
394.94	225.57
395.31	225.58
395.69	225.61
396.06	225.66
396.44	225.66
396.82	225.69
397.19	225.82
397.57	225.83
397.95	225.83
398.32	225.82
398.70	225.93
399.07	225.99
399.45	226.01
399.82	226.06
400.20	226.14
400.58	226.22
400.95	226.23
401.33	226.31
401.70	226.47
402.08	226.57
402.45	226.67
402.83	226.81
403.20	226.93
403.58	227.03
403.95	227.14
404.33	227.28
404.71	227.41
405.08	227.56
405.46	227.69
405.83	227.86
406.21	228.00
406.58	228.14
406.96	228.29
407.33	228.49
407.70	228.69
408.08	228.96
408.45	229.17
408.83	229.43
409.20	229.63
409.58	229.78
409.95	230.05
410.33	230.33
410.70	230.54
411.08	230.83
411.45	231.11
411.82	231.45
412.20	231.80
412.57	232.18
412.95	232.50
413.32	232.91
413.69	233.31
414.07	233.78
414.44	234.26
414.82	234.75
415.19	235.27
415.56	235.83
415.94	236.33
416.31	236.94
416.68	237.53
417.06	238.24
417.43	238.95
417.81	239.69
418.18	240.46
418.55	241.32
418.93	242.18
419.30	243.12
419.67	244.01
420.04	244.97
420.42	245.97
420.79	247.09
421.16	248.24
421.54	249.43
421.91	250.63
422.28	251.85
422.66	253.18
423.03	254.52
423.40	255.82
423.77	257.21
424.15	258.65
424.52	260.18
424.89	261.79
425.26	263.30
425.64	264.75
426.01	266.32
426.38	267.99
426.75	269.67
427.13	271.35
427.50	273.18
427.87	275.03
428.24	276.88
428.61	278.62
428.99	280.59
429.36	282.67
429.73	284.72
430.10	286.71
430.47	288.74
430.85	290.83
431.22	293.06
431.59	295.47
431.96	297.72
432.33	300.16
432.70	302.49
433.08	305.25
433.45	307.84
433.82	310.42
434.19	313.26
434.56	316.07
434.93	318.70
435.30	321.29
435.68	324.17
436.05	326.97
436.42	329.76
436.79	332.23
437.16	334.93
437.53	337.75
437.90	340.58
438.27	343.32
438.64	346.13
439.01	348.71
439.38	350.94
439.75	353.09
440.13	355.58
440.50	357.91
440.87	359.79
441.24	361.75
441.61	363.90
441.98	365.38
442.35	367.14
442.72	368.99
443.09	370.77
443.46	371.77
443.83	372.37
444.20	372.86
444.57	373.68
444.94	373.92
445.31	374.26
445.68	374.60
446.05	374.65
446.42	374.23
446.79	373.81
447.16	373.33
447.53	372.98
447.90	371.80
448.27	370.65
448.64	369.05
449.01	367.89
449.37	365.94
449.74	364.09
450.11	361.87
450.48	359.41
450.85	356.86
451.22	354.71
451.59	352.72
451.96	350.78
452.33	348.17
452.70	345.83
453.07	342.97
453.43	340.09
453.80	337.34
454.17	334.69
454.54	332.14
454.91	329.43
455.28	326.80
455.65	324.33
456.02	321.94
456.38	319.81
456.75	317.19
457.12	314.95
457.49	312.70
457.86	310.56
458.23	308.72
458.59	306.72
458.96	304.67
459.33	302.78
459.70	300.92
460.07	299.47
460.43	297.77
460.80	296.20
461.17	294.79
461.54	293.29
461.91	291.90
462.27	290.47
462.64	289.24
463.01	287.91
463.38	286.64
463.74	285.28
464.11	284.12
464.48	283.09
464.85	281.97
465.21	281.10
465.58	280.17
465.95	279.09
466.32	278.23
466.68	277.33
467.05	276.49
467.42	275.60
467.78	274.64
468.15	273.79
468.52	273.17
468.88	272.33
469.25	271.60
469.62	271.00
469.98	270.33
470.35	269.71
470.72	269.10
471.08	268.45
471.45	267.93
471.82	267.45
472.18	266.88
472.55	266.48
472.92	265.98
473.28	265.53
473.65	265.13
474.02	264.68
474.38	264.32
474.75	264.00
475.11	263.67
475.48	263.42
475.85	263.21
476.21	262.98
476.58	262.82
476.94	262.68
477.31	262.49
477.67	262.35
478.04	262.28
478.41	262.23
478.77	262.28
479.14	262.19
479.50	262.17
479.87	262.24
480.23	262.32
480.60	262.39
480.96	262.46
481.33	262.63
481.69	262.82
482.06	263.04
482.42	263.21
482.79	263.47
483.15	263.79
483.52	264.17
483.88	264.49
484.25	264.91
484.61	265.31
484.98	265.74
485.34	266.31
485.71	266.88
486.07	267.48
486.44	268.04
486.80	268.74
487.17	269.45
487.53	270.29
487.90	271.14
488.26	272.09
488.62	273.06
488.99	274.07
489.35	275.10
489.72	276.21
490.08	277.46
490.44	278.68
490.81	280.00
491.17	281.34
491.54	282.81
491.90	284.32
492.26	285.99
492.63	287.76
492.99	289.57
493.36	291.48
493.72	293.53
494.08	295.61
494.45	297.88
494.81	300.27
495.17	302.66
495.54	305.22
495.90	307.91
496.26	310.74
496.63	313.69
496.99	316.78
497.35	320.03
497.72	323.45
498.08	327.01
498.44	330.70
498.80	334.64
499.17	338.73
499.53	342.91
499.89	347.27
500.26	351.77
500.62	356.41
500.98	361.38
501.34	366.47
501.71	371.79
502.07	377.30
502.43	382.91
502.79	388.80
503.16	394.87
503.52	401.17
503.88	407.59
504.24	414.25
504.60	421.20
504.97	428.40
505.33	435.71
505.69	443.41
506.05	451.21
506.41	459.16
506.78	467.27
507.14	475.73
507.50	484.44
507.86	493.43
508.22	502.66
508.59	511.93
508.95	521.49
509.31	531.34
509.67	541.38
510.03	551.71
510.39	562.28
510.75	573.12
511.12	584.03
511.48	595.32
511.84	606.78
512.20	618.23
512.56	630.11
512.92	642.25
513.28	654.60
513.64	667.09
514.00	679.68
514.37	692.65
514.73	705.71
515.09	718.83
515.45	732.17
515.81	745.75
516.17	759.64
516.53	773.76
516.89	787.95
517.25	802.05
517.61	816.39
517.97	830.73
518.33	845.12
518.69	859.80
519.05	874.73
519.41	889.83
519.77	905.28
520.13	920.78
520.49	936.09
520.85	951.46
521.21	967.10
521.57	983.33
521.93	999.08
522.29	1015.28
522.65	1031.42
523.01	1047.57
523.37	1063.47
523.73	1079.60
524.09	1095.55
524.45	1111.84
524.81	1128.48
525.17	1145.27
525.53	1162.20
525.89	1178.98
526.25	1195.78
526.61	1212.16
526.97	1228.82
527.33	1245.36
527.68	1261.78
528.04	1278.17
528.40	1294.75
528.76	1311.76
529.12	1328.31
529.48	1345.05
529.84	1361.05
530.20	1377.56
530.56	1394.41
530.91	1411.76
531.27	1428.41
531.63	1444.78
531.99	1461.24
532.35	1477.00
532.71	1492.67
533.07	1508.80
533.42	1524.73
533.78	1540.68
534.14	1556.79
534.50	1571.98
534.86	1587.61
535.21	1602.70
535.57	1618.54
535.93	1633.79
536.29	1648.32
536.65	1663.15
537.00	1677.76
537.36	1692.94
537.72	1707.44
538.08	1721.71
538.44	1735.26
538.79	1748.86
539.15	1762.44
539.51	1775.91
539.87	1790.22
540.22	1803.91
540.58	1817.32
540.94	1830.19
541.29	1842.99
541.65	1855.46
542.01	1868.51
542.37	1880.79
542.72	1893.18
543.08	1904.80
543.44	1917.08
543.79	1928.31
544.15	1939.29
544.51	1950.80
544.87	1961.73
545.22	1972.31
545.58	1982.45
545.94	1992.26
546.29	2002.27
546.65	2012.11
547.01	2021.43
547.36	2030.04
547.72	2038.54
548.07	2046.56
548.43	2054.83
548.79	2062.70
549.14	2070.37
549.50	2077.80
549.86	2085.43
550.21	2092.56
550.57	2099.84
550.92	2106.45
551.28	2113.43
551.64	2120.42
551.99	2126.86
552.35	2132.85
552.70	2139.04
553.06	2145.05
553.41	2151.38
553.77	2157.30
554.13	2163.34
554.48	2169.48
554.84	2175.07
555.19	2180.14
555.55	2185.24
555.90	2189.74
556.26	2194.63
556.61	2199.35
556.97	2203.63
557.32	2207.79
557.68	2211.98
558.03	2216.21
558.39	2219.77
558.74	2224.38
559.10	2228.25
559.45	2231.93
559.81	2236.39
560.16	2240.16
560.52	2243.43
560.87	2246.85
561.23	2249.60
561.58	2252.46
561.94	2254.83
562.29	2257.11
562.64	2259.92
563.00	2262.60
563.35	2266.30
563.71	2269.44
564.06	2272.63
564.42	2275.56
564.77	2278.15
565.12	2280.62
565.48	2282.59
565.83	2284.68
566.19	2286.14
566.54	2287.12
566.89	2288.34
567.25	2288.95
567.60	2290.37
567.96	2292.04
568.31	2292.91
568.66	2294.12
569.02	2294.80
569.37	2295.24
569.72	2296.19
570.08	2296.43
570.43	2296.56
570.78	2295.86
571.14	2294.44
571.49	2293.07
571.84	2292.72
572.20	2291.64
572.55	2290.47
572.90	2288.79
573.26	2287.35
573.61	2285.52
573.96	2283.80
574.31	2280.82
574.67	2277.91
575.02	2274.26
575.37	2270.89
575.72	2267.24
576.08	2263.78
576.43	2260.49
576.78	2256.94
577.13	2253.76
577.49	2250.66
577.84	2247.18
578.19	2243.63
578.54	2240.12
578.90	2236.05
579.25	2230.58
579.60	2225.67
579.95	2220.72
580.30	2215.84
580.66	2210.80
581.01	2205.94
581.36	2201.12
581.71	2197.16
582.06	2192.90
582.42	2188.60
582.77	2183.59
583.12	2179.03
583.47	2174.47
583.82	2169.65
584.17	2164.54
584.53	2159.14
584.88	2153.65
585.23	2147.95
585.58	2142.35
585.93	2136.94
586.28	2132.07
586.63	2126.98
586.98	2122.00
587.34	2117.30
587.69	2112.55
588.04	2107.39
588.39	2101.94
588.74	2095.48
589.09	2089.30
589.44	2082.55
589.79	2076.52
590.14	2070.84
590.49	2064.38
590.84	2057.97
591.19	2051.99
591.54	2045.52
591.89	2038.29
592.25	2031.52
592.60	2024.33
592.95	2016.96
593.30	2009.58
593.65	2002.20
594.00	1995.31
594.35	1988.11
594.70	1980.23
595.05	1973.17
595.40	1965.85
595.75	1958.28
596.10	1952.19
596.45	1945.56
596.80	1939.32
597.15	1932.83
597.50	1925.91
597.85	1919.36
598.19	1912.82
598.54	1905.84
598.89	1899.31
599.24	1893.51
599.59	1886.90
599.94	1880.77
600.29	1874.38
600.64	1867.96
600.99	1860.56
601.34	1853.82
601.69	1846.85
602.04	1840.06
602.39	1832.57
602.74	1825.84
603.08	1819.17
603.43	1812.42
603.78	1805.13
604.13	1798.00
604.48	1790.69
604.83	1783.79
605.18	1777.06
605.53	1769.12
605.87	1761.01
606.22	1753.71
606.57	1745.66
606.92	1738.21
607.27	1730.98
607.62	1724.13
607.96	1716.76
608.31	1710.19
608.66	1702.63
609.01	1695.00
609.36	1687.48
609.70	1679.60
610.05	1671.51
610.40	1663.89
610.75	1655.47
611.10	1647.76
611.44	1639.24
611.79	1631.08
612.14	1622.37
612.49	1613.03
612.83	1604.56
613.18	1596.48
613.53	1588.40
613.88	1579.89
614.22	1571.72
614.57	1563.09
614.92	1555.06
615.27	1547.59
615.61	1539.30
615.96	1531.20
616.31	1523.61
616.65	1516.19
617.00	1508.60
617.35	1500.95
617.70	1492.64
618.04	1484.30
618.39	1476.03
618.74	1468.42
619.08	1460.34
619.43	1452.68
619.78	1445.85
620.12	1438.76
620.47	1431.35
620.82	1423.17
621.16	1415.68
621.51	1408.06
621.85	1400.47
622.20	1391.98
622.55	1383.55
622.89	1375.64
623.24	1367.94
623.59	1360.49
623.93	1352.98
624.28	1345.76
624.62	1338.40
624.97	1331.25
625.32	1324.43
625.66	1317.56
626.01	1310.50
626.35	1303.16
626.70	1295.53
627.04	1287.77
627.39	1279.88
627.73	1272.37
628.08	1265.42
628.43	1258.26
628.77	1250.90
629.12	1243.30
629.46	1236.21
629.81	1228.79
630.15	1221.59
630.50	1214.20
630.84	1206.06
631.19	1198.15
631.53	1190.59
631.88	1182.85
632.22	1175.29
632.57	1168.07
632.91	1160.47
633.26	1153.01
633.60	1145.52
633.95	1138.37
634.29	1131.39
634.64	1124.77
634.98	1117.38
635.32	1110.29
635.67	1103.65
636.01	1096.99
636.36	1090.26
636.70	1083.60
637.05	1077.05
637.39	1070.62
637.73	1064.11
638.08	1058.25
638.42	1052.12
638.77	1045.71
639.11	1039.19
639.45	1032.63
639.80	1025.93
640.14	1019.55
640.49	1013.01
640.83	1006.67
641.17	1000.46
641.52	994.10
641.86	987.63
642.20	981.79
642.55	975.46
642.89	968.98
643.23	962.40
643.58	956.67
643.92	950.53
644.26	944.39
644.61	938.31
644.95	932.31
645.29	925.72
645.64	919.02
645.98	912.72
646.32	906.84
646.66	900.83
647.01	895.01
647.35	889.32
647.69	883.56
648.04	877.97
648.38	872.20
648.72	866.20
649.06	860.18
649.41	854.35
649.75	848.36
650.09	842.49
650.43	836.78
650.78	830.56
651.12	824.55
651.46	818.98
651.80	813.23
652.14	807.83
652.49	802.53
652.83	797.37
653.17	791.61
653.51	785.93
653.85	780.58
654.20	774.97
654.54	768.96
654.88	763.13
655.22	757.29
655.56	751.60
655.90	746.10
656.25	740.89
656.59	735.40
656.93	730.29
657.27	725.12
657.61	719.57
657.95	714.48
658.29	709.48
658.64	704.12
658.98	698.73
659.32	693.29
659.66	688.11
660.00	682.81
660.34	677.91
660.68	673.02
661.02	667.97
661.36	663.24
661.70	658.73
662.05	654.39
662.39	650.09
662.73	645.64
663.07	641.32
663.41	636.85
663.75	632.43
664.09	627.89
664.43	623.43
664.77	619.44
665.11	615.18
665.45	610.97
665.79	606.96
666.13	602.92
666.47	598.81
666.81	594.54
667.15	590.45
667.49	586.48
667.83	582.56
668.17	578.67
668.51	574.59
668.85	570.53
669.19	566.61
669.53	562.74
669.87	558.86
670.21	555.18
670.55	551.49
670.89	548.01
671.23	544.57
671.57	541.03
671.91	537.48
672.25	533.99
672.58	530.47
672.92	526.96
673.26	523.81
673.60	520.64
673.94	517.51
674.28	514.54
674.62	511.66
674.96	508.63
675.30	505.65
675.64	502.66
675.97	499.87
676.31	497.01
676.65	494.08
676.99	491.39
677.33	488.46
677.67	485.69
678.01	482.71
678.34	479.66
678.68	476.71
679.02	473.89
679.36	471.12
679.70	468.37
680.04	465.67
680.37	462.71
680.71	459.91
681.05	457.32
681.39	454.61
681.73	451.92
682.06	449.31
682.40	446.77
682.74	444.27
683.08	441.69
683.42	439.13
683.75	436.60
684.09	433.96
684.43	431.50
684.77	429.00
685.10	426.63
685.44	424.38
685.78	422.19
686.12	419.94
686.45	417.65
686.79	415.38
687.13	413.18
687.46	411.02
687.80	408.90
688.14	406.70
688.48	404.66
688.81	402.44
689.15	400.32
689.49	398.19
689.82	396.14
690.16	394.04
690.50	392.09
690.83	390.19
691.17	388.24
691.51	386.31
691.84	384.49
692.18	382.58
692.52	380.60
692.85	378.64
693.19	376.73
693.52	374.89
693.86	373.05
694.20	371.26
694.53	369.51
694.87	367.63
695.21	365.82
695.54	364.01
695.88	362.27
696.21	360.54
696.55	358.81
696.88	357.11
697.22	355.50
697.56	353.86
697.89	352.18
698.23	350.57
698.56	348.99
698.90	347.38
699.23	345.74
699.57	344.22
699.90	342.66
700.24	341.11
700.58	339.59
700.91	338.14
701.25	336.67
701.58	335.25
701.92	333.88
702.25	332.49
702.59	331.13
702.92	329.80
703.26	328.47
703.59	327.24
703.93	326.06
704.26	324.79
704.60	323.48
704.93	322.19
705.26	320.94
705.60	319.72
705.93	318.54
706.27	317.48
706.60	316.37
706.94	315.28
707.27	314.17
707.61	313.08
707.94	311.99
708.27	310.92
708.61	309.85
708.94	308.85
709.28	307.89
709.61	306.91
709.94	305.96
710.28	304.98
710.61	303.98
710.95	302.87
711.28	301.99
711.61	301.08
711.95	300.20
712.28	299.30
712.61	298.32
712.95	297.39
713.28	296.50
713.61	295.61
713.95	294.77
714.28	293.92
714.61	293.06
714.95	292.22
715.28	291.37
715.61	290.50
715.95	289.63
716.28	288.76
716.61	287.89
716.95	287.06
717.28	286.27
717.61	285.48
717.94	284.75
718.28	283.90
718.61	283.11
718.94	282.40
719.27	281.71
719.61	281.06
719.94	280.44
720.27	279.69
720.60	279.01
720.94	278.35
721.27	277.78
721.60	277.23
721.93	276.64
722.27	276.11
722.60	275.59
722.93	275.03
723.26	274.51
723.59	273.97
723.93	273.44
724.26	272.89
724.59	272.35
724.92	271.83
725.25	271.32
725.59	270.82
725.92	270.31
726.25	269.80
726.58	269.32
726.91	268.79
727.24	268.33
727.57	267.88
727.91	267.38
728.24	266.91
728.57	266.38
728.90	265.92
729.23	265.39
729.56	264.95
729.89	264.47
730.22	263.97
730.55	263.50
730.89	263.01
731.22	262.56
731.55	262.14
731.88	261.71
732.21	261.28
732.54	260.88
732.87	260.47
733.20	260.08
733.53	259.68
733.86	259.34
734.19	258.92
734.52	258.54
734.85	258.25
735.18	257.80
735.51	257.46
735.84	257.09
736.17	256.77
736.50	256.39
736.83	256.16
737.16	255.83
737.49	255.52
737.82	255.23
738.15	254.96
738.48	254.62
738.81	254.30
739.14	254.00
739.47	253.68
739.80	253.36
740.13	253.06
740.46	252.73
740.79	252.36
741.12	252.12
741.45	251.84
741.78	251.48
742.11	251.21
742.44	250.88
742.77	250.57
743.10	250.24
743.43	249.93
743.75	249.55
744.08	249.42
744.41	249.12
744.74	248.84
745.07	248.50
745.40	248.29
745.73	248.05
746.06	247.76
746.39	247.50
746.71	247.23
747.04	246.93
747.37	246.67
747.70	246.45
748.03	246.15
748.36	245.89
748.68	245.65
749.01	245.41
749.34	245.21
749.67	245.03
750.00	244.81
750.33	244.64
750.65	244.43
750.98	244.07
751.31	243.86
751.64	243.60
751.97	243.46
752.29	243.20
752.62	242.93
752.95	242.73
753.28	242.52
753.60	242.31
753.93	242.16
754.26	241.96
754.59	241.75
754.91	241.54
755.24	241.32
755.57	241.13
755.90	240.92
756.22	240.67
756.55	240.42
756.88	240.21
757.20	239.97
757.53	239.73
757.86	239.55
758.19	239.40
758.51	239.25
758.84	239.01
759.17	238.86
759.49	238.72
759.82	238.61
760.15	238.41
760.47	238.24
760.80	238.02
761.13	237.89
761.45	237.73
761.78	237.55
762.11	237.42
762.43	237.29
762.76	237.13
763.08	237.01
763.41	236.92
763.74	236.78
764.06	236.66
764.39	236.52
764.71	236.39
765.04	236.19
765.37	236.07
765.69	235.95
766.02	235.81
766.34	235.63
766.67	235.45
767.00	235.38
767.32	235.33
767.65	235.32
767.97	235.20
768.30	235.10
768.62	235.02
768.95	234.86
769.27	234.70
769.60	234.60
769.92	234.46
770.25	234.34
770.57	234.25
770.90	234.15
771.22	234.06
771.55	233.95
771.87	233.91
772.20	233.79
772.52	233.80
772.85	233.82
773.17	233.76
773.50	233.67
773.82	233.54
774.15	233.41
774.47	233.21
774.80	233.13
775.12	233.02
775.45	232.93
775.77	232.89
776.09	232.83
776.42	232.77
776.74	232.75
777.07	232.67
777.39	232.57
777.72	232.48
778.04	232.43
778.36	232.36
778.69	232.30
779.01	232.25
779.33	232.05
779.66	231.90
779.98	231.82
780.31	231.76
780.63	231.75
780.95	231.72
781.28	231.68
781.60	231.60
781.92	231.53
782.25	231.49
782.57	231.43
782.89	231.35
783.22	231.29
783.54	231.18
783.86	231.13
784.19	231.09
784.51	231.09
784.83	231.03
785.16	230.99
785.48	230.95
785.80	230.92
786.12	230.90
786.45	230.86
786.77	230.83
787.09	230.78
