SpectraSuite Data File
++++++++++++++++++++++++++++++++++++
Date: Fri Feb 01 18:04:22 EST 2013
User: group
Dark Spectrum Present: No
Reference Spectrum Present: No
Number of Sampled Component Spectra: 1
Spectrometers: USB2E7196
Integration Time (usec): 35000 (USB2E7196)
Spectra Averaged: 100 (USB2E7196)
Boxcar Smoothing: 10 (USB2E7196)
Correct for Electrical Dark: No (USB2E7196)
Strobe/Lamp Enabled: No (USB2E7196)
Correct for Detector Non-linearity: No (USB2E7196)
Correct for Stray Light: No (USB2E7196)
Number of Pixels in Processed Spectrum: 2048
>>>>>Begin Processed Spectral Data<<<<<
339.09	0.00
339.48	212.68
339.86	214.67
340.24	215.40
340.63	216.57
341.01	219.82
341.39	220.07
341.78	221.41
342.16	221.99
342.54	221.91
342.93	211.15
343.31	221.80
343.69	222.33
344.07	222.77
344.46	223.23
344.84	223.62
345.22	223.83
345.60	224.06
345.99	224.23
346.37	224.41
346.75	224.55
347.13	224.62
347.52	224.73
347.90	224.83
348.28	224.87
348.66	224.91
349.05	224.92
349.43	224.96
349.81	225.04
350.19	225.10
350.57	225.16
350.96	225.24
351.34	225.35
351.72	225.46
352.10	225.55
352.48	225.61
352.87	225.68
353.25	225.76
353.63	225.83
354.01	225.85
354.39	225.88
354.77	225.96
355.15	226.06
355.54	226.10
355.92	226.10
356.30	226.16
356.68	226.29
357.06	226.34
357.44	226.37
357.82	226.41
358.20	226.48
358.58	226.52
358.97	226.58
359.35	226.68
359.73	226.71
360.11	226.78
360.49	226.81
360.87	226.86
361.25	226.91
361.63	226.99
362.01	227.10
362.39	227.16
362.77	227.19
363.15	227.20
363.53	227.24
363.91	227.32
364.29	227.35
364.67	227.29
365.05	227.34
365.43	227.40
365.81	227.47
366.19	227.54
366.57	227.59
366.95	227.61
367.33	227.56
367.71	227.58
368.09	227.61
368.47	227.61
368.85	227.60
369.23	227.61
369.61	227.58
369.99	227.57
370.37	227.55
370.75	227.62
371.13	227.61
371.51	227.56
371.89	227.50
372.27	227.46
372.65	227.40
373.03	227.35
373.41	227.28
373.78	227.20
374.16	227.11
374.54	227.08
374.92	226.99
375.30	226.95
375.68	226.93
376.06	226.87
376.44	226.82
376.82	226.77
377.19	226.71
377.57	226.66
377.95	226.58
378.33	226.52
378.71	226.38
379.09	226.33
379.47	226.30
379.84	226.22
380.22	226.18
380.60	226.13
380.98	226.06
381.36	226.01
381.73	225.98
382.11	225.94
382.49	225.83
382.87	225.77
383.25	225.72
383.62	225.75
384.00	225.65
384.38	225.63
384.76	225.61
385.13	225.60
385.51	225.54
385.89	225.48
386.27	225.47
386.64	225.41
387.02	225.35
387.40	225.31
387.78	225.31
388.15	225.28
388.53	225.26
388.91	225.25
389.29	225.23
389.66	225.20
390.04	225.19
390.42	225.20
390.79	225.19
391.17	225.19
391.55	225.08
391.92	225.11
392.30	225.08
392.68	225.04
393.05	225.01
393.43	225.00
393.81	225.04
394.18	225.00
394.56	225.02
394.94	225.08
395.31	225.07
395.69	225.10
396.06	225.11
396.44	225.13
396.82	225.13
397.19	225.18
397.57	225.21
397.95	225.26
398.32	225.27
398.70	225.32
399.07	225.40
399.45	225.44
399.82	225.48
400.20	225.54
400.58	225.61
400.95	225.65
401.33	225.76
401.70	225.88
402.08	225.97
402.45	226.09
402.83	226.23
403.20	226.37
403.58	226.51
403.95	226.64
404.33	226.80
404.71	226.97
405.08	227.16
405.46	227.32
405.83	227.49
406.21	227.67
406.58	227.90
406.96	228.08
407.33	228.30
407.70	228.54
408.08	228.86
408.45	229.14
408.83	229.45
409.20	229.71
409.58	229.96
409.95	230.25
410.33	230.57
410.70	230.83
411.08	231.16
411.45	231.54
411.82	231.92
412.20	232.40
412.57	232.92
412.95	233.32
413.32	233.87
413.69	234.40
414.07	234.95
414.44	235.53
414.82	236.14
415.19	236.85
415.56	237.55
415.94	238.30
416.31	239.15
416.68	239.99
417.06	240.93
417.43	241.84
417.81	242.90
418.18	243.92
418.55	245.09
418.93	246.30
419.30	247.51
419.67	248.79
420.04	250.03
420.42	251.34
420.79	252.93
421.16	254.44
421.54	256.04
421.91	257.68
422.28	259.40
422.66	261.21
423.03	262.94
423.40	264.77
423.77	266.65
424.15	268.58
424.52	270.57
424.89	272.76
425.26	274.85
425.64	276.82
426.01	279.01
426.38	281.24
426.75	283.46
427.13	285.78
427.50	288.25
427.87	290.78
428.24	293.31
428.61	295.67
428.99	298.31
429.36	301.18
429.73	303.94
430.10	306.67
430.47	309.45
430.85	312.37
431.22	315.41
431.59	318.65
431.96	321.67
432.33	325.03
432.70	328.24
433.08	332.08
433.45	335.64
433.82	339.17
434.19	343.08
434.56	346.88
434.93	350.49
435.30	354.07
435.68	358.01
436.05	361.84
436.42	365.67
436.79	369.09
437.16	372.76
437.53	376.65
437.90	380.43
438.27	384.18
438.64	388.02
439.01	391.52
439.38	394.50
439.75	397.51
440.13	400.94
440.50	404.14
440.87	406.62
441.24	409.30
441.61	412.25
441.98	414.34
442.35	416.82
442.72	419.31
443.09	421.72
443.46	423.10
443.83	423.93
444.20	424.58
444.57	425.75
444.94	426.15
445.31	426.63
445.68	427.12
446.05	427.24
446.42	426.70
446.79	426.17
447.16	425.67
447.53	425.21
447.90	423.65
448.27	422.05
448.64	419.92
449.01	418.35
449.37	415.67
449.74	413.07
450.11	409.97
450.48	406.67
450.85	403.25
451.22	400.34
451.59	397.61
451.96	395.02
452.33	391.50
452.70	388.31
453.07	384.48
453.43	380.60
453.80	376.84
454.17	373.28
454.54	369.77
454.91	366.05
455.28	362.42
455.65	359.02
456.02	355.62
456.38	352.75
456.75	349.12
457.12	346.06
457.49	343.03
457.86	340.13
458.23	337.56
458.59	334.76
458.96	331.89
459.33	329.31
459.70	326.75
460.07	324.65
460.43	322.31
460.80	320.10
461.17	318.11
461.54	316.04
461.91	314.05
462.27	312.14
462.64	310.41
463.01	308.55
463.38	306.74
463.74	304.95
464.11	303.33
464.48	301.97
464.85	300.42
465.21	299.21
465.58	297.93
465.95	296.47
466.32	295.23
466.68	294.00
467.05	292.81
467.42	291.59
467.78	290.35
468.15	289.13
468.52	288.19
468.88	287.03
469.25	285.98
469.62	285.14
469.98	284.18
470.35	283.28
470.72	282.47
471.08	281.57
471.45	280.82
471.82	280.03
472.18	279.17
472.55	278.56
472.92	277.85
473.28	277.21
473.65	276.54
474.02	275.90
474.38	275.39
474.75	274.91
475.11	274.40
475.48	273.94
475.85	273.56
476.21	273.19
476.58	272.85
476.94	272.61
477.31	272.31
477.67	272.05
478.04	271.84
478.41	271.71
478.77	271.70
479.14	271.54
479.50	271.51
479.87	271.51
480.23	271.55
480.60	271.54
480.96	271.55
481.33	271.73
481.69	271.88
482.06	272.01
482.42	272.15
482.79	272.36
483.15	272.70
483.52	273.07
483.88	273.37
484.25	273.74
484.61	274.15
484.98	274.58
485.34	275.11
485.71	275.72
486.07	276.32
486.44	276.85
486.80	277.59
487.17	278.31
487.53	279.17
487.90	280.03
488.26	280.97
488.62	281.97
488.99	282.99
489.35	284.09
489.72	285.27
490.08	286.51
490.44	287.82
490.81	289.13
491.17	290.52
491.54	292.10
491.90	293.69
492.26	295.42
492.63	297.21
492.99	299.08
493.36	301.05
493.72	303.20
494.08	305.46
494.45	307.78
494.81	310.29
495.17	312.81
495.54	315.53
495.90	318.41
496.26	321.37
496.63	324.55
496.99	327.84
497.35	331.27
497.72	334.91
498.08	338.63
498.44	342.58
498.80	346.73
499.17	351.04
499.53	355.51
499.89	360.17
500.26	364.96
500.62	369.91
500.98	375.17
501.34	380.53
501.71	386.22
502.07	392.01
502.43	397.99
502.79	404.25
503.16	410.68
503.52	417.33
503.88	424.17
504.24	431.16
504.60	438.50
504.97	446.14
505.33	453.90
505.69	462.16
506.05	470.42
506.41	478.84
506.78	487.50
507.14	496.45
507.50	505.69
507.86	515.32
508.22	525.10
508.59	534.99
508.95	545.19
509.31	555.64
509.67	566.45
510.03	577.45
510.39	588.70
510.75	600.26
511.12	611.94
511.48	624.04
511.84	636.42
512.20	648.81
512.56	661.55
512.92	674.69
513.28	687.96
513.64	701.41
514.00	715.13
514.37	729.13
514.73	743.28
515.09	757.38
515.45	771.74
515.81	786.44
516.17	801.60
516.53	816.97
516.89	832.40
517.25	847.85
517.61	863.49
517.97	879.19
518.33	894.79
518.69	910.88
519.05	927.13
519.41	943.53
519.77	960.44
520.13	977.34
520.49	994.16
520.85	1010.90
521.21	1027.94
521.57	1045.67
521.93	1062.89
522.29	1080.77
522.65	1098.57
523.01	1116.32
523.37	1134.05
523.73	1151.69
524.09	1169.33
524.45	1187.14
524.81	1205.45
525.17	1223.89
525.53	1242.53
525.89	1261.32
526.25	1279.97
526.61	1298.13
526.97	1316.73
527.33	1335.09
527.68	1353.47
528.04	1371.74
528.40	1390.23
528.76	1409.38
529.12	1427.85
529.48	1446.74
529.84	1464.66
530.20	1483.25
530.56	1502.27
530.91	1521.64
531.27	1540.66
531.63	1559.21
531.99	1577.94
532.35	1595.89
532.71	1613.94
533.07	1632.32
533.42	1650.19
533.78	1668.30
534.14	1686.80
534.50	1704.10
534.86	1722.04
535.21	1739.37
535.57	1757.46
535.93	1775.15
536.29	1792.02
536.65	1809.35
537.00	1826.24
537.36	1843.82
537.72	1860.60
538.08	1877.29
538.44	1893.25
538.79	1909.18
539.15	1924.96
539.51	1940.89
539.87	1957.45
540.22	1973.30
540.58	1989.33
540.94	2004.92
541.29	2020.04
541.65	2034.95
542.01	2050.65
542.37	2065.33
542.72	2080.05
543.08	2094.17
543.44	2108.89
543.79	2122.47
544.15	2135.71
544.51	2149.63
544.87	2162.84
545.22	2176.01
545.58	2188.51
545.94	2200.58
546.29	2212.77
546.65	2224.99
547.01	2236.60
547.36	2247.56
547.72	2258.22
548.07	2268.26
548.43	2278.55
548.79	2288.59
549.14	2298.31
549.50	2307.61
549.86	2317.29
550.21	2326.70
550.57	2335.81
550.92	2344.33
551.28	2353.36
551.64	2362.42
551.99	2370.87
552.35	2379.04
552.70	2387.01
553.06	2394.88
553.41	2403.18
553.77	2411.03
554.13	2418.96
554.48	2426.92
554.84	2434.34
555.19	2441.52
555.55	2448.43
555.90	2454.63
556.26	2461.56
556.61	2467.92
556.97	2474.11
557.32	2479.90
557.68	2485.69
558.03	2491.73
558.39	2497.09
558.74	2503.57
559.10	2509.00
559.45	2514.18
559.81	2520.08
560.16	2525.37
560.52	2530.14
560.87	2534.90
561.23	2538.87
561.58	2543.21
561.94	2547.09
562.29	2550.75
562.64	2554.92
563.00	2558.75
563.35	2563.91
563.71	2568.30
564.06	2572.91
564.42	2577.04
564.77	2581.03
565.12	2584.73
565.48	2587.89
565.83	2590.98
566.19	2593.39
566.54	2595.34
566.89	2597.71
567.25	2599.30
567.60	2601.81
567.96	2604.65
568.31	2606.58
568.66	2608.90
569.02	2610.42
569.37	2611.59
569.72	2613.38
570.08	2614.25
570.43	2615.19
570.78	2615.26
571.14	2614.30
571.49	2613.35
571.84	2613.71
572.20	2613.14
572.55	2612.44
572.90	2611.22
573.26	2610.23
573.61	2608.66
573.96	2607.48
574.31	2604.73
574.67	2601.93
575.02	2598.45
575.37	2595.02
575.72	2591.36
576.08	2588.09
576.43	2584.83
576.78	2581.35
577.13	2578.13
577.49	2574.91
577.84	2571.55
578.19	2567.78
578.54	2564.16
578.90	2560.06
579.25	2554.16
579.60	2548.95
579.95	2543.79
580.30	2538.51
580.66	2533.04
581.01	2527.86
581.36	2522.55
581.71	2518.19
582.06	2513.64
582.42	2508.89
582.77	2503.38
583.12	2498.52
583.47	2493.47
583.82	2488.13
584.17	2482.50
584.53	2476.60
584.88	2470.80
585.23	2464.42
585.58	2458.39
585.93	2452.31
586.28	2447.06
586.63	2441.74
586.98	2436.14
587.34	2430.94
587.69	2425.64
588.04	2420.05
588.39	2413.92
588.74	2406.69
589.09	2399.85
589.44	2392.26
589.79	2385.40
590.14	2379.12
590.49	2371.70
590.84	2364.59
591.19	2357.83
591.54	2350.51
591.89	2342.37
592.25	2334.63
592.60	2326.49
592.95	2317.94
593.30	2309.72
593.65	2301.08
594.00	2292.85
594.35	2284.57
594.70	2275.38
595.05	2267.29
595.40	2258.88
595.75	2250.15
596.10	2243.06
596.45	2235.47
596.80	2228.38
597.15	2220.87
597.50	2212.85
597.85	2205.39
598.19	2197.66
598.54	2189.69
598.89	2181.96
599.24	2175.04
599.59	2167.51
599.94	2160.23
600.29	2152.98
600.64	2145.36
600.99	2136.76
601.34	2128.90
601.69	2120.72
602.04	2112.80
602.39	2104.11
602.74	2096.28
603.08	2088.59
603.43	2080.80
603.78	2072.27
604.13	2063.84
604.48	2055.48
604.83	2047.43
605.18	2039.33
605.53	2030.05
605.87	2020.61
606.22	2012.02
606.57	2002.71
606.92	1993.74
607.27	1985.41
607.62	1977.23
607.96	1968.73
608.31	1961.11
608.66	1952.31
609.01	1943.49
609.36	1934.49
609.70	1925.11
610.05	1915.71
610.40	1906.66
610.75	1896.98
611.10	1887.99
611.44	1878.04
611.79	1868.49
612.14	1858.31
612.49	1847.54
612.83	1837.67
613.18	1827.99
613.53	1818.47
613.88	1808.38
614.22	1798.79
614.57	1788.57
614.92	1779.06
615.27	1770.29
615.61	1760.48
615.96	1750.89
616.31	1741.89
616.65	1733.28
617.00	1724.48
617.35	1715.18
617.70	1705.39
618.04	1695.24
618.39	1685.35
618.74	1676.39
619.08	1666.76
619.43	1657.80
619.78	1649.66
620.12	1641.15
620.47	1632.25
620.82	1622.73
621.16	1613.98
621.51	1604.96
621.85	1596.04
622.20	1586.10
622.55	1576.06
622.89	1566.69
623.24	1557.61
623.59	1548.82
623.93	1539.97
624.28	1531.36
624.62	1522.56
624.97	1514.09
625.32	1506.06
625.66	1497.78
626.01	1489.43
626.35	1480.67
626.70	1471.51
627.04	1462.42
627.39	1453.20
627.73	1444.43
628.08	1436.19
628.43	1427.74
628.77	1419.16
629.12	1410.16
629.46	1401.72
629.81	1392.91
630.15	1384.45
630.50	1375.74
630.84	1366.19
631.19	1356.84
631.53	1347.96
631.88	1339.05
632.22	1330.06
632.57	1321.49
632.91	1312.56
633.26	1303.71
633.60	1294.87
633.95	1286.37
634.29	1277.98
634.64	1270.17
634.98	1261.59
635.32	1253.17
635.67	1245.27
636.01	1237.40
636.36	1229.49
636.70	1221.69
637.05	1214.00
637.39	1206.31
637.73	1198.64
638.08	1191.74
638.42	1184.58
638.77	1177.07
639.11	1169.43
639.45	1161.97
639.80	1154.14
640.14	1146.73
640.49	1139.14
640.83	1131.79
641.17	1124.53
641.52	1117.23
641.86	1109.56
642.20	1102.72
642.55	1095.36
642.89	1087.84
643.23	1080.13
643.58	1073.44
643.92	1066.29
644.26	1059.33
644.61	1052.24
644.95	1045.36
645.29	1037.63
645.64	1029.78
645.98	1022.32
646.32	1015.43
646.66	1008.36
647.01	1001.63
647.35	994.93
647.69	988.07
648.04	981.63
648.38	974.89
648.72	967.99
649.06	961.04
649.41	954.18
649.75	947.32
650.09	940.39
650.43	933.70
650.78	926.46
651.12	919.47
651.46	912.70
651.80	906.13
652.14	899.86
652.49	893.68
652.83	887.71
653.17	881.19
653.51	874.53
653.85	868.16
654.20	861.66
654.54	854.66
654.88	847.98
655.22	841.11
655.56	834.54
655.90	828.08
656.25	822.01
656.59	815.76
656.93	809.80
657.27	803.83
657.61	797.46
657.95	791.61
658.29	785.74
658.64	779.62
658.98	773.36
659.32	766.89
659.66	760.85
660.00	754.76
660.34	748.98
660.68	743.27
661.02	737.56
661.36	732.07
661.70	726.86
662.05	721.75
662.39	716.78
662.73	711.59
663.07	706.50
663.41	701.33
663.75	696.16
664.09	690.85
664.43	685.78
664.77	681.07
665.11	676.18
665.45	671.45
665.79	666.78
666.13	662.04
666.47	657.32
666.81	652.50
667.15	647.69
667.49	643.18
667.83	638.72
668.17	634.13
668.51	629.43
668.85	624.83
669.19	620.42
669.53	616.00
669.87	611.56
670.21	607.31
670.55	603.08
670.89	599.05
671.23	595.05
671.57	590.96
671.91	586.94
672.25	582.84
672.58	578.67
672.92	574.71
673.26	571.01
673.60	567.32
673.94	563.73
674.28	560.36
674.62	556.91
674.96	553.35
675.30	550.00
675.64	546.57
675.97	543.30
676.31	540.00
676.65	536.56
676.99	533.40
677.33	530.06
677.67	526.79
678.01	523.39
678.34	520.01
678.68	516.64
679.02	513.32
679.36	510.10
679.70	506.97
680.04	503.79
680.37	500.57
680.71	497.40
681.05	494.33
681.39	491.16
681.73	488.11
682.06	485.17
682.40	482.15
682.74	479.21
683.08	476.27
683.42	473.26
683.75	470.32
684.09	467.29
684.43	464.41
684.77	461.54
685.10	458.75
685.44	455.99
685.78	453.33
686.12	450.70
686.45	448.07
686.79	445.41
687.13	442.88
687.46	440.26
687.80	437.69
688.14	435.04
688.48	432.65
688.81	430.01
689.15	427.50
689.49	424.98
689.82	422.54
690.16	420.08
690.50	417.76
690.83	415.58
691.17	413.31
691.51	411.11
691.84	409.01
692.18	406.80
692.52	404.54
692.85	402.25
693.19	400.05
693.52	397.90
693.86	395.81
694.20	393.66
694.53	391.62
694.87	389.54
695.21	387.52
695.54	385.36
695.88	383.36
696.21	381.36
696.55	379.46
696.88	377.53
697.22	375.62
697.56	373.75
697.89	371.81
698.23	369.88
698.56	368.01
698.90	366.17
699.23	364.25
699.57	362.49
699.90	360.73
700.24	358.96
700.58	357.15
700.91	355.40
701.25	353.69
701.58	352.10
701.92	350.52
702.25	348.92
702.59	347.38
702.92	345.86
703.26	344.37
703.59	342.91
703.93	341.51
704.26	340.06
704.60	338.55
704.93	337.06
705.26	335.62
705.60	334.25
705.93	332.92
706.27	331.68
706.60	330.44
706.94	329.15
707.27	327.81
707.61	326.60
707.94	325.37
708.27	324.10
708.61	322.83
708.94	321.61
709.28	320.46
709.61	319.31
709.94	318.24
710.28	317.02
710.61	315.79
710.95	314.57
711.28	313.51
711.61	312.41
711.95	311.34
712.28	310.28
712.61	309.13
712.95	307.99
713.28	306.96
713.61	305.93
713.95	304.93
714.28	303.95
714.61	302.98
714.95	302.00
715.28	301.03
715.61	299.99
715.95	299.01
716.28	297.97
716.61	297.00
716.95	296.01
717.28	295.12
717.61	294.28
717.94	293.35
718.28	292.38
718.61	291.52
718.94	290.71
719.27	289.92
719.61	289.16
719.94	288.41
720.27	287.54
720.60	286.73
720.94	285.97
721.27	285.24
721.60	284.50
721.93	283.81
722.27	283.17
722.60	282.53
722.93	281.85
723.26	281.25
723.59	280.59
723.93	279.93
724.26	279.30
724.59	278.62
724.92	278.02
725.25	277.44
725.59	276.84
725.92	276.24
726.25	275.67
726.58	275.07
726.91	274.47
727.24	273.93
727.57	273.39
727.91	272.83
728.24	272.31
728.57	271.75
728.90	271.22
729.23	270.65
729.56	270.15
729.89	269.59
730.22	269.02
730.55	268.50
730.89	267.99
731.22	267.47
731.55	267.00
731.88	266.50
732.21	266.00
732.54	265.51
732.87	265.01
733.20	264.53
733.53	264.10
733.86	263.69
734.19	263.25
734.52	262.80
734.85	262.39
735.18	261.92
735.51	261.52
735.84	261.10
736.17	260.70
736.50	260.23
736.83	259.95
737.16	259.59
737.49	259.20
737.82	258.77
738.15	258.38
738.48	257.97
738.81	257.61
739.14	257.23
739.47	256.88
739.80	256.55
740.13	256.19
740.46	255.77
740.79	255.36
741.12	254.97
741.45	254.58
741.78	254.18
742.11	253.84
742.44	253.42
742.77	253.07
743.10	252.71
743.43	252.35
743.75	251.92
744.08	251.73
744.41	251.39
744.74	251.07
745.07	250.76
745.40	250.49
745.73	250.21
746.06	249.89
746.39	249.58
746.71	249.24
747.04	248.87
747.37	248.59
747.70	248.30
748.03	248.02
748.36	247.78
748.68	247.50
749.01	247.19
749.34	246.94
749.67	246.66
750.00	246.38
750.33	246.20
750.65	245.93
750.98	245.53
751.31	245.26
751.64	245.03
751.97	244.77
752.29	244.47
752.62	244.18
752.95	243.93
753.28	243.64
753.60	243.39
753.93	243.21
754.26	242.94
754.59	242.70
754.91	242.44
755.24	242.18
755.57	241.94
755.90	241.75
756.22	241.52
756.55	241.29
756.88	241.05
757.20	240.79
757.53	240.57
757.86	240.34
758.19	240.18
758.51	239.94
758.84	239.74
759.17	239.56
759.49	239.38
759.82	239.27
760.15	239.11
760.47	238.94
760.80	238.74
761.13	238.62
761.45	238.44
761.78	238.28
762.11	238.14
762.43	237.98
762.76	237.80
763.08	237.65
763.41	237.51
763.74	237.39
764.06	237.22
764.39	237.04
764.71	236.94
765.04	236.78
765.37	236.67
765.69	236.56
766.02	236.40
766.34	236.25
766.67	236.05
767.00	235.94
767.32	235.87
767.65	235.80
767.97	235.66
768.30	235.55
768.62	235.42
768.95	235.28
769.27	235.20
769.60	235.10
769.92	234.99
770.25	234.82
770.57	234.70
770.90	234.61
771.22	234.51
771.55	234.41
771.87	234.32
772.20	234.23
772.52	234.21
772.85	234.28
773.17	234.19
773.50	234.10
773.82	234.00
774.15	233.85
774.47	233.70
774.80	233.57
775.12	233.46
775.45	233.41
775.77	233.32
776.09	233.23
776.42	233.17
776.74	233.11
777.07	233.05
777.39	232.95
777.72	232.85
778.04	232.83
778.36	232.72
778.69	232.65
779.01	232.60
779.33	232.42
779.66	232.22
779.98	232.17
780.31	232.09
780.63	232.07
780.95	232.04
781.28	231.96
781.60	231.95
781.92	231.91
782.25	231.83
782.57	231.76
782.89	231.68
783.22	231.59
783.54	231.52
783.86	231.46
784.19	231.39
784.51	231.34
784.83	231.25
785.16	231.21
785.48	231.11
785.80	231.01
786.12	230.96
786.45	230.89
