SpectraSuite Data File
++++++++++++++++++++++++++++++++++++
Date: Fri Feb 01 16:44:41 EST 2013
User: group
Dark Spectrum Present: No
Reference Spectrum Present: No
Number of Sampled Component Spectra: 1
Spectrometers: USB2E7196
Integration Time (usec): 35000 (USB2E7196)
Spectra Averaged: 100 (USB2E7196)
Boxcar Smoothing: 10 (USB2E7196)
Correct for Electrical Dark: No (USB2E7196)
Strobe/Lamp Enabled: No (USB2E7196)
Correct for Detector Non-linearity: No (USB2E7196)
Correct for Stray Light: No (USB2E7196)
Number of Pixels in Processed Spectrum: 2048
>>>>>Begin Processed Spectral Data<<<<<
339.09	0.00
339.48	213.60
339.86	215.41
340.24	215.95
340.63	217.44
341.01	220.00
341.39	220.09
341.78	221.96
342.16	222.19
342.54	222.87
342.93	211.61
343.31	222.30
343.69	222.83
344.07	223.23
344.46	223.64
344.84	224.01
345.22	224.29
345.60	224.56
345.99	224.73
346.37	224.88
346.75	224.99
347.13	225.05
347.52	225.09
347.90	225.16
348.28	225.18
348.66	225.21
349.05	225.21
349.43	225.25
349.81	225.33
350.19	225.38
350.57	225.46
350.96	225.54
351.34	225.64
351.72	225.75
352.10	225.87
352.48	225.95
352.87	226.04
353.25	226.09
353.63	226.16
354.01	226.28
354.39	226.34
354.77	226.42
355.15	226.57
355.54	226.66
355.92	226.73
356.30	226.82
356.68	226.96
357.06	227.05
357.44	227.11
357.82	227.17
358.20	227.25
358.58	227.32
358.97	227.39
359.35	227.47
359.73	227.55
360.11	227.61
360.49	227.70
360.87	227.70
361.25	227.79
361.63	227.85
362.01	227.85
362.39	227.91
362.77	227.99
363.15	228.01
363.53	228.04
363.91	228.05
364.29	228.09
364.67	228.04
365.05	228.08
365.43	228.15
365.81	228.19
366.19	228.21
366.57	228.26
366.95	228.26
367.33	228.23
367.71	228.22
368.09	228.21
368.47	228.19
368.85	228.22
369.23	228.20
369.61	228.17
369.99	228.19
370.37	228.17
370.75	228.15
371.13	228.10
371.51	228.06
371.89	228.02
372.27	227.97
372.65	227.92
373.03	227.87
373.41	227.80
373.78	227.73
374.16	227.65
374.54	227.55
374.92	227.47
375.30	227.43
375.68	227.34
376.06	227.30
376.44	227.22
376.82	227.19
377.19	227.13
377.57	227.03
377.95	226.94
378.33	226.88
378.71	226.77
379.09	226.73
379.47	226.68
379.84	226.60
380.22	226.54
380.60	226.45
380.98	226.37
381.36	226.25
381.73	226.17
382.11	226.12
382.49	226.06
382.87	225.99
383.25	225.95
383.62	226.00
384.00	225.93
384.38	225.88
384.76	225.84
385.13	225.79
385.51	225.77
385.89	225.69
386.27	225.64
386.64	225.60
387.02	225.53
387.40	225.46
387.78	225.43
388.15	225.37
388.53	225.36
388.91	225.33
389.29	225.30
389.66	225.29
390.04	225.26
390.42	225.22
390.79	225.22
391.17	225.15
391.55	225.02
391.92	224.98
392.30	224.99
392.68	224.95
393.05	224.90
393.43	224.88
393.81	224.89
394.18	224.90
394.56	224.92
394.94	224.92
395.31	224.95
395.69	225.02
396.06	225.07
396.44	225.08
396.82	225.09
397.19	225.20
397.57	225.22
397.95	225.28
398.32	225.33
398.70	225.36
399.07	225.43
399.45	225.45
399.82	225.52
400.20	225.57
400.58	225.62
400.95	225.68
401.33	225.78
401.70	225.92
402.08	225.98
402.45	226.07
402.83	226.17
403.20	226.25
403.58	226.33
403.95	226.47
404.33	226.59
404.71	226.72
405.08	226.89
405.46	227.03
405.83	227.12
406.21	227.27
406.58	227.48
406.96	227.64
407.33	227.86
407.70	228.05
408.08	228.34
408.45	228.54
408.83	228.79
409.20	228.97
409.58	229.15
409.95	229.43
410.33	229.70
410.70	229.96
411.08	230.27
411.45	230.56
411.82	230.82
412.20	231.19
412.57	231.59
412.95	231.86
413.32	232.28
413.69	232.73
414.07	233.17
414.44	233.61
414.82	234.07
415.19	234.57
415.56	235.12
415.94	235.63
416.31	236.27
416.68	236.88
417.06	237.58
417.43	238.27
417.81	239.01
418.18	239.76
418.55	240.58
418.93	241.44
419.30	242.30
419.67	243.26
420.04	244.21
420.42	245.21
420.79	246.45
421.16	247.56
421.54	248.72
421.91	249.93
422.28	251.16
422.66	252.50
423.03	253.83
423.40	255.14
423.77	256.54
424.15	257.96
424.52	259.42
424.89	261.02
425.26	262.56
425.64	264.01
426.01	265.60
426.38	267.25
426.75	268.91
427.13	270.64
427.50	272.41
427.87	274.26
428.24	276.08
428.61	277.73
428.99	279.64
429.36	281.72
429.73	283.76
430.10	285.74
430.47	287.80
430.85	289.89
431.22	292.08
431.59	294.46
431.96	296.69
432.33	299.15
432.70	301.48
433.08	304.24
433.45	306.82
433.82	309.38
434.19	312.24
434.56	315.03
434.93	317.70
435.30	320.26
435.68	323.11
436.05	325.89
436.42	328.70
436.79	331.20
437.16	333.85
437.53	336.63
437.90	339.44
438.27	342.15
438.64	344.95
439.01	347.52
439.38	349.71
439.75	351.84
440.13	354.30
440.50	356.62
440.87	358.48
441.24	360.41
441.61	362.56
441.98	364.01
442.35	365.77
442.72	367.60
443.09	369.44
443.46	370.40
443.83	371.00
444.20	371.48
444.57	372.33
444.94	372.65
445.31	373.04
445.68	373.40
446.05	373.49
446.42	373.16
446.79	372.75
447.16	372.33
447.53	372.03
447.90	370.97
448.27	369.86
448.64	368.30
449.01	367.16
449.37	365.21
449.74	363.36
450.11	361.18
450.48	358.70
450.85	356.18
451.22	354.07
451.59	352.09
451.96	350.21
452.33	347.64
452.70	345.30
453.07	342.51
453.43	339.63
453.80	336.89
454.17	334.19
454.54	331.68
454.91	328.97
455.28	326.33
455.65	323.83
456.02	321.39
456.38	319.29
456.75	316.69
457.12	314.49
457.49	312.29
457.86	310.13
458.23	308.30
458.59	306.28
458.96	304.27
459.33	302.41
459.70	300.53
460.07	299.04
460.43	297.33
460.80	295.71
461.17	294.31
461.54	292.81
461.91	291.42
462.27	289.97
462.64	288.73
463.01	287.39
463.38	286.11
463.74	284.73
464.11	283.59
464.48	282.56
464.85	281.42
465.21	280.59
465.58	279.69
465.95	278.62
466.32	277.70
466.68	276.80
467.05	275.92
467.42	275.07
467.78	274.13
468.15	273.25
468.52	272.57
468.88	271.71
469.25	270.97
469.62	270.36
469.98	269.71
470.35	269.09
470.72	268.53
471.08	267.88
471.45	267.37
471.82	266.80
472.18	266.22
472.55	265.82
472.92	265.30
473.28	264.84
473.65	264.41
474.02	264.02
474.38	263.65
474.75	263.32
475.11	263.01
475.48	262.75
475.85	262.58
476.21	262.36
476.58	262.21
476.94	262.07
477.31	261.90
477.67	261.78
478.04	261.68
478.41	261.62
478.77	261.69
479.14	261.62
479.50	261.66
479.87	261.74
480.23	261.85
480.60	261.90
480.96	261.99
481.33	262.19
481.69	262.35
482.06	262.57
482.42	262.82
482.79	263.04
483.15	263.40
483.52	263.76
483.88	264.12
484.25	264.52
484.61	264.93
484.98	265.44
485.34	265.99
485.71	266.61
486.07	267.22
486.44	267.76
486.80	268.50
487.17	269.24
487.53	270.06
487.90	270.92
488.26	271.87
488.62	272.88
488.99	273.89
489.35	274.92
489.72	276.02
490.08	277.20
490.44	278.47
490.81	279.80
491.17	281.18
491.54	282.66
491.90	284.17
492.26	285.84
492.63	287.53
492.99	289.36
493.36	291.27
493.72	293.29
494.08	295.41
494.45	297.62
494.81	300.01
495.17	302.43
495.54	304.97
495.90	307.65
496.26	310.42
496.63	313.35
496.99	316.50
497.35	319.77
497.72	323.19
498.08	326.73
498.44	330.41
498.80	334.32
499.17	338.35
499.53	342.52
499.89	346.91
500.26	351.44
500.62	356.08
500.98	361.01
501.34	366.09
501.71	371.42
502.07	376.90
502.43	382.50
502.79	388.36
503.16	394.43
503.52	400.72
503.88	407.12
504.24	413.73
504.60	420.63
504.97	427.76
505.33	435.05
505.69	442.75
506.05	450.45
506.41	458.29
506.78	466.45
507.14	474.88
507.50	483.53
507.86	492.53
508.22	501.68
508.59	510.85
508.95	520.46
509.31	530.24
509.67	540.28
510.03	550.47
510.39	560.90
510.75	571.66
511.12	582.51
511.48	593.79
511.84	605.25
512.20	616.68
512.56	628.52
512.92	640.65
513.28	652.93
513.64	665.45
514.00	678.13
514.37	691.05
514.73	704.09
515.09	716.91
515.45	730.13
515.81	743.62
516.17	757.50
516.53	771.53
516.89	785.63
517.25	799.72
517.61	814.07
517.97	828.47
518.33	842.79
518.69	857.49
519.05	872.39
519.41	887.36
519.77	902.81
520.13	918.28
520.49	933.54
520.85	948.69
521.21	964.20
521.57	980.29
521.93	995.89
522.29	1012.01
522.65	1028.28
523.01	1044.30
523.37	1060.16
523.73	1076.20
524.09	1092.14
524.45	1108.35
524.81	1124.80
525.17	1141.33
525.53	1158.11
525.89	1174.90
526.25	1191.59
526.61	1207.79
526.97	1224.45
527.33	1240.71
527.68	1257.00
528.04	1273.30
528.40	1289.81
528.76	1306.68
529.12	1323.13
529.48	1339.84
529.84	1355.73
530.20	1372.23
530.56	1389.11
530.91	1406.43
531.27	1423.00
531.63	1439.29
531.99	1455.60
532.35	1471.45
532.71	1487.39
533.07	1503.40
533.42	1519.16
533.78	1535.01
534.14	1551.10
534.50	1566.25
534.86	1581.88
535.21	1596.92
535.57	1612.68
535.93	1627.95
536.29	1642.54
536.65	1657.40
537.00	1671.97
537.36	1687.25
537.72	1701.55
538.08	1715.79
538.44	1729.39
538.79	1743.23
539.15	1756.63
539.51	1770.16
539.87	1784.36
540.22	1797.78
540.58	1811.35
540.94	1824.45
541.29	1837.11
541.65	1849.71
542.01	1862.76
542.37	1875.10
542.72	1887.44
543.08	1899.09
543.44	1911.42
543.79	1922.59
544.15	1933.39
544.51	1944.98
544.87	1955.75
545.22	1966.47
545.58	1976.63
545.94	1986.15
546.29	1995.79
546.65	2005.76
547.01	2015.05
547.36	2023.59
547.72	2032.06
548.07	2039.91
548.43	2047.88
548.79	2055.82
549.14	2063.27
549.50	2070.56
549.86	2078.01
550.21	2085.23
550.57	2092.37
550.92	2098.89
551.28	2105.86
551.64	2112.89
551.99	2119.20
552.35	2125.30
552.70	2131.36
553.06	2137.34
553.41	2143.70
553.77	2149.63
554.13	2155.45
554.48	2161.44
554.84	2166.97
555.19	2172.06
555.55	2177.13
555.90	2181.71
556.26	2186.73
556.61	2191.26
556.97	2195.74
557.32	2199.78
557.68	2203.91
558.03	2208.14
558.39	2211.84
558.74	2216.56
559.10	2220.48
559.45	2224.09
559.81	2228.39
560.16	2232.22
560.52	2235.39
560.87	2238.80
561.23	2241.48
561.58	2244.40
561.94	2246.95
562.29	2249.19
562.64	2252.17
563.00	2254.86
563.35	2258.34
563.71	2261.31
564.06	2264.43
564.42	2267.21
564.77	2269.87
565.12	2272.27
565.48	2274.32
565.83	2276.21
566.19	2277.58
566.54	2278.47
566.89	2279.74
567.25	2280.44
567.60	2281.77
567.96	2283.54
568.31	2284.45
568.66	2285.76
569.02	2286.34
569.37	2286.74
569.72	2287.75
570.08	2287.93
570.43	2287.98
570.78	2287.62
571.14	2286.26
571.49	2285.05
571.84	2284.69
572.20	2283.76
572.55	2282.75
572.90	2281.12
573.26	2279.92
573.61	2278.19
573.96	2276.65
574.31	2273.77
574.67	2270.85
575.02	2267.40
575.37	2263.92
575.72	2260.31
576.08	2256.99
576.43	2253.87
576.78	2250.40
577.13	2247.24
577.49	2244.01
577.84	2240.73
578.19	2236.84
578.54	2233.36
578.90	2229.38
579.25	2223.93
579.60	2219.16
579.95	2214.19
580.30	2209.24
580.66	2204.03
581.01	2199.09
581.36	2194.16
581.71	2190.17
582.06	2185.80
582.42	2181.39
582.77	2176.45
583.12	2171.99
583.47	2167.46
583.82	2162.57
584.17	2157.43
584.53	2152.10
584.88	2146.69
585.23	2141.01
585.58	2135.82
585.93	2130.48
586.28	2125.71
586.63	2120.88
586.98	2115.74
587.34	2111.14
587.69	2106.38
588.04	2101.35
588.39	2095.89
588.74	2089.37
589.09	2083.12
589.44	2076.42
589.79	2070.42
590.14	2064.84
590.49	2058.36
590.84	2051.91
591.19	2046.07
591.54	2039.71
591.89	2032.59
592.25	2025.98
592.60	2018.86
592.95	2011.33
593.30	2003.95
593.65	1996.53
594.00	1989.42
594.35	1982.30
594.70	1974.38
595.05	1967.34
595.40	1960.10
595.75	1952.64
596.10	1946.77
596.45	1940.26
596.80	1934.26
597.15	1927.72
597.50	1920.71
597.85	1914.20
598.19	1907.70
598.54	1900.74
598.89	1894.09
599.24	1888.17
599.59	1881.57
599.94	1875.39
600.29	1869.14
600.64	1862.64
600.99	1855.41
601.34	1848.75
601.69	1841.81
602.04	1835.06
602.39	1827.78
602.74	1821.07
603.08	1814.36
603.43	1807.63
603.78	1800.40
604.13	1793.19
604.48	1786.08
604.83	1779.29
605.18	1772.61
605.53	1764.73
605.87	1756.68
606.22	1749.45
606.57	1741.63
606.92	1734.23
607.27	1727.21
607.62	1720.38
607.96	1713.36
608.31	1706.81
608.66	1699.19
609.01	1691.83
609.36	1684.30
609.70	1676.35
610.05	1668.33
610.40	1660.86
610.75	1652.61
611.10	1645.06
611.44	1636.63
611.79	1628.65
612.14	1620.10
612.49	1610.90
612.83	1602.39
613.18	1594.29
613.53	1586.29
613.88	1577.79
614.22	1569.66
614.57	1560.93
614.92	1552.90
615.27	1545.37
615.61	1537.01
615.96	1529.10
616.31	1521.33
616.65	1513.96
617.00	1506.39
617.35	1498.72
617.70	1490.42
618.04	1481.94
618.39	1473.62
618.74	1466.09
619.08	1457.78
619.43	1450.18
619.78	1443.29
620.12	1436.37
620.47	1428.82
620.82	1420.55
621.16	1413.08
621.51	1405.31
621.85	1397.74
622.20	1389.29
622.55	1380.90
622.89	1373.04
623.24	1365.35
623.59	1357.94
623.93	1350.37
624.28	1343.23
624.62	1335.70
624.97	1328.43
625.32	1321.60
625.66	1314.61
626.01	1307.58
626.35	1300.20
626.70	1292.45
627.04	1284.73
627.39	1276.91
627.73	1269.55
628.08	1262.85
628.43	1255.61
628.77	1248.43
629.12	1240.93
629.46	1233.72
629.81	1226.21
630.15	1218.90
630.50	1211.63
630.84	1203.60
631.19	1195.68
631.53	1188.10
631.88	1180.62
632.22	1173.10
632.57	1165.80
632.91	1158.31
633.26	1150.78
633.60	1143.49
633.95	1136.35
634.29	1129.34
634.64	1122.61
634.98	1115.37
635.32	1108.20
635.67	1101.55
636.01	1094.96
636.36	1088.28
636.70	1081.76
637.05	1075.29
637.39	1068.96
637.73	1062.45
638.08	1056.52
638.42	1050.61
638.77	1044.24
639.11	1037.65
639.45	1031.29
639.80	1024.60
640.14	1018.22
640.49	1011.75
640.83	1005.43
641.17	999.28
641.52	993.01
641.86	986.60
642.20	980.76
642.55	974.33
642.89	967.95
643.23	961.27
643.58	955.43
643.92	949.34
644.26	943.30
644.61	937.29
644.95	931.18
645.29	924.62
645.64	917.91
645.98	911.57
646.32	905.72
646.66	899.66
647.01	893.89
647.35	888.07
647.69	882.20
648.04	876.55
648.38	870.75
648.72	864.72
649.06	858.66
649.41	852.69
649.75	846.82
650.09	840.84
650.43	835.17
650.78	829.04
651.12	823.02
651.46	817.29
651.80	811.52
652.14	806.11
652.49	800.74
652.83	795.54
653.17	789.86
653.51	784.13
653.85	778.65
654.20	773.09
654.54	767.19
654.88	761.40
655.22	755.55
655.56	749.75
655.90	744.31
656.25	739.13
656.59	733.79
656.93	728.69
657.27	723.50
657.61	718.03
657.95	712.85
658.29	707.77
658.64	702.48
658.98	697.08
659.32	691.65
659.66	686.47
660.00	681.18
660.34	676.26
660.68	671.40
661.02	666.48
661.36	661.75
661.70	657.25
662.05	652.98
662.39	648.73
662.73	644.28
663.07	639.90
663.41	635.41
663.75	630.96
664.09	626.44
664.43	622.08
664.77	617.98
665.11	613.79
665.45	609.65
665.79	605.64
666.13	601.58
666.47	597.51
666.81	593.34
667.15	589.21
667.49	585.23
667.83	581.40
668.17	577.41
668.51	573.38
668.85	569.34
669.19	565.48
669.53	561.64
669.87	557.89
670.21	554.17
670.55	550.50
670.89	547.02
671.23	543.62
671.57	540.09
671.91	536.52
672.25	532.96
672.58	529.44
672.92	525.96
673.26	522.78
673.60	519.61
673.94	516.51
674.28	513.61
674.62	510.69
674.96	507.54
675.30	504.66
675.64	501.72
675.97	498.96
676.31	496.07
676.65	493.10
676.99	490.36
677.33	487.50
677.67	484.77
678.01	481.76
678.34	478.77
678.68	475.90
679.02	473.13
679.36	470.39
679.70	467.70
680.04	464.94
680.37	462.10
680.71	459.29
681.05	456.67
681.39	453.97
681.73	451.30
682.06	448.81
682.40	446.29
682.74	443.75
683.08	441.18
683.42	438.62
683.75	436.14
684.09	433.58
684.43	431.14
684.77	428.69
685.10	426.31
685.44	424.01
685.78	421.72
686.12	419.43
686.45	417.16
686.79	414.87
687.13	412.69
687.46	410.54
687.80	408.40
688.14	406.15
688.48	404.05
688.81	401.89
689.15	399.81
689.49	397.64
689.82	395.58
690.16	393.51
690.50	391.49
690.83	389.51
691.17	387.52
691.51	385.59
691.84	383.72
692.18	381.81
692.52	379.86
692.85	377.86
693.19	375.97
693.52	374.12
693.86	372.27
694.20	370.50
694.53	368.71
694.87	366.87
695.21	365.11
695.54	363.32
695.88	361.54
696.21	359.75
696.55	358.11
696.88	356.39
697.22	354.71
697.56	353.09
697.89	351.49
698.23	349.92
698.56	348.32
698.90	346.76
699.23	345.09
699.57	343.51
699.90	342.00
700.24	340.44
700.58	338.94
700.91	337.49
701.25	336.01
701.58	334.66
701.92	333.31
702.25	331.91
702.59	330.55
702.92	329.21
703.26	327.94
703.59	326.62
703.93	325.44
704.26	324.23
704.60	322.95
704.93	321.68
705.26	320.40
705.60	319.21
705.93	318.03
706.27	317.03
706.60	315.98
706.94	314.93
707.27	313.83
707.61	312.79
707.94	311.72
708.27	310.66
708.61	309.57
708.94	308.55
709.28	307.60
709.61	306.64
709.94	305.69
710.28	304.60
710.61	303.59
710.95	302.54
711.28	301.64
711.61	300.69
711.95	299.78
712.28	298.84
712.61	297.85
712.95	296.90
713.28	295.98
713.61	295.04
713.95	294.15
714.28	293.32
714.61	292.44
714.95	291.61
715.28	290.76
715.61	289.87
715.95	289.03
716.28	288.17
716.61	287.31
716.95	286.51
717.28	285.77
717.61	285.00
717.94	284.24
718.28	283.41
718.61	282.72
718.94	281.99
719.27	281.33
719.61	280.66
719.94	280.02
720.27	279.32
720.60	278.67
720.94	278.03
721.27	277.40
721.60	276.78
721.93	276.18
722.27	275.60
722.60	275.07
722.93	274.46
723.26	273.91
723.59	273.34
723.93	272.80
724.26	272.27
724.59	271.70
724.92	271.18
725.25	270.65
725.59	270.08
725.92	269.56
726.25	269.07
726.58	268.58
726.91	268.06
727.24	267.58
727.57	267.11
727.91	266.60
728.24	266.13
728.57	265.64
728.90	265.17
729.23	264.68
729.56	264.23
729.89	263.79
730.22	263.28
730.55	262.84
730.89	262.40
731.22	261.96
731.55	261.56
731.88	261.13
732.21	260.71
732.54	260.28
732.87	259.83
733.20	259.42
733.53	259.01
733.86	258.65
734.19	258.23
734.52	257.87
734.85	257.54
735.18	257.16
735.51	256.81
735.84	256.45
736.17	256.13
736.50	255.73
736.83	255.52
737.16	255.23
737.49	254.91
737.82	254.56
738.15	254.18
738.48	253.85
738.81	253.53
739.14	253.20
739.47	252.90
739.80	252.64
740.13	252.29
740.46	252.00
740.79	251.64
741.12	251.33
741.45	250.97
741.78	250.62
742.11	250.36
742.44	250.05
742.77	249.75
743.10	249.42
743.43	249.11
743.75	248.70
744.08	248.53
744.41	248.23
744.74	247.95
745.07	247.70
745.40	247.47
745.73	247.22
746.06	246.94
746.39	246.70
746.71	246.41
747.04	246.19
747.37	245.91
747.70	245.69
748.03	245.42
748.36	245.25
748.68	245.02
749.01	244.76
749.34	244.56
749.67	244.34
750.00	244.10
750.33	243.98
750.65	243.75
750.98	243.42
751.31	243.21
751.64	243.00
751.97	242.85
752.29	242.60
752.62	242.36
752.95	242.17
753.28	241.95
753.60	241.78
753.93	241.62
754.26	241.44
754.59	241.24
754.91	241.04
755.24	240.85
755.57	240.63
755.90	240.44
756.22	240.22
756.55	240.00
756.88	239.85
757.20	239.55
757.53	239.39
757.86	239.24
758.19	239.06
758.51	238.91
758.84	238.69
759.17	238.57
759.49	238.38
759.82	238.28
760.15	238.11
760.47	237.95
760.80	237.78
761.13	237.63
761.45	237.48
761.78	237.37
762.11	237.20
762.43	237.11
762.76	236.98
763.08	236.85
763.41	236.72
763.74	236.57
764.06	236.47
764.39	236.31
764.71	236.17
765.04	236.02
765.37	235.85
765.69	235.73
766.02	235.55
766.34	235.47
766.67	235.28
767.00	235.18
767.32	235.10
767.65	235.05
767.97	234.91
768.30	234.82
768.62	234.72
768.95	234.62
769.27	234.52
769.60	234.43
769.92	234.34
770.25	234.20
770.57	234.09
770.90	233.99
771.22	233.88
771.55	233.77
771.87	233.72
772.20	233.64
772.52	233.61
772.85	233.67
773.17	233.53
773.50	233.42
773.82	233.32
774.15	233.17
774.47	232.99
774.80	232.91
775.12	232.81
775.45	232.69
775.77	232.56
776.09	232.47
776.42	232.35
776.74	232.28
777.07	232.23
777.39	232.14
777.72	232.08
778.04	232.01
778.36	231.94
778.69	231.87
779.01	231.80
779.33	231.66
779.66	231.47
779.98	231.43
780.31	231.39
780.63	231.39
780.95	231.34
781.28	231.29
781.60	231.23
781.92	231.15
782.25	231.13
782.57	231.08
782.89	231.03
783.22	230.96
783.54	230.85
783.86	230.79
784.19	230.72
784.51	230.69
784.83	230.66
785.16	230.60
785.48	230.53
785.80	230.47
786.12	230.43
786.45	230.34
786.77	230.30
787.09	230.24
