SpectraSuite Data File
++++++++++++++++++++++++++++++++++++
Date: Fri Feb 01 17:18:22 EST 2013
User: group
Dark Spectrum Present: No
Reference Spectrum Present: No
Number of Sampled Component Spectra: 1
Spectrometers: USB2E7196
Integration Time (usec): 35000 (USB2E7196)
Spectra Averaged: 100 (USB2E7196)
Boxcar Smoothing: 10 (USB2E7196)
Correct for Electrical Dark: No (USB2E7196)
Strobe/Lamp Enabled: No (USB2E7196)
Correct for Detector Non-linearity: No (USB2E7196)
Correct for Stray Light: No (USB2E7196)
Number of Pixels in Processed Spectrum: 2048
>>>>>Begin Processed Spectral Data<<<<<
339.09	0.00
339.48	213.19
339.86	214.49
340.24	216.08
340.63	216.96
341.01	219.87
341.39	219.98
341.78	221.04
342.16	222.07
342.54	222.61
342.93	211.22
343.31	221.89
343.69	222.41
344.07	222.84
344.46	223.25
344.84	223.64
345.22	223.86
345.60	224.13
345.99	224.32
346.37	224.45
346.75	224.57
347.13	224.66
347.52	224.72
347.90	224.79
348.28	224.83
348.66	224.87
349.05	224.92
349.43	224.98
349.81	225.00
350.19	225.04
350.57	225.10
350.96	225.16
351.34	225.23
351.72	225.31
352.10	225.42
352.48	225.47
352.87	225.53
353.25	225.62
353.63	225.66
354.01	225.71
354.39	225.77
354.77	225.84
355.15	225.95
355.54	226.05
355.92	226.11
356.30	226.17
356.68	226.31
357.06	226.37
357.44	226.44
357.82	226.53
358.20	226.59
358.58	226.66
358.97	226.76
359.35	226.86
359.73	226.96
360.11	227.05
360.49	227.12
360.87	227.17
361.25	227.23
361.63	227.32
362.01	227.37
362.39	227.43
362.77	227.46
363.15	227.46
363.53	227.47
363.91	227.49
364.29	227.52
364.67	227.46
365.05	227.49
365.43	227.49
365.81	227.50
366.19	227.59
366.57	227.64
366.95	227.60
367.33	227.56
367.71	227.54
368.09	227.53
368.47	227.49
368.85	227.47
369.23	227.47
369.61	227.41
369.99	227.43
370.37	227.45
370.75	227.48
371.13	227.47
371.51	227.42
371.89	227.37
372.27	227.33
372.65	227.31
373.03	227.23
373.41	227.21
373.78	227.16
374.16	227.05
374.54	226.96
374.92	226.93
375.30	226.91
375.68	226.86
376.06	226.81
376.44	226.77
376.82	226.74
377.19	226.66
377.57	226.61
377.95	226.51
378.33	226.43
378.71	226.30
379.09	226.21
379.47	226.16
379.84	226.11
380.22	226.05
380.60	225.95
380.98	225.92
381.36	225.86
381.73	225.78
382.11	225.75
382.49	225.71
382.87	225.61
383.25	225.54
383.62	225.58
384.00	225.51
384.38	225.48
384.76	225.43
385.13	225.44
385.51	225.37
385.89	225.32
386.27	225.30
386.64	225.26
387.02	225.24
387.40	225.19
387.78	225.15
388.15	225.12
388.53	225.10
388.91	225.05
389.29	224.97
389.66	224.96
390.04	224.88
390.42	224.87
390.79	224.89
391.17	224.87
391.55	224.75
391.92	224.74
392.30	224.75
392.68	224.73
393.05	224.68
393.43	224.69
393.81	224.73
394.18	224.69
394.56	224.71
394.94	224.73
395.31	224.73
395.69	224.79
396.06	224.78
396.44	224.82
396.82	224.87
397.19	225.00
397.57	225.02
397.95	225.09
398.32	225.11
398.70	225.15
399.07	225.23
399.45	225.26
399.82	225.31
400.20	225.32
400.58	225.37
400.95	225.41
401.33	225.45
401.70	225.56
402.08	225.64
402.45	225.73
402.83	225.78
403.20	225.88
403.58	225.97
403.95	226.11
404.33	226.24
404.71	226.33
405.08	226.50
405.46	226.62
405.83	226.76
406.21	226.90
406.58	227.06
406.96	227.20
407.33	227.39
407.70	227.52
408.08	227.80
408.45	228.02
408.83	228.26
409.20	228.47
409.58	228.64
409.95	228.89
410.33	229.18
410.70	229.45
411.08	229.75
411.45	230.06
411.82	230.35
412.20	230.69
412.57	231.15
412.95	231.44
413.32	231.85
413.69	232.26
414.07	232.75
414.44	233.22
414.82	233.71
415.19	234.25
415.56	234.87
415.94	235.44
416.31	236.12
416.68	236.76
417.06	237.55
417.43	238.29
417.81	239.09
418.18	239.89
418.55	240.74
418.93	241.68
419.30	242.56
419.67	243.57
420.04	244.57
420.42	245.55
420.79	246.78
421.16	247.97
421.54	249.22
421.91	250.42
422.28	251.71
422.66	253.07
423.03	254.43
423.40	255.82
423.77	257.26
424.15	258.69
424.52	260.25
424.89	261.89
425.26	263.46
425.64	264.93
426.01	266.59
426.38	268.30
426.75	270.00
427.13	271.82
427.50	273.67
427.87	275.61
428.24	277.56
428.61	279.32
428.99	281.31
429.36	283.48
429.73	285.63
430.10	287.74
430.47	289.86
430.85	292.02
431.22	294.29
431.59	296.76
431.96	299.10
432.33	301.65
432.70	304.09
433.08	306.98
433.45	309.74
433.82	312.38
434.19	315.36
434.56	318.25
434.93	320.97
435.30	323.66
435.68	326.61
436.05	329.56
436.42	332.47
436.79	335.05
437.16	337.81
437.53	340.71
437.90	343.57
438.27	346.39
438.64	349.34
439.01	352.00
439.38	354.29
439.75	356.53
440.13	359.08
440.50	361.49
440.87	363.40
441.24	365.38
441.61	367.60
441.98	369.15
442.35	371.01
442.72	372.94
443.09	374.85
443.46	375.88
443.83	376.46
444.20	376.98
444.57	377.87
444.94	378.15
445.31	378.50
445.68	378.91
446.05	379.03
446.42	378.60
446.79	378.21
447.16	377.81
447.53	377.52
447.90	376.37
448.27	375.21
448.64	373.60
449.01	372.42
449.37	370.45
449.74	368.53
450.11	366.24
450.48	363.68
450.85	361.08
451.22	358.95
451.59	356.89
451.96	354.86
452.33	352.19
452.70	349.77
453.07	346.87
453.43	343.90
453.80	341.05
454.17	338.32
454.54	335.71
454.91	332.88
455.28	330.05
455.65	327.48
456.02	324.96
456.38	322.78
456.75	320.10
457.12	317.75
457.49	315.42
457.86	313.17
458.23	311.26
458.59	309.13
458.96	306.91
459.33	304.99
459.70	303.11
460.07	301.56
460.43	299.82
460.80	298.16
461.17	296.63
461.54	295.09
461.91	293.64
462.27	292.15
462.64	290.83
463.01	289.48
463.38	288.16
463.74	286.73
464.11	285.49
464.48	284.42
464.85	283.29
465.21	282.43
465.58	281.47
465.95	280.33
466.32	279.37
466.68	278.47
467.05	277.52
467.42	276.59
467.78	275.59
468.15	274.68
468.52	274.00
468.88	273.15
469.25	272.33
469.62	271.69
469.98	270.99
470.35	270.40
470.72	269.75
471.08	269.06
471.45	268.52
471.82	267.95
472.18	267.33
472.55	266.88
472.92	266.34
473.28	265.93
473.65	265.50
474.02	265.06
474.38	264.67
474.75	264.37
475.11	264.06
475.48	263.83
475.85	263.61
476.21	263.40
476.58	263.20
476.94	263.11
477.31	262.93
477.67	262.81
478.04	262.66
478.41	262.63
478.77	262.72
479.14	262.64
479.50	262.66
479.87	262.77
480.23	262.90
480.60	262.95
480.96	263.01
481.33	263.20
481.69	263.41
482.06	263.59
482.42	263.78
482.79	264.05
483.15	264.36
483.52	264.75
483.88	265.05
484.25	265.42
484.61	265.83
484.98	266.31
485.34	266.86
485.71	267.47
486.07	268.06
486.44	268.55
486.80	269.24
487.17	269.99
487.53	270.75
487.90	271.63
488.26	272.58
488.62	273.58
488.99	274.54
489.35	275.58
489.72	276.74
490.08	277.98
490.44	279.16
490.81	280.48
491.17	281.85
491.54	283.35
491.90	284.94
492.26	286.55
492.63	288.29
492.99	290.08
493.36	291.95
493.72	294.00
494.08	296.10
494.45	298.36
494.81	300.72
495.17	303.15
495.54	305.67
495.90	308.34
496.26	311.13
496.63	314.08
496.99	317.18
497.35	320.40
497.72	323.74
498.08	327.22
498.44	330.88
498.80	334.79
499.17	338.81
499.53	342.94
499.89	347.30
500.26	351.73
500.62	356.31
500.98	361.24
501.34	366.25
501.71	371.57
502.07	376.91
502.43	382.44
502.79	388.21
503.16	394.19
503.52	400.35
503.88	406.68
504.24	413.26
504.60	420.04
504.97	427.16
505.33	434.40
505.69	442.06
506.05	449.77
506.41	457.54
506.78	465.56
507.14	473.89
507.50	482.53
507.86	491.42
508.22	500.55
508.59	509.63
508.95	519.10
509.31	528.81
509.67	538.82
510.03	548.99
510.39	559.42
510.75	570.04
511.12	580.82
511.48	591.96
511.84	603.29
512.20	614.68
512.56	626.30
512.92	638.28
513.28	650.40
513.64	662.66
514.00	675.16
514.37	688.00
514.73	700.79
515.09	713.51
515.45	726.59
515.81	739.91
516.17	753.65
516.53	767.57
516.89	781.45
517.25	795.32
517.61	809.44
517.97	823.58
518.33	837.76
518.69	852.22
519.05	866.85
519.41	881.63
519.77	896.85
520.13	912.09
520.49	927.18
520.85	942.23
521.21	957.58
521.57	973.43
521.93	988.69
522.29	1004.69
522.65	1020.61
523.01	1036.46
523.37	1052.16
523.73	1067.91
524.09	1083.60
524.45	1099.48
524.81	1115.79
525.17	1132.21
525.53	1148.74
525.89	1165.22
526.25	1181.78
526.61	1197.81
526.97	1214.23
527.33	1230.24
527.68	1246.41
528.04	1262.54
528.40	1278.73
528.76	1295.42
529.12	1311.64
529.48	1328.31
529.84	1344.02
530.20	1360.32
530.56	1376.86
530.91	1393.90
531.27	1410.51
531.63	1426.64
531.99	1442.92
532.35	1458.61
532.71	1474.19
533.07	1490.14
533.42	1505.88
533.78	1521.69
534.14	1537.67
534.50	1552.65
534.86	1568.30
535.21	1583.24
535.57	1598.95
535.93	1614.26
536.29	1628.80
536.65	1643.63
537.00	1657.98
537.36	1673.16
537.72	1687.46
538.08	1701.82
538.44	1715.42
538.79	1729.05
539.15	1742.41
539.51	1756.07
539.87	1770.18
540.22	1783.63
540.58	1797.06
540.94	1810.07
541.29	1822.62
541.65	1835.25
542.01	1848.34
542.37	1860.68
542.72	1873.04
543.08	1884.74
543.44	1897.11
543.79	1908.46
544.15	1919.39
544.51	1931.11
544.87	1941.88
545.22	1952.81
545.58	1963.00
545.94	1972.85
546.29	1982.69
546.65	1992.68
547.01	2001.94
547.36	2010.83
547.72	2019.58
548.07	2027.73
548.43	2035.98
548.79	2044.00
549.14	2051.82
549.50	2059.28
549.86	2066.92
550.21	2074.36
550.57	2081.57
550.92	2088.31
551.28	2095.45
551.64	2102.68
551.99	2109.29
552.35	2115.76
552.70	2121.98
553.06	2128.21
553.41	2134.73
553.77	2140.88
554.13	2147.10
554.48	2153.33
554.84	2159.09
555.19	2164.45
555.55	2169.89
555.90	2174.76
556.26	2180.14
556.61	2184.83
556.97	2189.56
557.32	2194.07
557.68	2198.46
558.03	2203.06
558.39	2206.87
558.74	2211.71
559.10	2215.92
559.45	2220.06
559.81	2224.60
560.16	2228.68
560.52	2232.16
560.87	2235.76
561.23	2238.72
561.58	2241.93
561.94	2244.94
562.29	2247.33
562.64	2250.45
563.00	2253.13
563.35	2256.80
563.71	2260.14
564.06	2263.55
564.42	2266.80
564.77	2269.67
565.12	2272.51
565.48	2274.82
565.83	2277.18
566.19	2278.94
566.54	2280.11
566.89	2281.51
567.25	2282.47
567.60	2284.00
567.96	2286.06
568.31	2287.29
568.66	2288.79
569.02	2289.86
569.37	2290.45
569.72	2291.84
570.08	2292.41
570.43	2292.79
570.78	2292.63
571.14	2291.50
571.49	2290.67
571.84	2290.44
572.20	2289.67
572.55	2288.79
572.90	2287.35
573.26	2286.27
573.61	2284.78
573.96	2283.56
574.31	2280.77
574.67	2278.06
575.02	2274.84
575.37	2271.74
575.72	2268.29
576.08	2265.19
576.43	2261.94
576.78	2258.59
577.13	2255.45
577.49	2252.26
577.84	2249.23
578.19	2245.80
578.54	2242.56
578.90	2238.81
579.25	2233.53
579.60	2228.85
579.95	2224.13
580.30	2219.52
580.66	2214.62
581.01	2209.77
581.36	2204.92
581.71	2201.14
582.06	2196.99
582.42	2193.02
582.77	2188.22
583.12	2183.99
583.47	2179.66
583.82	2175.05
584.17	2170.24
584.53	2165.24
584.88	2160.05
585.23	2154.65
585.58	2149.40
585.93	2143.95
586.28	2139.11
586.63	2134.46
586.98	2129.57
587.34	2125.02
587.69	2120.22
588.04	2115.25
588.39	2110.05
588.74	2103.88
589.09	2097.93
589.44	2091.52
589.79	2085.37
590.14	2079.57
590.49	2073.05
590.84	2066.77
591.19	2061.01
591.54	2054.67
591.89	2047.53
592.25	2041.11
592.60	2033.99
592.95	2026.59
593.30	2019.45
593.65	2012.10
594.00	2005.09
594.35	1998.05
594.70	1990.00
595.05	1983.25
595.40	1976.00
595.75	1968.46
596.10	1962.52
596.45	1955.89
596.80	1949.87
597.15	1943.42
597.50	1936.89
597.85	1930.52
598.19	1924.03
598.54	1917.16
598.89	1910.49
599.24	1904.55
599.59	1898.02
599.94	1891.95
600.29	1885.63
600.64	1879.15
600.99	1871.93
601.34	1865.19
601.69	1858.06
602.04	1851.50
602.39	1844.03
602.74	1837.44
603.08	1830.88
603.43	1824.02
603.78	1816.77
604.13	1809.42
604.48	1802.31
604.83	1795.41
605.18	1788.71
605.53	1780.71
605.87	1772.65
606.22	1765.48
606.57	1757.61
606.92	1750.03
607.27	1742.91
607.62	1736.26
607.96	1729.01
608.31	1722.50
608.66	1715.04
609.01	1707.74
609.36	1700.17
609.70	1692.29
610.05	1684.17
610.40	1676.39
610.75	1668.10
611.10	1660.45
611.44	1651.96
611.79	1643.91
612.14	1635.08
612.49	1625.72
612.83	1617.33
613.18	1608.99
613.53	1600.83
613.88	1592.25
614.22	1583.92
614.57	1575.05
614.92	1566.86
615.27	1559.41
615.61	1550.99
615.96	1542.77
616.31	1534.89
616.65	1527.38
617.00	1519.66
617.35	1511.84
617.70	1503.63
618.04	1495.06
618.39	1486.66
618.74	1479.07
619.08	1470.68
619.43	1463.10
619.78	1456.14
620.12	1448.94
620.47	1441.44
620.82	1433.14
621.16	1425.53
621.51	1417.92
621.85	1410.22
622.20	1401.59
622.55	1392.95
622.89	1384.89
623.24	1377.07
623.59	1369.54
623.93	1361.89
624.28	1354.59
624.62	1347.04
624.97	1339.74
625.32	1332.87
625.66	1325.76
626.01	1318.43
626.35	1311.05
626.70	1303.11
627.04	1295.43
627.39	1287.46
627.73	1279.96
628.08	1273.01
628.43	1265.81
628.77	1258.47
629.12	1250.93
629.46	1243.66
629.81	1236.13
630.15	1228.75
630.50	1221.32
630.84	1213.18
631.19	1205.10
631.53	1197.32
631.88	1189.60
632.22	1181.79
632.57	1174.33
632.91	1166.66
633.26	1159.36
633.60	1151.74
633.95	1144.44
634.29	1137.15
634.64	1130.47
634.98	1123.06
635.32	1115.82
635.67	1108.96
636.01	1102.19
636.36	1095.34
636.70	1088.80
637.05	1082.25
637.39	1075.84
637.73	1069.31
638.08	1063.26
638.42	1057.31
638.77	1050.92
639.11	1044.49
639.45	1038.04
639.80	1031.36
640.14	1024.97
640.49	1018.38
640.83	1012.01
641.17	1005.87
641.52	999.57
641.86	992.99
642.20	987.06
642.55	980.65
642.89	974.29
643.23	967.58
643.58	961.73
643.92	955.45
644.26	949.50
644.61	943.29
644.95	937.26
645.29	930.74
645.64	924.00
645.98	917.63
646.32	911.51
646.66	905.47
647.01	899.65
647.35	893.98
647.69	887.97
648.04	882.42
648.38	876.62
648.72	870.72
649.06	864.69
649.41	858.69
649.75	852.80
650.09	846.83
650.43	841.11
650.78	835.00
651.12	829.01
651.46	823.14
651.80	817.51
652.14	812.15
652.49	806.71
652.83	801.45
653.17	795.85
653.51	790.23
653.85	784.71
654.20	779.08
654.54	772.97
654.88	767.21
655.22	761.27
655.56	755.46
655.90	749.87
656.25	744.57
656.59	739.27
656.93	734.09
657.27	728.84
657.61	723.28
657.95	718.10
658.29	712.96
658.64	707.61
658.98	702.21
659.32	696.66
659.66	691.40
660.00	686.09
660.34	681.06
660.68	676.09
661.02	671.06
661.36	666.31
661.70	661.79
662.05	657.44
662.39	653.14
662.73	648.66
663.07	644.20
663.41	639.74
663.75	635.23
664.09	630.68
664.43	626.31
664.77	622.23
665.11	618.06
665.45	613.89
665.79	609.87
666.13	605.76
666.47	601.63
666.81	597.50
667.15	593.31
667.49	589.31
667.83	585.39
668.17	581.50
668.51	577.43
668.85	573.37
669.19	569.40
669.53	565.50
669.87	561.64
670.21	557.96
670.55	554.26
670.89	550.80
671.23	547.32
671.57	543.75
671.91	540.27
672.25	536.62
672.58	533.04
672.92	529.49
673.26	526.28
673.60	523.04
673.94	519.94
674.28	517.06
674.62	514.06
674.96	510.97
675.30	508.01
675.64	505.06
675.97	502.22
676.31	499.37
676.65	496.43
676.99	493.70
677.33	490.74
677.67	487.91
678.01	484.89
678.34	481.94
678.68	479.04
679.02	476.14
679.36	473.31
679.70	470.62
680.04	467.91
680.37	465.08
680.71	462.26
681.05	459.62
681.39	456.83
681.73	454.23
682.06	451.69
682.40	449.16
682.74	446.60
683.08	444.06
683.42	441.43
683.75	438.95
684.09	436.33
684.43	433.88
684.77	431.37
685.10	428.96
685.44	426.52
685.78	424.20
686.12	421.95
686.45	419.68
686.79	417.36
687.13	415.15
687.46	412.90
687.80	410.74
688.14	408.46
688.48	406.35
688.81	404.12
689.15	401.98
689.49	399.72
689.82	397.56
690.16	395.41
690.50	393.44
690.83	391.43
691.17	389.41
691.51	387.49
691.84	385.69
692.18	383.78
692.52	381.86
692.85	379.88
693.19	377.94
693.52	376.06
693.86	374.17
694.20	372.32
694.53	370.54
694.87	368.65
695.21	366.82
695.54	364.99
695.88	363.21
696.21	361.44
696.55	359.79
696.88	358.12
697.22	356.45
697.56	354.73
697.89	353.11
698.23	351.48
698.56	349.84
698.90	348.16
699.23	346.49
699.57	344.90
699.90	343.37
700.24	341.80
700.58	340.29
700.91	338.78
701.25	337.32
701.58	335.92
701.92	334.56
702.25	333.18
702.59	331.75
702.92	330.41
703.26	329.09
703.59	327.75
703.93	326.53
704.26	325.31
704.60	324.03
704.93	322.70
705.26	321.46
705.60	320.24
705.93	319.10
706.27	318.04
706.60	316.96
706.94	315.85
707.27	314.67
707.61	313.61
707.94	312.57
708.27	311.48
708.61	310.36
708.94	309.32
709.28	308.31
709.61	307.37
709.94	306.43
710.28	305.40
710.61	304.43
710.95	303.33
711.28	302.40
711.61	301.47
711.95	300.56
712.28	299.62
712.61	298.63
712.95	297.66
713.28	296.78
713.61	295.88
713.95	295.00
714.28	294.16
714.61	293.27
714.95	292.39
715.28	291.50
715.61	290.61
715.95	289.75
716.28	288.91
716.61	288.06
716.95	287.15
717.28	286.36
717.61	285.60
717.94	284.88
718.28	284.02
718.61	283.23
718.94	282.52
719.27	281.89
719.61	281.23
719.94	280.56
720.27	279.82
720.60	279.14
720.94	278.50
721.27	277.92
721.60	277.29
721.93	276.70
722.27	276.15
722.60	275.61
722.93	275.06
723.26	274.50
723.59	273.94
723.93	273.41
724.26	272.89
724.59	272.30
724.92	271.75
725.25	271.29
725.59	270.76
725.92	270.25
726.25	269.69
726.58	269.19
726.91	268.67
727.24	268.19
727.57	267.71
727.91	267.16
728.24	266.64
728.57	266.18
728.90	265.75
729.23	265.28
729.56	264.81
729.89	264.32
730.22	263.83
730.55	263.36
730.89	262.95
731.22	262.47
731.55	262.06
731.88	261.61
732.21	261.16
732.54	260.75
732.87	260.32
733.20	259.89
733.53	259.49
733.86	259.14
734.19	258.73
734.52	258.32
734.85	258.04
735.18	257.62
735.51	257.26
735.84	256.83
736.17	256.44
736.50	256.05
736.83	255.80
737.16	255.46
737.49	255.10
737.82	254.73
738.15	254.38
738.48	254.01
738.81	253.65
739.14	253.29
739.47	252.96
739.80	252.63
740.13	252.37
740.46	252.01
740.79	251.67
741.12	251.35
741.45	251.04
741.78	250.67
742.11	250.40
742.44	250.03
742.77	249.76
743.10	249.48
743.43	249.17
743.75	248.78
744.08	248.62
744.41	248.35
744.74	248.04
745.07	247.73
745.40	247.45
745.73	247.26
746.06	246.94
746.39	246.68
746.71	246.42
747.04	246.05
747.37	245.78
747.70	245.55
748.03	245.28
748.36	245.04
748.68	244.79
749.01	244.52
749.34	244.31
749.67	244.06
750.00	243.80
750.33	243.63
750.65	243.41
750.98	243.08
751.31	242.80
751.64	242.62
751.97	242.49
752.29	242.29
752.62	242.02
752.95	241.86
753.28	241.64
753.60	241.40
753.93	241.25
754.26	241.08
754.59	240.83
754.91	240.64
755.24	240.41
755.57	240.24
755.90	240.05
756.22	239.86
756.55	239.66
756.88	239.48
757.20	239.26
757.53	239.04
757.86	238.85
758.19	238.72
758.51	238.54
758.84	238.33
759.17	238.14
759.49	237.98
759.82	237.86
760.15	237.73
760.47	237.60
760.80	237.40
761.13	237.24
761.45	237.07
761.78	236.92
762.11	236.81
762.43	236.65
762.76	236.54
763.08	236.43
763.41	236.33
763.74	236.18
764.06	236.06
764.39	235.94
764.71	235.81
765.04	235.68
765.37	235.54
765.69	235.40
766.02	235.31
766.34	235.19
766.67	235.04
767.00	234.93
767.32	234.87
767.65	234.87
767.97	234.81
768.30	234.76
768.62	234.65
768.95	234.53
769.27	234.41
769.60	234.34
769.92	234.17
770.25	234.05
770.57	233.95
770.90	233.85
771.22	233.76
771.55	233.69
771.87	233.61
772.20	233.52
772.52	233.51
772.85	233.50
773.17	233.41
773.50	233.32
773.82	233.23
774.15	233.06
774.47	232.90
774.80	232.79
775.12	232.67
775.45	232.58
775.77	232.50
776.09	232.44
776.42	232.34
776.74	232.32
777.07	232.24
777.39	232.14
777.72	232.05
778.04	231.95
778.36	231.86
778.69	231.78
779.01	231.71
779.33	231.53
779.66	231.36
779.98	231.27
780.31	231.22
780.63	231.20
780.95	231.16
781.28	231.12
781.60	231.02
781.92	230.94
782.25	230.91
782.57	230.84
782.89	230.73
783.22	230.65
783.54	230.55
783.86	230.51
784.19	230.45
784.51	230.38
784.83	230.33
785.16	230.27
785.48	230.19
785.80	230.12
786.12	230.08
786.45	230.01
786.77	229.96
787.09	229.89
