SpectraSuite Data File
++++++++++++++++++++++++++++++++++++
Date: Fri Feb 01 17:24:16 EST 2013
User: group
Dark Spectrum Present: No
Reference Spectrum Present: No
Number of Sampled Component Spectra: 1
Spectrometers: USB2E7196
Integration Time (usec): 35000 (USB2E7196)
Spectra Averaged: 100 (USB2E7196)
Boxcar Smoothing: 10 (USB2E7196)
Correct for Electrical Dark: No (USB2E7196)
Strobe/Lamp Enabled: No (USB2E7196)
Correct for Detector Non-linearity: No (USB2E7196)
Correct for Stray Light: No (USB2E7196)
Number of Pixels in Processed Spectrum: 2048
>>>>>Begin Processed Spectral Data<<<<<
339.09	0.00
339.48	213.03
339.86	214.89
340.24	215.64
340.63	217.72
341.01	220.68
341.39	220.29
341.78	220.86
342.16	222.73
342.54	222.84
342.93	211.48
343.31	222.16
343.69	222.70
344.07	223.14
344.46	223.55
344.84	223.86
345.22	224.05
345.60	224.29
345.99	224.49
346.37	224.60
346.75	224.69
347.13	224.72
347.52	224.74
347.90	224.81
348.28	224.85
348.66	224.88
349.05	224.86
349.43	224.87
349.81	224.88
350.19	224.91
350.57	224.98
350.96	225.05
351.34	225.14
351.72	225.19
352.10	225.25
352.48	225.33
352.87	225.40
353.25	225.46
353.63	225.48
354.01	225.55
354.39	225.61
354.77	225.70
355.15	225.84
355.54	225.88
355.92	225.90
356.30	225.95
356.68	226.09
357.06	226.13
357.44	226.18
357.82	226.26
358.20	226.35
358.58	226.43
358.97	226.50
359.35	226.55
359.73	226.67
360.11	226.75
360.49	226.81
360.87	226.89
361.25	226.97
361.63	227.04
362.01	227.06
362.39	227.10
362.77	227.15
363.15	227.15
363.53	227.21
363.91	227.24
364.29	227.25
364.67	227.14
365.05	227.17
365.43	227.20
365.81	227.20
366.19	227.28
366.57	227.32
366.95	227.33
367.33	227.33
367.71	227.28
368.09	227.31
368.47	227.30
368.85	227.26
369.23	227.26
369.61	227.21
369.99	227.24
370.37	227.21
370.75	227.21
371.13	227.21
371.51	227.15
371.89	227.09
372.27	227.09
372.65	227.10
373.03	227.07
373.41	227.05
373.78	227.01
374.16	226.88
374.54	226.79
374.92	226.73
375.30	226.67
375.68	226.61
376.06	226.54
376.44	226.48
376.82	226.43
377.19	226.35
377.57	226.32
377.95	226.24
378.33	226.20
378.71	226.07
379.09	225.95
379.47	225.91
379.84	225.87
380.22	225.78
380.60	225.71
380.98	225.68
381.36	225.60
381.73	225.50
382.11	225.46
382.49	225.42
382.87	225.33
383.25	225.28
383.62	225.37
384.00	225.28
384.38	225.24
384.76	225.23
385.13	225.21
385.51	225.16
385.89	225.08
386.27	225.04
386.64	225.00
387.02	224.99
387.40	224.95
387.78	224.91
388.15	224.90
388.53	224.89
388.91	224.82
389.29	224.80
389.66	224.80
390.04	224.80
390.42	224.77
390.79	224.78
391.17	224.76
391.55	224.62
391.92	224.62
392.30	224.59
392.68	224.56
393.05	224.53
393.43	224.52
393.81	224.55
394.18	224.54
394.56	224.55
394.94	224.58
395.31	224.57
395.69	224.61
396.06	224.64
396.44	224.64
396.82	224.66
397.19	224.75
397.57	224.77
397.95	224.80
398.32	224.84
398.70	224.86
399.07	224.92
399.45	224.96
399.82	224.98
400.20	225.05
400.58	225.12
400.95	225.16
401.33	225.25
401.70	225.37
402.08	225.42
402.45	225.53
402.83	225.65
403.20	225.76
403.58	225.85
403.95	225.92
404.33	226.05
404.71	226.17
405.08	226.30
405.46	226.45
405.83	226.62
406.21	226.73
406.58	226.90
406.96	227.04
407.33	227.23
407.70	227.46
408.08	227.72
408.45	227.92
408.83	228.13
409.20	228.35
409.58	228.55
409.95	228.82
410.33	229.07
410.70	229.29
411.08	229.57
411.45	229.91
411.82	230.23
412.20	230.56
412.57	231.01
412.95	231.31
413.32	231.72
413.69	232.13
414.07	232.61
414.44	233.10
414.82	233.59
415.19	234.17
415.56	234.70
415.94	235.28
416.31	235.93
416.68	236.62
417.06	237.37
417.43	238.08
417.81	238.87
418.18	239.68
418.55	240.55
418.93	241.48
419.30	242.39
419.67	243.37
420.04	244.38
420.42	245.41
420.79	246.66
421.16	247.85
421.54	249.08
421.91	250.36
422.28	251.65
422.66	253.05
423.03	254.42
423.40	255.84
423.77	257.30
424.15	258.80
424.52	260.37
424.89	262.03
425.26	263.63
425.64	265.15
426.01	266.85
426.38	268.59
426.75	270.36
427.13	272.20
427.50	274.09
427.87	276.09
428.24	277.99
428.61	279.78
428.99	281.81
429.36	283.97
429.73	286.07
430.10	288.18
430.47	290.34
430.85	292.52
431.22	294.85
431.59	297.29
431.96	299.63
432.33	302.21
432.70	304.65
433.08	307.60
433.45	310.35
433.82	313.04
434.19	316.00
434.56	318.91
434.93	321.63
435.30	324.33
435.68	327.27
436.05	330.23
436.42	333.17
436.79	335.77
437.16	338.58
437.53	341.56
437.90	344.49
438.27	347.28
438.64	350.23
439.01	352.90
439.38	355.24
439.75	357.45
440.13	360.02
440.50	362.46
440.87	364.37
441.24	366.41
441.61	368.64
441.98	370.22
442.35	372.07
442.72	374.05
443.09	375.97
443.46	377.01
443.83	377.63
444.20	378.11
444.57	378.98
444.94	379.32
445.31	379.64
445.68	380.03
446.05	380.15
446.42	379.75
446.79	379.35
447.16	378.89
447.53	378.59
447.90	377.40
448.27	376.19
448.64	374.55
449.01	373.37
449.37	371.38
449.74	369.46
450.11	367.11
450.48	364.54
450.85	361.92
451.22	359.73
451.59	357.64
451.96	355.68
452.33	353.02
452.70	350.56
453.07	347.63
453.43	344.62
453.80	341.78
454.17	339.04
454.54	336.38
454.91	333.55
455.28	330.76
455.65	328.20
456.02	325.69
456.38	323.43
456.75	320.67
457.12	318.30
457.49	315.97
457.86	313.70
458.23	311.76
458.59	309.61
458.96	307.42
459.33	305.47
459.70	303.50
460.07	301.90
460.43	300.12
460.80	298.40
461.17	296.89
461.54	295.31
461.91	293.83
462.27	292.32
462.64	291.04
463.01	289.64
463.38	288.28
463.74	286.80
464.11	285.63
464.48	284.53
464.85	283.34
465.21	282.43
465.58	281.52
465.95	280.39
466.32	279.44
466.68	278.52
467.05	277.61
467.42	276.71
467.78	275.77
468.15	274.84
468.52	274.24
468.88	273.33
469.25	272.50
469.62	271.84
469.98	271.15
470.35	270.49
470.72	269.90
471.08	269.22
471.45	268.66
471.82	268.10
472.18	267.49
472.55	267.04
472.92	266.47
473.28	265.96
473.65	265.49
474.02	265.05
474.38	264.67
474.75	264.33
475.11	263.95
475.48	263.70
475.85	263.49
476.21	263.20
476.58	263.02
476.94	262.92
477.31	262.74
477.67	262.58
478.04	262.49
478.41	262.44
478.77	262.49
479.14	262.48
479.50	262.53
479.87	262.60
480.23	262.69
480.60	262.77
480.96	262.87
481.33	263.09
481.69	263.29
482.06	263.48
482.42	263.70
482.79	263.96
483.15	264.24
483.52	264.61
483.88	264.98
484.25	265.37
484.61	265.77
484.98	266.21
485.34	266.78
485.71	267.33
486.07	267.89
486.44	268.45
486.80	269.14
487.17	269.83
487.53	270.61
487.90	271.47
488.26	272.44
488.62	273.43
488.99	274.40
489.35	275.44
489.72	276.55
490.08	277.71
490.44	278.94
490.81	280.28
491.17	281.63
491.54	283.08
491.90	284.62
492.26	286.27
492.63	288.01
492.99	289.77
493.36	291.67
493.72	293.72
494.08	295.80
494.45	298.04
494.81	300.40
495.17	302.87
495.54	305.39
495.90	308.05
496.26	310.84
496.63	313.80
496.99	316.91
497.35	320.19
497.72	323.58
498.08	327.09
498.44	330.73
498.80	334.63
499.17	338.65
499.53	342.80
499.89	347.15
500.26	351.65
500.62	356.28
500.98	361.20
501.34	366.21
501.71	371.47
502.07	376.86
502.43	382.40
502.79	388.12
503.16	394.15
503.52	400.33
503.88	406.65
504.24	413.17
504.60	419.98
504.97	427.03
505.33	434.22
505.69	441.83
506.05	449.55
506.41	457.29
506.78	465.29
507.14	473.66
507.50	482.24
507.86	491.11
508.22	500.17
508.59	509.20
508.95	518.56
509.31	528.20
509.67	538.14
510.03	548.31
510.39	558.68
510.75	569.26
511.12	579.99
511.48	591.06
511.84	602.34
512.20	613.60
512.56	625.27
512.92	637.23
513.28	649.35
513.64	661.49
514.00	673.94
514.37	686.63
514.73	699.33
515.09	712.07
515.45	725.09
515.81	738.38
516.17	752.17
516.53	766.00
516.89	779.85
517.25	793.60
517.61	807.66
517.97	821.78
518.33	835.83
518.69	850.22
519.05	864.87
519.41	879.63
519.77	894.70
520.13	909.72
520.49	924.84
520.85	939.80
521.21	955.06
521.57	970.93
521.93	986.29
522.29	1002.25
522.65	1018.05
523.01	1033.71
523.37	1049.33
523.73	1064.95
524.09	1080.59
524.45	1096.49
524.81	1112.76
525.17	1128.98
525.53	1145.40
525.89	1161.94
526.25	1178.33
526.61	1194.30
526.97	1210.65
527.33	1226.88
527.68	1243.10
528.04	1259.02
528.40	1275.07
528.76	1291.73
529.12	1307.87
529.48	1324.47
529.84	1340.10
530.20	1356.34
530.56	1372.94
530.91	1389.87
531.27	1406.31
531.63	1422.40
531.99	1438.62
532.35	1454.41
532.71	1470.07
533.07	1485.91
533.42	1501.50
533.78	1517.19
534.14	1533.14
534.50	1548.13
534.86	1563.56
535.21	1578.49
535.57	1594.06
535.93	1609.32
536.29	1623.80
536.65	1638.61
537.00	1652.92
537.36	1667.91
537.72	1682.20
538.08	1696.44
538.44	1709.97
538.79	1723.55
539.15	1736.99
539.51	1750.44
539.87	1764.39
540.22	1777.76
540.58	1791.36
540.94	1804.43
541.29	1817.07
541.65	1829.48
542.01	1842.58
542.37	1854.86
542.72	1867.21
543.08	1879.05
543.44	1891.40
543.79	1902.77
544.15	1913.77
544.51	1925.37
544.87	1936.32
545.22	1947.11
545.58	1957.43
545.94	1967.28
546.29	1977.34
546.65	1987.38
547.01	1996.83
547.36	2005.61
547.72	2014.37
548.07	2022.50
548.43	2030.67
548.79	2038.80
549.14	2046.67
549.50	2053.99
549.86	2061.60
550.21	2068.99
550.57	2076.37
550.92	2083.22
551.28	2090.47
551.64	2097.68
551.99	2104.48
552.35	2110.87
552.70	2117.31
553.06	2123.49
553.41	2130.11
553.77	2136.12
554.13	2142.38
554.48	2148.60
554.84	2154.62
555.19	2160.10
555.55	2165.51
555.90	2170.40
556.26	2175.77
556.61	2180.75
556.97	2185.54
557.32	2190.22
557.68	2194.72
558.03	2199.24
558.39	2203.16
558.74	2207.95
559.10	2212.16
559.45	2216.11
559.81	2220.70
560.16	2224.70
560.52	2228.36
560.87	2232.20
561.23	2235.36
561.58	2238.46
561.94	2241.40
562.29	2243.83
562.64	2246.92
563.00	2249.72
563.35	2253.52
563.71	2256.87
564.06	2260.28
564.42	2263.63
564.77	2266.49
565.12	2269.29
565.48	2271.63
565.83	2274.03
566.19	2275.79
566.54	2277.00
566.89	2278.50
567.25	2279.60
567.60	2281.21
567.96	2283.32
568.31	2284.42
568.66	2285.84
569.02	2286.88
569.37	2287.67
569.72	2288.98
570.08	2289.65
570.43	2290.19
570.78	2289.97
571.14	2288.98
571.49	2288.04
571.84	2288.01
572.20	2287.30
572.55	2286.53
572.90	2285.06
573.26	2284.07
573.61	2282.69
573.96	2281.43
574.31	2278.83
574.67	2276.15
575.02	2272.99
575.37	2269.90
575.72	2266.51
576.08	2263.39
576.43	2260.38
576.78	2257.30
577.13	2254.19
577.49	2251.13
577.84	2248.06
578.19	2244.70
578.54	2241.42
578.90	2237.62
579.25	2232.33
579.60	2227.71
579.95	2223.08
580.30	2218.50
580.66	2213.45
581.01	2208.71
581.36	2203.96
581.71	2200.16
582.06	2196.15
582.42	2192.15
582.77	2187.16
583.12	2182.94
583.47	2178.88
583.82	2174.39
584.17	2169.32
584.53	2164.35
584.88	2159.14
585.23	2153.50
585.58	2148.19
585.93	2142.93
586.28	2138.19
586.63	2133.44
586.98	2128.47
587.34	2123.92
587.69	2119.20
588.04	2114.42
588.39	2109.01
588.74	2102.73
589.09	2096.89
589.44	2090.36
589.79	2084.36
590.14	2078.85
590.49	2072.50
590.84	2066.13
591.19	2060.23
591.54	2053.80
591.89	2046.85
592.25	2040.48
592.60	2033.60
592.95	2026.45
593.30	2019.37
593.65	2012.13
594.00	2005.16
594.35	1998.21
594.70	1990.17
595.05	1983.46
595.40	1976.24
595.75	1968.94
596.10	1963.13
596.45	1956.36
596.80	1950.28
597.15	1943.92
597.50	1937.34
597.85	1930.87
598.19	1924.38
598.54	1917.78
598.89	1911.27
599.24	1905.27
599.59	1898.75
599.94	1892.52
600.29	1886.12
600.64	1879.50
600.99	1872.13
601.34	1865.43
601.69	1858.41
602.04	1851.80
602.39	1844.45
602.74	1837.82
603.08	1831.36
603.43	1824.55
603.78	1817.45
604.13	1810.35
604.48	1803.19
604.83	1796.21
605.18	1789.55
605.53	1781.70
605.87	1773.48
606.22	1766.30
606.57	1758.45
606.92	1750.87
607.27	1743.77
607.62	1736.95
607.96	1729.79
608.31	1723.51
608.66	1715.94
609.01	1708.52
609.36	1700.97
609.70	1693.03
610.05	1684.89
610.40	1677.10
610.75	1668.82
611.10	1661.05
611.44	1652.41
611.79	1644.21
612.14	1635.51
612.49	1626.20
612.83	1617.55
613.18	1609.34
613.53	1601.16
613.88	1592.64
614.22	1584.34
614.57	1575.57
614.92	1567.54
615.27	1559.97
615.61	1551.49
615.96	1543.38
616.31	1535.54
616.65	1528.06
617.00	1520.30
617.35	1512.46
617.70	1504.02
618.04	1495.44
618.39	1487.09
618.74	1479.56
619.08	1471.26
619.43	1463.51
619.78	1456.39
620.12	1449.23
620.47	1441.65
620.82	1433.34
621.16	1425.61
621.51	1417.90
621.85	1410.20
622.20	1401.55
622.55	1392.99
622.89	1385.00
623.24	1377.27
623.59	1369.71
623.93	1362.08
624.28	1354.74
624.62	1347.21
624.97	1340.03
625.32	1333.12
625.66	1325.98
626.01	1318.64
626.35	1311.13
626.70	1303.29
627.04	1295.63
627.39	1287.73
627.73	1280.15
628.08	1273.13
628.43	1266.04
628.77	1258.59
629.12	1251.08
629.46	1243.88
629.81	1236.29
630.15	1228.83
630.50	1221.33
630.84	1213.17
631.19	1205.05
631.53	1197.36
631.88	1189.68
632.22	1181.92
632.57	1174.53
632.91	1166.92
633.26	1159.42
633.60	1151.84
633.95	1144.54
634.29	1137.41
634.64	1130.68
634.98	1123.26
635.32	1116.12
635.67	1109.22
636.01	1102.57
636.36	1095.67
636.70	1089.08
637.05	1082.50
637.39	1076.01
637.73	1069.49
638.08	1063.52
638.42	1057.55
638.77	1051.14
639.11	1044.62
639.45	1038.14
639.80	1031.48
640.14	1025.09
640.49	1018.56
640.83	1012.33
641.17	1006.15
641.52	999.74
641.86	993.19
642.20	987.36
642.55	980.91
642.89	974.44
643.23	967.71
643.58	961.88
643.92	955.56
644.26	949.61
644.61	943.47
644.95	937.45
645.29	930.88
645.64	924.09
645.98	917.73
646.32	911.65
646.66	905.51
647.01	899.63
647.35	893.84
647.69	887.99
648.04	882.32
648.38	876.47
648.72	870.45
649.06	864.45
649.41	858.44
649.75	852.47
650.09	846.47
650.43	840.72
650.78	834.51
651.12	828.58
651.46	822.73
651.80	817.03
652.14	811.51
652.49	806.11
652.83	800.95
653.17	795.31
653.51	789.63
653.85	784.21
654.20	778.60
654.54	772.59
654.88	766.75
655.22	760.89
655.56	755.14
655.90	749.70
656.25	744.33
656.59	738.93
656.93	733.84
657.27	728.75
657.61	723.32
657.95	718.21
658.29	713.09
658.64	707.80
658.98	702.47
659.32	696.99
659.66	691.75
660.00	686.45
660.34	681.43
660.68	676.51
661.02	671.48
661.36	666.71
661.70	662.13
662.05	657.77
662.39	653.50
662.73	649.05
663.07	644.59
663.41	640.22
663.75	635.71
664.09	631.11
664.43	626.66
664.77	622.58
665.11	618.39
665.45	614.18
665.79	610.17
666.13	605.99
666.47	601.93
666.81	597.78
667.15	593.57
667.49	589.59
667.83	585.65
668.17	581.68
668.51	577.60
668.85	573.56
669.19	569.69
669.53	565.81
669.87	561.95
670.21	558.23
670.55	554.58
670.89	551.15
671.23	547.77
671.57	544.25
671.91	540.65
672.25	537.07
672.58	533.56
672.92	530.05
673.26	526.83
673.60	523.60
673.94	520.47
674.28	517.59
674.62	514.65
674.96	511.61
675.30	508.70
675.64	505.74
675.97	502.95
676.31	500.06
676.65	497.02
676.99	494.30
677.33	491.35
677.67	488.49
678.01	485.44
678.34	482.44
678.68	479.49
679.02	476.66
679.36	473.85
679.70	471.09
680.04	468.29
680.37	465.43
680.71	462.61
681.05	459.89
681.39	457.11
681.73	454.37
682.06	451.82
682.40	449.26
682.74	446.72
683.08	444.15
683.42	441.55
683.75	439.07
684.09	436.42
684.43	433.94
684.77	431.39
685.10	428.96
685.44	426.54
685.78	424.25
686.12	421.94
686.45	419.61
686.79	417.33
687.13	415.13
687.46	412.89
687.80	410.68
688.14	408.43
688.48	406.31
688.81	404.16
689.15	401.97
689.49	399.75
689.82	397.68
690.16	395.52
690.50	393.44
690.83	391.53
691.17	389.52
691.51	387.59
691.84	385.75
692.18	383.87
692.52	381.92
692.85	379.90
693.19	377.99
693.52	376.14
693.86	374.25
694.20	372.42
694.53	370.63
694.87	368.76
695.21	366.93
695.54	365.08
695.88	363.26
696.21	361.47
696.55	359.78
696.88	358.03
697.22	356.29
697.56	354.68
697.89	352.97
698.23	351.36
698.56	349.73
698.90	348.12
699.23	346.46
699.57	344.92
699.90	343.36
700.24	341.80
700.58	340.31
700.91	338.80
701.25	337.34
701.58	335.96
701.92	334.59
702.25	333.26
702.59	331.90
702.92	330.58
703.26	329.29
703.59	328.00
703.93	326.78
704.26	325.58
704.60	324.29
704.93	323.02
705.26	321.76
705.60	320.51
705.93	319.30
706.27	318.20
706.60	317.09
706.94	316.04
707.27	314.91
707.61	313.79
707.94	312.77
708.27	311.63
708.61	310.52
708.94	309.50
709.28	308.50
709.61	307.56
709.94	306.57
710.28	305.56
710.61	304.52
710.95	303.42
711.28	302.51
711.61	301.54
711.95	300.59
712.28	299.66
712.61	298.71
712.95	297.81
713.28	296.92
713.61	296.01
713.95	295.05
714.28	294.15
714.61	293.29
714.95	292.39
715.28	291.54
715.61	290.68
715.95	289.83
716.28	288.96
716.61	288.06
716.95	287.22
717.28	286.42
717.61	285.63
717.94	284.89
718.28	284.04
718.61	283.29
718.94	282.57
719.27	281.87
719.61	281.20
719.94	280.48
720.27	279.79
720.60	279.09
720.94	278.47
721.27	277.89
721.60	277.29
721.93	276.66
722.27	276.09
722.60	275.49
722.93	274.86
723.26	274.28
723.59	273.76
723.93	273.18
724.26	272.58
724.59	272.01
724.92	271.48
725.25	270.95
725.59	270.40
725.92	269.86
726.25	269.35
726.58	268.85
726.91	268.37
727.24	267.84
727.57	267.37
727.91	266.84
728.24	266.35
728.57	265.83
728.90	265.39
729.23	264.90
729.56	264.46
729.89	263.96
730.22	263.45
730.55	262.94
730.89	262.50
731.22	262.09
731.55	261.69
731.88	261.21
732.21	260.78
732.54	260.32
732.87	259.87
733.20	259.43
733.53	259.01
733.86	258.61
734.19	258.23
734.52	257.82
734.85	257.49
735.18	257.08
735.51	256.70
735.84	256.28
736.17	255.93
736.50	255.56
736.83	255.32
737.16	254.98
737.49	254.66
737.82	254.30
738.15	253.94
738.48	253.59
738.81	253.29
739.14	252.95
739.47	252.67
739.80	252.39
740.13	252.07
740.46	251.72
740.79	251.41
741.12	251.10
741.45	250.78
741.78	250.46
742.11	250.15
742.44	249.82
742.77	249.56
743.10	249.26
743.43	248.96
743.75	248.61
744.08	248.46
744.41	248.18
744.74	247.93
745.07	247.66
745.40	247.42
745.73	247.18
746.06	246.95
746.39	246.68
746.71	246.39
747.04	246.17
747.37	245.95
747.70	245.70
748.03	245.45
748.36	245.22
748.68	244.98
749.01	244.73
749.34	244.50
749.67	244.28
750.00	244.08
750.33	243.92
750.65	243.67
750.98	243.34
751.31	243.10
751.64	242.90
751.97	242.73
752.29	242.53
752.62	242.25
752.95	242.00
753.28	241.78
753.60	241.59
753.93	241.41
754.26	241.17
754.59	240.96
754.91	240.76
755.24	240.57
755.57	240.42
755.90	240.24
756.22	240.06
756.55	239.83
756.88	239.60
757.20	239.37
757.53	239.18
757.86	239.02
758.19	238.89
758.51	238.69
758.84	238.48
759.17	238.27
759.49	238.15
759.82	238.06
760.15	237.90
760.47	237.72
760.80	237.55
761.13	237.45
761.45	237.28
761.78	237.11
762.11	236.93
762.43	236.71
762.76	236.56
763.08	236.42
763.41	236.29
763.74	236.15
764.06	236.00
764.39	235.86
764.71	235.71
765.04	235.55
765.37	235.41
765.69	235.27
766.02	235.15
766.34	235.02
766.67	234.85
767.00	234.75
767.32	234.66
767.65	234.58
767.97	234.44
768.30	234.34
768.62	234.24
768.95	234.13
769.27	234.07
769.60	233.98
769.92	233.86
770.25	233.74
770.57	233.63
770.90	233.50
771.22	233.39
771.55	233.29
771.87	233.20
772.20	233.11
772.52	233.11
772.85	233.10
773.17	233.01
773.50	232.92
773.82	232.80
774.15	232.67
774.47	232.54
774.80	232.43
775.12	232.32
775.45	232.20
775.77	232.11
776.09	232.01
776.42	231.93
776.74	231.89
777.07	231.78
777.39	231.69
777.72	231.61
778.04	231.56
778.36	231.49
778.69	231.44
779.01	231.36
779.33	231.16
779.66	230.99
779.98	230.93
780.31	230.85
780.63	230.82
780.95	230.79
781.28	230.67
781.60	230.63
781.92	230.59
782.25	230.54
782.57	230.48
782.89	230.40
783.22	230.33
783.54	230.24
783.86	230.18
784.19	230.12
784.51	230.08
784.83	230.04
785.16	229.96
785.48	229.89
785.80	229.83
786.12	229.85
786.45	229.78
786.77	229.72
787.09	229.66
