SpectraSuite Data File
++++++++++++++++++++++++++++++++++++
Date: Fri Feb 01 17:26:49 EST 2013
User: group
Dark Spectrum Present: No
Reference Spectrum Present: No
Number of Sampled Component Spectra: 1
Spectrometers: USB2E7196
Integration Time (usec): 35000 (USB2E7196)
Spectra Averaged: 100 (USB2E7196)
Boxcar Smoothing: 10 (USB2E7196)
Correct for Electrical Dark: No (USB2E7196)
Strobe/Lamp Enabled: No (USB2E7196)
Correct for Detector Non-linearity: No (USB2E7196)
Correct for Stray Light: No (USB2E7196)
Number of Pixels in Processed Spectrum: 2048
>>>>>Begin Processed Spectral Data<<<<<
339.09	0.00
339.48	213.02
339.86	214.36
340.24	215.90
340.63	217.13
341.01	220.44
341.39	219.45
341.78	221.19
342.16	222.57
342.54	222.81
342.93	211.27
343.31	221.95
343.69	222.49
344.07	222.96
344.46	223.36
344.84	223.73
345.22	223.92
345.60	224.16
345.99	224.34
346.37	224.47
346.75	224.55
347.13	224.62
347.52	224.67
347.90	224.74
348.28	224.78
348.66	224.79
349.05	224.82
349.43	224.89
349.81	224.94
350.19	224.99
350.57	225.05
350.96	225.09
351.34	225.17
351.72	225.23
352.10	225.32
352.48	225.41
352.87	225.46
353.25	225.52
353.63	225.60
354.01	225.65
354.39	225.70
354.77	225.82
355.15	225.94
355.54	226.01
355.92	226.04
356.30	226.12
356.68	226.25
357.06	226.31
357.44	226.36
357.82	226.44
358.20	226.46
358.58	226.54
358.97	226.60
359.35	226.67
359.73	226.75
360.11	226.79
360.49	226.83
360.87	226.89
361.25	226.96
361.63	227.04
362.01	227.10
362.39	227.11
362.77	227.14
363.15	227.16
363.53	227.20
363.91	227.20
364.29	227.22
364.67	227.15
365.05	227.15
365.43	227.18
365.81	227.19
366.19	227.26
366.57	227.26
366.95	227.26
367.33	227.20
367.71	227.20
368.09	227.20
368.47	227.18
368.85	227.15
369.23	227.16
369.61	227.12
369.99	227.13
370.37	227.13
370.75	227.17
371.13	227.11
371.51	227.04
371.89	227.03
372.27	226.97
372.65	226.97
373.03	226.92
373.41	226.87
373.78	226.83
374.16	226.76
374.54	226.71
374.92	226.64
375.30	226.63
375.68	226.57
376.06	226.54
376.44	226.50
376.82	226.46
377.19	226.40
377.57	226.30
377.95	226.18
378.33	226.11
378.71	225.95
379.09	225.90
379.47	225.91
379.84	225.86
380.22	225.80
380.60	225.73
380.98	225.70
381.36	225.61
381.73	225.51
382.11	225.44
382.49	225.37
382.87	225.31
383.25	225.24
383.62	225.29
384.00	225.21
384.38	225.14
384.76	225.08
385.13	225.05
385.51	225.00
385.89	224.96
386.27	224.96
386.64	224.94
387.02	224.91
387.40	224.85
387.78	224.77
388.15	224.75
388.53	224.69
388.91	224.63
389.29	224.59
389.66	224.56
390.04	224.53
390.42	224.52
390.79	224.54
391.17	224.54
391.55	224.39
391.92	224.33
392.30	224.35
392.68	224.29
393.05	224.25
393.43	224.27
393.81	224.29
394.18	224.25
394.56	224.26
394.94	224.27
395.31	224.24
395.69	224.29
396.06	224.33
396.44	224.34
396.82	224.40
397.19	224.46
397.57	224.53
397.95	224.58
398.32	224.57
398.70	224.60
399.07	224.67
399.45	224.74
399.82	224.82
400.20	224.85
400.58	224.96
400.95	225.04
401.33	225.15
401.70	225.27
402.08	225.33
402.45	225.45
402.83	225.60
403.20	225.70
403.58	225.79
403.95	225.92
404.33	226.04
404.71	226.11
405.08	226.29
405.46	226.40
405.83	226.58
406.21	226.74
406.58	226.91
406.96	227.05
407.33	227.25
407.70	227.44
408.08	227.70
408.45	227.92
408.83	228.15
409.20	228.37
409.58	228.55
409.95	228.81
410.33	229.05
410.70	229.30
411.08	229.60
411.45	229.94
411.82	230.24
412.20	230.65
412.57	231.11
412.95	231.42
413.32	231.86
413.69	232.22
414.07	232.68
414.44	233.16
414.82	233.66
415.19	234.22
415.56	234.78
415.94	235.36
416.31	236.03
416.68	236.68
417.06	237.39
417.43	238.13
417.81	238.96
418.18	239.79
418.55	240.61
418.93	241.54
419.30	242.49
419.67	243.48
420.04	244.46
420.42	245.46
420.79	246.69
421.16	247.89
421.54	249.15
421.91	250.42
422.28	251.73
422.66	253.11
423.03	254.44
423.40	255.85
423.77	257.32
424.15	258.81
424.52	260.32
424.89	262.04
425.26	263.65
425.64	265.15
426.01	266.83
426.38	268.60
426.75	270.32
427.13	272.11
427.50	273.96
427.87	275.89
428.24	277.85
428.61	279.67
428.99	281.68
429.36	283.85
429.73	285.98
430.10	288.11
430.47	290.21
430.85	292.43
431.22	294.77
431.59	297.18
431.96	299.52
432.33	302.12
432.70	304.56
433.08	307.46
433.45	310.22
433.82	312.90
434.19	315.90
434.56	318.81
434.93	321.56
435.30	324.23
435.68	327.26
436.05	330.20
436.42	333.11
436.79	335.73
437.16	338.59
437.53	341.56
437.90	344.47
438.27	347.34
438.64	350.27
439.01	352.97
439.38	355.33
439.75	357.58
440.13	360.16
440.50	362.61
440.87	364.55
441.24	366.53
441.61	368.80
441.98	370.28
442.35	372.17
442.72	374.10
443.09	376.07
443.46	377.07
443.83	377.72
444.20	378.24
444.57	379.12
444.94	379.41
445.31	379.71
445.68	380.07
446.05	380.20
446.42	379.85
446.79	379.43
447.16	378.98
447.53	378.64
447.90	377.51
448.27	376.30
448.64	374.64
449.01	373.49
449.37	371.44
449.74	369.51
450.11	367.21
450.48	364.66
450.85	361.97
451.22	359.79
451.59	357.66
451.96	355.65
452.33	352.94
452.70	350.47
453.07	347.59
453.43	344.56
453.80	341.63
454.17	338.85
454.54	336.18
454.91	333.36
455.28	330.63
455.65	327.95
456.02	325.41
456.38	323.19
456.75	320.48
457.12	318.13
457.49	315.76
457.86	313.45
458.23	311.54
458.59	309.42
458.96	307.25
459.33	305.35
459.70	303.41
460.07	301.87
460.43	300.09
460.80	298.38
461.17	296.89
461.54	295.34
461.91	293.84
462.27	292.33
462.64	290.99
463.01	289.58
463.38	288.26
463.74	286.84
464.11	285.63
464.48	284.53
464.85	283.39
465.21	282.53
465.58	281.62
465.95	280.47
466.32	279.54
466.68	278.58
467.05	277.63
467.42	276.68
467.78	275.68
468.15	274.80
468.52	274.11
468.88	273.24
469.25	272.44
469.62	271.83
469.98	271.12
470.35	270.49
470.72	269.85
471.08	269.18
471.45	268.62
471.82	268.06
472.18	267.45
472.55	266.99
472.92	266.49
473.28	265.99
473.65	265.55
474.02	265.12
474.38	264.75
474.75	264.42
475.11	264.06
475.48	263.82
475.85	263.56
476.21	263.31
476.58	263.14
476.94	263.00
477.31	262.80
477.67	262.67
478.04	262.52
478.41	262.46
478.77	262.53
479.14	262.48
479.50	262.49
479.87	262.53
480.23	262.59
480.60	262.66
480.96	262.77
481.33	262.96
481.69	263.15
482.06	263.34
482.42	263.55
482.79	263.85
483.15	264.16
483.52	264.55
483.88	264.91
484.25	265.26
484.61	265.72
484.98	266.16
485.34	266.73
485.71	267.37
486.07	267.95
486.44	268.48
486.80	269.17
487.17	269.89
487.53	270.74
487.90	271.63
488.26	272.58
488.62	273.56
488.99	274.52
489.35	275.60
489.72	276.75
490.08	277.95
490.44	279.16
490.81	280.51
491.17	281.86
491.54	283.35
491.90	284.89
492.26	286.51
492.63	288.23
492.99	290.02
493.36	291.87
493.72	293.94
494.08	296.05
494.45	298.23
494.81	300.59
495.17	303.00
495.54	305.50
495.90	308.13
496.26	310.87
496.63	313.81
496.99	316.87
497.35	320.09
497.72	323.49
498.08	327.00
498.44	330.61
498.80	334.48
499.17	338.49
499.53	342.62
499.89	346.97
500.26	351.48
500.62	356.07
500.98	361.01
501.34	365.99
501.71	371.21
502.07	376.62
502.43	382.14
502.79	387.88
503.16	393.87
503.52	400.02
503.88	406.35
504.24	412.88
504.60	419.69
504.97	426.72
505.33	433.90
505.69	441.47
506.05	449.13
506.41	456.84
506.78	464.82
507.14	473.15
507.50	481.69
507.86	490.44
508.22	499.44
508.59	508.50
508.95	517.88
509.31	527.56
509.67	537.48
510.03	547.60
510.39	557.96
510.75	568.56
511.12	579.29
511.48	590.34
511.84	601.54
512.20	612.81
512.56	624.41
512.92	636.26
513.28	648.39
513.64	660.55
514.00	673.00
514.37	685.63
514.73	698.35
515.09	711.16
515.45	724.18
515.81	737.56
516.17	751.18
516.53	765.07
516.89	778.85
517.25	792.72
517.61	806.75
517.97	820.92
518.33	834.92
518.69	849.28
519.05	863.82
519.41	878.61
519.77	893.68
520.13	908.81
520.49	923.79
520.85	938.67
521.21	953.99
521.57	969.78
521.93	985.11
522.29	1001.00
522.65	1016.78
523.01	1032.45
523.37	1048.05
523.73	1063.68
524.09	1079.29
524.45	1095.13
524.81	1111.17
525.17	1127.41
525.53	1143.73
525.89	1160.19
526.25	1176.58
526.61	1192.53
526.97	1208.82
527.33	1224.91
527.68	1240.95
528.04	1257.04
528.40	1273.18
528.76	1289.77
529.12	1306.02
529.48	1322.56
529.84	1338.18
530.20	1354.31
530.56	1370.79
530.91	1387.62
531.27	1404.09
531.63	1420.00
531.99	1436.19
532.35	1451.88
532.71	1467.49
533.07	1483.40
533.42	1499.10
533.78	1514.89
534.14	1530.81
534.50	1545.80
534.86	1561.27
535.21	1576.32
535.57	1591.92
535.93	1607.04
536.29	1621.50
536.65	1636.25
537.00	1650.58
537.36	1665.65
537.72	1679.97
538.08	1694.31
538.44	1707.92
538.79	1721.59
539.15	1735.02
539.51	1748.56
539.87	1762.58
540.22	1776.03
540.58	1789.57
540.94	1802.54
541.29	1815.01
541.65	1827.46
542.01	1840.57
542.37	1852.80
542.72	1865.05
543.08	1876.78
543.44	1889.17
543.79	1900.43
544.15	1911.18
544.51	1922.70
544.87	1933.54
545.22	1944.32
545.58	1954.55
545.94	1964.42
546.29	1974.31
546.65	1984.46
547.01	1993.81
547.36	2002.71
547.72	2011.46
548.07	2019.50
548.43	2027.66
548.79	2035.66
549.14	2043.71
549.50	2051.15
549.86	2058.88
550.21	2066.20
550.57	2073.48
550.92	2080.22
551.28	2087.44
551.64	2094.90
551.99	2101.64
552.35	2108.15
552.70	2114.44
553.06	2120.77
553.41	2127.35
553.77	2133.58
554.13	2139.73
554.48	2146.10
554.84	2152.00
555.19	2157.30
555.55	2162.79
555.90	2167.77
556.26	2173.26
556.61	2178.17
556.97	2182.90
557.32	2187.42
557.68	2192.08
558.03	2196.58
558.39	2200.63
558.74	2205.50
559.10	2209.67
559.45	2213.68
559.81	2218.23
560.16	2222.42
560.52	2225.92
560.87	2229.51
561.23	2232.33
561.58	2235.48
561.94	2238.33
562.29	2240.99
562.64	2244.33
563.00	2247.07
563.35	2250.75
563.71	2254.27
564.06	2257.67
564.42	2260.86
564.77	2263.82
565.12	2266.52
565.48	2269.02
565.83	2271.40
566.19	2273.24
566.54	2274.36
566.89	2276.05
567.25	2277.15
567.60	2278.83
567.96	2281.07
568.31	2282.41
568.66	2284.09
569.02	2285.25
569.37	2286.02
569.72	2287.19
570.08	2287.69
570.43	2288.21
570.78	2288.09
571.14	2286.91
571.49	2285.93
571.84	2285.86
572.20	2285.08
572.55	2284.28
572.90	2282.99
573.26	2282.01
573.61	2280.43
573.96	2279.28
574.31	2276.56
574.67	2273.91
575.02	2270.70
575.37	2267.55
575.72	2264.15
576.08	2261.15
576.43	2258.17
576.78	2255.02
577.13	2252.19
577.49	2249.17
577.84	2246.11
578.19	2242.78
578.54	2239.57
578.90	2235.91
579.25	2230.80
579.60	2226.24
579.95	2221.67
580.30	2216.88
580.66	2211.98
581.01	2207.46
581.36	2202.82
581.71	2199.12
582.06	2195.08
582.42	2191.07
582.77	2186.22
583.12	2181.98
583.47	2177.71
583.82	2173.19
584.17	2168.15
584.53	2162.97
584.88	2157.80
585.23	2152.27
585.58	2147.04
585.93	2141.77
586.28	2136.93
586.63	2132.08
586.98	2127.34
587.34	2122.79
587.69	2118.21
588.04	2113.47
588.39	2108.11
588.74	2101.94
589.09	2096.01
589.44	2089.40
589.79	2083.38
590.14	2077.87
590.49	2071.49
590.84	2065.14
591.19	2059.32
591.54	2053.08
591.89	2046.14
592.25	2039.74
592.60	2032.85
592.95	2025.50
593.30	2018.41
593.65	2011.14
594.00	2004.32
594.35	1997.18
594.70	1989.29
595.05	1982.39
595.40	1974.99
595.75	1967.60
596.10	1961.58
596.45	1954.91
596.80	1948.99
597.15	1942.61
597.50	1935.86
597.85	1929.56
598.19	1923.09
598.54	1916.19
598.89	1909.73
599.24	1903.82
599.59	1897.42
599.94	1891.22
600.29	1885.05
600.64	1878.43
600.99	1871.13
601.34	1864.41
601.69	1857.49
602.04	1850.89
602.39	1843.61
602.74	1836.87
603.08	1830.36
603.43	1823.61
603.78	1816.54
604.13	1809.35
604.48	1802.18
604.83	1795.18
605.18	1788.48
605.53	1780.79
605.87	1772.78
606.22	1765.40
606.57	1757.38
606.92	1749.67
607.27	1742.51
607.62	1735.62
607.96	1728.64
608.31	1722.24
608.66	1714.72
609.01	1707.23
609.36	1699.73
609.70	1691.83
610.05	1683.87
610.40	1676.20
610.75	1667.96
611.10	1660.24
611.44	1651.71
611.79	1643.61
612.14	1635.03
612.49	1625.67
612.83	1616.97
613.18	1608.63
613.53	1600.55
613.88	1591.98
614.22	1583.74
614.57	1575.11
614.92	1567.09
615.27	1559.49
615.61	1551.06
615.96	1542.89
616.31	1535.11
616.65	1527.56
617.00	1519.83
617.35	1511.94
617.70	1503.68
618.04	1494.97
618.39	1486.54
618.74	1478.99
619.08	1470.63
619.43	1462.94
619.78	1455.84
620.12	1448.74
620.47	1441.22
620.82	1433.00
621.16	1425.47
621.51	1417.77
621.85	1410.04
622.20	1401.43
622.55	1392.86
622.89	1384.89
623.24	1377.23
623.59	1369.67
623.93	1362.03
624.28	1354.76
624.62	1347.30
624.97	1339.86
625.32	1333.01
625.66	1325.88
626.01	1318.63
626.35	1311.29
626.70	1303.46
627.04	1295.72
627.39	1287.77
627.73	1280.30
628.08	1273.26
628.43	1266.04
628.77	1258.61
629.12	1251.02
629.46	1243.75
629.81	1236.13
630.15	1228.79
630.50	1221.24
630.84	1213.07
631.19	1204.94
631.53	1197.31
631.88	1189.51
632.22	1181.89
632.57	1174.42
632.91	1166.81
633.26	1159.23
633.60	1151.67
633.95	1144.40
634.29	1137.19
634.64	1130.39
634.98	1122.97
635.32	1115.78
635.67	1109.02
636.01	1102.30
636.36	1095.46
636.70	1088.79
637.05	1082.26
637.39	1075.72
637.73	1069.26
638.08	1063.22
638.42	1057.25
638.77	1050.68
639.11	1044.14
639.45	1037.63
639.80	1031.03
640.14	1024.61
640.49	1018.11
640.83	1011.70
641.17	1005.53
641.52	999.34
641.86	992.89
642.20	986.96
642.55	980.51
642.89	973.99
643.23	967.29
643.58	961.56
643.92	955.37
644.26	949.34
644.61	943.26
644.95	937.20
645.29	930.66
645.64	923.93
645.98	917.57
646.32	911.64
646.66	905.53
647.01	899.70
647.35	893.98
647.69	888.03
648.04	882.44
648.38	876.54
648.72	870.54
649.06	864.42
649.41	858.46
649.75	852.53
650.09	846.55
650.43	840.81
650.78	834.59
651.12	828.53
651.46	822.75
651.80	817.02
652.14	811.56
652.49	806.16
652.83	800.94
653.17	795.33
653.51	789.71
653.85	784.31
654.20	778.67
654.54	772.65
654.88	766.89
655.22	760.96
655.56	755.18
655.90	749.60
656.25	744.35
656.59	738.98
656.93	733.90
657.27	728.76
657.61	723.29
657.95	718.10
658.29	713.07
658.64	707.72
658.98	702.32
659.32	696.81
659.66	691.67
660.00	686.34
660.34	681.33
660.68	676.33
661.02	671.30
661.36	666.53
661.70	662.00
662.05	657.60
662.39	653.39
662.73	648.99
663.07	644.56
663.41	640.07
663.75	635.61
664.09	630.99
664.43	626.55
664.77	622.52
665.11	618.28
665.45	614.15
665.79	610.14
666.13	606.09
666.47	602.00
666.81	597.81
667.15	593.66
667.49	589.67
667.83	585.76
668.17	581.78
668.51	577.72
668.85	573.64
669.19	569.78
669.53	565.86
669.87	561.99
670.21	558.31
670.55	554.68
670.89	551.26
671.23	547.80
671.57	544.25
671.91	540.69
672.25	537.14
672.58	533.57
672.92	530.06
673.26	526.82
673.60	523.55
673.94	520.40
674.28	517.40
674.62	514.47
674.96	511.41
675.30	508.48
675.64	505.50
675.97	502.72
676.31	499.86
676.65	496.90
676.99	494.13
677.33	491.27
677.67	488.39
678.01	485.30
678.34	482.34
678.68	479.39
679.02	476.50
679.36	473.72
679.70	470.93
680.04	468.14
680.37	465.28
680.71	462.49
681.05	459.86
681.39	457.13
681.73	454.45
682.06	451.90
682.40	449.34
682.74	446.78
683.08	444.12
683.42	441.49
683.75	439.01
684.09	436.38
684.43	433.86
684.77	431.39
685.10	428.95
685.44	426.57
685.78	424.29
686.12	422.00
686.45	419.70
686.79	417.38
687.13	415.19
687.46	412.97
687.80	410.83
688.14	408.57
688.48	406.51
688.81	404.27
689.15	402.08
689.49	399.91
689.82	397.75
690.16	395.69
690.50	393.69
690.83	391.69
691.17	389.68
691.51	387.74
691.84	385.90
692.18	383.99
692.52	382.05
692.85	380.11
693.19	378.21
693.52	376.30
693.86	374.50
694.20	372.65
694.53	370.85
694.87	368.96
695.21	367.12
695.54	365.24
695.88	363.43
696.21	361.68
696.55	359.95
696.88	358.31
697.22	356.63
697.56	354.96
697.89	353.29
698.23	351.69
698.56	350.04
698.90	348.38
699.23	346.73
699.57	345.12
699.90	343.54
700.24	341.98
700.58	340.52
700.91	339.02
701.25	337.55
701.58	336.13
701.92	334.72
702.25	333.32
702.59	331.96
702.92	330.63
703.26	329.29
703.59	328.03
703.93	326.80
704.26	325.55
704.60	324.25
704.93	323.00
705.26	321.75
705.60	320.52
705.93	319.35
706.27	318.27
706.60	317.21
706.94	316.14
707.27	314.99
707.61	313.88
707.94	312.81
708.27	311.70
708.61	310.64
708.94	309.62
709.28	308.64
709.61	307.64
709.94	306.70
710.28	305.66
710.61	304.68
710.95	303.60
711.28	302.63
711.61	301.63
711.95	300.67
712.28	299.71
712.61	298.77
712.95	297.84
713.28	296.91
713.61	295.96
713.95	295.06
714.28	294.20
714.61	293.32
714.95	292.45
715.28	291.60
715.61	290.66
715.95	289.83
716.28	288.98
716.61	288.13
716.95	287.23
717.28	286.49
717.61	285.66
717.94	284.90
718.28	284.08
718.61	283.37
718.94	282.65
719.27	281.95
719.61	281.28
719.94	280.59
720.27	279.88
720.60	279.25
720.94	278.58
721.27	277.95
721.60	277.37
721.93	276.76
722.27	276.18
722.60	275.62
722.93	275.03
723.26	274.44
723.59	273.89
723.93	273.38
724.26	272.78
724.59	272.20
724.92	271.69
725.25	271.20
725.59	270.66
725.92	270.14
726.25	269.60
726.58	269.09
726.91	268.57
727.24	268.07
727.57	267.57
727.91	267.07
728.24	266.60
728.57	266.07
728.90	265.57
729.23	265.08
729.56	264.68
729.89	264.19
730.22	263.71
730.55	263.23
730.89	262.73
731.22	262.31
731.55	261.87
731.88	261.43
732.21	260.97
732.54	260.52
732.87	260.05
733.20	259.68
733.53	259.28
733.86	258.91
734.19	258.54
734.52	258.14
734.85	257.81
735.18	257.39
735.51	257.03
735.84	256.64
736.17	256.26
736.50	255.80
736.83	255.57
737.16	255.23
737.49	254.90
737.82	254.57
738.15	254.23
738.48	253.86
738.81	253.53
739.14	253.24
739.47	252.94
739.80	252.65
740.13	252.34
740.46	252.03
740.79	251.70
741.12	251.36
741.45	251.04
741.78	250.70
742.11	250.38
742.44	250.06
742.77	249.79
743.10	249.49
743.43	249.18
743.75	248.75
744.08	248.61
744.41	248.33
744.74	248.05
745.07	247.76
745.40	247.55
745.73	247.32
746.06	247.03
746.39	246.78
746.71	246.49
747.04	246.21
747.37	245.93
747.70	245.68
748.03	245.43
748.36	245.22
748.68	244.96
749.01	244.74
749.34	244.50
749.67	244.24
750.00	244.04
750.33	243.90
750.65	243.68
750.98	243.31
751.31	243.07
751.64	242.85
751.97	242.66
752.29	242.40
752.62	242.12
752.95	241.88
753.28	241.64
753.60	241.44
753.93	241.24
754.26	241.04
754.59	240.79
754.91	240.59
755.24	240.38
755.57	240.16
755.90	239.97
756.22	239.74
756.55	239.57
756.88	239.36
757.20	239.13
757.53	238.96
757.86	238.80
758.19	238.64
758.51	238.43
758.84	238.23
759.17	238.06
759.49	237.92
759.82	237.81
760.15	237.64
760.47	237.48
760.80	237.31
761.13	237.18
761.45	237.02
761.78	236.85
762.11	236.70
762.43	236.56
762.76	236.42
763.08	236.32
763.41	236.19
763.74	236.07
764.06	235.92
764.39	235.74
764.71	235.56
765.04	235.43
765.37	235.33
765.69	235.21
766.02	235.10
766.34	234.95
766.67	234.78
767.00	234.69
767.32	234.59
767.65	234.53
767.97	234.38
768.30	234.25
768.62	234.15
768.95	234.02
769.27	233.89
769.60	233.75
769.92	233.62
770.25	233.48
770.57	233.36
770.90	233.23
771.22	233.18
771.55	233.08
771.87	232.99
772.20	232.90
772.52	232.90
772.85	232.91
773.17	232.82
773.50	232.73
773.82	232.65
774.15	232.53
774.47	232.40
774.80	232.29
775.12	232.22
775.45	232.16
775.77	232.07
776.09	231.99
776.42	231.92
776.74	231.88
777.07	231.82
777.39	231.75
777.72	231.68
778.04	231.57
778.36	231.50
778.69	231.44
779.01	231.33
779.33	231.18
779.66	230.99
779.98	230.91
780.31	230.84
780.63	230.81
780.95	230.78
781.28	230.69
781.60	230.63
781.92	230.59
782.25	230.50
782.57	230.43
782.89	230.40
783.22	230.31
783.54	230.22
783.86	230.16
784.19	230.08
784.51	230.06
784.83	230.00
785.16	229.96
785.48	229.87
785.80	229.82
786.12	229.76
786.45	229.70
786.77	229.69
787.09	229.68
