SpectraSuite Data File
++++++++++++++++++++++++++++++++++++
Date: Fri Feb 01 16:31:03 EST 2013
User: group
Dark Spectrum Present: No
Reference Spectrum Present: No
Number of Sampled Component Spectra: 1
Spectrometers: USB2E7196
Integration Time (usec): 35000 (USB2E7196)
Spectra Averaged: 100 (USB2E7196)
Boxcar Smoothing: 10 (USB2E7196)
Correct for Electrical Dark: No (USB2E7196)
Strobe/Lamp Enabled: No (USB2E7196)
Correct for Detector Non-linearity: No (USB2E7196)
Correct for Stray Light: No (USB2E7196)
Number of Pixels in Processed Spectrum: 2048
>>>>>Begin Processed Spectral Data<<<<<
339.09	0.00
339.48	214.04
339.86	215.39
340.24	216.33
340.63	217.82
341.01	221.44
341.39	220.45
341.78	221.66
342.16	223.47
342.54	224.04
342.93	212.27
343.31	223.01
343.69	223.55
344.07	224.03
344.46	224.50
344.84	224.90
345.22	225.08
345.60	225.36
345.99	225.58
346.37	225.72
346.75	225.80
347.13	225.84
347.52	225.88
347.90	225.94
348.28	226.03
348.66	226.03
349.05	226.03
349.43	226.06
349.81	226.11
350.19	226.12
350.57	226.20
350.96	226.26
351.34	226.32
351.72	226.40
352.10	226.48
352.48	226.52
352.87	226.56
353.25	226.65
353.63	226.69
354.01	226.74
354.39	226.80
354.77	226.90
355.15	227.03
355.54	227.09
355.92	227.12
356.30	227.17
356.68	227.30
357.06	227.40
357.44	227.44
357.82	227.52
358.20	227.63
358.58	227.68
358.97	227.75
359.35	227.83
359.73	227.90
360.11	227.93
360.49	228.00
360.87	228.06
361.25	228.11
361.63	228.24
362.01	228.29
362.39	228.33
362.77	228.36
363.15	228.37
363.53	228.40
363.91	228.46
364.29	228.48
364.67	228.43
365.05	228.43
365.43	228.42
365.81	228.43
366.19	228.44
366.57	228.51
366.95	228.50
367.33	228.47
367.71	228.44
368.09	228.49
368.47	228.49
368.85	228.47
369.23	228.49
369.61	228.40
369.99	228.38
370.37	228.35
370.75	228.35
371.13	228.30
371.51	228.28
371.89	228.23
372.27	228.20
372.65	228.13
373.03	228.09
373.41	228.08
373.78	228.02
374.16	227.92
374.54	227.80
374.92	227.74
375.30	227.68
375.68	227.62
376.06	227.56
376.44	227.48
376.82	227.41
377.19	227.33
377.57	227.27
377.95	227.18
378.33	227.11
378.71	226.99
379.09	226.94
379.47	226.89
379.84	226.85
380.22	226.76
380.60	226.71
380.98	226.65
381.36	226.58
381.73	226.50
382.11	226.49
382.49	226.41
382.87	226.34
383.25	226.28
383.62	226.34
384.00	226.24
384.38	226.18
384.76	226.17
385.13	226.14
385.51	226.12
385.89	226.08
386.27	226.06
386.64	226.04
387.02	225.97
387.40	225.91
387.78	225.85
388.15	225.83
388.53	225.81
388.91	225.75
389.29	225.69
389.66	225.68
390.04	225.63
390.42	225.62
390.79	225.61
391.17	225.60
391.55	225.44
391.92	225.40
392.30	225.39
392.68	225.37
393.05	225.36
393.43	225.32
393.81	225.30
394.18	225.26
394.56	225.27
394.94	225.32
395.31	225.32
395.69	225.38
396.06	225.43
396.44	225.44
396.82	225.48
397.19	225.60
397.57	225.62
397.95	225.69
398.32	225.70
398.70	225.77
399.07	225.85
399.45	225.90
399.82	225.97
400.20	226.03
400.58	226.07
400.95	226.08
401.33	226.13
401.70	226.30
402.08	226.41
402.45	226.50
402.83	226.62
403.20	226.70
403.58	226.76
403.95	226.82
404.33	226.93
404.71	227.06
405.08	227.19
405.46	227.34
405.83	227.45
406.21	227.64
406.58	227.77
406.96	227.89
407.33	228.09
407.70	228.30
408.08	228.56
408.45	228.79
408.83	229.03
409.20	229.27
409.58	229.42
409.95	229.67
410.33	229.93
410.70	230.10
411.08	230.43
411.45	230.72
411.82	231.04
412.20	231.40
412.57	231.81
412.95	232.11
413.32	232.51
413.69	232.93
414.07	233.37
414.44	233.84
414.82	234.34
415.19	234.89
415.56	235.45
415.94	236.00
416.31	236.59
416.68	237.21
417.06	237.94
417.43	238.65
417.81	239.41
418.18	240.21
418.55	241.10
418.93	241.95
419.30	242.85
419.67	243.78
420.04	244.73
420.42	245.74
420.79	246.89
421.16	248.03
421.54	249.24
421.91	250.43
422.28	251.71
422.66	253.06
423.03	254.40
423.40	255.69
423.77	257.14
424.15	258.59
424.52	260.07
424.89	261.66
425.26	263.22
425.64	264.67
426.01	266.25
426.38	267.92
426.75	269.56
427.13	271.35
427.50	273.18
427.87	275.09
428.24	276.91
428.61	278.67
428.99	280.61
429.36	282.71
429.73	284.79
430.10	286.81
430.47	288.86
430.85	290.95
431.22	293.21
431.59	295.57
431.96	297.81
432.33	300.30
432.70	302.67
433.08	305.49
433.45	308.11
433.82	310.75
434.19	313.60
434.56	316.43
434.93	319.03
435.30	321.62
435.68	324.50
436.05	327.36
436.42	330.17
436.79	332.67
437.16	335.34
437.53	338.12
437.90	340.87
438.27	343.62
438.64	346.41
439.01	348.97
439.38	351.17
439.75	353.31
440.13	355.80
440.50	358.10
440.87	359.89
441.24	361.84
441.61	363.93
441.98	365.42
442.35	367.20
442.72	369.04
443.09	370.83
443.46	371.78
443.83	372.29
444.20	372.82
444.57	373.67
444.94	373.96
445.31	374.30
445.68	374.64
446.05	374.74
446.42	374.39
446.79	374.00
447.16	373.52
447.53	373.19
447.90	372.02
448.27	370.87
448.64	369.34
449.01	368.18
449.37	366.23
449.74	364.35
450.11	362.13
450.48	359.63
450.85	357.13
451.22	355.00
451.59	353.04
451.96	351.04
452.33	348.42
452.70	346.05
453.07	343.26
453.43	340.40
453.80	337.63
454.17	334.97
454.54	332.42
454.91	329.72
455.28	327.09
455.65	324.63
456.02	322.21
456.38	320.02
456.75	317.36
457.12	315.13
457.49	312.92
457.86	310.77
458.23	308.98
458.59	306.93
458.96	304.87
459.33	302.99
459.70	301.14
460.07	299.66
460.43	297.98
460.80	296.39
461.17	294.96
461.54	293.43
461.91	292.00
462.27	290.58
462.64	289.33
463.01	287.98
463.38	286.68
463.74	285.33
464.11	284.23
464.48	283.25
464.85	282.13
465.21	281.28
465.58	280.39
465.95	279.30
466.32	278.42
466.68	277.51
467.05	276.64
467.42	275.83
467.78	274.91
468.15	274.06
468.52	273.41
468.88	272.57
469.25	271.81
469.62	271.21
469.98	270.53
470.35	269.95
470.72	269.36
471.08	268.72
471.45	268.19
471.82	267.65
472.18	267.03
472.55	266.64
472.92	266.11
473.28	265.60
473.65	265.17
474.02	264.73
474.38	264.38
474.75	264.03
475.11	263.64
475.48	263.39
475.85	263.12
476.21	262.89
476.58	262.72
476.94	262.58
477.31	262.40
477.67	262.26
478.04	262.14
478.41	262.10
478.77	262.15
479.14	262.11
479.50	262.11
479.87	262.22
480.23	262.33
480.60	262.44
480.96	262.55
481.33	262.78
481.69	263.01
482.06	263.22
482.42	263.46
482.79	263.76
483.15	264.09
483.52	264.50
483.88	264.85
484.25	265.19
484.61	265.63
484.98	266.11
485.34	266.70
485.71	267.31
486.07	267.91
486.44	268.48
486.80	269.21
487.17	269.97
487.53	270.74
487.90	271.54
488.26	272.44
488.62	273.41
488.99	274.36
489.35	275.40
489.72	276.55
490.08	277.75
490.44	278.99
490.81	280.32
491.17	281.68
491.54	283.15
491.90	284.71
492.26	286.36
492.63	288.05
492.99	289.80
493.36	291.70
493.72	293.76
494.08	295.85
494.45	298.10
494.81	300.46
495.17	302.92
495.54	305.49
495.90	308.18
496.26	311.00
496.63	313.97
496.99	317.06
497.35	320.30
497.72	323.69
498.08	327.18
498.44	330.84
498.80	334.73
499.17	338.80
499.53	342.97
499.89	347.37
500.26	351.90
500.62	356.56
500.98	361.51
501.34	366.55
501.71	371.89
502.07	377.33
502.43	382.92
502.79	388.70
503.16	394.79
503.52	401.07
503.88	407.47
504.24	414.10
504.60	420.99
504.97	428.14
505.33	435.49
505.69	443.22
506.05	450.99
506.41	458.94
506.78	467.02
507.14	475.47
507.50	484.22
507.86	493.22
508.22	502.42
508.59	511.68
508.95	521.28
509.31	531.14
509.67	541.18
510.03	551.56
510.39	562.14
510.75	572.95
511.12	583.87
511.48	595.25
511.84	606.63
512.20	618.17
512.56	630.04
512.92	642.15
513.28	654.50
513.64	666.89
514.00	679.57
514.37	692.56
514.73	705.61
515.09	718.56
515.45	731.85
515.81	745.46
516.17	759.41
516.53	773.58
516.89	787.67
517.25	801.83
517.61	816.20
517.97	830.72
518.33	845.10
518.69	859.88
519.05	874.74
519.41	889.93
519.77	905.41
520.13	920.86
520.49	936.24
520.85	951.58
521.21	967.37
521.57	983.63
521.93	999.35
522.29	1015.73
522.65	1032.01
523.01	1048.18
523.37	1064.12
523.73	1080.28
524.09	1096.28
524.45	1112.54
524.81	1129.13
525.17	1145.83
525.53	1162.53
525.89	1179.42
526.25	1196.27
526.61	1212.73
526.97	1229.44
527.33	1245.87
527.68	1262.35
528.04	1278.72
528.40	1295.17
528.76	1312.00
529.12	1328.50
529.48	1345.32
529.84	1361.23
530.20	1377.75
530.56	1394.60
530.91	1412.01
531.27	1428.60
531.63	1444.92
531.99	1461.37
532.35	1477.24
532.71	1493.02
533.07	1509.19
533.42	1524.97
533.78	1540.82
534.14	1556.91
534.50	1572.16
534.86	1587.81
535.21	1602.94
535.57	1618.80
535.93	1634.33
536.29	1649.09
536.65	1663.98
537.00	1678.59
537.36	1693.69
537.72	1708.19
538.08	1722.62
538.44	1736.21
538.79	1749.92
539.15	1763.43
539.51	1777.01
539.87	1791.15
540.22	1804.84
540.58	1818.60
540.94	1831.77
541.29	1844.53
541.65	1857.00
542.01	1870.04
542.37	1882.39
542.72	1894.68
543.08	1906.35
543.44	1918.58
543.79	1929.78
544.15	1940.62
544.51	1952.08
544.87	1963.03
545.22	1973.61
545.58	1983.56
545.94	1993.27
546.29	2003.15
546.65	2013.10
547.01	2022.38
547.36	2031.08
547.72	2039.46
548.07	2047.01
548.43	2055.10
548.79	2063.07
549.14	2070.39
549.50	2077.73
549.86	2085.33
550.21	2092.62
550.57	2099.81
550.92	2106.21
551.28	2113.13
551.64	2120.16
551.99	2126.69
552.35	2132.86
552.70	2139.06
553.06	2145.09
553.41	2151.44
553.77	2157.36
554.13	2163.34
554.48	2169.42
554.84	2174.71
555.19	2179.98
555.55	2185.22
555.90	2189.63
556.26	2194.47
556.61	2199.43
556.97	2203.66
557.32	2207.77
557.68	2211.88
558.03	2216.16
558.39	2219.95
558.74	2224.71
559.10	2228.71
559.45	2232.34
559.81	2236.65
560.16	2240.60
560.52	2243.81
560.87	2247.24
561.23	2249.90
561.58	2252.91
561.94	2255.51
562.29	2258.06
562.64	2260.82
563.00	2263.46
563.35	2267.06
563.71	2270.20
564.06	2273.41
564.42	2276.34
564.77	2278.77
565.12	2281.16
565.48	2283.00
565.83	2284.99
566.19	2286.24
566.54	2287.03
566.89	2288.14
567.25	2288.74
567.60	2289.93
567.96	2291.83
568.31	2292.70
568.66	2293.91
569.02	2294.50
569.37	2294.83
569.72	2295.64
570.08	2295.74
570.43	2295.89
570.78	2295.35
571.14	2293.88
571.49	2292.62
571.84	2292.35
572.20	2291.40
572.55	2290.30
572.90	2288.83
573.26	2287.40
573.61	2285.87
573.96	2284.27
574.31	2281.48
574.67	2278.54
575.02	2275.06
575.37	2271.61
575.72	2267.94
576.08	2264.70
576.43	2261.43
576.78	2257.75
577.13	2254.73
577.49	2251.68
577.84	2248.27
578.19	2244.56
578.54	2241.13
578.90	2236.99
579.25	2231.49
579.60	2226.65
579.95	2221.75
580.30	2216.82
580.66	2211.88
581.01	2206.87
581.36	2201.93
581.71	2197.77
582.06	2193.33
582.42	2188.84
582.77	2183.73
583.12	2179.12
583.47	2174.41
583.82	2169.35
584.17	2164.24
584.53	2158.86
584.88	2153.41
585.23	2147.71
585.58	2142.40
585.93	2136.93
586.28	2132.15
586.63	2127.20
586.98	2122.07
587.34	2117.53
587.69	2112.73
588.04	2107.35
588.39	2101.90
588.74	2095.44
589.09	2089.39
589.44	2082.62
589.79	2076.70
590.14	2071.10
590.49	2064.60
590.84	2058.33
591.19	2052.53
591.54	2046.14
591.89	2038.73
592.25	2031.85
592.60	2024.64
592.95	2017.07
593.30	2009.78
593.65	2002.27
594.00	1995.32
594.35	1988.21
594.70	1980.09
595.05	1972.99
595.40	1965.85
595.75	1958.32
596.10	1952.27
596.45	1945.54
596.80	1939.58
597.15	1932.99
597.50	1925.99
597.85	1919.51
598.19	1912.97
598.54	1905.74
598.89	1899.11
599.24	1893.31
599.59	1886.71
599.94	1880.52
600.29	1874.21
600.64	1867.72
600.99	1860.38
601.34	1853.62
601.69	1846.70
602.04	1839.98
602.39	1832.56
602.74	1825.70
603.08	1818.96
603.43	1812.37
603.78	1805.15
604.13	1797.87
604.48	1790.59
604.83	1783.72
605.18	1776.84
605.53	1768.74
605.87	1760.80
606.22	1753.67
606.57	1745.77
606.92	1738.47
607.27	1731.33
607.62	1724.44
607.96	1717.27
608.31	1710.58
608.66	1702.89
609.01	1695.36
609.36	1687.81
609.70	1679.81
610.05	1671.79
610.40	1664.12
610.75	1655.81
611.10	1648.16
611.44	1639.81
611.79	1631.90
612.14	1623.25
612.49	1614.12
612.83	1605.78
613.18	1597.79
613.53	1589.62
613.88	1581.05
614.22	1572.85
614.57	1564.33
614.92	1556.26
615.27	1548.58
615.61	1540.20
615.96	1532.22
616.31	1524.57
616.65	1517.08
617.00	1509.62
617.35	1501.98
617.70	1493.65
618.04	1485.04
618.39	1476.78
618.74	1469.14
619.08	1460.83
619.43	1453.16
619.78	1446.23
620.12	1438.95
620.47	1431.39
620.82	1423.33
621.16	1415.91
621.51	1408.24
621.85	1400.57
622.20	1392.01
622.55	1383.66
622.89	1376.01
623.24	1368.35
623.59	1360.98
623.93	1353.49
624.28	1346.17
624.62	1338.59
624.97	1331.37
625.32	1324.66
625.66	1317.67
626.01	1310.54
626.35	1303.03
626.70	1295.36
627.04	1287.58
627.39	1279.87
627.73	1272.53
628.08	1265.58
628.43	1258.28
628.77	1250.91
629.12	1243.29
629.46	1236.22
629.81	1228.83
630.15	1221.47
630.50	1214.02
630.84	1205.75
631.19	1197.82
631.53	1190.29
631.88	1182.81
632.22	1175.20
632.57	1167.84
632.91	1160.21
633.26	1152.70
633.60	1145.37
633.95	1138.26
634.29	1131.36
634.64	1124.82
634.98	1117.38
635.32	1110.12
635.67	1103.52
636.01	1096.90
636.36	1090.16
636.70	1083.65
637.05	1076.97
637.39	1070.45
637.73	1063.90
638.08	1058.00
638.42	1051.94
638.77	1045.53
639.11	1038.85
639.45	1032.50
639.80	1025.84
640.14	1019.38
640.49	1012.94
640.83	1006.55
641.17	1000.23
641.52	993.78
641.86	987.25
642.20	981.35
642.55	975.04
642.89	968.55
643.23	962.04
643.58	956.25
643.92	950.04
644.26	944.06
644.61	938.05
644.95	932.08
645.29	925.54
645.64	918.92
645.98	912.64
646.32	906.90
646.66	900.85
647.01	895.06
647.35	889.43
647.69	883.50
648.04	877.96
648.38	872.28
648.72	866.33
649.06	860.25
649.41	854.38
649.75	848.47
650.09	842.56
650.43	836.79
650.78	830.61
651.12	824.66
651.46	818.89
651.80	813.22
652.14	807.72
652.49	802.32
652.83	797.13
653.17	791.40
653.51	785.68
653.85	780.31
654.20	774.67
654.54	768.66
654.88	763.02
655.22	757.16
655.56	751.50
655.90	746.02
656.25	740.79
656.59	735.38
656.93	730.25
657.27	725.10
657.61	719.64
657.95	714.57
658.29	709.44
658.64	704.17
658.98	698.80
659.32	693.42
659.66	688.29
660.00	682.90
660.34	677.96
660.68	672.98
661.02	667.90
661.36	663.14
661.70	658.66
662.05	654.31
662.39	650.00
662.73	645.48
663.07	641.10
663.41	636.67
663.75	632.20
664.09	627.61
664.43	623.19
664.77	619.09
665.11	614.81
665.45	610.72
665.79	606.62
666.13	602.52
666.47	598.51
666.81	594.34
667.15	590.28
667.49	586.37
667.83	582.59
668.17	578.67
668.51	574.65
668.85	570.57
669.19	566.69
669.53	562.84
669.87	559.00
670.21	555.27
670.55	551.59
670.89	548.19
671.23	544.84
671.57	541.30
671.91	537.74
672.25	534.28
672.58	530.74
672.92	527.36
673.26	524.20
673.60	520.99
673.94	517.84
674.28	514.88
674.62	511.89
674.96	508.72
675.30	505.77
675.64	502.83
675.97	500.08
676.31	497.17
676.65	494.28
676.99	491.50
677.33	488.63
677.67	485.78
678.01	482.71
678.34	479.77
678.68	476.92
679.02	474.06
679.36	471.28
679.70	468.52
680.04	465.71
680.37	462.85
680.71	460.06
681.05	457.42
681.39	454.70
681.73	452.01
682.06	449.49
682.40	446.99
682.74	444.46
683.08	441.89
683.42	439.32
683.75	436.77
684.09	434.23
684.43	431.81
684.77	429.38
685.10	427.05
685.44	424.67
685.78	422.35
686.12	420.11
686.45	417.79
686.79	415.53
687.13	413.35
687.46	411.18
687.80	409.00
688.14	406.80
688.48	404.71
688.81	402.55
689.15	400.42
689.49	398.23
689.82	396.17
690.16	394.14
690.50	392.16
690.83	390.20
691.17	388.25
691.51	386.28
691.84	384.37
692.18	382.45
692.52	380.48
692.85	378.54
693.19	376.65
693.52	374.80
693.86	373.01
694.20	371.23
694.53	369.40
694.87	367.53
695.21	365.78
695.54	363.96
695.88	362.17
696.21	360.42
696.55	358.76
696.88	356.99
697.22	355.27
697.56	353.65
697.89	352.02
698.23	350.36
698.56	348.77
698.90	347.24
699.23	345.58
699.57	343.98
699.90	342.47
700.24	340.96
700.58	339.49
700.91	337.95
701.25	336.53
701.58	335.15
701.92	333.82
702.25	332.42
702.59	331.05
702.92	329.72
703.26	328.41
703.59	327.09
703.93	325.95
704.26	324.74
704.60	323.44
704.93	322.17
705.26	320.97
705.60	319.79
705.93	318.59
706.27	317.57
706.60	316.50
706.94	315.40
707.27	314.27
707.61	313.15
707.94	312.12
708.27	311.02
708.61	309.92
708.94	308.87
709.28	307.89
709.61	306.92
709.94	306.00
710.28	304.98
710.61	304.04
710.95	303.01
711.28	302.09
711.61	301.12
711.95	300.20
712.28	299.22
712.61	298.27
712.95	297.36
713.28	296.43
713.61	295.58
713.95	294.69
714.28	293.82
714.61	292.97
714.95	292.12
715.28	291.24
715.61	290.37
715.95	289.53
716.28	288.66
716.61	287.84
716.95	286.99
717.28	286.24
717.61	285.47
717.94	284.67
718.28	283.88
718.61	283.17
718.94	282.46
719.27	281.85
719.61	281.20
719.94	280.54
720.27	279.83
720.60	279.14
720.94	278.49
721.27	277.90
721.60	277.34
721.93	276.72
722.27	276.21
722.60	275.67
722.93	275.14
723.26	274.60
723.59	274.02
723.93	273.45
724.26	272.86
724.59	272.28
724.92	271.79
725.25	271.27
725.59	270.73
725.92	270.23
726.25	269.67
726.58	269.17
726.91	268.67
727.24	268.20
727.57	267.76
727.91	267.26
728.24	266.79
728.57	266.27
728.90	265.78
729.23	265.25
729.56	264.82
729.89	264.32
730.22	263.84
730.55	263.36
730.89	262.94
731.22	262.51
731.55	262.11
731.88	261.66
732.21	261.21
732.54	260.77
732.87	260.30
733.20	259.89
733.53	259.52
733.86	259.13
734.19	258.74
734.52	258.35
734.85	258.07
735.18	257.67
735.51	257.33
735.84	257.01
736.17	256.67
736.50	256.24
736.83	256.02
737.16	255.72
737.49	255.41
737.82	255.12
738.15	254.82
738.48	254.47
738.81	254.14
739.14	253.83
739.47	253.53
739.80	253.26
740.13	252.98
740.46	252.65
740.79	252.32
741.12	251.99
741.45	251.68
741.78	251.32
742.11	251.10
742.44	250.76
742.77	250.49
743.10	250.19
743.43	249.95
743.75	249.56
744.08	249.40
744.41	249.12
744.74	248.81
745.07	248.51
745.40	248.29
745.73	248.07
746.06	247.79
746.39	247.57
746.71	247.30
747.04	247.02
747.37	246.77
747.70	246.55
748.03	246.35
748.36	246.14
748.68	245.87
749.01	245.55
749.34	245.34
749.67	245.10
750.00	244.87
750.33	244.66
750.65	244.46
750.98	244.13
751.31	243.89
751.64	243.71
751.97	243.58
752.29	243.34
752.62	243.09
752.95	242.88
753.28	242.61
753.60	242.43
753.93	242.27
754.26	242.05
754.59	241.81
754.91	241.61
755.24	241.39
755.57	241.21
755.90	241.06
756.22	240.81
756.55	240.56
756.88	240.32
757.20	240.12
757.53	239.94
757.86	239.74
758.19	239.60
758.51	239.38
758.84	239.13
759.17	238.95
759.49	238.77
759.82	238.65
760.15	238.51
760.47	238.34
760.80	238.14
761.13	238.00
761.45	237.83
761.78	237.65
762.11	237.51
762.43	237.37
762.76	237.18
763.08	237.07
763.41	236.98
763.74	236.91
764.06	236.78
764.39	236.60
764.71	236.43
765.04	236.30
765.37	236.19
765.69	236.07
766.02	235.94
766.34	235.84
766.67	235.69
767.00	235.61
767.32	235.51
767.65	235.44
767.97	235.31
768.30	235.24
768.62	235.12
768.95	234.98
769.27	234.87
769.60	234.76
769.92	234.66
770.25	234.52
770.57	234.36
770.90	234.22
771.22	234.10
771.55	234.00
771.87	233.90
772.20	233.79
772.52	233.79
772.85	233.85
773.17	233.75
773.50	233.62
773.82	233.48
774.15	233.35
774.47	233.22
774.80	233.14
775.12	233.03
775.45	232.95
775.77	232.91
776.09	232.84
776.42	232.79
776.74	232.75
777.07	232.68
777.39	232.64
777.72	232.59
778.04	232.55
778.36	232.49
778.69	232.43
779.01	232.41
779.33	232.27
779.66	232.09
779.98	232.00
780.31	231.96
780.63	231.97
780.95	231.96
781.28	231.90
781.60	231.88
781.92	231.85
782.25	231.81
782.57	231.75
782.89	231.68
783.22	231.65
783.54	231.57
783.86	231.55
784.19	231.49
784.51	231.48
784.83	231.42
785.16	231.39
785.48	231.37
785.80	231.29
786.12	231.26
786.45	231.21
786.77	231.24
787.09	231.19
