SpectraSuite Data File
++++++++++++++++++++++++++++++++++++
Date: Fri Feb 01 15:20:01 EST 2013
User: group
Dark Spectrum Present: No
Reference Spectrum Present: No
Number of Sampled Component Spectra: 1
Spectrometers: USB2E7196
Integration Time (usec): 35000 (USB2E7196)
Spectra Averaged: 100 (USB2E7196)
Boxcar Smoothing: 10 (USB2E7196)
Correct for Electrical Dark: No (USB2E7196)
Strobe/Lamp Enabled: No (USB2E7196)
Correct for Detector Non-linearity: No (USB2E7196)
Correct for Stray Light: No (USB2E7196)
Number of Pixels in Processed Spectrum: 2048
>>>>>Begin Processed Spectral Data<<<<<
339.09	0.00
339.48	214.94
339.86	216.87
340.24	218.19
340.63	219.40
341.01	222.35
341.39	222.31
341.78	224.03
342.16	224.55
342.54	225.45
342.93	213.63
343.31	224.45
343.69	225.02
344.07	225.50
344.46	225.94
344.84	226.33
345.22	226.57
345.60	226.83
345.99	226.97
346.37	227.11
346.75	227.19
347.13	227.25
347.52	227.25
347.90	227.33
348.28	227.39
348.66	227.48
349.05	227.47
349.43	227.49
349.81	227.55
350.19	227.57
350.57	227.61
350.96	227.70
351.34	227.74
351.72	227.82
352.10	227.89
352.48	227.94
352.87	227.96
353.25	228.01
353.63	228.06
354.01	228.15
354.39	228.25
354.77	228.33
355.15	228.45
355.54	228.54
355.92	228.54
356.30	228.57
356.68	228.67
357.06	228.73
357.44	228.78
357.82	228.83
358.20	228.90
358.58	228.99
358.97	229.04
359.35	229.11
359.73	229.18
360.11	229.25
360.49	229.29
360.87	229.34
361.25	229.39
361.63	229.46
362.01	229.46
362.39	229.46
362.77	229.50
363.15	229.48
363.53	229.48
363.91	229.51
364.29	229.55
364.67	229.49
365.05	229.48
365.43	229.49
365.81	229.48
366.19	229.50
366.57	229.50
366.95	229.46
367.33	229.42
367.71	229.40
368.09	229.33
368.47	229.32
368.85	229.28
369.23	229.29
369.61	229.23
369.99	229.23
370.37	229.19
370.75	229.17
371.13	229.13
371.51	229.09
371.89	229.04
372.27	228.97
372.65	228.88
373.03	228.86
373.41	228.79
373.78	228.74
374.16	228.61
374.54	228.51
374.92	228.44
375.30	228.41
375.68	228.34
376.06	228.28
376.44	228.17
376.82	228.11
377.19	228.02
377.57	227.93
377.95	227.85
378.33	227.75
378.71	227.63
379.09	227.54
379.47	227.46
379.84	227.36
380.22	227.30
380.60	227.24
380.98	227.14
381.36	227.08
381.73	227.02
382.11	226.99
382.49	226.95
382.87	226.89
383.25	226.83
383.62	226.84
384.00	226.81
384.38	226.77
384.76	226.76
385.13	226.72
385.51	226.68
385.89	226.62
386.27	226.60
386.64	226.58
387.02	226.54
387.40	226.51
387.78	226.51
388.15	226.48
388.53	226.44
388.91	226.43
389.29	226.40
389.66	226.42
390.04	226.38
390.42	226.37
390.79	226.35
391.17	226.32
391.55	226.23
391.92	226.23
392.30	226.26
392.68	226.27
393.05	226.27
393.43	226.30
393.81	226.33
394.18	226.30
394.56	226.29
394.94	226.36
395.31	226.37
395.69	226.40
396.06	226.45
396.44	226.51
396.82	226.55
397.19	226.64
397.57	226.67
397.95	226.77
398.32	226.81
398.70	226.90
399.07	227.00
399.45	227.08
399.82	227.16
400.20	227.24
400.58	227.30
400.95	227.35
401.33	227.46
401.70	227.60
402.08	227.72
402.45	227.86
402.83	227.96
403.20	228.08
403.58	228.19
403.95	228.33
404.33	228.48
404.71	228.63
405.08	228.85
405.46	229.00
405.83	229.13
406.21	229.29
406.58	229.43
406.96	229.62
407.33	229.81
407.70	230.03
408.08	230.32
408.45	230.54
408.83	230.80
409.20	231.01
409.58	231.22
409.95	231.52
410.33	231.81
410.70	232.08
411.08	232.41
411.45	232.73
411.82	233.05
412.20	233.41
412.57	233.82
412.95	234.12
413.32	234.54
413.69	234.97
414.07	235.42
414.44	235.91
414.82	236.34
415.19	236.88
415.56	237.41
415.94	237.96
416.31	238.61
416.68	239.26
417.06	239.99
417.43	240.68
417.81	241.42
418.18	242.19
418.55	243.05
418.93	243.89
419.30	244.80
419.67	245.69
420.04	246.62
420.42	247.58
420.79	248.71
421.16	249.87
421.54	251.03
421.91	252.21
422.28	253.46
422.66	254.83
423.03	256.10
423.40	257.42
423.77	258.81
424.15	260.21
424.52	261.65
424.89	263.25
425.26	264.79
425.64	266.23
426.01	267.77
426.38	269.40
426.75	271.09
427.13	272.78
427.50	274.60
427.87	276.46
428.24	278.36
428.61	280.13
428.99	282.07
429.36	284.18
429.73	286.29
430.10	288.35
430.47	290.36
430.85	292.49
431.22	294.73
431.59	297.14
431.96	299.38
432.33	301.87
432.70	304.20
433.08	307.04
433.45	309.68
433.82	312.35
434.19	315.29
434.56	318.10
434.93	320.77
435.30	323.42
435.68	326.39
436.05	329.23
436.42	332.03
436.79	334.55
437.16	337.26
437.53	340.09
437.90	342.87
438.27	345.62
438.64	348.50
439.01	351.13
439.38	353.32
439.75	355.50
440.13	358.03
440.50	360.40
440.87	362.22
441.24	364.21
441.61	366.34
441.98	367.82
442.35	369.63
442.72	371.51
443.09	373.36
443.46	374.32
443.83	374.88
444.20	375.40
444.57	376.23
444.94	376.50
445.31	376.83
445.68	377.18
446.05	377.28
446.42	376.89
446.79	376.42
447.16	376.02
447.53	375.71
447.90	374.50
448.27	373.32
448.64	371.73
449.01	370.54
449.37	368.57
449.74	366.68
450.11	364.43
450.48	361.93
450.85	359.37
451.22	357.23
451.59	355.23
451.96	353.27
452.33	350.69
452.70	348.34
453.07	345.50
453.43	342.62
453.80	339.88
454.17	337.23
454.54	334.73
454.91	331.99
455.28	329.33
455.65	326.84
456.02	324.42
456.38	322.29
456.75	319.65
457.12	317.42
457.49	315.18
457.86	313.04
458.23	311.21
458.59	309.16
458.96	307.05
459.33	305.19
459.70	303.36
460.07	301.86
460.43	300.13
460.80	298.53
461.17	297.06
461.54	295.54
461.91	294.03
462.27	292.57
462.64	291.31
463.01	289.92
463.38	288.64
463.74	287.28
464.11	286.11
464.48	285.05
464.85	283.90
465.21	283.03
465.58	282.06
465.95	280.93
466.32	280.01
466.68	279.09
467.05	278.19
467.42	277.23
467.78	276.26
468.15	275.37
468.52	274.71
468.88	273.85
469.25	273.08
469.62	272.45
469.98	271.76
470.35	271.11
470.72	270.48
471.08	269.81
471.45	269.20
471.82	268.66
472.18	268.09
472.55	267.62
472.92	267.05
473.28	266.57
473.65	266.13
474.02	265.65
474.38	265.30
474.75	264.93
475.11	264.61
475.48	264.31
475.85	264.09
476.21	263.80
476.58	263.60
476.94	263.42
477.31	263.23
477.67	263.10
478.04	263.01
478.41	262.93
478.77	262.98
479.14	262.92
479.50	262.91
479.87	262.97
480.23	263.07
480.60	263.14
480.96	263.22
481.33	263.44
481.69	263.65
482.06	263.81
482.42	264.03
482.79	264.26
483.15	264.56
483.52	264.92
483.88	265.26
484.25	265.64
484.61	266.07
484.98	266.52
485.34	267.07
485.71	267.65
486.07	268.26
486.44	268.83
486.80	269.55
487.17	270.29
487.53	271.11
487.90	271.97
488.26	272.92
488.62	273.90
488.99	274.87
489.35	275.89
489.72	277.03
490.08	278.22
490.44	279.51
490.81	280.86
491.17	282.23
491.54	283.74
491.90	285.30
492.26	286.98
492.63	288.71
492.99	290.50
493.36	292.38
493.72	294.43
494.08	296.51
494.45	298.78
494.81	301.13
495.17	303.52
495.54	306.08
495.90	308.75
496.26	311.61
496.63	314.55
496.99	317.66
497.35	320.93
497.72	324.36
498.08	327.80
498.44	331.48
498.80	335.38
499.17	339.40
499.53	343.55
499.89	347.87
500.26	352.40
500.62	357.02
500.98	361.95
501.34	367.05
501.71	372.37
502.07	377.76
502.43	383.39
502.79	389.27
503.16	395.31
503.52	401.65
503.88	408.07
504.24	414.71
504.60	421.62
504.97	428.70
505.33	435.97
505.69	443.67
506.05	451.40
506.41	459.27
506.78	467.42
507.14	475.88
507.50	484.62
507.86	493.66
508.22	502.87
508.59	512.05
508.95	521.65
509.31	531.47
509.67	541.60
510.03	551.87
510.39	562.44
510.75	573.25
511.12	584.10
511.48	595.27
511.84	606.68
512.20	618.21
512.56	630.20
512.92	642.37
513.28	654.75
513.64	667.29
514.00	680.04
514.37	693.01
514.73	706.08
515.09	719.14
515.45	732.42
515.81	745.98
516.17	759.97
516.53	774.09
516.89	788.30
517.25	802.54
517.61	816.99
517.97	831.44
518.33	845.89
518.69	860.70
519.05	875.77
519.41	891.04
519.77	906.64
520.13	922.14
520.49	937.65
520.85	953.09
521.21	968.86
521.57	985.23
521.93	1000.92
522.29	1017.33
522.65	1033.65
523.01	1049.93
523.37	1066.12
523.73	1082.45
524.09	1098.57
524.45	1114.91
524.81	1131.52
525.17	1148.43
525.53	1165.38
525.89	1182.30
526.25	1199.21
526.61	1215.65
526.97	1232.52
527.33	1249.00
527.68	1265.66
528.04	1282.08
528.40	1298.86
528.76	1315.97
529.12	1332.53
529.48	1349.59
529.84	1365.76
530.20	1382.40
530.56	1399.54
530.91	1416.94
531.27	1433.74
531.63	1450.24
531.99	1466.95
532.35	1483.15
532.71	1499.13
533.07	1515.42
533.42	1531.45
533.78	1547.50
534.14	1563.82
534.50	1579.05
534.86	1595.07
535.21	1610.34
535.57	1626.40
535.93	1641.89
536.29	1656.74
536.65	1671.86
537.00	1686.67
537.36	1701.92
537.72	1716.56
538.08	1730.97
538.44	1744.91
538.79	1758.90
539.15	1772.67
539.51	1786.44
539.87	1800.79
540.22	1814.58
540.58	1828.60
540.94	1841.95
541.29	1855.02
541.65	1867.81
542.01	1881.29
542.37	1893.55
542.72	1905.95
543.08	1917.79
543.44	1930.25
543.79	1941.61
544.15	1952.59
544.51	1964.19
544.87	1975.30
545.22	1986.22
545.58	1996.52
545.94	2006.18
546.29	2016.05
546.65	2025.78
547.01	2035.05
547.36	2043.75
547.72	2052.29
548.07	2059.99
548.43	2068.25
548.79	2076.38
549.14	2083.95
549.50	2091.29
549.86	2099.19
550.21	2106.55
550.57	2113.74
550.92	2120.34
551.28	2127.29
551.64	2134.50
551.99	2141.10
552.35	2147.26
552.70	2153.30
553.06	2159.24
553.41	2165.74
553.77	2171.88
554.13	2178.20
554.48	2184.36
554.84	2189.77
555.19	2195.09
555.55	2200.23
555.90	2204.75
556.26	2209.42
556.61	2214.36
556.97	2218.50
557.32	2222.66
557.68	2226.81
558.03	2231.04
558.39	2234.78
558.74	2239.39
559.10	2243.10
559.45	2246.84
559.81	2251.24
560.16	2255.04
560.52	2258.40
560.87	2261.85
561.23	2264.39
561.58	2267.30
561.94	2269.84
562.29	2272.30
562.64	2274.85
563.00	2277.47
563.35	2280.88
563.71	2284.01
564.06	2287.03
564.42	2289.79
564.77	2292.02
565.12	2294.07
565.48	2295.97
565.83	2297.64
566.19	2298.96
566.54	2299.97
566.89	2300.93
567.25	2301.32
567.60	2302.66
567.96	2304.06
568.31	2304.85
568.66	2305.70
569.02	2306.17
569.37	2306.35
569.72	2307.07
570.08	2307.20
570.43	2307.13
570.78	2306.44
571.14	2304.90
571.49	2303.40
571.84	2303.04
572.20	2301.79
572.55	2300.74
572.90	2299.23
573.26	2297.80
573.61	2296.03
573.96	2294.00
574.31	2290.96
574.67	2287.91
575.02	2284.22
575.37	2280.80
575.72	2276.86
576.08	2273.63
576.43	2270.18
576.78	2266.39
577.13	2263.13
577.49	2259.85
577.84	2256.27
578.19	2252.51
578.54	2248.73
578.90	2244.44
579.25	2238.93
579.60	2233.97
579.95	2228.89
580.30	2223.79
580.66	2218.59
581.01	2213.68
581.36	2208.91
581.71	2204.60
582.06	2200.02
582.42	2195.39
582.77	2190.08
583.12	2185.31
583.47	2180.46
583.82	2175.36
584.17	2170.13
584.53	2164.60
584.88	2158.92
585.23	2153.03
585.58	2147.45
585.93	2142.04
586.28	2137.29
586.63	2131.97
586.98	2126.77
587.34	2122.01
587.69	2117.02
588.04	2111.61
588.39	2105.65
588.74	2098.98
589.09	2092.74
589.44	2085.83
589.79	2079.75
590.14	2074.07
590.49	2067.58
590.84	2061.24
591.19	2055.09
591.54	2048.61
591.89	2040.97
592.25	2034.14
592.60	2027.04
592.95	2019.33
593.30	2011.71
593.65	2003.93
594.00	1997.06
594.35	1989.86
594.70	1981.78
595.05	1974.31
595.40	1967.02
595.75	1959.54
596.10	1953.23
596.45	1946.32
596.80	1940.14
597.15	1933.38
597.50	1926.14
597.85	1919.66
598.19	1912.75
598.54	1905.68
598.89	1898.93
599.24	1893.09
599.59	1886.34
599.94	1880.01
600.29	1873.68
600.64	1867.28
600.99	1859.74
601.34	1852.70
601.69	1845.75
602.04	1838.81
602.39	1831.51
602.74	1824.64
603.08	1817.98
603.43	1811.34
603.78	1804.20
604.13	1796.99
604.48	1789.71
604.83	1782.91
605.18	1775.71
605.53	1767.73
605.87	1759.62
606.22	1752.33
606.57	1744.38
606.92	1737.02
607.27	1729.71
607.62	1722.66
607.96	1715.12
608.31	1708.42
608.66	1700.82
609.01	1693.21
609.36	1685.60
609.70	1677.56
610.05	1669.43
610.40	1661.55
610.75	1653.10
611.10	1645.38
611.44	1637.05
611.79	1629.09
612.14	1620.38
612.49	1611.39
612.83	1603.05
613.18	1594.95
613.53	1586.88
613.88	1578.28
614.22	1570.07
614.57	1561.58
614.92	1553.56
615.27	1546.06
615.61	1537.93
615.96	1529.95
616.31	1522.22
616.65	1514.94
617.00	1507.49
617.35	1499.92
617.70	1491.58
618.04	1483.04
618.39	1474.83
618.74	1467.20
619.08	1458.91
619.43	1451.38
619.78	1444.39
620.12	1437.19
620.47	1429.66
620.82	1421.46
621.16	1414.12
621.51	1406.47
621.85	1398.87
622.20	1390.39
622.55	1382.11
622.89	1374.23
623.24	1366.61
623.59	1359.33
623.93	1351.82
624.28	1344.47
624.62	1336.79
624.97	1329.67
625.32	1323.01
625.66	1316.00
626.01	1308.70
626.35	1301.32
626.70	1293.61
627.04	1285.90
627.39	1278.13
627.73	1270.80
628.08	1263.85
628.43	1256.47
628.77	1249.07
629.12	1241.45
629.46	1234.27
629.81	1226.79
630.15	1219.57
630.50	1212.11
630.84	1203.87
631.19	1195.93
631.53	1188.50
631.88	1181.01
632.22	1173.38
632.57	1166.07
632.91	1158.50
633.26	1151.11
633.60	1143.69
633.95	1136.60
634.29	1129.54
634.64	1122.94
634.98	1115.49
635.32	1108.44
635.67	1101.91
636.01	1095.33
636.36	1088.60
636.70	1082.10
637.05	1075.55
637.39	1069.07
637.73	1062.61
638.08	1056.76
638.42	1050.75
638.77	1044.34
639.11	1037.72
639.45	1031.40
639.80	1024.68
640.14	1018.30
640.49	1011.78
640.83	1005.48
641.17	999.11
641.52	992.87
641.86	986.44
642.20	980.65
642.55	974.28
642.89	967.77
643.23	961.20
643.58	955.34
643.92	949.16
644.26	943.12
644.61	937.09
644.95	931.00
645.29	924.37
645.64	917.58
645.98	911.16
646.32	905.44
646.66	899.38
647.01	893.60
647.35	887.85
647.69	882.00
648.04	876.50
648.38	870.69
648.72	864.65
649.06	858.58
649.41	852.72
649.75	846.76
650.09	840.88
650.43	835.07
650.78	828.98
651.12	823.02
651.46	817.25
651.80	811.41
652.14	806.05
652.49	800.72
652.83	795.62
653.17	789.92
653.51	784.16
653.85	778.86
654.20	773.20
654.54	767.18
654.88	761.49
655.22	755.67
655.56	750.03
655.90	744.57
656.25	739.27
656.59	733.99
656.93	728.99
657.27	723.80
657.61	718.40
657.95	713.25
658.29	708.20
658.64	703.02
658.98	697.84
659.32	692.35
659.66	687.20
660.00	681.87
660.34	676.98
660.68	672.10
661.02	667.00
661.36	662.37
661.70	657.92
662.05	653.59
662.39	649.12
662.73	644.76
663.07	640.38
663.41	635.97
663.75	631.48
664.09	626.91
664.43	622.57
664.77	618.45
665.11	614.21
665.45	610.11
665.79	606.04
666.13	601.90
666.47	597.87
666.81	593.68
667.15	589.57
667.49	585.73
667.83	581.93
668.17	578.01
668.51	573.88
668.85	569.88
669.19	566.01
669.53	562.19
669.87	558.29
670.21	554.62
670.55	551.05
670.89	547.61
671.23	544.16
671.57	540.62
671.91	537.08
672.25	533.67
672.58	530.14
672.92	526.79
673.26	523.62
673.60	520.49
673.94	517.33
674.28	514.47
674.62	511.50
674.96	508.37
675.30	505.48
675.64	502.57
675.97	499.87
676.31	497.08
676.65	494.17
676.99	491.48
677.33	488.65
677.67	485.75
678.01	482.69
678.34	479.67
678.68	476.87
679.02	474.04
679.36	471.29
679.70	468.56
680.04	465.77
680.37	462.92
680.71	460.15
681.05	457.61
681.39	454.87
681.73	452.23
682.06	449.69
682.40	447.16
682.74	444.70
683.08	442.13
683.42	439.52
683.75	437.02
684.09	434.48
684.43	432.02
684.77	429.58
685.10	427.24
685.44	424.99
685.78	422.69
686.12	420.48
686.45	418.16
686.79	415.87
687.13	413.72
687.46	411.59
687.80	409.46
688.14	407.27
688.48	405.24
688.81	403.01
689.15	400.87
689.49	398.70
689.82	396.58
690.16	394.46
690.50	392.53
690.83	390.58
691.17	388.59
691.51	386.67
691.84	384.82
692.18	382.92
692.52	380.91
692.85	379.00
693.19	377.12
693.52	375.30
693.86	373.51
694.20	371.73
694.53	369.92
694.87	368.02
695.21	366.24
695.54	364.38
695.88	362.66
696.21	360.93
696.55	359.23
696.88	357.59
697.22	355.99
697.56	354.34
697.89	352.72
698.23	351.12
698.56	349.47
698.90	347.91
699.23	346.27
699.57	344.72
699.90	343.14
700.24	341.58
700.58	340.03
700.91	338.50
701.25	337.03
701.58	335.65
701.92	334.29
702.25	332.85
702.59	331.49
702.92	330.16
703.26	328.90
703.59	327.65
703.93	326.44
704.26	325.19
704.60	323.87
704.93	322.61
705.26	321.39
705.60	320.27
705.93	319.09
706.27	318.05
706.60	316.98
706.94	315.95
707.27	314.80
707.61	313.74
707.94	312.75
708.27	311.70
708.61	310.65
708.94	309.65
709.28	308.72
709.61	307.79
709.94	306.85
710.28	305.83
710.61	304.86
710.95	303.79
711.28	302.87
711.61	301.96
711.95	301.03
712.28	300.05
712.61	299.06
712.95	298.12
713.28	297.24
713.61	296.39
713.95	295.47
714.28	294.64
714.61	293.80
714.95	292.94
715.28	292.10
715.61	291.23
715.95	290.36
716.28	289.52
716.61	288.72
716.95	287.88
717.28	287.15
717.61	286.41
717.94	285.69
718.28	284.91
718.61	284.18
718.94	283.49
719.27	282.83
719.61	282.20
719.94	281.57
720.27	280.85
720.60	280.19
720.94	279.58
721.27	279.00
721.60	278.45
721.93	277.85
722.27	277.30
722.60	276.71
722.93	276.14
723.26	275.61
723.59	275.02
723.93	274.50
724.26	273.92
724.59	273.36
724.92	272.81
725.25	272.30
725.59	271.76
725.92	271.27
726.25	270.75
726.58	270.25
726.91	269.76
727.24	269.31
727.57	268.84
727.91	268.36
728.24	267.90
728.57	267.39
728.90	266.95
729.23	266.45
729.56	266.06
729.89	265.62
730.22	265.10
730.55	264.64
730.89	264.16
731.22	263.72
731.55	263.29
731.88	262.86
732.21	262.41
732.54	261.99
732.87	261.56
733.20	261.19
733.53	260.77
733.86	260.42
734.19	260.01
734.52	259.62
734.85	259.26
735.18	258.83
735.51	258.46
735.84	258.07
736.17	257.70
736.50	257.26
736.83	257.03
737.16	256.70
737.49	256.36
737.82	256.00
738.15	255.67
738.48	255.33
738.81	255.00
739.14	254.73
739.47	254.44
739.80	254.11
740.13	253.77
740.46	253.45
740.79	253.08
741.12	252.77
741.45	252.45
741.78	252.13
742.11	251.87
742.44	251.53
742.77	251.21
743.10	250.93
743.43	250.61
743.75	250.22
744.08	250.04
744.41	249.77
744.74	249.53
745.07	249.24
745.40	249.00
745.73	248.81
746.06	248.52
746.39	248.25
746.71	247.99
747.04	247.72
747.37	247.47
747.70	247.24
748.03	247.03
748.36	246.83
748.68	246.60
749.01	246.33
749.34	246.14
749.67	245.95
750.00	245.74
750.33	245.62
750.65	245.43
750.98	245.16
751.31	244.94
751.64	244.71
751.97	244.57
752.29	244.32
752.62	244.06
752.95	243.82
753.28	243.60
753.60	243.42
753.93	243.26
754.26	243.09
754.59	242.88
754.91	242.67
755.24	242.45
755.57	242.27
755.90	242.12
756.22	241.95
756.55	241.77
756.88	241.58
757.20	241.35
757.53	241.15
757.86	240.99
758.19	240.85
758.51	240.71
758.84	240.52
759.17	240.38
759.49	240.23
759.82	240.15
760.15	240.00
760.47	239.87
760.80	239.73
761.13	239.60
761.45	239.42
761.78	239.29
762.11	239.14
762.43	238.95
762.76	238.79
763.08	238.67
763.41	238.53
763.74	238.41
764.06	238.27
764.39	238.12
764.71	237.96
765.04	237.82
765.37	237.69
765.69	237.56
766.02	237.44
766.34	237.29
766.67	237.14
767.00	237.03
767.32	236.95
767.65	236.87
767.97	236.75
768.30	236.66
768.62	236.53
768.95	236.42
769.27	236.33
769.60	236.20
769.92	236.06
770.25	235.96
770.57	235.83
770.90	235.71
771.22	235.62
771.55	235.51
771.87	235.41
772.20	235.29
772.52	235.21
772.85	235.22
773.17	235.10
773.50	235.01
773.82	234.88
774.15	234.75
774.47	234.56
774.80	234.44
775.12	234.35
775.45	234.25
775.77	234.16
776.09	234.09
776.42	234.04
776.74	233.98
777.07	233.85
777.39	233.75
777.72	233.66
778.04	233.57
778.36	233.50
778.69	233.44
779.01	233.36
779.33	233.25
779.66	233.07
779.98	233.01
780.31	232.93
780.63	232.93
780.95	232.87
781.28	232.81
781.60	232.74
781.92	232.69
782.25	232.64
782.57	232.59
782.89	232.49
783.22	232.39
783.54	232.31
783.86	232.27
784.19	232.21
784.51	232.20
784.83	232.14
785.16	232.12
785.48	232.07
785.80	232.05
786.12	232.01
786.45	232.00
786.77	231.97
787.09	231.93
