SpectraSuite Data File
++++++++++++++++++++++++++++++++++++
Date: Fri Feb 01 16:08:16 EST 2013
User: group
Dark Spectrum Present: No
Reference Spectrum Present: No
Number of Sampled Component Spectra: 1
Spectrometers: USB2E7196
Integration Time (usec): 35000 (USB2E7196)
Spectra Averaged: 100 (USB2E7196)
Boxcar Smoothing: 10 (USB2E7196)
Correct for Electrical Dark: No (USB2E7196)
Strobe/Lamp Enabled: No (USB2E7196)
Correct for Detector Non-linearity: No (USB2E7196)
Correct for Stray Light: No (USB2E7196)
Number of Pixels in Processed Spectrum: 2048
>>>>>Begin Processed Spectral Data<<<<<
339.09	0.00
339.48	214.35
339.86	216.29
340.24	217.00
340.63	218.51
341.01	221.22
341.39	221.35
341.78	222.23
342.16	223.85
342.54	224.58
342.93	212.73
343.31	223.49
343.69	224.05
344.07	224.50
344.46	224.94
344.84	225.33
345.22	225.57
345.60	225.81
345.99	226.02
346.37	226.14
346.75	226.20
347.13	226.29
347.52	226.33
347.90	226.41
348.28	226.45
348.66	226.46
349.05	226.46
349.43	226.48
349.81	226.52
350.19	226.58
350.57	226.69
350.96	226.72
351.34	226.78
351.72	226.86
352.10	226.96
352.48	227.01
352.87	227.07
353.25	227.16
353.63	227.23
354.01	227.31
354.39	227.40
354.77	227.52
355.15	227.61
355.54	227.71
355.92	227.75
356.30	227.77
356.68	227.92
357.06	228.00
357.44	228.06
357.82	228.15
358.20	228.22
358.58	228.24
358.97	228.35
359.35	228.45
359.73	228.52
360.11	228.58
360.49	228.66
360.87	228.70
361.25	228.75
361.63	228.82
362.01	228.86
362.39	228.86
362.77	228.90
363.15	228.90
363.53	228.94
363.91	228.95
364.29	229.00
364.67	228.94
365.05	228.95
365.43	229.01
365.81	229.02
366.19	229.05
366.57	229.12
366.95	229.08
367.33	229.05
367.71	229.05
368.09	229.06
368.47	229.02
368.85	229.03
369.23	229.00
369.61	228.96
369.99	228.99
370.37	229.01
370.75	229.02
371.13	229.01
371.51	228.93
371.89	228.91
372.27	228.88
372.65	228.86
373.03	228.81
373.41	228.75
373.78	228.68
374.16	228.61
374.54	228.52
374.92	228.49
375.30	228.45
375.68	228.37
376.06	228.33
376.44	228.28
376.82	228.22
377.19	228.15
377.57	228.07
377.95	227.95
378.33	227.86
378.71	227.75
379.09	227.67
379.47	227.65
379.84	227.58
380.22	227.50
380.60	227.42
380.98	227.33
381.36	227.26
381.73	227.21
382.11	227.16
382.49	227.08
382.87	226.97
383.25	226.91
383.62	226.94
384.00	226.85
384.38	226.80
384.76	226.73
385.13	226.73
385.51	226.68
385.89	226.61
386.27	226.57
386.64	226.53
387.02	226.49
387.40	226.43
387.78	226.39
388.15	226.34
388.53	226.33
388.91	226.30
389.29	226.26
389.66	226.27
390.04	226.21
390.42	226.22
390.79	226.21
391.17	226.18
391.55	226.07
391.92	226.02
392.30	226.01
392.68	225.97
393.05	225.96
393.43	225.96
393.81	225.98
394.18	225.95
394.56	225.97
394.94	226.00
395.31	226.01
395.69	226.05
396.06	226.11
396.44	226.14
396.82	226.17
397.19	226.25
397.57	226.28
397.95	226.35
398.32	226.37
398.70	226.44
399.07	226.49
399.45	226.55
399.82	226.62
400.20	226.66
400.58	226.74
400.95	226.78
401.33	226.87
401.70	226.99
402.08	227.10
402.45	227.16
402.83	227.27
403.20	227.38
403.58	227.45
403.95	227.55
404.33	227.67
404.71	227.78
405.08	227.96
405.46	228.09
405.83	228.26
406.21	228.41
406.58	228.57
406.96	228.75
407.33	228.93
407.70	229.14
408.08	229.42
408.45	229.67
408.83	229.92
409.20	230.13
409.58	230.37
409.95	230.65
410.33	230.95
410.70	231.20
411.08	231.48
411.45	231.79
411.82	232.13
412.20	232.50
412.57	232.92
412.95	233.21
413.32	233.60
413.69	234.00
414.07	234.44
414.44	234.91
414.82	235.40
415.19	235.98
415.56	236.51
415.94	237.08
416.31	237.69
416.68	238.33
417.06	239.08
417.43	239.71
417.81	240.46
418.18	241.23
418.55	242.08
418.93	243.00
419.30	243.93
419.67	244.84
420.04	245.79
420.42	246.79
420.79	247.99
421.16	249.16
421.54	250.33
421.91	251.52
422.28	252.77
422.66	254.12
423.03	255.41
423.40	256.77
423.77	258.19
424.15	259.63
424.52	261.08
424.89	262.68
425.26	264.23
425.64	265.70
426.01	267.28
426.38	268.93
426.75	270.58
427.13	272.25
427.50	274.04
427.87	275.91
428.24	277.76
428.61	279.50
428.99	281.39
429.36	283.52
429.73	285.59
430.10	287.62
430.47	289.62
430.85	291.71
431.22	293.90
431.59	296.26
431.96	298.46
432.33	300.97
432.70	303.32
433.08	306.15
433.45	308.77
433.82	311.37
434.19	314.22
434.56	317.03
434.93	319.74
435.30	322.35
435.68	325.23
436.05	328.05
436.42	330.81
436.79	333.36
437.16	336.00
437.53	338.84
437.90	341.62
438.27	344.35
438.64	347.15
439.01	349.74
439.38	351.96
439.75	354.10
440.13	356.56
440.50	358.90
440.87	360.70
441.24	362.60
441.61	364.75
441.98	366.23
442.35	368.01
442.72	369.83
443.09	371.61
443.46	372.56
443.83	373.10
444.20	373.57
444.57	374.36
444.94	374.65
445.31	374.92
445.68	375.25
446.05	375.32
446.42	374.95
446.79	374.51
447.16	374.03
447.53	373.73
447.90	372.54
448.27	371.34
448.64	369.79
449.01	368.64
449.37	366.65
449.74	364.79
450.11	362.52
450.48	360.06
450.85	357.50
451.22	355.39
451.59	353.42
451.96	351.48
452.33	348.92
452.70	346.59
453.07	343.83
453.43	340.95
453.80	338.19
454.17	335.49
454.54	332.99
454.91	330.31
455.28	327.67
455.65	325.20
456.02	322.82
456.38	320.65
456.75	318.06
457.12	315.81
457.49	313.59
457.86	311.47
458.23	309.62
458.59	307.65
458.96	305.62
459.33	303.81
459.70	302.01
460.07	300.50
460.43	298.78
460.80	297.13
461.17	295.72
461.54	294.30
461.91	292.89
462.27	291.47
462.64	290.24
463.01	288.91
463.38	287.66
463.74	286.28
464.11	285.15
464.48	284.13
464.85	283.07
465.21	282.23
465.58	281.29
465.95	280.21
466.32	279.28
466.68	278.36
467.05	277.43
467.42	276.55
467.78	275.65
468.15	274.80
468.52	274.18
468.88	273.35
469.25	272.57
469.62	271.98
469.98	271.31
470.35	270.69
470.72	270.12
471.08	269.47
471.45	268.94
471.82	268.41
472.18	267.83
472.55	267.41
472.92	266.89
473.28	266.44
473.65	266.03
474.02	265.64
474.38	265.30
474.75	265.00
475.11	264.64
475.48	264.35
475.85	264.12
476.21	263.89
476.58	263.71
476.94	263.57
477.31	263.36
477.67	263.21
478.04	263.07
478.41	263.00
478.77	263.01
479.14	262.95
479.50	262.99
479.87	263.05
480.23	263.12
480.60	263.19
480.96	263.26
481.33	263.43
481.69	263.64
482.06	263.80
482.42	264.03
482.79	264.30
483.15	264.63
483.52	265.00
483.88	265.34
484.25	265.73
484.61	266.13
484.98	266.58
485.34	267.12
485.71	267.74
486.07	268.32
486.44	268.88
486.80	269.58
487.17	270.29
487.53	271.09
487.90	271.89
488.26	272.85
488.62	273.83
488.99	274.84
489.35	275.82
489.72	276.92
490.08	278.06
490.44	279.28
490.81	280.62
491.17	281.94
491.54	283.45
491.90	284.95
492.26	286.60
492.63	288.33
492.99	290.13
493.36	292.01
493.72	294.08
494.08	296.15
494.45	298.39
494.81	300.73
495.17	303.18
495.54	305.79
495.90	308.41
496.26	311.23
496.63	314.19
496.99	317.27
497.35	320.55
497.72	323.99
498.08	327.53
498.44	331.20
498.80	335.14
499.17	339.13
499.53	343.34
499.89	347.70
500.26	352.22
500.62	356.89
500.98	361.89
501.34	366.95
501.71	372.36
502.07	377.82
502.43	383.45
502.79	389.27
503.16	395.40
503.52	401.72
503.88	408.13
504.24	414.77
504.60	421.73
504.97	428.89
505.33	436.25
505.69	443.96
506.05	451.78
506.41	459.71
506.78	467.97
507.14	476.42
507.50	485.16
507.86	494.27
508.22	503.52
508.59	512.70
508.95	522.22
509.31	532.01
509.67	542.13
510.03	552.40
510.39	562.97
510.75	573.68
511.12	584.62
511.48	595.97
511.84	607.39
512.20	618.92
512.56	630.90
512.92	643.04
513.28	655.44
513.64	667.90
514.00	680.59
514.37	693.41
514.73	706.56
515.09	719.63
515.45	732.88
515.81	746.49
516.17	760.44
516.53	774.60
516.89	788.74
517.25	802.89
517.61	817.35
517.97	831.77
518.33	846.27
518.69	861.02
519.05	875.94
519.41	891.20
519.77	906.66
520.13	922.09
520.49	937.42
520.85	952.77
521.21	968.42
521.57	984.57
521.93	1000.39
522.29	1016.58
522.65	1032.70
523.01	1048.87
523.37	1064.78
523.73	1080.96
524.09	1097.06
524.45	1113.39
524.81	1130.04
525.17	1146.69
525.53	1163.51
525.89	1180.25
526.25	1197.04
526.61	1213.38
526.97	1230.07
527.33	1246.46
527.68	1262.99
528.04	1279.36
528.40	1295.89
528.76	1312.97
529.12	1329.51
529.48	1346.40
529.84	1362.50
530.20	1379.09
530.56	1396.03
530.91	1413.34
531.27	1430.07
531.63	1446.42
531.99	1462.90
532.35	1478.73
532.71	1494.64
533.07	1510.82
533.42	1526.67
533.78	1542.61
534.14	1558.82
534.50	1574.09
534.86	1590.00
535.21	1605.02
535.57	1620.90
535.93	1636.26
536.29	1650.94
536.65	1666.03
537.00	1680.55
537.36	1695.65
537.72	1710.20
538.08	1724.48
538.44	1738.31
538.79	1752.14
539.15	1765.73
539.51	1779.41
539.87	1793.66
540.22	1807.29
540.58	1821.03
540.94	1834.23
541.29	1847.13
541.65	1859.76
542.01	1872.87
542.37	1885.18
542.72	1897.64
543.08	1909.43
543.44	1921.74
543.79	1933.09
544.15	1943.91
544.51	1955.53
544.87	1966.62
545.22	1977.32
545.58	1987.51
545.94	1997.11
546.29	2006.90
546.65	2016.93
547.01	2026.14
547.36	2034.85
547.72	2043.33
548.07	2051.19
548.43	2059.30
548.79	2067.25
549.14	2074.74
549.50	2081.89
549.86	2089.40
550.21	2096.60
550.57	2103.70
550.92	2110.32
551.28	2117.16
551.64	2124.32
551.99	2130.73
552.35	2136.84
552.70	2143.02
553.06	2149.10
553.41	2155.57
553.77	2161.46
554.13	2167.40
554.48	2173.54
554.84	2179.07
555.19	2184.29
555.55	2189.55
555.90	2194.22
556.26	2199.09
556.61	2203.92
556.97	2208.38
557.32	2212.54
557.68	2216.80
558.03	2221.10
558.39	2224.67
558.74	2229.47
559.10	2233.19
559.45	2236.85
559.81	2241.22
560.16	2245.02
560.52	2248.24
560.87	2251.59
561.23	2254.38
561.58	2257.22
561.94	2259.74
562.29	2262.05
562.64	2264.78
563.00	2267.33
563.35	2270.64
563.71	2273.72
564.06	2276.79
564.42	2279.75
564.77	2282.33
565.12	2284.56
565.48	2286.50
565.83	2288.50
566.19	2289.71
566.54	2290.59
566.89	2291.76
567.25	2292.21
567.60	2293.52
567.96	2295.18
568.31	2296.01
568.66	2297.10
569.02	2297.73
569.37	2298.11
569.72	2299.03
570.08	2299.33
570.43	2299.30
570.78	2298.67
571.14	2297.15
571.49	2295.74
571.84	2295.24
572.20	2294.22
572.55	2293.18
572.90	2291.70
573.26	2290.39
573.61	2288.75
573.96	2287.27
574.31	2284.53
574.67	2281.48
575.02	2277.83
575.37	2274.40
575.72	2270.78
576.08	2267.46
576.43	2264.12
576.78	2260.37
577.13	2257.20
577.49	2253.94
577.84	2250.58
578.19	2247.05
578.54	2243.53
578.90	2239.62
579.25	2234.16
579.60	2229.20
579.95	2224.19
580.30	2219.02
580.66	2213.89
581.01	2208.87
581.36	2203.85
581.71	2199.63
582.06	2195.47
582.42	2191.01
582.77	2186.00
583.12	2181.36
583.47	2176.63
583.82	2171.80
584.17	2166.66
584.53	2161.24
584.88	2155.69
585.23	2149.87
585.58	2144.29
585.93	2138.79
586.28	2133.81
586.63	2128.76
586.98	2123.74
587.34	2119.13
587.69	2114.41
588.04	2109.13
588.39	2103.56
588.74	2097.02
589.09	2090.81
589.44	2084.01
589.79	2078.04
590.14	2072.34
590.49	2065.75
590.84	2059.36
591.19	2053.28
591.54	2046.81
591.89	2039.42
592.25	2032.65
592.60	2025.52
592.95	2018.00
593.30	2010.77
593.65	2003.22
594.00	1996.19
594.35	1988.86
594.70	1980.74
595.05	1973.68
595.40	1966.47
595.75	1958.92
596.10	1952.84
596.45	1946.14
596.80	1939.93
597.15	1933.39
597.50	1926.30
597.85	1919.79
598.19	1913.26
598.54	1906.15
598.89	1899.56
599.24	1893.67
599.59	1886.95
599.94	1880.72
600.29	1874.44
600.64	1867.80
600.99	1860.49
601.34	1853.65
601.69	1846.74
602.04	1839.85
602.39	1832.42
602.74	1825.44
603.08	1818.74
603.43	1812.00
603.78	1804.77
604.13	1797.61
604.48	1790.23
604.83	1783.35
605.18	1776.53
605.53	1768.51
605.87	1760.44
606.22	1753.16
606.57	1745.21
606.92	1738.01
607.27	1730.86
607.62	1723.98
607.96	1716.73
608.31	1710.10
608.66	1702.52
609.01	1695.01
609.36	1687.52
609.70	1679.46
610.05	1671.60
610.40	1663.99
610.75	1655.67
611.10	1647.94
611.44	1639.51
611.79	1631.51
612.14	1622.80
612.49	1613.65
612.83	1605.21
613.18	1597.12
613.53	1589.03
613.88	1580.50
614.22	1572.20
614.57	1563.52
614.92	1555.52
615.27	1547.94
615.61	1539.64
615.96	1531.59
616.31	1523.99
616.65	1516.63
617.00	1509.12
617.35	1501.42
617.70	1493.00
618.04	1484.36
618.39	1476.18
618.74	1468.58
619.08	1460.40
619.43	1452.97
619.78	1445.98
620.12	1439.02
620.47	1431.55
620.82	1423.36
621.16	1415.90
621.51	1408.26
621.85	1400.71
622.20	1392.14
622.55	1383.80
622.89	1375.92
623.24	1368.34
623.59	1360.81
623.93	1353.34
624.28	1346.05
624.62	1338.49
624.97	1331.33
625.32	1324.70
625.66	1317.67
626.01	1310.48
626.35	1302.96
626.70	1295.12
627.04	1287.52
627.39	1279.52
627.73	1272.10
628.08	1265.31
628.43	1258.05
628.77	1250.67
629.12	1243.11
629.46	1236.03
629.81	1228.54
630.15	1221.36
630.50	1213.98
630.84	1205.85
631.19	1197.88
631.53	1190.38
631.88	1182.85
632.22	1175.27
632.57	1167.90
632.91	1160.42
633.26	1152.97
633.60	1145.57
633.95	1138.49
634.29	1131.40
634.64	1124.78
634.98	1117.46
635.32	1110.22
635.67	1103.58
636.01	1096.96
636.36	1090.18
636.70	1083.59
637.05	1077.14
637.39	1070.69
637.73	1064.21
638.08	1058.28
638.42	1052.30
638.77	1045.88
639.11	1039.29
639.45	1032.89
639.80	1026.27
640.14	1019.80
640.49	1013.21
640.83	1007.00
641.17	1000.78
641.52	994.38
641.86	987.86
642.20	981.95
642.55	975.62
642.89	969.15
643.23	962.54
643.58	956.76
643.92	950.65
644.26	944.52
644.61	938.43
644.95	932.40
645.29	925.79
645.64	919.04
645.98	912.73
646.32	906.89
646.66	900.88
647.01	895.06
647.35	889.37
647.69	883.53
648.04	877.91
648.38	872.09
648.72	866.22
649.06	860.21
649.41	854.36
649.75	848.46
650.09	842.60
650.43	836.92
650.78	830.74
651.12	824.82
651.46	819.12
651.80	813.36
652.14	807.91
652.49	802.57
652.83	797.44
653.17	791.70
653.51	785.93
653.85	780.47
654.20	774.85
654.54	768.77
654.88	763.11
655.22	757.27
655.56	751.53
655.90	746.01
656.25	740.87
656.59	735.50
656.93	730.38
657.27	725.23
657.61	719.74
657.95	714.69
658.29	709.49
658.64	704.24
658.98	698.93
659.32	693.45
659.66	688.25
660.00	682.88
660.34	677.91
660.68	672.96
661.02	667.95
661.36	663.22
661.70	658.77
662.05	654.36
662.39	649.98
662.73	645.46
663.07	641.06
663.41	636.52
663.75	632.05
664.09	627.44
664.43	622.97
664.77	618.87
665.11	614.56
665.45	610.42
665.79	606.33
666.13	602.20
666.47	598.07
666.81	593.90
667.15	589.81
667.49	585.91
667.83	582.17
668.17	578.25
668.51	574.23
668.85	570.12
669.19	566.27
669.53	562.45
669.87	558.68
670.21	555.01
670.55	551.41
670.89	547.94
671.23	544.57
671.57	541.12
671.91	537.57
672.25	534.09
672.58	530.63
672.92	527.23
673.26	524.08
673.60	520.99
673.94	517.92
674.28	514.97
674.62	512.06
674.96	508.93
675.30	506.02
675.64	503.03
675.97	500.32
676.31	497.54
676.65	494.59
676.99	491.87
677.33	488.98
677.67	486.15
678.01	483.18
678.34	480.18
678.68	477.22
679.02	474.41
679.36	471.62
679.70	468.86
680.04	466.09
680.37	463.22
680.71	460.35
681.05	457.75
681.39	455.07
681.73	452.37
682.06	449.90
682.40	447.37
682.74	444.87
683.08	442.31
683.42	439.65
683.75	437.19
684.09	434.62
684.43	432.15
684.77	429.67
685.10	427.26
685.44	424.97
685.78	422.71
686.12	420.44
686.45	418.11
686.79	415.82
687.13	413.63
687.46	411.48
687.80	409.37
688.14	407.10
688.48	405.05
688.81	402.83
689.15	400.65
689.49	398.51
689.82	396.43
690.16	394.34
690.50	392.40
690.83	390.48
691.17	388.53
691.51	386.61
691.84	384.80
692.18	382.89
692.52	380.91
692.85	378.98
693.19	377.15
693.52	375.35
693.86	373.50
694.20	371.74
694.53	369.93
694.87	368.07
695.21	366.24
695.54	364.41
695.88	362.68
696.21	360.93
696.55	359.23
696.88	357.57
697.22	355.88
697.56	354.24
697.89	352.55
698.23	350.86
698.56	349.25
698.90	347.64
699.23	345.97
699.57	344.47
699.90	342.88
700.24	341.32
700.58	339.79
700.91	338.33
701.25	336.87
701.58	335.50
701.92	334.17
702.25	332.86
702.59	331.50
702.92	330.20
703.26	328.90
703.59	327.60
703.93	326.36
704.26	325.19
704.60	323.86
704.93	322.59
705.26	321.41
705.60	320.23
705.93	319.06
706.27	318.04
706.60	316.97
706.94	315.89
707.27	314.76
707.61	313.71
707.94	312.69
708.27	311.57
708.61	310.48
708.94	309.43
709.28	308.46
709.61	307.47
709.94	306.51
710.28	305.46
710.61	304.53
710.95	303.48
711.28	302.54
711.61	301.60
711.95	300.73
712.28	299.76
712.61	298.81
712.95	297.89
713.28	297.01
713.61	296.13
713.95	295.28
714.28	294.45
714.61	293.57
714.95	292.70
715.28	291.85
715.61	291.01
715.95	290.14
716.28	289.28
716.61	288.47
716.95	287.63
717.28	286.88
717.61	286.07
717.94	285.35
718.28	284.55
718.61	283.84
718.94	283.15
719.27	282.50
719.61	281.84
719.94	281.18
720.27	280.47
720.60	279.78
720.94	279.19
721.27	278.56
721.60	277.97
721.93	277.43
722.27	276.89
722.60	276.31
722.93	275.79
723.26	275.25
723.59	274.68
723.93	274.16
724.26	273.62
724.59	273.08
724.92	272.55
725.25	272.05
725.59	271.56
725.92	271.04
726.25	270.57
726.58	270.09
726.91	269.60
727.24	269.12
727.57	268.69
727.91	268.14
728.24	267.69
728.57	267.20
728.90	266.75
729.23	266.23
729.56	265.81
729.89	265.30
730.22	264.82
730.55	264.35
730.89	263.90
731.22	263.48
731.55	263.05
731.88	262.62
732.21	262.16
732.54	261.69
732.87	261.23
733.20	260.78
733.53	260.36
733.86	259.98
734.19	259.58
734.52	259.16
734.85	258.83
735.18	258.40
735.51	258.04
735.84	257.67
736.17	257.34
736.50	256.96
736.83	256.78
737.16	256.44
737.49	256.12
737.82	255.75
738.15	255.38
738.48	255.06
738.81	254.73
739.14	254.40
739.47	254.12
739.80	253.84
740.13	253.55
740.46	253.20
740.79	252.87
741.12	252.56
741.45	252.22
741.78	251.87
742.11	251.62
742.44	251.27
742.77	250.96
743.10	250.68
743.43	250.38
743.75	249.97
744.08	249.81
744.41	249.56
744.74	249.30
745.07	249.07
745.40	248.79
745.73	248.57
746.06	248.29
746.39	247.97
746.71	247.69
747.04	247.41
747.37	247.17
747.70	246.95
748.03	246.71
748.36	246.51
748.68	246.29
749.01	246.01
749.34	245.79
749.67	245.56
750.00	245.34
750.33	245.18
750.65	244.97
750.98	244.64
751.31	244.37
751.64	244.16
751.97	243.96
752.29	243.73
752.62	243.48
752.95	243.30
753.28	243.11
753.60	242.93
753.93	242.76
754.26	242.57
754.59	242.35
754.91	242.11
755.24	241.90
755.57	241.70
755.90	241.53
756.22	241.34
756.55	241.14
756.88	240.94
757.20	240.69
757.53	240.49
757.86	240.33
758.19	240.20
758.51	240.02
758.84	239.81
759.17	239.70
759.49	239.56
759.82	239.44
760.15	239.28
760.47	239.12
760.80	238.94
761.13	238.82
761.45	238.65
761.78	238.52
762.11	238.40
762.43	238.24
762.76	238.13
763.08	237.99
763.41	237.83
763.74	237.70
764.06	237.56
764.39	237.41
764.71	237.26
765.04	237.11
765.37	236.94
765.69	236.81
766.02	236.68
766.34	236.51
766.67	236.33
767.00	236.24
767.32	236.16
767.65	236.12
767.97	235.99
768.30	235.90
768.62	235.82
768.95	235.69
769.27	235.58
769.60	235.47
769.92	235.40
770.25	235.30
770.57	235.19
770.90	235.06
771.22	234.97
771.55	234.88
771.87	234.79
772.20	234.73
772.52	234.72
772.85	234.71
773.17	234.64
773.50	234.57
773.82	234.46
774.15	234.34
774.47	234.19
774.80	234.10
775.12	234.00
775.45	233.87
775.77	233.81
776.09	233.76
776.42	233.67
776.74	233.59
777.07	233.50
777.39	233.45
777.72	233.41
778.04	233.39
778.36	233.29
778.69	233.23
779.01	233.19
779.33	233.00
779.66	232.88
779.98	232.79
780.31	232.73
780.63	232.73
780.95	232.67
781.28	232.61
781.60	232.58
781.92	232.54
782.25	232.49
782.57	232.38
782.89	232.29
783.22	232.20
783.54	232.15
783.86	232.14
784.19	232.04
784.51	232.00
784.83	231.90
785.16	231.85
785.48	231.78
785.80	231.73
786.12	231.73
786.45	231.64
786.77	231.60
787.09	231.53
