SpectraSuite Data File
++++++++++++++++++++++++++++++++++++
Date: Fri Feb 01 17:25:17 EST 2013
User: group
Dark Spectrum Present: No
Reference Spectrum Present: No
Number of Sampled Component Spectra: 1
Spectrometers: USB2E7196
Integration Time (usec): 35000 (USB2E7196)
Spectra Averaged: 100 (USB2E7196)
Boxcar Smoothing: 10 (USB2E7196)
Correct for Electrical Dark: No (USB2E7196)
Strobe/Lamp Enabled: No (USB2E7196)
Correct for Detector Non-linearity: No (USB2E7196)
Correct for Stray Light: No (USB2E7196)
Number of Pixels in Processed Spectrum: 2048
>>>>>Begin Processed Spectral Data<<<<<
339.09	0.00
339.48	212.87
339.86	214.24
340.24	215.73
340.63	217.01
341.01	219.69
341.39	219.76
341.78	221.12
342.16	221.88
342.54	222.70
342.93	211.00
343.31	221.64
343.69	222.16
344.07	222.60
344.46	223.03
344.84	223.40
345.22	223.63
345.60	223.88
345.99	224.07
346.37	224.21
346.75	224.29
347.13	224.36
347.52	224.43
347.90	224.51
348.28	224.52
348.66	224.58
349.05	224.60
349.43	224.68
349.81	224.76
350.19	224.78
350.57	224.88
350.96	224.94
351.34	225.06
351.72	225.16
352.10	225.26
352.48	225.32
352.87	225.37
353.25	225.45
353.63	225.50
354.01	225.56
354.39	225.65
354.77	225.77
355.15	225.90
355.54	225.97
355.92	226.01
356.30	226.11
356.68	226.24
357.06	226.34
357.44	226.38
357.82	226.44
358.20	226.52
358.58	226.58
358.97	226.64
359.35	226.71
359.73	226.78
360.11	226.87
360.49	226.94
360.87	227.02
361.25	227.11
361.63	227.19
362.01	227.25
362.39	227.27
362.77	227.33
363.15	227.36
363.53	227.43
363.91	227.47
364.29	227.53
364.67	227.46
365.05	227.48
365.43	227.54
365.81	227.55
366.19	227.62
366.57	227.70
366.95	227.73
367.33	227.71
367.71	227.72
368.09	227.73
368.47	227.73
368.85	227.70
369.23	227.70
369.61	227.67
369.99	227.69
370.37	227.69
370.75	227.70
371.13	227.61
371.51	227.56
371.89	227.53
372.27	227.48
372.65	227.47
373.03	227.44
373.41	227.38
373.78	227.35
374.16	227.25
374.54	227.15
374.92	227.10
375.30	227.08
375.68	227.02
376.06	226.96
376.44	226.91
376.82	226.85
377.19	226.78
377.57	226.72
377.95	226.63
378.33	226.54
378.71	226.40
379.09	226.37
379.47	226.31
379.84	226.28
380.22	226.20
380.60	226.13
380.98	226.04
381.36	225.98
381.73	225.91
382.11	225.84
382.49	225.76
382.87	225.67
383.25	225.60
383.62	225.67
384.00	225.62
384.38	225.58
384.76	225.56
385.13	225.52
385.51	225.46
385.89	225.37
386.27	225.34
386.64	225.30
387.02	225.28
387.40	225.22
387.78	225.17
388.15	225.11
388.53	225.05
388.91	225.00
389.29	224.98
389.66	224.96
390.04	224.94
390.42	224.90
390.79	224.90
391.17	224.87
391.55	224.72
391.92	224.69
392.30	224.65
392.68	224.61
393.05	224.58
393.43	224.60
393.81	224.60
394.18	224.59
394.56	224.59
394.94	224.62
395.31	224.65
395.69	224.66
396.06	224.71
396.44	224.74
396.82	224.76
397.19	224.84
397.57	224.87
397.95	224.88
398.32	224.95
398.70	224.96
399.07	225.01
399.45	225.07
399.82	225.12
400.20	225.15
400.58	225.21
400.95	225.26
401.33	225.33
401.70	225.45
402.08	225.55
402.45	225.63
402.83	225.71
403.20	225.76
403.58	225.86
403.95	225.97
404.33	226.07
404.71	226.20
405.08	226.37
405.46	226.45
405.83	226.60
406.21	226.74
406.58	226.93
406.96	227.07
407.33	227.25
407.70	227.43
408.08	227.68
408.45	227.92
408.83	228.12
409.20	228.35
409.58	228.55
409.95	228.80
410.33	229.06
410.70	229.30
411.08	229.63
411.45	229.94
411.82	230.24
412.20	230.61
412.57	230.99
412.95	231.25
413.32	231.70
413.69	232.15
414.07	232.58
414.44	233.02
414.82	233.54
415.19	234.08
415.56	234.63
415.94	235.19
416.31	235.82
416.68	236.48
417.06	237.20
417.43	237.90
417.81	238.70
418.18	239.53
418.55	240.41
418.93	241.33
419.30	242.22
419.67	243.20
420.04	244.22
420.42	245.26
420.79	246.47
421.16	247.70
421.54	248.92
421.91	250.16
422.28	251.49
422.66	252.85
423.03	254.23
423.40	255.66
423.77	257.12
424.15	258.60
424.52	260.17
424.89	261.85
425.26	263.47
425.64	264.97
426.01	266.59
426.38	268.33
426.75	270.03
427.13	271.84
427.50	273.73
427.87	275.67
428.24	277.63
428.61	279.47
428.99	281.45
429.36	283.63
429.73	285.81
430.10	287.89
430.47	290.03
430.85	292.19
431.22	294.50
431.59	297.00
431.96	299.36
432.33	301.93
432.70	304.39
433.08	307.34
433.45	310.07
433.82	312.80
434.19	315.76
434.56	318.70
434.93	321.45
435.30	324.11
435.68	327.13
436.05	330.01
436.42	332.89
436.79	335.49
437.16	338.26
437.53	341.21
437.90	344.12
438.27	346.96
438.64	349.91
439.01	352.56
439.38	354.84
439.75	357.07
440.13	359.62
440.50	362.05
440.87	363.92
441.24	365.97
441.61	368.22
441.98	369.80
442.35	371.68
442.72	373.62
443.09	375.56
443.46	376.60
443.83	377.26
444.20	377.80
444.57	378.71
444.94	379.03
445.31	379.35
445.68	379.73
446.05	379.87
446.42	379.49
446.79	379.12
447.16	378.69
447.53	378.36
447.90	377.19
448.27	376.03
448.64	374.39
449.01	373.24
449.37	371.20
449.74	369.28
450.11	366.95
450.48	364.40
450.85	361.77
451.22	359.55
451.59	357.50
451.96	355.53
452.33	352.85
452.70	350.45
453.07	347.56
453.43	344.59
453.80	341.73
454.17	338.97
454.54	336.34
454.91	333.53
455.28	330.76
455.65	328.19
456.02	325.63
456.38	323.44
456.75	320.69
457.12	318.36
457.49	316.00
457.86	313.77
458.23	311.86
458.59	309.73
458.96	307.54
459.33	305.58
459.70	303.63
460.07	302.07
460.43	300.25
460.80	298.60
461.17	297.10
461.54	295.51
461.91	294.06
462.27	292.54
462.64	291.25
463.01	289.87
463.38	288.51
463.74	287.08
464.11	285.86
464.48	284.80
464.85	283.65
465.21	282.77
465.58	281.83
465.95	280.71
466.32	279.76
466.68	278.83
467.05	277.89
467.42	277.01
467.78	276.05
468.15	275.16
468.52	274.42
468.88	273.54
469.25	272.75
469.62	272.08
469.98	271.37
470.35	270.71
470.72	270.09
471.08	269.43
471.45	268.93
471.82	268.35
472.18	267.73
472.55	267.29
472.92	266.74
473.28	266.25
473.65	265.76
474.02	265.32
474.38	265.00
474.75	264.69
475.11	264.32
475.48	264.06
475.85	263.82
476.21	263.58
476.58	263.41
476.94	263.25
477.31	263.08
477.67	262.96
478.04	262.86
478.41	262.82
478.77	262.88
479.14	262.79
479.50	262.83
479.87	262.87
480.23	262.97
480.60	263.02
480.96	263.13
481.33	263.38
481.69	263.58
482.06	263.73
482.42	263.92
482.79	264.12
483.15	264.42
483.52	264.83
483.88	265.19
484.25	265.58
484.61	266.05
484.98	266.47
485.34	266.99
485.71	267.56
486.07	268.16
486.44	268.67
486.80	269.37
487.17	270.09
487.53	270.92
487.90	271.75
488.26	272.69
488.62	273.65
488.99	274.61
489.35	275.66
489.72	276.78
490.08	277.95
490.44	279.21
490.81	280.52
491.17	281.84
491.54	283.33
491.90	284.85
492.26	286.43
492.63	288.16
492.99	289.98
493.36	291.88
493.72	293.92
494.08	296.08
494.45	298.29
494.81	300.61
495.17	303.02
495.54	305.56
495.90	308.23
496.26	311.01
496.63	313.95
496.99	317.05
497.35	320.30
497.72	323.70
498.08	327.18
498.44	330.83
498.80	334.66
499.17	338.66
499.53	342.81
499.89	347.15
500.26	351.60
500.62	356.14
500.98	361.01
501.34	366.04
501.71	371.26
502.07	376.65
502.43	382.21
502.79	387.90
503.16	393.91
503.52	400.10
503.88	406.40
504.24	412.93
504.60	419.70
504.97	426.69
505.33	433.90
505.69	441.45
506.05	449.09
506.41	456.91
506.78	464.92
507.14	473.19
507.50	481.74
507.86	490.60
508.22	499.67
508.59	508.77
508.95	518.13
509.31	527.84
509.67	537.77
510.03	547.82
510.39	558.24
510.75	568.82
511.12	579.48
511.48	590.57
511.84	601.74
512.20	613.01
512.56	624.75
512.92	636.68
513.28	648.84
513.64	661.02
514.00	673.41
514.37	686.12
514.73	698.95
515.09	711.70
515.45	724.68
515.81	737.99
516.17	751.63
516.53	765.47
516.89	779.26
517.25	793.04
517.61	807.20
517.97	821.32
518.33	835.34
518.69	849.80
519.05	864.38
519.41	879.21
519.77	894.33
520.13	909.22
520.49	924.20
520.85	939.10
521.21	954.43
521.57	970.32
521.93	985.60
522.29	1001.51
522.65	1017.42
523.01	1033.15
523.37	1048.78
523.73	1064.51
524.09	1080.10
524.45	1095.87
524.81	1112.11
525.17	1128.32
525.53	1144.82
525.89	1161.29
526.25	1177.71
526.61	1193.74
526.97	1209.97
527.33	1226.11
527.68	1242.31
528.04	1258.48
528.40	1274.61
528.76	1291.24
529.12	1307.35
529.48	1323.91
529.84	1339.47
530.20	1355.65
530.56	1372.15
530.91	1389.13
531.27	1405.55
531.63	1421.69
531.99	1438.01
532.35	1453.78
532.71	1469.46
533.07	1485.23
533.42	1500.94
533.78	1516.66
534.14	1532.54
534.50	1547.70
534.86	1563.16
535.21	1578.05
535.57	1593.51
535.93	1608.78
536.29	1623.28
536.65	1637.97
537.00	1652.43
537.36	1667.45
537.72	1681.64
538.08	1696.00
538.44	1709.50
538.79	1723.12
539.15	1736.50
539.51	1750.01
539.87	1763.92
540.22	1777.32
540.58	1790.78
540.94	1803.72
541.29	1816.32
541.65	1828.85
542.01	1841.85
542.37	1854.16
542.72	1866.53
543.08	1878.29
543.44	1890.59
543.79	1901.90
544.15	1913.00
544.51	1924.49
544.87	1935.39
545.22	1946.29
545.58	1956.55
545.94	1966.38
546.29	1976.29
546.65	1986.28
547.01	1995.67
547.36	2004.67
547.72	2013.30
548.07	2021.55
548.43	2029.84
548.79	2037.82
549.14	2045.61
549.50	2052.96
549.86	2060.63
550.21	2068.20
550.57	2075.64
550.92	2082.57
551.28	2089.66
551.64	2096.83
551.99	2103.56
552.35	2110.14
552.70	2116.47
553.06	2122.71
553.41	2129.29
553.77	2135.31
554.13	2141.50
554.48	2147.70
554.84	2153.38
555.19	2158.96
555.55	2164.35
555.90	2169.27
556.26	2174.74
556.61	2179.65
556.97	2184.47
557.32	2189.01
557.68	2193.33
558.03	2197.71
558.39	2201.53
558.74	2206.42
559.10	2210.64
559.45	2214.54
559.81	2218.99
560.16	2223.18
560.52	2226.79
560.87	2230.52
561.23	2233.75
561.58	2237.04
561.94	2240.05
562.29	2242.59
562.64	2245.67
563.00	2248.50
563.35	2252.28
563.71	2255.60
564.06	2259.21
564.42	2262.34
564.77	2265.22
565.12	2268.17
565.48	2270.64
565.83	2272.96
566.19	2274.78
566.54	2276.05
566.89	2277.60
567.25	2278.59
567.60	2280.07
567.96	2282.16
568.31	2283.37
568.66	2284.84
569.02	2285.84
569.37	2286.52
569.72	2287.94
570.08	2288.53
570.43	2288.97
570.78	2288.80
571.14	2287.77
571.49	2286.66
571.84	2286.64
572.20	2285.94
572.55	2285.11
572.90	2283.75
573.26	2282.83
573.61	2281.42
573.96	2280.26
574.31	2277.78
574.67	2275.18
575.02	2272.11
575.37	2268.95
575.72	2265.71
576.08	2262.69
576.43	2259.68
576.78	2256.57
577.13	2253.61
577.49	2250.64
577.84	2247.61
578.19	2244.14
578.54	2240.89
578.90	2237.27
579.25	2232.08
579.60	2227.44
579.95	2222.88
580.30	2218.24
580.66	2213.27
581.01	2208.72
581.36	2203.95
581.71	2200.02
582.06	2196.09
582.42	2191.99
582.77	2187.11
583.12	2182.82
583.47	2178.41
583.82	2173.88
584.17	2168.73
584.53	2163.53
584.88	2158.23
585.23	2152.74
585.58	2147.54
585.93	2142.38
586.28	2137.68
586.63	2132.92
586.98	2128.11
587.34	2123.58
587.69	2118.96
588.04	2114.14
588.39	2108.66
588.74	2102.35
589.09	2096.49
589.44	2089.89
589.79	2083.85
590.14	2078.37
590.49	2072.04
590.84	2065.86
591.19	2059.93
591.54	2053.79
591.89	2046.97
592.25	2040.56
592.60	2033.60
592.95	2026.37
593.30	2019.16
593.65	2011.69
594.00	2004.83
594.35	1997.65
594.70	1989.61
595.05	1982.74
595.40	1975.63
595.75	1968.33
596.10	1962.40
596.45	1955.83
596.80	1949.83
597.15	1943.56
597.50	1936.78
597.85	1930.30
598.19	1923.91
598.54	1917.19
598.89	1910.75
599.24	1904.77
599.59	1898.23
599.94	1891.96
600.29	1885.59
600.64	1879.03
600.99	1871.80
601.34	1865.18
601.69	1858.30
602.04	1851.54
602.39	1844.12
602.74	1837.30
603.08	1830.69
603.43	1823.90
603.78	1816.54
604.13	1809.38
604.48	1802.29
604.83	1795.40
605.18	1788.80
605.53	1780.80
605.87	1772.75
606.22	1765.37
606.57	1757.38
606.92	1749.86
607.27	1742.89
607.62	1736.15
607.96	1729.02
608.31	1722.60
608.66	1715.02
609.01	1707.65
609.36	1700.25
609.70	1692.22
610.05	1684.16
610.40	1676.32
610.75	1668.11
611.10	1660.62
611.44	1652.10
611.79	1643.93
612.14	1635.37
612.49	1625.90
612.83	1617.43
613.18	1609.13
613.53	1600.95
613.88	1592.44
614.22	1584.16
614.57	1575.27
614.92	1567.13
615.27	1559.57
615.61	1551.08
615.96	1542.86
616.31	1535.06
616.65	1527.43
617.00	1519.82
617.35	1512.10
617.70	1503.85
618.04	1495.25
618.39	1486.76
618.74	1479.17
619.08	1470.66
619.43	1462.82
619.78	1455.77
620.12	1448.53
620.47	1440.92
620.82	1432.72
621.16	1425.07
621.51	1417.40
621.85	1409.71
622.20	1401.14
622.55	1392.57
622.89	1384.71
623.24	1376.95
623.59	1369.38
623.93	1361.88
624.28	1354.66
624.62	1347.10
624.97	1339.70
625.32	1332.76
625.66	1325.66
626.01	1318.39
626.35	1311.02
626.70	1303.25
627.04	1295.59
627.39	1287.75
627.73	1280.18
628.08	1273.17
628.43	1265.98
628.77	1258.62
629.12	1251.10
629.46	1243.83
629.81	1236.27
630.15	1228.83
630.50	1221.36
630.84	1213.23
631.19	1205.23
631.53	1197.55
631.88	1189.81
632.22	1182.16
632.57	1174.75
632.91	1167.17
633.26	1159.72
633.60	1152.23
633.95	1144.89
634.29	1137.65
634.64	1130.82
634.98	1123.48
635.32	1116.23
635.67	1109.36
636.01	1102.61
636.36	1095.77
636.70	1089.14
637.05	1082.54
637.39	1076.06
637.73	1069.63
638.08	1063.64
638.42	1057.57
638.77	1051.10
639.11	1044.52
639.45	1038.07
639.80	1031.41
640.14	1024.99
640.49	1018.37
640.83	1011.98
641.17	1005.82
641.52	999.45
641.86	992.92
642.20	987.08
642.55	980.62
642.89	974.17
643.23	967.46
643.58	961.57
643.92	955.31
644.26	949.27
644.61	943.15
644.95	937.03
645.29	930.42
645.64	923.62
645.98	917.15
646.32	911.13
646.66	905.11
647.01	899.30
647.35	893.56
647.69	887.65
648.04	882.05
648.38	876.27
648.72	870.37
649.06	864.33
649.41	858.42
649.75	852.58
650.09	846.64
650.43	840.88
650.78	834.69
651.12	828.73
651.46	823.00
651.80	817.38
652.14	811.88
652.49	806.47
652.83	801.30
653.17	795.73
653.51	790.15
653.85	784.69
654.20	779.04
654.54	772.96
654.88	767.16
655.22	761.26
655.56	755.45
655.90	749.87
656.25	744.68
656.59	739.19
656.93	734.01
657.27	728.84
657.61	723.42
657.95	718.28
658.29	713.12
658.64	707.74
658.98	702.26
659.32	696.80
659.66	691.65
660.00	686.34
660.34	681.32
660.68	676.30
661.02	671.28
661.36	666.54
661.70	662.06
662.05	657.71
662.39	653.44
662.73	649.02
663.07	644.62
663.41	640.11
663.75	635.61
664.09	631.05
664.43	626.60
664.77	622.45
665.11	618.17
665.45	614.05
665.79	610.02
666.13	605.91
666.47	601.79
666.81	597.54
667.15	593.33
667.49	589.40
667.83	585.49
668.17	581.47
668.51	577.42
668.85	573.31
669.19	569.38
669.53	565.49
669.87	561.56
670.21	557.81
670.55	554.16
670.89	550.69
671.23	547.20
671.57	543.67
671.91	540.17
672.25	536.66
672.58	533.10
672.92	529.61
673.26	526.38
673.60	523.19
673.94	520.06
674.28	517.11
674.62	514.13
674.96	511.08
675.30	508.21
675.64	505.27
675.97	502.49
676.31	499.56
676.65	496.61
676.99	493.87
677.33	491.00
677.67	488.14
678.01	485.12
678.34	482.23
678.68	479.34
679.02	476.48
679.36	473.67
679.70	470.95
680.04	468.21
680.37	465.38
680.71	462.59
681.05	459.93
681.39	457.20
681.73	454.50
682.06	451.93
682.40	449.34
682.74	446.71
683.08	444.12
683.42	441.56
683.75	439.02
684.09	436.42
684.43	433.90
684.77	431.42
685.10	429.01
685.44	426.61
685.78	424.28
686.12	421.94
686.45	419.65
686.79	417.30
687.13	415.06
687.46	412.78
687.80	410.59
688.14	408.29
688.48	406.23
688.81	403.97
689.15	401.77
689.49	399.56
689.82	397.43
690.16	395.31
690.50	393.32
690.83	391.37
691.17	389.34
691.51	387.43
691.84	385.59
692.18	383.68
692.52	381.70
692.85	379.72
693.19	377.85
693.52	375.94
693.86	374.11
694.20	372.24
694.53	370.46
694.87	368.56
695.21	366.78
695.54	364.87
695.88	363.16
696.21	361.44
696.55	359.77
696.88	358.11
697.22	356.42
697.56	354.70
697.89	353.08
698.23	351.50
698.56	349.87
698.90	348.24
699.23	346.59
699.57	345.02
699.90	343.47
700.24	341.91
700.58	340.43
700.91	338.94
701.25	337.56
701.58	336.20
701.92	334.81
702.25	333.46
702.59	332.13
702.92	330.80
703.26	329.42
703.59	328.11
703.93	326.91
704.26	325.68
704.60	324.41
704.93	323.07
705.26	321.80
705.60	320.58
705.93	319.39
706.27	318.33
706.60	317.24
706.94	316.14
707.27	314.98
707.61	313.87
707.94	312.83
708.27	311.69
708.61	310.52
708.94	309.49
709.28	308.46
709.61	307.44
709.94	306.50
710.28	305.50
710.61	304.51
710.95	303.39
711.28	302.44
711.61	301.51
711.95	300.57
712.28	299.65
712.61	298.67
712.95	297.75
713.28	296.80
713.61	295.89
713.95	295.00
714.28	294.13
714.61	293.26
714.95	292.38
715.28	291.46
715.61	290.58
715.95	289.73
716.28	288.87
716.61	288.03
716.95	287.15
717.28	286.36
717.61	285.57
717.94	284.82
718.28	284.02
718.61	283.25
718.94	282.51
719.27	281.81
719.61	281.17
719.94	280.43
720.27	279.74
720.60	279.07
720.94	278.43
721.27	277.84
721.60	277.23
721.93	276.62
722.27	276.12
722.60	275.60
722.93	275.04
723.26	274.48
723.59	273.90
723.93	273.34
724.26	272.77
724.59	272.20
724.92	271.69
725.25	271.13
725.59	270.60
725.92	270.11
726.25	269.56
726.58	269.03
726.91	268.55
727.24	268.06
727.57	267.54
727.91	266.97
728.24	266.50
728.57	266.01
728.90	265.52
729.23	264.99
729.56	264.56
729.89	264.05
730.22	263.56
730.55	263.10
730.89	262.61
731.22	262.18
731.55	261.70
731.88	261.25
732.21	260.82
732.54	260.41
732.87	259.99
733.20	259.58
733.53	259.20
733.86	258.81
734.19	258.44
734.52	258.09
734.85	257.80
735.18	257.37
735.51	256.97
735.84	256.62
736.17	256.27
736.50	255.85
736.83	255.63
737.16	255.29
737.49	254.93
737.82	254.62
738.15	254.31
738.48	253.95
738.81	253.63
739.14	253.31
739.47	252.96
739.80	252.65
740.13	252.36
740.46	252.00
740.79	251.68
741.12	251.36
741.45	251.04
741.78	250.67
742.11	250.41
742.44	250.12
742.77	249.85
743.10	249.56
743.43	249.27
743.75	248.87
744.08	248.74
744.41	248.47
744.74	248.21
745.07	247.92
745.40	247.71
745.73	247.46
746.06	247.22
746.39	246.98
746.71	246.71
747.04	246.42
747.37	246.19
747.70	245.93
748.03	245.67
748.36	245.43
748.68	245.21
749.01	244.93
749.34	244.68
749.67	244.42
750.00	244.21
750.33	244.01
750.65	243.81
750.98	243.44
751.31	243.25
751.64	243.01
751.97	242.85
752.29	242.61
752.62	242.33
752.95	242.11
753.28	241.88
753.60	241.64
753.93	241.50
754.26	241.29
754.59	241.09
754.91	240.86
755.24	240.65
755.57	240.44
755.90	240.25
756.22	240.04
756.55	239.82
756.88	239.60
757.20	239.38
757.53	239.17
757.86	239.01
758.19	238.83
758.51	238.65
758.84	238.44
759.17	238.27
759.49	238.13
759.82	237.98
760.15	237.83
760.47	237.69
760.80	237.46
761.13	237.30
761.45	237.10
761.78	236.97
762.11	236.80
762.43	236.63
762.76	236.50
763.08	236.39
763.41	236.28
763.74	236.14
764.06	235.95
764.39	235.82
764.71	235.64
765.04	235.46
765.37	235.32
765.69	235.17
766.02	235.03
766.34	234.86
766.67	234.69
767.00	234.54
767.32	234.47
767.65	234.43
767.97	234.30
768.30	234.20
768.62	234.07
768.95	233.98
769.27	233.84
769.60	233.69
769.92	233.58
770.25	233.44
770.57	233.31
770.90	233.23
771.22	233.12
771.55	233.04
771.87	232.96
772.20	232.86
772.52	232.82
772.85	232.85
773.17	232.78
773.50	232.69
773.82	232.63
774.15	232.51
774.47	232.34
774.80	232.23
775.12	232.15
775.45	232.07
775.77	231.97
776.09	231.93
776.42	231.88
776.74	231.82
777.07	231.76
777.39	231.73
777.72	231.62
778.04	231.57
778.36	231.49
778.69	231.45
779.01	231.37
779.33	231.22
779.66	231.04
779.98	230.98
780.31	230.96
780.63	230.88
780.95	230.82
781.28	230.78
781.60	230.73
781.92	230.69
782.25	230.65
782.57	230.60
782.89	230.54
783.22	230.49
783.54	230.40
783.86	230.37
784.19	230.26
784.51	230.25
784.83	230.22
785.16	230.18
785.48	230.13
785.80	230.11
786.12	230.07
786.45	230.02
786.77	230.00
787.09	229.94
