SpectraSuite Data File
++++++++++++++++++++++++++++++++++++
Date: Fri Feb 01 16:23:58 EST 2013
User: group
Dark Spectrum Present: No
Reference Spectrum Present: No
Number of Sampled Component Spectra: 1
Spectrometers: USB2E7196
Integration Time (usec): 35000 (USB2E7196)
Spectra Averaged: 100 (USB2E7196)
Boxcar Smoothing: 10 (USB2E7196)
Correct for Electrical Dark: No (USB2E7196)
Strobe/Lamp Enabled: No (USB2E7196)
Correct for Detector Non-linearity: No (USB2E7196)
Correct for Stray Light: No (USB2E7196)
Number of Pixels in Processed Spectrum: 2048
>>>>>Begin Processed Spectral Data<<<<<
339.09	0.00
339.48	213.61
339.86	215.41
340.24	216.96
340.63	217.74
341.01	220.87
341.39	220.55
341.78	222.11
342.16	223.44
342.54	223.46
342.93	212.22
343.31	222.94
343.69	223.48
344.07	223.94
344.46	224.39
344.84	224.77
345.22	225.02
345.60	225.26
345.99	225.46
346.37	225.60
346.75	225.73
347.13	225.82
347.52	225.86
347.90	225.91
348.28	225.97
348.66	226.00
349.05	225.99
349.43	226.05
349.81	226.06
350.19	226.14
350.57	226.22
350.96	226.31
351.34	226.41
351.72	226.51
352.10	226.63
352.48	226.68
352.87	226.74
353.25	226.84
353.63	226.93
354.01	227.01
354.39	227.10
354.77	227.20
355.15	227.31
355.54	227.39
355.92	227.44
356.30	227.49
356.68	227.64
357.06	227.73
357.44	227.78
357.82	227.86
358.20	227.92
358.58	227.98
358.97	228.00
359.35	228.06
359.73	228.16
360.11	228.19
360.49	228.27
360.87	228.34
361.25	228.40
361.63	228.46
362.01	228.50
362.39	228.51
362.77	228.54
363.15	228.54
363.53	228.57
363.91	228.59
364.29	228.60
364.67	228.53
365.05	228.56
365.43	228.61
365.81	228.64
366.19	228.66
366.57	228.70
366.95	228.71
367.33	228.71
367.71	228.69
368.09	228.72
368.47	228.72
368.85	228.72
369.23	228.72
369.61	228.65
369.99	228.65
370.37	228.62
370.75	228.67
371.13	228.63
371.51	228.58
371.89	228.55
372.27	228.53
372.65	228.50
373.03	228.42
373.41	228.35
373.78	228.27
374.16	228.19
374.54	228.10
374.92	228.02
375.30	227.96
375.68	227.87
376.06	227.80
376.44	227.72
376.82	227.64
377.19	227.51
377.57	227.46
377.95	227.37
378.33	227.33
378.71	227.16
379.09	227.11
379.47	227.07
379.84	227.01
380.22	226.96
380.60	226.85
380.98	226.79
381.36	226.75
381.73	226.69
382.11	226.62
382.49	226.59
382.87	226.54
383.25	226.47
383.62	226.52
384.00	226.43
384.38	226.36
384.76	226.32
385.13	226.32
385.51	226.28
385.89	226.19
386.27	226.11
386.64	226.08
387.02	226.00
387.40	225.93
387.78	225.85
388.15	225.80
388.53	225.78
388.91	225.77
389.29	225.72
389.66	225.70
390.04	225.70
390.42	225.66
390.79	225.63
391.17	225.64
391.55	225.52
391.92	225.53
392.30	225.52
392.68	225.49
393.05	225.48
393.43	225.48
393.81	225.48
394.18	225.50
394.56	225.52
394.94	225.56
395.31	225.60
395.69	225.67
396.06	225.68
396.44	225.70
396.82	225.69
397.19	225.72
397.57	225.74
397.95	225.83
398.32	225.85
398.70	225.92
399.07	225.96
399.45	226.00
399.82	226.06
400.20	226.10
400.58	226.19
400.95	226.23
401.33	226.33
401.70	226.48
402.08	226.58
402.45	226.66
402.83	226.78
403.20	226.89
403.58	226.98
403.95	227.11
404.33	227.24
404.71	227.38
405.08	227.58
405.46	227.71
405.83	227.77
406.21	227.93
406.58	228.09
406.96	228.24
407.33	228.40
407.70	228.58
408.08	228.86
408.45	229.02
408.83	229.23
409.20	229.44
409.58	229.62
409.95	229.84
410.33	230.13
410.70	230.38
411.08	230.65
411.45	230.95
411.82	231.27
412.20	231.61
412.57	232.01
412.95	232.31
413.32	232.72
413.69	233.17
414.07	233.60
414.44	234.06
414.82	234.55
415.19	235.12
415.56	235.67
415.94	236.21
416.31	236.89
416.68	237.52
417.06	238.21
417.43	238.89
417.81	239.65
418.18	240.40
418.55	241.21
418.93	242.08
419.30	242.96
419.67	243.90
420.04	244.86
420.42	245.85
420.79	247.02
421.16	248.18
421.54	249.36
421.91	250.57
422.28	251.82
422.66	253.15
423.03	254.41
423.40	255.77
423.77	257.18
424.15	258.57
424.52	260.03
424.89	261.62
425.26	263.17
425.64	264.64
426.01	266.22
426.38	267.87
426.75	269.54
427.13	271.30
427.50	273.10
427.87	274.96
428.24	276.84
428.61	278.58
428.99	280.55
429.36	282.64
429.73	284.71
430.10	286.71
430.47	288.76
430.85	290.89
431.22	293.06
431.59	295.45
431.96	297.66
432.33	300.16
432.70	302.57
433.08	305.38
433.45	308.03
433.82	310.67
434.19	313.56
434.56	316.38
434.93	319.03
435.30	321.68
435.68	324.54
436.05	327.31
436.42	330.09
436.79	332.51
437.16	335.21
437.53	338.02
437.90	340.85
438.27	343.57
438.64	346.41
439.01	348.99
439.38	351.18
439.75	353.37
440.13	355.82
440.50	358.10
440.87	359.94
441.24	361.82
441.61	363.96
441.98	365.43
442.35	367.18
442.72	369.01
443.09	370.71
443.46	371.72
443.83	372.29
444.20	372.79
444.57	373.62
444.94	373.91
445.31	374.24
445.68	374.58
446.05	374.69
446.42	374.28
446.79	373.87
447.16	373.45
447.53	373.14
447.90	372.00
448.27	370.86
448.64	369.29
449.01	368.17
449.37	366.20
449.74	364.33
450.11	362.09
450.48	359.61
450.85	357.13
451.22	355.00
451.59	353.01
451.96	351.11
452.33	348.59
452.70	346.24
453.07	343.43
453.43	340.53
453.80	337.77
454.17	335.09
454.54	332.56
454.91	329.86
455.28	327.20
455.65	324.73
456.02	322.30
456.38	320.16
456.75	317.51
457.12	315.26
457.49	313.06
457.86	310.94
458.23	309.11
458.59	307.07
458.96	305.00
459.33	303.18
459.70	301.31
460.07	299.80
460.43	298.09
460.80	296.49
461.17	295.04
461.54	293.54
461.91	292.11
462.27	290.69
462.64	289.45
463.01	288.08
463.38	286.80
463.74	285.46
464.11	284.29
464.48	283.29
464.85	282.22
465.21	281.32
465.58	280.41
465.95	279.32
466.32	278.45
466.68	277.53
467.05	276.65
467.42	275.80
467.78	274.86
468.15	273.96
468.52	273.30
468.88	272.49
469.25	271.76
469.62	271.17
469.98	270.53
470.35	269.92
470.72	269.36
471.08	268.70
471.45	268.17
471.82	267.65
472.18	267.05
472.55	266.59
472.92	266.09
473.28	265.62
473.65	265.16
474.02	264.72
474.38	264.40
474.75	264.08
475.11	263.70
475.48	263.43
475.85	263.23
476.21	263.00
476.58	262.85
476.94	262.67
477.31	262.47
477.67	262.34
478.04	262.21
478.41	262.17
478.77	262.27
479.14	262.19
479.50	262.20
479.87	262.29
480.23	262.41
480.60	262.48
480.96	262.59
481.33	262.84
481.69	263.03
482.06	263.19
482.42	263.40
482.79	263.70
483.15	264.02
483.52	264.40
483.88	264.76
484.25	265.12
484.61	265.56
484.98	266.03
485.34	266.58
485.71	267.17
486.07	267.73
486.44	268.25
486.80	268.99
487.17	269.72
487.53	270.52
487.90	271.34
488.26	272.28
488.62	273.28
488.99	274.23
489.35	275.27
489.72	276.41
490.08	277.65
490.44	278.89
490.81	280.23
491.17	281.60
491.54	283.09
491.90	284.61
492.26	286.25
492.63	288.01
492.99	289.82
493.36	291.76
493.72	293.82
494.08	295.91
494.45	298.14
494.81	300.51
495.17	302.96
495.54	305.51
495.90	308.17
496.26	310.96
496.63	313.89
496.99	316.97
497.35	320.23
497.72	323.60
498.08	327.16
498.44	330.80
498.80	334.74
499.17	338.73
499.53	342.92
499.89	347.28
500.26	351.82
500.62	356.48
500.98	361.41
501.34	366.50
501.71	371.84
502.07	377.32
502.43	382.99
502.79	388.83
503.16	394.95
503.52	401.24
503.88	407.68
504.24	414.35
504.60	421.25
504.97	428.43
505.33	435.74
505.69	443.43
506.05	451.23
506.41	459.09
506.78	467.29
507.14	475.79
507.50	484.50
507.86	493.51
508.22	502.66
508.59	511.89
508.95	521.48
509.31	531.33
509.67	541.39
510.03	551.67
510.39	562.18
510.75	572.98
511.12	583.98
511.48	595.24
511.84	606.75
512.20	618.30
512.56	630.17
512.92	642.32
513.28	654.59
513.64	667.08
514.00	679.82
514.37	692.76
514.73	705.78
515.09	718.84
515.45	732.11
515.81	745.66
516.17	759.64
516.53	773.69
516.89	787.83
517.25	802.01
517.61	816.44
517.97	830.87
518.33	845.21
518.69	859.87
519.05	874.83
519.41	889.93
519.77	905.47
520.13	920.84
520.49	936.27
520.85	951.71
521.21	967.44
521.57	983.72
521.93	999.46
522.29	1015.82
522.65	1032.08
523.01	1048.21
523.37	1064.27
523.73	1080.31
524.09	1096.43
524.45	1112.68
524.81	1129.32
525.17	1145.98
525.53	1162.88
525.89	1179.75
526.25	1196.55
526.61	1212.90
526.97	1229.55
527.33	1246.06
527.68	1262.64
528.04	1279.04
528.40	1295.52
528.76	1312.50
529.12	1329.05
529.48	1345.85
529.84	1361.67
530.20	1378.16
530.56	1395.06
530.91	1412.40
531.27	1429.20
531.63	1445.56
531.99	1461.98
532.35	1477.78
532.71	1493.62
533.07	1509.76
533.42	1525.58
533.78	1541.60
534.14	1557.79
534.50	1573.08
534.86	1588.74
535.21	1603.93
535.57	1619.66
535.93	1635.07
536.29	1649.72
536.65	1664.45
537.00	1679.18
537.36	1694.51
537.72	1708.96
538.08	1723.35
538.44	1736.96
538.79	1750.65
539.15	1764.18
539.51	1777.91
539.87	1792.22
540.22	1805.80
540.58	1819.47
540.94	1832.78
541.29	1845.49
541.65	1858.04
542.01	1871.23
542.37	1883.54
542.72	1895.84
543.08	1907.55
543.44	1919.83
543.79	1931.00
544.15	1941.95
544.51	1953.38
544.87	1964.39
545.22	1975.14
545.58	1985.24
545.94	1995.09
546.29	2004.91
546.65	2014.94
547.01	2024.14
547.36	2032.75
547.72	2041.24
548.07	2048.88
548.43	2056.82
548.79	2064.88
549.14	2072.43
549.50	2079.60
549.86	2087.07
550.21	2094.35
550.57	2101.58
550.92	2108.10
551.28	2115.12
551.64	2122.15
551.99	2128.57
552.35	2134.61
552.70	2140.64
553.06	2146.65
553.41	2152.94
553.77	2158.96
554.13	2164.80
554.48	2170.92
554.84	2176.41
555.19	2181.63
555.55	2186.92
555.90	2191.49
556.26	2196.32
556.61	2201.08
556.97	2205.44
557.32	2209.67
557.68	2213.73
558.03	2218.05
558.39	2221.87
558.74	2226.51
559.10	2230.33
559.45	2234.00
559.81	2238.18
560.16	2242.13
560.52	2245.46
560.87	2248.82
561.23	2251.47
561.58	2254.44
561.94	2256.96
562.29	2259.31
562.64	2261.95
563.00	2264.45
563.35	2268.00
563.71	2271.15
564.06	2274.23
564.42	2277.09
564.77	2279.65
565.12	2282.04
565.48	2283.81
565.83	2285.61
566.19	2287.06
566.54	2287.98
566.89	2289.19
567.25	2289.79
567.60	2290.99
567.96	2292.71
568.31	2293.61
568.66	2294.85
569.02	2295.37
569.37	2295.66
569.72	2296.53
570.08	2296.75
570.43	2296.84
570.78	2296.28
571.14	2294.76
571.49	2293.59
571.84	2293.34
572.20	2292.24
572.55	2291.18
572.90	2289.76
573.26	2288.50
573.61	2286.82
573.96	2285.15
574.31	2282.25
574.67	2279.45
575.02	2275.96
575.37	2272.53
575.72	2268.77
576.08	2265.30
576.43	2262.11
576.78	2258.51
577.13	2255.53
577.49	2252.57
577.84	2249.17
578.19	2245.51
578.54	2241.99
578.90	2237.77
579.25	2232.11
579.60	2227.19
579.95	2222.23
580.30	2217.20
580.66	2211.92
581.01	2206.92
581.36	2202.11
581.71	2197.91
582.06	2193.55
582.42	2189.18
582.77	2183.96
583.12	2179.45
583.47	2174.94
583.82	2170.12
584.17	2164.95
584.53	2159.48
584.88	2153.88
585.23	2148.21
585.58	2142.68
585.93	2137.17
586.28	2132.52
586.63	2127.62
586.98	2122.72
587.34	2118.07
587.69	2113.33
588.04	2108.34
588.39	2102.77
588.74	2096.36
589.09	2090.20
589.44	2083.45
589.79	2077.56
590.14	2072.04
590.49	2065.42
590.84	2059.11
591.19	2052.90
591.54	2046.46
591.89	2039.16
592.25	2032.34
592.60	2025.17
592.95	2017.78
593.30	2010.56
593.65	2002.98
594.00	1995.98
594.35	1988.66
594.70	1980.71
595.05	1973.61
595.40	1966.30
595.75	1958.79
596.10	1952.50
596.45	1946.10
596.80	1939.91
597.15	1933.25
597.50	1926.16
597.85	1919.82
598.19	1913.04
598.54	1906.02
598.89	1899.41
599.24	1893.47
599.59	1886.87
599.94	1880.83
600.29	1874.40
600.64	1867.74
600.99	1860.42
601.34	1853.55
601.69	1846.73
602.04	1839.78
602.39	1832.50
602.74	1825.71
603.08	1819.02
603.43	1812.48
603.78	1805.07
604.13	1797.93
604.48	1790.52
604.83	1783.67
605.18	1776.81
605.53	1768.89
605.87	1761.00
606.22	1753.83
606.57	1745.96
606.92	1738.73
607.27	1731.50
607.62	1724.79
607.96	1717.68
608.31	1711.07
608.66	1703.55
609.01	1695.98
609.36	1688.44
609.70	1680.30
610.05	1672.36
610.40	1664.69
610.75	1656.31
611.10	1648.70
611.44	1640.25
611.79	1632.33
612.14	1623.69
612.49	1614.42
612.83	1606.10
613.18	1597.94
613.53	1589.85
613.88	1581.16
614.22	1572.89
614.57	1564.27
614.92	1556.07
615.27	1548.55
615.61	1540.14
615.96	1532.09
616.31	1524.40
616.65	1517.14
617.00	1509.66
617.35	1501.92
617.70	1493.55
618.04	1485.02
618.39	1476.61
618.74	1469.05
619.08	1460.81
619.43	1453.18
619.78	1446.40
620.12	1439.11
620.47	1431.59
620.82	1423.38
621.16	1416.11
621.51	1408.40
621.85	1400.81
622.20	1392.25
622.55	1383.89
622.89	1376.06
623.24	1368.38
623.59	1360.98
623.93	1353.36
624.28	1346.12
624.62	1338.53
624.97	1331.39
625.32	1324.66
625.66	1317.75
626.01	1310.52
626.35	1303.10
626.70	1295.40
627.04	1287.60
627.39	1279.98
627.73	1272.71
628.08	1265.80
628.43	1258.42
628.77	1251.02
629.12	1243.39
629.46	1236.28
629.81	1228.69
630.15	1221.46
630.50	1214.07
630.84	1205.84
631.19	1197.94
631.53	1190.37
631.88	1182.77
632.22	1175.13
632.57	1167.82
632.91	1160.33
633.26	1152.83
633.60	1145.46
633.95	1138.39
634.29	1131.37
634.64	1124.60
634.98	1117.10
635.32	1109.92
635.67	1103.42
636.01	1096.80
636.36	1090.00
636.70	1083.48
637.05	1076.94
637.39	1070.47
637.73	1063.91
638.08	1058.09
638.42	1052.11
638.77	1045.63
639.11	1039.13
639.45	1032.71
639.80	1026.07
640.14	1019.63
640.49	1013.24
640.83	1006.91
641.17	1000.55
641.52	994.10
641.86	987.63
642.20	981.78
642.55	975.49
642.89	968.97
643.23	962.50
643.58	956.76
643.92	950.52
644.26	944.42
644.61	938.34
644.95	932.37
645.29	925.74
645.64	919.02
645.98	912.71
646.32	906.83
646.66	900.86
647.01	895.01
647.35	889.23
647.69	883.35
648.04	877.68
648.38	871.99
648.72	866.01
649.06	859.96
649.41	854.11
649.75	848.16
650.09	842.16
650.43	836.31
650.78	830.13
651.12	824.19
651.46	818.50
651.80	812.75
652.14	807.34
652.49	801.96
652.83	796.75
653.17	791.09
653.51	785.29
653.85	779.88
654.20	774.26
654.54	768.25
654.88	762.48
655.22	756.71
655.56	750.93
655.90	745.55
656.25	740.40
656.59	734.98
656.93	729.88
657.27	724.68
657.61	719.27
657.95	714.15
658.29	709.08
658.64	703.83
658.98	698.56
659.32	693.14
659.66	687.89
660.00	682.48
660.34	677.55
660.68	672.69
661.02	667.66
661.36	662.96
661.70	658.50
662.05	654.14
662.39	649.77
662.73	645.37
663.07	640.95
663.41	636.39
663.75	631.91
664.09	627.35
664.43	622.98
664.77	618.82
665.11	614.59
665.45	610.49
665.79	606.40
666.13	602.27
666.47	598.13
666.81	594.00
667.15	589.95
667.49	585.98
667.83	582.14
668.17	578.15
668.51	574.06
668.85	570.04
669.19	566.23
669.53	562.47
669.87	558.52
670.21	554.81
670.55	551.19
670.89	547.71
671.23	544.31
671.57	540.81
671.91	537.32
672.25	533.83
672.58	530.27
672.92	526.92
673.26	523.73
673.60	520.57
673.94	517.43
674.28	514.50
674.62	511.56
674.96	508.43
675.30	505.50
675.64	502.55
675.97	499.75
676.31	496.80
676.65	493.81
676.99	491.16
677.33	488.32
677.67	485.52
678.01	482.50
678.34	479.52
678.68	476.64
679.02	473.82
679.36	471.07
679.70	468.42
680.04	465.60
680.37	462.73
680.71	459.96
681.05	457.42
681.39	454.73
681.73	452.09
682.06	449.59
682.40	447.10
682.74	444.60
683.08	442.06
683.42	439.50
683.75	437.01
684.09	434.49
684.43	431.99
684.77	429.52
685.10	427.19
685.44	424.83
685.78	422.50
686.12	420.22
686.45	417.94
686.79	415.58
687.13	413.37
687.46	411.19
687.80	409.06
688.14	406.82
688.48	404.74
688.81	402.49
689.15	400.31
689.49	398.15
689.82	396.06
690.16	394.00
690.50	392.04
690.83	390.07
691.17	388.04
691.51	386.10
691.84	384.23
692.18	382.31
692.52	380.34
692.85	378.45
693.19	376.57
693.52	374.69
693.86	372.92
694.20	371.17
694.53	369.38
694.87	367.51
695.21	365.67
695.54	363.84
695.88	362.08
696.21	360.35
696.55	358.65
696.88	356.93
697.22	355.19
697.56	353.55
697.89	351.93
698.23	350.33
698.56	348.72
698.90	347.19
699.23	345.55
699.57	343.96
699.90	342.38
700.24	340.83
700.58	339.26
700.91	337.70
701.25	336.25
701.58	334.87
701.92	333.51
702.25	332.14
702.59	330.76
702.92	329.44
703.26	328.16
703.59	326.84
703.93	325.67
704.26	324.48
704.60	323.17
704.93	321.88
705.26	320.65
705.60	319.46
705.93	318.25
706.27	317.23
706.60	316.23
706.94	315.16
707.27	314.04
707.61	312.98
707.94	311.94
708.27	310.81
708.61	309.73
708.94	308.70
709.28	307.77
709.61	306.82
709.94	305.86
710.28	304.84
710.61	303.88
710.95	302.80
711.28	301.85
711.61	300.93
711.95	300.02
712.28	299.08
712.61	298.12
712.95	297.18
713.28	296.29
713.61	295.39
713.95	294.49
714.28	293.67
714.61	292.81
714.95	292.00
715.28	291.17
715.61	290.31
715.95	289.47
716.28	288.57
716.61	287.75
716.95	286.92
717.28	286.16
717.61	285.42
717.94	284.69
718.28	283.93
718.61	283.16
718.94	282.50
719.27	281.87
719.61	281.27
719.94	280.61
720.27	279.91
720.60	279.23
720.94	278.62
721.27	278.03
721.60	277.47
721.93	276.88
722.27	276.31
722.60	275.77
722.93	275.22
723.26	274.70
723.59	274.16
723.93	273.64
724.26	273.11
724.59	272.55
724.92	272.03
725.25	271.53
725.59	271.04
725.92	270.50
726.25	269.95
726.58	269.42
726.91	268.99
727.24	268.51
727.57	268.06
727.91	267.56
728.24	267.09
728.57	266.60
728.90	266.18
729.23	265.73
729.56	265.31
729.89	264.81
730.22	264.31
730.55	263.86
730.89	263.43
731.22	263.01
731.55	262.57
731.88	262.16
732.21	261.72
732.54	261.29
732.87	260.86
733.20	260.48
733.53	260.09
733.86	259.67
734.19	259.25
734.52	258.88
734.85	258.58
735.18	258.14
735.51	257.78
735.84	257.39
736.17	257.01
736.50	256.55
736.83	256.32
737.16	256.01
737.49	255.65
737.82	255.28
738.15	254.97
738.48	254.62
738.81	254.29
739.14	253.99
739.47	253.67
739.80	253.32
740.13	252.99
740.46	252.65
740.79	252.31
741.12	252.01
741.45	251.67
741.78	251.29
742.11	251.00
742.44	250.67
742.77	250.36
743.10	250.07
743.43	249.82
743.75	249.44
744.08	249.30
744.41	248.98
744.74	248.69
745.07	248.39
745.40	248.16
745.73	247.91
746.06	247.60
746.39	247.35
746.71	247.13
747.04	246.86
747.37	246.59
747.70	246.36
748.03	246.09
748.36	245.87
748.68	245.62
749.01	245.39
749.34	245.15
749.67	244.91
750.00	244.70
750.33	244.54
750.65	244.28
750.98	243.92
751.31	243.74
751.64	243.55
751.97	243.37
752.29	243.12
752.62	242.87
752.95	242.67
753.28	242.49
753.60	242.27
753.93	242.10
754.26	241.93
754.59	241.71
754.91	241.53
755.24	241.29
755.57	241.12
755.90	240.97
756.22	240.79
756.55	240.57
756.88	240.37
757.20	240.12
757.53	239.95
757.86	239.79
758.19	239.64
758.51	239.49
758.84	239.28
759.17	239.11
759.49	238.96
759.82	238.83
760.15	238.66
760.47	238.47
760.80	238.30
761.13	238.17
761.45	238.03
761.78	237.90
762.11	237.80
762.43	237.65
762.76	237.45
763.08	237.32
763.41	237.22
763.74	237.08
764.06	236.93
764.39	236.81
764.71	236.67
765.04	236.53
765.37	236.38
765.69	236.23
766.02	236.11
766.34	235.99
766.67	235.82
767.00	235.69
767.32	235.67
767.65	235.57
767.97	235.43
768.30	235.31
768.62	235.20
768.95	235.06
769.27	234.96
769.60	234.93
769.92	234.83
770.25	234.70
770.57	234.59
770.90	234.54
771.22	234.43
771.55	234.33
771.87	234.23
772.20	234.13
772.52	234.14
772.85	234.14
773.17	234.05
773.50	233.97
773.82	233.89
774.15	233.71
774.47	233.58
774.80	233.50
775.12	233.46
775.45	233.39
775.77	233.29
776.09	233.22
776.42	233.11
776.74	233.04
777.07	232.99
777.39	232.93
777.72	232.83
778.04	232.78
778.36	232.71
778.69	232.64
779.01	232.59
779.33	232.43
779.66	232.29
779.98	232.21
780.31	232.14
780.63	232.11
780.95	232.07
781.28	232.04
781.60	231.94
781.92	231.84
782.25	231.77
782.57	231.74
782.89	231.67
783.22	231.61
783.54	231.55
783.86	231.48
784.19	231.38
784.51	231.35
784.83	231.28
785.16	231.22
785.48	231.15
785.80	231.12
786.12	231.06
786.45	230.99
786.77	230.91
787.09	230.87
