SpectraSuite Data File
++++++++++++++++++++++++++++++++++++
Date: Fri Feb 01 15:21:58 EST 2013
User: group
Dark Spectrum Present: No
Reference Spectrum Present: No
Number of Sampled Component Spectra: 1
Spectrometers: USB2E7196
Integration Time (usec): 35000 (USB2E7196)
Spectra Averaged: 100 (USB2E7196)
Boxcar Smoothing: 10 (USB2E7196)
Correct for Electrical Dark: No (USB2E7196)
Strobe/Lamp Enabled: No (USB2E7196)
Correct for Detector Non-linearity: No (USB2E7196)
Correct for Stray Light: No (USB2E7196)
Number of Pixels in Processed Spectrum: 2048
>>>>>Begin Processed Spectral Data<<<<<
339.09	0.00
339.48	215.13
339.86	216.41
340.24	218.84
340.63	219.88
341.01	222.42
341.39	222.60
341.78	223.59
342.16	224.65
342.54	225.29
342.93	213.69
343.31	224.50
343.69	225.05
344.07	225.55
344.46	225.96
344.84	226.33
345.22	226.57
345.60	226.81
345.99	227.00
346.37	227.14
346.75	227.23
347.13	227.31
347.52	227.34
347.90	227.45
348.28	227.48
348.66	227.50
349.05	227.53
349.43	227.55
349.81	227.61
350.19	227.64
350.57	227.69
350.96	227.77
351.34	227.82
351.72	227.92
352.10	228.01
352.48	228.07
352.87	228.11
353.25	228.18
353.63	228.22
354.01	228.27
354.39	228.35
354.77	228.42
355.15	228.53
355.54	228.59
355.92	228.60
356.30	228.63
356.68	228.78
357.06	228.79
357.44	228.84
357.82	228.86
358.20	228.92
358.58	228.96
358.97	229.00
359.35	229.09
359.73	229.14
360.11	229.14
360.49	229.18
360.87	229.23
361.25	229.26
361.63	229.34
362.01	229.36
362.39	229.35
362.77	229.37
363.15	229.37
363.53	229.41
363.91	229.42
364.29	229.45
364.67	229.38
365.05	229.42
365.43	229.44
365.81	229.45
366.19	229.49
366.57	229.54
366.95	229.48
367.33	229.44
367.71	229.43
368.09	229.46
368.47	229.43
368.85	229.39
369.23	229.37
369.61	229.31
369.99	229.31
370.37	229.30
370.75	229.33
371.13	229.27
371.51	229.19
371.89	229.13
372.27	229.07
372.65	228.98
373.03	228.92
373.41	228.83
373.78	228.79
374.16	228.66
374.54	228.56
374.92	228.52
375.30	228.44
375.68	228.34
376.06	228.24
376.44	228.19
376.82	228.08
377.19	228.00
377.57	227.92
377.95	227.82
378.33	227.73
378.71	227.64
379.09	227.56
379.47	227.51
379.84	227.50
380.22	227.41
380.60	227.33
380.98	227.26
381.36	227.21
381.73	227.11
382.11	227.10
382.49	227.03
382.87	226.96
383.25	226.89
383.62	226.95
384.00	226.92
384.38	226.83
384.76	226.84
385.13	226.83
385.51	226.79
385.89	226.70
386.27	226.66
386.64	226.59
387.02	226.56
387.40	226.53
387.78	226.49
388.15	226.49
388.53	226.48
388.91	226.43
389.29	226.41
389.66	226.41
390.04	226.37
390.42	226.40
390.79	226.40
391.17	226.43
391.55	226.33
391.92	226.26
392.30	226.30
392.68	226.28
393.05	226.26
393.43	226.27
393.81	226.30
394.18	226.29
394.56	226.28
394.94	226.33
395.31	226.32
395.69	226.35
396.06	226.39
396.44	226.42
396.82	226.45
397.19	226.54
397.57	226.58
397.95	226.63
398.32	226.68
398.70	226.71
399.07	226.79
399.45	226.85
399.82	226.95
400.20	227.04
400.58	227.12
400.95	227.18
401.33	227.29
401.70	227.46
402.08	227.58
402.45	227.69
402.83	227.79
403.20	227.94
403.58	228.08
403.95	228.23
404.33	228.38
404.71	228.56
405.08	228.72
405.46	228.85
405.83	228.98
406.21	229.10
406.58	229.30
406.96	229.45
407.33	229.63
407.70	229.83
408.08	230.08
408.45	230.31
408.83	230.55
409.20	230.77
409.58	230.98
409.95	231.20
410.33	231.49
410.70	231.78
411.08	232.06
411.45	232.35
411.82	232.65
412.20	233.02
412.57	233.41
412.95	233.71
413.32	234.15
413.69	234.58
414.07	235.03
414.44	235.51
414.82	235.99
415.19	236.55
415.56	237.12
415.94	237.68
416.31	238.32
416.68	238.95
417.06	239.66
417.43	240.34
417.81	241.15
418.18	241.92
418.55	242.76
418.93	243.64
419.30	244.54
419.67	245.46
420.04	246.39
420.42	247.39
420.79	248.59
421.16	249.75
421.54	250.94
421.91	252.12
422.28	253.39
422.66	254.69
423.03	255.97
423.40	257.31
423.77	258.72
424.15	260.14
424.52	261.68
424.89	263.29
425.26	264.84
425.64	266.28
426.01	267.87
426.38	269.50
426.75	271.18
427.13	272.92
427.50	274.72
427.87	276.61
428.24	278.46
428.61	280.18
428.99	282.12
429.36	284.23
429.73	286.29
430.10	288.25
430.47	290.34
430.85	292.46
431.22	294.72
431.59	297.09
431.96	299.33
432.33	301.79
432.70	304.15
433.08	307.00
433.45	309.66
433.82	312.27
434.19	315.16
434.56	318.01
434.93	320.62
435.30	323.28
435.68	326.20
436.05	329.07
436.42	331.85
436.79	334.36
437.16	337.08
437.53	339.96
437.90	342.80
438.27	345.54
438.64	348.39
439.01	350.97
439.38	353.23
439.75	355.42
440.13	357.93
440.50	360.25
440.87	362.08
441.24	364.02
441.61	366.20
441.98	367.70
442.35	369.50
442.72	371.38
443.09	373.19
443.46	374.17
443.83	374.75
444.20	375.32
444.57	376.16
444.94	376.43
445.31	376.79
445.68	377.16
446.05	377.27
446.42	376.90
446.79	376.46
447.16	376.03
447.53	375.71
447.90	374.51
448.27	373.38
448.64	371.78
449.01	370.59
449.37	368.62
449.74	366.75
450.11	364.49
450.48	362.01
450.85	359.48
451.22	357.28
451.59	355.22
451.96	353.27
452.33	350.67
452.70	348.29
453.07	345.39
453.43	342.51
453.80	339.71
454.17	337.05
454.54	334.50
454.91	331.76
455.28	329.05
455.65	326.58
456.02	324.11
456.38	321.98
456.75	319.35
457.12	317.10
457.49	314.83
457.86	312.66
458.23	310.82
458.59	308.79
458.96	306.74
459.33	304.87
459.70	302.99
460.07	301.51
460.43	299.79
460.80	298.20
461.17	296.75
461.54	295.30
461.91	293.80
462.27	292.37
462.64	291.12
463.01	289.80
463.38	288.54
463.74	287.19
464.11	286.00
464.48	284.99
464.85	283.86
465.21	283.02
465.58	282.09
465.95	280.98
466.32	280.05
466.68	279.15
467.05	278.26
467.42	277.35
467.78	276.40
468.15	275.54
468.52	274.92
468.88	274.05
469.25	273.26
469.62	272.67
469.98	271.96
470.35	271.31
470.72	270.71
471.08	269.99
471.45	269.42
471.82	268.89
472.18	268.27
472.55	267.84
472.92	267.29
473.28	266.83
473.65	266.38
474.02	265.93
474.38	265.54
474.75	265.24
475.11	264.87
475.48	264.59
475.85	264.35
476.21	264.08
476.58	263.89
476.94	263.72
477.31	263.54
477.67	263.39
478.04	263.25
478.41	263.17
478.77	263.19
479.14	263.11
479.50	263.08
479.87	263.13
480.23	263.18
480.60	263.22
480.96	263.30
481.33	263.49
481.69	263.69
482.06	263.86
482.42	264.06
482.79	264.34
483.15	264.63
483.52	265.02
483.88	265.33
484.25	265.71
484.61	266.17
484.98	266.62
485.34	267.16
485.71	267.74
486.07	268.31
486.44	268.89
486.80	269.59
487.17	270.30
487.53	271.13
487.90	271.96
488.26	272.90
488.62	273.86
488.99	274.84
489.35	275.84
489.72	276.99
490.08	278.17
490.44	279.40
490.81	280.75
491.17	282.04
491.54	283.53
491.90	285.07
492.26	286.65
492.63	288.39
492.99	290.16
493.36	292.07
493.72	294.13
494.08	296.26
494.45	298.53
494.81	300.90
495.17	303.30
495.54	305.87
495.90	308.58
496.26	311.38
496.63	314.33
496.99	317.40
497.35	320.62
497.72	324.01
498.08	327.49
498.44	331.13
498.80	335.08
499.17	339.11
499.53	343.27
499.89	347.68
500.26	352.19
500.62	356.84
500.98	361.77
501.34	366.83
501.71	372.15
502.07	377.54
502.43	383.18
502.79	389.03
503.16	395.08
503.52	401.33
503.88	407.75
504.24	414.43
504.60	421.40
504.97	428.51
505.33	435.80
505.69	443.53
506.05	451.29
506.41	459.15
506.78	467.33
507.14	475.78
507.50	484.45
507.86	493.48
508.22	502.71
508.59	511.97
508.95	521.57
509.31	531.37
509.67	541.55
510.03	551.83
510.39	562.43
510.75	573.29
511.12	584.25
511.48	595.59
511.84	607.01
512.20	618.59
512.56	630.51
512.92	642.76
513.28	655.18
513.64	667.70
514.00	680.48
514.37	693.45
514.73	706.46
515.09	719.49
515.45	732.84
515.81	746.50
516.17	760.49
516.53	774.66
516.89	788.90
517.25	803.09
517.61	817.52
517.97	831.92
518.33	846.40
518.69	861.23
519.05	876.19
519.41	891.46
519.77	906.95
520.13	922.56
520.49	938.01
520.85	953.46
521.21	969.17
521.57	985.46
521.93	1001.26
522.29	1017.80
522.65	1034.15
523.01	1050.42
523.37	1066.44
523.73	1082.65
524.09	1098.74
524.45	1115.09
524.81	1131.74
525.17	1148.71
525.53	1165.75
525.89	1182.58
526.25	1199.51
526.61	1215.96
526.97	1232.74
527.33	1249.27
527.68	1265.97
528.04	1282.46
528.40	1299.07
528.76	1316.27
529.12	1332.89
529.48	1349.91
529.84	1366.03
530.20	1382.79
530.56	1399.81
530.91	1417.20
531.27	1433.97
531.63	1450.52
531.99	1467.09
532.35	1483.17
532.71	1499.13
533.07	1515.43
533.42	1531.42
533.78	1547.53
534.14	1563.88
534.50	1579.25
534.86	1595.20
535.21	1610.39
535.57	1626.51
535.93	1642.05
536.29	1656.98
536.65	1672.14
537.00	1686.82
537.36	1702.13
537.72	1716.69
538.08	1731.24
538.44	1745.33
538.79	1759.33
539.15	1773.21
539.51	1787.10
539.87	1801.56
540.22	1815.24
540.58	1829.17
540.94	1842.71
541.29	1855.71
541.65	1868.53
542.01	1881.90
542.37	1894.28
542.72	1906.73
543.08	1918.43
543.44	1930.99
543.79	1942.13
544.15	1953.21
544.51	1964.87
544.87	1975.92
545.22	1986.80
545.58	1997.01
545.94	2006.71
546.29	2016.69
546.65	2026.38
547.01	2035.55
547.36	2044.29
547.72	2052.75
548.07	2060.57
548.43	2068.69
548.79	2076.76
549.14	2084.26
549.50	2091.58
549.86	2099.41
550.21	2106.65
550.57	2113.96
550.92	2120.53
551.28	2127.72
551.64	2134.83
551.99	2141.62
552.35	2147.78
552.70	2153.82
553.06	2159.80
553.41	2166.13
553.77	2172.14
554.13	2178.24
554.48	2184.45
554.84	2189.88
555.19	2195.27
555.55	2200.55
555.90	2204.90
556.26	2209.63
556.61	2214.37
556.97	2218.47
557.32	2222.57
557.68	2226.92
558.03	2231.12
558.39	2234.73
558.74	2239.26
559.10	2243.11
559.45	2246.49
559.81	2250.84
560.16	2254.72
560.52	2258.05
560.87	2261.54
561.23	2264.15
561.58	2267.21
561.94	2269.74
562.29	2272.19
562.64	2274.88
563.00	2277.38
563.35	2281.03
563.71	2284.16
564.06	2287.43
564.42	2290.39
564.77	2292.82
565.12	2294.89
565.48	2296.76
565.83	2298.59
566.19	2299.76
566.54	2300.61
566.89	2301.78
567.25	2302.22
567.60	2303.69
567.96	2305.21
568.31	2306.02
568.66	2307.11
569.02	2307.59
569.37	2307.85
569.72	2308.47
570.08	2308.50
570.43	2308.42
570.78	2307.74
571.14	2306.11
571.49	2304.66
571.84	2304.32
572.20	2303.07
572.55	2302.02
572.90	2300.38
573.26	2298.96
573.61	2297.35
573.96	2295.47
574.31	2292.48
574.67	2289.34
575.02	2285.55
575.37	2282.05
575.72	2278.11
576.08	2274.64
576.43	2271.23
576.78	2267.57
577.13	2264.34
577.49	2261.24
577.84	2257.68
578.19	2253.86
578.54	2250.19
578.90	2245.82
579.25	2240.20
579.60	2235.17
579.95	2230.09
580.30	2224.96
580.66	2219.69
581.01	2214.64
581.36	2209.65
581.71	2205.35
582.06	2200.87
582.42	2196.32
582.77	2191.07
583.12	2186.38
583.47	2181.66
583.82	2176.46
584.17	2171.00
584.53	2165.46
584.88	2159.73
585.23	2153.85
585.58	2148.28
585.93	2142.69
586.28	2137.93
586.63	2132.69
586.98	2127.59
587.34	2122.83
587.69	2117.94
588.04	2112.65
588.39	2106.97
588.74	2100.40
589.09	2094.03
589.44	2087.18
589.79	2081.12
590.14	2075.40
590.49	2068.72
590.84	2062.30
591.19	2056.25
591.54	2049.84
591.89	2042.39
592.25	2035.47
592.60	2028.24
592.95	2020.61
593.30	2013.18
593.65	2005.42
594.00	1998.35
594.35	1990.99
594.70	1982.84
595.05	1975.38
595.40	1968.02
595.75	1960.45
596.10	1954.06
596.45	1947.29
596.80	1940.99
597.15	1934.10
597.50	1926.85
597.85	1920.47
598.19	1913.62
598.54	1906.64
598.89	1899.90
599.24	1894.01
599.59	1887.28
599.94	1880.99
600.29	1874.65
600.64	1868.10
600.99	1860.64
601.34	1853.72
601.69	1846.64
602.04	1839.62
602.39	1832.39
602.74	1825.53
603.08	1818.75
603.43	1812.08
603.78	1804.86
604.13	1797.66
604.48	1790.34
604.83	1783.55
605.18	1776.41
605.53	1768.43
605.87	1760.41
606.22	1753.28
606.57	1745.26
606.92	1737.80
607.27	1730.59
607.62	1723.60
607.96	1716.20
608.31	1709.49
608.66	1701.79
609.01	1694.30
609.36	1686.73
609.70	1678.75
610.05	1670.55
610.40	1662.76
610.75	1654.44
611.10	1646.62
611.44	1638.32
611.79	1630.38
612.14	1621.65
612.49	1612.59
612.83	1604.19
613.18	1595.89
613.53	1587.70
613.88	1579.27
614.22	1571.07
614.57	1562.49
614.92	1554.43
615.27	1546.84
615.61	1538.50
615.96	1530.54
616.31	1522.91
616.65	1515.74
617.00	1508.09
617.35	1500.51
617.70	1492.06
618.04	1483.48
618.39	1475.26
618.74	1467.63
619.08	1459.34
619.43	1451.86
619.78	1445.00
620.12	1437.75
620.47	1430.22
620.82	1422.10
621.16	1414.61
621.51	1407.04
621.85	1399.48
622.20	1390.80
622.55	1382.51
622.89	1374.73
623.24	1367.14
623.59	1359.74
623.93	1352.11
624.28	1344.93
624.62	1337.36
624.97	1330.24
625.32	1323.53
625.66	1316.57
626.01	1309.19
626.35	1301.73
626.70	1293.84
627.04	1285.95
627.39	1278.13
627.73	1270.80
628.08	1263.79
628.43	1256.41
628.77	1249.08
629.12	1241.41
629.46	1234.33
629.81	1227.00
630.15	1219.66
630.50	1212.28
630.84	1204.08
631.19	1196.17
631.53	1188.64
631.88	1181.10
632.22	1173.52
632.57	1166.26
632.91	1158.75
633.26	1151.47
633.60	1144.14
633.95	1137.15
634.29	1130.14
634.64	1123.58
634.98	1116.15
635.32	1109.04
635.67	1102.49
636.01	1095.75
636.36	1089.02
636.70	1082.56
637.05	1075.95
637.39	1069.60
637.73	1063.05
638.08	1057.24
638.42	1051.27
638.77	1044.80
639.11	1038.19
639.45	1031.84
639.80	1025.13
640.14	1018.62
640.49	1012.00
640.83	1005.70
641.17	999.46
641.52	993.13
641.86	986.72
642.20	980.92
642.55	974.63
642.89	968.06
643.23	961.57
643.58	955.69
643.92	949.46
644.26	943.32
644.61	937.30
644.95	931.27
645.29	924.61
645.64	917.78
645.98	911.42
646.32	905.62
646.66	899.58
647.01	893.80
647.35	888.17
647.69	882.47
648.04	876.94
648.38	871.09
648.72	865.06
649.06	858.95
649.41	853.06
649.75	847.03
650.09	841.15
650.43	835.31
650.78	829.23
651.12	823.30
651.46	817.63
651.80	811.91
652.14	806.51
652.49	801.17
652.83	796.01
653.17	790.34
653.51	784.62
653.85	779.26
654.20	773.58
654.54	767.53
654.88	761.70
655.22	755.85
655.56	750.16
655.90	744.75
656.25	739.49
656.59	734.16
656.93	729.08
657.27	723.91
657.61	718.53
657.95	713.36
658.29	708.29
658.64	703.11
658.98	697.84
659.32	692.35
659.66	687.19
660.00	681.92
660.34	677.07
660.68	672.22
661.02	667.18
661.36	662.57
661.70	658.16
662.05	653.83
662.39	649.47
662.73	645.02
663.07	640.70
663.41	636.34
663.75	631.83
664.09	627.29
664.43	622.89
664.77	618.77
665.11	614.58
665.45	610.49
665.79	606.38
666.13	602.20
666.47	598.18
666.81	593.95
667.15	589.86
667.49	585.90
667.83	582.09
668.17	578.18
668.51	574.07
668.85	569.99
669.19	566.16
669.53	562.33
669.87	558.51
670.21	554.79
670.55	551.09
670.89	547.66
671.23	544.20
671.57	540.74
671.91	537.17
672.25	533.70
672.58	530.19
672.92	526.86
673.26	523.74
673.60	520.53
673.94	517.43
674.28	514.53
674.62	511.65
674.96	508.45
675.30	505.48
675.64	502.58
675.97	499.85
676.31	497.01
676.65	494.09
676.99	491.37
677.33	488.53
677.67	485.69
678.01	482.63
678.34	479.65
678.68	476.78
679.02	474.00
679.36	471.23
679.70	468.51
680.04	465.62
680.37	462.73
680.71	460.02
681.05	457.46
681.39	454.72
681.73	452.01
682.06	449.56
682.40	447.04
682.74	444.50
683.08	441.93
683.42	439.32
683.75	436.85
684.09	434.31
684.43	431.81
684.77	429.39
685.10	427.07
685.44	424.83
685.78	422.54
686.12	420.28
686.45	418.04
686.79	415.72
687.13	413.60
687.46	411.45
687.80	409.24
688.14	407.01
688.48	404.95
688.81	402.70
689.15	400.53
689.49	398.41
689.82	396.32
690.16	394.26
690.50	392.30
690.83	390.34
691.17	388.34
691.51	386.45
691.84	384.64
692.18	382.69
692.52	380.68
692.85	378.77
693.19	376.89
693.52	375.06
693.86	373.26
694.20	371.45
694.53	369.67
694.87	367.89
695.21	366.14
695.54	364.36
695.88	362.66
696.21	360.97
696.55	359.27
696.88	357.63
697.22	356.01
697.56	354.43
697.89	352.78
698.23	351.21
698.56	349.64
698.90	348.00
699.23	346.33
699.57	344.82
699.90	343.29
700.24	341.73
700.58	340.18
700.91	338.71
701.25	337.30
701.58	335.90
701.92	334.55
702.25	333.13
702.59	331.76
702.92	330.47
703.26	329.18
703.59	327.91
703.93	326.71
704.26	325.49
704.60	324.20
704.93	322.96
705.26	321.74
705.60	320.57
705.93	319.42
706.27	318.45
706.60	317.39
706.94	316.34
707.27	315.24
707.61	314.25
707.94	313.23
708.27	312.17
708.61	311.10
708.94	310.11
709.28	309.14
709.61	308.21
709.94	307.28
710.28	306.24
710.61	305.30
710.95	304.24
711.28	303.29
711.61	302.32
711.95	301.41
712.28	300.43
712.61	299.45
712.95	298.52
713.28	297.67
713.61	296.77
713.95	295.85
714.28	295.01
714.61	294.08
714.95	293.21
715.28	292.34
715.61	291.52
715.95	290.63
716.28	289.77
716.61	288.92
716.95	288.09
717.28	287.34
717.61	286.55
717.94	285.80
718.28	284.98
718.61	284.28
718.94	283.59
719.27	282.96
719.61	282.34
719.94	281.71
720.27	280.97
720.60	280.29
720.94	279.65
721.27	279.05
721.60	278.48
721.93	277.89
722.27	277.33
722.60	276.72
722.93	276.15
723.26	275.61
723.59	275.02
723.93	274.46
724.26	273.91
724.59	273.33
724.92	272.82
725.25	272.35
725.59	271.82
725.92	271.26
726.25	270.72
726.58	270.19
726.91	269.69
727.24	269.22
727.57	268.73
727.91	268.20
728.24	267.75
728.57	267.25
728.90	266.80
729.23	266.35
729.56	265.93
729.89	265.45
730.22	264.97
730.55	264.52
730.89	264.06
731.22	263.59
731.55	263.17
731.88	262.72
732.21	262.25
732.54	261.80
732.87	261.39
733.20	260.97
733.53	260.59
733.86	260.18
734.19	259.79
734.52	259.43
734.85	259.17
735.18	258.70
735.51	258.35
735.84	257.96
736.17	257.57
736.50	257.17
736.83	256.93
737.16	256.61
737.49	256.27
737.82	255.95
738.15	255.64
738.48	255.33
738.81	255.02
739.14	254.75
739.47	254.45
739.80	254.12
740.13	253.85
740.46	253.49
740.79	253.19
741.12	252.89
741.45	252.59
741.78	252.22
742.11	252.00
742.44	251.66
742.77	251.41
743.10	251.10
743.43	250.80
743.75	250.44
744.08	250.28
744.41	250.02
744.74	249.73
745.07	249.47
745.40	249.24
745.73	249.02
746.06	248.72
746.39	248.49
746.71	248.24
747.04	247.96
747.37	247.77
747.70	247.54
748.03	247.28
748.36	247.04
748.68	246.81
749.01	246.56
749.34	246.36
749.67	246.14
750.00	245.92
750.33	245.81
750.65	245.60
750.98	245.28
751.31	245.09
751.64	244.88
751.97	244.71
752.29	244.46
752.62	244.21
752.95	244.03
753.28	243.78
753.60	243.59
753.93	243.42
754.26	243.19
754.59	242.95
754.91	242.75
755.24	242.56
755.57	242.36
755.90	242.18
756.22	241.98
756.55	241.77
756.88	241.57
757.20	241.29
757.53	241.11
757.86	240.93
758.19	240.74
758.51	240.57
758.84	240.38
759.17	240.18
759.49	240.03
759.82	239.88
760.15	239.73
760.47	239.56
760.80	239.37
761.13	239.27
761.45	239.14
761.78	238.98
762.11	238.84
762.43	238.66
762.76	238.50
763.08	238.37
763.41	238.26
763.74	238.11
764.06	237.96
764.39	237.81
764.71	237.66
765.04	237.52
765.37	237.37
765.69	237.23
766.02	237.14
766.34	236.99
766.67	236.84
767.00	236.74
767.32	236.66
767.65	236.62
767.97	236.47
768.30	236.37
768.62	236.26
768.95	236.15
769.27	236.06
769.60	235.95
769.92	235.83
770.25	235.67
770.57	235.58
770.90	235.48
771.22	235.35
771.55	235.27
771.87	235.19
772.20	235.11
772.52	235.09
772.85	235.12
773.17	235.04
773.50	234.94
773.82	234.81
774.15	234.69
774.47	234.54
774.80	234.46
775.12	234.36
775.45	234.27
775.77	234.19
776.09	234.13
776.42	234.05
776.74	234.00
777.07	233.97
777.39	233.88
777.72	233.83
778.04	233.78
778.36	233.68
778.69	233.60
779.01	233.55
779.33	233.38
779.66	233.20
779.98	233.12
780.31	233.07
780.63	233.07
780.95	233.02
781.28	232.94
781.60	232.87
781.92	232.81
782.25	232.75
782.57	232.70
782.89	232.63
783.22	232.58
783.54	232.52
783.86	232.45
784.19	232.42
784.51	232.41
784.83	232.35
785.16	232.35
785.48	232.29
785.80	232.22
786.12	232.18
786.45	232.14
786.77	232.12
787.09	232.06
