SpectraSuite Data File
++++++++++++++++++++++++++++++++++++
Date: Fri Feb 01 16:25:04 EST 2013
User: group
Dark Spectrum Present: No
Reference Spectrum Present: No
Number of Sampled Component Spectra: 1
Spectrometers: USB2E7196
Integration Time (usec): 35000 (USB2E7196)
Spectra Averaged: 100 (USB2E7196)
Boxcar Smoothing: 10 (USB2E7196)
Correct for Electrical Dark: No (USB2E7196)
Strobe/Lamp Enabled: No (USB2E7196)
Correct for Detector Non-linearity: No (USB2E7196)
Correct for Stray Light: No (USB2E7196)
Number of Pixels in Processed Spectrum: 2048
>>>>>Begin Processed Spectral Data<<<<<
339.09	0.00
339.48	214.27
339.86	215.22
340.24	217.19
340.63	217.99
341.01	220.88
341.39	221.15
341.78	222.38
342.16	222.94
342.54	224.07
342.93	212.32
343.31	223.03
343.69	223.54
344.07	223.98
344.46	224.36
344.84	224.74
345.22	224.97
345.60	225.22
345.99	225.39
346.37	225.56
346.75	225.66
347.13	225.74
347.52	225.81
347.90	225.91
348.28	225.89
348.66	225.92
349.05	225.88
349.43	225.91
349.81	225.93
350.19	225.95
350.57	226.03
350.96	226.10
351.34	226.19
351.72	226.31
352.10	226.43
352.48	226.51
352.87	226.59
353.25	226.67
353.63	226.71
354.01	226.80
354.39	226.85
354.77	226.93
355.15	227.07
355.54	227.12
355.92	227.15
356.30	227.25
356.68	227.40
357.06	227.47
357.44	227.54
357.82	227.60
358.20	227.72
358.58	227.75
358.97	227.82
359.35	227.93
359.73	228.00
360.11	228.05
360.49	228.16
360.87	228.21
361.25	228.31
361.63	228.41
362.01	228.46
362.39	228.52
362.77	228.55
363.15	228.60
363.53	228.69
363.91	228.74
364.29	228.74
364.67	228.68
365.05	228.75
365.43	228.77
365.81	228.82
366.19	228.83
366.57	228.93
366.95	228.93
367.33	228.87
367.71	228.88
368.09	228.92
368.47	228.89
368.85	228.87
369.23	228.86
369.61	228.78
369.99	228.78
370.37	228.76
370.75	228.79
371.13	228.71
371.51	228.64
371.89	228.63
372.27	228.64
372.65	228.62
373.03	228.57
373.41	228.53
373.78	228.47
374.16	228.38
374.54	228.28
374.92	228.24
375.30	228.21
375.68	228.12
376.06	228.04
376.44	227.99
376.82	227.94
377.19	227.84
377.57	227.81
377.95	227.70
378.33	227.59
378.71	227.44
379.09	227.36
379.47	227.32
379.84	227.21
380.22	227.12
380.60	227.02
380.98	226.95
381.36	226.85
381.73	226.78
382.11	226.73
382.49	226.67
382.87	226.55
383.25	226.48
383.62	226.54
384.00	226.44
384.38	226.36
384.76	226.29
385.13	226.30
385.51	226.25
385.89	226.16
386.27	226.12
386.64	226.10
387.02	226.08
387.40	226.00
387.78	225.97
388.15	225.90
388.53	225.87
388.91	225.81
389.29	225.79
389.66	225.73
390.04	225.69
390.42	225.67
390.79	225.65
391.17	225.62
391.55	225.47
391.92	225.46
392.30	225.46
392.68	225.41
393.05	225.39
393.43	225.38
393.81	225.43
394.18	225.42
394.56	225.42
394.94	225.43
395.31	225.45
395.69	225.50
396.06	225.55
396.44	225.53
396.82	225.53
397.19	225.60
397.57	225.66
397.95	225.73
398.32	225.71
398.70	225.75
399.07	225.84
399.45	225.89
399.82	225.92
400.20	225.95
400.58	226.04
400.95	226.06
401.33	226.11
401.70	226.21
402.08	226.29
402.45	226.39
402.83	226.49
403.20	226.56
403.58	226.61
403.95	226.75
404.33	226.88
404.71	227.05
405.08	227.19
405.46	227.33
405.83	227.44
406.21	227.64
406.58	227.80
406.96	227.94
407.33	228.12
407.70	228.33
408.08	228.59
408.45	228.80
408.83	229.05
409.20	229.30
409.58	229.51
409.95	229.74
410.33	230.01
410.70	230.24
411.08	230.55
411.45	230.88
411.82	231.19
412.20	231.56
412.57	231.96
412.95	232.27
413.32	232.66
413.69	233.07
414.07	233.50
414.44	233.99
414.82	234.46
415.19	235.03
415.56	235.61
415.94	236.16
416.31	236.82
416.68	237.41
417.06	238.12
417.43	238.81
417.81	239.62
418.18	240.38
418.55	241.25
418.93	242.13
419.30	243.03
419.67	243.96
420.04	244.92
420.42	245.92
420.79	247.13
421.16	248.31
421.54	249.51
421.91	250.72
422.28	251.96
422.66	253.30
423.03	254.60
423.40	255.93
423.77	257.36
424.15	258.75
424.52	260.28
424.89	261.90
425.26	263.46
425.64	264.92
426.01	266.52
426.38	268.15
426.75	269.80
427.13	271.54
427.50	273.38
427.87	275.29
428.24	277.13
428.61	278.89
428.99	280.84
429.36	282.94
429.73	285.02
430.10	287.06
430.47	289.10
430.85	291.24
431.22	293.49
431.59	295.85
431.96	298.12
432.33	300.57
432.70	302.96
433.08	305.73
433.45	308.35
433.82	310.95
434.19	313.89
434.56	316.75
434.93	319.38
435.30	321.97
435.68	324.83
436.05	327.67
436.42	330.43
436.79	332.92
437.16	335.63
437.53	338.46
437.90	341.26
438.27	343.99
438.64	346.78
439.01	349.32
439.38	351.56
439.75	353.69
440.13	356.17
440.50	358.44
440.87	360.27
441.24	362.17
441.61	364.32
441.98	365.80
442.35	367.57
442.72	369.36
443.09	371.19
443.46	372.17
443.83	372.71
444.20	373.16
444.57	374.04
444.94	374.29
445.31	374.60
445.68	374.90
446.05	374.96
446.42	374.62
446.79	374.24
447.16	373.78
447.53	373.46
447.90	372.30
448.27	371.15
448.64	369.59
449.01	368.48
449.37	366.52
449.74	364.58
450.11	362.33
450.48	359.92
450.85	357.34
451.22	355.19
451.59	353.18
451.96	351.31
452.33	348.64
452.70	346.28
453.07	343.50
453.43	340.63
453.80	337.91
454.17	335.17
454.54	332.61
454.91	329.93
455.28	327.28
455.65	324.79
456.02	322.37
456.38	320.21
456.75	317.54
457.12	315.27
457.49	313.05
457.86	310.91
458.23	309.06
458.59	307.06
458.96	305.00
459.33	303.13
459.70	301.22
460.07	299.77
460.43	298.06
460.80	296.43
461.17	295.02
461.54	293.50
461.91	292.10
462.27	290.68
462.64	289.41
463.01	288.04
463.38	286.75
463.74	285.40
464.11	284.30
464.48	283.28
464.85	282.17
465.21	281.30
465.58	280.33
465.95	279.25
466.32	278.36
466.68	277.44
467.05	276.58
467.42	275.75
467.78	274.81
468.15	273.94
468.52	273.30
468.88	272.43
469.25	271.71
469.62	271.07
469.98	270.42
470.35	269.82
470.72	269.27
471.08	268.65
471.45	268.11
471.82	267.54
472.18	266.98
472.55	266.57
472.92	266.12
473.28	265.70
473.65	265.27
474.02	264.82
474.38	264.46
474.75	264.15
475.11	263.83
475.48	263.57
475.85	263.37
476.21	263.15
476.58	262.99
476.94	262.83
477.31	262.67
477.67	262.53
478.04	262.42
478.41	262.35
478.77	262.40
479.14	262.34
479.50	262.37
479.87	262.45
480.23	262.58
480.60	262.63
480.96	262.71
481.33	262.91
481.69	263.09
482.06	263.31
482.42	263.55
482.79	263.78
483.15	264.10
483.52	264.51
483.88	264.85
484.25	265.24
484.61	265.67
484.98	266.15
485.34	266.73
485.71	267.29
486.07	267.89
486.44	268.47
486.80	269.19
487.17	269.90
487.53	270.70
487.90	271.52
488.26	272.46
488.62	273.47
488.99	274.46
489.35	275.52
489.72	276.61
490.08	277.81
490.44	279.03
490.81	280.35
491.17	281.69
491.54	283.14
491.90	284.68
492.26	286.30
492.63	288.02
492.99	289.77
493.36	291.66
493.72	293.74
494.08	295.82
494.45	298.07
494.81	300.46
495.17	302.89
495.54	305.41
495.90	308.05
496.26	310.84
496.63	313.80
496.99	316.95
497.35	320.27
497.72	323.65
498.08	327.19
498.44	330.94
498.80	334.86
499.17	338.95
499.53	343.15
499.89	347.61
500.26	352.11
500.62	356.79
500.98	361.77
501.34	366.78
501.71	372.11
502.07	377.57
502.43	383.22
502.79	389.06
503.16	395.21
503.52	401.53
503.88	407.99
504.24	414.57
504.60	421.48
504.97	428.62
505.33	435.90
505.69	443.60
506.05	451.35
506.41	459.25
506.78	467.38
507.14	475.89
507.50	484.56
507.86	493.59
508.22	502.80
508.59	512.06
508.95	521.66
509.31	531.43
509.67	541.53
510.03	551.84
510.39	562.45
510.75	573.23
511.12	584.22
511.48	595.49
511.84	606.97
512.20	618.43
512.56	630.37
512.92	642.64
513.28	655.02
513.64	667.46
514.00	680.14
514.37	693.12
514.73	706.09
515.09	719.11
515.45	732.45
515.81	746.03
516.17	760.00
516.53	774.05
516.89	788.23
517.25	802.37
517.61	816.77
517.97	831.21
518.33	845.55
518.69	860.21
519.05	875.18
519.41	890.25
519.77	905.82
520.13	921.25
520.49	936.57
520.85	951.98
521.21	967.74
521.57	983.95
521.93	999.57
522.29	1015.91
522.65	1032.04
523.01	1048.09
523.37	1064.02
523.73	1080.16
524.09	1096.23
524.45	1112.55
524.81	1129.14
525.17	1145.86
525.53	1162.56
525.89	1179.44
526.25	1196.25
526.61	1212.61
526.97	1229.39
527.33	1245.71
527.68	1262.19
528.04	1278.62
528.40	1295.05
528.76	1311.87
529.12	1328.37
529.48	1345.28
529.84	1361.22
530.20	1377.96
530.56	1395.03
530.91	1412.46
531.27	1429.15
531.63	1445.62
531.99	1462.07
532.35	1477.94
532.71	1493.83
533.07	1510.07
533.42	1525.82
533.78	1541.78
534.14	1557.88
534.50	1573.17
534.86	1588.92
535.21	1604.02
535.57	1619.88
535.93	1635.27
536.29	1650.14
536.65	1665.10
537.00	1679.78
537.36	1695.05
537.72	1709.37
538.08	1723.60
538.44	1737.27
538.79	1751.09
539.15	1764.68
539.51	1778.34
539.87	1792.57
540.22	1806.17
540.58	1819.93
540.94	1833.07
541.29	1845.81
541.65	1858.44
542.01	1871.46
542.37	1883.86
542.72	1896.33
543.08	1907.96
543.44	1920.27
543.79	1931.29
544.15	1942.25
544.51	1953.75
544.87	1964.46
545.22	1975.08
545.58	1985.24
545.94	1994.90
546.29	2004.64
546.65	2014.48
547.01	2023.74
547.36	2032.40
547.72	2040.81
548.07	2048.58
548.43	2056.77
548.79	2064.93
549.14	2072.33
549.50	2079.65
549.86	2087.13
550.21	2094.24
550.57	2101.43
550.92	2107.98
551.28	2114.92
551.64	2121.86
551.99	2128.32
552.35	2134.50
552.70	2140.74
553.06	2146.79
553.41	2153.06
553.77	2159.07
554.13	2165.14
554.48	2171.28
554.84	2176.70
555.19	2182.01
555.55	2187.04
555.90	2191.58
556.26	2196.32
556.61	2201.09
556.97	2205.31
557.32	2209.48
557.68	2213.64
558.03	2217.87
558.39	2221.63
558.74	2226.46
559.10	2230.49
559.45	2234.07
559.81	2238.37
560.16	2242.29
560.52	2245.45
560.87	2248.87
561.23	2251.46
561.58	2254.25
561.94	2256.61
562.29	2258.87
562.64	2261.44
563.00	2264.08
563.35	2267.56
563.71	2270.78
564.06	2274.11
564.42	2277.11
564.77	2279.64
565.12	2281.86
565.48	2283.82
565.83	2285.90
566.19	2287.13
566.54	2287.93
566.89	2289.25
567.25	2289.87
567.60	2291.00
567.96	2292.72
568.31	2293.54
568.66	2294.74
569.02	2295.45
569.37	2295.92
569.72	2297.10
570.08	2297.44
570.43	2297.53
570.78	2297.00
571.14	2295.52
571.49	2294.20
571.84	2293.90
572.20	2292.79
572.55	2291.93
572.90	2290.24
573.26	2288.86
573.61	2287.37
573.96	2285.75
574.31	2282.77
574.67	2279.98
575.02	2276.56
575.37	2273.24
575.72	2269.63
576.08	2266.25
576.43	2262.95
576.78	2259.42
577.13	2256.15
577.49	2253.02
577.84	2249.54
578.19	2245.96
578.54	2242.38
578.90	2238.08
579.25	2232.59
579.60	2227.63
579.95	2222.58
580.30	2217.75
580.66	2212.56
581.01	2207.48
581.36	2202.58
581.71	2198.43
582.06	2194.08
582.42	2189.60
582.77	2184.41
583.12	2179.82
583.47	2175.41
583.82	2170.35
584.17	2165.10
584.53	2159.69
584.88	2154.14
585.23	2148.44
585.58	2142.96
585.93	2137.54
586.28	2132.94
586.63	2127.87
586.98	2122.94
587.34	2118.46
587.69	2113.59
588.04	2108.26
588.39	2102.71
588.74	2096.33
589.09	2090.17
589.44	2083.29
589.79	2077.37
590.14	2071.80
590.49	2065.33
590.84	2058.88
591.19	2052.99
591.54	2046.56
591.89	2039.20
592.25	2032.42
592.60	2025.18
592.95	2017.64
593.30	2010.42
593.65	2002.90
594.00	1995.96
594.35	1988.82
594.70	1980.67
595.05	1973.62
595.40	1966.37
595.75	1958.93
596.10	1952.66
596.45	1946.10
596.80	1939.99
597.15	1933.43
597.50	1926.35
597.85	1919.94
598.19	1913.32
598.54	1906.26
598.89	1899.58
599.24	1893.83
599.59	1887.14
599.94	1881.20
600.29	1875.00
600.64	1868.40
600.99	1861.04
601.34	1854.20
601.69	1847.15
602.04	1840.40
602.39	1832.91
602.74	1826.11
603.08	1819.31
603.43	1812.65
603.78	1805.28
604.13	1798.06
604.48	1790.73
604.83	1783.96
605.18	1777.04
605.53	1768.99
605.87	1761.01
606.22	1753.79
606.57	1745.78
606.92	1738.50
607.27	1731.22
607.62	1724.26
607.96	1716.91
608.31	1710.24
608.66	1702.79
609.01	1695.32
609.36	1687.75
609.70	1679.84
610.05	1671.92
610.40	1664.37
610.75	1656.00
611.10	1648.31
611.44	1639.95
611.79	1631.96
612.14	1623.22
612.49	1614.07
612.83	1605.85
613.18	1597.72
613.53	1589.68
613.88	1581.13
614.22	1572.94
614.57	1564.39
614.92	1556.31
615.27	1548.85
615.61	1540.53
615.96	1532.38
616.31	1524.73
616.65	1517.27
617.00	1509.76
617.35	1502.13
617.70	1493.80
618.04	1485.33
618.39	1477.11
618.74	1469.53
619.08	1461.35
619.43	1453.74
619.78	1446.79
620.12	1439.51
620.47	1432.01
620.82	1423.85
621.16	1416.51
621.51	1408.87
621.85	1401.28
622.20	1392.80
622.55	1384.26
622.89	1376.43
623.24	1368.83
623.59	1361.46
623.93	1353.99
624.28	1346.68
624.62	1338.97
624.97	1331.80
625.32	1325.11
625.66	1318.12
626.01	1310.94
626.35	1303.43
626.70	1295.82
627.04	1288.03
627.39	1280.27
627.73	1272.91
628.08	1266.04
628.43	1258.63
628.77	1251.21
629.12	1243.66
629.46	1236.57
629.81	1229.23
630.15	1221.96
630.50	1214.50
630.84	1206.32
631.19	1198.43
631.53	1190.95
631.88	1183.52
632.22	1175.82
632.57	1168.45
632.91	1160.95
633.26	1153.42
633.60	1146.01
633.95	1138.82
634.29	1131.75
634.64	1125.01
634.98	1117.55
635.32	1110.29
635.67	1103.73
636.01	1097.06
636.36	1090.13
636.70	1083.53
637.05	1077.05
637.39	1070.57
637.73	1064.02
638.08	1058.12
638.42	1052.08
638.77	1045.71
639.11	1039.13
639.45	1032.67
639.80	1025.98
640.14	1019.52
640.49	1013.07
640.83	1006.84
641.17	1000.63
641.52	994.33
641.86	987.80
642.20	981.94
642.55	975.61
642.89	969.20
643.23	962.60
643.58	956.95
643.92	950.69
644.26	944.45
644.61	938.40
644.95	932.47
645.29	925.83
645.64	919.09
645.98	912.71
646.32	906.80
646.66	900.83
647.01	895.06
647.35	889.28
647.69	883.39
648.04	877.77
648.38	871.93
648.72	865.89
649.06	859.98
649.41	854.17
649.75	848.26
650.09	842.27
650.43	836.63
650.78	830.43
651.12	824.48
651.46	818.89
651.80	813.13
652.14	807.66
652.49	802.25
652.83	797.14
653.17	791.40
653.51	785.67
653.85	780.31
654.20	774.65
654.54	768.73
654.88	763.10
655.22	757.22
655.56	751.60
655.90	746.24
656.25	740.89
656.59	735.44
656.93	730.32
657.27	725.09
657.61	719.57
657.95	714.42
658.29	709.37
658.64	704.11
658.98	698.83
659.32	693.37
659.66	688.16
660.00	682.79
660.34	677.85
660.68	672.96
661.02	667.86
661.36	663.13
661.70	658.63
662.05	654.20
662.39	649.84
662.73	645.32
663.07	640.95
663.41	636.54
663.75	632.05
664.09	627.46
664.43	623.12
664.77	619.05
665.11	614.81
665.45	610.63
665.79	606.47
666.13	602.28
666.47	598.26
666.81	594.15
667.15	589.99
667.49	586.07
667.83	582.27
668.17	578.37
668.51	574.34
668.85	570.28
669.19	566.43
669.53	562.54
669.87	558.61
670.21	554.86
670.55	551.27
670.89	547.88
671.23	544.50
671.57	540.97
671.91	537.41
672.25	533.90
672.58	530.44
672.92	527.03
673.26	523.88
673.60	520.68
673.94	517.57
674.28	514.71
674.62	511.77
674.96	508.63
675.30	505.74
675.64	502.77
675.97	500.02
676.31	497.18
676.65	494.27
676.99	491.64
677.33	488.77
677.67	485.92
678.01	482.86
678.34	479.88
678.68	477.01
679.02	474.15
679.36	471.40
679.70	468.65
680.04	465.91
680.37	463.04
680.71	460.21
681.05	457.55
681.39	454.86
681.73	452.16
682.06	449.63
682.40	447.04
682.74	444.52
683.08	441.95
683.42	439.36
683.75	436.80
684.09	434.21
684.43	431.71
684.77	429.21
685.10	426.84
685.44	424.56
685.78	422.26
686.12	420.03
686.45	417.72
686.79	415.40
687.13	413.20
687.46	411.03
687.80	408.89
688.14	406.66
688.48	404.55
688.81	402.36
689.15	400.19
689.49	398.03
689.82	395.96
690.16	393.90
690.50	391.97
690.83	390.09
691.17	388.09
691.51	386.24
691.84	384.38
692.18	382.44
692.52	380.38
692.85	378.44
693.19	376.58
693.52	374.81
693.86	373.00
694.20	371.26
694.53	369.46
694.87	367.60
695.21	365.85
695.54	364.07
695.88	362.30
696.21	360.54
696.55	358.87
696.88	357.16
697.22	355.46
697.56	353.78
697.89	352.13
698.23	350.53
698.56	348.90
698.90	347.30
699.23	345.69
699.57	344.19
699.90	342.62
700.24	341.06
700.58	339.46
700.91	337.95
701.25	336.50
701.58	335.15
701.92	333.80
702.25	332.41
702.59	331.03
702.92	329.74
703.26	328.51
703.59	327.22
703.93	326.06
704.26	324.85
704.60	323.58
704.93	322.32
705.26	321.12
705.60	319.92
705.93	318.79
706.27	317.74
706.60	316.68
706.94	315.65
707.27	314.51
707.61	313.46
707.94	312.46
708.27	311.36
708.61	310.27
708.94	309.29
709.28	308.34
709.61	307.34
709.94	306.37
710.28	305.32
710.61	304.35
710.95	303.28
711.28	302.37
711.61	301.43
711.95	300.49
712.28	299.52
712.61	298.59
712.95	297.66
713.28	296.78
713.61	295.90
713.95	295.03
714.28	294.19
714.61	293.34
714.95	292.47
715.28	291.62
715.61	290.71
715.95	289.81
716.28	288.90
716.61	288.08
716.95	287.26
717.28	286.53
717.61	285.75
717.94	284.97
718.28	284.15
718.61	283.39
718.94	282.69
719.27	281.99
719.61	281.33
719.94	280.68
720.27	279.96
720.60	279.31
720.94	278.62
721.27	278.01
721.60	277.43
721.93	276.83
722.27	276.29
722.60	275.77
722.93	275.20
723.26	274.65
723.59	274.08
723.93	273.52
724.26	272.92
724.59	272.35
724.92	271.84
725.25	271.34
725.59	270.82
725.92	270.29
726.25	269.79
726.58	269.29
726.91	268.75
727.24	268.31
727.57	267.80
727.91	267.31
728.24	266.85
728.57	266.31
728.90	265.90
729.23	265.35
729.56	264.91
729.89	264.46
730.22	263.96
730.55	263.52
730.89	263.09
731.22	262.67
731.55	262.26
731.88	261.80
732.21	261.35
732.54	260.93
732.87	260.51
733.20	260.12
733.53	259.74
733.86	259.42
734.19	258.98
734.52	258.63
734.85	258.32
735.18	257.90
735.51	257.60
735.84	257.19
736.17	256.88
736.50	256.48
736.83	256.26
737.16	255.96
737.49	255.62
737.82	255.27
738.15	254.95
738.48	254.63
738.81	254.36
739.14	254.05
739.47	253.74
739.80	253.43
740.13	253.12
740.46	252.81
740.79	252.45
741.12	252.15
741.45	251.80
741.78	251.47
742.11	251.21
742.44	250.90
742.77	250.62
743.10	250.32
743.43	250.04
743.75	249.66
744.08	249.52
744.41	249.26
744.74	249.00
745.07	248.73
745.40	248.46
745.73	248.22
746.06	247.96
746.39	247.71
746.71	247.44
747.04	247.19
747.37	246.92
747.70	246.69
748.03	246.45
748.36	246.25
748.68	246.00
749.01	245.74
749.34	245.48
749.67	245.25
750.00	245.00
750.33	244.85
750.65	244.64
750.98	244.26
751.31	244.01
751.64	243.79
751.97	243.67
752.29	243.43
752.62	243.17
752.95	242.95
753.28	242.71
753.60	242.49
753.93	242.31
754.26	242.13
754.59	241.91
754.91	241.69
755.24	241.46
755.57	241.27
755.90	241.09
756.22	240.93
756.55	240.71
756.88	240.54
757.20	240.30
757.53	240.12
757.86	239.95
758.19	239.81
758.51	239.62
758.84	239.37
759.17	239.22
759.49	239.06
759.82	238.95
760.15	238.83
760.47	238.72
760.80	238.56
761.13	238.42
761.45	238.26
761.78	238.11
762.11	237.99
762.43	237.83
762.76	237.67
763.08	237.52
763.41	237.38
763.74	237.22
764.06	237.07
764.39	236.92
764.71	236.77
765.04	236.61
765.37	236.50
765.69	236.36
766.02	236.24
766.34	236.12
766.67	235.96
767.00	235.83
767.32	235.71
767.65	235.63
767.97	235.49
768.30	235.40
768.62	235.29
768.95	235.15
769.27	235.05
769.60	234.92
769.92	234.78
770.25	234.66
770.57	234.56
770.90	234.46
771.22	234.31
771.55	234.22
771.87	234.10
772.20	233.98
772.52	233.96
772.85	233.97
773.17	233.84
773.50	233.73
773.82	233.62
774.15	233.52
774.47	233.36
774.80	233.24
775.12	233.14
775.45	233.06
775.77	233.00
776.09	232.90
776.42	232.82
776.74	232.79
777.07	232.70
777.39	232.64
777.72	232.57
778.04	232.53
778.36	232.47
778.69	232.43
779.01	232.34
779.33	232.17
779.66	231.99
779.98	231.91
780.31	231.88
780.63	231.84
780.95	231.75
781.28	231.70
781.60	231.65
781.92	231.60
782.25	231.54
782.57	231.45
782.89	231.40
783.22	231.36
783.54	231.28
783.86	231.25
784.19	231.16
784.51	231.11
784.83	231.05
785.16	230.97
785.48	230.94
785.80	230.95
786.12	230.93
786.45	230.87
786.77	230.84
787.09	230.80
