SpectraSuite Data File
++++++++++++++++++++++++++++++++++++
Date: Fri Feb 01 15:08:11 EST 2013
User: group
Dark Spectrum Present: No
Reference Spectrum Present: No
Number of Sampled Component Spectra: 1
Spectrometers: USB2E7196
Integration Time (usec): 35000 (USB2E7196)
Spectra Averaged: 100 (USB2E7196)
Boxcar Smoothing: 10 (USB2E7196)
Correct for Electrical Dark: No (USB2E7196)
Strobe/Lamp Enabled: No (USB2E7196)
Correct for Detector Non-linearity: No (USB2E7196)
Correct for Stray Light: No (USB2E7196)
Number of Pixels in Processed Spectrum: 2048
>>>>>Begin Processed Spectral Data<<<<<
339.09	0.00
339.48	215.28
339.86	217.25
340.24	218.19
340.63	219.24
341.01	222.94
341.39	222.07
341.78	223.70
342.16	224.59
342.54	225.10
342.93	213.63
343.31	224.41
343.69	224.95
344.07	225.39
344.46	225.80
344.84	226.19
345.22	226.40
345.60	226.65
345.99	226.85
346.37	226.96
346.75	227.05
347.13	227.08
347.52	227.11
347.90	227.19
348.28	227.22
348.66	227.25
349.05	227.26
349.43	227.29
349.81	227.32
350.19	227.36
350.57	227.38
350.96	227.43
351.34	227.50
351.72	227.59
352.10	227.68
352.48	227.75
352.87	227.77
353.25	227.82
353.63	227.85
354.01	227.88
354.39	227.97
354.77	228.07
355.15	228.16
355.54	228.23
355.92	228.26
356.30	228.33
356.68	228.47
357.06	228.54
357.44	228.62
357.82	228.68
358.20	228.74
358.58	228.84
358.97	228.91
359.35	229.00
359.73	229.03
360.11	229.08
360.49	229.15
360.87	229.22
361.25	229.28
361.63	229.36
362.01	229.42
362.39	229.44
362.77	229.48
363.15	229.51
363.53	229.57
363.91	229.60
364.29	229.59
364.67	229.53
365.05	229.55
365.43	229.60
365.81	229.63
366.19	229.67
366.57	229.73
366.95	229.69
367.33	229.68
367.71	229.69
368.09	229.69
368.47	229.65
368.85	229.63
369.23	229.63
369.61	229.58
369.99	229.60
370.37	229.60
370.75	229.58
371.13	229.52
371.51	229.43
371.89	229.37
372.27	229.37
372.65	229.28
373.03	229.24
373.41	229.15
373.78	229.08
374.16	228.96
374.54	228.83
374.92	228.76
375.30	228.67
375.68	228.57
376.06	228.51
376.44	228.42
376.82	228.36
377.19	228.28
377.57	228.24
377.95	228.12
378.33	228.02
378.71	227.92
379.09	227.86
379.47	227.81
379.84	227.76
380.22	227.66
380.60	227.59
380.98	227.53
381.36	227.44
381.73	227.33
382.11	227.28
382.49	227.22
382.87	227.16
383.25	227.09
383.62	227.15
384.00	227.07
384.38	227.02
384.76	226.97
385.13	226.93
385.51	226.85
385.89	226.76
386.27	226.71
386.64	226.66
387.02	226.58
387.40	226.52
387.78	226.47
388.15	226.43
388.53	226.39
388.91	226.30
389.29	226.26
389.66	226.26
390.04	226.20
390.42	226.17
390.79	226.15
391.17	226.14
391.55	225.98
391.92	225.94
392.30	225.97
392.68	225.94
393.05	225.94
393.43	225.92
393.81	225.97
394.18	225.94
394.56	225.97
394.94	226.01
395.31	226.03
395.69	226.08
396.06	226.16
396.44	226.21
396.82	226.27
397.19	226.36
397.57	226.42
397.95	226.48
398.32	226.53
398.70	226.61
399.07	226.70
399.45	226.79
399.82	226.89
400.20	226.94
400.58	227.04
400.95	227.07
401.33	227.23
401.70	227.40
402.08	227.52
402.45	227.60
402.83	227.75
403.20	227.90
403.58	228.01
403.95	228.11
404.33	228.24
404.71	228.37
405.08	228.56
405.46	228.71
405.83	228.88
406.21	229.04
406.58	229.23
406.96	229.41
407.33	229.59
407.70	229.80
408.08	230.09
408.45	230.32
408.83	230.61
409.20	230.80
409.58	230.97
409.95	231.25
410.33	231.55
410.70	231.80
411.08	232.09
411.45	232.43
411.82	232.76
412.20	233.13
412.57	233.58
412.95	233.88
413.32	234.28
413.69	234.69
414.07	235.15
414.44	235.60
414.82	236.08
415.19	236.62
415.56	237.16
415.94	237.72
416.31	238.37
416.68	238.97
417.06	239.72
417.43	240.41
417.81	241.15
418.18	241.95
418.55	242.81
418.93	243.67
419.30	244.58
419.67	245.51
420.04	246.44
420.42	247.40
420.79	248.59
421.16	249.75
421.54	250.98
421.91	252.17
422.28	253.44
422.66	254.77
423.03	256.11
423.40	257.45
423.77	258.85
424.15	260.27
424.52	261.77
424.89	263.37
425.26	264.89
425.64	266.35
426.01	267.93
426.38	269.59
426.75	271.28
427.13	273.01
427.50	274.83
427.87	276.73
428.24	278.56
428.61	280.31
428.99	282.22
429.36	284.32
429.73	286.41
430.10	288.39
430.47	290.44
430.85	292.55
431.22	294.80
431.59	297.18
431.96	299.40
432.33	301.87
432.70	304.24
433.08	307.07
433.45	309.71
433.82	312.32
434.19	315.22
434.56	318.00
434.93	320.58
435.30	323.21
435.68	326.10
436.05	328.95
436.42	331.75
436.79	334.34
437.16	337.08
437.53	339.91
437.90	342.76
438.27	345.54
438.64	348.37
439.01	350.98
439.38	353.27
439.75	355.45
440.13	357.97
440.50	360.34
440.87	362.20
441.24	364.17
441.61	366.33
441.98	367.75
442.35	369.56
442.72	371.51
443.09	373.31
443.46	374.33
443.83	374.88
444.20	375.41
444.57	376.21
444.94	376.43
445.31	376.74
445.68	377.10
446.05	377.16
446.42	376.79
446.79	376.36
447.16	375.88
447.53	375.56
447.90	374.38
448.27	373.21
448.64	371.57
449.01	370.41
449.37	368.42
449.74	366.56
450.11	364.31
450.48	361.81
450.85	359.29
451.22	357.13
451.59	355.17
451.96	353.19
452.33	350.60
452.70	348.25
453.07	345.42
453.43	342.59
453.80	339.82
454.17	337.15
454.54	334.61
454.91	331.87
455.28	329.24
455.65	326.78
456.02	324.38
456.38	322.25
456.75	319.60
457.12	317.37
457.49	315.13
457.86	313.01
458.23	311.09
458.59	309.02
458.96	306.93
459.33	305.03
459.70	303.19
460.07	301.67
460.43	299.98
460.80	298.36
461.17	296.87
461.54	295.33
461.91	293.92
462.27	292.43
462.64	291.19
463.01	289.82
463.38	288.48
463.74	287.04
464.11	285.89
464.48	284.85
464.85	283.70
465.21	282.84
465.58	281.87
465.95	280.79
466.32	279.88
466.68	278.96
467.05	278.09
467.42	277.20
467.78	276.25
468.15	275.34
468.52	274.68
468.88	273.81
469.25	273.06
469.62	272.41
469.98	271.75
470.35	271.09
470.72	270.46
471.08	269.79
471.45	269.27
471.82	268.70
472.18	268.12
472.55	267.69
472.92	267.16
473.28	266.72
473.65	266.26
474.02	265.83
474.38	265.46
474.75	265.13
475.11	264.74
475.48	264.46
475.85	264.25
476.21	263.98
476.58	263.79
476.94	263.63
477.31	263.45
477.67	263.30
478.04	263.17
478.41	263.08
478.77	263.13
479.14	263.03
479.50	263.06
479.87	263.10
480.23	263.17
480.60	263.22
480.96	263.26
481.33	263.47
481.69	263.65
482.06	263.86
482.42	264.05
482.79	264.33
483.15	264.66
483.52	265.02
483.88	265.39
484.25	265.75
484.61	266.21
484.98	266.66
485.34	267.21
485.71	267.80
486.07	268.40
486.44	268.94
486.80	269.65
487.17	270.36
487.53	271.18
487.90	272.05
488.26	272.98
488.62	274.00
488.99	274.96
489.35	275.99
489.72	277.13
490.08	278.31
490.44	279.58
490.81	280.91
491.17	282.27
491.54	283.74
491.90	285.28
492.26	286.88
492.63	288.64
492.99	290.43
493.36	292.33
493.72	294.42
494.08	296.53
494.45	298.78
494.81	301.15
495.17	303.55
495.54	306.09
495.90	308.79
496.26	311.56
496.63	314.49
496.99	317.58
497.35	320.79
497.72	324.19
498.08	327.67
498.44	331.31
498.80	335.19
499.17	339.16
499.53	343.34
499.89	347.75
500.26	352.20
500.62	356.86
500.98	361.81
501.34	366.81
501.71	372.07
502.07	377.49
502.43	383.09
502.79	388.95
503.16	394.97
503.52	401.19
503.88	407.58
504.24	414.22
504.60	421.12
504.97	428.23
505.33	435.53
505.69	443.16
506.05	450.96
506.41	458.86
506.78	467.02
507.14	475.43
507.50	484.09
507.86	493.11
508.22	502.29
508.59	511.48
508.95	521.12
509.31	530.97
509.67	541.10
510.03	551.44
510.39	561.95
510.75	572.80
511.12	583.81
511.48	595.09
511.84	606.50
512.20	618.08
512.56	630.00
512.92	642.22
513.28	654.54
513.64	667.00
514.00	679.67
514.37	692.58
514.73	705.64
515.09	718.66
515.45	731.98
515.81	745.54
516.17	759.51
516.53	773.65
516.89	787.76
517.25	801.91
517.61	816.25
517.97	830.75
518.33	845.09
518.69	859.88
519.05	874.95
519.41	890.26
519.77	905.76
520.13	921.28
520.49	936.71
520.85	952.25
521.21	968.01
521.57	984.33
521.93	1000.20
522.29	1016.65
522.65	1033.05
523.01	1049.21
523.37	1065.34
523.73	1081.53
524.09	1097.60
524.45	1114.04
524.81	1130.73
525.17	1147.71
525.53	1164.71
525.89	1181.69
526.25	1198.55
526.61	1214.95
526.97	1231.74
527.33	1248.27
527.68	1265.02
528.04	1281.41
528.40	1298.09
528.76	1315.31
529.12	1331.91
529.48	1348.81
529.84	1365.03
530.20	1381.68
530.56	1398.91
530.91	1416.30
531.27	1433.11
531.63	1449.72
531.99	1466.28
532.35	1482.33
532.71	1498.21
533.07	1514.55
533.42	1530.53
533.78	1546.62
534.14	1562.93
534.50	1578.40
534.86	1594.34
535.21	1609.43
535.57	1625.53
535.93	1641.07
536.29	1655.87
536.65	1671.07
537.00	1686.03
537.36	1701.35
537.72	1716.00
538.08	1730.49
538.44	1744.46
538.79	1758.48
539.15	1772.36
539.51	1786.27
539.87	1800.65
540.22	1814.51
540.58	1828.35
540.94	1841.84
541.29	1854.73
541.65	1867.59
542.01	1880.81
542.37	1893.21
542.72	1905.92
543.08	1917.75
543.44	1930.22
543.79	1941.46
544.15	1952.51
544.51	1964.14
544.87	1975.20
545.22	1986.07
545.58	1996.20
545.94	2006.07
546.29	2016.08
546.65	2025.72
547.01	2034.90
547.36	2043.81
547.72	2052.43
548.07	2060.31
548.43	2068.47
548.79	2076.68
549.14	2084.08
549.50	2091.51
549.86	2099.29
550.21	2106.42
550.57	2113.78
550.92	2120.36
551.28	2127.55
551.64	2134.62
551.99	2141.10
552.35	2147.15
552.70	2153.24
553.06	2159.26
553.41	2165.52
553.77	2171.58
554.13	2177.74
554.48	2183.96
554.84	2189.15
555.19	2194.41
555.55	2199.35
555.90	2203.82
556.26	2208.63
556.61	2213.62
556.97	2217.73
557.32	2221.82
557.68	2225.93
558.03	2230.01
558.39	2233.71
558.74	2238.20
559.10	2241.90
559.45	2245.42
559.81	2249.73
560.16	2253.50
560.52	2256.66
560.87	2260.05
561.23	2262.63
561.58	2265.68
561.94	2268.23
562.29	2270.75
562.64	2273.31
563.00	2276.00
563.35	2279.45
563.71	2282.56
564.06	2285.58
564.42	2288.35
564.77	2290.65
565.12	2292.90
565.48	2294.75
565.83	2296.60
566.19	2297.80
566.54	2298.77
566.89	2299.83
567.25	2300.37
567.60	2301.65
567.96	2303.29
568.31	2304.09
568.66	2304.85
569.02	2305.26
569.37	2305.50
569.72	2306.15
570.08	2306.13
570.43	2306.12
570.78	2305.42
571.14	2303.74
571.49	2302.32
571.84	2301.81
572.20	2300.57
572.55	2299.32
572.90	2297.82
573.26	2296.27
573.61	2294.55
573.96	2292.73
574.31	2289.51
574.67	2286.26
575.02	2282.38
575.37	2278.84
575.72	2274.98
576.08	2271.81
576.43	2268.41
576.78	2264.65
577.13	2261.37
577.49	2258.21
577.84	2254.59
578.19	2250.70
578.54	2246.86
578.90	2242.45
579.25	2236.98
579.60	2231.95
579.95	2226.94
580.30	2221.71
580.66	2216.48
581.01	2211.26
581.36	2206.17
581.71	2202.04
582.06	2197.51
582.42	2193.03
582.77	2187.66
583.12	2182.86
583.47	2177.83
583.82	2172.54
584.17	2167.18
584.53	2161.54
584.88	2155.79
585.23	2149.78
585.58	2144.21
585.93	2138.82
586.28	2133.97
586.63	2128.72
586.98	2123.48
587.34	2118.74
587.69	2113.79
588.04	2108.39
588.39	2102.72
588.74	2096.16
589.09	2089.92
589.44	2083.00
589.79	2076.92
590.14	2071.17
590.49	2064.53
590.84	2058.12
591.19	2052.01
591.54	2045.39
591.89	2037.93
592.25	2031.01
592.60	2023.83
592.95	2016.06
593.30	2008.62
593.65	2000.91
594.00	1993.93
594.35	1986.87
594.70	1978.64
595.05	1971.19
595.40	1963.74
595.75	1956.13
596.10	1949.84
596.45	1942.99
596.80	1936.90
597.15	1930.05
597.50	1922.92
597.85	1916.46
598.19	1909.71
598.54	1902.61
598.89	1895.95
599.24	1890.06
599.59	1883.42
599.94	1877.10
600.29	1870.93
600.64	1864.16
600.99	1856.67
601.34	1849.69
601.69	1842.51
602.04	1835.64
602.39	1828.36
602.74	1821.67
603.08	1815.03
603.43	1808.25
603.78	1801.01
604.13	1793.67
604.48	1786.29
604.83	1779.40
605.18	1772.36
605.53	1764.40
605.87	1756.33
606.22	1749.03
606.57	1741.02
606.92	1733.51
607.27	1726.25
607.62	1719.24
607.96	1711.91
608.31	1705.21
608.66	1697.63
609.01	1690.04
609.36	1682.44
609.70	1674.34
610.05	1666.05
610.40	1658.20
610.75	1649.95
611.10	1642.20
611.44	1633.80
611.79	1626.03
612.14	1617.43
612.49	1608.25
612.83	1599.94
613.18	1591.87
613.53	1583.83
613.88	1575.33
614.22	1567.11
614.57	1558.70
614.92	1550.59
615.27	1543.02
615.61	1534.72
615.96	1526.61
616.31	1518.91
616.65	1511.55
617.00	1503.94
617.35	1496.36
617.70	1488.02
618.04	1479.46
618.39	1471.33
618.74	1463.73
619.08	1455.42
619.43	1447.87
619.78	1440.95
620.12	1433.57
620.47	1426.05
620.82	1417.86
621.16	1410.51
621.51	1402.88
621.85	1395.21
622.20	1386.79
622.55	1378.59
622.89	1370.80
623.24	1363.27
623.59	1355.97
623.93	1348.45
624.28	1341.33
624.62	1333.94
624.97	1326.82
625.32	1320.06
625.66	1313.05
626.01	1305.84
626.35	1298.36
626.70	1290.57
627.04	1282.82
627.39	1275.28
627.73	1267.83
628.08	1260.83
628.43	1253.51
628.77	1246.22
629.12	1238.66
629.46	1231.38
629.81	1223.96
630.15	1216.85
630.50	1209.55
630.84	1201.44
631.19	1193.65
631.53	1186.17
631.88	1178.47
632.22	1170.85
632.57	1163.68
632.91	1156.21
633.26	1148.89
633.60	1141.67
633.95	1134.69
634.29	1127.80
634.64	1121.07
634.98	1113.79
635.32	1106.82
635.67	1100.36
636.01	1093.76
636.36	1086.98
636.70	1080.65
637.05	1074.18
637.39	1067.63
637.73	1061.06
638.08	1055.23
638.42	1049.26
638.77	1042.92
639.11	1036.43
639.45	1030.23
639.80	1023.44
640.14	1016.92
640.49	1010.41
640.83	1004.07
641.17	997.80
641.52	991.53
641.86	985.25
642.20	979.47
642.55	973.18
642.89	966.66
643.23	960.08
643.58	954.30
643.92	948.05
644.26	941.88
644.61	936.08
644.95	930.05
645.29	923.47
645.64	916.69
645.98	910.40
646.32	904.59
646.66	898.48
647.01	892.78
647.35	887.13
647.69	881.31
648.04	875.82
648.38	869.98
648.72	863.94
649.06	857.84
649.41	851.91
649.75	845.92
650.09	839.92
650.43	834.20
650.78	828.08
651.12	822.14
651.46	816.38
651.80	810.40
652.14	805.01
652.49	799.65
652.83	794.47
653.17	788.66
653.51	782.91
653.85	777.57
654.20	771.91
654.54	765.94
654.88	760.25
655.22	754.37
655.56	748.76
655.90	743.27
656.25	738.03
656.59	732.68
656.93	727.58
657.27	722.47
657.61	717.00
657.95	711.94
658.29	706.85
658.64	701.75
658.98	696.56
659.32	691.14
659.66	685.92
660.00	680.60
660.34	675.69
660.68	670.80
661.02	665.75
661.36	661.08
661.70	656.63
662.05	652.26
662.39	647.96
662.73	643.56
663.07	639.22
663.41	634.80
663.75	630.31
664.09	625.76
664.43	621.46
664.77	617.37
665.11	613.09
665.45	608.99
665.79	604.90
666.13	600.79
666.47	596.78
666.81	592.66
667.15	588.57
667.49	584.83
667.83	581.07
668.17	577.13
668.51	573.13
668.85	569.10
669.19	565.29
669.53	561.41
669.87	557.53
670.21	553.83
670.55	550.24
670.89	546.82
671.23	543.42
671.57	539.86
671.91	536.37
672.25	532.93
672.58	529.53
672.92	526.17
673.26	523.02
673.60	519.83
673.94	516.70
674.28	513.86
674.62	510.89
674.96	507.80
675.30	504.92
675.64	501.96
675.97	499.21
676.31	496.35
676.65	493.45
676.99	490.72
677.33	487.92
677.67	485.05
678.01	482.07
678.34	479.09
678.68	476.25
679.02	473.52
679.36	470.79
679.70	468.02
680.04	465.25
680.37	462.38
680.71	459.68
681.05	457.09
681.39	454.35
681.73	451.72
682.06	449.24
682.40	446.72
682.74	444.21
683.08	441.72
683.42	439.16
683.75	436.70
684.09	434.24
684.43	431.78
684.77	429.38
685.10	427.07
685.44	424.83
685.78	422.60
686.12	420.34
686.45	418.12
686.79	415.89
687.13	413.74
687.46	411.61
687.80	409.45
688.14	407.30
688.48	405.24
688.81	402.98
689.15	400.81
689.49	398.67
689.82	396.58
690.16	394.54
690.50	392.61
690.83	390.69
691.17	388.72
691.51	386.81
691.84	384.94
692.18	382.97
692.52	380.98
692.85	379.02
693.19	377.10
693.52	375.25
693.86	373.43
694.20	371.66
694.53	369.84
694.87	368.00
695.21	366.21
695.54	364.42
695.88	362.69
696.21	360.94
696.55	359.26
696.88	357.60
697.22	355.87
697.56	354.28
697.89	352.57
698.23	350.89
698.56	349.29
698.90	347.69
699.23	346.06
699.57	344.53
699.90	342.99
700.24	341.47
700.58	339.92
700.91	338.37
701.25	336.89
701.58	335.52
701.92	334.14
702.25	332.74
702.59	331.35
702.92	330.03
703.26	328.73
703.59	327.47
703.93	326.28
704.26	325.08
704.60	323.72
704.93	322.45
705.26	321.24
705.60	320.09
705.93	318.91
706.27	317.88
706.60	316.80
706.94	315.74
707.27	314.60
707.61	313.52
707.94	312.51
708.27	311.41
708.61	310.36
708.94	309.36
709.28	308.39
709.61	307.42
709.94	306.49
710.28	305.51
710.61	304.51
710.95	303.45
711.28	302.52
711.61	301.58
711.95	300.72
712.28	299.77
712.61	298.78
712.95	297.85
713.28	296.98
713.61	296.09
713.95	295.21
714.28	294.41
714.61	293.59
714.95	292.79
715.28	291.95
715.61	291.09
715.95	290.26
716.28	289.39
716.61	288.61
716.95	287.77
717.28	286.98
717.61	286.24
717.94	285.51
718.28	284.74
718.61	284.05
718.94	283.36
719.27	282.75
719.61	282.10
719.94	281.48
720.27	280.80
720.60	280.17
720.94	279.53
721.27	278.95
721.60	278.36
721.93	277.75
722.27	277.23
722.60	276.69
722.93	276.13
723.26	275.62
723.59	275.05
723.93	274.54
724.26	274.02
724.59	273.47
724.92	272.95
725.25	272.47
725.59	272.00
725.92	271.49
726.25	270.99
726.58	270.50
726.91	270.03
727.24	269.56
727.57	269.07
727.91	268.60
728.24	268.13
728.57	267.65
728.90	267.21
729.23	266.70
729.56	266.27
729.89	265.82
730.22	265.34
730.55	264.88
730.89	264.43
731.22	264.04
731.55	263.63
731.88	263.21
732.21	262.76
732.54	262.28
732.87	261.86
733.20	261.45
733.53	261.03
733.86	260.64
734.19	260.27
734.52	259.91
734.85	259.62
735.18	259.20
735.51	258.83
735.84	258.44
736.17	258.14
736.50	257.74
736.83	257.47
737.16	257.15
737.49	256.84
737.82	256.50
738.15	256.13
738.48	255.80
738.81	255.45
739.14	255.11
739.47	254.78
739.80	254.45
740.13	254.14
740.46	253.85
740.79	253.52
741.12	253.18
741.45	252.82
741.78	252.42
742.11	252.12
742.44	251.81
742.77	251.50
743.10	251.17
743.43	250.82
743.75	250.44
744.08	250.27
744.41	249.95
744.74	249.64
745.07	249.36
745.40	249.11
745.73	248.87
746.06	248.59
746.39	248.33
746.71	248.06
747.04	247.74
747.37	247.44
747.70	247.18
748.03	246.89
748.36	246.68
748.68	246.44
749.01	246.18
749.34	245.96
749.67	245.72
750.00	245.49
750.33	245.34
750.65	245.12
750.98	244.75
751.31	244.55
751.64	244.35
751.97	244.20
752.29	243.96
752.62	243.74
752.95	243.55
753.28	243.29
753.60	243.11
753.93	242.97
754.26	242.79
754.59	242.57
754.91	242.38
755.24	242.16
755.57	241.97
755.90	241.81
756.22	241.58
756.55	241.38
756.88	241.20
757.20	241.00
757.53	240.81
757.86	240.66
758.19	240.50
758.51	240.35
758.84	240.14
759.17	239.98
759.49	239.81
759.82	239.67
760.15	239.58
760.47	239.40
760.80	239.22
761.13	239.09
761.45	238.95
761.78	238.83
762.11	238.70
762.43	238.57
762.76	238.41
763.08	238.35
763.41	238.23
763.74	238.11
764.06	237.94
764.39	237.80
764.71	237.66
765.04	237.53
765.37	237.38
765.69	237.25
766.02	237.09
766.34	236.97
766.67	236.86
767.00	236.75
767.32	236.74
767.65	236.69
767.97	236.61
768.30	236.52
768.62	236.42
768.95	236.32
769.27	236.23
769.60	236.11
769.92	235.97
770.25	235.89
770.57	235.82
770.90	235.74
771.22	235.63
771.55	235.56
771.87	235.45
772.20	235.37
772.52	235.37
772.85	235.42
773.17	235.32
773.50	235.21
773.82	235.09
774.15	234.91
774.47	234.76
774.80	234.65
775.12	234.58
775.45	234.45
775.77	234.36
776.09	234.28
776.42	234.22
776.74	234.17
777.07	234.07
777.39	233.95
777.72	233.86
778.04	233.81
778.36	233.73
778.69	233.68
779.01	233.59
779.33	233.43
779.66	233.24
779.98	233.17
780.31	233.13
780.63	233.13
780.95	233.11
781.28	233.02
781.60	232.88
781.92	232.80
782.25	232.75
782.57	232.69
782.89	232.62
783.22	232.55
783.54	232.48
783.86	232.41
784.19	232.34
784.51	232.34
784.83	232.26
785.16	232.17
785.48	232.12
785.80	232.08
786.12	232.03
786.45	231.98
786.77	231.93
787.09	231.84
