SpectraSuite Data File
++++++++++++++++++++++++++++++++++++
Date: Fri Feb 01 17:13:28 EST 2013
User: group
Dark Spectrum Present: No
Reference Spectrum Present: No
Number of Sampled Component Spectra: 1
Spectrometers: USB2E7196
Integration Time (usec): 35000 (USB2E7196)
Spectra Averaged: 100 (USB2E7196)
Boxcar Smoothing: 10 (USB2E7196)
Correct for Electrical Dark: No (USB2E7196)
Strobe/Lamp Enabled: No (USB2E7196)
Correct for Detector Non-linearity: No (USB2E7196)
Correct for Stray Light: No (USB2E7196)
Number of Pixels in Processed Spectrum: 2048
>>>>>Begin Processed Spectral Data<<<<<
339.09	0.00
339.48	212.91
339.86	214.67
340.24	215.67
340.63	217.13
341.01	220.62
341.39	220.60
341.78	221.05
342.16	222.97
342.54	223.34
342.93	211.54
343.31	222.22
343.69	222.76
344.07	223.22
344.46	223.67
344.84	224.07
345.22	224.26
345.60	224.49
345.99	224.70
346.37	224.80
346.75	224.88
347.13	224.93
347.52	225.00
347.90	225.06
348.28	225.10
348.66	225.17
349.05	225.17
349.43	225.21
349.81	225.26
350.19	225.33
350.57	225.34
350.96	225.43
351.34	225.53
351.72	225.62
352.10	225.73
352.48	225.77
352.87	225.84
353.25	225.94
353.63	225.99
354.01	226.06
354.39	226.14
354.77	226.23
355.15	226.32
355.54	226.36
355.92	226.38
356.30	226.45
356.68	226.59
357.06	226.65
357.44	226.69
357.82	226.78
358.20	226.85
358.58	226.96
358.97	226.99
359.35	227.04
359.73	227.11
360.11	227.14
360.49	227.22
360.87	227.27
361.25	227.33
361.63	227.40
362.01	227.44
362.39	227.46
362.77	227.52
363.15	227.59
363.53	227.61
363.91	227.64
364.29	227.64
364.67	227.53
365.05	227.57
365.43	227.62
365.81	227.63
366.19	227.69
366.57	227.74
366.95	227.75
367.33	227.76
367.71	227.76
368.09	227.77
368.47	227.75
368.85	227.72
369.23	227.72
369.61	227.66
369.99	227.66
370.37	227.65
370.75	227.67
371.13	227.59
371.51	227.56
371.89	227.57
372.27	227.58
372.65	227.57
373.03	227.50
373.41	227.44
373.78	227.35
374.16	227.23
374.54	227.14
374.92	227.10
375.30	227.07
375.68	227.00
376.06	226.97
376.44	226.90
376.82	226.86
377.19	226.78
377.57	226.72
377.95	226.63
378.33	226.53
378.71	226.41
379.09	226.36
379.47	226.31
379.84	226.21
380.22	226.10
380.60	226.04
380.98	225.96
381.36	225.91
381.73	225.85
382.11	225.84
382.49	225.78
382.87	225.69
383.25	225.61
383.62	225.65
384.00	225.56
384.38	225.49
384.76	225.45
385.13	225.46
385.51	225.43
385.89	225.37
386.27	225.35
386.64	225.31
387.02	225.27
387.40	225.24
387.78	225.20
388.15	225.15
388.53	225.10
388.91	225.09
389.29	225.05
389.66	225.04
390.04	225.02
390.42	225.00
390.79	225.00
391.17	225.02
391.55	224.89
391.92	224.90
392.30	224.92
392.68	224.91
393.05	224.88
393.43	224.88
393.81	224.91
394.18	224.91
394.56	224.92
394.94	224.94
395.31	224.94
395.69	225.01
396.06	225.08
396.44	225.10
396.82	225.12
397.19	225.17
397.57	225.23
397.95	225.27
398.32	225.29
398.70	225.35
399.07	225.38
399.45	225.45
399.82	225.48
400.20	225.52
400.58	225.55
400.95	225.58
401.33	225.66
401.70	225.81
402.08	225.89
402.45	225.96
402.83	226.09
403.20	226.18
403.58	226.24
403.95	226.33
404.33	226.50
404.71	226.61
405.08	226.78
405.46	226.90
405.83	227.05
406.21	227.18
406.58	227.33
406.96	227.48
407.33	227.65
407.70	227.86
408.08	228.15
408.45	228.38
408.83	228.62
409.20	228.79
409.58	228.95
409.95	229.23
410.33	229.50
410.70	229.70
411.08	230.02
411.45	230.36
411.82	230.68
412.20	231.01
412.57	231.40
412.95	231.69
413.32	232.09
413.69	232.47
414.07	232.92
414.44	233.38
414.82	233.89
415.19	234.44
415.56	234.99
415.94	235.51
416.31	236.15
416.68	236.78
417.06	237.55
417.43	238.26
417.81	239.00
418.18	239.81
418.55	240.64
418.93	241.52
419.30	242.43
419.67	243.39
420.04	244.35
420.42	245.39
420.79	246.61
421.16	247.77
421.54	249.00
421.91	250.24
422.28	251.55
422.66	252.90
423.03	254.23
423.40	255.57
423.77	256.98
424.15	258.44
424.52	259.95
424.89	261.58
425.26	263.12
425.64	264.63
426.01	266.24
426.38	267.94
426.75	269.66
427.13	271.40
427.50	273.25
427.87	275.16
428.24	277.04
428.61	278.80
428.99	280.79
429.36	282.93
429.73	285.02
430.10	287.02
430.47	289.12
430.85	291.24
431.22	293.51
431.59	295.96
431.96	298.23
432.33	300.71
432.70	303.09
433.08	306.00
433.45	308.64
433.82	311.28
434.19	314.23
434.56	317.07
434.93	319.77
435.30	322.42
435.68	325.36
436.05	328.24
436.42	331.03
436.79	333.58
437.16	336.31
437.53	339.16
437.90	342.04
438.27	344.81
438.64	347.70
439.01	350.34
439.38	352.60
439.75	354.76
440.13	357.35
440.50	359.76
440.87	361.58
441.24	363.58
441.61	365.80
441.98	367.31
442.35	369.14
442.72	371.00
443.09	372.84
443.46	373.85
443.83	374.47
444.20	374.99
444.57	375.83
444.94	376.11
445.31	376.48
445.68	376.81
446.05	376.91
446.42	376.54
446.79	376.19
447.16	375.76
447.53	375.49
447.90	374.31
448.27	373.12
448.64	371.56
449.01	370.41
449.37	368.43
449.74	366.52
450.11	364.26
450.48	361.81
450.85	359.22
451.22	357.06
451.59	355.01
451.96	353.11
452.33	350.51
452.70	348.12
453.07	345.29
453.43	342.37
453.80	339.57
454.17	336.85
454.54	334.23
454.91	331.50
455.28	328.78
455.65	326.28
456.02	323.83
456.38	321.63
456.75	318.93
457.12	316.65
457.49	314.41
457.86	312.22
458.23	310.38
458.59	308.33
458.96	306.20
459.33	304.32
459.70	302.40
460.07	300.86
460.43	299.14
460.80	297.49
461.17	296.07
461.54	294.58
461.91	293.14
462.27	291.66
462.64	290.38
463.01	289.00
463.38	287.68
463.74	286.28
464.11	285.10
464.48	284.06
464.85	282.94
465.21	282.02
465.58	281.05
465.95	279.88
466.32	278.94
466.68	278.05
467.05	277.14
467.42	276.28
467.78	275.31
468.15	274.41
468.52	273.73
468.88	272.85
469.25	272.03
469.62	271.43
469.98	270.75
470.35	270.11
470.72	269.53
471.08	268.85
471.45	268.30
471.82	267.75
472.18	267.14
472.55	266.69
472.92	266.17
473.28	265.73
473.65	265.29
474.02	264.85
474.38	264.46
474.75	264.15
475.11	263.77
475.48	263.55
475.85	263.30
476.21	263.08
476.58	262.92
476.94	262.74
477.31	262.55
477.67	262.40
478.04	262.27
478.41	262.21
478.77	262.25
479.14	262.18
479.50	262.19
479.87	262.28
480.23	262.36
480.60	262.42
480.96	262.48
481.33	262.69
481.69	262.88
482.06	263.06
482.42	263.23
482.79	263.49
483.15	263.76
483.52	264.16
483.88	264.50
484.25	264.85
484.61	265.26
484.98	265.69
485.34	266.24
485.71	266.84
486.07	267.41
486.44	267.94
486.80	268.65
487.17	269.38
487.53	270.15
487.90	270.99
488.26	271.97
488.62	272.91
488.99	273.90
489.35	274.93
489.72	276.05
490.08	277.23
490.44	278.48
490.81	279.81
491.17	281.19
491.54	282.68
491.90	284.21
492.26	285.89
492.63	287.64
492.99	289.43
493.36	291.29
493.72	293.33
494.08	295.45
494.45	297.67
494.81	300.02
495.17	302.48
495.54	305.06
495.90	307.76
496.26	310.62
496.63	313.58
496.99	316.73
497.35	320.03
497.72	323.47
498.08	326.98
498.44	330.70
498.80	334.58
499.17	338.62
499.53	342.80
499.89	347.14
500.26	351.64
500.62	356.28
500.98	361.28
501.34	366.40
501.71	371.74
502.07	377.25
502.43	382.87
502.79	388.65
503.16	394.73
503.52	400.95
503.88	407.30
504.24	413.84
504.60	420.77
504.97	427.83
505.33	435.11
505.69	442.79
506.05	450.46
506.41	458.29
506.78	466.35
507.14	474.74
507.50	483.38
507.86	492.32
508.22	501.43
508.59	510.56
508.95	520.03
509.31	529.69
509.67	539.66
510.03	549.83
510.39	560.28
510.75	570.89
511.12	581.65
511.48	592.80
511.84	604.20
512.20	615.38
512.56	627.19
512.92	639.14
513.28	651.34
513.64	663.64
514.00	676.22
514.37	689.03
514.73	701.78
515.09	714.69
515.45	727.82
515.81	741.21
516.17	754.93
516.53	768.87
516.89	782.88
517.25	796.79
517.61	810.88
517.97	825.09
518.33	839.28
518.69	853.91
519.05	868.66
519.41	883.54
519.77	898.86
520.13	914.08
520.49	929.25
520.85	944.29
521.21	959.63
521.57	975.57
521.93	990.99
522.29	1007.14
522.65	1023.03
523.01	1038.86
523.37	1054.64
523.73	1070.53
524.09	1086.18
524.45	1102.00
524.81	1118.37
525.17	1134.85
525.53	1151.33
525.89	1167.95
526.25	1184.39
526.61	1200.49
526.97	1216.83
527.33	1233.09
527.68	1249.21
528.04	1265.34
528.40	1281.56
528.76	1298.49
529.12	1314.68
529.48	1331.18
529.84	1346.90
530.20	1363.25
530.56	1379.90
530.91	1396.93
531.27	1413.41
531.63	1429.62
531.99	1445.90
532.35	1461.64
532.71	1477.31
533.07	1493.45
533.42	1508.99
533.78	1524.67
534.14	1540.68
534.50	1555.77
534.86	1571.23
535.21	1586.16
535.57	1601.72
535.93	1616.99
536.29	1631.42
536.65	1646.20
537.00	1660.63
537.36	1675.71
537.72	1689.86
538.08	1704.07
538.44	1717.58
538.79	1731.22
539.15	1744.51
539.51	1758.00
539.87	1772.00
540.22	1785.33
540.58	1798.61
540.94	1811.48
541.29	1823.93
541.65	1836.34
542.01	1849.20
542.37	1861.35
542.72	1873.72
543.08	1885.41
543.44	1897.55
543.79	1908.60
544.15	1919.39
544.51	1930.87
544.87	1941.64
545.22	1952.61
545.58	1962.76
545.94	1972.50
546.29	1982.28
546.65	1992.29
547.01	2001.67
547.36	2010.31
547.72	2018.94
548.07	2027.16
548.43	2035.62
548.79	2043.79
549.14	2051.66
549.50	2059.25
549.86	2066.96
550.21	2074.29
550.57	2081.76
550.92	2088.68
551.28	2095.97
551.64	2103.17
551.99	2109.86
552.35	2116.20
552.70	2122.45
553.06	2128.75
553.41	2135.29
553.77	2141.34
554.13	2147.62
554.48	2153.93
554.84	2159.80
555.19	2165.02
555.55	2170.20
555.90	2174.86
556.26	2180.10
556.61	2184.63
556.97	2189.23
557.32	2193.66
557.68	2198.00
558.03	2202.27
558.39	2206.14
558.74	2210.87
559.10	2215.04
559.45	2219.04
559.81	2223.52
560.16	2227.40
560.52	2230.85
560.87	2234.37
561.23	2237.40
561.58	2240.29
561.94	2243.11
562.29	2245.53
562.64	2248.85
563.00	2251.57
563.35	2255.22
563.71	2258.57
564.06	2261.92
564.42	2264.87
564.77	2267.75
565.12	2270.46
565.48	2272.60
565.83	2274.73
566.19	2276.41
566.54	2277.48
566.89	2278.76
567.25	2279.80
567.60	2281.35
567.96	2283.20
568.31	2284.36
568.66	2285.66
569.02	2286.66
569.37	2287.23
569.72	2288.44
570.08	2288.83
570.43	2289.12
570.78	2288.97
571.14	2287.82
571.49	2286.84
571.84	2286.64
572.20	2285.70
572.55	2284.66
572.90	2283.28
573.26	2282.22
573.61	2280.49
573.96	2279.29
574.31	2276.52
574.67	2273.75
575.02	2270.30
575.37	2267.08
575.72	2263.64
576.08	2260.48
576.43	2257.17
576.78	2253.83
577.13	2250.59
577.49	2247.52
577.84	2244.42
578.19	2240.63
578.54	2237.32
578.90	2233.65
579.25	2228.51
579.60	2223.90
579.95	2219.36
580.30	2214.67
580.66	2209.59
581.01	2204.93
581.36	2200.18
581.71	2196.45
582.06	2192.35
582.42	2188.29
582.77	2183.37
583.12	2179.02
583.47	2174.66
583.82	2170.07
584.17	2165.03
584.53	2159.97
584.88	2154.64
585.23	2149.26
585.58	2144.08
585.93	2138.64
586.28	2133.81
586.63	2128.98
586.98	2123.94
587.34	2119.35
587.69	2114.61
588.04	2109.73
588.39	2104.37
588.74	2097.90
589.09	2091.80
589.44	2085.16
589.79	2079.02
590.14	2073.45
590.49	2066.99
590.84	2060.59
591.19	2054.74
591.54	2048.43
591.89	2041.47
592.25	2034.93
592.60	2027.81
592.95	2020.61
593.30	2013.48
593.65	2005.92
594.00	1998.91
594.35	1991.83
594.70	1983.73
595.05	1976.80
595.40	1969.56
595.75	1962.13
596.10	1956.18
596.45	1949.83
596.80	1943.79
597.15	1937.50
597.50	1930.83
597.85	1924.57
598.19	1918.32
598.54	1911.73
598.89	1905.24
599.24	1899.27
599.59	1892.92
599.94	1886.58
600.29	1880.26
600.64	1873.64
600.99	1866.51
601.34	1859.97
601.69	1853.08
602.04	1846.51
602.39	1839.37
602.74	1832.71
603.08	1826.21
603.43	1819.51
603.78	1812.29
604.13	1804.92
604.48	1797.99
604.83	1790.92
605.18	1784.18
605.53	1776.26
605.87	1768.02
606.22	1760.66
606.57	1752.69
606.92	1745.02
607.27	1738.08
607.62	1731.32
607.96	1724.34
608.31	1717.92
608.66	1710.29
609.01	1702.86
609.36	1695.25
609.70	1687.06
610.05	1678.96
610.40	1671.24
610.75	1662.95
611.10	1655.11
611.44	1646.77
611.79	1638.41
612.14	1629.74
612.49	1620.35
612.83	1611.80
613.18	1603.65
613.53	1595.61
613.88	1587.08
614.22	1578.76
614.57	1569.93
614.92	1561.78
615.27	1554.22
615.61	1545.80
615.96	1537.70
616.31	1529.90
616.65	1522.53
617.00	1515.00
617.35	1507.15
617.70	1498.91
618.04	1490.43
618.39	1482.07
618.74	1474.51
619.08	1466.30
619.43	1458.73
619.78	1451.71
620.12	1444.52
620.47	1437.01
620.82	1428.75
621.16	1421.24
621.51	1413.55
621.85	1405.93
622.20	1397.39
622.55	1388.83
622.89	1380.88
623.24	1373.10
623.59	1365.67
623.93	1358.14
624.28	1350.89
624.62	1343.49
624.97	1336.18
625.32	1329.20
625.66	1322.07
626.01	1314.78
626.35	1307.38
626.70	1299.60
627.04	1291.96
627.39	1283.97
627.73	1276.44
628.08	1269.43
628.43	1262.20
628.77	1255.00
629.12	1247.45
629.46	1240.27
629.81	1232.75
630.15	1225.47
630.50	1218.10
630.84	1209.93
631.19	1201.94
631.53	1194.25
631.88	1186.60
632.22	1179.04
632.57	1171.74
632.91	1164.28
633.26	1156.90
633.60	1149.42
633.95	1142.11
634.29	1134.88
634.64	1128.20
634.98	1120.84
635.32	1113.74
635.67	1106.99
636.01	1100.20
636.36	1093.45
636.70	1086.73
637.05	1080.19
637.39	1073.64
637.73	1067.17
638.08	1061.21
638.42	1055.11
638.77	1048.66
639.11	1042.09
639.45	1035.58
639.80	1028.94
640.14	1022.50
640.49	1016.04
640.83	1009.64
641.17	1003.51
641.52	997.32
641.86	990.84
642.20	984.94
642.55	978.50
642.89	972.06
643.23	965.49
643.58	959.59
643.92	953.51
644.26	947.55
644.61	941.46
644.95	935.49
645.29	928.91
645.64	922.17
645.98	915.83
646.32	909.81
646.66	903.72
647.01	897.84
647.35	892.16
647.69	886.11
648.04	880.57
648.38	874.79
648.72	868.84
649.06	862.92
649.41	856.90
649.75	851.08
650.09	845.12
650.43	839.36
650.78	833.24
651.12	827.25
651.46	821.45
651.80	815.79
652.14	810.24
652.49	804.92
652.83	799.76
653.17	794.13
653.51	788.50
653.85	783.03
654.20	777.43
654.54	771.35
654.88	765.59
655.22	759.64
655.56	753.88
655.90	748.32
656.25	743.06
656.59	737.77
656.93	732.60
657.27	727.47
657.61	721.98
657.95	716.83
658.29	711.75
658.64	706.39
658.98	700.95
659.32	695.46
659.66	690.20
660.00	684.88
660.34	679.88
660.68	674.92
661.02	669.91
661.36	665.19
661.70	660.68
662.05	656.40
662.39	652.18
662.73	647.66
663.07	643.23
663.41	638.78
663.75	634.28
664.09	629.66
664.43	625.23
664.77	621.15
665.11	616.90
665.45	612.68
665.79	608.65
666.13	604.57
666.47	600.48
666.81	596.30
667.15	592.11
667.49	588.17
667.83	584.29
668.17	580.25
668.51	576.18
668.85	572.10
669.19	568.09
669.53	564.17
669.87	560.36
670.21	556.61
670.55	552.85
670.89	549.41
671.23	546.00
671.57	542.40
671.91	538.86
672.25	535.30
672.58	531.86
672.92	528.33
673.26	525.08
673.60	521.89
673.94	518.86
674.28	515.92
674.62	512.97
674.96	509.89
675.30	507.03
675.64	504.09
675.97	501.31
676.31	498.50
676.65	495.62
676.99	492.89
677.33	490.00
677.67	487.21
678.01	484.18
678.34	481.20
678.68	478.33
679.02	475.51
679.36	472.78
679.70	469.97
680.04	467.24
680.37	464.46
680.71	461.61
681.05	458.93
681.39	456.22
681.73	453.55
682.06	451.02
682.40	448.50
682.74	445.93
683.08	443.33
683.42	440.68
683.75	438.10
684.09	435.47
684.43	433.00
684.77	430.53
685.10	428.16
685.44	425.87
685.78	423.54
686.12	421.22
686.45	418.82
686.79	416.55
687.13	414.36
687.46	412.13
687.80	410.00
688.14	407.73
688.48	405.66
688.81	403.44
689.15	401.30
689.49	399.09
689.82	397.03
690.16	394.92
690.50	392.97
690.83	391.07
691.17	389.05
691.51	387.15
691.84	385.32
692.18	383.40
692.52	381.38
692.85	379.48
693.19	377.65
693.52	375.87
693.86	374.01
694.20	372.17
694.53	370.38
694.87	368.53
695.21	366.70
695.54	364.81
695.88	362.99
696.21	361.20
696.55	359.52
696.88	357.75
697.22	356.08
697.56	354.40
697.89	352.73
698.23	351.13
698.56	349.47
698.90	347.85
699.23	346.24
699.57	344.69
699.90	343.08
700.24	341.47
700.58	339.88
700.91	338.37
701.25	336.94
701.58	335.53
701.92	334.11
702.25	332.74
702.59	331.40
702.92	330.09
703.26	328.77
703.59	327.45
703.93	326.30
704.26	325.09
704.60	323.85
704.93	322.53
705.26	321.33
705.60	320.11
705.93	318.92
706.27	317.85
706.60	316.75
706.94	315.66
707.27	314.53
707.61	313.43
707.94	312.39
708.27	311.29
708.61	310.15
708.94	309.15
709.28	308.13
709.61	307.15
709.94	306.19
710.28	305.16
710.61	304.18
710.95	303.06
711.28	302.09
711.61	301.08
711.95	300.17
712.28	299.19
712.61	298.26
712.95	297.30
713.28	296.38
713.61	295.47
713.95	294.61
714.28	293.80
714.61	292.95
714.95	292.12
715.28	291.25
715.61	290.38
715.95	289.54
716.28	288.70
716.61	287.82
716.95	286.98
717.28	286.21
717.61	285.44
717.94	284.73
718.28	283.93
718.61	283.24
718.94	282.55
719.27	281.88
719.61	281.24
719.94	280.58
720.27	279.83
720.60	279.18
720.94	278.56
721.27	277.94
721.60	277.40
721.93	276.76
722.27	276.21
722.60	275.68
722.93	275.07
723.26	274.55
723.59	274.03
723.93	273.49
724.26	272.92
724.59	272.35
724.92	271.79
725.25	271.31
725.59	270.76
725.92	270.23
726.25	269.79
726.58	269.24
726.91	268.73
727.24	268.26
727.57	267.76
727.91	267.24
728.24	266.76
728.57	266.20
728.90	265.76
729.23	265.25
729.56	264.81
729.89	264.34
730.22	263.82
730.55	263.36
730.89	262.93
731.22	262.51
731.55	262.08
731.88	261.63
732.21	261.19
732.54	260.77
732.87	260.37
733.20	259.90
733.53	259.51
733.86	259.13
734.19	258.74
734.52	258.34
734.85	258.01
735.18	257.58
735.51	257.22
735.84	256.83
736.17	256.50
736.50	256.11
736.83	255.87
737.16	255.55
737.49	255.18
737.82	254.83
738.15	254.50
738.48	254.14
738.81	253.81
739.14	253.47
739.47	253.15
739.80	252.82
740.13	252.50
740.46	252.17
740.79	251.81
741.12	251.46
741.45	251.16
741.78	250.81
742.11	250.55
742.44	250.24
742.77	249.96
743.10	249.62
743.43	249.32
743.75	248.95
744.08	248.77
744.41	248.49
744.74	248.19
745.07	247.87
745.40	247.61
745.73	247.40
746.06	247.13
746.39	246.84
746.71	246.57
747.04	246.28
747.37	245.98
747.70	245.74
748.03	245.52
748.36	245.31
748.68	245.05
749.01	244.78
749.34	244.54
749.67	244.32
750.00	244.09
750.33	243.90
750.65	243.65
750.98	243.30
751.31	243.11
751.64	242.88
751.97	242.73
752.29	242.50
752.62	242.23
752.95	241.99
753.28	241.78
753.60	241.57
753.93	241.41
754.26	241.26
754.59	241.07
754.91	240.80
755.24	240.57
755.57	240.40
755.90	240.20
756.22	239.99
756.55	239.79
756.88	239.65
757.20	239.42
757.53	239.26
757.86	239.08
758.19	238.92
758.51	238.76
758.84	238.50
759.17	238.31
759.49	238.16
759.82	238.05
760.15	237.90
760.47	237.76
760.80	237.56
761.13	237.39
761.45	237.24
761.78	237.13
762.11	237.01
762.43	236.84
762.76	236.71
763.08	236.59
763.41	236.42
763.74	236.24
764.06	236.12
764.39	235.96
764.71	235.86
765.04	235.68
765.37	235.57
765.69	235.47
766.02	235.39
766.34	235.25
766.67	235.12
767.00	235.01
767.32	234.93
767.65	234.88
767.97	234.77
768.30	234.65
768.62	234.54
768.95	234.40
769.27	234.28
769.60	234.20
769.92	234.07
770.25	233.96
770.57	233.84
770.90	233.71
771.22	233.61
771.55	233.50
771.87	233.41
772.20	233.32
772.52	233.32
772.85	233.33
773.17	233.23
773.50	233.13
773.82	233.03
774.15	232.85
774.47	232.70
774.80	232.61
775.12	232.51
775.45	232.43
775.77	232.38
776.09	232.31
776.42	232.22
776.74	232.18
777.07	232.14
777.39	232.06
777.72	232.03
778.04	231.96
778.36	231.89
778.69	231.81
779.01	231.73
779.33	231.61
779.66	231.43
779.98	231.39
780.31	231.29
780.63	231.27
780.95	231.25
781.28	231.19
781.60	231.13
781.92	231.08
782.25	231.00
782.57	230.90
782.89	230.84
783.22	230.81
783.54	230.74
783.86	230.68
784.19	230.64
784.51	230.57
784.83	230.50
785.16	230.45
785.48	230.39
785.80	230.31
786.12	230.25
786.45	230.19
786.77	230.14
787.09	230.11
