SpectraSuite Data File
++++++++++++++++++++++++++++++++++++
Date: Fri Feb 01 17:33:01 EST 2013
User: group
Dark Spectrum Present: No
Reference Spectrum Present: No
Number of Sampled Component Spectra: 1
Spectrometers: USB2E7196
Integration Time (usec): 35000 (USB2E7196)
Spectra Averaged: 100 (USB2E7196)
Boxcar Smoothing: 10 (USB2E7196)
Correct for Electrical Dark: No (USB2E7196)
Strobe/Lamp Enabled: No (USB2E7196)
Correct for Detector Non-linearity: No (USB2E7196)
Correct for Stray Light: No (USB2E7196)
Number of Pixels in Processed Spectrum: 2048
>>>>>Begin Processed Spectral Data<<<<<
339.09	0.00
339.48	213.24
339.86	214.83
340.24	216.43
340.63	217.29
341.01	220.41
341.39	219.63
341.78	221.53
342.16	222.28
342.54	223.50
342.93	211.66
343.31	222.35
343.69	222.92
344.07	223.35
344.46	223.74
344.84	224.08
345.22	224.31
345.60	224.60
345.99	224.77
346.37	224.92
346.75	225.00
347.13	225.05
347.52	225.09
347.90	225.15
348.28	225.15
348.66	225.20
349.05	225.15
349.43	225.20
349.81	225.25
350.19	225.25
350.57	225.26
350.96	225.32
351.34	225.40
351.72	225.46
352.10	225.55
352.48	225.61
352.87	225.70
353.25	225.75
353.63	225.78
354.01	225.84
354.39	225.91
354.77	225.99
355.15	226.09
355.54	226.20
355.92	226.24
356.30	226.27
356.68	226.40
357.06	226.44
357.44	226.48
357.82	226.53
358.20	226.60
358.58	226.68
358.97	226.74
359.35	226.80
359.73	226.84
360.11	226.91
360.49	226.98
360.87	227.01
361.25	227.07
361.63	227.14
362.01	227.18
362.39	227.20
362.77	227.22
363.15	227.22
363.53	227.23
363.91	227.23
364.29	227.29
364.67	227.17
365.05	227.22
365.43	227.24
365.81	227.26
366.19	227.32
366.57	227.39
366.95	227.37
367.33	227.39
367.71	227.39
368.09	227.37
368.47	227.35
368.85	227.35
369.23	227.34
369.61	227.28
369.99	227.28
370.37	227.28
370.75	227.35
371.13	227.32
371.51	227.28
371.89	227.27
372.27	227.20
372.65	227.20
373.03	227.15
373.41	227.09
373.78	227.04
374.16	226.93
374.54	226.83
374.92	226.75
375.30	226.67
375.68	226.59
376.06	226.56
376.44	226.50
376.82	226.41
377.19	226.38
377.57	226.32
377.95	226.24
378.33	226.16
378.71	226.00
379.09	225.95
379.47	225.90
379.84	225.83
380.22	225.77
380.60	225.69
380.98	225.62
381.36	225.56
381.73	225.52
382.11	225.53
382.49	225.48
382.87	225.43
383.25	225.37
383.62	225.42
384.00	225.36
384.38	225.30
384.76	225.28
385.13	225.24
385.51	225.20
385.89	225.16
386.27	225.11
386.64	225.07
387.02	225.06
387.40	224.97
387.78	224.97
388.15	224.95
388.53	224.94
388.91	224.93
389.29	224.89
389.66	224.86
390.04	224.75
390.42	224.75
390.79	224.74
391.17	224.72
391.55	224.63
391.92	224.62
392.30	224.65
392.68	224.61
393.05	224.61
393.43	224.63
393.81	224.62
394.18	224.64
394.56	224.68
394.94	224.69
395.31	224.72
395.69	224.73
396.06	224.77
396.44	224.78
396.82	224.80
397.19	224.88
397.57	224.92
397.95	225.01
398.32	225.04
398.70	225.11
399.07	225.19
399.45	225.20
399.82	225.25
400.20	225.29
400.58	225.38
400.95	225.38
401.33	225.45
401.70	225.63
402.08	225.71
402.45	225.78
402.83	225.89
403.20	225.99
403.58	226.10
403.95	226.21
404.33	226.36
404.71	226.51
405.08	226.68
405.46	226.79
405.83	226.93
406.21	227.06
406.58	227.18
406.96	227.35
407.33	227.56
407.70	227.76
408.08	228.03
408.45	228.26
408.83	228.56
409.20	228.74
409.58	228.91
409.95	229.18
410.33	229.46
410.70	229.69
411.08	230.02
411.45	230.33
411.82	230.63
412.20	230.98
412.57	231.41
412.95	231.70
413.32	232.09
413.69	232.51
414.07	232.97
414.44	233.49
414.82	233.97
415.19	234.53
415.56	235.09
415.94	235.66
416.31	236.30
416.68	236.89
417.06	237.66
417.43	238.38
417.81	239.18
418.18	239.95
418.55	240.84
418.93	241.77
419.30	242.69
419.67	243.68
420.04	244.70
420.42	245.71
420.79	246.98
421.16	248.19
421.54	249.41
421.91	250.68
422.28	251.98
422.66	253.38
423.03	254.75
423.40	256.16
423.77	257.64
424.15	259.12
424.52	260.69
424.89	262.34
425.26	263.90
425.64	265.41
426.01	267.06
426.38	268.74
426.75	270.46
427.13	272.28
427.50	274.15
427.87	276.09
428.24	278.03
428.61	279.83
428.99	281.90
429.36	284.09
429.73	286.23
430.10	288.35
430.47	290.49
430.85	292.66
431.22	295.01
431.59	297.49
431.96	299.85
432.33	302.44
432.70	304.95
433.08	307.94
433.45	310.67
433.82	313.41
434.19	316.46
434.56	319.38
434.93	322.17
435.30	324.89
435.68	327.88
436.05	330.80
436.42	333.69
436.79	336.31
437.16	339.16
437.53	342.09
437.90	345.02
438.27	347.87
438.64	350.83
439.01	353.56
439.38	355.87
439.75	358.13
440.13	360.73
440.50	363.15
440.87	365.08
441.24	367.11
441.61	369.38
441.98	370.94
442.35	372.79
442.72	374.69
443.09	376.62
443.46	377.67
443.83	378.36
444.20	378.91
444.57	379.77
444.94	380.07
445.31	380.46
445.68	380.83
446.05	380.98
446.42	380.63
446.79	380.19
447.16	379.72
447.53	379.46
447.90	378.28
448.27	377.06
448.64	375.42
449.01	374.24
449.37	372.20
449.74	370.25
450.11	367.97
450.48	365.39
450.85	362.71
451.22	360.50
451.59	358.37
451.96	356.35
452.33	353.69
452.70	351.23
453.07	348.30
453.43	345.29
453.80	342.40
454.17	339.60
454.54	336.94
454.91	334.14
455.28	331.29
455.65	328.65
456.02	326.12
456.38	323.89
456.75	321.13
457.12	318.81
457.49	316.45
457.86	314.17
458.23	312.28
458.59	310.19
458.96	308.02
459.33	306.10
459.70	304.19
460.07	302.59
460.43	300.80
460.80	299.06
461.17	297.55
461.54	295.95
461.91	294.41
462.27	292.89
462.64	291.54
463.01	290.15
463.38	288.83
463.74	287.39
464.11	286.17
464.48	285.11
464.85	283.91
465.21	283.05
465.58	282.11
465.95	280.94
466.32	279.99
466.68	279.05
467.05	278.11
467.42	277.13
467.78	276.18
468.15	275.28
468.52	274.62
468.88	273.76
469.25	272.96
469.62	272.35
469.98	271.66
470.35	271.00
470.72	270.37
471.08	269.67
471.45	269.13
471.82	268.59
472.18	267.99
472.55	267.53
472.92	266.96
473.28	266.46
473.65	266.00
474.02	265.52
474.38	265.13
474.75	264.79
475.11	264.42
475.48	264.11
475.85	263.86
476.21	263.57
476.58	263.38
476.94	263.24
477.31	263.06
477.67	262.87
478.04	262.81
478.41	262.73
478.77	262.80
479.14	262.73
479.50	262.71
479.87	262.76
480.23	262.86
480.60	262.93
480.96	263.01
481.33	263.20
481.69	263.40
482.06	263.58
482.42	263.78
482.79	264.07
483.15	264.37
483.52	264.75
483.88	265.14
484.25	265.49
484.61	265.91
484.98	266.34
485.34	266.96
485.71	267.52
486.07	268.12
486.44	268.66
486.80	269.36
487.17	270.09
487.53	270.93
487.90	271.76
488.26	272.71
488.62	273.70
488.99	274.69
489.35	275.74
489.72	276.86
490.08	278.03
490.44	279.24
490.81	280.60
491.17	281.93
491.54	283.36
491.90	284.90
492.26	286.53
492.63	288.26
492.99	289.98
493.36	291.86
493.72	293.87
494.08	295.95
494.45	298.16
494.81	300.50
495.17	302.90
495.54	305.44
495.90	308.07
496.26	310.83
496.63	313.73
496.99	316.82
497.35	319.99
497.72	323.39
498.08	326.90
498.44	330.55
498.80	334.49
499.17	338.45
499.53	342.62
499.89	346.95
500.26	351.45
500.62	356.08
500.98	361.00
501.34	366.06
501.71	371.34
502.07	376.71
502.43	382.25
502.79	387.94
503.16	393.93
503.52	400.20
503.88	406.50
504.24	413.06
504.60	419.78
504.97	426.89
505.33	434.06
505.69	441.68
506.05	449.31
506.41	457.04
506.78	465.05
507.14	473.30
507.50	481.80
507.86	490.61
508.22	499.54
508.59	508.56
508.95	517.99
509.31	527.59
509.67	537.48
510.03	547.54
510.39	558.00
510.75	568.54
511.12	579.12
511.48	590.16
511.84	601.40
512.20	612.64
512.56	624.30
512.92	636.13
513.28	648.18
513.64	660.33
514.00	672.73
514.37	685.36
514.73	698.06
515.09	710.86
515.45	723.80
515.81	737.12
516.17	750.71
516.53	764.37
516.89	778.15
517.25	791.92
517.61	805.94
517.97	819.96
518.33	833.97
518.69	848.37
519.05	862.93
519.41	877.62
519.77	892.70
520.13	907.76
520.49	922.73
520.85	937.60
521.21	952.85
521.57	968.54
521.93	983.84
522.29	999.69
522.65	1015.42
523.01	1031.19
523.37	1046.78
523.73	1062.49
524.09	1078.12
524.45	1093.88
524.81	1110.04
525.17	1126.31
525.53	1142.62
525.89	1158.96
526.25	1175.31
526.61	1191.27
526.97	1207.57
527.33	1223.64
527.68	1239.56
528.04	1255.62
528.40	1271.62
528.76	1288.29
529.12	1304.39
529.48	1320.90
529.84	1336.47
530.20	1352.61
530.56	1368.99
530.91	1385.86
531.27	1402.12
531.63	1418.12
531.99	1434.33
532.35	1449.94
532.71	1465.43
533.07	1481.33
533.42	1496.88
533.78	1512.47
534.14	1528.19
534.50	1543.14
534.86	1558.60
535.21	1573.60
535.57	1589.08
535.93	1604.32
536.29	1618.76
536.65	1633.57
537.00	1647.89
537.36	1662.96
537.72	1677.23
538.08	1691.32
538.44	1704.67
538.79	1718.46
539.15	1731.83
539.51	1745.33
539.87	1759.43
540.22	1772.86
540.58	1786.30
540.94	1799.27
541.29	1811.86
541.65	1824.37
542.01	1837.39
542.37	1849.52
542.72	1861.64
543.08	1873.33
543.44	1885.60
543.79	1896.76
544.15	1907.58
544.51	1919.15
544.87	1929.99
545.22	1940.94
545.58	1951.41
545.94	1961.35
546.29	1971.09
546.65	1981.03
547.01	1990.50
547.36	1999.12
547.72	2007.65
548.07	2015.78
548.43	2024.16
548.79	2032.27
549.14	2040.12
549.50	2047.60
549.86	2055.35
550.21	2062.96
550.57	2070.31
550.92	2077.29
551.28	2084.52
551.64	2091.89
551.99	2098.59
552.35	2105.07
552.70	2111.34
553.06	2117.39
553.41	2124.04
553.77	2130.16
554.13	2136.35
554.48	2142.70
554.84	2148.71
555.19	2154.31
555.55	2159.69
555.90	2164.64
556.26	2170.07
556.61	2174.95
556.97	2179.79
557.32	2184.39
557.68	2188.85
558.03	2193.46
558.39	2197.27
558.74	2202.21
559.10	2206.37
559.45	2210.41
559.81	2215.03
560.16	2219.12
560.52	2222.98
560.87	2226.83
561.23	2230.05
561.58	2233.44
561.94	2236.28
562.29	2238.87
562.64	2242.10
563.00	2245.00
563.35	2248.69
563.71	2252.15
564.06	2255.74
564.42	2258.89
564.77	2261.94
565.12	2264.80
565.48	2267.31
565.83	2269.72
566.19	2271.41
566.54	2272.75
566.89	2274.44
567.25	2275.53
567.60	2277.25
567.96	2279.33
568.31	2280.55
568.66	2282.13
569.02	2283.17
569.37	2284.03
569.72	2285.42
570.08	2286.13
570.43	2286.61
570.78	2286.58
571.14	2285.46
571.49	2284.62
571.84	2284.59
572.20	2283.88
572.55	2283.07
572.90	2281.68
573.26	2280.74
573.61	2279.46
573.96	2278.33
574.31	2275.66
574.67	2273.07
575.02	2269.81
575.37	2266.61
575.72	2263.36
576.08	2260.35
576.43	2257.29
576.78	2254.00
577.13	2251.10
577.49	2248.16
577.84	2245.22
578.19	2241.65
578.54	2238.47
578.90	2234.77
579.25	2229.59
579.60	2225.20
579.95	2220.53
580.30	2216.00
580.66	2211.15
581.01	2206.63
581.36	2201.82
581.71	2198.17
582.06	2194.12
582.42	2190.14
582.77	2185.37
583.12	2181.05
583.47	2176.87
583.82	2172.52
584.17	2167.63
584.53	2162.41
584.88	2157.21
585.23	2151.68
585.58	2146.73
585.93	2141.47
586.28	2136.84
586.63	2132.14
586.98	2127.08
587.34	2122.68
587.69	2117.96
588.04	2113.08
588.39	2107.59
588.74	2101.48
589.09	2095.42
589.44	2088.95
589.79	2083.02
590.14	2077.62
590.49	2071.26
590.84	2064.94
591.19	2058.96
591.54	2052.62
591.89	2045.58
592.25	2038.98
592.60	2032.14
592.95	2024.82
593.30	2017.63
593.65	2010.23
594.00	2003.32
594.35	1996.32
594.70	1988.36
595.05	1981.62
595.40	1974.37
595.75	1967.04
596.10	1961.16
596.45	1954.66
596.80	1948.59
597.15	1942.26
597.50	1935.40
597.85	1929.04
598.19	1922.58
598.54	1915.87
598.89	1909.40
599.24	1903.58
599.59	1897.23
599.94	1890.96
600.29	1884.68
600.64	1878.19
600.99	1870.93
601.34	1864.36
601.69	1857.36
602.04	1850.73
602.39	1843.41
602.74	1836.82
603.08	1830.24
603.43	1823.48
603.78	1816.25
604.13	1809.06
604.48	1801.84
604.83	1795.06
605.18	1788.35
605.53	1780.43
605.87	1772.36
606.22	1765.00
606.57	1757.11
606.92	1749.59
607.27	1742.65
607.62	1735.86
607.96	1728.84
608.31	1722.44
608.66	1714.91
609.01	1707.56
609.36	1700.15
609.70	1692.10
610.05	1684.04
610.40	1676.51
610.75	1668.26
611.10	1660.56
611.44	1651.99
611.79	1643.88
612.14	1635.13
612.49	1625.75
612.83	1617.25
613.18	1609.09
613.53	1601.07
613.88	1592.57
614.22	1584.24
614.57	1575.26
614.92	1567.19
615.27	1559.68
615.61	1551.21
615.96	1543.07
616.31	1535.24
616.65	1527.63
617.00	1519.98
617.35	1512.03
617.70	1503.48
618.04	1494.76
618.39	1486.39
618.74	1478.84
619.08	1470.58
619.43	1462.96
619.78	1455.91
620.12	1448.66
620.47	1441.02
620.82	1432.79
621.16	1425.17
621.51	1417.46
621.85	1409.83
622.20	1401.19
622.55	1392.56
622.89	1384.54
623.24	1376.64
623.59	1369.15
623.93	1361.51
624.28	1354.20
624.62	1346.67
624.97	1339.52
625.32	1332.63
625.66	1325.58
626.01	1318.37
626.35	1310.88
626.70	1302.92
627.04	1295.27
627.39	1287.48
627.73	1279.91
628.08	1272.94
628.43	1265.67
628.77	1258.23
629.12	1250.68
629.46	1243.41
629.81	1235.79
630.15	1228.48
630.50	1220.87
630.84	1212.66
631.19	1204.72
631.53	1197.04
631.88	1189.44
632.22	1181.64
632.57	1174.19
632.91	1166.58
633.26	1158.99
633.60	1151.45
633.95	1144.22
634.29	1136.98
634.64	1130.07
634.98	1122.70
635.32	1115.40
635.67	1108.70
636.01	1102.00
636.36	1095.18
636.70	1088.54
637.05	1081.93
637.39	1075.46
637.73	1069.07
638.08	1062.97
638.42	1056.94
638.77	1050.48
639.11	1043.95
639.45	1037.53
639.80	1030.91
640.14	1024.48
640.49	1017.96
640.83	1011.69
641.17	1005.52
641.52	999.18
641.86	992.71
642.20	986.79
642.55	980.36
642.89	973.90
643.23	967.27
643.58	961.39
643.92	955.28
644.26	949.31
644.61	943.15
644.95	937.14
645.29	930.71
645.64	923.86
645.98	917.53
646.32	911.48
646.66	905.42
647.01	899.56
647.35	893.82
647.69	887.95
648.04	882.29
648.38	876.53
648.72	870.54
649.06	864.55
649.41	858.60
649.75	852.81
650.09	846.81
650.43	841.03
650.78	834.87
651.12	828.84
651.46	823.03
651.80	817.40
652.14	811.92
652.49	806.48
652.83	801.34
653.17	795.69
653.51	790.01
653.85	784.54
654.20	778.92
654.54	772.93
654.88	767.11
655.22	761.19
655.56	755.40
655.90	749.94
656.25	744.68
656.59	739.32
656.93	734.12
657.27	729.03
657.61	723.57
657.95	718.43
658.29	713.31
658.64	708.00
658.98	702.55
659.32	697.06
659.66	691.85
660.00	686.54
660.34	681.48
660.68	676.56
661.02	671.49
661.36	666.76
661.70	662.18
662.05	657.81
662.39	653.50
662.73	649.06
663.07	644.64
663.41	640.19
663.75	635.71
664.09	631.14
664.43	626.69
664.77	622.55
665.11	618.33
665.45	614.16
665.79	610.13
666.13	606.02
666.47	601.93
666.81	597.71
667.15	593.57
667.49	589.71
667.83	585.81
668.17	581.88
668.51	577.76
668.85	573.72
669.19	569.79
669.53	566.00
669.87	562.08
670.21	558.32
670.55	554.61
670.89	551.15
671.23	547.65
671.57	544.07
671.91	540.56
672.25	537.01
672.58	533.43
672.92	529.99
673.26	526.75
673.60	523.59
673.94	520.50
674.28	517.56
674.62	514.48
674.96	511.38
675.30	508.45
675.64	505.57
675.97	502.76
676.31	499.97
676.65	497.00
676.99	494.29
677.33	491.37
677.67	488.55
678.01	485.51
678.34	482.56
678.68	479.62
679.02	476.78
679.36	474.01
679.70	471.30
680.04	468.49
680.37	465.63
680.71	462.75
681.05	460.11
681.39	457.32
681.73	454.69
682.06	452.13
682.40	449.59
682.74	446.97
683.08	444.41
683.42	441.74
683.75	439.16
684.09	436.54
684.43	434.09
684.77	431.62
685.10	429.22
685.44	426.86
685.78	424.54
686.12	422.22
686.45	419.88
686.79	417.55
687.13	415.35
687.46	413.18
687.80	411.03
688.14	408.73
688.48	406.65
688.81	404.42
689.15	402.28
689.49	400.07
689.82	397.99
690.16	395.82
690.50	393.84
690.83	391.89
691.17	389.88
691.51	387.91
691.84	386.01
692.18	384.11
692.52	382.12
692.85	380.17
693.19	378.29
693.52	376.42
693.86	374.64
694.20	372.82
694.53	370.98
694.87	369.10
695.21	367.34
695.54	365.50
695.88	363.76
696.21	361.98
696.55	360.26
696.88	358.54
697.22	356.86
697.56	355.24
697.89	353.54
698.23	351.97
698.56	350.36
698.90	348.78
699.23	347.09
699.57	345.50
699.90	343.91
700.24	342.29
700.58	340.78
700.91	339.20
701.25	337.75
701.58	336.38
701.92	334.98
702.25	333.56
702.59	332.17
702.92	330.83
703.26	329.51
703.59	328.26
703.93	327.03
704.26	325.74
704.60	324.40
704.93	323.14
705.26	321.82
705.60	320.61
705.93	319.36
706.27	318.31
706.60	317.26
706.94	316.13
707.27	315.06
707.61	313.93
707.94	312.92
708.27	311.77
708.61	310.63
708.94	309.64
709.28	308.62
709.61	307.66
709.94	306.64
710.28	305.62
710.61	304.56
710.95	303.47
711.28	302.58
711.61	301.60
711.95	300.67
712.28	299.71
712.61	298.70
712.95	297.75
713.28	296.82
713.61	295.88
713.95	295.02
714.28	294.13
714.61	293.30
714.95	292.42
715.28	291.55
715.61	290.71
715.95	289.83
716.28	289.00
716.61	288.14
716.95	287.26
717.28	286.46
717.61	285.73
717.94	284.97
718.28	284.18
718.61	283.43
718.94	282.71
719.27	282.09
719.61	281.46
719.94	280.81
720.27	280.10
720.60	279.47
720.94	278.81
721.27	278.18
721.60	277.53
721.93	276.96
722.27	276.41
722.60	275.83
722.93	275.26
723.26	274.72
723.59	274.12
723.93	273.58
724.26	273.06
724.59	272.45
724.92	271.90
725.25	271.38
725.59	270.87
725.92	270.36
726.25	269.84
726.58	269.30
726.91	268.77
727.24	268.24
727.57	267.73
727.91	267.21
728.24	266.75
728.57	266.23
728.90	265.75
729.23	265.26
729.56	264.83
729.89	264.32
730.22	263.78
730.55	263.32
730.89	262.86
731.22	262.37
731.55	261.96
731.88	261.55
732.21	261.08
732.54	260.63
732.87	260.17
733.20	259.70
733.53	259.31
733.86	258.92
734.19	258.56
734.52	258.16
734.85	257.84
735.18	257.40
735.51	257.08
735.84	256.66
736.17	256.29
736.50	255.82
736.83	255.61
737.16	255.28
737.49	254.94
737.82	254.60
738.15	254.26
738.48	253.90
738.81	253.55
739.14	253.22
739.47	252.90
739.80	252.59
740.13	252.31
740.46	251.99
740.79	251.67
741.12	251.32
741.45	251.02
741.78	250.69
742.11	250.43
742.44	250.11
742.77	249.83
743.10	249.50
743.43	249.24
743.75	248.84
744.08	248.69
744.41	248.40
744.74	248.13
745.07	247.88
745.40	247.64
745.73	247.38
746.06	247.13
746.39	246.87
746.71	246.62
747.04	246.33
747.37	246.07
747.70	245.86
748.03	245.66
748.36	245.45
748.68	245.18
749.01	244.93
749.34	244.67
749.67	244.44
750.00	244.24
750.33	244.07
750.65	243.87
750.98	243.54
751.31	243.32
751.64	243.11
751.97	242.94
752.29	242.71
752.62	242.47
752.95	242.27
753.28	242.05
753.60	241.87
753.93	241.71
754.26	241.51
754.59	241.29
754.91	241.06
755.24	240.83
755.57	240.67
755.90	240.47
756.22	240.27
756.55	240.08
756.88	239.87
757.20	239.63
757.53	239.41
757.86	239.26
758.19	239.15
758.51	238.98
758.84	238.74
759.17	238.58
759.49	238.42
759.82	238.27
760.15	238.14
760.47	237.95
760.80	237.76
761.13	237.62
761.45	237.42
761.78	237.25
762.11	237.10
762.43	236.92
762.76	236.77
763.08	236.63
763.41	236.47
763.74	236.35
764.06	236.23
764.39	236.09
764.71	235.87
765.04	235.72
765.37	235.59
765.69	235.47
766.02	235.35
766.34	235.23
766.67	235.07
767.00	234.92
767.32	234.85
767.65	234.80
767.97	234.67
768.30	234.57
768.62	234.49
768.95	234.37
769.27	234.27
769.60	234.16
769.92	234.05
770.25	233.93
770.57	233.78
770.90	233.66
771.22	233.52
771.55	233.46
771.87	233.32
772.20	233.18
772.52	233.14
772.85	233.12
773.17	233.02
773.50	232.90
773.82	232.78
774.15	232.63
774.47	232.47
774.80	232.35
775.12	232.26
775.45	232.16
775.77	232.06
776.09	231.98
776.42	231.88
776.74	231.82
777.07	231.74
777.39	231.67
777.72	231.57
778.04	231.51
778.36	231.43
778.69	231.39
779.01	231.31
779.33	231.17
779.66	231.01
779.98	230.91
780.31	230.89
780.63	230.86
780.95	230.81
781.28	230.69
781.60	230.64
781.92	230.60
782.25	230.55
782.57	230.49
782.89	230.40
783.22	230.37
783.54	230.31
783.86	230.27
784.19	230.24
784.51	230.23
784.83	230.18
785.16	230.11
785.48	230.07
785.80	230.06
786.12	230.02
786.45	229.97
786.77	229.91
787.09	229.83
