SpectraSuite Data File
++++++++++++++++++++++++++++++++++++
Date: Fri Feb 01 16:19:14 EST 2013
User: group
Dark Spectrum Present: No
Reference Spectrum Present: No
Number of Sampled Component Spectra: 1
Spectrometers: USB2E7196
Integration Time (usec): 35000 (USB2E7196)
Spectra Averaged: 100 (USB2E7196)
Boxcar Smoothing: 10 (USB2E7196)
Correct for Electrical Dark: No (USB2E7196)
Strobe/Lamp Enabled: No (USB2E7196)
Correct for Detector Non-linearity: No (USB2E7196)
Correct for Stray Light: No (USB2E7196)
Number of Pixels in Processed Spectrum: 2048
>>>>>Begin Processed Spectral Data<<<<<
339.09	0.00
339.48	214.18
339.86	215.76
340.24	218.08
340.63	218.80
341.01	221.56
341.39	221.71
341.78	222.54
342.16	223.29
342.54	223.87
342.93	212.69
343.31	223.43
343.69	224.03
344.07	224.50
344.46	224.87
344.84	225.23
345.22	225.45
345.60	225.70
345.99	225.89
346.37	226.03
346.75	226.16
347.13	226.23
347.52	226.27
347.90	226.38
348.28	226.40
348.66	226.42
349.05	226.44
349.43	226.52
349.81	226.55
350.19	226.63
350.57	226.67
350.96	226.73
351.34	226.82
351.72	226.84
352.10	226.92
352.48	227.01
352.87	227.06
353.25	227.11
353.63	227.15
354.01	227.20
354.39	227.27
354.77	227.32
355.15	227.42
355.54	227.47
355.92	227.47
356.30	227.55
356.68	227.65
357.06	227.68
357.44	227.69
357.82	227.73
358.20	227.76
358.58	227.84
358.97	227.91
359.35	227.95
359.73	228.02
360.11	228.09
360.49	228.11
360.87	228.16
361.25	228.21
361.63	228.26
362.01	228.31
362.39	228.37
362.77	228.39
363.15	228.42
363.53	228.45
363.91	228.48
364.29	228.44
364.67	228.37
365.05	228.39
365.43	228.40
365.81	228.43
366.19	228.45
366.57	228.48
366.95	228.46
367.33	228.46
367.71	228.41
368.09	228.38
368.47	228.37
368.85	228.32
369.23	228.33
369.61	228.28
369.99	228.25
370.37	228.17
370.75	228.18
371.13	228.10
371.51	228.06
371.89	228.03
372.27	228.00
372.65	227.99
373.03	227.92
373.41	227.89
373.78	227.81
374.16	227.70
374.54	227.63
374.92	227.56
375.30	227.49
375.68	227.42
376.06	227.36
376.44	227.28
376.82	227.24
377.19	227.16
377.57	227.08
377.95	227.00
378.33	226.96
378.71	226.85
379.09	226.80
379.47	226.74
379.84	226.67
380.22	226.61
380.60	226.48
380.98	226.44
381.36	226.34
381.73	226.26
382.11	226.24
382.49	226.20
382.87	226.10
383.25	226.05
383.62	226.14
384.00	226.08
384.38	226.03
384.76	225.99
385.13	225.97
385.51	225.93
385.89	225.88
386.27	225.84
386.64	225.83
387.02	225.77
387.40	225.71
387.78	225.65
388.15	225.64
388.53	225.64
388.91	225.62
389.29	225.60
389.66	225.62
390.04	225.60
390.42	225.54
390.79	225.56
391.17	225.53
391.55	225.38
391.92	225.40
392.30	225.40
392.68	225.37
393.05	225.37
393.43	225.41
393.81	225.42
394.18	225.37
394.56	225.35
394.94	225.43
395.31	225.46
395.69	225.51
396.06	225.56
396.44	225.60
396.82	225.62
397.19	225.71
397.57	225.72
397.95	225.79
398.32	225.83
398.70	225.91
399.07	226.02
399.45	226.06
399.82	226.10
400.20	226.16
400.58	226.26
400.95	226.31
401.33	226.38
401.70	226.53
402.08	226.67
402.45	226.79
402.83	226.87
403.20	226.96
403.58	227.03
403.95	227.14
404.33	227.27
404.71	227.40
405.08	227.63
405.46	227.75
405.83	227.86
406.21	228.03
406.58	228.16
406.96	228.31
407.33	228.52
407.70	228.71
408.08	228.95
408.45	229.16
408.83	229.41
409.20	229.60
409.58	229.77
409.95	230.03
410.33	230.27
410.70	230.48
411.08	230.82
411.45	231.13
411.82	231.43
412.20	231.78
412.57	232.15
412.95	232.40
413.32	232.81
413.69	233.23
414.07	233.64
414.44	234.12
414.82	234.57
415.19	235.13
415.56	235.70
415.94	236.24
416.31	236.87
416.68	237.47
417.06	238.21
417.43	238.90
417.81	239.63
418.18	240.40
418.55	241.28
418.93	242.13
419.30	243.04
419.67	243.98
420.04	244.98
420.42	246.02
420.79	247.22
421.16	248.38
421.54	249.57
421.91	250.81
422.28	252.06
422.66	253.42
423.03	254.68
423.40	255.96
423.77	257.39
424.15	258.82
424.52	260.35
424.89	261.94
425.26	263.49
425.64	264.96
426.01	266.55
426.38	268.20
426.75	269.87
427.13	271.59
427.50	273.38
427.87	275.22
428.24	277.06
428.61	278.78
428.99	280.72
429.36	282.82
429.73	284.86
430.10	286.80
430.47	288.81
430.85	290.92
431.22	293.22
431.59	295.60
431.96	297.86
432.33	300.31
432.70	302.67
433.08	305.45
433.45	308.13
433.82	310.76
434.19	313.63
434.56	316.42
434.93	319.05
435.30	321.65
435.68	324.50
436.05	327.31
436.42	330.09
436.79	332.59
437.16	335.33
437.53	338.18
437.90	341.05
438.27	343.85
438.64	346.70
439.01	349.26
439.38	351.46
439.75	353.63
440.13	356.09
440.50	358.42
440.87	360.28
441.24	362.19
441.61	364.30
441.98	365.83
442.35	367.66
442.72	369.55
443.09	371.40
443.46	372.39
443.83	372.98
444.20	373.53
444.57	374.32
444.94	374.56
445.31	374.86
445.68	375.25
446.05	375.34
446.42	374.92
446.79	374.50
447.16	374.09
447.53	373.73
447.90	372.58
448.27	371.45
448.64	369.86
449.01	368.73
449.37	366.78
449.74	364.87
450.11	362.60
450.48	360.12
450.85	357.56
451.22	355.42
451.59	353.40
451.96	351.41
452.33	348.87
452.70	346.49
453.07	343.70
453.43	340.79
453.80	337.98
454.17	335.33
454.54	332.76
454.91	330.05
455.28	327.39
455.65	324.90
456.02	322.42
456.38	320.29
456.75	317.61
457.12	315.39
457.49	313.14
457.86	310.96
458.23	309.11
458.59	307.09
458.96	305.03
459.33	303.19
459.70	301.37
460.07	299.89
460.43	298.20
460.80	296.60
461.17	295.15
461.54	293.71
461.91	292.26
462.27	290.84
462.64	289.60
463.01	288.22
463.38	286.94
463.74	285.61
464.11	284.47
464.48	283.49
464.85	282.35
465.21	281.50
465.58	280.61
465.95	279.52
466.32	278.62
466.68	277.74
467.05	276.86
467.42	275.97
467.78	275.03
468.15	274.19
468.52	273.52
468.88	272.68
469.25	271.90
469.62	271.29
469.98	270.61
470.35	269.93
470.72	269.38
471.08	268.76
471.45	268.23
471.82	267.70
472.18	267.10
472.55	266.66
472.92	266.14
473.28	265.66
473.65	265.23
474.02	264.79
474.38	264.42
474.75	264.09
475.11	263.72
475.48	263.47
475.85	263.20
476.21	262.97
476.58	262.78
476.94	262.63
477.31	262.46
477.67	262.36
478.04	262.29
478.41	262.19
478.77	262.22
479.14	262.14
479.50	262.14
479.87	262.20
480.23	262.30
480.60	262.38
480.96	262.49
481.33	262.69
481.69	262.88
482.06	263.07
482.42	263.29
482.79	263.54
483.15	263.85
483.52	264.24
483.88	264.58
484.25	264.97
484.61	265.40
484.98	265.89
485.34	266.44
485.71	267.01
486.07	267.66
486.44	268.22
486.80	268.93
487.17	269.63
487.53	270.48
487.90	271.33
488.26	272.27
488.62	273.27
488.99	274.23
489.35	275.25
489.72	276.38
490.08	277.56
490.44	278.83
490.81	280.19
491.17	281.52
491.54	283.00
491.90	284.51
492.26	286.17
492.63	287.91
492.99	289.69
493.36	291.60
493.72	293.65
494.08	295.77
494.45	298.02
494.81	300.38
495.17	302.79
495.54	305.37
495.90	308.07
496.26	310.90
496.63	313.88
496.99	317.07
497.35	320.31
497.72	323.74
498.08	327.26
498.44	330.91
498.80	334.88
499.17	338.91
499.53	343.10
499.89	347.46
500.26	351.92
500.62	356.60
500.98	361.60
501.34	366.65
501.71	371.99
502.07	377.38
502.43	383.02
502.79	388.90
503.16	394.96
503.52	401.22
503.88	407.59
504.24	414.23
504.60	421.07
504.97	428.32
505.33	435.63
505.69	443.39
506.05	451.19
506.41	459.07
506.78	467.24
507.14	475.69
507.50	484.46
507.86	493.54
508.22	502.73
508.59	511.98
508.95	521.56
509.31	531.42
509.67	541.50
510.03	551.83
510.39	562.36
510.75	573.20
511.12	584.18
511.48	595.58
511.84	606.99
512.20	618.51
512.56	630.46
512.92	642.70
513.28	654.99
513.64	667.47
514.00	680.27
514.37	693.23
514.73	706.29
515.09	719.26
515.45	732.52
515.81	746.15
516.17	760.15
516.53	774.33
516.89	788.51
517.25	802.73
517.61	817.14
517.97	831.61
518.33	845.97
518.69	860.72
519.05	875.58
519.41	890.83
519.77	906.40
520.13	921.81
520.49	937.09
520.85	952.44
521.21	968.09
521.57	984.21
521.93	999.91
522.29	1016.29
522.65	1032.54
523.01	1048.80
523.37	1064.76
523.73	1080.88
524.09	1096.92
524.45	1113.20
524.81	1129.80
525.17	1146.63
525.53	1163.49
525.89	1180.36
526.25	1197.13
526.61	1213.56
526.97	1230.31
527.33	1246.69
527.68	1263.27
528.04	1279.83
528.40	1296.39
528.76	1313.50
529.12	1330.11
529.48	1346.99
529.84	1362.93
530.20	1379.61
530.56	1396.52
530.91	1413.93
531.27	1430.59
531.63	1447.07
531.99	1463.59
532.35	1479.55
532.71	1495.31
533.07	1511.55
533.42	1527.38
533.78	1543.43
534.14	1559.58
534.50	1574.68
534.86	1590.49
535.21	1605.59
535.57	1621.44
535.93	1636.89
536.29	1651.45
536.65	1666.32
537.00	1681.02
537.36	1696.35
537.72	1710.78
538.08	1725.17
538.44	1738.85
538.79	1752.65
539.15	1766.20
539.51	1779.78
539.87	1794.06
540.22	1807.80
540.58	1821.40
540.94	1834.66
541.29	1847.39
541.65	1860.08
542.01	1873.31
542.37	1885.72
542.72	1897.99
543.08	1909.63
543.44	1922.04
543.79	1933.29
544.15	1944.34
544.51	1955.81
544.87	1966.63
545.22	1977.33
545.58	1987.42
545.94	1997.11
546.29	2006.87
546.65	2016.64
547.01	2025.97
547.36	2034.64
547.72	2043.00
548.07	2050.77
548.43	2058.93
548.79	2066.91
549.14	2074.29
549.50	2081.55
549.86	2089.08
550.21	2096.54
550.57	2103.70
550.92	2110.11
551.28	2117.20
551.64	2124.21
551.99	2130.76
552.35	2136.85
552.70	2143.03
553.06	2149.06
553.41	2155.43
553.77	2161.53
554.13	2167.55
554.48	2173.60
554.84	2179.02
555.19	2184.25
555.55	2189.47
555.90	2194.01
556.26	2198.95
556.61	2203.81
556.97	2208.22
557.32	2212.27
557.68	2216.28
558.03	2220.62
558.39	2224.36
558.74	2228.92
559.10	2232.76
559.45	2236.44
559.81	2240.82
560.16	2244.62
560.52	2247.78
560.87	2251.18
561.23	2253.85
561.58	2256.90
561.94	2259.35
562.29	2261.76
562.64	2264.46
563.00	2266.93
563.35	2270.33
563.71	2273.40
564.06	2276.58
564.42	2279.36
564.77	2281.95
565.12	2284.21
565.48	2286.15
565.83	2288.07
566.19	2289.49
566.54	2290.33
566.89	2291.49
567.25	2292.05
567.60	2293.33
567.96	2295.13
568.31	2295.99
568.66	2297.15
569.02	2297.66
569.37	2298.04
569.72	2299.02
570.08	2299.09
570.43	2299.31
570.78	2298.89
571.14	2297.37
571.49	2296.00
571.84	2295.71
572.20	2294.55
572.55	2293.54
572.90	2291.84
573.26	2290.57
573.61	2288.85
573.96	2287.25
574.31	2284.27
574.67	2281.45
575.02	2277.86
575.37	2274.43
575.72	2270.61
576.08	2267.18
576.43	2263.92
576.78	2260.33
577.13	2257.11
577.49	2254.19
577.84	2250.69
578.19	2246.84
578.54	2243.25
578.90	2239.00
579.25	2233.52
579.60	2228.58
579.95	2223.55
580.30	2218.77
580.66	2213.56
581.01	2208.59
581.36	2203.79
581.71	2199.73
582.06	2195.19
582.42	2190.75
582.77	2185.70
583.12	2181.27
583.47	2176.66
583.82	2171.74
584.17	2166.60
584.53	2161.12
584.88	2155.50
585.23	2149.83
585.58	2144.46
585.93	2139.17
586.28	2134.64
586.63	2129.55
586.98	2124.63
587.34	2120.12
587.69	2115.17
588.04	2109.91
588.39	2104.40
588.74	2097.77
589.09	2091.64
589.44	2084.91
589.79	2078.97
590.14	2073.34
590.49	2066.84
590.84	2060.44
591.19	2054.47
591.54	2048.01
591.89	2040.68
592.25	2033.93
592.60	2026.82
592.95	2019.34
593.30	2011.98
593.65	2004.33
594.00	1997.40
594.35	1990.16
594.70	1982.11
595.05	1974.99
595.40	1967.83
595.75	1960.35
596.10	1954.39
596.45	1947.64
596.80	1941.61
597.15	1935.08
597.50	1928.03
597.85	1921.56
598.19	1914.93
598.54	1907.76
598.89	1901.14
599.24	1895.40
599.59	1888.76
599.94	1882.56
600.29	1876.22
600.64	1869.55
600.99	1862.24
601.34	1855.33
601.69	1848.44
602.04	1841.65
602.39	1834.36
602.74	1827.59
603.08	1820.85
603.43	1814.09
603.78	1806.82
604.13	1799.65
604.48	1792.31
604.83	1785.53
605.18	1778.58
605.53	1770.64
605.87	1762.71
606.22	1755.54
606.57	1747.38
606.92	1740.19
607.27	1732.99
607.62	1726.10
607.96	1719.05
608.31	1712.41
608.66	1705.01
609.01	1697.46
609.36	1689.88
609.70	1681.87
610.05	1673.80
610.40	1666.06
610.75	1657.69
611.10	1650.11
611.44	1641.69
611.79	1633.65
612.14	1624.93
612.49	1615.83
612.83	1607.49
613.18	1599.45
613.53	1591.34
613.88	1582.87
614.22	1574.47
614.57	1565.82
614.92	1557.77
615.27	1550.20
615.61	1541.77
615.96	1533.67
616.31	1526.00
616.65	1518.65
617.00	1510.98
617.35	1503.31
617.70	1494.96
618.04	1486.49
618.39	1478.17
618.74	1470.33
619.08	1462.06
619.43	1454.41
619.78	1447.46
620.12	1440.34
620.47	1432.79
620.82	1424.58
621.16	1417.22
621.51	1409.61
621.85	1401.94
622.20	1393.45
622.55	1385.01
622.89	1377.19
623.24	1369.60
623.59	1362.20
623.93	1354.54
624.28	1347.38
624.62	1339.78
624.97	1332.74
625.32	1325.94
625.66	1319.01
626.01	1312.01
626.35	1304.63
626.70	1296.79
627.04	1289.02
627.39	1281.22
627.73	1273.77
628.08	1266.86
628.43	1259.48
628.77	1252.15
629.12	1244.64
629.46	1237.47
629.81	1229.93
630.15	1222.71
630.50	1215.25
630.84	1207.01
631.19	1199.07
631.53	1191.48
631.88	1183.97
632.22	1176.30
632.57	1169.03
632.91	1161.39
633.26	1153.92
633.60	1146.54
633.95	1139.50
634.29	1132.55
634.64	1125.85
634.98	1118.47
635.32	1111.28
635.67	1104.72
636.01	1098.06
636.36	1091.16
636.70	1084.59
637.05	1078.07
637.39	1071.60
637.73	1065.08
638.08	1059.19
638.42	1053.26
638.77	1046.75
639.11	1040.09
639.45	1033.74
639.80	1027.05
640.14	1020.60
640.49	1014.10
640.83	1007.77
641.17	1001.51
641.52	995.09
641.86	988.61
642.20	982.78
642.55	976.51
642.89	970.11
643.23	963.49
643.58	957.81
643.92	951.62
644.26	945.53
644.61	939.50
644.95	933.49
645.29	926.82
645.64	920.04
645.98	913.78
646.32	907.98
646.66	901.79
647.01	895.88
647.35	890.18
647.69	884.23
648.04	878.73
648.38	872.86
648.72	866.85
649.06	860.72
649.41	854.80
649.75	848.77
650.09	842.72
650.43	836.97
650.78	830.74
651.12	824.81
651.46	819.12
651.80	813.34
652.14	807.88
652.49	802.57
652.83	797.43
653.17	791.68
653.51	785.94
653.85	780.58
654.20	774.98
654.54	768.92
654.88	763.18
655.22	757.20
655.56	751.55
655.90	746.13
656.25	740.92
656.59	735.52
656.93	730.44
657.27	725.21
657.61	719.76
657.95	714.67
658.29	709.54
658.64	704.26
658.98	698.92
659.32	693.47
659.66	688.28
660.00	682.85
660.34	677.94
660.68	672.99
661.02	667.99
661.36	663.28
661.70	658.82
662.05	654.50
662.39	650.11
662.73	645.69
663.07	641.25
663.41	636.73
663.75	632.19
664.09	627.65
664.43	623.27
664.77	619.11
665.11	614.87
665.45	610.72
665.79	606.65
666.13	602.52
666.47	598.41
666.81	594.23
667.15	590.22
667.49	586.29
667.83	582.49
668.17	578.52
668.51	574.50
668.85	570.43
669.19	566.61
669.53	562.80
669.87	558.93
670.21	555.19
670.55	551.55
670.89	548.15
671.23	544.69
671.57	541.18
671.91	537.61
672.25	534.03
672.58	530.48
672.92	527.05
673.26	523.82
673.60	520.72
673.94	517.61
674.28	514.64
674.62	511.68
674.96	508.57
675.30	505.62
675.64	502.64
675.97	499.88
676.31	496.99
676.65	494.06
676.99	491.36
677.33	488.47
677.67	485.72
678.01	482.68
678.34	479.75
678.68	476.82
679.02	474.08
679.36	471.38
679.70	468.70
680.04	465.95
680.37	463.04
680.71	460.17
681.05	457.52
681.39	454.81
681.73	452.19
682.06	449.63
682.40	447.08
682.74	444.52
683.08	441.94
683.42	439.33
683.75	436.83
684.09	434.24
684.43	431.79
684.77	429.25
685.10	426.91
685.44	424.56
685.78	422.31
686.12	420.06
686.45	417.76
686.79	415.41
687.13	413.26
687.46	411.16
687.80	409.07
688.14	406.84
688.48	404.75
688.81	402.46
689.15	400.31
689.49	398.19
689.82	396.12
690.16	394.09
690.50	392.10
690.83	390.15
691.17	388.19
691.51	386.34
691.84	384.51
692.18	382.58
692.52	380.58
692.85	378.66
693.19	376.75
693.52	374.89
693.86	373.09
694.20	371.24
694.53	369.44
694.87	367.51
695.21	365.76
695.54	363.93
695.88	362.26
696.21	360.54
696.55	358.85
696.88	357.16
697.22	355.47
697.56	353.87
697.89	352.19
698.23	350.58
698.56	348.93
698.90	347.32
699.23	345.69
699.57	344.14
699.90	342.63
700.24	341.06
700.58	339.56
700.91	338.09
701.25	336.64
701.58	335.25
701.92	333.92
702.25	332.51
702.59	331.17
702.92	329.81
703.26	328.50
703.59	327.22
703.93	326.03
704.26	324.84
704.60	323.53
704.93	322.28
705.26	321.01
705.60	319.85
705.93	318.66
706.27	317.62
706.60	316.53
706.94	315.41
707.27	314.31
707.61	313.21
707.94	312.13
708.27	311.05
708.61	310.00
708.94	309.00
709.28	308.05
709.61	307.12
709.94	306.16
710.28	305.12
710.61	304.14
710.95	303.05
711.28	302.10
711.61	301.12
711.95	300.24
712.28	299.28
712.61	298.30
712.95	297.43
713.28	296.53
713.61	295.64
713.95	294.76
714.28	293.92
714.61	293.06
714.95	292.25
715.28	291.37
715.61	290.49
715.95	289.59
716.28	288.67
716.61	287.82
716.95	287.04
717.28	286.31
717.61	285.55
717.94	284.83
718.28	284.02
718.61	283.35
718.94	282.64
719.27	282.01
719.61	281.36
719.94	280.69
720.27	279.98
720.60	279.39
720.94	278.74
721.27	278.17
721.60	277.61
721.93	277.02
722.27	276.50
722.60	275.96
722.93	275.43
723.26	274.96
723.59	274.39
723.93	273.84
724.26	273.27
724.59	272.72
724.92	272.20
725.25	271.69
725.59	271.16
725.92	270.65
726.25	270.11
726.58	269.64
726.91	269.14
727.24	268.66
727.57	268.16
727.91	267.68
728.24	267.21
728.57	266.71
728.90	266.23
729.23	265.75
729.56	265.33
729.89	264.84
730.22	264.34
730.55	263.89
730.89	263.41
731.22	262.98
731.55	262.53
731.88	262.10
732.21	261.67
732.54	261.24
732.87	260.80
733.20	260.43
733.53	260.03
733.86	259.64
734.19	259.24
734.52	258.84
734.85	258.49
735.18	258.04
735.51	257.67
735.84	257.32
736.17	256.95
736.50	256.53
736.83	256.31
737.16	255.95
737.49	255.62
737.82	255.30
738.15	254.96
738.48	254.62
738.81	254.30
739.14	253.98
739.47	253.67
739.80	253.41
740.13	253.10
740.46	252.76
740.79	252.41
741.12	252.10
741.45	251.78
741.78	251.41
742.11	251.16
742.44	250.83
742.77	250.56
743.10	250.25
743.43	249.93
743.75	249.52
744.08	249.39
744.41	249.09
744.74	248.79
745.07	248.49
745.40	248.25
745.73	248.01
746.06	247.74
746.39	247.47
746.71	247.18
747.04	246.88
747.37	246.62
747.70	246.38
748.03	246.14
748.36	245.95
748.68	245.73
749.01	245.50
749.34	245.26
749.67	245.00
750.00	244.79
750.33	244.62
750.65	244.46
750.98	244.12
751.31	243.91
751.64	243.71
751.97	243.58
752.29	243.34
752.62	243.05
752.95	242.84
753.28	242.61
753.60	242.42
753.93	242.22
754.26	242.02
754.59	241.80
754.91	241.61
755.24	241.39
755.57	241.19
755.90	240.98
756.22	240.79
756.55	240.60
756.88	240.40
757.20	240.16
757.53	239.93
757.86	239.73
758.19	239.59
758.51	239.44
758.84	239.20
759.17	239.08
759.49	238.94
759.82	238.84
760.15	238.72
760.47	238.55
760.80	238.40
761.13	238.29
761.45	238.12
761.78	237.95
762.11	237.79
762.43	237.66
762.76	237.51
763.08	237.41
763.41	237.28
763.74	237.16
764.06	237.04
764.39	236.93
764.71	236.82
765.04	236.64
765.37	236.49
765.69	236.40
766.02	236.27
766.34	236.14
766.67	235.99
767.00	235.85
767.32	235.76
767.65	235.71
767.97	235.58
768.30	235.53
768.62	235.44
768.95	235.35
769.27	235.23
769.60	235.13
769.92	235.02
770.25	234.88
770.57	234.76
770.90	234.68
771.22	234.53
771.55	234.43
771.87	234.33
772.20	234.26
772.52	234.24
772.85	234.27
773.17	234.16
773.50	234.05
773.82	233.97
774.15	233.85
774.47	233.70
774.80	233.62
775.12	233.50
775.45	233.42
775.77	233.34
776.09	233.27
776.42	233.19
776.74	233.15
777.07	233.08
777.39	233.00
777.72	232.92
778.04	232.88
778.36	232.79
778.69	232.75
779.01	232.67
779.33	232.49
779.66	232.30
779.98	232.23
780.31	232.17
780.63	232.14
780.95	232.08
781.28	232.02
781.60	231.96
781.92	231.94
782.25	231.87
782.57	231.78
782.89	231.71
783.22	231.62
783.54	231.52
783.86	231.49
784.19	231.42
784.51	231.35
784.83	231.27
785.16	231.21
785.48	231.10
785.80	231.05
786.12	231.01
786.45	230.97
786.77	230.97
787.09	230.89
