SpectraSuite Data File
++++++++++++++++++++++++++++++++++++
Date: Fri Feb 01 16:28:31 EST 2013
User: group
Dark Spectrum Present: No
Reference Spectrum Present: No
Number of Sampled Component Spectra: 1
Spectrometers: USB2E7196
Integration Time (usec): 35000 (USB2E7196)
Spectra Averaged: 100 (USB2E7196)
Boxcar Smoothing: 10 (USB2E7196)
Correct for Electrical Dark: No (USB2E7196)
Strobe/Lamp Enabled: No (USB2E7196)
Correct for Detector Non-linearity: No (USB2E7196)
Correct for Stray Light: No (USB2E7196)
Number of Pixels in Processed Spectrum: 2048
>>>>>Begin Processed Spectral Data<<<<<
339.09	0.00
339.48	213.86
339.86	215.76
340.24	216.74
340.63	218.19
341.01	221.55
341.39	220.77
341.78	222.07
342.16	223.48
342.54	224.11
342.93	212.40
343.31	223.14
343.69	223.68
344.07	224.14
344.46	224.58
344.84	224.99
345.22	225.23
345.60	225.47
345.99	225.70
346.37	225.85
346.75	225.95
347.13	226.02
347.52	226.07
347.90	226.12
348.28	226.14
348.66	226.20
349.05	226.22
349.43	226.24
349.81	226.32
350.19	226.40
350.57	226.46
350.96	226.54
351.34	226.60
351.72	226.73
352.10	226.83
352.48	226.93
352.87	226.96
353.25	227.00
353.63	227.10
354.01	227.16
354.39	227.21
354.77	227.29
355.15	227.41
355.54	227.51
355.92	227.54
356.30	227.62
356.68	227.77
357.06	227.86
357.44	227.92
357.82	227.96
358.20	228.06
358.58	228.13
358.97	228.21
359.35	228.28
359.73	228.35
360.11	228.38
360.49	228.39
360.87	228.45
361.25	228.54
361.63	228.63
362.01	228.63
362.39	228.65
362.77	228.69
363.15	228.72
363.53	228.73
363.91	228.79
364.29	228.79
364.67	228.68
365.05	228.70
365.43	228.73
365.81	228.74
366.19	228.71
366.57	228.71
366.95	228.69
367.33	228.67
367.71	228.63
368.09	228.59
368.47	228.56
368.85	228.50
369.23	228.46
369.61	228.41
369.99	228.43
370.37	228.39
370.75	228.39
371.13	228.31
371.51	228.24
371.89	228.17
372.27	228.12
372.65	228.07
373.03	227.99
373.41	227.90
373.78	227.82
374.16	227.74
374.54	227.65
374.92	227.56
375.30	227.52
375.68	227.44
376.06	227.41
376.44	227.35
376.82	227.30
377.19	227.21
377.57	227.10
377.95	227.00
378.33	226.94
378.71	226.84
379.09	226.75
379.47	226.71
379.84	226.67
380.22	226.58
380.60	226.52
380.98	226.46
381.36	226.40
381.73	226.33
382.11	226.26
382.49	226.26
382.87	226.18
383.25	226.11
383.62	226.17
384.00	226.12
384.38	226.07
384.76	226.03
385.13	226.02
385.51	225.95
385.89	225.91
386.27	225.86
386.64	225.81
387.02	225.79
387.40	225.73
387.78	225.68
388.15	225.69
388.53	225.65
388.91	225.64
389.29	225.62
389.66	225.64
390.04	225.62
390.42	225.61
390.79	225.59
391.17	225.57
391.55	225.48
391.92	225.47
392.30	225.49
392.68	225.48
393.05	225.49
393.43	225.52
393.81	225.51
394.18	225.51
394.56	225.57
394.94	225.62
395.31	225.64
395.69	225.70
396.06	225.71
396.44	225.75
396.82	225.76
397.19	225.85
397.57	225.83
397.95	225.89
398.32	225.89
398.70	225.94
399.07	226.03
399.45	226.11
399.82	226.14
400.20	226.21
400.58	226.28
400.95	226.32
401.33	226.42
401.70	226.56
402.08	226.66
402.45	226.71
402.83	226.81
403.20	226.91
403.58	226.97
403.95	227.14
404.33	227.28
404.71	227.42
405.08	227.59
405.46	227.75
405.83	227.90
406.21	228.04
406.58	228.19
406.96	228.36
407.33	228.50
407.70	228.69
408.08	228.98
408.45	229.20
408.83	229.40
409.20	229.60
409.58	229.78
409.95	230.05
410.33	230.32
410.70	230.55
411.08	230.83
411.45	231.12
411.82	231.41
412.20	231.77
412.57	232.18
412.95	232.47
413.32	232.88
413.69	233.28
414.07	233.71
414.44	234.17
414.82	234.65
415.19	235.19
415.56	235.76
415.94	236.24
416.31	236.85
416.68	237.48
417.06	238.17
417.43	238.85
417.81	239.58
418.18	240.37
418.55	241.18
418.93	242.09
419.30	243.01
419.67	243.90
420.04	244.82
420.42	245.77
420.79	246.92
421.16	248.05
421.54	249.24
421.91	250.48
422.28	251.72
422.66	253.04
423.03	254.33
423.40	255.60
423.77	257.00
424.15	258.41
424.52	259.92
424.89	261.54
425.26	263.06
425.64	264.54
426.01	266.12
426.38	267.77
426.75	269.37
427.13	271.06
427.50	272.88
427.87	274.75
428.24	276.62
428.61	278.39
428.99	280.33
429.36	282.39
429.73	284.46
430.10	286.51
430.47	288.55
430.85	290.67
431.22	292.93
431.59	295.36
431.96	297.60
432.33	300.08
432.70	302.43
433.08	305.26
433.45	307.84
433.82	310.41
434.19	313.33
434.56	316.14
434.93	318.77
435.30	321.34
435.68	324.19
436.05	327.00
436.42	329.79
436.79	332.29
437.16	334.98
437.53	337.81
437.90	340.60
438.27	343.29
438.64	346.13
439.01	348.73
439.38	350.90
439.75	353.07
440.13	355.53
440.50	357.84
440.87	359.71
441.24	361.68
441.61	363.86
441.98	365.34
442.35	367.17
442.72	369.03
443.09	370.87
443.46	371.88
443.83	372.52
444.20	373.02
444.57	373.86
444.94	374.19
445.31	374.48
445.68	374.82
446.05	374.92
446.42	374.47
446.79	374.04
447.16	373.61
447.53	373.24
447.90	372.08
448.27	370.93
448.64	369.32
449.01	368.20
449.37	366.24
449.74	364.35
450.11	362.11
450.48	359.70
450.85	357.21
451.22	355.09
451.59	353.04
451.96	351.09
452.33	348.49
452.70	346.11
453.07	343.35
453.43	340.46
453.80	337.72
454.17	335.14
454.54	332.62
454.91	329.94
455.28	327.34
455.65	324.90
456.02	322.47
456.38	320.34
456.75	317.66
457.12	315.44
457.49	313.23
457.86	311.07
458.23	309.20
458.59	307.15
458.96	305.09
459.33	303.23
459.70	301.41
460.07	299.94
460.43	298.26
460.80	296.62
461.17	295.19
461.54	293.74
461.91	292.29
462.27	290.84
462.64	289.58
463.01	288.24
463.38	286.95
463.74	285.62
464.11	284.47
464.48	283.48
464.85	282.38
465.21	281.55
465.58	280.65
465.95	279.55
466.32	278.64
466.68	277.74
467.05	276.84
467.42	275.95
467.78	275.02
468.15	274.15
468.52	273.53
468.88	272.64
469.25	271.87
469.62	271.28
469.98	270.61
470.35	270.01
470.72	269.39
471.08	268.76
471.45	268.22
471.82	267.67
472.18	267.08
472.55	266.64
472.92	266.11
473.28	265.61
473.65	265.16
474.02	264.76
474.38	264.42
474.75	264.11
475.11	263.77
475.48	263.55
475.85	263.32
476.21	263.04
476.58	262.89
476.94	262.74
477.31	262.55
477.67	262.40
478.04	262.27
478.41	262.22
478.77	262.25
479.14	262.19
479.50	262.20
479.87	262.28
480.23	262.36
480.60	262.42
480.96	262.56
481.33	262.78
481.69	262.96
482.06	263.13
482.42	263.36
482.79	263.61
483.15	263.91
483.52	264.25
483.88	264.60
484.25	265.03
484.61	265.48
484.98	265.94
485.34	266.50
485.71	267.13
486.07	267.76
486.44	268.29
486.80	268.98
487.17	269.73
487.53	270.55
487.90	271.42
488.26	272.38
488.62	273.34
488.99	274.30
489.35	275.36
489.72	276.57
490.08	277.77
490.44	279.02
490.81	280.36
491.17	281.74
491.54	283.25
491.90	284.77
492.26	286.44
492.63	288.14
492.99	289.92
493.36	291.76
493.72	293.76
494.08	295.87
494.45	298.17
494.81	300.56
495.17	303.03
495.54	305.58
495.90	308.27
496.26	311.10
496.63	314.09
496.99	317.19
497.35	320.43
497.72	323.82
498.08	327.37
498.44	331.03
498.80	334.96
499.17	339.02
499.53	343.20
499.89	347.54
500.26	352.11
500.62	356.83
500.98	361.83
501.34	366.94
501.71	372.32
502.07	377.71
502.43	383.26
502.79	389.07
503.16	395.13
503.52	401.37
503.88	407.75
504.24	414.43
504.60	421.36
504.97	428.47
505.33	435.77
505.69	443.48
506.05	451.26
506.41	459.15
506.78	467.34
507.14	475.77
507.50	484.49
507.86	493.51
508.22	502.67
508.59	511.83
508.95	521.44
509.31	531.27
509.67	541.40
510.03	551.70
510.39	562.23
510.75	573.02
511.12	584.00
511.48	595.36
511.84	606.76
512.20	618.22
512.56	630.17
512.92	642.34
513.28	654.69
513.64	667.13
514.00	679.86
514.37	692.77
514.73	705.84
515.09	718.88
515.45	732.11
515.81	745.71
516.17	759.73
516.53	773.81
516.89	787.92
517.25	802.07
517.61	816.50
517.97	830.99
518.33	845.43
518.69	860.10
519.05	875.01
519.41	890.12
519.77	905.60
520.13	920.91
520.49	936.23
520.85	951.59
521.21	967.19
521.57	983.28
521.93	999.04
522.29	1015.38
522.65	1031.55
523.01	1047.69
523.37	1063.61
523.73	1079.73
524.09	1095.77
524.45	1111.97
524.81	1128.59
525.17	1145.27
525.53	1161.99
525.89	1178.70
526.25	1195.62
526.61	1211.93
526.97	1228.54
527.33	1244.90
527.68	1261.47
528.04	1277.91
528.40	1294.37
528.76	1311.36
529.12	1327.87
529.48	1344.58
529.84	1360.46
530.20	1377.00
530.56	1393.91
530.91	1411.20
531.27	1427.88
531.63	1444.29
531.99	1460.89
532.35	1476.66
532.71	1492.55
533.07	1508.71
533.42	1524.66
533.78	1540.53
534.14	1556.71
534.50	1572.02
534.86	1587.88
535.21	1603.18
535.57	1619.03
535.93	1634.41
536.29	1649.22
536.65	1664.15
537.00	1678.92
537.36	1694.16
537.72	1708.68
538.08	1723.00
538.44	1736.83
538.79	1750.64
539.15	1764.24
539.51	1777.89
539.87	1792.07
540.22	1805.70
540.58	1819.44
540.94	1832.67
541.29	1845.50
541.65	1858.08
542.01	1871.33
542.37	1883.49
542.72	1895.68
543.08	1907.49
543.44	1919.91
543.79	1931.03
544.15	1942.06
544.51	1953.53
544.87	1964.39
545.22	1975.08
545.58	1985.25
545.94	1994.80
546.29	2004.52
546.65	2014.30
547.01	2023.51
547.36	2032.21
547.72	2040.54
548.07	2048.32
548.43	2056.27
548.79	2064.24
549.14	2071.74
549.50	2078.77
549.86	2086.36
550.21	2093.69
550.57	2100.73
550.92	2107.08
551.28	2114.06
551.64	2120.97
551.99	2127.39
552.35	2133.56
552.70	2139.70
553.06	2145.77
553.41	2152.24
553.77	2158.27
554.13	2164.29
554.48	2170.33
554.84	2175.80
555.19	2181.12
555.55	2186.29
555.90	2190.88
556.26	2195.68
556.61	2200.39
556.97	2204.70
557.32	2208.90
557.68	2212.90
558.03	2217.24
558.39	2221.00
558.74	2225.68
559.10	2229.56
559.45	2233.33
559.81	2237.69
560.16	2241.46
560.52	2244.69
560.87	2248.01
561.23	2250.62
561.58	2253.52
561.94	2255.96
562.29	2258.35
562.64	2261.18
563.00	2263.76
563.35	2267.21
563.71	2270.30
564.06	2273.57
564.42	2276.56
564.77	2279.03
565.12	2281.38
565.48	2283.31
565.83	2285.22
566.19	2286.54
566.54	2287.69
566.89	2288.66
567.25	2289.19
567.60	2290.35
567.96	2291.99
568.31	2292.88
568.66	2294.20
569.02	2294.98
569.37	2295.50
569.72	2296.45
570.08	2296.41
570.43	2296.58
570.78	2296.07
571.14	2294.74
571.49	2293.30
571.84	2293.02
572.20	2292.04
572.55	2291.12
572.90	2289.52
573.26	2288.12
573.61	2286.51
573.96	2284.61
574.31	2281.71
574.67	2278.78
575.02	2275.45
575.37	2272.17
575.72	2268.44
576.08	2265.00
576.43	2261.65
576.78	2257.98
577.13	2254.93
577.49	2252.01
577.84	2248.56
578.19	2244.83
578.54	2241.29
578.90	2237.29
579.25	2231.76
579.60	2226.90
579.95	2221.82
580.30	2216.82
580.66	2211.88
581.01	2206.99
581.36	2202.17
581.71	2198.20
582.06	2193.75
582.42	2189.35
582.77	2184.12
583.12	2179.64
583.47	2175.02
583.82	2170.03
584.17	2164.97
584.53	2159.28
584.88	2153.65
585.23	2147.90
585.58	2142.58
585.93	2137.10
586.28	2132.30
586.63	2127.45
586.98	2122.49
587.34	2117.87
587.69	2113.08
588.04	2107.83
588.39	2102.23
588.74	2095.90
589.09	2089.78
589.44	2083.14
589.79	2077.19
590.14	2071.78
590.49	2065.12
590.84	2058.78
591.19	2052.84
591.54	2046.34
591.89	2039.23
592.25	2032.63
592.60	2025.49
592.95	2017.99
593.30	2010.63
593.65	2003.19
594.00	1996.15
594.35	1988.94
594.70	1981.06
595.05	1973.94
595.40	1966.75
595.75	1959.25
596.10	1953.05
596.45	1946.40
596.80	1940.29
597.15	1933.68
597.50	1926.49
597.85	1920.29
598.19	1913.60
598.54	1906.49
598.89	1899.85
599.24	1893.95
599.59	1887.12
599.94	1880.93
600.29	1874.62
600.64	1868.17
600.99	1860.73
601.34	1853.93
601.69	1846.93
602.04	1840.03
602.39	1832.77
602.74	1825.87
603.08	1819.16
603.43	1812.45
603.78	1805.12
604.13	1797.80
604.48	1790.48
604.83	1783.70
605.18	1776.69
605.53	1768.75
605.87	1760.87
606.22	1753.77
606.57	1745.93
606.92	1738.69
607.27	1731.52
607.62	1724.53
607.96	1717.21
608.31	1710.72
608.66	1703.14
609.01	1695.62
609.36	1688.08
609.70	1680.06
610.05	1672.13
610.40	1664.38
610.75	1656.10
611.10	1648.47
611.44	1640.29
611.79	1632.33
612.14	1623.64
612.49	1614.35
612.83	1606.11
613.18	1597.89
613.53	1589.62
613.88	1581.08
614.22	1572.79
614.57	1564.18
614.92	1556.16
615.27	1548.56
615.61	1540.04
615.96	1531.96
616.31	1524.33
616.65	1516.91
617.00	1509.31
617.35	1501.52
617.70	1493.21
618.04	1484.72
618.39	1476.51
618.74	1468.83
619.08	1460.69
619.43	1453.07
619.78	1446.32
620.12	1439.13
620.47	1431.75
620.82	1423.64
621.16	1416.19
621.51	1408.54
621.85	1400.93
622.20	1392.47
622.55	1384.15
622.89	1376.30
623.24	1368.70
623.59	1361.31
623.93	1353.79
624.28	1346.67
624.62	1339.21
624.97	1332.13
625.32	1325.32
625.66	1318.32
626.01	1311.15
626.35	1303.60
626.70	1295.89
627.04	1288.11
627.39	1280.27
627.73	1272.72
628.08	1265.87
628.43	1258.54
628.77	1251.21
629.12	1243.63
629.46	1236.45
629.81	1228.99
630.15	1221.82
630.50	1214.44
630.84	1206.26
631.19	1198.39
631.53	1190.72
631.88	1183.11
632.22	1175.37
632.57	1168.07
632.91	1160.49
633.26	1153.03
633.60	1145.59
633.95	1138.40
634.29	1131.39
634.64	1124.70
634.98	1117.29
635.32	1110.03
635.67	1103.49
636.01	1096.87
636.36	1090.12
636.70	1083.61
637.05	1077.11
637.39	1070.58
637.73	1064.02
638.08	1058.08
638.42	1052.05
638.77	1045.65
639.11	1039.05
639.45	1032.78
639.80	1026.06
640.14	1019.64
640.49	1013.11
640.83	1006.76
641.17	1000.47
641.52	994.02
641.86	987.52
642.20	981.72
642.55	975.48
642.89	968.88
643.23	962.35
643.58	956.50
643.92	950.38
644.26	944.25
644.61	938.26
644.95	932.21
645.29	925.62
645.64	918.86
645.98	912.50
646.32	906.65
646.66	900.52
647.01	894.75
647.35	888.95
647.69	883.07
648.04	877.63
648.38	871.93
648.72	865.98
649.06	859.97
649.41	854.16
649.75	848.26
650.09	842.44
650.43	836.62
650.78	830.48
651.12	824.40
651.46	818.66
651.80	812.89
652.14	807.56
652.49	802.24
652.83	797.08
653.17	791.37
653.51	785.64
653.85	780.30
654.20	774.65
654.54	768.68
654.88	762.98
655.22	757.07
655.56	751.33
655.90	745.94
656.25	740.64
656.59	735.24
656.93	730.10
657.27	724.92
657.61	719.46
657.95	714.36
658.29	709.33
658.64	704.11
658.98	698.76
659.32	693.25
659.66	687.97
660.00	682.63
660.34	677.70
660.68	672.86
661.02	667.81
661.36	663.13
661.70	658.67
662.05	654.27
662.39	649.97
662.73	645.56
663.07	641.15
663.41	636.74
663.75	632.19
664.09	627.58
664.43	623.12
664.77	619.04
665.11	614.81
665.45	610.61
665.79	606.54
666.13	602.47
666.47	598.38
666.81	594.29
667.15	590.18
667.49	586.29
667.83	582.46
668.17	578.52
668.51	574.40
668.85	570.36
669.19	566.59
669.53	562.72
669.87	558.81
670.21	555.11
670.55	551.48
670.89	548.15
671.23	544.76
671.57	541.21
671.91	537.62
672.25	534.08
672.58	530.58
672.92	527.19
673.26	524.00
673.60	520.84
673.94	517.68
674.28	514.78
674.62	511.85
674.96	508.71
675.30	505.78
675.64	502.85
675.97	500.03
676.31	497.05
676.65	494.11
676.99	491.43
677.33	488.55
677.67	485.70
678.01	482.57
678.34	479.53
678.68	476.68
679.02	473.87
679.36	471.13
679.70	468.41
680.04	465.65
680.37	462.76
680.71	459.94
681.05	457.29
681.39	454.53
681.73	451.85
682.06	449.34
682.40	446.81
682.74	444.29
683.08	441.79
683.42	439.25
683.75	436.75
684.09	434.14
684.43	431.62
684.77	429.17
685.10	426.84
685.44	424.61
685.78	422.34
686.12	420.08
686.45	417.79
686.79	415.44
687.13	413.27
687.46	411.08
687.80	408.93
688.14	406.72
688.48	404.68
688.81	402.40
689.15	400.22
689.49	398.01
689.82	395.93
690.16	393.80
690.50	391.84
690.83	389.86
691.17	387.90
691.51	386.08
691.84	384.22
692.18	382.31
692.52	380.26
692.85	378.35
693.19	376.49
693.52	374.68
693.86	372.91
694.20	371.13
694.53	369.32
694.87	367.50
695.21	365.73
695.54	363.91
695.88	362.27
696.21	360.57
696.55	358.92
696.88	357.26
697.22	355.57
697.56	353.93
697.89	352.30
698.23	350.70
698.56	349.06
698.90	347.48
699.23	345.83
699.57	344.31
699.90	342.78
700.24	341.24
700.58	339.68
700.91	338.19
701.25	336.72
701.58	335.38
701.92	334.03
702.25	332.63
702.59	331.27
702.92	329.92
703.26	328.64
703.59	327.43
703.93	326.23
704.26	325.10
704.60	323.80
704.93	322.54
705.26	321.32
705.60	320.14
705.93	318.96
706.27	317.91
706.60	316.82
706.94	315.72
707.27	314.56
707.61	313.54
707.94	312.52
708.27	311.41
708.61	310.31
708.94	309.28
709.28	308.32
709.61	307.34
709.94	306.36
710.28	305.30
710.61	304.28
710.95	303.20
711.28	302.25
711.61	301.29
711.95	300.38
712.28	299.40
712.61	298.40
712.95	297.48
713.28	296.64
713.61	295.74
713.95	294.87
714.28	294.05
714.61	293.13
714.95	292.25
715.28	291.36
715.61	290.49
715.95	289.62
716.28	288.76
716.61	287.91
716.95	287.11
717.28	286.36
717.61	285.60
717.94	284.86
718.28	284.00
718.61	283.26
718.94	282.56
719.27	281.91
719.61	281.27
719.94	280.60
720.27	279.83
720.60	279.14
720.94	278.51
721.27	277.90
721.60	277.31
721.93	276.74
722.27	276.21
722.60	275.67
722.93	275.11
723.26	274.58
723.59	274.00
723.93	273.45
724.26	272.89
724.59	272.33
724.92	271.77
725.25	271.28
725.59	270.73
725.92	270.23
726.25	269.68
726.58	269.21
726.91	268.70
727.24	268.26
727.57	267.85
727.91	267.31
728.24	266.87
728.57	266.38
728.90	265.97
729.23	265.49
729.56	265.08
729.89	264.61
730.22	264.13
730.55	263.72
730.89	263.24
731.22	262.81
731.55	262.35
731.88	261.98
732.21	261.57
732.54	261.13
732.87	260.70
733.20	260.33
733.53	259.90
733.86	259.54
734.19	259.16
734.52	258.76
734.85	258.47
735.18	258.03
735.51	257.70
735.84	257.29
736.17	256.94
736.50	256.53
736.83	256.31
737.16	255.97
737.49	255.58
737.82	255.22
738.15	254.91
738.48	254.60
738.81	254.25
739.14	253.93
739.47	253.66
739.80	253.38
740.13	253.07
740.46	252.77
740.79	252.44
741.12	252.09
741.45	251.78
741.78	251.41
742.11	251.14
742.44	250.81
742.77	250.51
743.10	250.18
743.43	249.85
743.75	249.48
744.08	249.32
744.41	249.05
744.74	248.81
745.07	248.50
745.40	248.26
745.73	248.01
746.06	247.70
746.39	247.44
746.71	247.15
747.04	246.88
747.37	246.64
747.70	246.38
748.03	246.15
748.36	245.90
748.68	245.69
749.01	245.42
749.34	245.20
749.67	244.98
750.00	244.79
750.33	244.64
750.65	244.39
750.98	244.03
751.31	243.82
751.64	243.60
751.97	243.44
752.29	243.22
752.62	242.96
752.95	242.76
753.28	242.55
753.60	242.34
753.93	242.16
754.26	241.92
754.59	241.69
754.91	241.46
755.24	241.27
755.57	241.05
755.90	240.87
756.22	240.65
756.55	240.45
756.88	240.27
757.20	240.03
757.53	239.83
757.86	239.69
758.19	239.52
758.51	239.36
758.84	239.15
759.17	238.96
759.49	238.80
759.82	238.68
760.15	238.50
760.47	238.34
760.80	238.17
761.13	238.07
761.45	237.93
761.78	237.80
762.11	237.63
762.43	237.47
762.76	237.35
763.08	237.24
763.41	237.10
763.74	236.92
764.06	236.77
764.39	236.67
764.71	236.51
765.04	236.35
765.37	236.22
765.69	236.07
766.02	235.96
766.34	235.83
766.67	235.72
767.00	235.62
767.32	235.58
767.65	235.56
767.97	235.42
768.30	235.28
768.62	235.19
768.95	235.11
769.27	235.01
769.60	234.93
769.92	234.80
770.25	234.66
770.57	234.52
770.90	234.45
771.22	234.32
771.55	234.25
771.87	234.19
772.20	234.08
772.52	234.07
772.85	234.09
773.17	234.04
773.50	233.93
773.82	233.84
774.15	233.67
774.47	233.48
774.80	233.38
775.12	233.33
775.45	233.22
775.77	233.09
776.09	233.01
776.42	232.90
776.74	232.85
777.07	232.77
777.39	232.73
777.72	232.65
778.04	232.61
778.36	232.50
778.69	232.43
779.01	232.37
779.33	232.23
779.66	232.04
779.98	231.96
780.31	231.88
780.63	231.87
780.95	231.83
781.28	231.77
781.60	231.69
781.92	231.61
782.25	231.56
782.57	231.54
782.89	231.49
783.22	231.40
783.54	231.32
783.86	231.31
784.19	231.27
784.51	231.23
784.83	231.16
785.16	231.13
785.48	231.04
785.80	230.98
786.12	230.91
786.45	230.85
786.77	230.81
787.09	230.74
