SpectraSuite Data File
++++++++++++++++++++++++++++++++++++
Date: Fri Feb 01 17:19:16 EST 2013
User: group
Dark Spectrum Present: No
Reference Spectrum Present: No
Number of Sampled Component Spectra: 1
Spectrometers: USB2E7196
Integration Time (usec): 35000 (USB2E7196)
Spectra Averaged: 100 (USB2E7196)
Boxcar Smoothing: 10 (USB2E7196)
Correct for Electrical Dark: No (USB2E7196)
Strobe/Lamp Enabled: No (USB2E7196)
Correct for Detector Non-linearity: No (USB2E7196)
Correct for Stray Light: No (USB2E7196)
Number of Pixels in Processed Spectrum: 2048
>>>>>Begin Processed Spectral Data<<<<<
339.09	0.00
339.48	212.57
339.86	214.51
340.24	215.49
340.63	217.51
341.01	220.33
341.39	220.03
341.78	221.25
342.16	221.79
342.54	222.10
342.93	211.37
343.31	222.03
343.69	222.59
344.07	223.06
344.46	223.51
344.84	223.85
345.22	224.07
345.60	224.30
345.99	224.45
346.37	224.57
346.75	224.72
347.13	224.78
347.52	224.82
347.90	224.88
348.28	224.93
348.66	225.01
349.05	224.99
349.43	225.05
349.81	225.07
350.19	225.12
350.57	225.17
350.96	225.22
351.34	225.34
351.72	225.41
352.10	225.51
352.48	225.61
352.87	225.67
353.25	225.76
353.63	225.80
354.01	225.89
354.39	225.98
354.77	226.05
355.15	226.14
355.54	226.17
355.92	226.22
356.30	226.30
356.68	226.39
357.06	226.46
357.44	226.51
357.82	226.59
358.20	226.62
358.58	226.71
358.97	226.76
359.35	226.83
359.73	226.94
360.11	226.99
360.49	227.01
360.87	227.08
361.25	227.14
361.63	227.26
362.01	227.32
362.39	227.40
362.77	227.42
363.15	227.47
363.53	227.54
363.91	227.55
364.29	227.55
364.67	227.51
365.05	227.52
365.43	227.57
365.81	227.58
366.19	227.64
366.57	227.70
366.95	227.74
367.33	227.71
367.71	227.67
368.09	227.69
368.47	227.69
368.85	227.67
369.23	227.63
369.61	227.57
369.99	227.58
370.37	227.54
370.75	227.56
371.13	227.46
371.51	227.41
371.89	227.39
372.27	227.34
372.65	227.31
373.03	227.26
373.41	227.17
373.78	227.13
374.16	227.00
374.54	226.87
374.92	226.80
375.30	226.76
375.68	226.68
376.06	226.60
376.44	226.51
376.82	226.44
377.19	226.39
377.57	226.29
377.95	226.19
378.33	226.13
378.71	226.02
379.09	226.00
379.47	225.96
379.84	225.88
380.22	225.80
380.60	225.74
380.98	225.69
381.36	225.64
381.73	225.56
382.11	225.51
382.49	225.47
382.87	225.35
383.25	225.28
383.62	225.33
384.00	225.23
384.38	225.19
384.76	225.13
385.13	225.11
385.51	225.09
385.89	225.03
386.27	224.98
386.64	224.97
387.02	224.88
387.40	224.84
387.78	224.83
388.15	224.80
388.53	224.72
388.91	224.68
389.29	224.62
389.66	224.61
390.04	224.58
390.42	224.58
390.79	224.60
391.17	224.56
391.55	224.45
391.92	224.43
392.30	224.44
392.68	224.45
393.05	224.44
393.43	224.45
393.81	224.46
394.18	224.44
394.56	224.43
394.94	224.49
395.31	224.45
395.69	224.49
396.06	224.57
396.44	224.61
396.82	224.67
397.19	224.79
397.57	224.84
397.95	224.95
398.32	224.93
398.70	225.00
399.07	225.11
399.45	225.17
399.82	225.24
400.20	225.29
400.58	225.34
400.95	225.37
401.33	225.47
401.70	225.61
402.08	225.73
402.45	225.80
402.83	225.89
403.20	225.99
403.58	226.09
403.95	226.15
404.33	226.28
404.71	226.40
405.08	226.52
405.46	226.62
405.83	226.76
406.21	226.92
406.58	227.06
406.96	227.21
407.33	227.39
407.70	227.60
408.08	227.86
408.45	228.08
408.83	228.32
409.20	228.53
409.58	228.71
409.95	228.98
410.33	229.24
410.70	229.52
411.08	229.83
411.45	230.12
411.82	230.46
412.20	230.83
412.57	231.23
412.95	231.57
413.32	232.00
413.69	232.40
414.07	232.87
414.44	233.35
414.82	233.83
415.19	234.38
415.56	234.94
415.94	235.51
416.31	236.19
416.68	236.86
417.06	237.57
417.43	238.29
417.81	239.04
418.18	239.87
418.55	240.70
418.93	241.61
419.30	242.56
419.67	243.51
420.04	244.45
420.42	245.46
420.79	246.67
421.16	247.85
421.54	249.07
421.91	250.31
422.28	251.59
422.66	252.96
423.03	254.31
423.40	255.69
423.77	257.14
424.15	258.60
424.52	260.10
424.89	261.77
425.26	263.37
425.64	264.89
426.01	266.53
426.38	268.25
426.75	269.97
427.13	271.72
427.50	273.61
427.87	275.58
428.24	277.47
428.61	279.24
428.99	281.24
429.36	283.39
429.73	285.52
430.10	287.62
430.47	289.76
430.85	291.93
431.22	294.19
431.59	296.65
431.96	298.92
432.33	301.51
432.70	303.95
433.08	306.83
433.45	309.56
433.82	312.20
434.19	315.20
434.56	318.08
434.93	320.81
435.30	323.50
435.68	326.49
436.05	329.41
436.42	332.27
436.79	334.86
437.16	337.65
437.53	340.55
437.90	343.42
438.27	346.24
438.64	349.14
439.01	351.82
439.38	354.08
439.75	356.35
440.13	358.87
440.50	361.30
440.87	363.21
441.24	365.22
441.61	367.51
441.98	369.03
442.35	370.87
442.72	372.82
443.09	374.71
443.46	375.71
443.83	376.33
444.20	376.94
444.57	377.78
444.94	378.12
445.31	378.48
445.68	378.90
446.05	378.93
446.42	378.60
446.79	378.20
447.16	377.75
447.53	377.40
447.90	376.26
448.27	375.05
448.64	373.41
449.01	372.24
449.37	370.17
449.74	368.20
450.11	365.98
450.48	363.47
450.85	360.85
451.22	358.67
451.59	356.62
451.96	354.61
452.33	351.98
452.70	349.54
453.07	346.65
453.43	343.67
453.80	340.83
454.17	338.07
454.54	335.44
454.91	332.70
455.28	329.97
455.65	327.40
456.02	324.91
456.38	322.73
456.75	319.97
457.12	317.67
457.49	315.42
457.86	313.18
458.23	311.27
458.59	309.14
458.96	307.00
459.33	305.07
459.70	303.12
460.07	301.56
460.43	299.82
460.80	298.16
461.17	296.69
461.54	295.17
461.91	293.73
462.27	292.24
462.64	290.97
463.01	289.58
463.38	288.27
463.74	286.85
464.11	285.67
464.48	284.64
464.85	283.52
465.21	282.60
465.58	281.58
465.95	280.43
466.32	279.53
466.68	278.59
467.05	277.71
467.42	276.81
467.78	275.86
468.15	274.92
468.52	274.21
468.88	273.30
469.25	272.53
469.62	271.85
469.98	271.19
470.35	270.54
470.72	269.90
471.08	269.20
471.45	268.65
471.82	268.07
472.18	267.43
472.55	266.95
472.92	266.40
473.28	265.98
473.65	265.52
474.02	265.06
474.38	264.67
474.75	264.35
475.11	264.01
475.48	263.72
475.85	263.51
476.21	263.34
476.58	263.16
476.94	262.99
477.31	262.82
477.67	262.64
478.04	262.52
478.41	262.51
478.77	262.58
479.14	262.53
479.50	262.54
479.87	262.64
480.23	262.73
480.60	262.82
480.96	262.86
481.33	263.09
481.69	263.32
482.06	263.54
482.42	263.74
482.79	263.98
483.15	264.30
483.52	264.64
483.88	264.93
484.25	265.30
484.61	265.75
484.98	266.21
485.34	266.79
485.71	267.36
486.07	267.91
486.44	268.49
486.80	269.18
487.17	269.90
487.53	270.70
487.90	271.54
488.26	272.49
488.62	273.53
488.99	274.48
489.35	275.50
489.72	276.60
490.08	277.78
490.44	279.02
490.81	280.34
491.17	281.68
491.54	283.18
491.90	284.74
492.26	286.39
492.63	288.08
492.99	289.80
493.36	291.69
493.72	293.75
494.08	295.86
494.45	298.05
494.81	300.41
495.17	302.85
495.54	305.41
495.90	308.06
496.26	310.85
496.63	313.80
496.99	316.85
497.35	320.14
497.72	323.53
498.08	327.00
498.44	330.66
498.80	334.63
499.17	338.61
499.53	342.71
499.89	347.03
500.26	351.53
500.62	356.21
500.98	361.11
501.34	366.10
501.71	371.33
502.07	376.75
502.43	382.27
502.79	387.96
503.16	393.94
503.52	400.15
503.88	406.48
504.24	413.02
504.60	419.89
504.97	426.87
505.33	434.09
505.69	441.78
506.05	449.49
506.41	457.25
506.78	465.28
507.14	473.65
507.50	482.24
507.86	491.17
508.22	500.28
508.59	509.42
508.95	518.90
509.31	528.56
509.67	538.49
510.03	548.68
510.39	559.11
510.75	569.78
511.12	580.52
511.48	591.64
511.84	602.99
512.20	614.25
512.56	626.06
512.92	638.04
513.28	650.11
513.64	662.33
514.00	674.81
514.37	687.60
514.73	700.45
515.09	713.14
515.45	726.12
515.81	739.41
516.17	753.08
516.53	766.99
516.89	780.92
517.25	794.76
517.61	808.87
517.97	823.03
518.33	837.17
518.69	851.66
519.05	866.34
519.41	881.15
519.77	896.42
520.13	911.54
520.49	926.67
520.85	941.68
521.21	956.95
521.57	972.81
521.93	988.18
522.29	1004.13
522.65	1020.09
523.01	1035.87
523.37	1051.63
523.73	1067.40
524.09	1083.05
524.45	1098.89
524.81	1115.22
525.17	1131.55
525.53	1148.07
525.89	1164.63
526.25	1181.16
526.61	1197.09
526.97	1213.44
527.33	1229.52
527.68	1245.69
528.04	1261.70
528.40	1277.93
528.76	1294.64
529.12	1310.91
529.48	1327.47
529.84	1343.21
530.20	1359.60
530.56	1376.23
530.91	1393.18
531.27	1409.67
531.63	1425.82
531.99	1442.10
532.35	1457.80
532.71	1473.56
533.07	1489.59
533.42	1505.15
533.78	1520.83
534.14	1536.90
534.50	1552.00
534.86	1567.57
535.21	1582.56
535.57	1598.38
535.93	1613.71
536.29	1628.43
536.65	1643.20
537.00	1657.66
537.36	1672.76
537.72	1686.93
538.08	1701.26
538.44	1714.87
538.79	1728.60
539.15	1742.01
539.51	1755.62
539.87	1769.74
540.22	1783.26
540.58	1796.73
540.94	1809.67
541.29	1822.27
541.65	1834.81
542.01	1847.88
542.37	1860.24
542.72	1872.49
543.08	1884.15
543.44	1896.48
543.79	1907.73
544.15	1918.74
544.51	1930.31
544.87	1941.23
545.22	1952.10
545.58	1962.46
545.94	1972.27
546.29	1982.10
546.65	1992.15
547.01	2001.46
547.36	2010.27
547.72	2018.91
548.07	2027.07
548.43	2035.49
548.79	2043.59
549.14	2051.50
549.50	2058.81
549.86	2066.51
550.21	2074.00
550.57	2081.25
550.92	2088.01
551.28	2095.02
551.64	2102.25
551.99	2108.90
552.35	2115.30
552.70	2121.62
553.06	2127.75
553.41	2134.37
553.77	2140.52
554.13	2146.78
554.48	2153.14
554.84	2159.08
555.19	2164.47
555.55	2169.94
555.90	2174.68
556.26	2179.91
556.61	2184.55
556.97	2189.37
557.32	2193.79
557.68	2198.20
558.03	2202.64
558.39	2206.54
558.74	2211.53
559.10	2215.58
559.45	2219.63
559.81	2223.96
560.16	2228.04
560.52	2231.50
560.87	2235.17
561.23	2238.20
561.58	2241.28
561.94	2244.15
562.29	2246.44
562.64	2249.59
563.00	2252.20
563.35	2256.04
563.71	2259.58
564.06	2263.08
564.42	2266.33
564.77	2269.33
565.12	2272.13
565.48	2274.64
565.83	2276.99
566.19	2278.75
566.54	2279.98
566.89	2281.50
567.25	2282.61
567.60	2284.26
567.96	2286.28
568.31	2287.28
568.66	2288.80
569.02	2289.76
569.37	2290.52
569.72	2291.90
570.08	2292.45
570.43	2292.85
570.78	2292.76
571.14	2291.62
571.49	2290.63
571.84	2290.42
572.20	2289.51
572.55	2288.72
572.90	2287.34
573.26	2286.19
573.61	2284.56
573.96	2283.29
574.31	2280.57
574.67	2278.00
575.02	2274.80
575.37	2271.57
575.72	2268.27
576.08	2265.06
576.43	2261.91
576.78	2258.65
577.13	2255.63
577.49	2252.68
577.84	2249.54
578.19	2245.96
578.54	2242.69
578.90	2239.09
579.25	2233.85
579.60	2229.33
579.95	2224.61
580.30	2219.85
580.66	2214.93
581.01	2210.35
581.36	2205.73
581.71	2201.99
582.06	2197.89
582.42	2193.71
582.77	2188.86
583.12	2184.63
583.47	2180.49
583.82	2176.06
584.17	2171.01
584.53	2165.96
584.88	2160.57
585.23	2155.22
585.58	2149.96
585.93	2144.65
586.28	2139.82
586.63	2135.13
586.98	2130.19
587.34	2125.60
587.69	2120.89
588.04	2115.96
588.39	2110.55
588.74	2104.25
589.09	2098.21
589.44	2091.54
589.79	2085.52
590.14	2080.08
590.49	2073.56
590.84	2067.06
591.19	2061.05
591.54	2054.79
591.89	2047.71
592.25	2041.23
592.60	2034.15
592.95	2026.91
593.30	2019.82
593.65	2012.39
594.00	2005.34
594.35	1998.24
594.70	1990.39
595.05	1983.52
595.40	1976.35
595.75	1968.96
596.10	1962.99
596.45	1956.46
596.80	1950.39
597.15	1944.13
597.50	1937.39
597.85	1931.06
598.19	1924.71
598.54	1917.96
598.89	1911.30
599.24	1905.32
599.59	1898.83
599.94	1892.59
600.29	1886.30
600.64	1879.51
600.99	1872.23
601.34	1865.71
601.69	1858.72
602.04	1852.00
602.39	1844.56
602.74	1837.74
603.08	1831.02
603.43	1824.11
603.78	1816.87
604.13	1809.65
604.48	1802.32
604.83	1795.43
605.18	1788.56
605.53	1780.74
605.87	1772.73
606.22	1765.55
606.57	1757.59
606.92	1750.08
607.27	1742.93
607.62	1736.06
607.96	1729.02
608.31	1722.60
608.66	1715.03
609.01	1707.59
609.36	1700.15
609.70	1692.21
610.05	1684.23
610.40	1676.59
610.75	1668.33
611.10	1660.73
611.44	1652.26
611.79	1644.32
612.14	1635.52
612.49	1626.40
612.83	1617.81
613.18	1609.48
613.53	1601.29
613.88	1592.69
614.22	1584.38
614.57	1575.68
614.92	1567.55
615.27	1560.04
615.61	1551.50
615.96	1543.31
616.31	1535.38
616.65	1527.62
617.00	1519.98
617.35	1512.20
617.70	1503.81
618.04	1495.31
618.39	1486.75
618.74	1479.16
619.08	1470.61
619.43	1463.09
619.78	1455.98
620.12	1448.78
620.47	1441.21
620.82	1432.98
621.16	1425.46
621.51	1417.59
621.85	1409.94
622.20	1401.38
622.55	1392.83
622.89	1384.95
623.24	1377.14
623.59	1369.67
623.93	1362.26
624.28	1354.91
624.62	1347.24
624.97	1339.96
625.32	1333.09
625.66	1325.98
626.01	1318.74
626.35	1311.43
626.70	1303.44
627.04	1295.74
627.39	1287.73
627.73	1280.20
628.08	1273.14
628.43	1265.90
628.77	1258.66
629.12	1251.06
629.46	1243.72
629.81	1236.05
630.15	1228.59
630.50	1221.20
630.84	1213.05
631.19	1204.94
631.53	1197.33
631.88	1189.79
632.22	1182.18
632.57	1174.71
632.91	1167.10
633.26	1159.64
633.60	1151.99
633.95	1144.70
634.29	1137.55
634.64	1130.90
634.98	1123.55
635.32	1116.39
635.67	1109.66
636.01	1102.92
636.36	1096.11
636.70	1089.53
637.05	1082.96
637.39	1076.56
637.73	1069.97
638.08	1063.97
638.42	1057.91
638.77	1051.41
639.11	1044.76
639.45	1038.31
639.80	1031.59
640.14	1025.22
640.49	1018.59
640.83	1012.32
641.17	1006.18
641.52	999.68
641.86	993.06
642.20	987.18
642.55	980.67
642.89	974.09
643.23	967.32
643.58	961.46
643.92	955.23
644.26	949.19
644.61	943.03
644.95	936.88
645.29	930.29
645.64	923.53
645.98	917.16
646.32	911.21
646.66	905.11
647.01	899.38
647.35	893.58
647.69	887.67
648.04	882.11
648.38	876.26
648.72	870.35
649.06	864.44
649.41	858.47
649.75	852.59
650.09	846.68
650.43	841.00
650.78	834.81
651.12	828.86
651.46	823.11
651.80	817.41
652.14	812.03
652.49	806.60
652.83	801.39
653.17	795.78
653.51	790.09
653.85	784.60
654.20	778.91
654.54	772.94
654.88	767.18
655.22	761.18
655.56	755.50
655.90	749.98
656.25	744.61
656.59	739.22
656.93	734.12
657.27	728.88
657.61	723.40
657.95	718.29
658.29	713.11
658.64	707.78
658.98	702.34
659.32	696.80
659.66	691.57
660.00	686.28
660.34	681.24
660.68	676.28
661.02	671.25
661.36	666.49
661.70	661.94
662.05	657.56
662.39	653.30
662.73	648.74
663.07	644.33
663.41	639.88
663.75	635.37
664.09	630.69
664.43	626.31
664.77	622.17
665.11	617.84
665.45	613.67
665.79	609.64
666.13	605.54
666.47	601.41
666.81	597.27
667.15	593.04
667.49	589.10
667.83	585.17
668.17	581.19
668.51	577.09
668.85	573.06
669.19	569.15
669.53	565.25
669.87	561.42
670.21	557.69
670.55	553.98
670.89	550.50
671.23	547.13
671.57	543.54
671.91	539.98
672.25	536.47
672.58	532.92
672.92	529.39
673.26	526.18
673.60	523.02
673.94	519.88
674.28	516.94
674.62	513.95
674.96	510.90
675.30	508.01
675.64	505.09
675.97	502.15
676.31	499.27
676.65	496.29
676.99	493.56
677.33	490.66
677.67	487.89
678.01	484.87
678.34	481.86
678.68	478.95
679.02	476.07
679.36	473.30
679.70	470.55
680.04	467.81
680.37	464.96
680.71	462.13
681.05	459.55
681.39	456.81
681.73	454.13
682.06	451.59
682.40	448.95
682.74	446.37
683.08	443.88
683.42	441.22
683.75	438.75
684.09	436.06
684.43	433.56
684.77	431.07
685.10	428.63
685.44	426.31
685.78	424.03
686.12	421.79
686.45	419.47
686.79	417.23
687.13	414.99
687.46	412.77
687.80	410.57
688.14	408.26
688.48	406.17
688.81	403.92
689.15	401.73
689.49	399.53
689.82	397.43
690.16	395.29
690.50	393.30
690.83	391.35
691.17	389.38
691.51	387.46
691.84	385.57
692.18	383.69
692.52	381.71
692.85	379.77
693.19	377.89
693.52	375.97
693.86	374.07
694.20	372.26
694.53	370.47
694.87	368.64
695.21	366.83
695.54	365.01
695.88	363.24
696.21	361.48
696.55	359.84
696.88	358.04
697.22	356.34
697.56	354.70
697.89	353.01
698.23	351.42
698.56	349.76
698.90	348.13
699.23	346.44
699.57	344.83
699.90	343.24
700.24	341.66
700.58	340.14
700.91	338.68
701.25	337.21
701.58	335.82
701.92	334.39
702.25	333.03
702.59	331.61
702.92	330.25
703.26	328.92
703.59	327.62
703.93	326.49
704.26	325.27
704.60	323.99
704.93	322.73
705.26	321.42
705.60	320.23
705.93	319.02
706.27	318.00
706.60	316.99
706.94	315.86
707.27	314.73
707.61	313.64
707.94	312.58
708.27	311.45
708.61	310.34
708.94	309.33
709.28	308.28
709.61	307.32
709.94	306.37
710.28	305.34
710.61	304.31
710.95	303.22
711.28	302.29
711.61	301.32
711.95	300.37
712.28	299.45
712.61	298.45
712.95	297.52
713.28	296.59
713.61	295.65
713.95	294.78
714.28	293.93
714.61	293.08
714.95	292.17
715.28	291.32
715.61	290.46
715.95	289.59
716.28	288.74
716.61	287.88
716.95	287.00
717.28	286.26
717.61	285.47
717.94	284.73
718.28	283.89
718.61	283.12
718.94	282.41
719.27	281.73
719.61	281.06
719.94	280.39
720.27	279.68
720.60	278.96
720.94	278.33
721.27	277.76
721.60	277.16
721.93	276.60
722.27	276.07
722.60	275.52
722.93	274.94
723.26	274.37
723.59	273.82
723.93	273.31
724.26	272.75
724.59	272.23
724.92	271.68
725.25	271.19
725.59	270.73
725.92	270.22
726.25	269.69
726.58	269.20
726.91	268.69
727.24	268.20
727.57	267.78
727.91	267.25
728.24	266.75
728.57	266.24
728.90	265.77
729.23	265.26
729.56	264.81
729.89	264.33
730.22	263.88
730.55	263.40
730.89	262.94
731.22	262.50
731.55	262.01
731.88	261.57
732.21	261.18
732.54	260.72
732.87	260.27
733.20	259.86
733.53	259.46
733.86	259.10
734.19	258.68
734.52	258.27
734.85	257.96
735.18	257.55
735.51	257.17
735.84	256.79
736.17	256.43
736.50	256.02
736.83	255.78
737.16	255.47
737.49	255.13
737.82	254.79
738.15	254.43
738.48	254.08
738.81	253.77
739.14	253.39
739.47	253.04
739.80	252.72
740.13	252.40
740.46	252.05
740.79	251.71
741.12	251.40
741.45	251.08
741.78	250.73
742.11	250.41
742.44	250.10
742.77	249.78
743.10	249.45
743.43	249.14
743.75	248.73
744.08	248.51
744.41	248.23
744.74	247.95
745.07	247.66
745.40	247.41
745.73	247.17
746.06	246.87
746.39	246.61
746.71	246.33
747.04	246.03
747.37	245.76
747.70	245.51
748.03	245.25
748.36	244.99
748.68	244.70
749.01	244.38
749.34	244.15
749.67	243.92
750.00	243.68
750.33	243.47
750.65	243.24
750.98	242.89
751.31	242.65
751.64	242.39
751.97	242.24
752.29	241.98
752.62	241.68
752.95	241.47
753.28	241.24
753.60	241.04
753.93	240.88
754.26	240.69
754.59	240.46
754.91	240.23
755.24	240.02
755.57	239.84
755.90	239.68
756.22	239.43
756.55	239.21
756.88	239.00
757.20	238.80
757.53	238.61
757.86	238.47
758.19	238.27
758.51	238.14
758.84	237.93
759.17	237.78
759.49	237.61
759.82	237.48
760.15	237.33
760.47	237.14
760.80	236.98
761.13	236.84
761.45	236.68
761.78	236.54
762.11	236.42
762.43	236.26
762.76	236.14
763.08	236.08
763.41	235.99
763.74	235.86
764.06	235.70
764.39	235.55
764.71	235.41
765.04	235.29
765.37	235.14
765.69	235.02
766.02	234.93
766.34	234.80
766.67	234.63
767.00	234.56
767.32	234.50
767.65	234.47
767.97	234.37
768.30	234.25
768.62	234.17
768.95	234.07
769.27	234.00
769.60	233.88
769.92	233.76
770.25	233.63
770.57	233.56
770.90	233.49
771.22	233.43
771.55	233.32
771.87	233.27
772.20	233.19
772.52	233.20
772.85	233.24
773.17	233.18
773.50	233.10
773.82	233.00
774.15	232.90
774.47	232.71
774.80	232.60
775.12	232.56
775.45	232.51
775.77	232.42
776.09	232.33
776.42	232.27
776.74	232.22
777.07	232.13
777.39	232.03
777.72	231.97
778.04	231.91
778.36	231.85
778.69	231.78
779.01	231.74
779.33	231.58
779.66	231.39
779.98	231.35
780.31	231.29
780.63	231.27
780.95	231.21
781.28	231.17
781.60	231.10
781.92	231.00
782.25	230.90
782.57	230.87
782.89	230.82
783.22	230.77
783.54	230.68
783.86	230.64
784.19	230.59
784.51	230.57
784.83	230.50
785.16	230.43
785.48	230.34
785.80	230.26
786.12	230.18
786.45	230.12
786.77	230.06
787.09	230.00
