SpectraSuite Data File
++++++++++++++++++++++++++++++++++++
Date: Fri Feb 01 15:04:32 EST 2013
User: group
Dark Spectrum Present: No
Reference Spectrum Present: No
Number of Sampled Component Spectra: 1
Spectrometers: USB2E7196
Integration Time (usec): 35000 (USB2E7196)
Spectra Averaged: 100 (USB2E7196)
Boxcar Smoothing: 10 (USB2E7196)
Correct for Electrical Dark: No (USB2E7196)
Strobe/Lamp Enabled: No (USB2E7196)
Correct for Detector Non-linearity: No (USB2E7196)
Correct for Stray Light: No (USB2E7196)
Number of Pixels in Processed Spectrum: 2048
>>>>>Begin Processed Spectral Data<<<<<
339.09	0.00
339.48	215.77
339.86	215.97
340.24	218.31
340.63	219.63
341.01	222.40
341.39	222.10
341.78	223.34
342.16	224.84
342.54	224.64
342.93	213.45
343.31	224.25
343.69	224.76
344.07	225.23
344.46	225.64
344.84	226.00
345.22	226.21
345.60	226.42
345.99	226.61
346.37	226.72
346.75	226.86
347.13	226.95
347.52	227.02
347.90	227.12
348.28	227.14
348.66	227.19
349.05	227.22
349.43	227.26
349.81	227.30
350.19	227.33
350.57	227.41
350.96	227.50
351.34	227.58
351.72	227.68
352.10	227.81
352.48	227.90
352.87	227.96
353.25	228.07
353.63	228.18
354.01	228.24
354.39	228.34
354.77	228.39
355.15	228.50
355.54	228.56
355.92	228.60
356.30	228.64
356.68	228.77
357.06	228.82
357.44	228.89
357.82	228.95
358.20	229.03
358.58	229.07
358.97	229.13
359.35	229.21
359.73	229.27
360.11	229.29
360.49	229.35
360.87	229.40
361.25	229.45
361.63	229.52
362.01	229.56
362.39	229.57
362.77	229.61
363.15	229.63
363.53	229.65
363.91	229.66
364.29	229.72
364.67	229.63
365.05	229.64
365.43	229.65
365.81	229.66
366.19	229.71
366.57	229.75
366.95	229.74
367.33	229.68
367.71	229.68
368.09	229.72
368.47	229.68
368.85	229.65
369.23	229.61
369.61	229.52
369.99	229.53
370.37	229.50
370.75	229.50
371.13	229.40
371.51	229.34
371.89	229.28
372.27	229.21
372.65	229.13
373.03	229.06
373.41	228.99
373.78	228.93
374.16	228.80
374.54	228.69
374.92	228.60
375.30	228.52
375.68	228.41
376.06	228.31
376.44	228.19
376.82	228.13
377.19	228.04
377.57	227.98
377.95	227.87
378.33	227.78
378.71	227.63
379.09	227.61
379.47	227.52
379.84	227.45
380.22	227.37
380.60	227.32
380.98	227.24
381.36	227.16
381.73	227.04
382.11	227.01
382.49	226.94
382.87	226.85
383.25	226.79
383.62	226.83
384.00	226.78
384.38	226.76
384.76	226.72
385.13	226.70
385.51	226.65
385.89	226.57
386.27	226.53
386.64	226.51
387.02	226.45
387.40	226.41
387.78	226.39
388.15	226.36
388.53	226.34
388.91	226.31
389.29	226.30
389.66	226.32
390.04	226.27
390.42	226.29
390.79	226.32
391.17	226.32
391.55	226.24
391.92	226.23
392.30	226.25
392.68	226.24
393.05	226.27
393.43	226.26
393.81	226.27
394.18	226.30
394.56	226.34
394.94	226.38
395.31	226.41
395.69	226.48
396.06	226.54
396.44	226.55
396.82	226.64
397.19	226.75
397.57	226.80
397.95	226.86
398.32	226.88
398.70	226.94
399.07	227.03
399.45	227.07
399.82	227.15
400.20	227.20
400.58	227.32
400.95	227.37
401.33	227.50
401.70	227.69
402.08	227.78
402.45	227.88
402.83	228.02
403.20	228.17
403.58	228.27
403.95	228.43
404.33	228.56
404.71	228.69
405.08	228.86
405.46	228.99
405.83	229.17
406.21	229.36
406.58	229.51
406.96	229.70
407.33	229.91
407.70	230.08
408.08	230.36
408.45	230.55
408.83	230.80
409.20	230.99
409.58	231.18
409.95	231.45
410.33	231.75
410.70	232.00
411.08	232.29
411.45	232.58
411.82	232.87
412.20	233.20
412.57	233.59
412.95	233.86
413.32	234.27
413.69	234.65
414.07	235.06
414.44	235.54
414.82	236.00
415.19	236.54
415.56	237.08
415.94	237.59
416.31	238.23
416.68	238.83
417.06	239.58
417.43	240.23
417.81	240.97
418.18	241.74
418.55	242.55
418.93	243.43
419.30	244.32
419.67	245.23
420.04	246.21
420.42	247.20
420.79	248.40
421.16	249.54
421.54	250.75
421.91	251.95
422.28	253.18
422.66	254.52
423.03	255.81
423.40	257.14
423.77	258.55
424.15	259.96
424.52	261.45
424.89	263.00
425.26	264.57
425.64	266.00
426.01	267.55
426.38	269.22
426.75	270.86
427.13	272.55
427.50	274.37
427.87	276.25
428.24	278.14
428.61	279.86
428.99	281.79
429.36	283.86
429.73	285.98
430.10	288.03
430.47	290.06
430.85	292.20
431.22	294.46
431.59	296.83
431.96	299.12
432.33	301.61
432.70	304.05
433.08	306.86
433.45	309.53
433.82	312.17
434.19	315.08
434.56	317.87
434.93	320.60
435.30	323.24
435.68	326.15
436.05	329.02
436.42	331.81
436.79	334.37
437.16	337.10
437.53	339.89
437.90	342.72
438.27	345.53
438.64	348.39
439.01	351.02
439.38	353.29
439.75	355.45
440.13	357.93
440.50	360.28
440.87	362.17
441.24	364.12
441.61	366.29
441.98	367.78
442.35	369.64
442.72	371.51
443.09	373.35
443.46	374.34
443.83	374.85
444.20	375.42
444.57	376.26
444.94	376.58
445.31	376.96
445.68	377.33
446.05	377.38
446.42	376.98
446.79	376.56
447.16	376.16
447.53	375.85
447.90	374.78
448.27	373.61
448.64	372.04
449.01	370.91
449.37	369.00
449.74	367.13
450.11	364.88
450.48	362.42
450.85	359.86
451.22	357.71
451.59	355.72
451.96	353.78
452.33	351.20
452.70	348.82
453.07	345.96
453.43	343.03
453.80	340.30
454.17	337.60
454.54	335.02
454.91	332.27
455.28	329.59
455.65	327.03
456.02	324.53
456.38	322.34
456.75	319.65
457.12	317.35
457.49	315.11
457.86	312.94
458.23	311.06
458.59	309.00
458.96	306.91
459.33	305.08
459.70	303.17
460.07	301.67
460.43	299.91
460.80	298.27
461.17	296.84
461.54	295.30
461.91	293.90
462.27	292.47
462.64	291.20
463.01	289.83
463.38	288.50
463.74	287.13
464.11	285.95
464.48	284.91
464.85	283.79
465.21	282.90
465.58	281.94
465.95	280.81
466.32	279.90
466.68	278.98
467.05	278.05
467.42	277.14
467.78	276.15
468.15	275.29
468.52	274.63
468.88	273.72
469.25	272.93
469.62	272.22
469.98	271.54
470.35	270.86
470.72	270.22
471.08	269.54
471.45	268.97
471.82	268.42
472.18	267.83
472.55	267.37
472.92	266.82
473.28	266.32
473.65	265.86
474.02	265.42
474.38	265.06
474.75	264.69
475.11	264.36
475.48	264.10
475.85	263.86
476.21	263.60
476.58	263.41
476.94	263.25
477.31	263.11
477.67	262.96
478.04	262.84
478.41	262.81
478.77	262.84
479.14	262.81
479.50	262.81
479.87	262.87
480.23	262.93
480.60	262.99
480.96	263.08
481.33	263.33
481.69	263.53
482.06	263.70
482.42	263.91
482.79	264.17
483.15	264.49
483.52	264.85
483.88	265.20
484.25	265.61
484.61	266.07
484.98	266.52
485.34	267.09
485.71	267.68
486.07	268.30
486.44	268.89
486.80	269.60
487.17	270.34
487.53	271.14
487.90	271.98
488.26	272.89
488.62	273.88
488.99	274.84
489.35	275.86
489.72	276.99
490.08	278.20
490.44	279.44
490.81	280.76
491.17	282.13
491.54	283.62
491.90	285.16
492.26	286.79
492.63	288.53
492.99	290.28
493.36	292.20
493.72	294.22
494.08	296.32
494.45	298.59
494.81	300.96
495.17	303.38
495.54	305.96
495.90	308.70
496.26	311.53
496.63	314.48
496.99	317.60
497.35	320.82
497.72	324.22
498.08	327.68
498.44	331.30
498.80	335.23
499.17	339.22
499.53	343.38
499.89	347.69
500.26	352.19
500.62	356.86
500.98	361.81
501.34	366.85
501.71	372.12
502.07	377.53
502.43	383.17
502.79	388.97
503.16	395.03
503.52	401.20
503.88	407.57
504.24	414.18
504.60	421.00
504.97	428.12
505.33	435.41
505.69	443.18
506.05	450.98
506.41	458.81
506.78	466.93
507.14	475.34
507.50	484.01
507.86	492.98
508.22	502.16
508.59	511.32
508.95	520.90
509.31	530.66
509.67	540.76
510.03	550.95
510.39	561.47
510.75	572.27
511.12	583.20
511.48	594.52
511.84	605.92
512.20	617.39
512.56	629.40
512.92	641.58
513.28	653.77
513.64	666.30
514.00	678.99
514.37	691.91
514.73	704.96
515.09	718.03
515.45	731.28
515.81	744.83
516.17	758.79
516.53	772.82
516.89	787.02
517.25	801.18
517.61	815.61
517.97	830.07
518.33	844.57
518.69	859.45
519.05	874.46
519.41	889.57
519.77	905.20
520.13	920.64
520.49	936.07
520.85	951.70
521.21	967.42
521.57	983.70
521.93	999.51
522.29	1015.95
522.65	1032.20
523.01	1048.49
523.37	1064.60
523.73	1080.87
524.09	1097.14
524.45	1113.56
524.81	1130.21
525.17	1147.31
525.53	1164.29
525.89	1181.21
526.25	1198.04
526.61	1214.53
526.97	1231.37
527.33	1247.92
527.68	1264.70
528.04	1281.30
528.40	1297.97
528.76	1315.11
529.12	1331.78
529.48	1348.81
529.84	1364.90
530.20	1381.69
530.56	1398.83
530.91	1416.30
531.27	1433.13
531.63	1449.53
531.99	1466.24
532.35	1482.31
532.71	1497.98
533.07	1514.30
533.42	1530.21
533.78	1546.30
534.14	1562.52
534.50	1578.06
534.86	1594.01
535.21	1609.18
535.57	1625.28
535.93	1640.75
536.29	1655.59
536.65	1670.71
537.00	1685.70
537.36	1701.07
537.72	1715.66
538.08	1730.14
538.44	1744.13
538.79	1758.10
539.15	1772.05
539.51	1785.85
539.87	1800.34
540.22	1814.34
540.58	1828.29
540.94	1841.70
541.29	1854.76
541.65	1867.57
542.01	1880.83
542.37	1893.26
542.72	1905.75
543.08	1917.46
543.44	1930.00
543.79	1941.34
544.15	1952.48
544.51	1963.89
544.87	1974.95
545.22	1985.86
545.58	1996.12
545.94	2005.80
546.29	2015.59
546.65	2025.37
547.01	2034.58
547.36	2043.23
547.72	2051.68
548.07	2059.43
548.43	2067.73
548.79	2075.81
549.14	2083.54
549.50	2091.01
549.86	2098.67
550.21	2106.09
550.57	2113.33
550.92	2119.88
551.28	2126.96
551.64	2133.98
551.99	2140.61
552.35	2146.76
552.70	2152.91
553.06	2158.78
553.41	2165.13
553.77	2171.44
554.13	2177.55
554.48	2183.64
554.84	2189.08
555.19	2194.36
555.55	2199.43
555.90	2203.82
556.26	2208.50
556.61	2213.11
556.97	2217.24
557.32	2221.26
557.68	2225.30
558.03	2229.65
558.39	2233.43
558.74	2237.90
559.10	2241.69
559.45	2245.37
559.81	2249.80
560.16	2253.46
560.52	2256.79
560.87	2260.24
561.23	2262.60
561.58	2265.54
561.94	2268.14
562.29	2270.45
562.64	2273.02
563.00	2275.69
563.35	2279.06
563.71	2282.21
564.06	2285.23
564.42	2287.93
564.77	2290.38
565.12	2292.54
565.48	2294.11
565.83	2295.74
566.19	2296.95
566.54	2297.91
566.89	2298.89
567.25	2299.14
567.60	2300.44
567.96	2302.02
568.31	2302.78
568.66	2303.86
569.02	2304.34
569.37	2304.52
569.72	2305.26
570.08	2305.33
570.43	2305.19
570.78	2304.50
571.14	2302.97
571.49	2301.59
571.84	2301.30
572.20	2299.99
572.55	2298.76
572.90	2297.34
573.26	2295.78
573.61	2293.98
573.96	2292.02
574.31	2288.82
574.67	2285.75
575.02	2281.96
575.37	2278.30
575.72	2274.29
576.08	2270.82
576.43	2267.31
576.78	2263.51
577.13	2260.26
577.49	2257.05
577.84	2253.59
578.19	2249.74
578.54	2245.74
578.90	2241.38
579.25	2235.58
579.60	2230.64
579.95	2225.49
580.30	2220.19
580.66	2215.01
581.01	2210.05
581.36	2204.95
581.71	2200.70
582.06	2196.20
582.42	2191.58
582.77	2186.42
583.12	2181.72
583.47	2176.77
583.82	2171.76
584.17	2166.40
584.53	2160.81
584.88	2155.03
585.23	2149.03
585.58	2143.50
585.93	2138.03
586.28	2133.15
586.63	2127.85
586.98	2122.61
587.34	2117.97
587.69	2113.00
588.04	2107.57
588.39	2101.67
588.74	2094.99
589.09	2088.63
589.44	2081.65
589.79	2075.69
590.14	2069.86
590.49	2063.23
590.84	2056.74
591.19	2050.40
591.54	2043.83
591.89	2036.24
592.25	2029.27
592.60	2022.03
592.95	2014.19
593.30	2006.84
593.65	1999.06
594.00	1992.05
594.35	1984.65
594.70	1976.34
595.05	1968.99
595.40	1961.71
595.75	1954.11
596.10	1947.86
596.45	1941.11
596.80	1934.86
597.15	1928.02
597.50	1920.75
597.85	1914.27
598.19	1907.56
598.54	1900.52
598.89	1893.86
599.24	1887.90
599.59	1881.19
599.94	1874.91
600.29	1868.70
600.64	1862.09
600.99	1854.74
601.34	1847.82
601.69	1840.86
602.04	1833.91
602.39	1826.49
602.74	1819.58
603.08	1812.92
603.43	1806.24
603.78	1798.93
604.13	1791.70
604.48	1784.34
604.83	1777.57
605.18	1770.55
605.53	1762.49
605.87	1754.46
606.22	1747.14
606.57	1739.30
606.92	1732.05
607.27	1724.73
607.62	1717.61
607.96	1710.25
608.31	1703.41
608.66	1695.80
609.01	1688.29
609.36	1680.85
609.70	1672.97
610.05	1664.78
610.40	1657.04
610.75	1648.77
611.10	1641.09
611.44	1632.81
611.79	1624.90
612.14	1616.19
612.49	1607.13
612.83	1598.89
613.18	1590.80
613.53	1582.74
613.88	1574.27
614.22	1565.83
614.57	1557.36
614.92	1549.49
615.27	1541.84
615.61	1533.57
615.96	1525.66
616.31	1518.04
616.65	1510.76
617.00	1503.02
617.35	1495.48
617.70	1487.21
618.04	1478.59
618.39	1470.31
618.74	1462.77
619.08	1454.51
619.43	1447.01
619.78	1440.01
620.12	1432.87
620.47	1425.42
620.82	1417.38
621.16	1410.01
621.51	1402.64
621.85	1395.13
622.20	1386.60
622.55	1378.38
622.89	1370.62
623.24	1363.01
623.59	1355.70
623.93	1348.16
624.28	1341.11
624.62	1333.55
624.97	1326.39
625.32	1319.70
625.66	1312.87
626.01	1305.61
626.35	1298.09
626.70	1290.39
627.04	1282.60
627.39	1274.75
627.73	1267.29
628.08	1260.36
628.43	1253.01
628.77	1245.51
629.12	1237.88
629.46	1230.81
629.81	1223.43
630.15	1216.32
630.50	1208.95
630.84	1200.83
631.19	1192.93
631.53	1185.51
631.88	1178.08
632.22	1170.51
632.57	1163.25
632.91	1155.60
633.26	1148.22
633.60	1141.03
633.95	1133.97
634.29	1127.04
634.64	1120.49
634.98	1113.16
635.32	1105.99
635.67	1099.49
636.01	1093.00
636.36	1086.26
636.70	1079.74
637.05	1073.20
637.39	1066.73
637.73	1060.20
638.08	1054.32
638.42	1048.24
638.77	1041.78
639.11	1035.15
639.45	1028.84
639.80	1022.13
640.14	1015.80
640.49	1009.23
640.83	1002.92
641.17	996.66
641.52	990.37
641.86	983.92
642.20	978.11
642.55	971.88
642.89	965.30
643.23	958.76
643.58	953.01
643.92	946.86
644.26	940.83
644.61	934.85
644.95	928.87
645.29	922.26
645.64	915.67
645.98	909.31
646.32	903.53
646.66	897.50
647.01	891.78
647.35	886.10
647.69	880.37
648.04	874.83
648.38	869.03
648.72	863.01
649.06	857.02
649.41	851.20
649.75	845.18
650.09	839.26
650.43	833.44
650.78	827.28
651.12	821.27
651.46	815.56
651.80	809.85
652.14	804.47
652.49	799.12
652.83	793.87
653.17	788.18
653.51	782.41
653.85	776.94
654.20	771.34
654.54	765.36
654.88	759.65
655.22	753.82
655.56	748.16
655.90	742.84
656.25	737.58
656.59	732.21
656.93	727.18
657.27	722.08
657.61	716.72
657.95	711.60
658.29	706.52
658.64	701.32
658.98	696.01
659.32	690.59
659.66	685.45
660.00	680.24
660.34	675.39
660.68	670.52
661.02	665.66
661.36	660.96
661.70	656.52
662.05	652.20
662.39	647.86
662.73	643.48
663.07	638.99
663.41	634.57
663.75	630.09
664.09	625.53
664.43	621.18
664.77	617.10
665.11	612.91
665.45	608.86
665.79	604.77
666.13	600.64
666.47	596.59
666.81	592.40
667.15	588.27
667.49	584.31
667.83	580.57
668.17	576.59
668.51	572.57
668.85	568.55
669.19	564.71
669.53	560.86
669.87	557.03
670.21	553.43
670.55	549.84
670.89	546.44
671.23	543.10
671.57	539.63
671.91	536.10
672.25	532.63
672.58	529.14
672.92	525.77
673.26	522.67
673.60	519.53
673.94	516.41
674.28	513.55
674.62	510.74
674.96	507.62
675.30	504.73
675.64	501.83
675.97	499.10
676.31	496.22
676.65	493.36
676.99	490.58
677.33	487.72
677.67	484.90
678.01	481.87
678.34	478.83
678.68	475.96
679.02	473.16
679.36	470.44
679.70	467.73
680.04	464.98
680.37	462.09
680.71	459.35
681.05	456.76
681.39	454.02
681.73	451.33
682.06	448.85
682.40	446.28
682.74	443.75
683.08	441.23
683.42	438.63
683.75	436.13
684.09	433.68
684.43	431.21
684.77	428.78
685.10	426.45
685.44	424.23
685.78	421.93
686.12	419.69
686.45	417.43
686.79	415.15
687.13	413.00
687.46	410.83
687.80	408.62
688.14	406.42
688.48	404.34
688.81	402.13
689.15	399.97
689.49	397.88
689.82	395.84
690.16	393.72
690.50	391.80
690.83	389.88
691.17	387.85
691.51	386.01
691.84	384.15
692.18	382.19
692.52	380.21
692.85	378.32
693.19	376.46
693.52	374.61
693.86	372.84
694.20	371.03
694.53	369.26
694.87	367.46
695.21	365.73
695.54	363.97
695.88	362.22
696.21	360.52
696.55	358.81
696.88	357.09
697.22	355.45
697.56	353.83
697.89	352.16
698.23	350.59
698.56	348.94
698.90	347.35
699.23	345.77
699.57	344.23
699.90	342.70
700.24	341.18
700.58	339.65
700.91	338.11
701.25	336.71
701.58	335.34
701.92	334.01
702.25	332.64
702.59	331.30
702.92	330.00
703.26	328.66
703.59	327.45
703.93	326.32
704.26	325.14
704.60	323.89
704.93	322.67
705.26	321.45
705.60	320.33
705.93	319.16
706.27	318.15
706.60	317.13
706.94	316.03
707.27	314.91
707.61	313.87
707.94	312.87
708.27	311.77
708.61	310.69
708.94	309.69
709.28	308.71
709.61	307.76
709.94	306.80
710.28	305.85
710.61	304.87
710.95	303.81
711.28	302.89
711.61	301.93
711.95	301.01
712.28	300.06
712.61	299.05
712.95	298.16
713.28	297.30
713.61	296.38
713.95	295.51
714.28	294.68
714.61	293.79
714.95	292.95
715.28	292.08
715.61	291.25
715.95	290.37
716.28	289.49
716.61	288.68
716.95	287.90
717.28	287.17
717.61	286.41
717.94	285.64
718.28	284.83
718.61	284.13
718.94	283.46
719.27	282.81
719.61	282.18
719.94	281.52
720.27	280.77
720.60	280.14
720.94	279.49
721.27	278.92
721.60	278.39
721.93	277.82
722.27	277.31
722.60	276.74
722.93	276.18
723.26	275.66
723.59	275.10
723.93	274.53
724.26	273.98
724.59	273.41
724.92	272.90
725.25	272.37
725.59	271.84
725.92	271.33
726.25	270.81
726.58	270.33
726.91	269.84
727.24	269.35
727.57	268.87
727.91	268.40
728.24	267.92
728.57	267.43
728.90	266.94
729.23	266.43
729.56	266.03
729.89	265.58
730.22	265.06
730.55	264.59
730.89	264.15
731.22	263.67
731.55	263.24
731.88	262.83
732.21	262.43
732.54	262.00
732.87	261.58
733.20	261.15
733.53	260.73
733.86	260.36
734.19	259.98
734.52	259.56
734.85	259.22
735.18	258.79
735.51	258.44
735.84	258.06
736.17	257.66
736.50	257.26
736.83	257.04
737.16	256.72
737.49	256.39
737.82	256.02
738.15	255.70
738.48	255.37
738.81	255.01
739.14	254.68
739.47	254.35
739.80	254.01
740.13	253.72
740.46	253.42
740.79	253.08
741.12	252.80
741.45	252.48
741.78	252.14
742.11	251.86
742.44	251.52
742.77	251.23
743.10	250.97
743.43	250.67
743.75	250.26
744.08	250.12
744.41	249.84
744.74	249.58
745.07	249.30
745.40	249.05
745.73	248.81
746.06	248.52
746.39	248.25
746.71	247.99
747.04	247.70
747.37	247.44
747.70	247.24
748.03	246.98
748.36	246.77
748.68	246.55
749.01	246.29
749.34	246.09
749.67	245.88
750.00	245.67
750.33	245.54
750.65	245.34
750.98	244.98
751.31	244.72
751.64	244.57
751.97	244.43
752.29	244.20
752.62	243.99
752.95	243.77
753.28	243.60
753.60	243.43
753.93	243.29
754.26	243.12
754.59	242.88
754.91	242.68
755.24	242.50
755.57	242.32
755.90	242.16
756.22	241.95
756.55	241.75
756.88	241.55
757.20	241.32
757.53	241.12
757.86	241.00
758.19	240.86
758.51	240.64
758.84	240.41
759.17	240.24
759.49	240.10
759.82	240.04
760.15	239.88
760.47	239.72
760.80	239.55
761.13	239.42
761.45	239.27
761.78	239.13
762.11	239.00
762.43	238.82
762.76	238.70
763.08	238.60
763.41	238.47
763.74	238.34
764.06	238.18
764.39	238.01
764.71	237.86
765.04	237.71
765.37	237.63
765.69	237.50
766.02	237.40
766.34	237.26
766.67	237.04
767.00	236.96
767.32	236.92
767.65	236.87
767.97	236.74
768.30	236.63
768.62	236.51
768.95	236.38
769.27	236.28
769.60	236.14
769.92	236.00
770.25	235.86
770.57	235.80
770.90	235.71
771.22	235.63
771.55	235.50
771.87	235.42
772.20	235.31
772.52	235.26
772.85	235.28
773.17	235.19
773.50	235.10
773.82	234.96
774.15	234.79
774.47	234.60
774.80	234.48
775.12	234.37
775.45	234.29
775.77	234.20
776.09	234.12
776.42	234.05
776.74	233.97
777.07	233.91
777.39	233.79
777.72	233.66
778.04	233.59
778.36	233.55
778.69	233.45
779.01	233.40
779.33	233.28
779.66	233.09
779.98	232.99
780.31	232.93
780.63	232.90
780.95	232.83
781.28	232.78
781.60	232.74
781.92	232.69
782.25	232.64
782.57	232.58
782.89	232.49
783.22	232.40
783.54	232.35
783.86	232.28
784.19	232.24
784.51	232.24
784.83	232.18
785.16	232.13
785.48	232.09
785.80	232.02
786.12	232.01
786.45	231.94
786.77	231.90
787.09	231.88
