SpectraSuite Data File
++++++++++++++++++++++++++++++++++++
Date: Fri Feb 01 17:47:42 EST 2013
User: group
Dark Spectrum Present: No
Reference Spectrum Present: No
Number of Sampled Component Spectra: 1
Spectrometers: USB2E7196
Integration Time (usec): 35000 (USB2E7196)
Spectra Averaged: 100 (USB2E7196)
Boxcar Smoothing: 10 (USB2E7196)
Correct for Electrical Dark: No (USB2E7196)
Strobe/Lamp Enabled: No (USB2E7196)
Correct for Detector Non-linearity: No (USB2E7196)
Correct for Stray Light: No (USB2E7196)
Number of Pixels in Processed Spectrum: 2048
>>>>>Begin Processed Spectral Data<<<<<
339.09	0.00
339.48	212.68
339.86	214.24
340.24	215.71
340.63	217.34
341.01	220.09
341.39	219.73
341.78	221.40
342.16	222.50
342.54	222.75
342.93	211.19
343.31	221.86
343.69	222.41
344.07	222.88
344.46	223.29
344.84	223.66
345.22	223.90
345.60	224.15
345.99	224.34
346.37	224.46
346.75	224.58
347.13	224.66
347.52	224.72
347.90	224.76
348.28	224.77
348.66	224.85
349.05	224.84
349.43	224.89
349.81	224.96
350.19	224.99
350.57	225.04
350.96	225.12
351.34	225.20
351.72	225.26
352.10	225.36
352.48	225.43
352.87	225.43
353.25	225.48
353.63	225.55
354.01	225.57
354.39	225.63
354.77	225.67
355.15	225.77
355.54	225.82
355.92	225.85
356.30	225.91
356.68	225.99
357.06	226.04
357.44	226.08
357.82	226.14
358.20	226.22
358.58	226.31
358.97	226.32
359.35	226.41
359.73	226.50
360.11	226.55
360.49	226.59
360.87	226.66
361.25	226.72
361.63	226.77
362.01	226.86
362.39	226.88
362.77	226.95
363.15	226.97
363.53	226.99
363.91	227.07
364.29	227.09
364.67	227.05
365.05	227.09
365.43	227.12
365.81	227.14
366.19	227.19
366.57	227.22
366.95	227.27
367.33	227.25
367.71	227.22
368.09	227.23
368.47	227.27
368.85	227.26
369.23	227.26
369.61	227.21
369.99	227.20
370.37	227.20
370.75	227.20
371.13	227.15
371.51	227.10
371.89	227.08
372.27	227.07
372.65	227.02
373.03	227.00
373.41	226.94
373.78	226.90
374.16	226.81
374.54	226.77
374.92	226.71
375.30	226.66
375.68	226.62
376.06	226.55
376.44	226.48
376.82	226.41
377.19	226.36
377.57	226.33
377.95	226.23
378.33	226.13
378.71	226.01
379.09	225.99
379.47	225.95
379.84	225.87
380.22	225.82
380.60	225.76
380.98	225.68
381.36	225.61
381.73	225.52
382.11	225.50
382.49	225.43
382.87	225.33
383.25	225.28
383.62	225.33
384.00	225.26
384.38	225.20
384.76	225.22
385.13	225.23
385.51	225.17
385.89	225.11
386.27	225.09
386.64	225.05
387.02	224.97
387.40	224.92
387.78	224.88
388.15	224.80
388.53	224.82
388.91	224.78
389.29	224.80
389.66	224.77
390.04	224.70
390.42	224.69
390.79	224.69
391.17	224.66
391.55	224.57
391.92	224.56
392.30	224.54
392.68	224.47
393.05	224.42
393.43	224.42
393.81	224.42
394.18	224.44
394.56	224.48
394.94	224.52
395.31	224.54
395.69	224.57
396.06	224.62
396.44	224.59
396.82	224.62
397.19	224.65
397.57	224.69
397.95	224.75
398.32	224.79
398.70	224.84
399.07	224.93
399.45	224.95
399.82	224.98
400.20	225.05
400.58	225.13
400.95	225.17
401.33	225.28
401.70	225.45
402.08	225.52
402.45	225.57
402.83	225.69
403.20	225.78
403.58	225.88
403.95	226.02
404.33	226.19
404.71	226.31
405.08	226.49
405.46	226.60
405.83	226.76
406.21	226.90
406.58	227.10
406.96	227.22
407.33	227.44
407.70	227.68
408.08	227.96
408.45	228.18
408.83	228.45
409.20	228.70
409.58	228.90
409.95	229.22
410.33	229.56
410.70	229.85
411.08	230.22
411.45	230.58
411.82	230.95
412.20	231.36
412.57	231.91
412.95	232.28
413.32	232.83
413.69	233.32
414.07	233.89
414.44	234.48
414.82	235.08
415.19	235.76
415.56	236.46
415.94	237.18
416.31	238.00
416.68	238.81
417.06	239.74
417.43	240.64
417.81	241.57
418.18	242.56
418.55	243.63
418.93	244.81
419.30	245.99
419.67	247.20
420.04	248.42
420.42	249.67
420.79	251.17
421.16	252.67
421.54	254.19
421.91	255.75
422.28	257.39
422.66	259.15
423.03	260.83
423.40	262.56
423.77	264.37
424.15	266.22
424.52	268.09
424.89	270.11
425.26	272.10
425.64	274.02
426.01	276.09
426.38	278.23
426.75	280.34
427.13	282.54
427.50	284.89
427.87	287.35
428.24	289.73
428.61	291.99
428.99	294.49
429.36	297.30
429.73	299.95
430.10	302.51
430.47	305.14
430.85	307.87
431.22	310.74
431.59	313.76
431.96	316.63
432.33	319.87
432.70	322.99
433.08	326.63
433.45	330.01
433.82	333.37
434.19	337.08
434.56	340.69
434.93	344.10
435.30	347.49
435.68	351.23
436.05	354.91
436.42	358.53
436.79	361.75
437.16	365.17
437.53	368.85
437.90	372.51
438.27	376.08
438.64	379.71
439.01	383.04
439.38	385.92
439.75	388.77
440.13	392.01
440.50	395.00
440.87	397.39
441.24	399.92
441.61	402.71
441.98	404.65
442.35	407.01
442.72	409.44
443.09	411.79
443.46	413.10
443.83	413.86
444.20	414.50
444.57	415.64
444.94	416.00
445.31	416.42
445.68	416.88
446.05	417.01
446.42	416.54
446.79	416.03
447.16	415.54
447.53	415.11
447.90	413.57
448.27	412.08
448.64	410.03
449.01	408.65
449.37	406.11
449.74	403.65
450.11	400.73
450.48	397.57
450.85	394.25
451.22	391.43
451.59	388.86
451.96	386.37
452.33	382.98
452.70	379.96
453.07	376.33
453.43	372.61
453.80	369.05
454.17	365.61
454.54	362.38
454.91	358.85
455.28	355.42
455.65	352.25
456.02	349.10
456.38	346.31
456.75	342.81
457.12	339.91
457.49	337.02
457.86	334.24
458.23	331.84
458.59	329.22
458.96	326.53
459.33	324.09
459.70	321.68
460.07	319.70
460.43	317.48
460.80	315.36
461.17	313.44
461.54	311.45
461.91	309.61
462.27	307.67
462.64	306.02
463.01	304.28
463.38	302.54
463.74	300.74
464.11	299.27
464.48	297.93
464.85	296.50
465.21	295.37
465.58	294.13
465.95	292.70
466.32	291.51
466.68	290.33
467.05	289.15
467.42	287.96
467.78	286.74
468.15	285.58
468.52	284.67
468.88	283.59
469.25	282.59
469.62	281.74
469.98	280.89
470.35	280.09
470.72	279.28
471.08	278.47
471.45	277.78
471.82	277.04
472.18	276.22
472.55	275.64
472.92	274.96
473.28	274.38
473.65	273.77
474.02	273.17
474.38	272.68
474.75	272.24
475.11	271.82
475.48	271.47
475.85	271.12
476.21	270.84
476.58	270.54
476.94	270.31
477.31	270.08
477.67	269.80
478.04	269.59
478.41	269.46
478.77	269.43
479.14	269.28
479.50	269.23
479.87	269.26
480.23	269.27
480.60	269.30
480.96	269.32
481.33	269.50
481.69	269.70
482.06	269.88
482.42	270.02
482.79	270.25
483.15	270.58
483.52	270.96
483.88	271.28
484.25	271.64
484.61	272.05
484.98	272.49
485.34	273.07
485.71	273.68
486.07	274.31
486.44	274.90
486.80	275.64
487.17	276.37
487.53	277.22
487.90	278.10
488.26	279.08
488.62	280.08
488.99	281.08
489.35	282.16
489.72	283.29
490.08	284.54
490.44	285.81
490.81	287.16
491.17	288.55
491.54	290.05
491.90	291.64
492.26	293.33
492.63	295.12
492.99	296.96
493.36	298.89
493.72	300.98
494.08	303.15
494.45	305.45
494.81	307.95
495.17	310.46
495.54	313.18
495.90	315.91
496.26	318.80
496.63	321.86
496.99	325.08
497.35	328.48
497.72	332.02
498.08	335.72
498.44	339.55
498.80	343.62
499.17	347.87
499.53	352.27
499.89	356.85
500.26	361.60
500.62	366.50
500.98	371.72
501.34	377.00
501.71	382.57
502.07	388.33
502.43	394.19
502.79	400.29
503.16	406.60
503.52	413.21
503.88	419.94
504.24	426.90
504.60	434.14
504.97	441.67
505.33	449.39
505.69	457.49
506.05	465.62
506.41	473.87
506.78	482.43
507.14	491.27
507.50	500.42
507.86	509.87
508.22	519.54
508.59	529.24
508.95	539.32
509.31	549.61
509.67	560.14
510.03	570.98
510.39	582.08
510.75	593.44
511.12	604.99
511.48	616.88
511.84	629.04
512.20	641.08
512.56	653.62
512.92	666.50
513.28	679.49
513.64	692.72
514.00	706.23
514.37	719.93
514.73	733.82
515.09	747.64
515.45	761.70
515.81	776.06
516.17	790.90
516.53	805.97
516.89	821.06
517.25	836.06
517.61	851.44
517.97	866.86
518.33	882.19
518.69	897.89
519.05	913.90
519.41	930.01
519.77	946.67
520.13	963.17
520.49	979.44
520.85	995.97
521.21	1012.61
521.57	1029.96
521.93	1046.86
522.29	1064.34
522.65	1081.80
523.01	1099.15
523.37	1116.36
523.73	1133.63
524.09	1150.93
524.45	1168.37
524.81	1186.39
525.17	1204.40
525.53	1222.58
525.89	1240.83
526.25	1259.04
526.61	1276.72
526.97	1294.83
527.33	1312.66
527.68	1330.61
528.04	1348.61
528.40	1366.51
528.76	1385.13
529.12	1403.17
529.48	1421.60
529.84	1438.93
530.20	1457.00
530.56	1475.55
530.91	1494.57
531.27	1513.01
531.63	1530.91
531.99	1549.16
532.35	1566.81
532.71	1584.35
533.07	1602.22
533.42	1619.78
533.78	1637.46
534.14	1655.48
534.50	1672.46
534.86	1690.00
535.21	1706.80
535.57	1724.44
535.93	1741.62
536.29	1758.11
536.65	1774.92
537.00	1791.25
537.36	1808.55
537.72	1824.77
538.08	1840.96
538.44	1856.50
538.79	1872.13
539.15	1887.61
539.51	1902.98
539.87	1919.03
540.22	1934.45
540.58	1949.99
540.94	1965.06
541.29	1979.68
541.65	1994.08
542.01	2009.17
542.37	2023.30
542.72	2037.68
543.08	2051.26
543.44	2065.63
543.79	2078.69
544.15	2091.34
544.51	2104.90
544.87	2117.64
545.22	2130.40
545.58	2142.37
545.94	2153.91
546.29	2165.56
546.65	2177.41
547.01	2188.53
547.36	2198.93
547.72	2209.25
548.07	2218.97
548.43	2228.91
548.79	2238.35
549.14	2247.64
549.50	2256.49
549.86	2265.77
550.21	2274.74
550.57	2283.50
550.92	2291.66
551.28	2300.37
551.64	2309.13
551.99	2317.07
552.35	2324.81
552.70	2332.46
553.06	2340.18
553.41	2348.12
553.77	2355.55
554.13	2362.88
554.48	2370.52
554.84	2377.80
555.19	2384.42
555.55	2390.93
555.90	2396.78
556.26	2403.61
556.61	2409.63
556.97	2415.55
557.32	2421.17
557.68	2426.73
558.03	2432.40
558.39	2437.36
558.74	2443.36
559.10	2448.72
559.45	2453.73
559.81	2459.23
560.16	2464.34
560.52	2468.91
560.87	2473.49
561.23	2477.48
561.58	2481.66
561.94	2485.44
562.29	2488.68
562.64	2492.88
563.00	2496.61
563.35	2501.26
563.71	2505.44
564.06	2509.81
564.42	2513.64
564.77	2517.38
565.12	2520.79
565.48	2523.79
565.83	2526.97
566.19	2529.45
566.54	2530.99
566.89	2533.13
567.25	2534.68
567.60	2536.86
567.96	2539.45
568.31	2541.16
568.66	2543.19
569.02	2544.44
569.37	2545.46
569.72	2547.25
570.08	2547.98
570.43	2548.72
570.78	2548.96
571.14	2547.94
571.49	2547.14
571.84	2547.49
572.20	2546.83
572.55	2546.22
572.90	2545.08
573.26	2544.10
573.61	2542.62
573.96	2541.59
574.31	2538.93
574.67	2536.26
575.02	2532.92
575.37	2529.63
575.72	2526.11
576.08	2522.61
576.43	2519.57
576.78	2516.20
577.13	2513.00
577.49	2509.75
577.84	2506.32
578.19	2502.53
578.54	2498.93
578.90	2494.86
579.25	2489.15
579.60	2484.03
579.95	2478.87
580.30	2473.63
580.66	2468.16
581.01	2462.91
581.36	2457.63
581.71	2453.45
582.06	2448.91
582.42	2444.32
582.77	2438.80
583.12	2434.05
583.47	2429.48
583.82	2424.35
584.17	2418.83
584.53	2413.00
584.88	2407.26
585.23	2401.21
585.58	2395.18
585.93	2389.30
586.28	2384.02
586.63	2378.74
586.98	2373.40
587.34	2368.27
587.69	2362.99
588.04	2357.51
588.39	2351.64
588.74	2344.54
589.09	2337.79
589.44	2330.50
589.79	2323.79
590.14	2317.67
590.49	2310.37
590.84	2303.22
591.19	2296.54
591.54	2289.38
591.89	2281.51
592.25	2274.11
592.60	2266.06
592.95	2257.95
593.30	2250.03
593.65	2241.72
594.00	2233.76
594.35	2225.57
594.70	2216.62
595.05	2208.87
595.40	2200.45
595.75	2191.98
596.10	2185.35
596.45	2177.96
596.80	2171.04
597.15	2163.64
597.50	2155.90
597.85	2148.70
598.19	2141.33
598.54	2133.57
598.89	2126.17
599.24	2119.48
599.59	2112.13
599.94	2105.20
600.29	2097.97
600.64	2090.33
600.99	2082.00
601.34	2074.40
601.69	2066.60
602.04	2059.12
602.39	2050.75
602.74	2043.18
603.08	2035.63
603.43	2027.76
603.78	2019.31
604.13	2011.09
604.48	2002.91
604.83	1995.10
605.18	1987.58
605.53	1978.53
605.87	1969.32
606.22	1961.10
606.57	1951.93
606.92	1943.36
607.27	1935.35
607.62	1927.55
607.96	1919.48
608.31	1912.14
608.66	1903.54
609.01	1895.13
609.36	1886.40
609.70	1877.27
610.05	1868.17
610.40	1859.39
610.75	1850.06
611.10	1841.45
611.44	1831.72
611.79	1822.62
612.14	1812.79
612.49	1802.02
612.83	1792.44
613.18	1783.13
613.53	1773.87
613.88	1764.24
614.22	1754.74
614.57	1744.75
614.92	1735.56
615.27	1726.93
615.61	1717.33
615.96	1708.08
616.31	1699.27
616.65	1690.75
617.00	1682.19
617.35	1673.43
617.70	1664.03
618.04	1654.27
618.39	1644.71
618.74	1636.10
619.08	1626.64
619.43	1617.78
619.78	1609.81
620.12	1601.62
620.47	1593.10
620.82	1583.66
621.16	1574.98
621.51	1566.34
621.85	1557.59
622.20	1547.86
622.55	1538.24
622.89	1529.17
623.24	1520.31
623.59	1511.57
623.93	1502.97
624.28	1494.57
624.62	1485.95
624.97	1477.55
625.32	1469.67
625.66	1461.68
626.01	1453.38
626.35	1444.96
626.70	1436.06
627.04	1427.24
627.39	1418.23
627.73	1409.64
628.08	1401.77
628.43	1393.66
628.77	1385.32
629.12	1376.73
629.46	1368.50
629.81	1359.82
630.15	1351.59
630.50	1343.23
630.84	1334.04
631.19	1324.97
631.53	1316.44
631.88	1307.75
632.22	1299.11
632.57	1290.72
632.91	1282.05
633.26	1273.65
633.60	1265.04
633.95	1256.93
634.29	1248.89
634.64	1241.24
634.98	1232.92
635.32	1224.71
635.67	1217.11
636.01	1209.40
636.36	1201.63
636.70	1194.17
637.05	1186.77
637.39	1179.39
637.73	1172.04
638.08	1165.34
638.42	1158.41
638.77	1151.01
639.11	1143.51
639.45	1136.18
639.80	1128.74
640.14	1121.50
640.49	1114.16
640.83	1107.03
641.17	1099.98
641.52	1092.80
641.86	1085.50
642.20	1078.79
642.55	1071.55
642.89	1064.21
643.23	1056.81
643.58	1050.30
643.92	1043.35
644.26	1036.54
644.61	1029.62
644.95	1022.74
645.29	1015.25
645.64	1007.61
645.98	1000.41
646.32	993.71
646.66	986.92
647.01	980.33
647.35	973.84
647.69	967.10
648.04	960.75
648.38	954.29
648.72	947.53
649.06	940.70
649.41	934.05
649.75	927.43
650.09	920.79
650.43	914.27
650.78	907.28
651.12	900.52
651.46	894.00
651.80	887.60
652.14	881.43
652.49	875.46
652.83	869.66
653.17	863.36
653.51	857.01
653.85	850.85
654.20	844.51
654.54	837.76
654.88	831.33
655.22	824.69
655.56	818.14
655.90	811.91
656.25	805.98
656.59	799.97
656.93	794.13
657.27	788.21
657.61	782.04
657.95	776.19
658.29	770.47
658.64	764.50
658.98	758.35
659.32	752.16
659.66	746.25
660.00	740.37
660.34	734.72
660.68	729.09
661.02	723.41
661.36	718.07
661.70	712.96
662.05	708.02
662.39	703.20
662.73	698.16
663.07	693.18
663.41	688.18
663.75	683.11
664.09	677.98
664.43	672.99
664.77	668.40
665.11	663.72
665.45	659.03
665.79	654.54
666.13	650.05
666.47	645.53
666.81	640.88
667.15	636.15
667.49	631.73
667.83	627.48
668.17	623.07
668.51	618.51
668.85	613.98
669.19	609.60
669.53	605.28
669.87	600.98
670.21	596.82
670.55	592.65
670.89	588.76
671.23	584.92
671.57	580.92
671.91	576.93
672.25	572.94
672.58	568.97
672.92	565.02
673.26	561.39
673.60	557.77
673.94	554.19
674.28	550.91
674.62	547.62
674.96	544.06
675.30	540.78
675.64	537.50
675.97	534.36
676.31	531.15
676.65	527.87
676.99	524.80
677.33	521.57
677.67	518.46
678.01	515.14
678.34	511.79
678.68	508.59
679.02	505.38
679.36	502.27
679.70	499.19
680.04	496.12
680.37	492.91
680.71	489.75
681.05	486.84
681.39	483.76
681.73	480.75
682.06	478.01
682.40	475.15
682.74	472.26
683.08	469.34
683.42	466.42
683.75	463.59
684.09	460.66
684.43	457.91
684.77	455.09
685.10	452.34
685.44	449.72
685.78	447.17
686.12	444.64
686.45	442.04
686.79	439.44
687.13	436.91
687.46	434.44
687.80	432.02
688.14	429.49
688.48	427.15
688.81	424.61
689.15	422.13
689.49	419.72
689.82	417.38
690.16	415.00
690.50	412.75
690.83	410.55
691.17	408.31
691.51	406.14
691.84	404.06
692.18	401.88
692.52	399.68
692.85	397.43
693.19	395.30
693.52	393.23
693.86	391.20
694.20	389.20
694.53	387.19
694.87	385.08
695.21	383.07
695.54	380.97
695.88	379.01
696.21	377.01
696.55	375.07
696.88	373.13
697.22	371.26
697.56	369.39
697.89	367.56
698.23	365.77
698.56	363.95
698.90	362.18
699.23	360.33
699.57	358.54
699.90	356.79
700.24	355.01
700.58	353.27
700.91	351.58
701.25	349.91
701.58	348.30
701.92	346.76
702.25	345.19
702.59	343.70
702.92	342.20
703.26	340.75
703.59	339.29
703.93	337.95
704.26	336.55
704.60	335.12
704.93	333.65
705.26	332.23
705.60	330.86
705.93	329.46
706.27	328.27
706.60	327.07
706.94	325.87
707.27	324.58
707.61	323.37
707.94	322.16
708.27	320.94
708.61	319.72
708.94	318.58
709.28	317.45
709.61	316.35
709.94	315.25
710.28	314.07
710.61	312.91
710.95	311.68
711.28	310.62
711.61	309.56
711.95	308.53
712.28	307.46
712.61	306.38
712.95	305.37
713.28	304.35
713.61	303.34
713.95	302.32
714.28	301.36
714.61	300.37
714.95	299.43
715.28	298.45
715.61	297.44
715.95	296.45
716.28	295.47
716.61	294.48
716.95	293.54
717.28	292.68
717.61	291.85
717.94	291.03
718.28	290.14
718.61	289.27
718.94	288.51
719.27	287.72
719.61	286.96
719.94	286.20
720.27	285.45
720.60	284.67
720.94	283.98
721.27	283.31
721.60	282.66
721.93	281.96
722.27	281.36
722.60	280.77
722.93	280.16
723.26	279.54
723.59	278.91
723.93	278.31
724.26	277.72
724.59	277.07
724.92	276.47
725.25	275.92
725.59	275.39
725.92	274.76
726.25	274.18
726.58	273.61
726.91	273.06
727.24	272.47
727.57	271.97
727.91	271.35
728.24	270.81
728.57	270.28
728.90	269.78
729.23	269.21
729.56	268.72
729.89	268.16
730.22	267.63
730.55	267.13
730.89	266.65
731.22	266.11
731.55	265.64
731.88	265.17
732.21	264.67
732.54	264.15
732.87	263.69
733.20	263.26
733.53	262.82
733.86	262.40
734.19	261.97
734.52	261.54
734.85	261.18
735.18	260.71
735.51	260.28
735.84	259.88
736.17	259.49
736.50	259.01
736.83	258.74
737.16	258.38
737.49	257.98
737.82	257.57
738.15	257.22
738.48	256.80
738.81	256.41
739.14	256.00
739.47	255.67
739.80	255.34
740.13	255.00
740.46	254.62
740.79	254.23
741.12	253.85
741.45	253.52
741.78	253.14
742.11	252.83
742.44	252.44
742.77	252.10
743.10	251.73
743.43	251.39
743.75	250.96
744.08	250.74
744.41	250.42
744.74	250.10
745.07	249.77
745.40	249.52
745.73	249.25
746.06	248.95
746.39	248.63
746.71	248.32
747.04	247.97
747.37	247.73
747.70	247.46
748.03	247.18
748.36	246.90
748.68	246.64
749.01	246.35
749.34	246.12
749.67	245.85
750.00	245.61
750.33	245.44
750.65	245.21
750.98	244.85
751.31	244.63
751.64	244.42
751.97	244.24
752.29	244.00
752.62	243.72
752.95	243.48
753.28	243.25
753.60	242.99
753.93	242.81
754.26	242.55
754.59	242.32
754.91	242.09
755.24	241.84
755.57	241.61
755.90	241.39
756.22	241.15
756.55	240.94
756.88	240.71
757.20	240.45
757.53	240.24
757.86	240.03
758.19	239.84
758.51	239.61
758.84	239.36
759.17	239.16
759.49	239.00
759.82	238.91
760.15	238.73
760.47	238.57
760.80	238.40
761.13	238.25
761.45	238.08
761.78	237.91
762.11	237.74
762.43	237.55
762.76	237.42
763.08	237.31
763.41	237.17
763.74	237.05
764.06	236.91
764.39	236.75
764.71	236.61
765.04	236.44
765.37	236.29
765.69	236.17
766.02	236.02
766.34	235.86
766.67	235.70
767.00	235.59
767.32	235.53
767.65	235.48
767.97	235.32
768.30	235.19
768.62	235.07
768.95	234.93
769.27	234.85
769.60	234.73
769.92	234.54
770.25	234.41
770.57	234.25
770.90	234.15
771.22	234.06
771.55	233.94
771.87	233.85
772.20	233.76
772.52	233.73
772.85	233.75
773.17	233.62
773.50	233.47
773.82	233.33
774.15	233.17
774.47	232.96
774.80	232.87
775.12	232.79
775.45	232.68
775.77	232.60
776.09	232.50
776.42	232.39
776.74	232.37
777.07	232.27
777.39	232.20
777.72	232.05
778.04	231.93
778.36	231.83
778.69	231.77
779.01	231.67
779.33	231.49
779.66	231.30
779.98	231.23
780.31	231.16
780.63	231.12
780.95	231.08
781.28	231.02
781.60	230.92
781.92	230.84
782.25	230.78
782.57	230.71
782.89	230.65
783.22	230.58
783.54	230.45
783.86	230.40
784.19	230.31
784.51	230.32
784.83	230.24
785.16	230.16
785.48	230.08
785.80	230.05
786.12	230.01
786.45	229.95
786.77	229.90
