SpectraSuite Data File
++++++++++++++++++++++++++++++++++++
Date: Fri Feb 01 16:27:51 EST 2013
User: group
Dark Spectrum Present: No
Reference Spectrum Present: No
Number of Sampled Component Spectra: 1
Spectrometers: USB2E7196
Integration Time (usec): 35000 (USB2E7196)
Spectra Averaged: 100 (USB2E7196)
Boxcar Smoothing: 10 (USB2E7196)
Correct for Electrical Dark: No (USB2E7196)
Strobe/Lamp Enabled: No (USB2E7196)
Correct for Detector Non-linearity: No (USB2E7196)
Correct for Stray Light: No (USB2E7196)
Number of Pixels in Processed Spectrum: 2048
>>>>>Begin Processed Spectral Data<<<<<
339.09	0.00
339.48	214.54
339.86	215.24
340.24	216.43
340.63	218.31
341.01	220.81
341.39	221.51
341.78	222.24
342.16	223.14
342.54	224.13
342.93	212.44
343.31	223.20
343.69	223.73
344.07	224.21
344.46	224.65
344.84	225.03
345.22	225.26
345.60	225.47
345.99	225.65
346.37	225.78
346.75	225.87
347.13	225.93
347.52	226.01
347.90	226.05
348.28	226.07
348.66	226.12
349.05	226.10
349.43	226.11
349.81	226.12
350.19	226.18
350.57	226.21
350.96	226.27
351.34	226.31
351.72	226.39
352.10	226.46
352.48	226.53
352.87	226.61
353.25	226.71
353.63	226.77
354.01	226.84
354.39	226.93
354.77	226.98
355.15	227.09
355.54	227.16
355.92	227.22
356.30	227.27
356.68	227.36
357.06	227.46
357.44	227.55
357.82	227.67
358.20	227.74
358.58	227.82
358.97	227.90
359.35	227.98
359.73	228.03
360.11	228.12
360.49	228.16
360.87	228.20
361.25	228.25
361.63	228.33
362.01	228.37
362.39	228.37
362.77	228.45
363.15	228.47
363.53	228.49
363.91	228.50
364.29	228.53
364.67	228.47
365.05	228.47
365.43	228.46
365.81	228.44
366.19	228.47
366.57	228.49
366.95	228.46
367.33	228.43
367.71	228.43
368.09	228.40
368.47	228.41
368.85	228.37
369.23	228.35
369.61	228.28
369.99	228.31
370.37	228.32
370.75	228.33
371.13	228.26
371.51	228.21
371.89	228.18
372.27	228.16
372.65	228.15
373.03	228.09
373.41	228.03
373.78	227.98
374.16	227.85
374.54	227.76
374.92	227.69
375.30	227.61
375.68	227.54
376.06	227.50
376.44	227.41
376.82	227.34
377.19	227.30
377.57	227.24
377.95	227.12
378.33	227.04
378.71	226.91
379.09	226.86
379.47	226.81
379.84	226.75
380.22	226.67
380.60	226.58
380.98	226.52
381.36	226.47
381.73	226.40
382.11	226.38
382.49	226.32
382.87	226.23
383.25	226.22
383.62	226.26
384.00	226.19
384.38	226.15
384.76	226.11
385.13	226.06
385.51	226.01
385.89	225.93
386.27	225.86
386.64	225.81
387.02	225.79
387.40	225.77
387.78	225.70
388.15	225.65
388.53	225.59
388.91	225.61
389.29	225.57
389.66	225.56
390.04	225.56
390.42	225.59
390.79	225.61
391.17	225.54
391.55	225.40
391.92	225.38
392.30	225.37
392.68	225.36
393.05	225.35
393.43	225.33
393.81	225.36
394.18	225.38
394.56	225.40
394.94	225.43
395.31	225.41
395.69	225.49
396.06	225.54
396.44	225.60
396.82	225.57
397.19	225.67
397.57	225.69
397.95	225.70
398.32	225.69
398.70	225.77
399.07	225.89
399.45	225.98
399.82	226.06
400.20	226.14
400.58	226.24
400.95	226.28
401.33	226.39
401.70	226.56
402.08	226.66
402.45	226.73
402.83	226.80
403.20	226.91
403.58	227.00
403.95	227.10
404.33	227.23
404.71	227.38
405.08	227.53
405.46	227.65
405.83	227.79
406.21	227.96
406.58	228.12
406.96	228.27
407.33	228.46
407.70	228.64
408.08	228.90
408.45	229.11
408.83	229.34
409.20	229.56
409.58	229.76
409.95	230.01
410.33	230.32
410.70	230.59
411.08	230.91
411.45	231.23
411.82	231.54
412.20	231.89
412.57	232.32
412.95	232.59
413.32	233.02
413.69	233.45
414.07	233.88
414.44	234.32
414.82	234.80
415.19	235.32
415.56	235.88
415.94	236.44
416.31	237.05
416.68	237.70
417.06	238.41
417.43	239.06
417.81	239.84
418.18	240.61
418.55	241.45
418.93	242.29
419.30	243.17
419.67	244.12
420.04	245.09
420.42	246.09
420.79	247.30
421.16	248.46
421.54	249.64
421.91	250.86
422.28	252.12
422.66	253.45
423.03	254.76
423.40	256.08
423.77	257.47
424.15	258.91
424.52	260.38
424.89	261.99
425.26	263.56
425.64	264.98
426.01	266.58
426.38	268.22
426.75	269.89
427.13	271.64
427.50	273.42
427.87	275.29
428.24	277.11
428.61	278.83
428.99	280.76
429.36	282.83
429.73	284.89
430.10	286.86
430.47	288.90
430.85	291.00
431.22	293.23
431.59	295.58
431.96	297.82
432.33	300.32
432.70	302.70
433.08	305.48
433.45	308.14
433.82	310.75
434.19	313.66
434.56	316.47
434.93	319.07
435.30	321.69
435.68	324.55
436.05	327.39
436.42	330.15
436.79	332.65
437.16	335.35
437.53	338.13
437.90	340.98
438.27	343.68
438.64	346.54
439.01	349.12
439.38	351.37
439.75	353.50
440.13	355.97
440.50	358.22
440.87	360.05
441.24	361.92
441.61	364.00
441.98	365.45
442.35	367.20
442.72	369.06
443.09	370.87
443.46	371.88
443.83	372.43
444.20	372.93
444.57	373.77
444.94	374.03
445.31	374.34
445.68	374.69
446.05	374.80
446.42	374.35
446.79	373.87
447.16	373.40
447.53	373.09
447.90	371.94
448.27	370.83
448.64	369.25
449.01	368.15
449.37	366.22
449.74	364.33
450.11	362.09
450.48	359.61
450.85	357.02
451.22	354.89
451.59	352.88
451.96	350.97
452.33	348.40
452.70	346.04
453.07	343.27
453.43	340.42
453.80	337.68
454.17	335.01
454.54	332.52
454.91	329.79
455.28	327.10
455.65	324.59
456.02	322.14
456.38	320.04
456.75	317.40
457.12	315.16
457.49	312.91
457.86	310.79
458.23	308.98
458.59	307.00
458.96	304.93
459.33	303.09
459.70	301.25
460.07	299.71
460.43	298.02
460.80	296.37
461.17	294.87
461.54	293.39
461.91	292.01
462.27	290.60
462.64	289.38
463.01	288.04
463.38	286.75
463.74	285.43
464.11	284.29
464.48	283.22
464.85	282.13
465.21	281.32
465.58	280.37
465.95	279.29
466.32	278.36
466.68	277.42
467.05	276.54
467.42	275.64
467.78	274.74
468.15	273.91
468.52	273.29
468.88	272.46
469.25	271.68
469.62	271.06
469.98	270.38
470.35	269.77
470.72	269.22
471.08	268.56
471.45	268.01
471.82	267.48
472.18	266.93
472.55	266.53
472.92	266.01
473.28	265.59
473.65	265.15
474.02	264.72
474.38	264.38
474.75	264.06
475.11	263.77
475.48	263.54
475.85	263.31
476.21	263.07
476.58	262.91
476.94	262.77
477.31	262.60
477.67	262.46
478.04	262.36
478.41	262.27
478.77	262.35
479.14	262.31
479.50	262.32
479.87	262.41
480.23	262.48
480.60	262.55
480.96	262.66
481.33	262.87
481.69	263.08
482.06	263.30
482.42	263.49
482.79	263.77
483.15	264.07
483.52	264.44
483.88	264.77
484.25	265.17
484.61	265.60
484.98	266.06
485.34	266.60
485.71	267.19
486.07	267.80
486.44	268.39
486.80	269.12
487.17	269.86
487.53	270.63
487.90	271.50
488.26	272.46
488.62	273.43
488.99	274.39
489.35	275.46
489.72	276.59
490.08	277.87
490.44	279.09
490.81	280.36
491.17	281.72
491.54	283.25
491.90	284.79
492.26	286.43
492.63	288.18
492.99	289.99
493.36	291.88
493.72	293.96
494.08	296.04
494.45	298.28
494.81	300.67
495.17	303.11
495.54	305.69
495.90	308.34
496.26	311.17
496.63	314.16
496.99	317.27
497.35	320.53
497.72	323.90
498.08	327.43
498.44	331.15
498.80	335.11
499.17	339.14
499.53	343.35
499.89	347.76
500.26	352.25
500.62	356.93
500.98	361.92
501.34	366.97
501.71	372.29
502.07	377.69
502.43	383.27
502.79	389.14
503.16	395.16
503.52	401.50
503.88	407.94
504.24	414.55
504.60	421.46
504.97	428.55
505.33	435.85
505.69	443.57
506.05	451.38
506.41	459.22
506.78	467.40
507.14	475.84
507.50	484.49
507.86	493.49
508.22	502.70
508.59	511.89
508.95	521.50
509.31	531.36
509.67	541.44
510.03	551.71
510.39	562.22
510.75	573.02
511.12	583.85
511.48	595.09
511.84	606.50
512.20	618.01
512.56	629.97
512.92	642.16
513.28	654.46
513.64	666.92
514.00	679.63
514.37	692.53
514.73	705.58
515.09	718.66
515.45	732.00
515.81	745.58
516.17	759.50
516.53	773.51
516.89	787.63
517.25	801.79
517.61	816.16
517.97	830.63
518.33	845.04
518.69	859.75
519.05	874.77
519.41	889.99
519.77	905.43
520.13	920.81
520.49	936.11
520.85	951.48
521.21	967.15
521.57	983.30
521.93	999.05
522.29	1015.36
522.65	1031.58
523.01	1047.73
523.37	1063.70
523.73	1079.88
524.09	1095.97
524.45	1112.21
524.81	1128.79
525.17	1145.57
525.53	1162.40
525.89	1179.15
526.25	1196.00
526.61	1212.32
526.97	1228.99
527.33	1245.39
527.68	1261.93
528.04	1278.45
528.40	1294.94
528.76	1311.82
529.12	1328.39
529.48	1345.10
529.84	1361.02
530.20	1377.53
530.56	1394.45
530.91	1411.79
531.27	1428.22
531.63	1444.56
531.99	1461.03
532.35	1476.90
532.71	1492.69
533.07	1508.85
533.42	1524.67
533.78	1540.66
534.14	1556.82
534.50	1572.02
534.86	1587.81
535.21	1602.78
535.57	1618.49
535.93	1634.01
536.29	1648.80
536.65	1663.65
537.00	1678.30
537.36	1693.55
537.72	1708.04
538.08	1722.21
538.44	1735.85
538.79	1749.89
539.15	1763.50
539.51	1777.13
539.87	1791.30
540.22	1805.03
540.58	1818.60
540.94	1831.77
541.29	1844.51
541.65	1857.03
542.01	1870.07
542.37	1882.31
542.72	1894.83
543.08	1906.62
543.44	1918.83
543.79	1929.99
544.15	1940.93
544.51	1952.59
544.87	1963.44
545.22	1974.15
545.58	1984.33
545.94	1993.97
546.29	2003.63
546.65	2013.52
547.01	2022.90
547.36	2031.58
547.72	2039.92
548.07	2047.72
548.43	2055.94
548.79	2063.95
549.14	2071.43
549.50	2078.72
549.86	2086.40
550.21	2093.59
550.57	2100.66
550.92	2107.27
551.28	2114.25
551.64	2121.29
551.99	2127.67
552.35	2133.84
552.70	2139.87
553.06	2145.93
553.41	2152.33
553.77	2158.39
554.13	2164.43
554.48	2170.36
554.84	2175.83
555.19	2181.06
555.55	2186.12
555.90	2190.52
556.26	2195.32
556.61	2200.07
556.97	2204.52
557.32	2208.50
557.68	2212.62
558.03	2216.76
558.39	2220.41
558.74	2225.06
559.10	2228.92
559.45	2232.65
559.81	2236.83
560.16	2240.77
560.52	2243.87
560.87	2247.21
561.23	2249.90
561.58	2252.81
561.94	2255.23
562.29	2257.84
562.64	2260.57
563.00	2263.32
563.35	2266.81
563.71	2269.98
564.06	2273.32
564.42	2276.11
564.77	2278.78
565.12	2281.11
565.48	2283.17
565.83	2285.11
566.19	2286.49
566.54	2287.49
566.89	2288.54
567.25	2289.31
567.60	2290.53
567.96	2292.41
568.31	2293.26
568.66	2294.48
569.02	2294.97
569.37	2295.49
569.72	2296.22
570.08	2296.38
570.43	2296.46
570.78	2295.91
571.14	2294.56
571.49	2293.05
571.84	2292.80
572.20	2291.70
572.55	2290.71
572.90	2289.05
573.26	2287.54
573.61	2285.86
573.96	2284.19
574.31	2281.38
574.67	2278.37
575.02	2274.88
575.37	2271.49
575.72	2267.90
576.08	2264.48
576.43	2261.23
576.78	2257.67
577.13	2254.52
577.49	2251.58
577.84	2248.04
578.19	2244.35
578.54	2240.60
578.90	2236.40
579.25	2230.87
579.60	2225.98
579.95	2220.97
580.30	2216.11
580.66	2211.19
581.01	2206.15
581.36	2201.21
581.71	2197.17
582.06	2192.75
582.42	2188.33
582.77	2183.29
583.12	2178.89
583.47	2174.19
583.82	2169.38
584.17	2164.10
584.53	2158.68
584.88	2153.07
585.23	2147.49
585.58	2142.28
585.93	2136.95
586.28	2132.34
586.63	2127.34
586.98	2122.38
587.34	2117.86
587.69	2113.10
588.04	2107.93
588.39	2102.53
588.74	2096.15
589.09	2089.92
589.44	2083.14
589.79	2077.23
590.14	2071.70
590.49	2064.97
590.84	2058.71
591.19	2052.71
591.54	2046.36
591.89	2039.14
592.25	2032.36
592.60	2025.16
592.95	2017.74
593.30	2010.53
593.65	2003.13
594.00	1996.24
594.35	1988.98
594.70	1980.84
595.05	1973.60
595.40	1966.30
595.75	1958.68
596.10	1952.55
596.45	1945.91
596.80	1939.93
597.15	1933.38
597.50	1926.20
597.85	1919.86
598.19	1913.24
598.54	1906.12
598.89	1899.44
599.24	1893.52
599.59	1886.96
599.94	1880.80
600.29	1874.20
600.64	1867.62
600.99	1860.09
601.34	1853.18
601.69	1846.29
602.04	1839.54
602.39	1832.36
602.74	1825.55
603.08	1818.88
603.43	1812.08
603.78	1804.86
604.13	1797.60
604.48	1790.24
604.83	1783.51
605.18	1776.54
605.53	1768.73
605.87	1760.87
606.22	1753.72
606.57	1745.76
606.92	1738.44
607.27	1731.37
607.62	1724.53
607.96	1717.27
608.31	1710.64
608.66	1703.08
609.01	1695.51
609.36	1687.97
609.70	1679.87
610.05	1671.73
610.40	1664.04
610.75	1655.81
611.10	1648.04
611.44	1639.57
611.79	1631.59
612.14	1622.78
612.49	1613.64
612.83	1605.25
613.18	1597.05
613.53	1588.99
613.88	1580.54
614.22	1572.19
614.57	1563.55
614.92	1555.57
615.27	1548.04
615.61	1539.65
615.96	1531.73
616.31	1524.05
616.65	1516.75
617.00	1509.24
617.35	1501.73
617.70	1493.46
618.04	1484.92
618.39	1476.68
618.74	1469.15
619.08	1460.89
619.43	1453.27
619.78	1446.32
620.12	1439.10
620.47	1431.61
620.82	1423.46
621.16	1416.01
621.51	1408.40
621.85	1400.78
622.20	1392.28
622.55	1383.91
622.89	1376.20
623.24	1368.48
623.59	1361.08
623.93	1353.44
624.28	1346.22
624.62	1338.68
624.97	1331.51
625.32	1324.77
625.66	1317.92
626.01	1310.74
626.35	1303.29
626.70	1295.59
627.04	1287.85
627.39	1280.08
627.73	1272.66
628.08	1265.72
628.43	1258.43
628.77	1251.07
629.12	1243.49
629.46	1236.31
629.81	1228.73
630.15	1221.41
630.50	1214.06
630.84	1205.90
631.19	1197.96
631.53	1190.40
631.88	1182.75
632.22	1175.18
632.57	1167.80
632.91	1160.14
633.26	1152.67
633.60	1145.14
633.95	1138.09
634.29	1131.09
634.64	1124.42
634.98	1117.11
635.32	1109.88
635.67	1103.28
636.01	1096.70
636.36	1089.84
636.70	1083.20
637.05	1076.76
637.39	1070.30
637.73	1063.73
638.08	1057.89
638.42	1051.89
638.77	1045.46
639.11	1038.87
639.45	1032.43
639.80	1025.81
640.14	1019.33
640.49	1012.86
640.83	1006.68
641.17	1000.41
641.52	993.95
641.86	987.38
642.20	981.38
642.55	975.04
642.89	968.51
643.23	961.90
643.58	956.16
643.92	950.08
644.26	943.98
644.61	938.01
644.95	931.95
645.29	925.32
645.64	918.68
645.98	912.41
646.32	906.59
646.66	900.50
647.01	894.68
647.35	889.03
647.69	883.17
648.04	877.59
648.38	871.77
648.72	865.88
649.06	859.87
649.41	854.05
649.75	848.09
650.09	842.20
650.43	836.41
650.78	830.22
651.12	824.23
651.46	818.49
651.80	812.60
652.14	807.19
652.49	801.88
652.83	796.67
653.17	790.93
653.51	785.24
653.85	779.89
654.20	774.29
654.54	768.35
654.88	762.55
655.22	756.73
655.56	751.06
655.90	745.63
656.25	740.39
656.59	735.09
656.93	730.04
657.27	724.85
657.61	719.44
657.95	714.40
658.29	709.31
658.64	704.13
658.98	698.95
659.32	693.56
659.66	688.29
660.00	682.92
660.34	677.90
660.68	672.88
661.02	667.85
661.36	663.15
661.70	658.57
662.05	654.30
662.39	649.95
662.73	645.52
663.07	641.18
663.41	636.72
663.75	632.19
664.09	627.61
664.43	623.19
664.77	619.06
665.11	614.86
665.45	610.71
665.79	606.60
666.13	602.44
666.47	598.37
666.81	594.22
667.15	590.09
667.49	586.19
667.83	582.41
668.17	578.51
668.51	574.44
668.85	570.40
669.19	566.50
669.53	562.68
669.87	558.76
670.21	555.00
670.55	551.35
670.89	547.89
671.23	544.47
671.57	541.03
671.91	537.44
672.25	533.85
672.58	530.36
672.92	526.93
673.26	523.79
673.60	520.59
673.94	517.48
674.28	514.59
674.62	511.66
674.96	508.52
675.30	505.54
675.64	502.62
675.97	499.83
676.31	496.97
676.65	493.99
676.99	491.36
677.33	488.50
677.67	485.68
678.01	482.66
678.34	479.70
678.68	476.74
679.02	473.94
679.36	471.20
679.70	468.46
680.04	465.70
680.37	462.85
680.71	460.05
681.05	457.39
681.39	454.63
681.73	452.02
682.06	449.55
682.40	447.05
682.74	444.48
683.08	441.97
683.42	439.34
683.75	436.82
684.09	434.15
684.43	431.66
684.77	429.21
685.10	426.88
685.44	424.57
685.78	422.26
686.12	420.04
686.45	417.70
686.79	415.39
687.13	413.20
687.46	410.95
687.80	408.78
688.14	406.58
688.48	404.52
688.81	402.23
689.15	400.08
689.49	397.89
689.82	395.82
690.16	393.71
690.50	391.81
690.83	389.86
691.17	387.93
691.51	386.05
691.84	384.21
692.18	382.30
692.52	380.28
692.85	378.37
693.19	376.46
693.52	374.65
693.86	372.84
694.20	371.07
694.53	369.28
694.87	367.43
695.21	365.67
695.54	363.86
695.88	362.19
696.21	360.45
696.55	358.77
696.88	357.08
697.22	355.43
697.56	353.81
697.89	352.21
698.23	350.59
698.56	348.95
698.90	347.38
699.23	345.72
699.57	344.21
699.90	342.72
700.24	341.22
700.58	339.69
700.91	338.21
701.25	336.76
701.58	335.47
701.92	334.11
702.25	332.73
702.59	331.35
702.92	330.02
703.26	328.73
703.59	327.48
703.93	326.32
704.26	325.09
704.60	323.76
704.93	322.50
705.26	321.26
705.60	320.09
705.93	318.91
706.27	317.86
706.60	316.82
706.94	315.67
707.27	314.55
707.61	313.50
707.94	312.48
708.27	311.36
708.61	310.27
708.94	309.24
709.28	308.28
709.61	307.32
709.94	306.39
710.28	305.34
710.61	304.38
710.95	303.29
711.28	302.38
711.61	301.44
711.95	300.51
712.28	299.54
712.61	298.58
712.95	297.63
713.28	296.75
713.61	295.82
713.95	294.96
714.28	294.10
714.61	293.22
714.95	292.37
715.28	291.52
715.61	290.61
715.95	289.76
716.28	288.89
716.61	288.03
716.95	287.17
717.28	286.44
717.61	285.66
717.94	284.88
718.28	284.05
718.61	283.32
718.94	282.58
719.27	281.91
719.61	281.23
719.94	280.56
720.27	279.81
720.60	279.13
720.94	278.51
721.27	277.91
721.60	277.30
721.93	276.69
722.27	276.12
722.60	275.54
722.93	275.00
723.26	274.45
723.59	273.93
723.93	273.35
724.26	272.78
724.59	272.18
724.92	271.68
725.25	271.19
725.59	270.69
725.92	270.19
726.25	269.70
726.58	269.23
726.91	268.71
727.24	268.25
727.57	267.79
727.91	267.26
728.24	266.77
728.57	266.34
728.90	265.88
729.23	265.39
729.56	264.96
729.89	264.49
730.22	263.96
730.55	263.48
730.89	263.06
731.22	262.63
731.55	262.23
731.88	261.79
732.21	261.34
732.54	260.90
732.87	260.51
733.20	260.10
733.53	259.71
733.86	259.38
734.19	258.98
734.52	258.64
734.85	258.36
735.18	257.92
735.51	257.55
735.84	257.20
736.17	256.86
736.50	256.46
736.83	256.21
737.16	255.89
737.49	255.59
737.82	255.22
738.15	254.87
738.48	254.51
738.81	254.21
739.14	253.88
739.47	253.56
739.80	253.26
740.13	252.96
740.46	252.66
740.79	252.33
741.12	252.02
741.45	251.68
741.78	251.31
742.11	251.07
742.44	250.73
742.77	250.44
743.10	250.12
743.43	249.83
743.75	249.46
744.08	249.32
744.41	249.04
744.74	248.80
745.07	248.56
745.40	248.33
745.73	248.09
746.06	247.88
746.39	247.62
746.71	247.31
747.04	247.06
747.37	246.79
747.70	246.55
748.03	246.35
748.36	246.10
748.68	245.89
749.01	245.61
749.34	245.40
749.67	245.17
750.00	244.99
750.33	244.86
750.65	244.63
750.98	244.31
751.31	244.08
751.64	243.86
751.97	243.68
752.29	243.47
752.62	243.20
752.95	242.95
753.28	242.76
753.60	242.55
753.93	242.38
754.26	242.17
754.59	241.95
754.91	241.72
755.24	241.55
755.57	241.35
755.90	241.17
756.22	240.98
756.55	240.78
756.88	240.56
757.20	240.29
757.53	240.10
757.86	239.96
758.19	239.80
758.51	239.63
758.84	239.41
759.17	239.27
759.49	239.08
759.82	238.97
760.15	238.82
760.47	238.71
760.80	238.51
761.13	238.37
761.45	238.20
761.78	238.03
762.11	237.82
762.43	237.65
762.76	237.49
763.08	237.37
763.41	237.23
763.74	237.12
764.06	236.97
764.39	236.82
764.71	236.64
765.04	236.48
765.37	236.32
765.69	236.17
766.02	236.03
766.34	235.94
766.67	235.75
767.00	235.64
767.32	235.54
767.65	235.48
767.97	235.35
768.30	235.21
768.62	235.09
768.95	235.02
769.27	234.89
769.60	234.80
769.92	234.64
770.25	234.52
770.57	234.37
770.90	234.26
771.22	234.15
771.55	234.05
771.87	234.00
772.20	233.90
772.52	233.90
772.85	233.88
773.17	233.77
773.50	233.68
773.82	233.54
774.15	233.38
774.47	233.21
774.80	233.10
775.12	233.02
775.45	232.95
775.77	232.84
776.09	232.77
776.42	232.70
776.74	232.67
777.07	232.60
777.39	232.54
777.72	232.45
778.04	232.39
778.36	232.31
778.69	232.20
779.01	232.13
779.33	231.98
779.66	231.81
779.98	231.73
780.31	231.67
780.63	231.69
780.95	231.67
781.28	231.61
781.60	231.55
781.92	231.47
782.25	231.41
782.57	231.38
782.89	231.30
783.22	231.24
783.54	231.16
783.86	231.11
784.19	231.05
784.51	231.06
784.83	231.01
785.16	230.96
785.48	230.93
785.80	230.91
786.12	230.84
786.45	230.83
786.77	230.81
787.09	230.77
