SpectraSuite Data File
++++++++++++++++++++++++++++++++++++
Date: Fri Feb 01 15:12:11 EST 2013
User: group
Dark Spectrum Present: No
Reference Spectrum Present: No
Number of Sampled Component Spectra: 1
Spectrometers: USB2E7196
Integration Time (usec): 35000 (USB2E7196)
Spectra Averaged: 100 (USB2E7196)
Boxcar Smoothing: 10 (USB2E7196)
Correct for Electrical Dark: No (USB2E7196)
Strobe/Lamp Enabled: No (USB2E7196)
Correct for Detector Non-linearity: No (USB2E7196)
Correct for Stray Light: No (USB2E7196)
Number of Pixels in Processed Spectrum: 2048
>>>>>Begin Processed Spectral Data<<<<<
339.09	0.00
339.48	215.25
339.86	217.25
340.24	217.84
340.63	219.26
341.01	221.75
341.39	222.41
341.78	223.75
342.16	224.56
342.54	225.09
342.93	213.58
343.31	224.35
343.69	224.90
344.07	225.36
344.46	225.81
344.84	226.17
345.22	226.42
345.60	226.63
345.99	226.80
346.37	226.93
346.75	227.04
347.13	227.14
347.52	227.21
347.90	227.30
348.28	227.32
348.66	227.36
349.05	227.36
349.43	227.39
349.81	227.42
350.19	227.47
350.57	227.51
350.96	227.57
351.34	227.66
351.72	227.77
352.10	227.83
352.48	227.90
352.87	227.98
353.25	228.04
353.63	228.15
354.01	228.23
354.39	228.29
354.77	228.36
355.15	228.43
355.54	228.47
355.92	228.51
356.30	228.57
356.68	228.71
357.06	228.79
357.44	228.85
357.82	228.91
358.20	228.99
358.58	229.07
358.97	229.17
359.35	229.25
359.73	229.28
360.11	229.33
360.49	229.38
360.87	229.45
361.25	229.52
361.63	229.57
362.01	229.61
362.39	229.67
362.77	229.73
363.15	229.76
363.53	229.81
363.91	229.83
364.29	229.88
364.67	229.78
365.05	229.79
365.43	229.82
365.81	229.81
366.19	229.82
366.57	229.81
366.95	229.77
367.33	229.73
367.71	229.72
368.09	229.72
368.47	229.70
368.85	229.64
369.23	229.63
369.61	229.61
369.99	229.57
370.37	229.56
370.75	229.57
371.13	229.47
371.51	229.39
371.89	229.32
372.27	229.26
372.65	229.21
373.03	229.11
373.41	229.03
373.78	228.98
374.16	228.88
374.54	228.82
374.92	228.79
375.30	228.72
375.68	228.67
376.06	228.60
376.44	228.51
376.82	228.44
377.19	228.36
377.57	228.30
377.95	228.20
378.33	228.09
378.71	227.95
379.09	227.91
379.47	227.87
379.84	227.80
380.22	227.68
380.60	227.58
380.98	227.52
381.36	227.43
381.73	227.34
382.11	227.28
382.49	227.20
382.87	227.08
383.25	227.02
383.62	227.06
384.00	226.98
384.38	226.95
384.76	226.91
385.13	226.89
385.51	226.79
385.89	226.75
386.27	226.68
386.64	226.64
387.02	226.58
387.40	226.53
387.78	226.48
388.15	226.49
388.53	226.45
388.91	226.43
389.29	226.42
389.66	226.44
390.04	226.41
390.42	226.41
390.79	226.40
391.17	226.39
391.55	226.25
391.92	226.22
392.30	226.23
392.68	226.22
393.05	226.21
393.43	226.23
393.81	226.22
394.18	226.24
394.56	226.27
394.94	226.32
395.31	226.33
395.69	226.43
396.06	226.46
396.44	226.51
396.82	226.56
397.19	226.66
397.57	226.66
397.95	226.76
398.32	226.79
398.70	226.89
399.07	226.98
399.45	227.05
399.82	227.15
400.20	227.21
400.58	227.31
400.95	227.36
401.33	227.47
401.70	227.69
402.08	227.81
402.45	227.91
402.83	228.04
403.20	228.19
403.58	228.26
403.95	228.40
404.33	228.58
404.71	228.71
405.08	228.88
405.46	229.05
405.83	229.23
406.21	229.39
406.58	229.56
406.96	229.74
407.33	229.93
407.70	230.14
408.08	230.43
408.45	230.61
408.83	230.85
409.20	231.05
409.58	231.19
409.95	231.45
410.33	231.71
410.70	231.95
411.08	232.25
411.45	232.59
411.82	232.89
412.20	233.23
412.57	233.67
412.95	233.97
413.32	234.37
413.69	234.75
414.07	235.20
414.44	235.65
414.82	236.12
415.19	236.70
415.56	237.25
415.94	237.77
416.31	238.42
416.68	239.07
417.06	239.80
417.43	240.49
417.81	241.26
418.18	242.01
418.55	242.86
418.93	243.73
419.30	244.60
419.67	245.52
420.04	246.47
420.42	247.45
420.79	248.64
421.16	249.74
421.54	250.96
421.91	252.18
422.28	253.44
422.66	254.79
423.03	256.10
423.40	257.44
423.77	258.86
424.15	260.30
424.52	261.79
424.89	263.38
425.26	264.96
425.64	266.42
426.01	268.08
426.38	269.72
426.75	271.37
427.13	273.10
427.50	274.94
427.87	276.83
428.24	278.69
428.61	280.43
428.99	282.39
429.36	284.43
429.73	286.49
430.10	288.50
430.47	290.51
430.85	292.58
431.22	294.79
431.59	297.18
431.96	299.43
432.33	301.90
432.70	304.25
433.08	307.07
433.45	309.70
433.82	312.29
434.19	315.19
434.56	318.04
434.93	320.69
435.30	323.34
435.68	326.19
436.05	329.06
436.42	331.88
436.79	334.43
437.16	337.16
437.53	339.97
437.90	342.82
438.27	345.57
438.64	348.44
439.01	351.07
439.38	353.26
439.75	355.43
440.13	357.94
440.50	360.29
440.87	362.18
441.24	364.14
441.61	366.33
441.98	367.82
442.35	369.64
442.72	371.51
443.09	373.33
443.46	374.36
443.83	374.91
444.20	375.37
444.57	376.24
444.94	376.55
445.31	376.96
445.68	377.28
446.05	377.44
446.42	377.06
446.79	376.68
447.16	376.29
447.53	375.97
447.90	374.82
448.27	373.73
448.64	372.09
449.01	370.90
449.37	368.88
449.74	366.97
450.11	364.71
450.48	362.24
450.85	359.68
451.22	357.53
451.59	355.50
451.96	353.59
452.33	350.97
452.70	348.60
453.07	345.73
453.43	342.82
453.80	340.08
454.17	337.38
454.54	334.79
454.91	332.08
455.28	329.41
455.65	326.90
456.02	324.39
456.38	322.23
456.75	319.58
457.12	317.33
457.49	315.14
457.86	312.98
458.23	311.15
458.59	309.06
458.96	306.97
459.33	305.12
459.70	303.22
460.07	301.69
460.43	299.96
460.80	298.36
461.17	296.90
461.54	295.38
461.91	293.92
462.27	292.46
462.64	291.15
463.01	289.80
463.38	288.47
463.74	287.09
464.11	285.92
464.48	284.90
464.85	283.77
465.21	282.86
465.58	281.91
465.95	280.72
466.32	279.85
466.68	278.93
467.05	278.04
467.42	277.13
467.78	276.17
468.15	275.28
468.52	274.56
468.88	273.69
469.25	272.90
469.62	272.24
469.98	271.55
470.35	270.88
470.72	270.24
471.08	269.61
471.45	269.05
471.82	268.51
472.18	267.91
472.55	267.49
472.92	266.97
473.28	266.47
473.65	266.06
474.02	265.58
474.38	265.18
474.75	264.83
475.11	264.50
475.48	264.22
475.85	264.01
476.21	263.78
476.58	263.57
476.94	263.40
477.31	263.23
477.67	263.09
478.04	263.01
478.41	262.96
478.77	262.99
479.14	262.97
479.50	262.98
479.87	263.05
480.23	263.10
480.60	263.15
480.96	263.26
481.33	263.45
481.69	263.65
482.06	263.89
482.42	264.13
482.79	264.33
483.15	264.64
483.52	264.99
483.88	265.34
484.25	265.76
484.61	266.22
484.98	266.66
485.34	267.22
485.71	267.79
486.07	268.39
486.44	268.97
486.80	269.65
487.17	270.40
487.53	271.21
487.90	272.06
488.26	272.98
488.62	273.99
488.99	274.97
489.35	276.04
489.72	277.16
490.08	278.34
490.44	279.66
490.81	281.00
491.17	282.37
491.54	283.88
491.90	285.40
492.26	287.02
492.63	288.79
492.99	290.57
493.36	292.47
493.72	294.51
494.08	296.58
494.45	298.81
494.81	301.18
495.17	303.61
495.54	306.19
495.90	308.88
496.26	311.66
496.63	314.61
496.99	317.74
497.35	320.94
497.72	324.35
498.08	327.84
498.44	331.54
498.80	335.48
499.17	339.47
499.53	343.67
499.89	348.01
500.26	352.47
500.62	357.13
500.98	362.07
501.34	367.15
501.71	372.52
502.07	377.96
502.43	383.48
502.79	389.23
503.16	395.32
503.52	401.57
503.88	407.95
504.24	414.53
504.60	421.36
504.97	428.49
505.33	435.80
505.69	443.47
506.05	451.17
506.41	459.03
506.78	467.17
507.14	475.64
507.50	484.35
507.86	493.36
508.22	502.50
508.59	511.67
508.95	521.20
509.31	530.90
509.67	540.94
510.03	551.23
510.39	561.78
510.75	572.49
511.12	583.39
511.48	594.67
511.84	606.14
512.20	617.67
512.56	629.63
512.92	641.78
513.28	654.15
513.64	666.68
514.00	679.40
514.37	692.32
514.73	705.34
515.09	718.35
515.45	731.66
515.81	745.30
516.17	759.34
516.53	773.55
516.89	787.80
517.25	802.05
517.61	816.52
517.97	831.06
518.33	845.58
518.69	860.46
519.05	875.49
519.41	890.77
519.77	906.39
520.13	921.87
520.49	937.27
520.85	952.70
521.21	968.40
521.57	984.67
521.93	1000.61
522.29	1017.07
522.65	1033.40
523.01	1049.65
523.37	1065.74
523.73	1081.94
524.09	1098.07
524.45	1114.46
524.81	1131.07
525.17	1147.96
525.53	1164.78
525.89	1181.73
526.25	1198.55
526.61	1214.95
526.97	1231.64
527.33	1248.10
527.68	1264.72
528.04	1281.32
528.40	1298.04
528.76	1315.18
529.12	1331.83
529.48	1348.59
529.84	1364.71
530.20	1381.46
530.56	1398.63
530.91	1416.08
531.27	1432.87
531.63	1449.36
531.99	1466.01
532.35	1482.13
532.71	1498.09
533.07	1514.64
533.42	1530.55
533.78	1546.72
534.14	1563.20
534.50	1578.68
534.86	1594.63
535.21	1609.92
535.57	1625.96
535.93	1641.55
536.29	1656.46
536.65	1671.61
537.00	1686.61
537.36	1702.03
537.72	1716.59
538.08	1731.07
538.44	1744.95
538.79	1759.04
539.15	1772.91
539.51	1786.84
539.87	1801.18
540.22	1814.93
540.58	1828.69
540.94	1842.20
541.29	1855.18
541.65	1867.84
542.01	1881.20
542.37	1893.56
542.72	1906.10
543.08	1918.03
543.44	1930.59
543.79	1941.85
544.15	1952.82
544.51	1964.41
544.87	1975.31
545.22	1986.07
545.58	1996.33
545.94	2006.20
546.29	2016.12
546.65	2025.94
547.01	2035.07
547.36	2043.87
547.72	2052.54
548.07	2060.42
548.43	2068.62
548.79	2076.77
549.14	2084.37
549.50	2091.67
549.86	2099.53
550.21	2106.85
550.57	2113.86
550.92	2120.33
551.28	2127.42
551.64	2134.61
551.99	2141.04
552.35	2147.30
552.70	2153.60
553.06	2159.42
553.41	2165.73
553.77	2171.57
554.13	2177.74
554.48	2183.79
554.84	2189.15
555.19	2194.45
555.55	2199.37
555.90	2203.80
556.26	2208.52
556.61	2213.33
556.97	2217.50
557.32	2221.51
557.68	2225.68
558.03	2230.01
558.39	2233.69
558.74	2238.24
559.10	2241.90
559.45	2245.49
559.81	2249.78
560.16	2253.47
560.52	2256.72
560.87	2260.15
561.23	2262.86
561.58	2265.61
561.94	2268.15
562.29	2270.75
562.64	2273.36
563.00	2276.13
563.35	2279.56
563.71	2282.57
564.06	2285.69
564.42	2288.66
564.77	2291.15
565.12	2293.23
565.48	2295.04
565.83	2296.75
566.19	2297.93
566.54	2298.92
566.89	2300.21
567.25	2300.71
567.60	2302.01
567.96	2303.62
568.31	2304.38
568.66	2305.39
569.02	2305.97
569.37	2306.19
569.72	2306.85
570.08	2306.82
570.43	2306.66
570.78	2305.87
571.14	2304.33
571.49	2302.95
571.84	2302.50
572.20	2301.20
572.55	2300.22
572.90	2298.57
573.26	2297.21
573.61	2295.42
573.96	2293.57
574.31	2290.32
574.67	2287.18
575.02	2283.49
575.37	2279.92
575.72	2275.99
576.08	2272.61
576.43	2269.22
576.78	2265.54
577.13	2262.12
577.49	2259.03
577.84	2255.55
578.19	2251.77
578.54	2248.07
578.90	2243.57
579.25	2237.84
579.60	2232.78
579.95	2227.67
580.30	2222.47
580.66	2217.25
581.01	2212.40
581.36	2207.41
581.71	2203.20
582.06	2198.63
582.42	2194.06
582.77	2188.88
583.12	2184.11
583.47	2179.19
583.82	2173.92
584.17	2168.56
584.53	2163.07
584.88	2157.15
585.23	2151.20
585.58	2145.78
585.93	2140.21
586.28	2135.41
586.63	2130.24
586.98	2125.06
587.34	2120.15
587.69	2115.35
588.04	2109.95
588.39	2104.10
588.74	2097.57
589.09	2091.34
589.44	2084.48
589.79	2078.38
590.14	2072.65
590.49	2066.12
590.84	2059.73
591.19	2053.77
591.54	2047.17
591.89	2039.63
592.25	2032.83
592.60	2025.59
592.95	2017.78
593.30	2010.20
593.65	2002.49
594.00	1995.50
594.35	1988.15
594.70	1980.04
595.05	1972.61
595.40	1965.07
595.75	1957.54
596.10	1951.21
596.45	1944.44
596.80	1938.15
597.15	1931.40
597.50	1924.11
597.85	1917.66
598.19	1910.88
598.54	1903.73
598.89	1897.20
599.24	1891.31
599.59	1884.46
599.94	1878.14
600.29	1871.81
600.64	1865.34
600.99	1857.91
601.34	1850.99
601.69	1843.96
602.04	1836.94
602.39	1829.45
602.74	1822.74
603.08	1816.00
603.43	1809.14
603.78	1801.83
604.13	1794.55
604.48	1787.21
604.83	1780.35
605.18	1773.17
605.53	1765.20
605.87	1757.06
606.22	1749.69
606.57	1741.71
606.92	1734.42
607.27	1727.19
607.62	1720.19
607.96	1712.78
608.31	1705.97
608.66	1698.32
609.01	1690.80
609.36	1683.36
609.70	1675.54
610.05	1667.45
610.40	1659.69
610.75	1651.36
611.10	1643.67
611.44	1635.27
611.79	1627.19
612.14	1618.56
612.49	1609.54
612.83	1601.10
613.18	1593.10
613.53	1585.01
613.88	1576.43
614.22	1568.25
614.57	1559.72
614.92	1551.72
615.27	1544.13
615.61	1535.80
615.96	1527.77
616.31	1520.20
616.65	1512.71
617.00	1505.12
617.35	1497.51
617.70	1489.06
618.04	1480.60
618.39	1472.30
618.74	1464.71
619.08	1456.48
619.43	1448.99
619.78	1442.03
620.12	1434.88
620.47	1427.27
620.82	1419.10
621.16	1411.78
621.51	1404.11
621.85	1396.68
622.20	1388.18
622.55	1379.97
622.89	1372.25
623.24	1364.70
623.59	1357.25
623.93	1349.78
624.28	1342.50
624.62	1334.89
624.97	1327.75
625.32	1321.16
625.66	1314.20
626.01	1307.04
626.35	1299.64
626.70	1291.84
627.04	1284.20
627.39	1276.53
627.73	1269.10
628.08	1262.25
628.43	1254.82
628.77	1247.47
629.12	1239.76
629.46	1232.60
629.81	1225.24
630.15	1218.03
630.50	1210.64
630.84	1202.50
631.19	1194.71
631.53	1187.29
631.88	1179.85
632.22	1172.32
632.57	1164.90
632.91	1157.38
633.26	1150.02
633.60	1142.71
633.95	1135.65
634.29	1128.60
634.64	1121.98
634.98	1114.76
635.32	1107.61
635.67	1101.20
636.01	1094.53
636.36	1087.74
636.70	1081.27
637.05	1074.70
637.39	1068.29
637.73	1061.72
638.08	1055.85
638.42	1049.88
638.77	1043.44
639.11	1036.84
639.45	1030.47
639.80	1023.81
640.14	1017.32
640.49	1010.81
640.83	1004.49
641.17	998.30
641.52	991.95
641.86	985.52
642.20	979.71
642.55	973.50
642.89	966.98
643.23	960.56
643.58	954.80
643.92	948.55
644.26	942.46
644.61	936.44
644.95	930.47
645.29	923.88
645.64	917.13
645.98	910.74
646.32	904.88
646.66	898.87
647.01	893.17
647.35	887.52
647.69	881.73
648.04	876.26
648.38	870.46
648.72	864.41
649.06	858.27
649.41	852.37
649.75	846.32
650.09	840.32
650.43	834.58
650.78	828.40
651.12	822.50
651.46	816.71
651.80	811.00
652.14	805.60
652.49	800.27
652.83	795.02
653.17	789.40
653.51	783.66
653.85	778.27
654.20	772.57
654.54	766.60
654.88	760.87
655.22	754.95
655.56	749.23
655.90	743.92
656.25	738.68
656.59	733.29
656.93	728.17
657.27	723.09
657.61	717.59
657.95	712.55
658.29	707.50
658.64	702.37
658.98	697.07
659.32	691.59
659.66	686.41
660.00	681.12
660.34	676.23
660.68	671.36
661.02	666.34
661.36	661.68
661.70	657.16
662.05	652.80
662.39	648.55
662.73	644.16
663.07	639.74
663.41	635.32
663.75	630.82
664.09	626.26
664.43	621.90
664.77	617.83
665.11	613.59
665.45	609.46
665.79	605.40
666.13	601.21
666.47	597.12
666.81	592.93
667.15	588.91
667.49	585.00
667.83	581.23
668.17	577.30
668.51	573.27
668.85	569.29
669.19	565.48
669.53	561.58
669.87	557.69
670.21	554.07
670.55	550.48
670.89	547.09
671.23	543.68
671.57	540.19
671.91	536.70
672.25	533.26
672.58	529.82
672.92	526.51
673.26	523.42
673.60	520.31
673.94	517.23
674.28	514.34
674.62	511.42
674.96	508.28
675.30	505.45
675.64	502.50
675.97	499.77
676.31	496.93
676.65	494.11
676.99	491.43
677.33	488.59
677.67	485.73
678.01	482.68
678.34	479.75
678.68	476.90
679.02	474.05
679.36	471.32
679.70	468.60
680.04	465.79
680.37	462.95
680.71	460.23
681.05	457.69
681.39	454.96
681.73	452.29
682.06	449.78
682.40	447.27
682.74	444.79
683.08	442.24
683.42	439.64
683.75	437.10
684.09	434.57
684.43	432.06
684.77	429.61
685.10	427.34
685.44	425.07
685.78	422.77
686.12	420.57
686.45	418.28
686.79	415.97
687.13	413.79
687.46	411.62
687.80	409.44
688.14	407.17
688.48	405.12
688.81	402.86
689.15	400.73
689.49	398.54
689.82	396.42
690.16	394.33
690.50	392.35
690.83	390.42
691.17	388.42
691.51	386.53
691.84	384.72
692.18	382.78
692.52	380.77
692.85	378.86
693.19	376.96
693.52	375.16
693.86	373.29
694.20	371.48
694.53	369.64
694.87	367.83
695.21	366.10
695.54	364.25
695.88	362.56
696.21	360.81
696.55	359.13
696.88	357.48
697.22	355.80
697.56	354.14
697.89	352.49
698.23	350.87
698.56	349.21
698.90	347.56
699.23	345.86
699.57	344.29
699.90	342.78
700.24	341.29
700.58	339.76
700.91	338.29
701.25	336.87
701.58	335.54
701.92	334.15
702.25	332.76
702.59	331.42
702.92	330.12
703.26	328.84
703.59	327.53
703.93	326.32
704.26	325.10
704.60	323.83
704.93	322.57
705.26	321.34
705.60	320.26
705.93	319.18
706.27	318.19
706.60	317.22
706.94	316.12
707.27	314.98
707.61	313.88
707.94	312.88
708.27	311.77
708.61	310.69
708.94	309.68
709.28	308.75
709.61	307.79
709.94	306.84
710.28	305.79
710.61	304.85
710.95	303.78
711.28	302.88
711.61	302.01
711.95	301.10
712.28	300.17
712.61	299.14
712.95	298.19
713.28	297.33
713.61	296.37
713.95	295.50
714.28	294.66
714.61	293.82
714.95	293.00
715.28	292.14
715.61	291.30
715.95	290.46
716.28	289.57
716.61	288.78
716.95	287.97
717.28	287.28
717.61	286.52
717.94	285.84
718.28	285.05
718.61	284.30
718.94	283.61
719.27	282.97
719.61	282.36
719.94	281.72
720.27	280.97
720.60	280.36
720.94	279.76
721.27	279.15
721.60	278.57
721.93	277.95
722.27	277.42
722.60	276.86
722.93	276.27
723.26	275.77
723.59	275.16
723.93	274.62
724.26	274.05
724.59	273.50
724.92	272.97
725.25	272.50
725.59	271.97
725.92	271.45
726.25	270.93
726.58	270.42
726.91	269.88
727.24	269.44
727.57	268.96
727.91	268.42
728.24	267.94
728.57	267.46
728.90	267.03
729.23	266.53
729.56	266.09
729.89	265.64
730.22	265.14
730.55	264.71
730.89	264.28
731.22	263.86
731.55	263.37
731.88	262.94
732.21	262.47
732.54	262.03
732.87	261.61
733.20	261.21
733.53	260.87
733.86	260.49
734.19	260.06
734.52	259.68
734.85	259.37
735.18	258.96
735.51	258.59
735.84	258.19
736.17	257.83
736.50	257.41
736.83	257.18
737.16	256.86
737.49	256.50
737.82	256.12
738.15	255.79
738.48	255.47
738.81	255.13
739.14	254.82
739.47	254.51
739.80	254.20
740.13	253.91
740.46	253.54
740.79	253.21
741.12	252.88
741.45	252.56
741.78	252.22
742.11	251.94
742.44	251.62
742.77	251.33
743.10	251.02
743.43	250.72
743.75	250.33
744.08	250.18
744.41	249.90
744.74	249.63
745.07	249.34
745.40	249.09
745.73	248.85
746.06	248.59
746.39	248.33
746.71	248.09
747.04	247.80
747.37	247.55
747.70	247.35
748.03	247.14
748.36	246.92
748.68	246.70
749.01	246.45
749.34	246.22
749.67	246.01
750.00	245.83
750.33	245.70
750.65	245.49
750.98	245.15
751.31	244.95
751.64	244.75
751.97	244.59
752.29	244.41
752.62	244.18
752.95	243.98
753.28	243.80
753.60	243.59
753.93	243.41
754.26	243.20
754.59	242.97
754.91	242.77
755.24	242.56
755.57	242.37
755.90	242.24
756.22	242.06
756.55	241.87
756.88	241.67
757.20	241.41
757.53	241.20
757.86	241.04
758.19	240.88
758.51	240.73
758.84	240.55
759.17	240.37
759.49	240.23
759.82	240.10
760.15	239.92
760.47	239.78
760.80	239.63
761.13	239.52
761.45	239.39
761.78	239.25
762.11	239.12
762.43	239.01
762.76	238.83
763.08	238.71
763.41	238.57
763.74	238.45
764.06	238.36
764.39	238.23
764.71	238.07
765.04	237.94
765.37	237.81
765.69	237.67
766.02	237.53
766.34	237.39
766.67	237.26
767.00	237.20
767.32	237.08
767.65	237.01
767.97	236.88
768.30	236.78
768.62	236.69
768.95	236.57
769.27	236.42
769.60	236.32
769.92	236.17
770.25	236.04
770.57	235.90
770.90	235.77
771.22	235.69
771.55	235.58
771.87	235.50
772.20	235.40
772.52	235.38
772.85	235.36
773.17	235.27
773.50	235.14
773.82	235.00
774.15	234.90
774.47	234.77
774.80	234.62
775.12	234.50
775.45	234.41
775.77	234.31
776.09	234.23
776.42	234.14
776.74	234.13
777.07	234.02
777.39	234.00
777.72	233.90
778.04	233.85
778.36	233.80
778.69	233.72
779.01	233.65
779.33	233.45
779.66	233.33
779.98	233.27
780.31	233.21
780.63	233.19
780.95	233.11
781.28	233.04
781.60	232.97
781.92	232.88
782.25	232.79
782.57	232.73
782.89	232.64
783.22	232.56
783.54	232.48
783.86	232.46
784.19	232.37
784.51	232.36
784.83	232.30
785.16	232.20
785.48	232.12
785.80	232.07
786.12	232.08
786.45	232.01
786.77	231.93
787.09	231.87
