SpectraSuite Data File
++++++++++++++++++++++++++++++++++++
Date: Fri Feb 01 16:41:31 EST 2013
User: group
Dark Spectrum Present: No
Reference Spectrum Present: No
Number of Sampled Component Spectra: 1
Spectrometers: USB2E7196
Integration Time (usec): 35000 (USB2E7196)
Spectra Averaged: 100 (USB2E7196)
Boxcar Smoothing: 10 (USB2E7196)
Correct for Electrical Dark: No (USB2E7196)
Strobe/Lamp Enabled: No (USB2E7196)
Correct for Detector Non-linearity: No (USB2E7196)
Correct for Stray Light: No (USB2E7196)
Number of Pixels in Processed Spectrum: 2048
>>>>>Begin Processed Spectral Data<<<<<
339.09	0.00
339.48	213.73
339.86	215.09
340.24	216.17
340.63	217.62
341.01	220.38
341.39	221.17
341.78	221.68
342.16	223.19
342.54	223.57
342.93	212.05
343.31	222.73
343.69	223.29
344.07	223.74
344.46	224.21
344.84	224.59
345.22	224.83
345.60	225.04
345.99	225.22
346.37	225.36
346.75	225.46
347.13	225.52
347.52	225.61
347.90	225.67
348.28	225.73
348.66	225.81
349.05	225.78
349.43	225.81
349.81	225.83
350.19	225.84
350.57	225.88
350.96	225.92
351.34	226.02
351.72	226.06
352.10	226.15
352.48	226.22
352.87	226.26
353.25	226.31
353.63	226.40
354.01	226.49
354.39	226.54
354.77	226.62
355.15	226.74
355.54	226.76
355.92	226.80
356.30	226.83
356.68	226.93
357.06	227.02
357.44	227.07
357.82	227.14
358.20	227.24
358.58	227.31
358.97	227.41
359.35	227.49
359.73	227.59
360.11	227.64
360.49	227.68
360.87	227.75
361.25	227.88
361.63	227.96
362.01	228.00
362.39	228.04
362.77	228.08
363.15	228.10
363.53	228.17
363.91	228.22
364.29	228.24
364.67	228.17
365.05	228.19
365.43	228.22
365.81	228.23
366.19	228.27
366.57	228.32
366.95	228.32
367.33	228.31
367.71	228.32
368.09	228.36
368.47	228.34
368.85	228.30
369.23	228.25
369.61	228.18
369.99	228.20
370.37	228.19
370.75	228.21
371.13	228.17
371.51	228.14
371.89	228.08
372.27	228.08
372.65	228.06
373.03	228.03
373.41	227.97
373.78	227.91
374.16	227.84
374.54	227.77
374.92	227.70
375.30	227.63
375.68	227.59
376.06	227.50
376.44	227.45
376.82	227.41
377.19	227.37
377.57	227.31
377.95	227.22
378.33	227.14
378.71	227.01
379.09	226.96
379.47	226.90
379.84	226.85
380.22	226.76
380.60	226.68
380.98	226.63
381.36	226.58
381.73	226.49
382.11	226.44
382.49	226.38
382.87	226.32
383.25	226.27
383.62	226.28
384.00	226.21
384.38	226.13
384.76	226.11
385.13	226.06
385.51	226.00
385.89	225.92
386.27	225.88
386.64	225.85
387.02	225.75
387.40	225.66
387.78	225.61
388.15	225.60
388.53	225.56
388.91	225.52
389.29	225.48
389.66	225.48
390.04	225.44
390.42	225.41
390.79	225.38
391.17	225.36
391.55	225.26
391.92	225.29
392.30	225.33
392.68	225.30
393.05	225.30
393.43	225.28
393.81	225.29
394.18	225.28
394.56	225.31
394.94	225.34
395.31	225.36
395.69	225.40
396.06	225.42
396.44	225.43
396.82	225.46
397.19	225.52
397.57	225.53
397.95	225.58
398.32	225.61
398.70	225.69
399.07	225.77
399.45	225.79
399.82	225.79
400.20	225.80
400.58	225.83
400.95	225.85
401.33	225.95
401.70	226.10
402.08	226.18
402.45	226.25
402.83	226.36
403.20	226.47
403.58	226.57
403.95	226.71
404.33	226.83
404.71	226.93
405.08	227.09
405.46	227.20
405.83	227.36
406.21	227.46
406.58	227.62
406.96	227.74
407.33	227.92
407.70	228.12
408.08	228.41
408.45	228.66
408.83	228.93
409.20	229.14
409.58	229.33
409.95	229.57
410.33	229.84
410.70	230.11
411.08	230.39
411.45	230.69
411.82	230.95
412.20	231.31
412.57	231.70
412.95	231.99
413.32	232.41
413.69	232.80
414.07	233.28
414.44	233.73
414.82	234.21
415.19	234.77
415.56	235.32
415.94	235.84
416.31	236.43
416.68	237.05
417.06	237.76
417.43	238.43
417.81	239.20
418.18	240.00
418.55	240.82
418.93	241.71
419.30	242.57
419.67	243.55
420.04	244.52
420.42	245.50
420.79	246.70
421.16	247.85
421.54	249.02
421.91	250.20
422.28	251.45
422.66	252.78
423.03	254.07
423.40	255.37
423.77	256.79
424.15	258.22
424.52	259.67
424.89	261.25
425.26	262.81
425.64	264.28
426.01	265.86
426.38	267.48
426.75	269.12
427.13	270.86
427.50	272.63
427.87	274.50
428.24	276.40
428.61	278.14
428.99	280.08
429.36	282.20
429.73	284.27
430.10	286.28
430.47	288.35
430.85	290.47
431.22	292.73
431.59	295.08
431.96	297.31
432.33	299.79
432.70	302.15
433.08	304.95
433.45	307.50
433.82	310.10
434.19	312.95
434.56	315.74
434.93	318.32
435.30	320.93
435.68	323.74
436.05	326.52
436.42	329.23
436.79	331.73
437.16	334.36
437.53	337.16
437.90	339.95
438.27	342.62
438.64	345.42
439.01	348.00
439.38	350.24
439.75	352.39
440.13	354.77
440.50	357.08
440.87	358.82
441.24	360.74
441.61	362.89
441.98	364.35
442.35	366.14
442.72	368.00
443.09	369.79
443.46	370.76
443.83	371.36
444.20	371.89
444.57	372.75
444.94	373.05
445.31	373.37
445.68	373.75
446.05	373.82
446.42	373.44
446.79	373.03
447.16	372.55
447.53	372.26
447.90	371.18
448.27	370.05
448.64	368.59
449.01	367.44
449.37	365.48
449.74	363.63
450.11	361.41
450.48	358.97
450.85	356.46
451.22	354.38
451.59	352.39
451.96	350.49
452.33	347.85
452.70	345.52
453.07	342.75
453.43	339.84
453.80	337.13
454.17	334.46
454.54	331.94
454.91	329.22
455.28	326.57
455.65	324.10
456.02	321.69
456.38	319.51
456.75	316.88
457.12	314.63
457.49	312.42
457.86	310.29
458.23	308.47
458.59	306.44
458.96	304.37
459.33	302.52
459.70	300.65
460.07	299.19
460.43	297.49
460.80	295.86
461.17	294.47
461.54	293.03
461.91	291.64
462.27	290.21
462.64	289.01
463.01	287.68
463.38	286.42
463.74	285.04
464.11	283.88
464.48	282.90
464.85	281.85
465.21	281.02
465.58	280.10
465.95	279.03
466.32	278.16
466.68	277.29
467.05	276.40
467.42	275.52
467.78	274.61
468.15	273.77
468.52	273.12
468.88	272.27
469.25	271.45
469.62	270.84
469.98	270.16
470.35	269.54
470.72	268.91
471.08	268.28
471.45	267.78
471.82	267.29
472.18	266.70
472.55	266.28
472.92	265.72
473.28	265.23
473.65	264.77
474.02	264.34
474.38	263.95
474.75	263.65
475.11	263.35
475.48	263.09
475.85	262.84
476.21	262.62
476.58	262.45
476.94	262.33
477.31	262.19
477.67	262.05
478.04	261.98
478.41	261.96
478.77	261.99
479.14	261.91
479.50	261.94
479.87	262.03
480.23	262.13
480.60	262.27
480.96	262.42
481.33	262.65
481.69	262.88
482.06	263.08
482.42	263.33
482.79	263.62
483.15	263.94
483.52	264.36
483.88	264.72
484.25	265.10
484.61	265.51
484.98	265.89
485.34	266.44
485.71	267.01
486.07	267.63
486.44	268.21
486.80	268.94
487.17	269.66
487.53	270.46
487.90	271.30
488.26	272.24
488.62	273.21
488.99	274.20
489.35	275.19
489.72	276.33
490.08	277.48
490.44	278.68
490.81	279.98
491.17	281.35
491.54	282.86
491.90	284.43
492.26	286.10
492.63	287.88
492.99	289.65
493.36	291.54
493.72	293.58
494.08	295.69
494.45	297.93
494.81	300.29
495.17	302.70
495.54	305.26
495.90	307.94
496.26	310.72
496.63	313.64
496.99	316.81
497.35	320.07
497.72	323.47
498.08	326.98
498.44	330.68
498.80	334.56
499.17	338.59
499.53	342.72
499.89	347.08
500.26	351.58
500.62	356.31
500.98	361.26
501.34	366.31
501.71	371.63
502.07	377.07
502.43	382.72
502.79	388.56
503.16	394.56
503.52	400.80
503.88	407.18
504.24	413.80
504.60	420.62
504.97	427.79
505.33	435.10
505.69	442.83
506.05	450.62
506.41	458.48
506.78	466.60
507.14	475.09
507.50	483.74
507.86	492.77
508.22	501.93
508.59	511.20
508.95	520.73
509.31	530.51
509.67	540.63
510.03	550.80
510.39	561.36
510.75	572.13
511.12	583.00
511.48	594.33
511.84	605.76
512.20	617.33
512.56	629.18
512.92	641.38
513.28	653.72
513.64	666.14
514.00	678.85
514.37	691.80
514.73	704.80
515.09	717.74
515.45	731.00
515.81	744.56
516.17	758.35
516.53	772.50
516.89	786.62
517.25	800.77
517.61	815.24
517.97	829.60
518.33	844.01
518.69	858.71
519.05	873.66
519.41	888.72
519.77	904.06
520.13	919.37
520.49	934.73
520.85	949.92
521.21	965.48
521.57	981.62
521.93	997.22
522.29	1013.51
522.65	1029.71
523.01	1045.72
523.37	1061.67
523.73	1077.82
524.09	1093.84
524.45	1110.00
524.81	1126.49
525.17	1143.10
525.53	1159.79
525.89	1176.55
526.25	1193.29
526.61	1209.50
526.97	1226.14
527.33	1242.55
527.68	1259.01
528.04	1275.21
528.40	1291.57
528.76	1308.51
529.12	1324.90
529.48	1341.67
529.84	1357.48
530.20	1374.03
530.56	1390.87
530.91	1408.10
531.27	1424.73
531.63	1440.95
531.99	1457.55
532.35	1473.38
532.71	1489.09
533.07	1505.34
533.42	1521.02
533.78	1537.00
534.14	1553.12
534.50	1568.35
534.86	1584.05
535.21	1599.14
535.57	1614.83
535.93	1630.23
536.29	1644.78
536.65	1659.70
537.00	1674.22
537.36	1689.37
537.72	1703.66
538.08	1717.99
538.44	1731.61
538.79	1745.27
539.15	1758.69
539.51	1772.07
539.87	1786.27
540.22	1799.72
540.58	1813.12
540.94	1826.16
541.29	1838.61
541.65	1850.96
542.01	1864.00
542.37	1876.10
542.72	1888.41
543.08	1900.13
543.44	1912.49
543.79	1923.78
544.15	1934.62
544.51	1946.06
544.87	1956.82
545.22	1967.62
545.58	1977.72
545.94	1987.32
546.29	1997.10
546.65	2006.94
547.01	2016.13
547.36	2024.64
547.72	2033.14
548.07	2041.13
548.43	2049.26
548.79	2057.22
549.14	2064.91
549.50	2072.03
549.86	2079.65
550.21	2086.70
550.57	2094.06
550.92	2100.56
551.28	2107.44
551.64	2114.37
551.99	2120.85
552.35	2127.00
552.70	2132.89
553.06	2138.79
553.41	2145.00
553.77	2150.84
554.13	2156.81
554.48	2162.84
554.84	2168.40
555.19	2173.59
555.55	2178.62
555.90	2183.21
556.26	2188.29
556.61	2192.86
556.97	2197.42
557.32	2201.55
557.68	2205.73
558.03	2209.67
558.39	2213.22
558.74	2217.92
559.10	2221.83
559.45	2225.49
559.81	2229.67
560.16	2233.58
560.52	2236.86
560.87	2240.33
561.23	2243.14
561.58	2246.03
561.94	2248.60
562.29	2250.73
562.64	2253.58
563.00	2256.13
563.35	2259.59
563.71	2262.71
564.06	2266.02
564.42	2268.88
564.77	2271.53
565.12	2273.98
565.48	2276.10
565.83	2278.11
566.19	2279.55
566.54	2280.40
566.89	2281.60
567.25	2282.45
567.60	2283.93
567.96	2285.69
568.31	2286.61
568.66	2287.82
569.02	2288.55
569.37	2289.03
569.72	2290.15
570.08	2290.37
570.43	2290.54
570.78	2290.15
571.14	2288.56
571.49	2287.15
571.84	2286.69
572.20	2285.67
572.55	2284.67
572.90	2282.99
573.26	2281.89
573.61	2280.18
573.96	2278.74
574.31	2275.88
574.67	2272.83
575.02	2269.08
575.37	2265.69
575.72	2262.07
576.08	2258.66
576.43	2255.30
576.78	2251.79
577.13	2248.59
577.49	2245.38
577.84	2241.96
578.19	2238.20
578.54	2234.83
578.90	2230.76
579.25	2225.35
579.60	2220.54
579.95	2215.71
580.30	2210.82
580.66	2205.52
581.01	2200.60
581.36	2195.58
581.71	2191.60
582.06	2187.47
582.42	2183.29
582.77	2178.17
583.12	2173.74
583.47	2169.23
583.82	2164.58
584.17	2159.42
584.53	2154.12
584.88	2148.77
585.23	2143.26
585.58	2137.87
585.93	2132.32
586.28	2127.61
586.63	2122.80
586.98	2117.68
587.34	2112.84
587.69	2107.87
588.04	2102.86
588.39	2097.22
588.74	2090.89
589.09	2084.69
589.44	2077.97
589.79	2071.85
590.14	2066.21
590.49	2059.60
590.84	2053.12
591.19	2046.95
591.54	2040.42
591.89	2033.21
592.25	2026.57
592.60	2019.22
592.95	2011.82
593.30	2004.55
593.65	1996.94
594.00	1989.80
594.35	1982.59
594.70	1974.63
595.05	1967.86
595.40	1960.55
595.75	1953.17
596.10	1947.16
596.45	1940.60
596.80	1934.49
597.15	1928.10
597.50	1921.28
597.85	1914.88
598.19	1908.41
598.54	1901.66
598.89	1895.17
599.24	1889.32
599.59	1882.79
599.94	1876.70
600.29	1870.51
600.64	1864.00
600.99	1856.86
601.34	1850.19
601.69	1843.19
602.04	1836.47
602.39	1829.20
602.74	1822.58
603.08	1815.92
603.43	1809.20
603.78	1801.92
604.13	1794.66
604.48	1787.37
604.83	1780.55
605.18	1773.90
605.53	1766.06
605.87	1757.95
606.22	1750.73
606.57	1742.67
606.92	1735.22
607.27	1728.27
607.62	1721.40
607.96	1714.30
608.31	1707.90
608.66	1700.39
609.01	1693.09
609.36	1685.79
609.70	1677.70
610.05	1669.62
610.40	1662.07
610.75	1653.83
611.10	1646.21
611.44	1637.96
611.79	1630.03
612.14	1621.49
612.49	1612.12
612.83	1603.61
613.18	1595.58
613.53	1587.53
613.88	1579.16
614.22	1570.91
614.57	1562.24
614.92	1554.26
615.27	1546.87
615.61	1538.44
615.96	1530.44
616.31	1522.66
616.65	1515.21
617.00	1507.63
617.35	1499.95
617.70	1491.65
618.04	1483.26
618.39	1474.95
618.74	1467.42
619.08	1459.10
619.43	1451.41
619.78	1444.62
620.12	1437.71
620.47	1430.20
620.82	1422.05
621.16	1414.58
621.51	1406.88
621.85	1399.23
622.20	1390.71
622.55	1382.24
622.89	1374.33
623.24	1366.58
623.59	1359.26
623.93	1351.69
624.28	1344.57
624.62	1336.98
624.97	1329.76
625.32	1322.87
625.66	1315.95
626.01	1308.71
626.35	1301.43
626.70	1293.71
627.04	1286.01
627.39	1278.13
627.73	1270.65
628.08	1263.73
628.43	1256.52
628.77	1249.26
629.12	1241.77
629.46	1234.55
629.81	1227.02
630.15	1219.72
630.50	1212.40
630.84	1204.26
631.19	1196.32
631.53	1188.72
631.88	1181.14
632.22	1173.47
632.57	1166.12
632.91	1158.47
633.26	1151.07
633.60	1143.55
633.95	1136.31
634.29	1129.16
634.64	1122.47
634.98	1115.19
635.32	1108.06
635.67	1101.41
636.01	1094.69
636.36	1087.92
636.70	1081.40
637.05	1074.93
637.39	1068.63
637.73	1062.13
638.08	1056.18
638.42	1050.28
638.77	1043.90
639.11	1037.49
639.45	1031.20
639.80	1024.56
640.14	1018.30
640.49	1011.83
640.83	1005.63
641.17	999.53
641.52	993.34
641.86	986.72
642.20	980.76
642.55	974.32
642.89	967.89
643.23	961.33
643.58	955.59
643.92	949.41
644.26	943.43
644.61	937.26
644.95	931.31
645.29	924.83
645.64	918.04
645.98	911.70
646.32	905.73
646.66	899.69
647.01	893.91
647.35	888.28
647.69	882.36
648.04	876.77
648.38	871.01
648.72	865.08
649.06	859.21
649.41	853.37
649.75	847.55
650.09	841.55
650.43	835.83
650.78	829.70
651.12	823.73
651.46	817.95
651.80	812.42
652.14	806.94
652.49	801.53
652.83	796.41
653.17	790.86
653.51	785.25
653.85	779.90
654.20	774.33
654.54	768.24
654.88	762.50
655.22	756.59
655.56	750.85
655.90	745.35
656.25	740.14
656.59	734.84
656.93	729.76
657.27	724.70
657.61	719.27
657.95	714.12
658.29	709.00
658.64	703.73
658.98	698.27
659.32	692.87
659.66	687.74
660.00	682.45
660.34	677.44
660.68	672.49
661.02	667.36
661.36	662.72
661.70	658.25
662.05	653.95
662.39	649.71
662.73	645.32
663.07	640.86
663.41	636.42
663.75	631.94
664.09	627.40
664.43	623.00
664.77	618.99
665.11	614.75
665.45	610.62
665.79	606.62
666.13	602.52
666.47	598.47
666.81	594.24
667.15	590.10
667.49	586.18
667.83	582.31
668.17	578.45
668.51	574.33
668.85	570.27
669.19	566.36
669.53	562.53
669.87	558.68
670.21	555.05
670.55	551.38
670.89	547.90
671.23	544.44
671.57	540.90
671.91	537.30
672.25	533.71
672.58	530.24
672.92	526.75
673.26	523.56
673.60	520.30
673.94	517.25
674.28	514.30
674.62	511.34
674.96	508.27
675.30	505.35
675.64	502.43
675.97	499.64
676.31	496.75
676.65	493.80
676.99	491.04
677.33	488.10
677.67	485.26
678.01	482.29
678.34	479.34
678.68	476.42
679.02	473.59
679.36	470.85
679.70	468.11
680.04	465.35
680.37	462.54
680.71	459.78
681.05	457.15
681.39	454.42
681.73	451.74
682.06	449.25
682.40	446.76
682.74	444.19
683.08	441.64
683.42	439.07
683.75	436.57
684.09	433.92
684.43	431.51
684.77	429.07
685.10	426.70
685.44	424.37
685.78	422.09
686.12	419.84
686.45	417.56
686.79	415.34
687.13	413.12
687.46	410.93
687.80	408.77
688.14	406.53
688.48	404.50
688.81	402.28
689.15	400.05
689.49	397.86
689.82	395.79
690.16	393.69
690.50	391.72
690.83	389.76
691.17	387.82
691.51	385.88
691.84	384.01
692.18	382.07
692.52	380.11
692.85	378.18
693.19	376.31
693.52	374.48
693.86	372.61
694.20	370.84
694.53	369.07
694.87	367.25
695.21	365.45
695.54	363.57
695.88	361.82
696.21	360.12
696.55	358.44
696.88	356.76
697.22	355.08
697.56	353.43
697.89	351.79
698.23	350.20
698.56	348.61
698.90	347.06
699.23	345.42
699.57	343.81
699.90	342.24
700.24	340.72
700.58	339.21
700.91	337.74
701.25	336.34
701.58	334.95
701.92	333.58
702.25	332.21
702.59	330.88
702.92	329.56
703.26	328.25
703.59	326.94
703.93	325.75
704.26	324.55
704.60	323.26
704.93	321.96
705.26	320.70
705.60	319.45
705.93	318.25
706.27	317.23
706.60	316.23
706.94	315.19
707.27	314.04
707.61	312.92
707.94	311.85
708.27	310.70
708.61	309.61
708.94	308.60
709.28	307.58
709.61	306.59
709.94	305.67
710.28	304.69
710.61	303.69
710.95	302.62
711.28	301.69
711.61	300.78
711.95	299.88
712.28	298.93
712.61	298.02
712.95	297.08
713.28	296.19
713.61	295.24
713.95	294.37
714.28	293.52
714.61	292.66
714.95	291.84
715.28	291.00
715.61	290.14
715.95	289.26
716.28	288.42
716.61	287.57
716.95	286.69
717.28	285.92
717.61	285.19
717.94	284.45
718.28	283.63
718.61	282.88
718.94	282.19
719.27	281.55
719.61	280.91
719.94	280.27
720.27	279.56
720.60	278.92
720.94	278.26
721.27	277.65
721.60	277.10
721.93	276.50
722.27	275.95
722.60	275.38
722.93	274.82
723.26	274.32
723.59	273.79
723.93	273.27
724.26	272.70
724.59	272.12
724.92	271.57
725.25	271.09
725.59	270.56
725.92	270.08
726.25	269.58
726.58	269.05
726.91	268.54
727.24	268.07
727.57	267.59
727.91	267.09
728.24	266.63
728.57	266.11
728.90	265.60
729.23	265.08
729.56	264.68
729.89	264.21
730.22	263.69
730.55	263.21
730.89	262.78
731.22	262.34
731.55	261.93
731.88	261.52
732.21	261.09
732.54	260.65
732.87	260.16
733.20	259.72
733.53	259.33
733.86	258.97
734.19	258.58
734.52	258.20
734.85	257.94
735.18	257.57
735.51	257.24
735.84	256.90
736.17	256.60
736.50	256.21
736.83	255.98
737.16	255.67
737.49	255.33
737.82	254.97
738.15	254.67
738.48	254.32
738.81	253.99
739.14	253.63
739.47	253.33
739.80	253.04
740.13	252.75
740.46	252.45
740.79	252.13
741.12	251.81
741.45	251.47
741.78	251.07
742.11	250.78
742.44	250.45
742.77	250.17
743.10	249.84
743.43	249.54
743.75	249.12
744.08	248.96
744.41	248.71
744.74	248.45
745.07	248.17
745.40	247.92
745.73	247.69
746.06	247.41
746.39	247.18
746.71	246.94
747.04	246.71
747.37	246.43
747.70	246.22
748.03	245.95
748.36	245.77
748.68	245.52
749.01	245.27
749.34	245.05
749.67	244.80
750.00	244.57
750.33	244.40
750.65	244.20
750.98	243.85
751.31	243.63
751.64	243.40
751.97	243.22
752.29	243.01
752.62	242.77
752.95	242.57
753.28	242.35
753.60	242.10
753.93	241.91
754.26	241.71
754.59	241.47
754.91	241.29
755.24	241.07
755.57	240.89
755.90	240.71
756.22	240.52
756.55	240.32
756.88	240.17
757.20	239.96
757.53	239.78
757.86	239.62
758.19	239.45
758.51	239.28
758.84	239.05
759.17	238.90
759.49	238.74
759.82	238.62
760.15	238.50
760.47	238.35
760.80	238.16
761.13	238.02
761.45	237.89
761.78	237.76
762.11	237.63
762.43	237.49
762.76	237.32
763.08	237.20
763.41	237.11
763.74	236.91
764.06	236.73
764.39	236.57
764.71	236.43
765.04	236.31
765.37	236.16
765.69	236.02
766.02	235.87
766.34	235.72
766.67	235.58
767.00	235.46
767.32	235.42
767.65	235.37
767.97	235.27
768.30	235.13
768.62	234.99
768.95	234.83
769.27	234.71
769.60	234.64
769.92	234.47
770.25	234.34
770.57	234.24
770.90	234.19
771.22	234.11
771.55	234.02
771.87	233.89
772.20	233.81
772.52	233.82
772.85	233.85
773.17	233.79
773.50	233.67
773.82	233.52
774.15	233.35
774.47	233.21
774.80	233.06
775.12	232.99
775.45	232.90
775.77	232.87
776.09	232.78
776.42	232.66
776.74	232.66
777.07	232.58
777.39	232.51
777.72	232.42
778.04	232.36
778.36	232.25
778.69	232.21
779.01	232.15
779.33	231.98
779.66	231.80
779.98	231.69
780.31	231.64
780.63	231.66
780.95	231.64
781.28	231.58
781.60	231.53
781.92	231.46
782.25	231.42
782.57	231.31
782.89	231.26
783.22	231.19
783.54	231.09
783.86	231.01
784.19	230.95
784.51	230.93
784.83	230.87
785.16	230.84
785.48	230.77
785.80	230.72
786.12	230.71
786.45	230.66
786.77	230.65
787.09	230.60
