SpectraSuite Data File
++++++++++++++++++++++++++++++++++++
Date: Fri Feb 01 15:08:25 EST 2013
User: group
Dark Spectrum Present: No
Reference Spectrum Present: No
Number of Sampled Component Spectra: 1
Spectrometers: USB2E7196
Integration Time (usec): 35000 (USB2E7196)
Spectra Averaged: 100 (USB2E7196)
Boxcar Smoothing: 10 (USB2E7196)
Correct for Electrical Dark: No (USB2E7196)
Strobe/Lamp Enabled: No (USB2E7196)
Correct for Detector Non-linearity: No (USB2E7196)
Correct for Stray Light: No (USB2E7196)
Number of Pixels in Processed Spectrum: 2048
>>>>>Begin Processed Spectral Data<<<<<
339.09	0.00
339.48	214.64
339.86	216.50
340.24	217.75
340.63	219.44
341.01	222.33
341.39	221.42
341.78	223.70
342.16	224.81
342.54	224.74
342.93	213.41
343.31	224.23
343.69	224.80
344.07	225.26
344.46	225.69
344.84	226.07
345.22	226.29
345.60	226.56
345.99	226.74
346.37	226.85
346.75	226.98
347.13	227.05
347.52	227.10
347.90	227.16
348.28	227.18
348.66	227.22
349.05	227.19
349.43	227.21
349.81	227.23
350.19	227.27
350.57	227.31
350.96	227.39
351.34	227.45
351.72	227.51
352.10	227.63
352.48	227.69
352.87	227.71
353.25	227.76
353.63	227.81
354.01	227.86
354.39	227.94
354.77	228.01
355.15	228.11
355.54	228.18
355.92	228.23
356.30	228.32
356.68	228.45
357.06	228.50
357.44	228.55
357.82	228.66
358.20	228.73
358.58	228.83
358.97	228.90
359.35	228.97
359.73	229.06
360.11	229.11
360.49	229.19
360.87	229.27
361.25	229.37
361.63	229.43
362.01	229.48
362.39	229.52
362.77	229.55
363.15	229.57
363.53	229.58
363.91	229.59
364.29	229.59
364.67	229.52
365.05	229.54
365.43	229.54
365.81	229.54
366.19	229.60
366.57	229.59
366.95	229.56
367.33	229.51
367.71	229.46
368.09	229.46
368.47	229.43
368.85	229.40
369.23	229.36
369.61	229.34
369.99	229.33
370.37	229.30
370.75	229.30
371.13	229.25
371.51	229.18
371.89	229.14
372.27	229.09
372.65	229.06
373.03	229.01
373.41	228.96
373.78	228.89
374.16	228.75
374.54	228.69
374.92	228.62
375.30	228.55
375.68	228.48
376.06	228.39
376.44	228.31
376.82	228.24
377.19	228.14
377.57	228.06
377.95	227.96
378.33	227.87
378.71	227.72
379.09	227.64
379.47	227.61
379.84	227.54
380.22	227.47
380.60	227.36
380.98	227.27
381.36	227.17
381.73	227.08
382.11	227.03
382.49	226.93
382.87	226.84
383.25	226.79
383.62	226.85
384.00	226.79
384.38	226.72
384.76	226.66
385.13	226.66
385.51	226.59
385.89	226.52
386.27	226.48
386.64	226.47
387.02	226.38
387.40	226.33
387.78	226.29
388.15	226.23
388.53	226.19
388.91	226.17
389.29	226.16
389.66	226.15
390.04	226.11
390.42	226.15
390.79	226.15
391.17	226.13
391.55	226.00
391.92	225.95
392.30	225.98
392.68	225.96
393.05	225.94
393.43	225.94
393.81	226.00
394.18	226.02
394.56	226.05
394.94	226.15
395.31	226.14
395.69	226.19
396.06	226.25
396.44	226.31
396.82	226.36
397.19	226.48
397.57	226.55
397.95	226.62
398.32	226.62
398.70	226.69
399.07	226.82
399.45	226.87
399.82	226.98
400.20	227.02
400.58	227.11
400.95	227.18
401.33	227.30
401.70	227.42
402.08	227.49
402.45	227.57
402.83	227.65
403.20	227.81
403.58	227.90
403.95	228.04
404.33	228.16
404.71	228.31
405.08	228.50
405.46	228.65
405.83	228.79
406.21	228.95
406.58	229.14
406.96	229.26
407.33	229.47
407.70	229.68
408.08	229.96
408.45	230.19
408.83	230.40
409.20	230.62
409.58	230.78
409.95	231.07
410.33	231.38
410.70	231.66
411.08	231.96
411.45	232.31
411.82	232.62
412.20	233.01
412.57	233.44
412.95	233.71
413.32	234.12
413.69	234.54
414.07	235.01
414.44	235.49
414.82	236.00
415.19	236.58
415.56	237.13
415.94	237.70
416.31	238.35
416.68	239.01
417.06	239.74
417.43	240.46
417.81	241.27
418.18	242.04
418.55	242.90
418.93	243.74
419.30	244.60
419.67	245.53
420.04	246.50
420.42	247.48
420.79	248.65
421.16	249.80
421.54	250.99
421.91	252.21
422.28	253.48
422.66	254.78
423.03	256.05
423.40	257.37
423.77	258.78
424.15	260.18
424.52	261.66
424.89	263.29
425.26	264.84
425.64	266.28
426.01	267.86
426.38	269.51
426.75	271.21
427.13	272.96
427.50	274.77
427.87	276.62
428.24	278.44
428.61	280.22
428.99	282.15
429.36	284.28
429.73	286.34
430.10	288.34
430.47	290.44
430.85	292.57
431.22	294.85
431.59	297.24
431.96	299.50
432.33	302.01
432.70	304.38
433.08	307.17
433.45	309.79
433.82	312.40
434.19	315.33
434.56	318.13
434.93	320.82
435.30	323.43
435.68	326.33
436.05	329.19
436.42	332.00
436.79	334.55
437.16	337.19
437.53	340.02
437.90	342.84
438.27	345.59
438.64	348.42
439.01	350.99
439.38	353.29
439.75	355.43
440.13	357.93
440.50	360.27
440.87	362.12
441.24	364.06
441.61	366.27
441.98	367.69
442.35	369.49
442.72	371.33
443.09	373.11
443.46	374.09
443.83	374.66
444.20	375.15
444.57	375.95
444.94	376.23
445.31	376.54
445.68	376.90
446.05	376.92
446.42	376.53
446.79	376.10
447.16	375.57
447.53	375.33
447.90	374.13
448.27	372.92
448.64	371.34
449.01	370.27
449.37	368.25
449.74	366.35
450.11	364.09
450.48	361.60
450.85	359.10
451.22	356.97
451.59	354.96
451.96	352.98
452.33	350.40
452.70	348.08
453.07	345.28
453.43	342.35
453.80	339.60
454.17	336.91
454.54	334.37
454.91	331.62
455.28	328.91
455.65	326.44
456.02	324.04
456.38	321.85
456.75	319.11
457.12	316.88
457.49	314.70
457.86	312.55
458.23	310.68
458.59	308.64
458.96	306.57
459.33	304.75
459.70	302.90
460.07	301.39
460.43	299.68
460.80	298.07
461.17	296.64
461.54	295.16
461.91	293.79
462.27	292.36
462.64	291.16
463.01	289.76
463.38	288.47
463.74	287.07
464.11	285.93
464.48	284.95
464.85	283.82
465.21	282.95
465.58	282.02
465.95	280.93
466.32	280.04
466.68	279.10
467.05	278.19
467.42	277.32
467.78	276.37
468.15	275.49
468.52	274.79
468.88	273.92
469.25	273.16
469.62	272.51
469.98	271.81
470.35	271.16
470.72	270.59
471.08	269.92
471.45	269.38
471.82	268.81
472.18	268.16
472.55	267.73
472.92	267.19
473.28	266.73
473.65	266.27
474.02	265.82
474.38	265.46
474.75	265.10
475.11	264.73
475.48	264.48
475.85	264.23
476.21	263.99
476.58	263.80
476.94	263.65
477.31	263.47
477.67	263.29
478.04	263.15
478.41	263.05
478.77	263.08
479.14	263.00
479.50	263.01
479.87	263.08
480.23	263.11
480.60	263.15
480.96	263.22
481.33	263.38
481.69	263.59
482.06	263.76
482.42	263.96
482.79	264.22
483.15	264.49
483.52	264.84
483.88	265.19
484.25	265.55
484.61	265.96
484.98	266.36
485.34	266.92
485.71	267.55
486.07	268.15
486.44	268.69
486.80	269.39
487.17	270.12
487.53	270.94
487.90	271.78
488.26	272.72
488.62	273.69
488.99	274.69
489.35	275.73
489.72	276.84
490.08	278.03
490.44	279.23
490.81	280.56
491.17	281.89
491.54	283.35
491.90	284.90
492.26	286.51
492.63	288.27
492.99	290.06
493.36	291.94
493.72	293.99
494.08	296.14
494.45	298.40
494.81	300.75
495.17	303.15
495.54	305.72
495.90	308.34
496.26	311.15
496.63	314.11
496.99	317.18
497.35	320.40
497.72	323.78
498.08	327.31
498.44	330.96
498.80	334.87
499.17	338.92
499.53	343.06
499.89	347.48
500.26	351.98
500.62	356.63
500.98	361.57
501.34	366.61
501.71	371.93
502.07	377.40
502.43	383.01
502.79	388.82
503.16	394.91
503.52	401.20
503.88	407.53
504.24	414.15
504.60	421.02
504.97	428.22
505.33	435.58
505.69	443.27
506.05	451.05
506.41	458.95
506.78	467.11
507.14	475.57
507.50	484.26
507.86	493.29
508.22	502.48
508.59	511.65
508.95	521.23
509.31	531.01
509.67	541.03
510.03	551.32
510.39	561.90
510.75	572.73
511.12	583.73
511.48	595.08
511.84	606.53
512.20	618.08
512.56	630.00
512.92	642.14
513.28	654.45
513.64	666.97
514.00	679.65
514.37	692.56
514.73	705.64
515.09	718.63
515.45	731.94
515.81	745.49
516.17	759.52
516.53	773.63
516.89	787.72
517.25	801.93
517.61	816.38
517.97	830.80
518.33	845.19
518.69	859.84
519.05	874.93
519.41	890.18
519.77	905.69
520.13	921.15
520.49	936.59
520.85	952.14
521.21	967.90
521.57	984.26
521.93	1000.02
522.29	1016.43
522.65	1032.80
523.01	1049.06
523.37	1065.20
523.73	1081.36
524.09	1097.44
524.45	1113.91
524.81	1130.64
525.17	1147.54
525.53	1164.59
525.89	1181.49
526.25	1198.42
526.61	1214.75
526.97	1231.48
527.33	1248.09
527.68	1264.76
528.04	1281.28
528.40	1297.97
528.76	1315.11
529.12	1331.70
529.48	1348.73
529.84	1364.86
530.20	1381.52
530.56	1398.65
530.91	1416.06
531.27	1432.89
531.63	1449.52
531.99	1466.19
532.35	1482.15
532.71	1498.05
533.07	1514.27
533.42	1530.33
533.78	1546.43
534.14	1562.85
534.50	1578.21
534.86	1594.09
535.21	1609.29
535.57	1625.45
535.93	1640.92
536.29	1655.71
536.65	1670.94
537.00	1685.85
537.36	1701.35
537.72	1715.94
538.08	1730.34
538.44	1744.20
538.79	1758.33
539.15	1772.10
539.51	1785.90
539.87	1800.44
540.22	1814.29
540.58	1828.24
540.94	1841.68
541.29	1854.66
541.65	1867.38
542.01	1880.77
542.37	1893.19
542.72	1905.80
543.08	1917.55
543.44	1930.08
543.79	1941.40
544.15	1952.42
544.51	1963.96
544.87	1974.88
545.22	1985.84
545.58	1996.12
545.94	2005.96
546.29	2015.84
546.65	2025.69
547.01	2034.93
547.36	2043.73
547.72	2052.25
548.07	2060.09
548.43	2068.17
548.79	2076.30
549.14	2083.84
549.50	2091.27
549.86	2099.03
550.21	2106.37
550.57	2113.49
550.92	2120.05
551.28	2127.16
551.64	2134.27
551.99	2140.83
552.35	2146.92
552.70	2152.92
553.06	2158.96
553.41	2165.35
553.77	2171.37
554.13	2177.46
554.48	2183.60
554.84	2188.86
555.19	2194.20
555.55	2199.28
555.90	2203.80
556.26	2208.62
556.61	2213.40
556.97	2217.56
557.32	2221.70
557.68	2225.77
558.03	2230.09
558.39	2233.83
558.74	2238.45
559.10	2242.22
559.45	2245.82
559.81	2250.18
560.16	2254.02
560.52	2257.11
560.87	2260.55
561.23	2263.10
561.58	2266.08
561.94	2268.50
562.29	2270.97
562.64	2273.52
563.00	2276.36
563.35	2279.90
563.71	2282.98
564.06	2286.12
564.42	2288.84
564.77	2291.13
565.12	2293.23
565.48	2295.05
565.83	2296.69
566.19	2297.80
566.54	2298.71
566.89	2299.60
567.25	2300.00
567.60	2301.20
567.96	2302.89
568.31	2303.55
568.66	2304.58
569.02	2304.96
569.37	2305.17
569.72	2305.80
570.08	2305.80
570.43	2305.45
570.78	2304.61
571.14	2303.09
571.49	2301.60
571.84	2301.19
572.20	2300.00
572.55	2299.02
572.90	2297.42
573.26	2296.01
573.61	2294.29
573.96	2292.39
574.31	2289.38
574.67	2286.23
575.02	2282.52
575.37	2278.99
575.72	2274.97
576.08	2271.52
576.43	2268.21
576.78	2264.48
577.13	2261.25
577.49	2258.21
577.84	2254.68
578.19	2250.86
578.54	2246.91
578.90	2242.61
579.25	2236.97
579.60	2231.85
579.95	2226.59
580.30	2221.42
580.66	2216.06
581.01	2211.03
581.36	2205.90
581.71	2201.70
582.06	2197.15
582.42	2192.72
582.77	2187.46
583.12	2182.79
583.47	2177.87
583.82	2172.61
584.17	2167.34
584.53	2161.80
584.88	2155.95
585.23	2149.97
585.58	2144.46
585.93	2138.98
586.28	2134.18
586.63	2129.02
586.98	2123.80
587.34	2119.07
587.69	2114.00
588.04	2108.65
588.39	2102.80
588.74	2096.37
589.09	2090.18
589.44	2083.22
589.79	2077.01
590.14	2071.16
590.49	2064.69
590.84	2058.33
591.19	2052.28
591.54	2045.71
591.89	2037.97
592.25	2031.05
592.60	2023.73
592.95	2015.97
593.30	2008.44
593.65	2000.60
594.00	1993.51
594.35	1986.34
594.70	1978.36
595.05	1971.02
595.40	1963.74
595.75	1956.23
596.10	1949.83
596.45	1942.93
596.80	1936.77
597.15	1930.13
597.50	1923.01
597.85	1916.35
598.19	1909.55
598.54	1902.37
598.89	1895.57
599.24	1889.86
599.59	1883.08
599.94	1876.95
600.29	1870.63
600.64	1864.13
600.99	1856.66
601.34	1849.84
601.69	1842.87
602.04	1835.76
602.39	1828.49
602.74	1821.50
603.08	1814.68
603.43	1807.88
603.78	1800.51
604.13	1793.34
604.48	1785.84
604.83	1779.01
605.18	1772.00
605.53	1763.93
605.87	1755.90
606.22	1748.80
606.57	1740.84
606.92	1733.45
607.27	1726.08
607.62	1719.11
607.96	1711.73
608.31	1705.08
608.66	1697.43
609.01	1689.82
609.36	1682.21
609.70	1674.03
610.05	1665.99
610.40	1658.36
610.75	1650.07
611.10	1642.48
611.44	1634.12
611.79	1626.21
612.14	1617.45
612.49	1608.37
612.83	1600.13
613.18	1592.10
613.53	1583.91
613.88	1575.35
614.22	1567.20
614.57	1558.85
614.92	1550.79
615.27	1543.17
615.61	1534.94
615.96	1526.88
616.31	1519.33
616.65	1512.03
617.00	1504.56
617.35	1496.97
617.70	1488.53
618.04	1480.06
618.39	1471.88
618.74	1464.12
619.08	1455.79
619.43	1448.24
619.78	1441.43
620.12	1434.18
620.47	1426.52
620.82	1418.42
621.16	1411.15
621.51	1403.51
621.85	1395.88
622.20	1387.44
622.55	1379.18
622.89	1371.37
623.24	1363.75
623.59	1356.33
623.93	1348.80
624.28	1341.75
624.62	1334.24
624.97	1327.00
625.32	1320.27
625.66	1313.19
626.01	1305.99
626.35	1298.47
626.70	1290.71
627.04	1282.85
627.39	1275.16
627.73	1267.76
628.08	1260.81
628.43	1253.30
628.77	1246.02
629.12	1238.35
629.46	1231.22
629.81	1223.95
630.15	1216.72
630.50	1209.49
630.84	1201.31
631.19	1193.36
631.53	1185.88
631.88	1178.30
632.22	1170.91
632.57	1163.59
632.91	1156.08
633.26	1148.83
633.60	1141.61
633.95	1134.61
634.29	1127.68
634.64	1121.00
634.98	1113.77
635.32	1106.67
635.67	1100.23
636.01	1093.52
636.36	1086.89
636.70	1080.45
637.05	1073.95
637.39	1067.59
637.73	1060.92
638.08	1054.95
638.42	1049.12
638.77	1042.55
639.11	1036.06
639.45	1029.73
639.80	1023.13
640.14	1016.79
640.49	1010.24
640.83	1004.01
641.17	997.77
641.52	991.47
641.86	985.14
642.20	979.24
642.55	973.01
642.89	966.54
643.23	960.15
643.58	954.29
643.92	948.08
644.26	941.85
644.61	935.80
644.95	929.84
645.29	923.32
645.64	916.55
645.98	910.27
646.32	904.48
646.66	898.37
647.01	892.58
647.35	886.91
647.69	881.16
648.04	875.64
648.38	869.86
648.72	863.83
649.06	857.76
649.41	851.92
649.75	845.96
650.09	839.99
650.43	834.09
650.78	827.96
651.12	821.98
651.46	816.29
651.80	810.49
652.14	805.05
652.49	799.72
652.83	794.54
653.17	788.81
653.51	783.03
653.85	777.67
654.20	772.10
654.54	766.06
654.88	760.29
655.22	754.42
655.56	748.74
655.90	743.37
656.25	738.09
656.59	732.77
656.93	727.67
657.27	722.50
657.61	717.13
657.95	712.01
658.29	706.90
658.64	701.75
658.98	696.53
659.32	691.10
659.66	685.91
660.00	680.60
660.34	675.76
660.68	670.83
661.02	665.82
661.36	661.06
661.70	656.63
662.05	652.34
662.39	648.04
662.73	643.64
663.07	639.23
663.41	634.74
663.75	630.21
664.09	625.71
664.43	621.40
664.77	617.29
665.11	613.08
665.45	609.05
665.79	604.91
666.13	600.81
666.47	596.80
666.81	592.60
667.15	588.50
667.49	584.63
667.83	580.83
668.17	576.98
668.51	572.90
668.85	568.80
669.19	564.92
669.53	561.08
669.87	557.14
670.21	553.44
670.55	549.88
670.89	546.54
671.23	543.10
671.57	539.59
671.91	536.12
672.25	532.63
672.58	529.17
672.92	525.84
673.26	522.65
673.60	519.52
673.94	516.44
674.28	513.61
674.62	510.66
674.96	507.60
675.30	504.64
675.64	501.71
675.97	499.01
676.31	496.19
676.65	493.25
676.99	490.64
677.33	487.81
677.67	484.99
678.01	481.96
678.34	478.92
678.68	476.12
679.02	473.36
679.36	470.60
679.70	467.82
680.04	465.05
680.37	462.26
680.71	459.53
681.05	456.97
681.39	454.23
681.73	451.57
682.06	449.11
682.40	446.62
682.74	444.16
683.08	441.68
683.42	439.08
683.75	436.63
684.09	434.11
684.43	431.69
684.77	429.24
685.10	426.94
685.44	424.71
685.78	422.46
686.12	420.17
686.45	417.97
686.79	415.76
687.13	413.58
687.46	411.44
687.80	409.28
688.14	407.10
688.48	405.10
688.81	402.90
689.15	400.71
689.49	398.58
689.82	396.51
690.16	394.38
690.50	392.46
690.83	390.51
691.17	388.58
691.51	386.66
691.84	384.83
692.18	382.82
692.52	380.83
692.85	378.88
693.19	377.01
693.52	375.17
693.86	373.36
694.20	371.57
694.53	369.68
694.87	367.84
695.21	366.07
695.54	364.22
695.88	362.50
696.21	360.80
696.55	359.08
696.88	357.43
697.22	355.83
697.56	354.20
697.89	352.57
698.23	350.94
698.56	349.35
698.90	347.73
699.23	346.07
699.57	344.54
699.90	342.98
700.24	341.45
700.58	339.90
700.91	338.40
701.25	336.97
701.58	335.67
701.92	334.27
702.25	332.89
702.59	331.53
702.92	330.18
703.26	328.90
703.59	327.62
703.93	326.40
704.26	325.15
704.60	323.84
704.93	322.55
705.26	321.27
705.60	320.06
705.93	318.93
706.27	317.95
706.60	316.90
706.94	315.84
707.27	314.68
707.61	313.65
707.94	312.61
708.27	311.51
708.61	310.44
708.94	309.49
709.28	308.47
709.61	307.51
709.94	306.57
710.28	305.55
710.61	304.59
710.95	303.53
711.28	302.64
711.61	301.72
711.95	300.82
712.28	299.91
712.61	298.92
712.95	298.00
713.28	297.16
713.61	296.27
713.95	295.40
714.28	294.58
714.61	293.72
714.95	292.88
715.28	292.02
715.61	291.12
715.95	290.23
716.28	289.39
716.61	288.55
716.95	287.75
717.28	287.00
717.61	286.21
717.94	285.50
718.28	284.69
718.61	283.98
718.94	283.28
719.27	282.63
719.61	282.02
719.94	281.40
720.27	280.67
720.60	280.02
720.94	279.40
721.27	278.83
721.60	278.24
721.93	277.64
722.27	277.15
722.60	276.64
722.93	276.07
723.26	275.62
723.59	275.11
723.93	274.59
724.26	274.02
724.59	273.50
724.92	272.98
725.25	272.48
725.59	271.96
725.92	271.44
726.25	270.94
726.58	270.46
726.91	269.97
727.24	269.54
727.57	269.09
727.91	268.58
728.24	268.11
728.57	267.67
728.90	267.23
729.23	266.70
729.56	266.24
729.89	265.78
730.22	265.24
730.55	264.79
730.89	264.35
731.22	263.88
731.55	263.47
731.88	263.04
732.21	262.62
732.54	262.18
732.87	261.76
733.20	261.36
733.53	260.99
733.86	260.58
734.19	260.16
734.52	259.76
734.85	259.44
735.18	258.99
735.51	258.62
735.84	258.24
736.17	257.90
736.50	257.50
736.83	257.27
737.16	256.93
737.49	256.57
737.82	256.21
738.15	255.90
738.48	255.54
738.81	255.22
739.14	254.89
739.47	254.59
739.80	254.28
740.13	253.95
740.46	253.57
740.79	253.21
741.12	252.90
741.45	252.59
741.78	252.23
742.11	251.96
742.44	251.62
742.77	251.33
743.10	251.03
743.43	250.74
743.75	250.35
744.08	250.22
744.41	249.91
744.74	249.62
745.07	249.32
745.40	249.09
745.73	248.83
746.06	248.55
746.39	248.27
746.71	248.05
747.04	247.77
747.37	247.53
747.70	247.29
748.03	247.02
748.36	246.78
748.68	246.55
749.01	246.28
749.34	246.06
749.67	245.80
750.00	245.60
750.33	245.45
750.65	245.23
750.98	244.86
751.31	244.67
751.64	244.47
751.97	244.36
752.29	244.13
752.62	243.90
752.95	243.72
753.28	243.51
753.60	243.27
753.93	243.12
754.26	242.96
754.59	242.77
754.91	242.60
755.24	242.43
755.57	242.24
755.90	242.10
756.22	241.89
756.55	241.70
756.88	241.49
757.20	241.25
757.53	241.07
757.86	240.94
758.19	240.78
758.51	240.65
758.84	240.43
759.17	240.26
759.49	240.12
759.82	239.97
760.15	239.83
760.47	239.70
760.80	239.53
761.13	239.39
761.45	239.24
761.78	239.10
762.11	238.96
762.43	238.86
762.76	238.69
763.08	238.59
763.41	238.49
763.74	238.36
764.06	238.22
764.39	238.07
764.71	237.93
765.04	237.78
765.37	237.62
765.69	237.48
766.02	237.37
766.34	237.23
766.67	237.10
767.00	237.01
767.32	236.94
767.65	236.88
767.97	236.76
768.30	236.66
768.62	236.53
768.95	236.40
769.27	236.26
769.60	236.17
769.92	236.04
770.25	235.95
770.57	235.85
770.90	235.77
771.22	235.67
771.55	235.61
771.87	235.53
772.20	235.42
772.52	235.40
772.85	235.43
773.17	235.33
773.50	235.24
773.82	235.10
774.15	234.92
774.47	234.79
774.80	234.70
775.12	234.63
775.45	234.56
775.77	234.49
776.09	234.43
776.42	234.38
776.74	234.30
777.07	234.20
777.39	234.11
777.72	234.03
778.04	233.97
778.36	233.87
778.69	233.80
779.01	233.74
779.33	233.56
779.66	233.37
779.98	233.32
780.31	233.23
780.63	233.18
780.95	233.16
781.28	233.06
781.60	233.00
781.92	232.89
782.25	232.80
782.57	232.71
782.89	232.63
783.22	232.56
783.54	232.48
783.86	232.39
784.19	232.35
784.51	232.31
784.83	232.24
785.16	232.18
785.48	232.12
785.80	232.08
786.12	232.06
786.45	232.01
786.77	231.94
787.09	231.90
