SpectraSuite Data File
++++++++++++++++++++++++++++++++++++
Date: Fri Feb 01 17:57:30 EST 2013
User: group
Dark Spectrum Present: No
Reference Spectrum Present: No
Number of Sampled Component Spectra: 1
Spectrometers: USB2E7196
Integration Time (usec): 35000 (USB2E7196)
Spectra Averaged: 100 (USB2E7196)
Boxcar Smoothing: 10 (USB2E7196)
Correct for Electrical Dark: No (USB2E7196)
Strobe/Lamp Enabled: No (USB2E7196)
Correct for Detector Non-linearity: No (USB2E7196)
Correct for Stray Light: No (USB2E7196)
Number of Pixels in Processed Spectrum: 2048
>>>>>Begin Processed Spectral Data<<<<<
339.09	0.00
339.48	212.52
339.86	213.93
340.24	215.77
340.63	216.94
341.01	219.73
341.39	220.46
341.78	221.18
342.16	222.00
342.54	222.25
342.93	211.12
343.31	221.80
343.69	222.35
344.07	222.86
344.46	223.28
344.84	223.67
345.22	223.90
345.60	224.12
345.99	224.29
346.37	224.43
346.75	224.54
347.13	224.59
347.52	224.63
347.90	224.71
348.28	224.76
348.66	224.76
349.05	224.77
349.43	224.82
349.81	224.88
350.19	224.91
350.57	224.98
350.96	225.06
351.34	225.16
351.72	225.26
352.10	225.33
352.48	225.39
352.87	225.45
353.25	225.56
353.63	225.64
354.01	225.72
354.39	225.82
354.77	225.89
355.15	226.02
355.54	226.10
355.92	226.12
356.30	226.20
356.68	226.36
357.06	226.42
357.44	226.49
357.82	226.54
358.20	226.61
358.58	226.69
358.97	226.76
359.35	226.83
359.73	226.90
360.11	226.97
360.49	227.02
360.87	227.06
361.25	227.06
361.63	227.11
362.01	227.17
362.39	227.16
362.77	227.24
363.15	227.23
363.53	227.29
363.91	227.34
364.29	227.35
364.67	227.26
365.05	227.25
365.43	227.28
365.81	227.32
366.19	227.38
366.57	227.38
366.95	227.37
367.33	227.33
367.71	227.30
368.09	227.28
368.47	227.26
368.85	227.22
369.23	227.25
369.61	227.18
369.99	227.18
370.37	227.18
370.75	227.19
371.13	227.18
371.51	227.12
371.89	227.06
372.27	227.05
372.65	227.00
373.03	226.99
373.41	226.93
373.78	226.84
374.16	226.72
374.54	226.68
374.92	226.64
375.30	226.60
375.68	226.54
376.06	226.47
376.44	226.44
376.82	226.41
377.19	226.32
377.57	226.25
377.95	226.16
378.33	226.08
378.71	225.92
379.09	225.87
379.47	225.82
379.84	225.74
380.22	225.66
380.60	225.61
380.98	225.53
381.36	225.48
381.73	225.43
382.11	225.42
382.49	225.38
382.87	225.30
383.25	225.23
383.62	225.31
384.00	225.27
384.38	225.20
384.76	225.18
385.13	225.19
385.51	225.17
385.89	225.11
386.27	225.09
386.64	225.11
387.02	225.05
387.40	225.01
387.78	225.02
388.15	224.99
388.53	224.98
388.91	224.95
389.29	224.92
389.66	224.92
390.04	224.86
390.42	224.85
390.79	224.83
391.17	224.83
391.55	224.70
391.92	224.66
392.30	224.69
392.68	224.64
393.05	224.63
393.43	224.64
393.81	224.64
394.18	224.60
394.56	224.62
394.94	224.63
395.31	224.65
395.69	224.67
396.06	224.73
396.44	224.72
396.82	224.75
397.19	224.80
397.57	224.81
397.95	224.86
398.32	224.84
398.70	224.90
399.07	224.97
399.45	225.02
399.82	225.08
400.20	225.14
400.58	225.21
400.95	225.21
401.33	225.30
401.70	225.48
402.08	225.59
402.45	225.63
402.83	225.75
403.20	225.83
403.58	225.92
403.95	226.02
404.33	226.17
404.71	226.28
405.08	226.48
405.46	226.61
405.83	226.78
406.21	226.97
406.58	227.14
406.96	227.32
407.33	227.53
407.70	227.76
408.08	228.03
408.45	228.31
408.83	228.64
409.20	228.90
409.58	229.09
409.95	229.41
410.33	229.77
410.70	230.10
411.08	230.47
411.45	230.86
411.82	231.29
412.20	231.74
412.57	232.31
412.95	232.71
413.32	233.24
413.69	233.73
414.07	234.27
414.44	234.88
414.82	235.51
415.19	236.24
415.56	236.98
415.94	237.72
416.31	238.57
416.68	239.37
417.06	240.31
417.43	241.20
417.81	242.22
418.18	243.25
418.55	244.35
418.93	245.47
419.30	246.69
419.67	247.93
420.04	249.21
420.42	250.51
420.79	252.06
421.16	253.64
421.54	255.26
421.91	256.93
422.28	258.60
422.66	260.40
423.03	262.10
423.40	263.85
423.77	265.76
424.15	267.65
424.52	269.61
424.89	271.79
425.26	273.93
425.64	275.88
426.01	278.02
426.38	280.24
426.75	282.52
427.13	284.83
427.50	287.26
427.87	289.79
428.24	292.34
428.61	294.73
428.99	297.30
429.36	300.15
429.73	302.91
430.10	305.68
430.47	308.41
430.85	311.31
431.22	314.35
431.59	317.52
431.96	320.54
432.33	323.92
432.70	327.07
433.08	330.83
433.45	334.37
433.82	337.86
434.19	341.74
434.56	345.57
434.93	349.13
435.30	352.59
435.68	356.52
436.05	360.34
436.42	364.09
436.79	367.47
437.16	371.10
437.53	374.94
437.90	378.70
438.27	382.39
438.64	386.18
439.01	389.67
439.38	392.72
439.75	395.64
440.13	398.96
440.50	402.12
440.87	404.59
441.24	407.24
441.61	410.19
441.98	412.23
442.35	414.63
442.72	417.17
443.09	419.65
443.46	420.99
443.83	421.73
444.20	422.43
444.57	423.63
444.94	424.00
445.31	424.42
445.68	424.89
446.05	425.01
446.42	424.51
446.79	423.92
447.16	423.30
447.53	422.89
447.90	421.34
448.27	419.81
448.64	417.72
449.01	416.15
449.37	413.47
449.74	410.92
450.11	407.87
450.48	404.55
450.85	401.15
451.22	398.22
451.59	395.51
451.96	392.91
452.33	389.34
452.70	386.17
453.07	382.37
453.43	378.44
453.80	374.75
454.17	371.18
454.54	367.80
454.91	364.17
455.28	360.56
455.65	357.26
456.02	353.86
456.38	350.93
456.75	347.32
457.12	344.30
457.49	341.25
457.86	338.33
458.23	335.78
458.59	332.99
458.96	330.14
459.33	327.54
459.70	324.99
460.07	322.96
460.43	320.61
460.80	318.42
461.17	316.46
461.54	314.37
461.91	312.45
462.27	310.48
462.64	308.76
463.01	306.91
463.38	305.10
463.74	303.30
464.11	301.74
464.48	300.34
464.85	298.85
465.21	297.70
465.58	296.43
465.95	294.94
466.32	293.72
466.68	292.54
467.05	291.39
467.42	290.17
467.78	288.94
468.15	287.78
468.52	286.83
468.88	285.71
469.25	284.67
469.62	283.77
469.98	282.82
470.35	281.95
470.72	281.14
471.08	280.30
471.45	279.56
471.82	278.80
472.18	277.99
472.55	277.39
472.92	276.65
473.28	276.06
473.65	275.45
474.02	274.86
474.38	274.36
474.75	273.89
475.11	273.43
475.48	273.00
475.85	272.62
476.21	272.33
476.58	272.04
476.94	271.81
477.31	271.56
477.67	271.35
478.04	271.18
478.41	271.07
478.77	271.01
479.14	270.85
479.50	270.82
479.87	270.84
480.23	270.88
480.60	270.94
480.96	270.95
481.33	271.11
481.69	271.24
482.06	271.36
482.42	271.55
482.79	271.75
483.15	272.06
483.52	272.45
483.88	272.78
484.25	273.12
484.61	273.52
484.98	273.92
485.34	274.47
485.71	275.05
486.07	275.63
486.44	276.20
486.80	276.95
487.17	277.68
487.53	278.55
487.90	279.39
488.26	280.33
488.62	281.35
488.99	282.37
489.35	283.48
489.72	284.68
490.08	285.94
490.44	287.23
490.81	288.63
491.17	290.02
491.54	291.58
491.90	293.20
492.26	294.94
492.63	296.74
492.99	298.56
493.36	300.56
493.72	302.72
494.08	304.90
494.45	307.25
494.81	309.72
495.17	312.22
495.54	314.93
495.90	317.79
496.26	320.81
496.63	323.95
496.99	327.20
497.35	330.61
497.72	334.22
498.08	337.95
498.44	341.82
498.80	345.99
499.17	350.22
499.53	354.65
499.89	359.26
500.26	364.05
500.62	368.99
500.98	374.21
501.34	379.60
501.71	385.29
502.07	391.07
502.43	397.01
502.79	403.21
503.16	409.63
503.52	416.26
503.88	423.11
504.24	430.11
504.60	437.45
504.97	445.00
505.33	452.72
505.69	460.90
506.05	469.16
506.41	477.54
506.78	486.27
507.14	495.25
507.50	504.55
507.86	514.21
508.22	523.99
508.59	533.83
508.95	544.01
509.31	554.54
509.67	565.26
510.03	576.22
510.39	587.52
510.75	599.04
511.12	610.68
511.48	622.72
511.84	634.99
512.20	647.24
512.56	660.00
512.92	672.97
513.28	686.23
513.64	699.66
514.00	713.33
514.37	727.21
514.73	741.25
515.09	755.21
515.45	769.48
515.81	784.08
516.17	799.16
516.53	814.48
516.89	829.73
517.25	845.02
517.61	860.70
517.97	876.26
518.33	891.89
518.69	907.96
519.05	924.18
519.41	940.59
519.77	957.40
520.13	974.23
520.49	991.03
520.85	1007.72
521.21	1024.83
521.57	1042.52
521.93	1059.76
522.29	1077.60
522.65	1095.46
523.01	1113.06
523.37	1130.76
523.73	1148.43
524.09	1165.99
524.45	1183.82
524.81	1202.02
525.17	1220.33
525.53	1238.90
525.89	1257.40
526.25	1275.86
526.61	1293.88
526.97	1312.32
527.33	1330.63
527.68	1348.94
528.04	1367.26
528.40	1385.69
528.76	1404.58
529.12	1422.92
529.48	1441.61
529.84	1459.49
530.20	1477.94
530.56	1496.87
530.91	1516.14
531.27	1534.91
531.63	1553.34
531.99	1571.97
532.35	1590.07
532.71	1608.08
533.07	1626.35
533.42	1644.48
533.78	1662.68
534.14	1681.08
534.50	1698.56
534.86	1716.53
535.21	1733.82
535.57	1751.87
535.93	1769.47
536.29	1786.37
536.65	1803.60
537.00	1820.40
537.36	1837.93
537.72	1854.58
538.08	1871.21
538.44	1887.25
538.79	1903.37
539.15	1919.04
539.51	1934.73
539.87	1951.10
540.22	1967.07
540.58	1983.19
540.94	1998.57
541.29	2013.61
541.65	2028.37
542.01	2043.78
542.37	2058.31
542.72	2072.99
543.08	2086.92
543.44	2101.61
543.79	2114.99
544.15	2128.07
544.51	2141.98
544.87	2155.02
545.22	2168.07
545.58	2180.47
545.94	2192.27
546.29	2204.05
546.65	2216.27
547.01	2227.88
547.36	2238.77
547.72	2249.24
548.07	2259.07
548.43	2269.25
548.79	2279.22
549.14	2288.81
549.50	2298.05
549.86	2307.63
550.21	2316.86
550.57	2326.01
550.92	2334.45
551.28	2343.45
551.64	2352.56
551.99	2360.99
552.35	2369.11
552.70	2377.18
553.06	2384.92
553.41	2393.25
553.77	2401.18
554.13	2408.87
554.48	2416.95
554.84	2424.41
555.19	2431.23
555.55	2438.06
555.90	2444.26
556.26	2450.95
556.61	2457.44
556.97	2463.57
557.32	2469.52
557.68	2475.37
558.03	2481.32
558.39	2486.45
558.74	2492.73
559.10	2498.17
559.45	2503.27
559.81	2508.85
560.16	2514.26
560.52	2519.08
560.87	2523.92
561.23	2527.89
561.58	2532.34
561.94	2536.10
562.29	2539.50
562.64	2543.80
563.00	2547.67
563.35	2552.55
563.71	2556.96
564.06	2561.35
564.42	2565.52
564.77	2569.20
565.12	2572.78
565.48	2575.85
565.83	2579.07
566.19	2581.46
566.54	2583.25
566.89	2585.61
567.25	2587.29
567.60	2589.41
567.96	2592.19
568.31	2593.81
568.66	2595.99
569.02	2597.53
569.37	2598.64
569.72	2600.54
570.08	2601.53
570.43	2602.39
570.78	2602.61
571.14	2601.56
571.49	2600.79
571.84	2601.07
572.20	2600.49
572.55	2599.82
572.90	2598.62
573.26	2597.88
573.61	2596.51
573.96	2595.26
574.31	2592.46
574.67	2589.82
575.02	2586.34
575.37	2582.96
575.72	2579.46
576.08	2576.02
576.43	2572.76
576.78	2569.32
577.13	2566.10
577.49	2563.03
577.84	2559.60
578.19	2555.70
578.54	2552.22
578.90	2548.21
579.25	2542.24
579.60	2537.10
579.95	2531.97
580.30	2526.76
580.66	2521.12
581.01	2515.93
581.36	2510.74
581.71	2506.31
582.06	2501.57
582.42	2497.00
582.77	2491.40
583.12	2486.54
583.47	2481.81
583.82	2476.46
584.17	2470.73
584.53	2464.91
584.88	2458.59
585.23	2452.30
585.58	2446.42
585.93	2440.45
586.28	2435.06
586.63	2429.69
586.98	2424.10
587.34	2418.76
587.69	2413.39
588.04	2407.68
588.39	2401.51
588.74	2394.34
589.09	2387.49
589.44	2380.18
589.79	2373.34
590.14	2367.12
590.49	2359.80
590.84	2352.43
591.19	2345.64
591.54	2338.47
591.89	2330.37
592.25	2322.96
592.60	2314.96
592.95	2306.45
593.30	2298.11
593.65	2289.51
594.00	2281.37
594.35	2273.08
594.70	2263.99
595.05	2255.91
595.40	2247.62
595.75	2239.14
596.10	2232.17
596.45	2224.51
596.80	2217.41
597.15	2209.95
597.50	2202.08
597.85	2194.52
598.19	2186.99
598.54	2178.96
598.89	2171.24
599.24	2164.36
599.59	2156.78
599.94	2149.60
600.29	2142.37
600.64	2134.71
600.99	2126.16
601.34	2118.31
601.69	2110.30
602.04	2102.55
602.39	2093.99
602.74	2086.05
603.08	2078.18
603.43	2070.20
603.78	2061.75
604.13	2053.29
604.48	2044.81
604.83	2036.80
605.18	2028.98
605.53	2019.84
605.87	2010.60
606.22	2002.11
606.57	1992.93
606.92	1984.08
607.27	1975.72
607.62	1967.48
607.96	1959.09
608.31	1951.45
608.66	1942.77
609.01	1933.93
609.36	1925.12
609.70	1915.80
610.05	1906.49
610.40	1897.54
610.75	1887.88
611.10	1879.05
611.44	1869.19
611.79	1859.80
612.14	1849.62
612.49	1838.66
612.83	1828.71
613.18	1819.03
613.53	1809.55
613.88	1799.39
614.22	1789.76
614.57	1779.55
614.92	1770.18
615.27	1761.40
615.61	1751.65
615.96	1742.16
616.31	1733.25
616.65	1724.50
617.00	1715.68
617.35	1706.56
617.70	1696.80
618.04	1686.84
618.39	1677.00
618.74	1668.23
619.08	1658.53
619.43	1649.62
619.78	1641.51
620.12	1633.21
620.47	1624.38
620.82	1614.85
621.16	1606.19
621.51	1597.32
621.85	1588.41
622.20	1578.43
622.55	1568.58
622.89	1559.29
623.24	1550.35
623.59	1541.63
623.93	1532.77
624.28	1524.21
624.62	1515.40
624.97	1506.89
625.32	1498.96
625.66	1490.78
626.01	1482.28
626.35	1473.60
626.70	1464.44
627.04	1455.49
627.39	1446.33
627.73	1437.62
628.08	1429.50
628.43	1420.92
628.77	1412.32
629.12	1403.51
629.46	1395.05
629.81	1386.20
630.15	1377.67
630.50	1368.88
630.84	1359.39
631.19	1350.01
631.53	1341.14
631.88	1332.24
632.22	1323.33
632.57	1314.63
632.91	1305.81
633.26	1297.10
633.60	1288.33
633.95	1280.01
634.29	1271.68
634.64	1263.70
634.98	1255.17
635.32	1246.73
635.67	1238.93
636.01	1231.15
636.36	1223.21
636.70	1215.60
637.05	1207.93
637.39	1200.48
637.73	1192.93
638.08	1185.95
638.42	1179.04
638.77	1171.50
639.11	1163.85
639.45	1156.34
639.80	1148.66
640.14	1141.21
640.49	1133.65
640.83	1126.28
641.17	1119.06
641.52	1111.69
641.86	1104.15
642.20	1097.25
642.55	1089.82
642.89	1082.40
643.23	1074.67
643.58	1067.98
643.92	1060.74
644.26	1053.87
644.61	1046.78
644.95	1039.79
645.29	1032.26
645.64	1024.52
645.98	1017.18
646.32	1010.39
646.66	1003.45
647.01	996.74
647.35	990.08
647.69	983.19
648.04	976.82
648.38	970.10
648.72	963.26
649.06	956.40
649.41	949.60
649.75	942.81
650.09	935.90
650.43	929.34
650.78	922.28
651.12	915.48
651.46	908.78
651.80	902.23
652.14	895.94
652.49	889.69
652.83	883.60
653.17	877.11
653.51	870.54
653.85	864.29
654.20	857.80
654.54	850.84
654.88	844.22
655.22	837.40
655.56	830.79
655.90	824.44
656.25	818.36
656.59	812.27
656.93	806.34
657.27	800.42
657.61	794.09
657.95	788.13
658.29	782.25
658.64	776.20
658.98	770.02
659.32	763.74
659.66	757.77
660.00	751.67
660.34	745.95
660.68	740.23
661.02	734.45
661.36	729.05
661.70	723.92
662.05	718.92
662.39	713.95
662.73	708.75
663.07	703.68
663.41	698.59
663.75	693.36
664.09	688.16
664.43	683.02
664.77	678.28
665.11	673.34
665.45	668.54
665.79	663.80
666.13	659.05
666.47	654.31
666.81	649.55
667.15	644.84
667.49	640.28
667.83	635.91
668.17	631.36
668.51	626.69
668.85	622.00
669.19	617.57
669.53	613.28
669.87	608.94
670.21	604.69
670.55	600.45
670.89	596.55
671.23	592.57
671.57	588.53
671.91	584.46
672.25	580.43
672.58	576.38
672.92	572.45
673.26	568.80
673.60	565.20
673.94	561.59
674.28	558.18
674.62	554.82
674.96	551.20
675.30	547.84
675.64	544.45
675.97	541.27
676.31	538.01
676.65	534.57
676.99	531.41
677.33	528.09
677.67	524.87
678.01	521.39
678.34	517.97
678.68	514.67
679.02	511.45
679.36	508.32
679.70	505.21
680.04	502.04
680.37	498.80
680.71	495.58
681.05	492.55
681.39	489.40
681.73	486.33
682.06	483.52
682.40	480.63
682.74	477.69
683.08	474.73
683.42	471.71
683.75	468.82
684.09	465.85
684.43	463.04
684.77	460.16
685.10	457.34
685.44	454.66
685.78	452.06
686.12	449.37
686.45	446.71
686.79	444.02
687.13	441.46
687.46	438.93
687.80	436.41
688.14	433.84
688.48	431.49
688.81	428.92
689.15	426.38
689.49	423.83
689.82	421.39
690.16	419.00
690.50	416.73
690.83	414.50
691.17	412.21
691.51	410.00
691.84	407.83
692.18	405.69
692.52	403.41
692.85	401.15
693.19	399.03
693.52	396.88
693.86	394.80
694.20	392.71
694.53	390.60
694.87	388.45
695.21	386.33
695.54	384.16
695.88	382.12
696.21	380.09
696.55	378.16
696.88	376.23
697.22	374.26
697.56	372.35
697.89	370.41
698.23	368.55
698.56	366.66
698.90	364.89
699.23	362.98
699.57	361.20
699.90	359.43
700.24	357.63
700.58	355.87
700.91	354.11
701.25	352.47
701.58	350.88
701.92	349.30
702.25	347.75
702.59	346.20
702.92	344.68
703.26	343.15
703.59	341.70
703.93	340.31
704.26	338.91
704.60	337.42
704.93	335.94
705.26	334.48
705.60	333.11
705.93	331.72
706.27	330.45
706.60	329.21
706.94	327.95
707.27	326.66
707.61	325.43
707.94	324.26
708.27	322.95
708.61	321.71
708.94	320.56
709.28	319.43
709.61	318.35
709.94	317.25
710.28	316.10
710.61	314.93
710.95	313.69
711.28	312.63
711.61	311.53
711.95	310.49
712.28	309.43
712.61	308.30
712.95	307.20
713.28	306.21
713.61	305.20
713.95	304.18
714.28	303.23
714.61	302.23
714.95	301.21
715.28	300.26
715.61	299.21
715.95	298.23
716.28	297.19
716.61	296.19
716.95	295.22
717.28	294.38
717.61	293.50
717.94	292.67
718.28	291.73
718.61	290.89
718.94	290.06
719.27	289.28
719.61	288.53
719.94	287.75
720.27	286.93
720.60	286.14
720.94	285.45
721.27	284.70
721.60	284.03
721.93	283.37
722.27	282.78
722.60	282.14
722.93	281.49
723.26	280.90
723.59	280.28
723.93	279.67
724.26	279.01
724.59	278.34
724.92	277.71
725.25	277.15
725.59	276.52
725.92	275.94
726.25	275.35
726.58	274.77
726.91	274.24
727.24	273.70
727.57	273.16
727.91	272.52
728.24	271.96
728.57	271.36
728.90	270.86
729.23	270.25
729.56	269.76
729.89	269.18
730.22	268.63
730.55	268.07
730.89	267.53
731.22	267.01
731.55	266.52
731.88	266.01
732.21	265.48
732.54	265.01
732.87	264.52
733.20	264.05
733.53	263.62
733.86	263.16
734.19	262.70
734.52	262.23
734.85	261.87
735.18	261.44
735.51	261.01
735.84	260.51
736.17	260.11
736.50	259.65
736.83	259.39
737.16	259.01
737.49	258.64
737.82	258.23
738.15	257.82
738.48	257.41
738.81	257.00
739.14	256.64
739.47	256.26
739.80	255.91
740.13	255.53
740.46	255.12
740.79	254.73
741.12	254.35
741.45	254.00
741.78	253.58
742.11	253.25
742.44	252.87
742.77	252.54
743.10	252.15
743.43	251.78
743.75	251.36
744.08	251.15
744.41	250.82
744.74	250.53
745.07	250.24
745.40	249.99
745.73	249.74
746.06	249.41
746.39	249.11
746.71	248.76
747.04	248.49
747.37	248.23
747.70	247.97
748.03	247.69
748.36	247.45
748.68	247.18
749.01	246.88
749.34	246.64
749.67	246.40
750.00	246.13
750.33	245.95
750.65	245.70
750.98	245.29
751.31	245.04
751.64	244.82
751.97	244.63
752.29	244.36
752.62	244.10
752.95	243.84
753.28	243.57
753.60	243.33
753.93	243.09
754.26	242.85
754.59	242.54
754.91	242.33
755.24	242.07
755.57	241.88
755.90	241.68
756.22	241.45
756.55	241.20
756.88	240.98
757.20	240.71
757.53	240.47
757.86	240.29
758.19	240.11
758.51	239.89
758.84	239.64
759.17	239.42
759.49	239.21
759.82	239.11
760.15	238.98
760.47	238.81
760.80	238.61
761.13	238.42
761.45	238.28
761.78	238.11
762.11	237.96
762.43	237.78
762.76	237.63
763.08	237.49
763.41	237.37
763.74	237.21
764.06	237.08
764.39	236.95
764.71	236.78
765.04	236.61
765.37	236.50
765.69	236.34
766.02	236.19
766.34	236.04
766.67	235.88
767.00	235.75
767.32	235.69
767.65	235.66
767.97	235.56
768.30	235.45
768.62	235.29
768.95	235.11
769.27	234.98
769.60	234.86
769.92	234.71
770.25	234.57
770.57	234.48
770.90	234.37
771.22	234.22
771.55	234.13
771.87	234.05
772.20	233.89
772.52	233.89
772.85	233.92
773.17	233.83
773.50	233.71
773.82	233.64
774.15	233.47
774.47	233.25
774.80	233.15
775.12	233.03
775.45	232.97
775.77	232.92
776.09	232.84
776.42	232.74
776.74	232.69
777.07	232.58
777.39	232.49
777.72	232.39
778.04	232.33
778.36	232.27
778.69	232.18
779.01	232.11
779.33	231.93
779.66	231.72
779.98	231.61
780.31	231.52
780.63	231.45
780.95	231.39
781.28	231.35
781.60	231.23
781.92	231.19
782.25	231.07
782.57	230.98
782.89	230.91
783.22	230.82
783.54	230.73
783.86	230.70
784.19	230.59
784.51	230.57
784.83	230.47
785.16	230.34
785.48	230.25
785.80	230.19
786.12	230.15
786.45	230.08
