SpectraSuite Data File
++++++++++++++++++++++++++++++++++++
Date: Fri Feb 01 15:55:32 EST 2013
User: group
Dark Spectrum Present: No
Reference Spectrum Present: No
Number of Sampled Component Spectra: 1
Spectrometers: USB2E7196
Integration Time (usec): 35000 (USB2E7196)
Spectra Averaged: 100 (USB2E7196)
Boxcar Smoothing: 10 (USB2E7196)
Correct for Electrical Dark: No (USB2E7196)
Strobe/Lamp Enabled: No (USB2E7196)
Correct for Detector Non-linearity: No (USB2E7196)
Correct for Stray Light: No (USB2E7196)
Number of Pixels in Processed Spectrum: 2048
>>>>>Begin Processed Spectral Data<<<<<
339.09	0.00
339.48	214.50
339.86	216.24
340.24	217.72
340.63	219.11
341.01	220.96
341.39	221.96
341.78	223.16
342.16	223.88
342.54	224.05
342.93	212.93
343.31	223.70
343.69	224.26
344.07	224.72
344.46	225.15
344.84	225.53
345.22	225.81
345.60	226.04
345.99	226.21
346.37	226.35
346.75	226.48
347.13	226.55
347.52	226.61
347.90	226.70
348.28	226.76
348.66	226.81
349.05	226.85
349.43	226.95
349.81	227.01
350.19	227.06
350.57	227.13
350.96	227.23
351.34	227.33
351.72	227.42
352.10	227.49
352.48	227.55
352.87	227.60
353.25	227.68
353.63	227.75
354.01	227.82
354.39	227.89
354.77	227.98
355.15	228.04
355.54	228.12
355.92	228.15
356.30	228.21
356.68	228.33
357.06	228.39
357.44	228.40
357.82	228.47
358.20	228.56
358.58	228.64
358.97	228.68
359.35	228.75
359.73	228.79
360.11	228.89
360.49	228.93
360.87	228.96
361.25	229.00
361.63	229.05
362.01	229.07
362.39	229.12
362.77	229.15
363.15	229.18
363.53	229.19
363.91	229.21
364.29	229.21
364.67	229.13
365.05	229.12
365.43	229.13
365.81	229.15
366.19	229.16
366.57	229.13
366.95	229.14
367.33	229.07
367.71	229.08
368.09	229.04
368.47	229.02
368.85	228.99
369.23	228.99
369.61	228.93
369.99	228.94
370.37	228.88
370.75	228.87
371.13	228.82
371.51	228.76
371.89	228.70
372.27	228.64
372.65	228.62
373.03	228.57
373.41	228.51
373.78	228.42
374.16	228.31
374.54	228.26
374.92	228.18
375.30	228.14
375.68	228.06
376.06	228.01
376.44	227.94
376.82	227.85
377.19	227.75
377.57	227.68
377.95	227.59
378.33	227.54
378.71	227.42
379.09	227.36
379.47	227.30
379.84	227.25
380.22	227.18
380.60	227.11
380.98	227.06
381.36	226.95
381.73	226.90
382.11	226.89
382.49	226.83
382.87	226.74
383.25	226.68
383.62	226.73
384.00	226.65
384.38	226.62
384.76	226.62
385.13	226.63
385.51	226.59
385.89	226.54
386.27	226.49
386.64	226.49
387.02	226.44
387.40	226.40
387.78	226.37
388.15	226.37
388.53	226.31
388.91	226.27
389.29	226.27
389.66	226.23
390.04	226.17
390.42	226.17
390.79	226.16
391.17	226.09
391.55	225.98
391.92	225.98
392.30	225.97
392.68	225.96
393.05	225.94
393.43	225.95
393.81	225.98
394.18	226.00
394.56	225.97
394.94	226.04
395.31	226.05
395.69	226.12
396.06	226.12
396.44	226.16
396.82	226.21
397.19	226.30
397.57	226.36
397.95	226.45
398.32	226.49
398.70	226.56
399.07	226.71
399.45	226.77
399.82	226.84
400.20	226.91
400.58	227.00
400.95	227.02
401.33	227.14
401.70	227.28
402.08	227.39
402.45	227.53
402.83	227.65
403.20	227.79
403.58	227.88
403.95	228.02
404.33	228.19
404.71	228.32
405.08	228.52
405.46	228.66
405.83	228.80
406.21	228.95
406.58	229.14
406.96	229.27
407.33	229.47
407.70	229.67
408.08	229.94
408.45	230.15
408.83	230.43
409.20	230.62
409.58	230.83
409.95	231.10
410.33	231.35
410.70	231.58
411.08	231.86
411.45	232.18
411.82	232.47
412.20	232.79
412.57	233.22
412.95	233.48
413.32	233.86
413.69	234.29
414.07	234.74
414.44	235.19
414.82	235.68
415.19	236.23
415.56	236.75
415.94	237.32
416.31	237.94
416.68	238.54
417.06	239.25
417.43	239.89
417.81	240.62
418.18	241.41
418.55	242.23
418.93	243.07
419.30	243.97
419.67	244.91
420.04	245.89
420.42	246.81
420.79	248.05
421.16	249.20
421.54	250.42
421.91	251.65
422.28	252.87
422.66	254.18
423.03	255.43
423.40	256.77
423.77	258.12
424.15	259.55
424.52	261.05
424.89	262.65
425.26	264.21
425.64	265.66
426.01	267.25
426.38	268.92
426.75	270.62
427.13	272.38
427.50	274.20
427.87	276.07
428.24	277.98
428.61	279.69
428.99	281.66
429.36	283.72
429.73	285.77
430.10	287.82
430.47	289.89
430.85	292.00
431.22	294.26
431.59	296.65
431.96	298.88
432.33	301.38
432.70	303.77
433.08	306.59
433.45	309.23
433.82	311.85
434.19	314.72
434.56	317.52
434.93	320.11
435.30	322.73
435.68	325.56
436.05	328.36
436.42	331.13
436.79	333.63
437.16	336.28
437.53	339.12
437.90	341.91
438.27	344.65
438.64	347.50
439.01	350.06
439.38	352.30
439.75	354.47
440.13	356.96
440.50	359.29
440.87	361.13
441.24	363.02
441.61	365.10
441.98	366.63
442.35	368.41
442.72	370.31
443.09	372.14
443.46	373.19
443.83	373.76
444.20	374.31
444.57	375.14
444.94	375.43
445.31	375.78
445.68	376.14
446.05	376.19
446.42	375.82
446.79	375.44
447.16	374.99
447.53	374.69
447.90	373.51
448.27	372.33
448.64	370.77
449.01	369.67
449.37	367.72
449.74	365.80
450.11	363.57
450.48	361.08
450.85	358.50
451.22	356.32
451.59	354.34
451.96	352.36
452.33	349.72
452.70	347.33
453.07	344.46
453.43	341.51
453.80	338.76
454.17	336.07
454.54	333.50
454.91	330.77
455.28	328.07
455.65	325.59
456.02	323.15
456.38	320.96
456.75	318.26
457.12	316.02
457.49	313.83
457.86	311.64
458.23	309.76
458.59	307.74
458.96	305.67
459.33	303.82
459.70	301.99
460.07	300.49
460.43	298.78
460.80	297.15
461.17	295.78
461.54	294.28
461.91	292.88
462.27	291.44
462.64	290.22
463.01	288.89
463.38	287.59
463.74	286.21
464.11	285.10
464.48	284.13
464.85	283.04
465.21	282.16
465.58	281.24
465.95	280.20
466.32	279.28
466.68	278.39
467.05	277.52
467.42	276.62
467.78	275.72
468.15	274.89
468.52	274.25
468.88	273.40
469.25	272.65
469.62	272.05
469.98	271.37
470.35	270.73
470.72	270.14
471.08	269.48
471.45	268.95
471.82	268.43
472.18	267.81
472.55	267.37
472.92	266.83
473.28	266.35
473.65	265.90
474.02	265.46
474.38	265.10
474.75	264.78
475.11	264.43
475.48	264.16
475.85	263.92
476.21	263.71
476.58	263.53
476.94	263.38
477.31	263.21
477.67	263.06
478.04	262.94
478.41	262.88
478.77	262.94
479.14	262.89
479.50	262.86
479.87	262.94
480.23	263.03
480.60	263.10
480.96	263.25
481.33	263.45
481.69	263.66
482.06	263.84
482.42	264.01
482.79	264.32
483.15	264.66
483.52	265.05
483.88	265.40
484.25	265.78
484.61	266.24
484.98	266.69
485.34	267.27
485.71	267.89
486.07	268.49
486.44	269.06
486.80	269.78
487.17	270.52
487.53	271.32
487.90	272.19
488.26	273.17
488.62	274.11
488.99	275.08
489.35	276.12
489.72	277.28
490.08	278.46
490.44	279.68
490.81	281.01
491.17	282.34
491.54	283.80
491.90	285.31
492.26	286.93
492.63	288.67
492.99	290.42
493.36	292.28
493.72	294.35
494.08	296.47
494.45	298.74
494.81	301.13
495.17	303.57
495.54	306.14
495.90	308.78
496.26	311.57
496.63	314.58
496.99	317.68
497.35	320.92
497.72	324.36
498.08	327.85
498.44	331.51
498.80	335.47
499.17	339.53
499.53	343.70
499.89	348.08
500.26	352.56
500.62	357.25
500.98	362.24
501.34	367.27
501.71	372.54
502.07	377.93
502.43	383.55
502.79	389.39
503.16	395.47
503.52	401.75
503.88	408.14
504.24	414.71
504.60	421.60
504.97	428.79
505.33	436.14
505.69	443.81
506.05	451.58
506.41	459.50
506.78	467.67
507.14	476.14
507.50	484.79
507.86	493.85
508.22	503.04
508.59	512.25
508.95	521.86
509.31	531.74
509.67	541.88
510.03	552.19
510.39	562.72
510.75	573.53
511.12	584.43
511.48	595.76
511.84	607.21
512.20	618.74
512.56	630.64
512.92	642.85
513.28	655.29
513.64	667.76
514.00	680.45
514.37	693.33
514.73	706.41
515.09	719.50
515.45	732.82
515.81	746.42
516.17	760.44
516.53	774.60
516.89	788.68
517.25	802.82
517.61	817.22
517.97	831.65
518.33	846.07
518.69	860.76
519.05	875.69
519.41	890.91
519.77	906.43
520.13	921.82
520.49	937.14
520.85	952.43
521.21	968.19
521.57	984.38
521.93	1000.24
522.29	1016.54
522.65	1032.82
523.01	1048.88
523.37	1064.97
523.73	1081.03
524.09	1097.07
524.45	1113.43
524.81	1129.96
525.17	1146.79
525.53	1163.71
525.89	1180.56
526.25	1197.48
526.61	1213.87
526.97	1230.58
527.33	1247.04
527.68	1263.65
528.04	1280.03
528.40	1296.61
528.76	1313.55
529.12	1330.06
529.48	1346.88
529.84	1362.93
530.20	1379.49
530.56	1396.54
530.91	1413.89
531.27	1430.54
531.63	1446.96
531.99	1463.50
532.35	1479.57
532.71	1495.27
533.07	1511.48
533.42	1527.29
533.78	1543.40
534.14	1559.71
534.50	1574.92
534.86	1590.76
535.21	1605.89
535.57	1621.84
535.93	1637.30
536.29	1652.13
536.65	1667.20
537.00	1681.81
537.36	1697.02
537.72	1711.49
538.08	1725.79
538.44	1739.36
538.79	1753.32
539.15	1766.97
539.51	1780.67
539.87	1794.98
540.22	1808.81
540.58	1822.49
540.94	1835.91
541.29	1848.70
541.65	1861.36
542.01	1874.59
542.37	1886.81
542.72	1899.28
543.08	1911.10
543.44	1923.58
543.79	1934.78
544.15	1945.80
544.51	1957.46
544.87	1968.46
545.22	1979.20
545.58	1989.37
545.94	1999.21
546.29	2009.14
546.65	2018.86
547.01	2028.11
547.36	2036.79
547.72	2045.05
548.07	2052.90
548.43	2061.05
548.79	2069.05
549.14	2076.52
549.50	2083.78
549.86	2091.57
550.21	2098.79
550.57	2105.95
550.92	2112.35
551.28	2119.44
551.64	2126.45
551.99	2132.96
552.35	2139.09
552.70	2145.23
553.06	2151.32
553.41	2157.65
553.77	2163.66
554.13	2169.78
554.48	2175.95
554.84	2181.22
555.19	2186.56
555.55	2191.73
555.90	2196.17
556.26	2200.94
556.61	2205.69
556.97	2209.94
557.32	2213.93
557.68	2218.09
558.03	2222.36
558.39	2226.24
558.74	2230.87
559.10	2234.78
559.45	2238.35
559.81	2242.71
560.16	2246.63
560.52	2249.86
560.87	2253.28
561.23	2255.98
561.58	2259.05
561.94	2261.52
562.29	2264.07
562.64	2266.88
563.00	2269.46
563.35	2272.94
563.71	2276.23
564.06	2279.38
564.42	2282.38
564.77	2284.86
565.12	2287.19
565.48	2289.02
565.83	2290.91
566.19	2292.20
566.54	2293.11
566.89	2294.36
567.25	2294.77
567.60	2296.06
567.96	2297.76
568.31	2298.64
568.66	2299.75
569.02	2300.26
569.37	2300.44
569.72	2301.28
570.08	2301.45
570.43	2301.54
570.78	2300.77
571.14	2299.30
571.49	2297.97
571.84	2297.66
572.20	2296.70
572.55	2295.68
572.90	2294.24
573.26	2292.77
573.61	2291.12
573.96	2289.42
574.31	2286.42
574.67	2283.59
575.02	2280.03
575.37	2276.58
575.72	2272.77
576.08	2269.37
576.43	2266.08
576.78	2262.56
577.13	2259.49
577.49	2256.45
577.84	2252.91
578.19	2249.31
578.54	2245.57
578.90	2241.30
579.25	2235.75
579.60	2230.77
579.95	2225.59
580.30	2220.44
580.66	2215.29
581.01	2210.26
581.36	2205.25
581.71	2201.11
582.06	2196.61
582.42	2192.01
582.77	2186.83
583.12	2182.30
583.47	2177.46
583.82	2172.35
584.17	2167.05
584.53	2161.40
584.88	2155.59
585.23	2149.78
585.58	2144.23
585.93	2138.88
586.28	2134.29
586.63	2129.17
586.98	2124.03
587.34	2119.31
587.69	2114.49
588.04	2109.18
588.39	2103.54
588.74	2097.11
589.09	2090.83
589.44	2084.01
589.79	2077.96
590.14	2072.42
590.49	2065.80
590.84	2059.49
591.19	2053.49
591.54	2046.98
591.89	2039.68
592.25	2032.91
592.60	2025.68
592.95	2018.23
593.30	2010.79
593.65	2002.96
594.00	1995.84
594.35	1988.67
594.70	1980.71
595.05	1973.53
595.40	1966.27
595.75	1958.66
596.10	1952.32
596.45	1945.73
596.80	1939.56
597.15	1933.01
597.50	1925.80
597.85	1919.45
598.19	1912.73
598.54	1905.69
598.89	1899.13
599.24	1893.18
599.59	1886.44
599.94	1880.36
600.29	1874.01
600.64	1867.45
600.99	1860.16
601.34	1853.40
601.69	1846.40
602.04	1839.61
602.39	1832.19
602.74	1825.34
603.08	1818.73
603.43	1812.11
603.78	1804.69
604.13	1797.48
604.48	1790.25
604.83	1783.47
605.18	1776.40
605.53	1768.37
605.87	1760.40
606.22	1753.30
606.57	1745.39
606.92	1738.20
607.27	1730.97
607.62	1724.07
607.96	1716.77
608.31	1710.16
608.66	1702.56
609.01	1695.11
609.36	1687.47
609.70	1679.51
610.05	1671.49
610.40	1663.80
610.75	1655.48
611.10	1647.87
611.44	1639.58
611.79	1631.56
612.14	1622.82
612.49	1613.77
612.83	1605.45
613.18	1597.37
613.53	1589.22
613.88	1580.65
614.22	1572.34
614.57	1563.82
614.92	1555.76
615.27	1548.20
615.61	1539.80
615.96	1531.81
616.31	1524.12
616.65	1516.75
617.00	1509.22
617.35	1501.47
617.70	1493.06
618.04	1484.56
618.39	1476.38
618.74	1468.59
619.08	1460.29
619.43	1452.78
619.78	1445.85
620.12	1438.69
620.47	1431.09
620.82	1422.82
621.16	1415.55
621.51	1407.97
621.85	1400.24
622.20	1391.66
622.55	1383.29
622.89	1375.44
623.24	1367.77
623.59	1360.45
623.93	1352.95
624.28	1345.62
624.62	1338.16
624.97	1330.94
625.32	1324.21
625.66	1317.05
626.01	1309.92
626.35	1302.39
626.70	1294.71
627.04	1286.86
627.39	1279.09
627.73	1271.58
628.08	1264.79
628.43	1257.29
628.77	1249.81
629.12	1242.27
629.46	1235.12
629.81	1227.65
630.15	1220.48
630.50	1213.09
630.84	1204.77
631.19	1196.90
631.53	1189.41
631.88	1181.79
632.22	1174.27
632.57	1166.97
632.91	1159.41
633.26	1152.01
633.60	1144.75
633.95	1137.59
634.29	1130.62
634.64	1123.98
634.98	1116.68
635.32	1109.45
635.67	1102.97
636.01	1096.37
636.36	1089.59
636.70	1083.04
637.05	1076.45
637.39	1069.93
637.73	1063.49
638.08	1057.74
638.42	1051.56
638.77	1045.14
639.11	1038.57
639.45	1032.11
639.80	1025.38
640.14	1019.05
640.49	1012.65
640.83	1006.35
641.17	1000.05
641.52	993.76
641.86	987.25
642.20	981.43
642.55	975.07
642.89	968.52
643.23	961.97
643.58	956.20
643.92	950.05
644.26	944.00
644.61	938.01
644.95	931.90
645.29	925.19
645.64	918.55
645.98	912.21
646.32	906.38
646.66	900.36
647.01	894.54
647.35	888.88
647.69	883.01
648.04	877.46
648.38	871.66
648.72	865.60
649.06	859.62
649.41	853.76
649.75	847.87
650.09	842.01
650.43	836.28
650.78	830.11
651.12	824.15
651.46	818.41
651.80	812.68
652.14	807.30
652.49	801.95
652.83	796.71
653.17	790.99
653.51	785.26
653.85	779.96
654.20	774.38
654.54	768.36
654.88	762.56
655.22	756.67
655.56	750.99
655.90	745.53
656.25	740.27
656.59	734.94
656.93	729.81
657.27	724.58
657.61	719.17
657.95	714.12
658.29	709.12
658.64	703.84
658.98	698.54
659.32	693.09
659.66	687.88
660.00	682.60
660.34	677.73
660.68	672.84
661.02	667.74
661.36	662.98
661.70	658.42
662.05	654.07
662.39	649.72
662.73	645.27
663.07	640.92
663.41	636.43
663.75	631.88
664.09	627.37
664.43	623.05
664.77	618.85
665.11	614.59
665.45	610.39
665.79	606.39
666.13	602.26
666.47	598.12
666.81	593.92
667.15	589.82
667.49	585.87
667.83	582.01
668.17	578.11
668.51	574.04
668.85	570.04
669.19	566.24
669.53	562.41
669.87	558.53
670.21	554.76
670.55	551.14
670.89	547.75
671.23	544.27
671.57	540.71
671.91	537.18
672.25	533.66
672.58	530.15
672.92	526.76
673.26	523.57
673.60	520.48
673.94	517.44
674.28	514.56
674.62	511.61
674.96	508.54
675.30	505.61
675.64	502.70
675.97	499.97
676.31	497.12
676.65	494.18
676.99	491.48
677.33	488.74
677.67	485.88
678.01	482.81
678.34	479.82
678.68	476.97
679.02	474.11
679.36	471.37
679.70	468.66
680.04	465.88
680.37	463.04
680.71	460.20
681.05	457.61
681.39	454.88
681.73	452.25
682.06	449.74
682.40	447.19
682.74	444.65
683.08	442.09
683.42	439.48
683.75	436.98
684.09	434.43
684.43	431.91
684.77	429.47
685.10	427.17
685.44	424.87
685.78	422.60
686.12	420.39
686.45	418.09
686.79	415.86
687.13	413.66
687.46	411.49
687.80	409.36
688.14	407.13
688.48	405.04
688.81	402.78
689.15	400.63
689.49	398.51
689.82	396.52
690.16	394.40
690.50	392.43
690.83	390.52
691.17	388.53
691.51	386.68
691.84	384.88
692.18	382.91
692.52	380.94
692.85	379.01
693.19	377.19
693.52	375.36
693.86	373.53
694.20	371.78
694.53	370.00
694.87	368.12
695.21	366.34
695.54	364.55
695.88	362.87
696.21	361.14
696.55	359.44
696.88	357.71
697.22	356.05
697.56	354.42
697.89	352.79
698.23	351.20
698.56	349.53
698.90	347.92
699.23	346.27
699.57	344.78
699.90	343.23
700.24	341.65
700.58	340.14
700.91	338.64
701.25	337.17
701.58	335.77
701.92	334.46
702.25	333.07
702.59	331.68
702.92	330.32
703.26	329.04
703.59	327.77
703.93	326.60
704.26	325.34
704.60	324.02
704.93	322.74
705.26	321.52
705.60	320.36
705.93	319.15
706.27	318.15
706.60	317.05
706.94	315.95
707.27	314.87
707.61	313.77
707.94	312.74
708.27	311.65
708.61	310.58
708.94	309.53
709.28	308.55
709.61	307.62
709.94	306.65
710.28	305.61
710.61	304.66
710.95	303.54
711.28	302.66
711.61	301.75
711.95	300.84
712.28	299.85
712.61	298.86
712.95	297.97
713.28	297.09
713.61	296.18
713.95	295.30
714.28	294.42
714.61	293.55
714.95	292.69
715.28	291.83
715.61	290.96
715.95	290.16
716.28	289.29
716.61	288.41
716.95	287.60
717.28	286.87
717.61	286.07
717.94	285.36
718.28	284.53
718.61	283.77
718.94	283.07
719.27	282.41
719.61	281.73
719.94	281.05
720.27	280.31
720.60	279.63
720.94	279.00
721.27	278.39
721.60	277.86
721.93	277.24
722.27	276.75
722.60	276.21
722.93	275.61
723.26	275.10
723.59	274.56
723.93	274.02
724.26	273.46
724.59	272.88
724.92	272.35
725.25	271.85
725.59	271.32
725.92	270.77
726.25	270.24
726.58	269.79
726.91	269.30
727.24	268.85
727.57	268.41
727.91	267.92
728.24	267.45
728.57	266.96
728.90	266.55
729.23	265.99
729.56	265.56
729.89	265.06
730.22	264.56
730.55	264.10
730.89	263.66
731.22	263.23
731.55	262.80
731.88	262.38
732.21	261.98
732.54	261.56
732.87	261.18
733.20	260.82
733.53	260.43
733.86	260.09
734.19	259.68
734.52	259.27
734.85	258.99
735.18	258.59
735.51	258.21
735.84	257.83
736.17	257.48
736.50	257.07
736.83	256.86
737.16	256.56
737.49	256.22
737.82	255.86
738.15	255.52
738.48	255.20
738.81	254.92
739.14	254.57
739.47	254.27
739.80	253.97
740.13	253.68
740.46	253.34
740.79	252.99
741.12	252.67
741.45	252.35
741.78	251.96
742.11	251.71
742.44	251.39
742.77	251.10
743.10	250.80
743.43	250.52
743.75	250.14
744.08	249.97
744.41	249.70
744.74	249.42
745.07	249.16
745.40	248.89
745.73	248.65
746.06	248.40
746.39	248.17
746.71	247.87
747.04	247.58
747.37	247.33
747.70	247.07
748.03	246.82
748.36	246.62
748.68	246.41
749.01	246.11
749.34	245.88
749.67	245.65
750.00	245.44
750.33	245.26
750.65	245.04
750.98	244.73
751.31	244.49
751.64	244.29
751.97	244.14
752.29	243.95
752.62	243.67
752.95	243.47
753.28	243.24
753.60	243.01
753.93	242.84
754.26	242.67
754.59	242.47
754.91	242.26
755.24	242.08
755.57	241.90
755.90	241.74
756.22	241.56
756.55	241.37
756.88	241.19
757.20	240.98
757.53	240.75
757.86	240.58
758.19	240.43
758.51	240.26
758.84	240.01
759.17	239.82
759.49	239.66
759.82	239.53
760.15	239.36
760.47	239.25
760.80	239.05
761.13	238.90
761.45	238.75
761.78	238.58
762.11	238.45
762.43	238.29
762.76	238.13
763.08	238.01
763.41	237.89
763.74	237.73
764.06	237.60
764.39	237.50
764.71	237.36
765.04	237.21
765.37	237.08
765.69	236.98
766.02	236.86
766.34	236.73
766.67	236.57
767.00	236.48
767.32	236.41
767.65	236.37
767.97	236.25
768.30	236.14
768.62	236.03
768.95	235.90
769.27	235.78
769.60	235.70
769.92	235.55
770.25	235.43
770.57	235.30
770.90	235.20
771.22	235.08
771.55	234.98
771.87	234.91
772.20	234.81
772.52	234.79
772.85	234.82
773.17	234.72
773.50	234.61
773.82	234.51
774.15	234.35
774.47	234.19
774.80	234.08
775.12	233.98
775.45	233.92
775.77	233.83
776.09	233.75
776.42	233.65
776.74	233.58
777.07	233.47
777.39	233.43
777.72	233.36
778.04	233.32
778.36	233.23
778.69	233.20
779.01	233.15
779.33	232.99
779.66	232.77
779.98	232.70
780.31	232.65
780.63	232.61
780.95	232.61
781.28	232.54
781.60	232.48
781.92	232.41
782.25	232.36
782.57	232.29
782.89	232.24
783.22	232.23
783.54	232.18
783.86	232.18
784.19	232.10
784.51	232.07
784.83	232.00
785.16	231.94
785.48	231.87
785.80	231.81
786.12	231.76
786.45	231.74
786.77	231.72
787.09	231.64
