SpectraSuite Data File
++++++++++++++++++++++++++++++++++++
Date: Fri Feb 01 16:03:39 EST 2013
User: group
Dark Spectrum Present: No
Reference Spectrum Present: No
Number of Sampled Component Spectra: 1
Spectrometers: USB2E7196
Integration Time (usec): 35000 (USB2E7196)
Spectra Averaged: 100 (USB2E7196)
Boxcar Smoothing: 10 (USB2E7196)
Correct for Electrical Dark: No (USB2E7196)
Strobe/Lamp Enabled: No (USB2E7196)
Correct for Detector Non-linearity: No (USB2E7196)
Correct for Stray Light: No (USB2E7196)
Number of Pixels in Processed Spectrum: 2048
>>>>>Begin Processed Spectral Data<<<<<
339.09	0.00
339.48	214.60
339.86	216.81
340.24	217.85
340.63	219.21
341.01	221.67
341.39	221.80
341.78	222.68
342.16	224.40
342.54	224.48
342.93	213.24
343.31	224.02
343.69	224.56
344.07	224.97
344.46	225.39
344.84	225.77
345.22	226.01
345.60	226.25
345.99	226.47
346.37	226.62
346.75	226.71
347.13	226.79
347.52	226.83
347.90	226.86
348.28	226.86
348.66	226.91
349.05	226.90
349.43	226.94
349.81	226.95
350.19	227.01
350.57	227.07
350.96	227.14
351.34	227.20
351.72	227.31
352.10	227.43
352.48	227.48
352.87	227.50
353.25	227.54
353.63	227.64
354.01	227.68
354.39	227.69
354.77	227.77
355.15	227.85
355.54	227.91
355.92	227.94
356.30	228.01
356.68	228.11
357.06	228.16
357.44	228.20
357.82	228.27
358.20	228.34
358.58	228.34
358.97	228.41
359.35	228.50
359.73	228.54
360.11	228.57
360.49	228.65
360.87	228.70
361.25	228.78
361.63	228.80
362.01	228.86
362.39	228.92
362.77	228.98
363.15	228.99
363.53	229.02
363.91	229.08
364.29	229.12
364.67	229.05
365.05	229.06
365.43	229.09
365.81	229.10
366.19	229.14
366.57	229.23
366.95	229.23
367.33	229.17
367.71	229.18
368.09	229.20
368.47	229.18
368.85	229.16
369.23	229.18
369.61	229.14
369.99	229.15
370.37	229.12
370.75	229.13
371.13	229.10
371.51	229.04
371.89	228.98
372.27	228.96
372.65	228.94
373.03	228.90
373.41	228.85
373.78	228.79
374.16	228.68
374.54	228.57
374.92	228.50
375.30	228.49
375.68	228.38
376.06	228.32
376.44	228.28
376.82	228.24
377.19	228.17
377.57	228.11
377.95	228.04
378.33	227.97
378.71	227.82
379.09	227.76
379.47	227.73
379.84	227.67
380.22	227.55
380.60	227.46
380.98	227.39
381.36	227.32
381.73	227.25
382.11	227.21
382.49	227.16
382.87	227.10
383.25	227.00
383.62	227.07
384.00	227.01
384.38	226.93
384.76	226.86
385.13	226.81
385.51	226.76
385.89	226.68
386.27	226.65
386.64	226.62
387.02	226.58
387.40	226.52
387.78	226.51
388.15	226.51
388.53	226.47
388.91	226.44
389.29	226.40
389.66	226.39
390.04	226.36
390.42	226.36
390.79	226.36
391.17	226.36
391.55	226.22
391.92	226.19
392.30	226.18
392.68	226.21
393.05	226.21
393.43	226.20
393.81	226.20
394.18	226.18
394.56	226.21
394.94	226.23
395.31	226.25
395.69	226.27
396.06	226.32
396.44	226.36
396.82	226.41
397.19	226.51
397.57	226.51
397.95	226.56
398.32	226.58
398.70	226.60
399.07	226.67
399.45	226.76
399.82	226.82
400.20	226.89
400.58	226.91
400.95	226.96
401.33	227.10
401.70	227.24
402.08	227.32
402.45	227.41
402.83	227.54
403.20	227.64
403.58	227.75
403.95	227.83
404.33	227.98
404.71	228.09
405.08	228.25
405.46	228.42
405.83	228.57
406.21	228.71
406.58	228.90
406.96	229.08
407.33	229.25
407.70	229.44
408.08	229.72
408.45	229.94
408.83	230.15
409.20	230.35
409.58	230.51
409.95	230.82
410.33	231.08
410.70	231.33
411.08	231.62
411.45	231.92
411.82	232.21
412.20	232.53
412.57	232.96
412.95	233.25
413.32	233.62
413.69	234.02
414.07	234.46
414.44	234.92
414.82	235.39
415.19	235.92
415.56	236.48
415.94	237.00
416.31	237.65
416.68	238.31
417.06	238.99
417.43	239.69
417.81	240.43
418.18	241.21
418.55	242.05
418.93	242.96
419.30	243.87
419.67	244.87
420.04	245.80
420.42	246.81
420.79	247.97
421.16	249.13
421.54	250.35
421.91	251.55
422.28	252.80
422.66	254.11
423.03	255.43
423.40	256.77
423.77	258.21
424.15	259.64
424.52	261.13
424.89	262.73
425.26	264.33
425.64	265.79
426.01	267.37
426.38	269.04
426.75	270.69
427.13	272.40
427.50	274.18
427.87	276.07
428.24	277.94
428.61	279.70
428.99	281.69
429.36	283.78
429.73	285.84
430.10	287.87
430.47	289.95
430.85	292.11
431.22	294.37
431.59	296.68
431.96	298.93
432.33	301.41
432.70	303.79
433.08	306.59
433.45	309.17
433.82	311.80
434.19	314.65
434.56	317.45
434.93	320.11
435.30	322.74
435.68	325.64
436.05	328.47
436.42	331.25
436.79	333.75
437.16	336.44
437.53	339.28
437.90	342.08
438.27	344.81
438.64	347.60
439.01	350.16
439.38	352.41
439.75	354.55
440.13	357.03
440.50	359.37
440.87	361.20
441.24	363.17
441.61	365.29
441.98	366.81
442.35	368.59
442.72	370.40
443.09	372.18
443.46	373.15
443.83	373.71
444.20	374.21
444.57	375.02
444.94	375.26
445.31	375.61
445.68	375.93
446.05	376.05
446.42	375.67
446.79	375.24
447.16	374.82
447.53	374.53
447.90	373.37
448.27	372.17
448.64	370.59
449.01	369.38
449.37	367.47
449.74	365.56
450.11	363.29
450.48	360.88
450.85	358.37
451.22	356.21
451.59	354.20
451.96	352.24
452.33	349.63
452.70	347.30
453.07	344.45
453.43	341.56
453.80	338.76
454.17	336.07
454.54	333.51
454.91	330.78
455.28	328.11
455.65	325.62
456.02	323.19
456.38	321.07
456.75	318.45
457.12	316.19
457.49	313.96
457.86	311.81
458.23	309.93
458.59	307.88
458.96	305.83
459.33	303.97
459.70	302.21
460.07	300.73
460.43	299.04
460.80	297.42
461.17	296.03
461.54	294.56
461.91	293.18
462.27	291.77
462.64	290.53
463.01	289.18
463.38	287.88
463.74	286.53
464.11	285.35
464.48	284.34
464.85	283.24
465.21	282.44
465.58	281.56
465.95	280.47
466.32	279.57
466.68	278.69
467.05	277.81
467.42	276.84
467.78	275.94
468.15	275.08
468.52	274.45
468.88	273.57
469.25	272.78
469.62	272.16
469.98	271.48
470.35	270.89
470.72	270.29
471.08	269.65
471.45	269.12
471.82	268.60
472.18	268.03
472.55	267.61
472.92	266.99
473.28	266.52
473.65	266.07
474.02	265.62
474.38	265.24
474.75	264.90
475.11	264.59
475.48	264.31
475.85	264.08
476.21	263.82
476.58	263.67
476.94	263.52
477.31	263.34
477.67	263.17
478.04	263.06
478.41	262.98
478.77	263.02
479.14	262.94
479.50	262.93
479.87	262.99
480.23	263.04
480.60	263.14
480.96	263.24
481.33	263.46
481.69	263.67
482.06	263.85
482.42	264.07
482.79	264.28
483.15	264.57
483.52	264.94
483.88	265.30
484.25	265.67
484.61	266.10
484.98	266.54
485.34	267.14
485.71	267.65
486.07	268.28
486.44	268.84
486.80	269.56
487.17	270.29
487.53	271.09
487.90	271.88
488.26	272.83
488.62	273.83
488.99	274.78
489.35	275.80
489.72	276.94
490.08	278.13
490.44	279.39
490.81	280.72
491.17	282.08
491.54	283.59
491.90	285.17
492.26	286.79
492.63	288.53
492.99	290.28
493.36	292.23
493.72	294.27
494.08	296.41
494.45	298.65
494.81	301.01
495.17	303.45
495.54	306.05
495.90	308.74
496.26	311.56
496.63	314.52
496.99	317.67
497.35	320.95
497.72	324.34
498.08	327.89
498.44	331.58
498.80	335.50
499.17	339.54
499.53	343.74
499.89	348.14
500.26	352.67
500.62	357.37
500.98	362.36
501.34	367.41
501.71	372.73
502.07	378.13
502.43	383.79
502.79	389.60
503.16	395.76
503.52	402.04
503.88	408.45
504.24	415.14
504.60	422.03
504.97	429.14
505.33	436.50
505.69	444.19
506.05	451.99
506.41	459.88
506.78	468.03
507.14	476.40
507.50	485.17
507.86	494.18
508.22	503.36
508.59	512.57
508.95	522.19
509.31	531.99
509.67	542.11
510.03	552.42
510.39	562.98
510.75	573.75
511.12	584.68
511.48	595.97
511.84	607.37
512.20	618.89
512.56	630.82
512.92	643.01
513.28	655.36
513.64	667.84
514.00	680.51
514.37	693.46
514.73	706.57
515.09	719.52
515.45	732.75
515.81	746.40
516.17	760.43
516.53	774.54
516.89	788.78
517.25	802.96
517.61	817.37
517.97	831.84
518.33	846.29
518.69	861.02
519.05	876.08
519.41	891.22
519.77	906.78
520.13	922.34
520.49	937.67
520.85	953.21
521.21	968.88
521.57	985.13
521.93	1000.91
522.29	1017.28
522.65	1033.62
523.01	1049.93
523.37	1065.86
523.73	1081.92
524.09	1097.91
524.45	1114.17
524.81	1130.85
525.17	1147.64
525.53	1164.45
525.89	1181.26
526.25	1198.10
526.61	1214.39
526.97	1231.17
527.33	1247.57
527.68	1264.00
528.04	1280.55
528.40	1297.00
528.76	1314.12
529.12	1330.74
529.48	1347.58
529.84	1363.49
530.20	1380.11
530.56	1397.06
530.91	1414.45
531.27	1431.13
531.63	1447.61
531.99	1464.18
532.35	1480.07
532.71	1495.90
533.07	1512.14
533.42	1528.08
533.78	1544.08
534.14	1560.34
534.50	1575.54
534.86	1591.47
535.21	1606.71
535.57	1622.56
535.93	1638.03
536.29	1652.77
536.65	1667.69
537.00	1682.42
537.36	1697.66
537.72	1711.98
538.08	1726.33
538.44	1740.02
538.79	1753.97
539.15	1767.67
539.51	1781.33
539.87	1795.58
540.22	1809.36
540.58	1823.18
540.94	1836.29
541.29	1849.05
541.65	1861.69
542.01	1874.90
542.37	1887.05
542.72	1899.45
543.08	1911.12
543.44	1923.30
543.79	1934.36
544.15	1945.34
544.51	1956.76
544.87	1967.74
545.22	1978.60
545.58	1988.79
545.94	1998.51
546.29	2008.25
546.65	2018.11
547.01	2027.27
547.36	2035.99
547.72	2044.30
548.07	2052.04
548.43	2060.28
548.79	2068.40
549.14	2075.82
549.50	2083.21
549.86	2090.93
550.21	2098.12
550.57	2105.12
550.92	2111.87
551.28	2118.86
551.64	2125.87
551.99	2132.44
552.35	2138.67
552.70	2144.75
553.06	2150.71
553.41	2157.08
553.77	2163.18
554.13	2169.18
554.48	2175.36
554.84	2180.88
555.19	2186.23
555.55	2191.43
555.90	2195.92
556.26	2200.71
556.61	2205.53
556.97	2209.73
557.32	2213.72
557.68	2218.06
558.03	2222.56
558.39	2226.26
558.74	2230.99
559.10	2234.92
559.45	2238.62
559.81	2242.78
560.16	2246.65
560.52	2249.90
560.87	2253.46
561.23	2256.15
561.58	2259.26
561.94	2261.77
562.29	2264.17
562.64	2266.92
563.00	2269.45
563.35	2272.96
563.71	2276.11
564.06	2279.25
564.42	2282.22
564.77	2284.84
565.12	2286.90
565.48	2288.79
565.83	2290.65
566.19	2291.98
566.54	2292.94
566.89	2293.97
567.25	2294.71
567.60	2296.03
567.96	2297.72
568.31	2298.57
568.66	2299.57
569.02	2300.08
569.37	2300.39
569.72	2301.33
570.08	2301.47
570.43	2301.54
570.78	2300.97
571.14	2299.47
571.49	2298.20
571.84	2297.95
572.20	2296.88
572.55	2296.00
572.90	2294.42
573.26	2293.05
573.61	2291.42
573.96	2289.53
574.31	2286.68
574.67	2283.46
575.02	2279.89
575.37	2276.62
575.72	2272.80
576.08	2269.66
576.43	2266.34
576.78	2262.73
577.13	2259.54
577.49	2256.36
577.84	2252.93
578.19	2249.27
578.54	2245.64
578.90	2241.40
579.25	2235.81
579.60	2230.81
579.95	2225.90
580.30	2220.89
580.66	2215.70
581.01	2210.74
581.36	2205.88
581.71	2201.74
582.06	2197.39
582.42	2192.96
582.77	2187.69
583.12	2183.08
583.47	2178.25
583.82	2173.25
584.17	2167.85
584.53	2162.29
584.88	2156.75
585.23	2151.01
585.58	2145.45
585.93	2140.12
586.28	2135.42
586.63	2130.31
586.98	2125.29
587.34	2120.39
587.69	2115.56
588.04	2110.24
588.39	2104.67
588.74	2098.29
589.09	2092.14
589.44	2085.41
589.79	2079.50
590.14	2073.92
590.49	2067.46
590.84	2061.16
591.19	2055.05
591.54	2048.69
591.89	2041.30
592.25	2034.50
592.60	2027.33
592.95	2019.71
593.30	2012.20
593.65	2004.67
594.00	1997.64
594.35	1990.31
594.70	1982.39
595.05	1975.17
595.40	1968.06
595.75	1960.48
596.10	1954.24
596.45	1947.51
596.80	1941.42
597.15	1934.65
597.50	1927.51
597.85	1920.96
598.19	1914.28
598.54	1907.16
598.89	1900.54
599.24	1894.73
599.59	1888.01
599.94	1881.79
600.29	1875.53
600.64	1869.10
600.99	1861.63
601.34	1854.86
601.69	1848.08
602.04	1841.14
602.39	1833.73
602.74	1826.77
603.08	1820.11
603.43	1813.32
603.78	1806.11
604.13	1798.86
604.48	1791.55
604.83	1784.80
605.18	1777.86
605.53	1769.80
605.87	1762.00
606.22	1754.80
606.57	1746.91
606.92	1739.56
607.27	1732.34
607.62	1725.42
607.96	1718.10
608.31	1711.47
608.66	1703.82
609.01	1696.17
609.36	1688.59
609.70	1680.62
610.05	1672.64
610.40	1664.88
610.75	1656.50
611.10	1648.75
611.44	1640.31
611.79	1632.38
612.14	1623.60
612.49	1614.50
612.83	1606.20
613.18	1597.98
613.53	1589.83
613.88	1581.20
614.22	1573.03
614.57	1564.51
614.92	1556.49
615.27	1548.88
615.61	1540.53
615.96	1532.45
616.31	1524.94
616.65	1517.60
617.00	1510.08
617.35	1502.46
617.70	1494.12
618.04	1485.76
618.39	1477.51
618.74	1469.81
619.08	1461.42
619.43	1453.84
619.78	1446.87
620.12	1439.56
620.47	1431.99
620.82	1423.90
621.16	1416.46
621.51	1408.74
621.85	1401.05
622.20	1392.43
622.55	1384.08
622.89	1376.21
623.24	1368.49
623.59	1360.97
623.93	1353.40
624.28	1346.13
624.62	1338.47
624.97	1331.31
625.32	1324.55
625.66	1317.53
626.01	1310.50
626.35	1303.07
626.70	1295.31
627.04	1287.51
627.39	1279.87
627.73	1272.46
628.08	1265.50
628.43	1258.14
628.77	1250.83
629.12	1243.26
629.46	1236.23
629.81	1228.92
630.15	1221.64
630.50	1214.29
630.84	1206.16
631.19	1198.29
631.53	1190.75
631.88	1183.34
632.22	1175.61
632.57	1168.19
632.91	1160.67
633.26	1153.19
633.60	1145.84
633.95	1138.78
634.29	1131.75
634.64	1125.06
634.98	1117.70
635.32	1110.55
635.67	1103.98
636.01	1097.33
636.36	1090.50
636.70	1083.86
637.05	1077.17
637.39	1070.85
637.73	1064.35
638.08	1058.46
638.42	1052.43
638.77	1046.03
639.11	1039.32
639.45	1033.08
639.80	1026.49
640.14	1020.03
640.49	1013.48
640.83	1007.16
641.17	1000.83
641.52	994.53
641.86	988.08
642.20	982.24
642.55	975.94
642.89	969.46
643.23	962.88
643.58	957.17
643.92	951.01
644.26	944.99
644.61	938.89
644.95	932.85
645.29	926.21
645.64	919.55
645.98	913.17
646.32	907.37
646.66	901.28
647.01	895.42
647.35	889.75
647.69	883.91
648.04	878.37
648.38	872.66
648.72	866.73
649.06	860.63
649.41	854.73
649.75	848.74
650.09	842.88
650.43	837.07
650.78	830.93
651.12	825.04
651.46	819.27
651.80	813.48
652.14	808.11
652.49	802.74
652.83	797.56
653.17	791.85
653.51	786.11
653.85	780.67
654.20	775.12
654.54	769.09
654.88	763.37
655.22	757.50
655.56	751.84
655.90	746.34
656.25	741.05
656.59	735.63
656.93	730.54
657.27	725.30
657.61	719.91
657.95	714.82
658.29	709.68
658.64	704.48
658.98	699.26
659.32	693.81
659.66	688.56
660.00	683.15
660.34	678.26
660.68	673.35
661.02	668.36
661.36	663.61
661.70	659.10
662.05	654.80
662.39	650.42
662.73	645.91
663.07	641.48
663.41	637.09
663.75	632.60
664.09	628.04
664.43	623.64
664.77	619.52
665.11	615.14
665.45	611.02
665.79	606.86
666.13	602.65
666.47	598.56
666.81	594.38
667.15	590.32
667.49	586.43
667.83	582.57
668.17	578.64
668.51	574.56
668.85	570.58
669.19	566.69
669.53	562.90
669.87	559.00
670.21	555.38
670.55	551.72
670.89	548.34
671.23	544.92
671.57	541.41
671.91	537.82
672.25	534.35
672.58	530.85
672.92	527.46
673.26	524.26
673.60	521.09
673.94	518.00
674.28	515.09
674.62	512.08
674.96	508.97
675.30	506.03
675.64	503.10
675.97	500.37
676.31	497.50
676.65	494.57
676.99	491.87
677.33	488.95
677.67	486.12
678.01	483.07
678.34	480.08
678.68	477.25
679.02	474.42
679.36	471.67
679.70	468.92
680.04	466.16
680.37	463.31
680.71	460.57
681.05	457.99
681.39	455.24
681.73	452.63
682.06	450.15
682.40	447.53
682.74	445.00
683.08	442.38
683.42	439.79
683.75	437.29
684.09	434.70
684.43	432.25
684.77	429.83
685.10	427.48
685.44	425.18
685.78	422.91
686.12	420.70
686.45	418.44
686.79	416.18
687.13	414.03
687.46	411.88
687.80	409.73
688.14	407.50
688.48	405.44
688.81	403.21
689.15	401.04
689.49	398.95
689.82	396.90
690.16	394.86
690.50	392.91
690.83	390.91
691.17	388.98
691.51	387.09
691.84	385.18
692.18	383.21
692.52	381.25
692.85	379.28
693.19	377.38
693.52	375.48
693.86	373.65
694.20	371.85
694.53	370.04
694.87	368.18
695.21	366.37
695.54	364.59
695.88	362.84
696.21	361.10
696.55	359.43
696.88	357.69
697.22	356.02
697.56	354.42
697.89	352.80
698.23	351.18
698.56	349.50
698.90	347.90
699.23	346.27
699.57	344.68
699.90	343.15
700.24	341.63
700.58	340.13
700.91	338.64
701.25	337.15
701.58	335.74
701.92	334.35
702.25	332.98
702.59	331.61
702.92	330.25
703.26	328.97
703.59	327.66
703.93	326.47
704.26	325.21
704.60	323.86
704.93	322.55
705.26	321.30
705.60	320.15
705.93	318.95
706.27	317.85
706.60	316.81
706.94	315.73
707.27	314.56
707.61	313.53
707.94	312.46
708.27	311.39
708.61	310.35
708.94	309.33
709.28	308.33
709.61	307.35
709.94	306.39
710.28	305.33
710.61	304.37
710.95	303.26
711.28	302.37
711.61	301.44
711.95	300.56
712.28	299.59
712.61	298.60
712.95	297.74
713.28	296.91
713.61	296.03
713.95	295.17
714.28	294.33
714.61	293.42
714.95	292.58
715.28	291.74
715.61	290.86
715.95	290.02
716.28	289.21
716.61	288.39
716.95	287.61
717.28	286.89
717.61	286.13
717.94	285.45
718.28	284.60
718.61	283.90
718.94	283.20
719.27	282.57
719.61	281.95
719.94	281.29
720.27	280.60
720.60	279.94
720.94	279.28
721.27	278.70
721.60	278.13
721.93	277.57
722.27	277.02
722.60	276.48
722.93	275.95
723.26	275.40
723.59	274.83
723.93	274.30
724.26	273.78
724.59	273.24
724.92	272.74
725.25	272.26
725.59	271.77
725.92	271.25
726.25	270.72
726.58	270.23
726.91	269.73
727.24	269.27
727.57	268.82
727.91	268.27
728.24	267.81
728.57	267.35
728.90	266.88
729.23	266.38
729.56	265.95
729.89	265.47
730.22	264.99
730.55	264.56
730.89	264.12
731.22	263.65
731.55	263.21
731.88	262.73
732.21	262.31
732.54	261.82
732.87	261.41
733.20	261.06
733.53	260.64
733.86	260.27
734.19	259.87
734.52	259.45
734.85	259.17
735.18	258.74
735.51	258.35
735.84	257.99
736.17	257.65
736.50	257.20
736.83	256.97
737.16	256.65
737.49	256.27
737.82	255.91
738.15	255.58
738.48	255.22
738.81	254.91
739.14	254.61
739.47	254.32
739.80	254.00
740.13	253.65
740.46	253.31
740.79	252.94
741.12	252.63
741.45	252.34
741.78	251.99
742.11	251.72
742.44	251.37
742.77	251.07
743.10	250.75
743.43	250.48
743.75	250.07
744.08	249.90
744.41	249.62
744.74	249.31
745.07	248.98
745.40	248.75
745.73	248.48
746.06	248.17
746.39	247.89
746.71	247.63
747.04	247.36
747.37	247.12
747.70	246.90
748.03	246.62
748.36	246.34
748.68	246.11
749.01	245.84
749.34	245.61
749.67	245.37
750.00	245.17
750.33	245.03
750.65	244.83
750.98	244.51
751.31	244.31
751.64	244.12
751.97	243.99
752.29	243.78
752.62	243.53
752.95	243.33
753.28	243.09
753.60	242.85
753.93	242.69
754.26	242.48
754.59	242.30
754.91	242.10
755.24	241.95
755.57	241.75
755.90	241.58
756.22	241.41
756.55	241.24
756.88	241.03
757.20	240.80
757.53	240.59
757.86	240.42
758.19	240.28
758.51	240.10
758.84	239.89
759.17	239.69
759.49	239.56
759.82	239.44
760.15	239.33
760.47	239.22
760.80	239.05
761.13	238.92
761.45	238.76
761.78	238.61
762.11	238.45
762.43	238.33
762.76	238.20
763.08	238.08
763.41	237.95
763.74	237.85
764.06	237.72
764.39	237.60
764.71	237.48
765.04	237.32
765.37	237.23
765.69	237.13
766.02	237.02
766.34	236.88
766.67	236.75
767.00	236.66
767.32	236.59
767.65	236.52
767.97	236.43
768.30	236.32
768.62	236.28
768.95	236.19
769.27	236.06
769.60	235.98
769.92	235.89
770.25	235.77
770.57	235.65
770.90	235.55
771.22	235.47
771.55	235.38
771.87	235.30
772.20	235.22
772.52	235.21
772.85	235.22
773.17	235.16
773.50	235.07
773.82	234.98
774.15	234.86
774.47	234.69
774.80	234.60
775.12	234.46
775.45	234.35
775.77	234.25
776.09	234.18
776.42	234.06
776.74	233.96
777.07	233.88
777.39	233.78
777.72	233.71
778.04	233.64
778.36	233.59
778.69	233.52
779.01	233.45
779.33	233.28
779.66	233.11
779.98	233.01
780.31	232.91
780.63	232.86
780.95	232.80
781.28	232.75
781.60	232.65
781.92	232.61
782.25	232.53
782.57	232.45
782.89	232.38
783.22	232.33
783.54	232.27
783.86	232.20
784.19	232.19
784.51	232.12
784.83	232.01
785.16	231.91
785.48	231.83
785.80	231.71
786.12	231.69
786.45	231.61
786.77	231.58
787.09	231.53
