SpectraSuite Data File
++++++++++++++++++++++++++++++++++++
Date: Fri Feb 01 16:43:40 EST 2013
User: group
Dark Spectrum Present: No
Reference Spectrum Present: No
Number of Sampled Component Spectra: 1
Spectrometers: USB2E7196
Integration Time (usec): 35000 (USB2E7196)
Spectra Averaged: 100 (USB2E7196)
Boxcar Smoothing: 10 (USB2E7196)
Correct for Electrical Dark: No (USB2E7196)
Strobe/Lamp Enabled: No (USB2E7196)
Correct for Detector Non-linearity: No (USB2E7196)
Correct for Stray Light: No (USB2E7196)
Number of Pixels in Processed Spectrum: 2048
>>>>>Begin Processed Spectral Data<<<<<
339.09	0.00
339.48	213.92
339.86	214.72
340.24	216.60
340.63	218.04
341.01	220.37
341.39	220.46
341.78	221.87
342.16	222.96
342.54	223.14
342.93	211.89
343.31	222.57
343.69	223.09
344.07	223.54
344.46	223.94
344.84	224.27
345.22	224.49
345.60	224.72
345.99	224.88
346.37	224.98
346.75	225.09
347.13	225.14
347.52	225.18
347.90	225.22
348.28	225.22
348.66	225.24
349.05	225.21
349.43	225.23
349.81	225.25
350.19	225.27
350.57	225.34
350.96	225.41
351.34	225.50
351.72	225.59
352.10	225.70
352.48	225.76
352.87	225.82
353.25	225.88
353.63	225.94
354.01	226.00
354.39	226.08
354.77	226.15
355.15	226.23
355.54	226.29
355.92	226.34
356.30	226.40
356.68	226.55
357.06	226.61
357.44	226.68
357.82	226.77
358.20	226.84
358.58	226.91
358.97	226.99
359.35	227.03
359.73	227.10
360.11	227.15
360.49	227.23
360.87	227.29
361.25	227.37
361.63	227.45
362.01	227.49
362.39	227.55
362.77	227.61
363.15	227.62
363.53	227.67
363.91	227.71
364.29	227.76
364.67	227.70
365.05	227.72
365.43	227.74
365.81	227.78
366.19	227.87
366.57	227.94
366.95	227.92
367.33	227.95
367.71	227.91
368.09	227.91
368.47	227.91
368.85	227.91
369.23	227.94
369.61	227.90
369.99	227.93
370.37	227.92
370.75	227.93
371.13	227.90
371.51	227.84
371.89	227.81
372.27	227.78
372.65	227.78
373.03	227.78
373.41	227.75
373.78	227.66
374.16	227.53
374.54	227.42
374.92	227.39
375.30	227.34
375.68	227.28
376.06	227.27
376.44	227.18
376.82	227.11
377.19	227.04
377.57	226.96
377.95	226.88
378.33	226.81
378.71	226.71
379.09	226.68
379.47	226.65
379.84	226.56
380.22	226.51
380.60	226.41
380.98	226.31
381.36	226.22
381.73	226.16
382.11	226.13
382.49	226.09
382.87	226.01
383.25	225.99
383.62	226.06
384.00	225.96
384.38	225.88
384.76	225.85
385.13	225.83
385.51	225.80
385.89	225.75
386.27	225.71
386.64	225.63
387.02	225.55
387.40	225.52
387.78	225.47
388.15	225.45
388.53	225.40
388.91	225.37
389.29	225.35
389.66	225.32
390.04	225.30
390.42	225.30
390.79	225.31
391.17	225.22
391.55	225.08
391.92	225.06
392.30	225.10
392.68	225.06
393.05	225.07
393.43	225.07
393.81	225.08
394.18	225.05
394.56	225.09
394.94	225.11
395.31	225.07
395.69	225.13
396.06	225.14
396.44	225.20
396.82	225.22
397.19	225.27
397.57	225.29
397.95	225.31
398.32	225.30
398.70	225.31
399.07	225.38
399.45	225.43
399.82	225.48
400.20	225.53
400.58	225.61
400.95	225.61
401.33	225.68
401.70	225.78
402.08	225.87
402.45	225.97
402.83	226.09
403.20	226.21
403.58	226.28
403.95	226.40
404.33	226.48
404.71	226.60
405.08	226.76
405.46	226.86
405.83	227.00
406.21	227.14
406.58	227.30
406.96	227.44
407.33	227.64
407.70	227.81
408.08	228.07
408.45	228.24
408.83	228.47
409.20	228.67
409.58	228.82
409.95	229.08
410.33	229.30
410.70	229.54
411.08	229.83
411.45	230.15
411.82	230.42
412.20	230.75
412.57	231.17
412.95	231.49
413.32	231.91
413.69	232.32
414.07	232.73
414.44	233.18
414.82	233.67
415.19	234.18
415.56	234.72
415.94	235.24
416.31	235.89
416.68	236.54
417.06	237.21
417.43	237.96
417.81	238.72
418.18	239.50
418.55	240.34
418.93	241.16
419.30	242.07
419.67	243.02
420.04	244.00
420.42	244.98
420.79	246.17
421.16	247.35
421.54	248.54
421.91	249.77
422.28	251.06
422.66	252.40
423.03	253.72
423.40	255.07
423.77	256.50
424.15	257.95
424.52	259.42
424.89	261.05
425.26	262.54
425.64	263.98
426.01	265.58
426.38	267.24
426.75	268.94
427.13	270.62
427.50	272.41
427.87	274.28
428.24	276.16
428.61	277.88
428.99	279.78
429.36	281.86
429.73	283.92
430.10	285.92
430.47	287.97
430.85	290.12
431.22	292.34
431.59	294.69
431.96	296.88
432.33	299.38
432.70	301.73
433.08	304.52
433.45	307.13
433.82	309.70
434.19	312.52
434.56	315.30
434.93	317.94
435.30	320.54
435.68	323.38
436.05	326.19
436.42	328.95
436.79	331.42
437.16	334.06
437.53	336.84
437.90	339.61
438.27	342.30
438.64	345.08
439.01	347.63
439.38	349.83
439.75	351.99
440.13	354.40
440.50	356.73
440.87	358.59
441.24	360.56
441.61	362.71
441.98	364.21
442.35	366.02
442.72	367.83
443.09	369.66
443.46	370.60
443.83	371.18
444.20	371.66
444.57	372.54
444.94	372.87
445.31	373.24
445.68	373.59
446.05	373.68
446.42	373.29
446.79	372.88
447.16	372.43
447.53	372.15
447.90	371.01
448.27	369.88
448.64	368.30
449.01	367.18
449.37	365.25
449.74	363.37
450.11	361.14
450.48	358.75
450.85	356.22
451.22	354.17
451.59	352.19
451.96	350.34
452.33	347.76
452.70	345.43
453.07	342.60
453.43	339.75
453.80	337.03
454.17	334.37
454.54	331.88
454.91	329.21
455.28	326.52
455.65	324.09
456.02	321.62
456.38	319.51
456.75	316.83
457.12	314.58
457.49	312.40
457.86	310.24
458.23	308.36
458.59	306.34
458.96	304.28
459.33	302.39
459.70	300.49
460.07	298.98
460.43	297.25
460.80	295.65
461.17	294.20
461.54	292.68
461.91	291.28
462.27	289.83
462.64	288.57
463.01	287.26
463.38	285.97
463.74	284.63
464.11	283.47
464.48	282.46
464.85	281.41
465.21	280.59
465.58	279.68
465.95	278.62
466.32	277.73
466.68	276.84
467.05	276.01
467.42	275.15
467.78	274.25
468.15	273.40
468.52	272.77
468.88	272.01
469.25	271.27
469.62	270.68
469.98	270.03
470.35	269.41
470.72	268.82
471.08	268.16
471.45	267.64
471.82	267.09
472.18	266.51
472.55	266.06
472.92	265.52
473.28	265.07
473.65	264.65
474.02	264.22
474.38	263.86
474.75	263.55
475.11	263.19
475.48	262.94
475.85	262.75
476.21	262.50
476.58	262.28
476.94	262.18
477.31	261.97
477.67	261.83
478.04	261.75
478.41	261.70
478.77	261.77
479.14	261.72
479.50	261.76
479.87	261.87
480.23	261.98
480.60	262.07
480.96	262.19
481.33	262.40
481.69	262.58
482.06	262.80
482.42	263.02
482.79	263.30
483.15	263.64
483.52	264.01
483.88	264.38
484.25	264.77
484.61	265.19
484.98	265.72
485.34	266.32
485.71	266.92
486.07	267.51
486.44	268.05
486.80	268.76
487.17	269.48
487.53	270.30
487.90	271.13
488.26	272.02
488.62	272.98
488.99	273.92
489.35	274.98
489.72	276.11
490.08	277.31
490.44	278.57
490.81	279.89
491.17	281.23
491.54	282.68
491.90	284.17
492.26	285.80
492.63	287.53
492.99	289.26
493.36	291.15
493.72	293.22
494.08	295.37
494.45	297.62
494.81	299.98
495.17	302.36
495.54	304.93
495.90	307.63
496.26	310.46
496.63	313.47
496.99	316.57
497.35	319.84
497.72	323.23
498.08	326.69
498.44	330.34
498.80	334.26
499.17	338.33
499.53	342.58
499.89	346.89
500.26	351.37
500.62	356.06
500.98	361.00
501.34	366.02
501.71	371.30
502.07	376.72
502.43	382.30
502.79	388.16
503.16	394.22
503.52	400.51
503.88	406.92
504.24	413.54
504.60	420.39
504.97	427.51
505.33	434.80
505.69	442.60
506.05	450.33
506.41	458.22
506.78	466.34
507.14	474.73
507.50	483.48
507.86	492.50
508.22	501.67
508.59	510.85
508.95	520.41
509.31	530.22
509.67	540.33
510.03	550.63
510.39	561.20
510.75	571.98
511.12	582.86
511.48	594.12
511.84	605.57
512.20	617.04
512.56	628.87
512.92	640.98
513.28	653.22
513.64	665.68
514.00	678.38
514.37	691.27
514.73	704.26
515.09	717.25
515.45	730.45
515.81	743.95
516.17	757.82
516.53	771.90
516.89	786.03
517.25	800.11
517.61	814.40
517.97	828.73
518.33	843.03
518.69	857.74
519.05	872.63
519.41	887.69
519.77	903.17
520.13	918.54
520.49	933.93
520.85	949.20
521.21	964.79
521.57	980.87
521.93	996.52
522.29	1012.74
522.65	1028.89
523.01	1044.95
523.37	1060.92
523.73	1076.94
524.09	1092.90
524.45	1109.04
524.81	1125.52
525.17	1142.16
525.53	1158.86
525.89	1175.61
526.25	1192.32
526.61	1208.53
526.97	1225.09
527.33	1241.48
527.68	1258.01
528.04	1274.24
528.40	1290.71
528.76	1307.62
529.12	1324.06
529.48	1340.83
529.84	1356.73
530.20	1373.21
530.56	1389.96
530.91	1407.14
531.27	1423.76
531.63	1440.06
531.99	1456.50
532.35	1472.32
532.71	1488.13
533.07	1504.23
533.42	1519.98
533.78	1535.78
534.14	1551.89
534.50	1567.02
534.86	1582.66
535.21	1597.61
535.57	1613.37
535.93	1628.67
536.29	1643.19
536.65	1658.05
537.00	1672.56
537.36	1687.69
537.72	1701.95
538.08	1716.43
538.44	1730.06
538.79	1743.92
539.15	1757.44
539.51	1770.90
539.87	1785.18
540.22	1798.65
540.58	1812.19
540.94	1825.25
541.29	1837.86
541.65	1850.36
542.01	1863.41
542.37	1875.57
542.72	1887.76
543.08	1899.46
543.44	1911.81
543.79	1922.98
544.15	1933.78
544.51	1945.21
544.87	1956.05
545.22	1966.76
545.58	1976.77
545.94	1986.46
546.29	1996.07
546.65	2005.84
547.01	2015.08
547.36	2023.55
547.72	2032.07
548.07	2039.88
548.43	2047.95
548.79	2055.84
549.14	2063.38
549.50	2070.76
549.86	2078.29
550.21	2085.55
550.57	2092.60
550.92	2099.04
551.28	2106.09
551.64	2113.01
551.99	2119.53
552.35	2125.60
552.70	2131.64
553.06	2137.61
553.41	2144.00
553.77	2149.91
554.13	2155.79
554.48	2161.85
554.84	2167.50
555.19	2172.49
555.55	2177.63
555.90	2182.17
556.26	2187.26
556.61	2191.80
556.97	2196.20
557.32	2200.26
557.68	2204.51
558.03	2208.83
558.39	2212.52
558.74	2217.12
559.10	2221.07
559.45	2224.58
559.81	2228.73
560.16	2232.69
560.52	2235.85
560.87	2239.07
561.23	2241.79
561.58	2244.81
561.94	2247.34
562.29	2249.53
562.64	2252.51
563.00	2255.10
563.35	2258.69
563.71	2261.78
564.06	2265.05
564.42	2267.84
564.77	2270.68
565.12	2273.10
565.48	2275.00
565.83	2276.93
566.19	2278.37
566.54	2279.21
566.89	2280.49
567.25	2281.26
567.60	2282.50
567.96	2284.38
568.31	2285.22
568.66	2286.56
569.02	2287.16
569.37	2287.54
569.72	2288.61
570.08	2288.86
570.43	2288.88
570.78	2288.33
571.14	2286.90
571.49	2285.68
571.84	2285.19
572.20	2283.98
572.55	2282.78
572.90	2281.23
573.26	2279.88
573.61	2278.15
573.96	2276.73
574.31	2273.97
574.67	2271.10
575.02	2267.57
575.37	2264.16
575.72	2260.59
576.08	2257.06
576.43	2253.83
576.78	2250.33
577.13	2246.95
577.49	2243.70
577.84	2240.39
578.19	2236.70
578.54	2233.23
578.90	2229.15
579.25	2223.87
579.60	2219.19
579.95	2214.46
580.30	2209.54
580.66	2204.52
581.01	2199.65
581.36	2194.76
581.71	2190.71
582.06	2186.50
582.42	2182.18
582.77	2176.97
583.12	2172.58
583.47	2168.17
583.82	2163.44
584.17	2158.36
584.53	2153.09
584.88	2147.57
585.23	2141.96
585.58	2136.56
585.93	2131.10
586.28	2126.12
586.63	2121.12
586.98	2116.03
587.34	2111.18
587.69	2106.37
588.04	2101.37
588.39	2095.72
588.74	2089.28
589.09	2083.05
589.44	2076.35
589.79	2070.31
590.14	2064.79
590.49	2058.25
590.84	2051.83
591.19	2045.62
591.54	2039.29
591.89	2032.14
592.25	2025.64
592.60	2018.62
592.95	2011.24
593.30	2003.94
593.65	1996.53
594.00	1989.55
594.35	1982.34
594.70	1974.36
595.05	1967.48
595.40	1960.11
595.75	1952.77
596.10	1946.78
596.45	1940.38
596.80	1934.24
597.15	1927.94
597.50	1921.13
597.85	1914.78
598.19	1908.30
598.54	1901.72
598.89	1895.06
599.24	1889.21
599.59	1882.73
599.94	1876.34
600.29	1870.10
600.64	1863.63
600.99	1856.43
601.34	1849.76
601.69	1842.88
602.04	1836.20
602.39	1828.88
602.74	1822.12
603.08	1815.49
603.43	1808.72
603.78	1801.27
604.13	1794.11
604.48	1786.77
604.83	1779.79
605.18	1773.07
605.53	1765.21
605.87	1757.04
606.22	1749.77
606.57	1741.87
606.92	1734.22
607.27	1727.21
607.62	1720.48
607.96	1713.42
608.31	1706.97
608.66	1699.56
609.01	1692.10
609.36	1684.72
609.70	1676.68
610.05	1668.71
610.40	1661.04
610.75	1652.87
611.10	1645.41
611.44	1637.01
611.79	1629.00
612.14	1620.43
612.49	1611.09
612.83	1602.62
613.18	1594.57
613.53	1586.56
613.88	1578.06
614.22	1569.91
614.57	1561.27
614.92	1553.16
615.27	1545.60
615.61	1537.36
615.96	1529.22
616.31	1521.47
616.65	1514.02
617.00	1506.49
617.35	1498.80
617.70	1490.48
618.04	1481.95
618.39	1473.67
618.74	1466.12
619.08	1457.77
619.43	1450.16
619.78	1443.29
620.12	1436.22
620.47	1428.70
620.82	1420.64
621.16	1413.13
621.51	1405.60
621.85	1398.00
622.20	1389.44
622.55	1381.01
622.89	1373.01
623.24	1365.34
623.59	1358.00
623.93	1350.39
624.28	1343.18
624.62	1335.76
624.97	1328.72
625.32	1321.95
625.66	1314.97
626.01	1307.86
626.35	1300.68
626.70	1293.03
627.04	1285.41
627.39	1277.65
627.73	1270.21
628.08	1263.34
628.43	1256.18
628.77	1248.93
629.12	1241.49
629.46	1234.34
629.81	1226.80
630.15	1219.59
630.50	1212.30
630.84	1204.15
631.19	1196.28
631.53	1188.72
631.88	1181.08
632.22	1173.51
632.57	1166.23
632.91	1158.59
633.26	1151.13
633.60	1143.60
633.95	1136.41
634.29	1129.26
634.64	1122.56
634.98	1115.23
635.32	1108.05
635.67	1101.34
636.01	1094.61
636.36	1087.97
636.70	1081.37
637.05	1074.96
637.39	1068.49
637.73	1061.92
638.08	1056.03
638.42	1050.09
638.77	1043.70
639.11	1037.33
639.45	1030.91
639.80	1024.15
640.14	1017.92
640.49	1011.49
640.83	1005.25
641.17	999.19
641.52	992.86
641.86	986.42
642.20	980.55
642.55	974.14
642.89	967.71
643.23	961.06
643.58	955.15
643.92	949.00
644.26	943.03
644.61	936.99
644.95	931.00
645.29	924.45
645.64	917.75
645.98	911.38
646.32	905.35
646.66	899.32
647.01	893.58
647.35	887.73
647.69	881.72
648.04	876.12
648.38	870.29
648.72	864.46
649.06	858.47
649.41	852.56
649.75	846.71
650.09	840.85
650.43	835.19
650.78	829.08
651.12	823.22
651.46	817.44
651.80	811.81
652.14	806.48
652.49	801.14
652.83	796.02
653.17	790.41
653.51	784.75
653.85	779.32
654.20	773.77
654.54	767.85
654.88	762.17
655.22	756.35
655.56	750.58
655.90	745.07
656.25	739.83
656.59	734.51
656.93	729.45
657.27	724.29
657.61	718.88
657.95	713.80
658.29	708.67
658.64	703.37
658.98	698.04
659.32	692.52
659.66	687.26
660.00	681.97
660.34	676.96
660.68	672.08
661.02	667.03
661.36	662.30
661.70	657.79
662.05	653.53
662.39	649.25
662.73	644.86
663.07	640.50
663.41	635.99
663.75	631.54
664.09	626.88
664.43	622.51
664.77	618.42
665.11	614.16
665.45	609.99
665.79	606.00
666.13	601.86
666.47	597.79
666.81	593.70
667.15	589.55
667.49	585.72
667.83	581.83
668.17	577.91
668.51	573.90
668.85	569.81
669.19	565.93
669.53	562.09
669.87	558.18
670.21	554.45
670.55	550.81
670.89	547.39
671.23	544.02
671.57	540.46
671.91	536.94
672.25	533.40
672.58	529.93
672.92	526.46
673.26	523.24
673.60	520.07
673.94	516.98
674.28	514.04
674.62	511.10
674.96	508.04
675.30	505.15
675.64	502.19
675.97	499.41
676.31	496.50
676.65	493.55
676.99	490.90
677.33	488.04
677.67	485.20
678.01	482.17
678.34	479.23
678.68	476.39
679.02	473.53
679.36	470.73
679.70	467.96
680.04	465.21
680.37	462.38
680.71	459.56
681.05	456.85
681.39	454.11
681.73	451.41
682.06	448.88
682.40	446.32
682.74	443.78
683.08	441.21
683.42	438.62
683.75	436.09
684.09	433.48
684.43	431.00
684.77	428.49
685.10	426.11
685.44	423.77
685.78	421.42
686.12	419.15
686.45	416.89
686.79	414.63
687.13	412.42
687.46	410.25
687.80	408.11
688.14	405.91
688.48	403.89
688.81	401.71
689.15	399.57
689.49	397.40
689.82	395.31
690.16	393.20
690.50	391.23
690.83	389.33
691.17	387.33
691.51	385.37
691.84	383.63
692.18	381.73
692.52	379.77
692.85	377.82
693.19	375.94
693.52	374.12
693.86	372.31
694.20	370.48
694.53	368.67
694.87	366.82
695.21	365.04
695.54	363.21
695.88	361.41
696.21	359.70
696.55	358.01
696.88	356.31
697.22	354.68
697.56	353.08
697.89	351.42
698.23	349.87
698.56	348.27
698.90	346.68
699.23	345.05
699.57	343.53
699.90	342.03
700.24	340.47
700.58	338.95
700.91	337.47
701.25	336.06
701.58	334.76
701.92	333.42
702.25	332.06
702.59	330.69
702.92	329.40
703.26	328.09
703.59	326.79
703.93	325.62
704.26	324.39
704.60	323.08
704.93	321.82
705.26	320.56
705.60	319.42
705.93	318.23
706.27	317.17
706.60	316.08
706.94	315.01
707.27	313.88
707.61	312.80
707.94	311.74
708.27	310.62
708.61	309.51
708.94	308.50
709.28	307.50
709.61	306.49
709.94	305.53
710.28	304.48
710.61	303.52
710.95	302.44
711.28	301.53
711.61	300.62
711.95	299.69
712.28	298.73
712.61	297.74
712.95	296.82
713.28	295.90
713.61	295.00
713.95	294.11
714.28	293.29
714.61	292.41
714.95	291.55
715.28	290.75
715.61	289.84
715.95	289.00
716.28	288.14
716.61	287.33
716.95	286.50
717.28	285.80
717.61	284.99
717.94	284.26
718.28	283.45
718.61	282.67
718.94	281.99
719.27	281.34
719.61	280.69
719.94	280.01
720.27	279.27
720.60	278.62
720.94	277.98
721.27	277.39
721.60	276.82
721.93	276.23
722.27	275.67
722.60	275.12
722.93	274.55
723.26	274.00
723.59	273.43
723.93	272.89
724.26	272.29
724.59	271.70
724.92	271.19
725.25	270.69
725.59	270.18
725.92	269.64
726.25	269.10
726.58	268.62
726.91	268.13
727.24	267.69
727.57	267.18
727.91	266.64
728.24	266.15
728.57	265.65
728.90	265.18
729.23	264.68
729.56	264.29
729.89	263.83
730.22	263.34
730.55	262.89
730.89	262.44
731.22	262.00
731.55	261.62
731.88	261.17
732.21	260.73
732.54	260.31
732.87	259.89
733.20	259.51
733.53	259.10
733.86	258.72
734.19	258.33
734.52	257.96
734.85	257.66
735.18	257.26
735.51	256.90
735.84	256.57
736.17	256.22
736.50	255.81
736.83	255.54
737.16	255.23
737.49	254.91
737.82	254.56
738.15	254.25
738.48	253.90
738.81	253.53
739.14	253.23
739.47	252.92
739.80	252.64
740.13	252.31
740.46	252.00
740.79	251.66
741.12	251.34
741.45	251.02
741.78	250.67
742.11	250.40
742.44	250.07
742.77	249.74
743.10	249.42
743.43	249.12
743.75	248.75
744.08	248.63
744.41	248.33
744.74	248.05
745.07	247.76
745.40	247.55
745.73	247.35
746.06	247.08
746.39	246.81
746.71	246.51
747.04	246.26
747.37	246.02
747.70	245.81
748.03	245.54
748.36	245.31
748.68	245.07
749.01	244.83
749.34	244.62
749.67	244.42
750.00	244.22
750.33	244.07
750.65	243.88
750.98	243.47
751.31	243.25
751.64	243.05
751.97	242.86
752.29	242.61
752.62	242.38
752.95	242.18
753.28	241.97
753.60	241.78
753.93	241.60
754.26	241.36
754.59	241.13
754.91	240.94
755.24	240.73
755.57	240.55
755.90	240.36
756.22	240.16
756.55	239.94
756.88	239.74
757.20	239.47
757.53	239.25
757.86	239.13
758.19	238.99
758.51	238.85
758.84	238.67
759.17	238.49
759.49	238.28
759.82	238.14
760.15	238.03
760.47	237.87
760.80	237.71
761.13	237.59
761.45	237.44
761.78	237.29
762.11	237.18
762.43	237.03
762.76	236.87
763.08	236.73
763.41	236.62
763.74	236.48
764.06	236.33
764.39	236.18
764.71	236.00
765.04	235.82
765.37	235.68
765.69	235.52
766.02	235.38
766.34	235.31
766.67	235.14
767.00	234.99
767.32	234.93
767.65	234.85
767.97	234.73
768.30	234.60
768.62	234.49
768.95	234.34
769.27	234.23
769.60	234.16
769.92	234.07
770.25	233.89
770.57	233.78
770.90	233.70
771.22	233.63
771.55	233.54
771.87	233.44
772.20	233.34
772.52	233.34
772.85	233.39
773.17	233.26
773.50	233.17
773.82	233.08
774.15	232.94
774.47	232.78
774.80	232.68
775.12	232.62
775.45	232.53
775.77	232.49
776.09	232.41
776.42	232.32
776.74	232.25
777.07	232.23
777.39	232.14
777.72	232.08
778.04	232.02
778.36	231.97
778.69	231.93
779.01	231.88
779.33	231.74
779.66	231.57
779.98	231.51
780.31	231.47
780.63	231.44
780.95	231.36
781.28	231.30
781.60	231.22
781.92	231.18
782.25	231.09
782.57	231.00
782.89	230.96
783.22	230.89
783.54	230.82
783.86	230.75
784.19	230.72
784.51	230.68
784.83	230.60
785.16	230.53
785.48	230.49
785.80	230.42
786.12	230.40
786.45	230.35
786.77	230.30
787.09	230.25
