SpectraSuite Data File
++++++++++++++++++++++++++++++++++++
Date: Fri Feb 01 15:35:08 EST 2013
User: group
Dark Spectrum Present: No
Reference Spectrum Present: No
Number of Sampled Component Spectra: 1
Spectrometers: USB2E7196
Integration Time (usec): 35000 (USB2E7196)
Spectra Averaged: 100 (USB2E7196)
Boxcar Smoothing: 10 (USB2E7196)
Correct for Electrical Dark: No (USB2E7196)
Strobe/Lamp Enabled: No (USB2E7196)
Correct for Detector Non-linearity: No (USB2E7196)
Correct for Stray Light: No (USB2E7196)
Number of Pixels in Processed Spectrum: 2048
>>>>>Begin Processed Spectral Data<<<<<
339.09	0.00
339.48	214.89
339.86	216.19
340.24	217.81
340.63	219.05
341.01	222.19
341.39	221.93
341.78	222.80
342.16	224.17
342.54	225.03
342.93	213.34
343.31	224.12
343.69	224.67
344.07	225.18
344.46	225.59
344.84	225.98
345.22	226.23
345.60	226.48
345.99	226.69
346.37	226.83
346.75	226.95
347.13	227.01
347.52	227.06
347.90	227.15
348.28	227.15
348.66	227.18
349.05	227.15
349.43	227.20
349.81	227.27
350.19	227.31
350.57	227.39
350.96	227.45
351.34	227.56
351.72	227.63
352.10	227.67
352.48	227.76
352.87	227.81
353.25	227.85
353.63	227.93
354.01	228.00
354.39	228.05
354.77	228.11
355.15	228.22
355.54	228.26
355.92	228.29
356.30	228.37
356.68	228.50
357.06	228.58
357.44	228.61
357.82	228.67
358.20	228.74
358.58	228.77
358.97	228.83
359.35	228.87
359.73	228.94
360.11	229.00
360.49	229.04
360.87	229.06
361.25	229.07
361.63	229.14
362.01	229.17
362.39	229.19
362.77	229.20
363.15	229.21
363.53	229.24
363.91	229.26
364.29	229.28
364.67	229.14
365.05	229.16
365.43	229.14
365.81	229.15
366.19	229.19
366.57	229.22
366.95	229.17
367.33	229.15
367.71	229.10
368.09	229.09
368.47	229.07
368.85	229.04
369.23	229.05
369.61	228.99
369.99	228.98
370.37	228.96
370.75	228.96
371.13	228.91
371.51	228.83
371.89	228.77
372.27	228.74
372.65	228.72
373.03	228.68
373.41	228.62
373.78	228.53
374.16	228.42
374.54	228.31
374.92	228.26
375.30	228.19
375.68	228.13
376.06	228.10
376.44	228.01
376.82	228.00
377.19	227.93
377.57	227.83
377.95	227.74
378.33	227.69
378.71	227.57
379.09	227.52
379.47	227.48
379.84	227.41
380.22	227.31
380.60	227.24
380.98	227.18
381.36	227.11
381.73	227.08
382.11	227.04
382.49	227.01
382.87	226.95
383.25	226.91
383.62	226.97
384.00	226.87
384.38	226.82
384.76	226.79
385.13	226.80
385.51	226.77
385.89	226.72
386.27	226.67
386.64	226.66
387.02	226.60
387.40	226.57
387.78	226.55
388.15	226.55
388.53	226.53
388.91	226.49
389.29	226.47
389.66	226.42
390.04	226.41
390.42	226.41
390.79	226.37
391.17	226.37
391.55	226.28
391.92	226.27
392.30	226.31
392.68	226.25
393.05	226.22
393.43	226.21
393.81	226.23
394.18	226.23
394.56	226.22
394.94	226.28
395.31	226.30
395.69	226.37
396.06	226.41
396.44	226.43
396.82	226.46
397.19	226.57
397.57	226.62
397.95	226.66
398.32	226.67
398.70	226.74
399.07	226.80
399.45	226.87
399.82	226.93
400.20	226.95
400.58	227.07
400.95	227.13
401.33	227.24
401.70	227.38
402.08	227.50
402.45	227.64
402.83	227.74
403.20	227.84
403.58	227.94
403.95	228.06
404.33	228.22
404.71	228.34
405.08	228.51
405.46	228.65
405.83	228.79
406.21	228.96
406.58	229.13
406.96	229.28
407.33	229.44
407.70	229.67
408.08	229.90
408.45	230.12
408.83	230.35
409.20	230.55
409.58	230.71
409.95	230.94
410.33	231.17
410.70	231.40
411.08	231.69
411.45	231.96
411.82	232.26
412.20	232.59
412.57	233.02
412.95	233.30
413.32	233.73
413.69	234.14
414.07	234.57
414.44	235.04
414.82	235.52
415.19	236.07
415.56	236.62
415.94	237.21
416.31	237.83
416.68	238.49
417.06	239.22
417.43	239.89
417.81	240.67
418.18	241.41
418.55	242.25
418.93	243.12
419.30	244.06
419.67	245.00
420.04	245.97
420.42	246.92
420.79	248.11
421.16	249.24
421.54	250.46
421.91	251.68
422.28	252.96
422.66	254.31
423.03	255.62
423.40	256.93
423.77	258.34
424.15	259.77
424.52	261.22
424.89	262.83
425.26	264.39
425.64	265.85
426.01	267.49
426.38	269.13
426.75	270.85
427.13	272.55
427.50	274.29
427.87	276.20
428.24	278.09
428.61	279.84
428.99	281.77
429.36	283.86
429.73	285.97
430.10	287.96
430.47	290.02
430.85	292.14
431.22	294.39
431.59	296.78
431.96	299.05
432.33	301.55
432.70	303.95
433.08	306.78
433.45	309.41
433.82	312.07
434.19	315.02
434.56	317.80
434.93	320.53
435.30	323.23
435.68	326.11
436.05	328.98
436.42	331.74
436.79	334.28
437.16	337.05
437.53	339.84
437.90	342.70
438.27	345.44
438.64	348.30
439.01	350.95
439.38	353.16
439.75	355.31
440.13	357.85
440.50	360.22
440.87	362.09
441.24	364.00
441.61	366.12
441.98	367.55
442.35	369.40
442.72	371.23
443.09	373.01
443.46	373.97
443.83	374.51
444.20	375.03
444.57	375.82
444.94	376.04
445.31	376.41
445.68	376.73
446.05	376.75
446.42	376.35
446.79	375.84
447.16	375.41
447.53	375.11
447.90	373.92
448.27	372.71
448.64	371.08
449.01	370.01
449.37	368.02
449.74	366.12
450.11	363.85
450.48	361.31
450.85	358.80
451.22	356.67
451.59	354.64
451.96	352.68
452.33	350.07
452.70	347.70
453.07	344.86
453.43	341.95
453.80	339.24
454.17	336.58
454.54	334.03
454.91	331.32
455.28	328.60
455.65	326.07
456.02	323.63
456.38	321.45
456.75	318.76
457.12	316.50
457.49	314.30
457.86	312.08
458.23	310.28
458.59	308.20
458.96	306.11
459.33	304.26
459.70	302.40
460.07	300.91
460.43	299.20
460.80	297.57
461.17	296.08
461.54	294.56
461.91	293.08
462.27	291.66
462.64	290.41
463.01	289.05
463.38	287.79
463.74	286.41
464.11	285.29
464.48	284.28
464.85	283.20
465.21	282.32
465.58	281.43
465.95	280.29
466.32	279.37
466.68	278.48
467.05	277.56
467.42	276.69
467.78	275.79
468.15	274.92
468.52	274.26
468.88	273.41
469.25	272.64
469.62	272.04
469.98	271.35
470.35	270.67
470.72	270.05
471.08	269.38
471.45	268.84
471.82	268.27
472.18	267.67
472.55	267.19
472.92	266.66
473.28	266.19
473.65	265.78
474.02	265.35
474.38	264.96
474.75	264.67
475.11	264.34
475.48	264.07
475.85	263.83
476.21	263.58
476.58	263.43
476.94	263.34
477.31	263.20
477.67	263.02
478.04	262.97
478.41	262.93
478.77	262.99
479.14	262.92
479.50	262.98
479.87	263.08
480.23	263.21
480.60	263.31
480.96	263.41
481.33	263.67
481.69	263.88
482.06	264.13
482.42	264.33
482.79	264.58
483.15	264.90
483.52	265.32
483.88	265.69
484.25	266.12
484.61	266.52
484.98	266.97
485.34	267.61
485.71	268.18
486.07	268.82
486.44	269.38
486.80	270.14
487.17	270.88
487.53	271.68
487.90	272.53
488.26	273.45
488.62	274.42
488.99	275.36
489.35	276.43
489.72	277.56
490.08	278.75
490.44	280.03
490.81	281.35
491.17	282.70
491.54	284.19
491.90	285.72
492.26	287.40
492.63	289.13
492.99	290.87
493.36	292.76
493.72	294.77
494.08	296.89
494.45	299.11
494.81	301.42
495.17	303.85
495.54	306.43
495.90	309.11
496.26	311.95
496.63	314.89
496.99	317.98
497.35	321.20
497.72	324.61
498.08	328.06
498.44	331.72
498.80	335.67
499.17	339.71
499.53	343.82
499.89	348.12
500.26	352.61
500.62	357.28
500.98	362.24
501.34	367.33
501.71	372.64
502.07	378.06
502.43	383.65
502.79	389.45
503.16	395.47
503.52	401.72
503.88	408.07
504.24	414.75
504.60	421.63
504.97	428.72
505.33	436.02
505.69	443.77
506.05	451.53
506.41	459.29
506.78	467.43
507.14	475.93
507.50	484.66
507.86	493.62
508.22	502.79
508.59	511.99
508.95	521.55
509.31	531.35
509.67	541.48
510.03	551.84
510.39	562.42
510.75	573.23
511.12	584.13
511.48	595.47
511.84	606.91
512.20	618.42
512.56	630.40
512.92	642.60
513.28	654.89
513.64	667.38
514.00	680.12
514.37	693.08
514.73	706.07
515.09	719.13
515.45	732.45
515.81	746.04
516.17	760.10
516.53	774.28
516.89	788.42
517.25	802.58
517.61	817.00
517.97	831.41
518.33	845.81
518.69	860.66
519.05	875.62
519.41	890.81
519.77	906.38
520.13	921.77
520.49	937.12
520.85	952.58
521.21	968.33
521.57	984.64
521.93	1000.41
522.29	1016.89
522.65	1033.17
523.01	1049.47
523.37	1065.56
523.73	1081.75
524.09	1097.80
524.45	1114.19
524.81	1130.91
525.17	1147.72
525.53	1164.65
525.89	1181.51
526.25	1198.35
526.61	1214.77
526.97	1231.46
527.33	1247.94
527.68	1264.64
528.04	1281.22
528.40	1297.93
528.76	1315.07
529.12	1331.64
529.48	1348.53
529.84	1364.58
530.20	1381.27
530.56	1398.39
530.91	1415.85
531.27	1432.66
531.63	1449.13
531.99	1465.78
532.35	1481.76
532.71	1497.67
533.07	1513.91
533.42	1529.96
533.78	1546.20
534.14	1562.57
534.50	1578.01
534.86	1593.98
535.21	1609.13
535.57	1625.15
535.93	1640.59
536.29	1655.38
536.65	1670.62
537.00	1685.40
537.36	1700.85
537.72	1715.46
538.08	1729.76
538.44	1743.52
538.79	1757.45
539.15	1771.14
539.51	1784.88
539.87	1799.28
540.22	1813.11
540.58	1826.98
540.94	1840.30
541.29	1853.01
541.65	1865.72
542.01	1879.01
542.37	1891.38
542.72	1903.91
543.08	1915.60
543.44	1928.00
543.79	1939.27
544.15	1950.20
544.51	1961.85
544.87	1972.67
545.22	1983.51
545.58	1993.77
545.94	2003.68
546.29	2013.50
546.65	2023.48
547.01	2032.68
547.36	2041.50
547.72	2049.98
548.07	2057.85
548.43	2066.08
548.79	2074.20
549.14	2081.67
549.50	2089.11
549.86	2096.81
550.21	2104.11
550.57	2111.33
550.92	2117.99
551.28	2124.98
551.64	2131.99
551.99	2138.51
552.35	2144.76
552.70	2150.80
553.06	2156.74
553.41	2163.07
553.77	2169.11
554.13	2175.27
554.48	2181.48
554.84	2186.60
555.19	2191.94
555.55	2197.01
555.90	2201.41
556.26	2206.35
556.61	2211.16
556.97	2215.34
557.32	2219.37
557.68	2223.40
558.03	2227.82
558.39	2231.51
558.74	2236.21
559.10	2240.15
559.45	2243.68
559.81	2248.01
560.16	2251.75
560.52	2255.02
560.87	2258.34
561.23	2260.99
561.58	2263.88
561.94	2266.47
562.29	2269.03
562.64	2271.64
563.00	2274.35
563.35	2277.93
563.71	2280.96
564.06	2284.09
564.42	2286.93
564.77	2289.50
565.12	2291.84
565.48	2293.51
565.83	2295.31
566.19	2296.52
566.54	2297.34
566.89	2298.59
567.25	2299.12
567.60	2300.51
567.96	2302.10
568.31	2302.86
568.66	2303.88
569.02	2304.29
569.37	2304.47
569.72	2305.29
570.08	2305.28
570.43	2305.24
570.78	2304.56
571.14	2303.05
571.49	2301.69
571.84	2301.22
572.20	2299.99
572.55	2298.96
572.90	2297.44
573.26	2296.04
573.61	2294.34
573.96	2292.51
574.31	2289.33
574.67	2286.31
575.02	2282.62
575.37	2279.34
575.72	2275.59
576.08	2272.38
576.43	2269.11
576.78	2265.35
577.13	2262.25
577.49	2259.15
577.84	2255.68
578.19	2251.86
578.54	2248.15
578.90	2243.79
579.25	2238.23
579.60	2233.08
579.95	2227.89
580.30	2222.86
580.66	2217.66
581.01	2212.60
581.36	2207.63
581.71	2203.58
582.06	2198.96
582.42	2194.46
582.77	2189.18
583.12	2184.52
583.47	2179.58
583.82	2174.48
584.17	2169.13
584.53	2163.53
584.88	2157.99
585.23	2152.08
585.58	2146.64
585.93	2141.17
586.28	2136.61
586.63	2131.52
586.98	2126.54
587.34	2121.83
587.69	2116.90
588.04	2111.59
588.39	2105.93
588.74	2099.45
589.09	2093.23
589.44	2086.43
589.79	2080.40
590.14	2074.74
590.49	2068.08
590.84	2061.62
591.19	2055.53
591.54	2049.07
591.89	2041.70
592.25	2034.71
592.60	2027.46
592.95	2019.79
593.30	2012.40
593.65	2004.54
594.00	1997.48
594.35	1990.22
594.70	1982.19
595.05	1974.87
595.40	1967.52
595.75	1960.04
596.10	1953.73
596.45	1946.87
596.80	1940.71
597.15	1933.90
597.50	1926.59
597.85	1920.20
598.19	1913.54
598.54	1906.47
598.89	1899.99
599.24	1893.98
599.59	1887.24
599.94	1881.06
600.29	1874.74
600.64	1868.06
600.99	1860.68
601.34	1853.84
601.69	1846.76
602.04	1839.80
602.39	1832.50
602.74	1825.65
603.08	1818.76
603.43	1812.07
603.78	1804.77
604.13	1797.52
604.48	1790.32
604.83	1783.54
605.18	1776.59
605.53	1768.52
605.87	1760.36
606.22	1753.00
606.57	1744.94
606.92	1737.67
607.27	1730.44
607.62	1723.41
607.96	1716.11
608.31	1709.43
608.66	1701.68
609.01	1694.14
609.36	1686.59
609.70	1678.59
610.05	1670.57
610.40	1662.93
610.75	1654.57
611.10	1646.91
611.44	1638.47
611.79	1630.50
612.14	1621.80
612.49	1612.60
612.83	1604.24
613.18	1596.20
613.53	1588.15
613.88	1579.67
614.22	1571.39
614.57	1562.80
614.92	1554.78
615.27	1547.07
615.61	1538.73
615.96	1530.82
616.31	1523.20
616.65	1515.81
617.00	1508.22
617.35	1500.45
617.70	1492.05
618.04	1483.56
618.39	1475.36
618.74	1467.80
619.08	1459.56
619.43	1451.96
619.78	1445.00
620.12	1437.79
620.47	1430.25
620.82	1422.10
621.16	1414.69
621.51	1407.16
621.85	1399.56
622.20	1391.03
622.55	1382.82
622.89	1374.96
623.24	1367.36
623.59	1359.97
623.93	1352.44
624.28	1345.22
624.62	1337.76
624.97	1330.66
625.32	1323.87
625.66	1316.81
626.01	1309.66
626.35	1302.12
626.70	1294.49
627.04	1286.70
627.39	1279.04
627.73	1271.65
628.08	1264.72
628.43	1257.43
628.77	1250.00
629.12	1242.40
629.46	1235.27
629.81	1227.88
630.15	1220.72
630.50	1213.26
630.84	1205.13
631.19	1197.28
631.53	1189.75
631.88	1182.17
632.22	1174.63
632.57	1167.35
632.91	1159.83
633.26	1152.36
633.60	1145.07
633.95	1137.95
634.29	1130.94
634.64	1124.24
634.98	1116.94
635.32	1109.74
635.67	1103.16
636.01	1096.51
636.36	1089.71
636.70	1083.24
637.05	1076.68
637.39	1070.20
637.73	1063.63
638.08	1057.76
638.42	1051.69
638.77	1045.21
639.11	1038.63
639.45	1032.15
639.80	1025.44
640.14	1018.98
640.49	1012.52
640.83	1006.18
641.17	999.89
641.52	993.56
641.86	987.16
642.20	981.22
642.55	974.82
642.89	968.23
643.23	961.71
643.58	955.98
643.92	949.73
644.26	943.57
644.61	937.52
644.95	931.41
645.29	924.71
645.64	917.97
645.98	911.66
646.32	905.81
646.66	899.82
647.01	894.03
647.35	888.34
647.69	882.39
648.04	876.83
648.38	871.01
648.72	864.97
649.06	858.80
649.41	852.98
649.75	847.06
650.09	841.15
650.43	835.37
650.78	829.18
651.12	823.28
651.46	817.57
651.80	811.82
652.14	806.54
652.49	801.16
652.83	796.08
653.17	790.33
653.51	784.52
653.85	779.09
654.20	773.54
654.54	767.58
654.88	761.93
655.22	756.01
655.56	750.37
655.90	744.97
656.25	739.83
656.59	734.47
656.93	729.52
657.27	724.45
657.61	718.93
657.95	713.86
658.29	708.73
658.64	703.52
658.98	698.23
659.32	692.82
659.66	687.65
660.00	682.31
660.34	677.44
660.68	672.67
661.02	667.64
661.36	662.84
661.70	658.40
662.05	653.99
662.39	649.65
662.73	645.22
663.07	640.84
663.41	636.36
663.75	631.82
664.09	627.12
664.43	622.69
664.77	618.60
665.11	614.31
665.45	610.24
665.79	606.16
666.13	602.03
666.47	597.93
666.81	593.79
667.15	589.62
667.49	585.70
667.83	581.86
668.17	577.90
668.51	573.86
668.85	569.80
669.19	566.02
669.53	562.21
669.87	558.30
670.21	554.65
670.55	551.03
670.89	547.63
671.23	544.17
671.57	540.66
671.91	537.15
672.25	533.71
672.58	530.15
672.92	526.74
673.26	523.60
673.60	520.44
673.94	517.34
674.28	514.47
674.62	511.60
674.96	508.51
675.30	505.66
675.64	502.76
675.97	499.97
676.31	497.10
676.65	494.11
676.99	491.44
677.33	488.59
677.67	485.72
678.01	482.71
678.34	479.80
678.68	476.99
679.02	474.19
679.36	471.38
679.70	468.62
680.04	465.87
680.37	462.98
680.71	460.20
681.05	457.55
681.39	454.83
681.73	452.17
682.06	449.64
682.40	447.11
682.74	444.59
683.08	442.05
683.42	439.41
683.75	436.98
684.09	434.40
684.43	431.94
684.77	429.49
685.10	427.11
685.44	424.87
685.78	422.52
686.12	420.27
686.45	418.02
686.79	415.78
687.13	413.60
687.46	411.42
687.80	409.25
688.14	407.06
688.48	405.01
688.81	402.74
689.15	400.53
689.49	398.38
689.82	396.31
690.16	394.25
690.50	392.34
690.83	390.36
691.17	388.38
691.51	386.46
691.84	384.62
692.18	382.69
692.52	380.66
692.85	378.77
693.19	376.90
693.52	375.05
693.86	373.22
694.20	371.43
694.53	369.68
694.87	367.86
695.21	366.08
695.54	364.24
695.88	362.52
696.21	360.85
696.55	359.16
696.88	357.43
697.22	355.77
697.56	354.14
697.89	352.53
698.23	350.95
698.56	349.38
698.90	347.77
699.23	346.17
699.57	344.63
699.90	343.08
700.24	341.52
700.58	339.97
700.91	338.47
701.25	337.07
701.58	335.67
701.92	334.30
702.25	332.93
702.59	331.57
702.92	330.25
703.26	328.95
703.59	327.65
703.93	326.46
704.26	325.21
704.60	323.89
704.93	322.63
705.26	321.38
705.60	320.18
705.93	319.05
706.27	318.01
706.60	316.96
706.94	315.89
707.27	314.80
707.61	313.81
707.94	312.79
708.27	311.68
708.61	310.64
708.94	309.68
709.28	308.75
709.61	307.83
709.94	306.92
710.28	305.88
710.61	304.96
710.95	303.94
711.28	303.06
711.61	302.15
711.95	301.23
712.28	300.29
712.61	299.30
712.95	298.36
713.28	297.51
713.61	296.56
713.95	295.67
714.28	294.83
714.61	293.95
714.95	293.08
715.28	292.22
715.61	291.37
715.95	290.49
716.28	289.60
716.61	288.73
716.95	287.90
717.28	287.18
717.61	286.39
717.94	285.61
718.28	284.77
718.61	284.00
718.94	283.34
719.27	282.69
719.61	282.06
719.94	281.43
720.27	280.71
720.60	280.10
720.94	279.43
721.27	278.85
721.60	278.28
721.93	277.71
722.27	277.16
722.60	276.56
722.93	275.97
723.26	275.44
723.59	274.88
723.93	274.34
724.26	273.79
724.59	273.25
724.92	272.73
725.25	272.26
725.59	271.79
725.92	271.27
726.25	270.70
726.58	270.19
726.91	269.65
727.24	269.17
727.57	268.66
727.91	268.17
728.24	267.67
728.57	267.16
728.90	266.69
729.23	266.20
729.56	265.76
729.89	265.32
730.22	264.87
730.55	264.38
730.89	263.89
731.22	263.42
731.55	262.98
731.88	262.55
732.21	262.11
732.54	261.65
732.87	261.22
733.20	260.85
733.53	260.43
733.86	260.06
734.19	259.61
734.52	259.25
734.85	258.93
735.18	258.50
735.51	258.14
735.84	257.78
736.17	257.42
736.50	257.01
736.83	256.75
737.16	256.39
737.49	256.07
737.82	255.74
738.15	255.43
738.48	255.07
738.81	254.73
739.14	254.38
739.47	254.05
739.80	253.74
740.13	253.44
740.46	253.16
740.79	252.84
741.12	252.55
741.45	252.25
741.78	251.92
742.11	251.66
742.44	251.33
742.77	251.04
743.10	250.76
743.43	250.48
743.75	250.11
744.08	249.95
744.41	249.68
744.74	249.42
745.07	249.13
745.40	248.91
745.73	248.67
746.06	248.41
746.39	248.15
746.71	247.89
747.04	247.64
747.37	247.37
747.70	247.11
748.03	246.88
748.36	246.64
748.68	246.43
749.01	246.19
749.34	245.99
749.67	245.79
750.00	245.56
750.33	245.44
750.65	245.24
750.98	244.91
751.31	244.69
751.64	244.50
751.97	244.36
752.29	244.14
752.62	243.91
752.95	243.74
753.28	243.51
753.60	243.31
753.93	243.14
754.26	242.95
754.59	242.75
754.91	242.54
755.24	242.35
755.57	242.18
755.90	242.02
756.22	241.83
756.55	241.65
756.88	241.45
757.20	241.19
757.53	241.01
757.86	240.82
758.19	240.69
758.51	240.52
758.84	240.29
759.17	240.14
759.49	239.97
759.82	239.85
760.15	239.70
760.47	239.55
760.80	239.39
761.13	239.28
761.45	239.13
761.78	238.97
762.11	238.84
762.43	238.67
762.76	238.50
763.08	238.37
763.41	238.19
763.74	238.04
764.06	237.90
764.39	237.74
764.71	237.66
765.04	237.49
765.37	237.35
765.69	237.22
766.02	237.06
766.34	236.96
766.67	236.78
767.00	236.70
767.32	236.63
767.65	236.54
767.97	236.38
768.30	236.26
768.62	236.18
768.95	236.05
769.27	235.90
769.60	235.78
769.92	235.65
770.25	235.53
770.57	235.44
770.90	235.36
771.22	235.25
771.55	235.13
771.87	235.04
772.20	234.91
772.52	234.89
772.85	234.90
773.17	234.79
773.50	234.70
773.82	234.58
774.15	234.42
774.47	234.29
774.80	234.18
775.12	234.08
775.45	233.96
775.77	233.85
776.09	233.80
776.42	233.71
776.74	233.66
777.07	233.55
777.39	233.45
777.72	233.35
778.04	233.30
778.36	233.23
778.69	233.15
779.01	233.11
779.33	232.96
779.66	232.82
779.98	232.76
780.31	232.71
780.63	232.68
780.95	232.66
781.28	232.59
781.60	232.53
781.92	232.48
782.25	232.42
782.57	232.37
782.89	232.30
783.22	232.26
783.54	232.18
783.86	232.16
784.19	232.09
784.51	232.07
784.83	231.99
785.16	231.88
785.48	231.86
785.80	231.78
786.12	231.77
786.45	231.71
786.77	231.65
787.09	231.57
