SpectraSuite Data File
++++++++++++++++++++++++++++++++++++
Date: Fri Feb 01 18:14:59 EST 2013
User: group
Dark Spectrum Present: No
Reference Spectrum Present: No
Number of Sampled Component Spectra: 1
Spectrometers: USB2E7196
Integration Time (usec): 35000 (USB2E7196)
Spectra Averaged: 100 (USB2E7196)
Boxcar Smoothing: 10 (USB2E7196)
Correct for Electrical Dark: No (USB2E7196)
Strobe/Lamp Enabled: No (USB2E7196)
Correct for Detector Non-linearity: No (USB2E7196)
Correct for Stray Light: No (USB2E7196)
Number of Pixels in Processed Spectrum: 2048
>>>>>Begin Processed Spectral Data<<<<<
339.09	0.00
339.48	213.21
339.86	214.56
340.24	215.68
340.63	217.17
341.01	220.36
341.39	219.57
341.78	221.04
342.16	222.55
342.54	222.83
342.93	211.42
343.31	222.11
343.69	222.65
344.07	223.11
344.46	223.54
344.84	223.94
345.22	224.15
345.60	224.41
345.99	224.60
346.37	224.74
346.75	224.86
347.13	224.92
347.52	224.97
347.90	225.06
348.28	225.06
348.66	225.11
349.05	225.10
349.43	225.13
349.81	225.20
350.19	225.23
350.57	225.26
350.96	225.34
351.34	225.41
351.72	225.49
352.10	225.60
352.48	225.69
352.87	225.73
353.25	225.79
353.63	225.86
354.01	225.93
354.39	225.98
354.77	226.03
355.15	226.11
355.54	226.18
355.92	226.24
356.30	226.36
356.68	226.49
357.06	226.56
357.44	226.62
357.82	226.69
358.20	226.77
358.58	226.86
358.97	226.93
359.35	227.04
359.73	227.13
360.11	227.18
360.49	227.24
360.87	227.29
361.25	227.36
361.63	227.42
362.01	227.49
362.39	227.55
362.77	227.63
363.15	227.69
363.53	227.70
363.91	227.72
364.29	227.71
364.67	227.63
365.05	227.68
365.43	227.72
365.81	227.76
366.19	227.83
366.57	227.86
366.95	227.85
367.33	227.82
367.71	227.79
368.09	227.80
368.47	227.79
368.85	227.81
369.23	227.79
369.61	227.76
369.99	227.76
370.37	227.73
370.75	227.75
371.13	227.73
371.51	227.71
371.89	227.68
372.27	227.68
372.65	227.66
373.03	227.59
373.41	227.55
373.78	227.51
374.16	227.41
374.54	227.35
374.92	227.27
375.30	227.24
375.68	227.19
376.06	227.13
376.44	227.06
376.82	226.98
377.19	226.93
377.57	226.90
377.95	226.77
378.33	226.69
378.71	226.56
379.09	226.48
379.47	226.44
379.84	226.37
380.22	226.26
380.60	226.18
380.98	226.14
381.36	226.05
381.73	225.97
382.11	225.92
382.49	225.87
382.87	225.83
383.25	225.75
383.62	225.78
384.00	225.69
384.38	225.65
384.76	225.62
385.13	225.62
385.51	225.53
385.89	225.52
386.27	225.50
386.64	225.48
387.02	225.42
387.40	225.38
387.78	225.36
388.15	225.34
388.53	225.31
388.91	225.29
389.29	225.28
389.66	225.26
390.04	225.26
390.42	225.28
390.79	225.25
391.17	225.23
391.55	225.12
391.92	225.13
392.30	225.15
392.68	225.13
393.05	225.11
393.43	225.11
393.81	225.16
394.18	225.14
394.56	225.18
394.94	225.25
395.31	225.21
395.69	225.25
396.06	225.30
396.44	225.32
396.82	225.30
397.19	225.39
397.57	225.43
397.95	225.44
398.32	225.44
398.70	225.51
399.07	225.59
399.45	225.62
399.82	225.69
400.20	225.73
400.58	225.80
400.95	225.85
401.33	225.97
401.70	226.08
402.08	226.18
402.45	226.23
402.83	226.32
403.20	226.47
403.58	226.57
403.95	226.69
404.33	226.85
404.71	227.02
405.08	227.18
405.46	227.32
405.83	227.52
406.21	227.69
406.58	227.91
406.96	228.09
407.33	228.34
407.70	228.54
408.08	228.88
408.45	229.19
408.83	229.47
409.20	229.73
409.58	229.96
409.95	230.30
410.33	230.69
410.70	231.02
411.08	231.39
411.45	231.78
411.82	232.22
412.20	232.69
412.57	233.22
412.95	233.67
413.32	234.23
413.69	234.78
414.07	235.39
414.44	236.02
414.82	236.68
415.19	237.45
415.56	238.22
415.94	238.99
416.31	239.87
416.68	240.70
417.06	241.72
417.43	242.67
417.81	243.73
418.18	244.80
418.55	245.96
418.93	247.21
419.30	248.48
419.67	249.79
420.04	251.14
420.42	252.56
420.79	254.19
421.16	255.80
421.54	257.46
421.91	259.13
422.28	260.92
422.66	262.79
423.03	264.58
423.40	266.44
423.77	268.42
424.15	270.40
424.52	272.55
424.89	274.84
425.26	277.03
425.64	279.05
426.01	281.32
426.38	283.66
426.75	285.99
427.13	288.39
427.50	290.91
427.87	293.55
428.24	296.19
428.61	298.65
428.99	301.37
429.36	304.40
429.73	307.29
430.10	310.11
430.47	313.02
430.85	316.03
431.22	319.19
431.59	322.48
431.96	325.66
432.33	329.12
432.70	332.44
433.08	336.44
433.45	340.16
433.82	343.81
434.19	347.89
434.56	351.84
434.93	355.58
435.30	359.30
435.68	363.42
436.05	367.37
436.42	371.37
436.79	374.92
437.16	378.65
437.53	382.67
437.90	386.60
438.27	390.48
438.64	394.48
439.01	398.21
439.38	401.39
439.75	404.41
440.13	407.95
440.50	411.27
440.87	413.83
441.24	416.60
441.61	419.70
441.98	421.81
442.35	424.39
442.72	427.10
443.09	429.67
443.46	431.10
443.83	431.97
444.20	432.67
444.57	433.89
444.94	434.36
445.31	434.84
445.68	435.38
446.05	435.52
446.42	434.99
446.79	434.35
447.16	433.71
447.53	433.27
447.90	431.62
448.27	429.96
448.64	427.75
449.01	426.13
449.37	423.31
449.74	420.69
450.11	417.44
450.48	413.92
450.85	410.35
451.22	407.27
451.59	404.42
451.96	401.68
452.33	398.00
452.70	394.67
453.07	390.71
453.43	386.66
453.80	382.73
454.17	378.96
454.54	375.39
454.91	371.60
455.28	367.88
455.65	364.37
456.02	360.86
456.38	357.80
456.75	354.05
457.12	350.89
457.49	347.74
457.86	344.75
458.23	342.07
458.59	339.14
458.96	336.19
459.33	333.53
459.70	330.90
460.07	328.75
460.43	326.31
460.80	323.97
461.17	321.85
461.54	319.70
461.91	317.65
462.27	315.53
462.64	313.73
463.01	311.79
463.38	309.97
463.74	308.10
464.11	306.48
464.48	304.99
464.85	303.36
465.21	302.06
465.58	300.72
465.95	299.18
466.32	297.90
466.68	296.63
467.05	295.35
467.42	294.07
467.78	292.74
468.15	291.46
468.52	290.52
468.88	289.33
469.25	288.22
469.62	287.33
469.98	286.39
470.35	285.48
470.72	284.61
471.08	283.65
471.45	282.84
471.82	282.00
472.18	281.14
472.55	280.52
472.92	279.76
473.28	279.06
473.65	278.44
474.02	277.74
474.38	277.18
474.75	276.70
475.11	276.11
475.48	275.69
475.85	275.33
476.21	274.91
476.58	274.58
476.94	274.31
477.31	274.03
477.67	273.77
478.04	273.51
478.41	273.34
478.77	273.27
479.14	273.13
479.50	273.07
479.87	273.07
480.23	273.09
480.60	273.08
480.96	273.13
481.33	273.24
481.69	273.42
482.06	273.53
482.42	273.64
482.79	273.89
483.15	274.17
483.52	274.52
483.88	274.85
484.25	275.22
484.61	275.64
484.98	276.07
485.34	276.61
485.71	277.22
486.07	277.86
486.44	278.42
486.80	279.13
487.17	279.89
487.53	280.74
487.90	281.62
488.26	282.60
488.62	283.62
488.99	284.63
489.35	285.71
489.72	286.90
490.08	288.21
490.44	289.52
490.81	290.92
491.17	292.32
491.54	293.88
491.90	295.53
492.26	297.23
492.63	299.05
492.99	300.93
493.36	302.94
493.72	305.10
494.08	307.38
494.45	309.76
494.81	312.23
495.17	314.84
495.54	317.60
495.90	320.47
496.26	323.46
496.63	326.63
496.99	329.96
497.35	333.45
497.72	337.08
498.08	340.84
498.44	344.78
498.80	349.04
499.17	353.35
499.53	357.80
499.89	362.50
500.26	367.37
500.62	372.44
500.98	377.77
501.34	383.20
501.71	388.96
502.07	394.86
502.43	400.91
502.79	407.18
503.16	413.65
503.52	420.35
503.88	427.22
504.24	434.32
504.60	441.76
504.97	449.52
505.33	457.42
505.69	465.70
506.05	474.08
506.41	482.51
506.78	491.38
507.14	500.50
507.50	509.91
507.86	519.60
508.22	529.53
508.59	539.46
508.95	549.84
509.31	560.47
509.67	571.36
510.03	582.52
510.39	593.95
510.75	605.64
511.12	617.58
511.48	629.85
511.84	642.36
512.20	654.86
512.56	667.80
512.92	681.06
513.28	694.58
513.64	708.21
514.00	722.15
514.37	736.35
514.73	750.65
515.09	765.02
515.45	779.65
515.81	794.57
516.17	809.99
516.53	825.54
516.89	841.08
517.25	856.70
517.61	872.64
517.97	888.57
518.33	904.55
518.69	920.74
519.05	937.33
519.41	954.14
519.77	971.26
520.13	988.43
520.49	1005.50
520.85	1022.57
521.21	1039.90
521.57	1057.94
521.93	1075.41
522.29	1093.72
522.65	1111.83
523.01	1129.83
523.37	1147.73
523.73	1165.77
524.09	1183.74
524.45	1201.89
524.81	1220.50
525.17	1239.31
525.53	1258.27
525.89	1277.23
526.25	1296.22
526.61	1314.83
526.97	1333.74
527.33	1352.48
527.68	1371.21
528.04	1389.84
528.40	1408.68
528.76	1428.10
529.12	1446.96
529.48	1466.20
529.84	1484.38
530.20	1503.22
530.56	1522.59
530.91	1542.47
531.27	1561.60
531.63	1580.43
531.99	1599.48
532.35	1617.94
532.71	1636.29
533.07	1655.05
533.42	1673.39
533.78	1692.00
534.14	1710.71
534.50	1728.56
534.86	1746.98
535.21	1764.63
535.57	1783.18
535.93	1801.18
536.29	1818.64
536.65	1836.27
537.00	1853.44
537.36	1871.37
537.72	1888.57
538.08	1905.81
538.44	1921.95
538.79	1938.41
539.15	1954.48
539.51	1970.85
539.87	1987.80
540.22	2004.01
540.58	2020.39
540.94	2036.23
541.29	2051.61
541.65	2066.87
542.01	2082.60
542.37	2097.55
542.72	2112.70
543.08	2127.10
543.44	2142.10
543.79	2155.79
544.15	2169.29
544.51	2183.52
544.87	2197.03
545.22	2210.42
545.58	2223.06
545.94	2235.53
546.29	2247.92
546.65	2260.53
547.01	2272.29
547.36	2283.51
547.72	2294.47
548.07	2304.71
548.43	2315.35
548.79	2325.70
549.14	2335.54
549.50	2345.01
549.86	2354.82
550.21	2364.30
550.57	2373.79
550.92	2382.75
551.28	2391.98
551.64	2401.22
551.99	2409.98
552.35	2418.27
552.70	2426.66
553.06	2434.77
553.41	2443.14
553.77	2451.21
554.13	2459.18
554.48	2467.54
554.84	2475.05
555.19	2482.32
555.55	2489.77
555.90	2496.29
556.26	2503.39
556.61	2510.19
556.97	2516.71
557.32	2522.69
557.68	2528.67
558.03	2534.90
558.39	2540.34
558.74	2546.97
559.10	2552.73
559.45	2558.19
559.81	2564.29
560.16	2569.76
560.52	2574.58
560.87	2579.63
561.23	2583.77
561.58	2588.42
561.94	2592.33
562.29	2596.12
562.64	2600.45
563.00	2604.32
563.35	2609.34
563.71	2613.83
564.06	2618.49
564.42	2622.77
564.77	2626.80
565.12	2630.61
565.48	2633.63
565.83	2636.86
566.19	2639.54
566.54	2641.53
566.89	2643.78
567.25	2645.60
567.60	2647.93
567.96	2650.89
568.31	2652.80
568.66	2655.21
569.02	2656.90
569.37	2658.26
569.72	2660.21
570.08	2661.09
570.43	2661.87
570.78	2662.16
571.14	2661.18
571.49	2660.23
571.84	2660.57
572.20	2660.26
572.55	2659.83
572.90	2658.73
573.26	2657.83
573.61	2656.35
573.96	2655.15
574.31	2652.46
574.67	2649.66
575.02	2646.38
575.37	2642.98
575.72	2639.41
576.08	2636.08
576.43	2632.65
576.78	2628.98
577.13	2625.74
577.49	2622.71
577.84	2619.33
578.19	2615.36
578.54	2611.72
578.90	2607.59
579.25	2601.66
579.60	2596.33
579.95	2590.91
580.30	2585.56
580.66	2579.85
581.01	2574.33
581.36	2568.88
581.71	2564.52
582.06	2559.78
582.42	2555.04
582.77	2549.59
583.12	2544.69
583.47	2539.74
583.82	2534.72
584.17	2529.04
584.53	2523.07
584.88	2516.76
585.23	2510.35
585.58	2504.24
585.93	2498.19
586.28	2492.76
586.63	2487.23
586.98	2481.61
587.34	2476.39
587.69	2470.89
588.04	2465.04
588.39	2458.77
588.74	2451.47
589.09	2444.25
589.44	2436.46
589.79	2429.22
590.14	2422.54
590.49	2414.81
590.84	2407.27
591.19	2400.12
591.54	2392.66
591.89	2384.20
592.25	2376.50
592.60	2368.14
592.95	2359.56
593.30	2350.93
593.65	2342.07
594.00	2333.77
594.35	2325.10
594.70	2315.59
595.05	2307.40
595.40	2299.04
595.75	2290.37
596.10	2283.24
596.45	2275.47
596.80	2268.36
597.15	2260.85
597.50	2252.79
597.85	2245.09
598.19	2237.32
598.54	2228.96
598.89	2221.15
599.24	2214.10
599.59	2206.41
599.94	2199.05
600.29	2191.34
600.64	2183.56
600.99	2174.85
601.34	2166.75
601.69	2158.56
602.04	2150.59
602.39	2141.77
602.74	2133.67
603.08	2125.72
603.43	2117.48
603.78	2108.81
604.13	2100.13
604.48	2091.39
604.83	2083.03
605.18	2074.95
605.53	2065.55
605.87	2055.92
606.22	2047.21
606.57	2037.75
606.92	2028.69
607.27	2020.23
607.62	2012.19
607.96	2003.69
608.31	1995.90
608.66	1986.86
609.01	1977.79
609.36	1968.71
609.70	1959.28
610.05	1949.70
610.40	1940.57
610.75	1930.70
611.10	1921.62
611.44	1911.44
611.79	1901.82
612.14	1891.43
612.49	1880.47
612.83	1870.33
613.18	1860.55
613.53	1850.86
613.88	1840.67
614.22	1830.68
614.57	1820.15
614.92	1810.52
615.27	1801.47
615.61	1791.44
615.96	1781.80
616.31	1772.69
616.65	1763.65
617.00	1754.48
617.35	1745.05
617.70	1734.96
618.04	1724.83
618.39	1714.74
618.74	1705.56
619.08	1695.55
619.43	1686.57
619.78	1678.24
620.12	1669.66
620.47	1660.61
620.82	1650.67
621.16	1641.48
621.51	1632.28
621.85	1623.12
622.20	1612.67
622.55	1602.45
622.89	1592.94
623.24	1583.69
623.59	1574.70
623.93	1565.62
624.28	1556.74
624.62	1547.74
624.97	1539.03
625.32	1530.73
625.66	1522.27
626.01	1513.70
626.35	1504.82
626.70	1495.40
627.04	1485.95
627.39	1476.43
627.73	1467.41
628.08	1459.15
628.43	1450.61
628.77	1441.89
629.12	1432.78
629.46	1424.21
629.81	1415.19
630.15	1406.53
630.50	1397.49
630.84	1387.60
631.19	1378.05
631.53	1369.02
631.88	1359.88
632.22	1350.74
632.57	1342.01
632.91	1332.89
633.26	1324.12
633.60	1315.19
633.95	1306.53
634.29	1298.06
634.64	1290.00
634.98	1281.27
635.32	1272.64
635.67	1264.66
636.01	1256.75
636.36	1248.69
636.70	1240.86
637.05	1233.09
637.39	1225.26
637.73	1217.48
638.08	1210.41
638.42	1203.24
638.77	1195.58
639.11	1187.78
639.45	1180.11
639.80	1172.11
640.14	1164.51
640.49	1156.64
640.83	1149.10
641.17	1141.66
641.52	1134.21
641.86	1126.44
642.20	1119.53
642.55	1112.04
642.89	1104.28
643.23	1096.24
643.58	1089.34
643.92	1081.95
644.26	1074.75
644.61	1067.51
644.95	1060.41
645.29	1052.75
645.64	1044.82
645.98	1037.20
646.32	1030.15
646.66	1023.01
647.01	1016.10
647.35	1009.27
647.69	1002.20
648.04	995.67
648.38	988.93
648.72	981.95
649.06	974.96
649.41	967.92
649.75	960.88
650.09	953.89
650.43	947.16
650.78	939.88
651.12	932.86
651.46	926.03
651.80	919.31
652.14	912.94
652.49	906.46
652.83	900.31
653.17	893.72
653.51	887.04
653.85	880.52
654.20	873.85
654.54	866.81
654.88	860.04
655.22	853.01
655.56	846.18
655.90	839.46
656.25	833.22
656.59	826.84
656.93	820.77
657.27	814.69
657.61	808.28
657.95	802.26
658.29	796.23
658.64	790.00
658.98	783.62
659.32	777.12
659.66	770.95
660.00	764.71
660.34	758.85
660.68	752.97
661.02	747.14
661.36	741.64
661.70	736.37
662.05	731.21
662.39	726.06
662.73	720.77
663.07	715.64
663.41	710.39
663.75	705.12
664.09	699.72
664.43	694.51
664.77	689.71
665.11	684.70
665.45	679.73
665.79	674.93
666.13	670.18
666.47	665.35
666.81	660.50
667.15	655.60
667.49	650.92
667.83	646.39
668.17	641.70
668.51	636.85
668.85	632.03
669.19	627.47
669.53	623.03
669.87	618.53
670.21	614.16
670.55	609.83
670.89	605.74
671.23	601.68
671.57	597.50
671.91	593.28
672.25	589.07
672.58	584.94
672.92	580.87
673.26	577.02
673.60	573.26
673.94	569.55
674.28	566.14
674.62	562.64
674.96	558.98
675.30	555.58
675.64	552.16
675.97	548.85
676.31	545.46
676.65	541.97
676.99	538.69
677.33	535.30
677.67	531.94
678.01	528.47
678.34	524.95
678.68	521.48
679.02	518.20
679.36	514.93
679.70	511.72
680.04	508.50
680.37	505.17
680.71	501.89
681.05	498.81
681.39	495.53
681.73	492.44
682.06	489.45
682.40	486.49
682.74	483.47
683.08	480.52
683.42	477.47
683.75	474.52
684.09	471.49
684.43	468.63
684.77	465.78
685.10	462.95
685.44	460.22
685.78	457.59
686.12	454.85
686.45	452.19
686.79	449.44
687.13	446.79
687.46	444.21
687.80	441.65
688.14	438.98
688.48	436.59
688.81	433.96
689.15	431.41
689.49	428.83
689.82	426.39
690.16	423.90
690.50	421.55
690.83	419.23
691.17	416.93
691.51	414.66
691.84	412.45
692.18	410.15
692.52	407.81
692.85	405.45
693.19	403.22
693.52	401.01
693.86	398.87
694.20	396.81
694.53	394.70
694.87	392.52
695.21	390.42
695.54	388.25
695.88	386.17
696.21	384.15
696.55	382.14
696.88	380.13
697.22	378.14
697.56	376.21
697.89	374.31
698.23	372.39
698.56	370.49
698.90	368.63
699.23	366.70
699.57	364.88
699.90	363.10
700.24	361.28
700.58	359.47
700.91	357.68
701.25	355.98
701.58	354.33
701.92	352.76
702.25	351.20
702.59	349.57
702.92	348.02
703.26	346.50
703.59	345.01
703.93	343.61
704.26	342.16
704.60	340.69
704.93	339.18
705.26	337.70
705.60	336.27
705.93	334.89
706.27	333.69
706.60	332.44
706.94	331.18
707.27	329.89
707.61	328.61
707.94	327.46
708.27	326.13
708.61	324.84
708.94	323.59
709.28	322.37
709.61	321.25
709.94	320.13
710.28	318.90
710.61	317.70
710.95	316.45
711.28	315.36
711.61	314.22
711.95	313.17
712.28	312.06
712.61	310.94
712.95	309.81
713.28	308.70
713.61	307.61
713.95	306.56
714.28	305.55
714.61	304.54
714.95	303.51
715.28	302.54
715.61	301.53
715.95	300.54
716.28	299.52
716.61	298.48
716.95	297.49
717.28	296.58
717.61	295.67
717.94	294.75
718.28	293.78
718.61	292.89
718.94	292.04
719.27	291.26
719.61	290.50
719.94	289.74
720.27	288.93
720.60	288.15
720.94	287.40
721.27	286.68
721.60	286.02
721.93	285.28
722.27	284.61
722.60	283.97
722.93	283.26
723.26	282.63
723.59	282.01
723.93	281.33
724.26	280.66
724.59	280.00
724.92	279.39
725.25	278.81
725.59	278.19
725.92	277.56
726.25	276.95
726.58	276.33
726.91	275.71
727.24	275.12
727.57	274.55
727.91	273.92
728.24	273.35
728.57	272.72
728.90	272.18
729.23	271.57
729.56	271.01
729.89	270.45
730.22	269.85
730.55	269.25
730.89	268.72
731.22	268.22
731.55	267.71
731.88	267.21
732.21	266.66
732.54	266.15
732.87	265.64
733.20	265.12
733.53	264.66
733.86	264.22
734.19	263.74
734.52	263.28
734.85	262.88
735.18	262.40
735.51	261.97
735.84	261.53
736.17	261.09
736.50	260.64
736.83	260.37
737.16	259.97
737.49	259.58
737.82	259.19
738.15	258.76
738.48	258.37
738.81	258.00
739.14	257.63
739.47	257.25
739.80	256.90
740.13	256.58
740.46	256.21
740.79	255.82
741.12	255.47
741.45	255.12
741.78	254.74
742.11	254.39
742.44	254.02
742.77	253.68
743.10	253.36
743.43	253.01
743.75	252.60
744.08	252.40
744.41	252.11
744.74	251.80
745.07	251.51
745.40	251.22
745.73	250.92
746.06	250.63
746.39	250.34
746.71	250.02
747.04	249.66
747.37	249.35
747.70	249.10
748.03	248.81
748.36	248.50
748.68	248.22
749.01	247.95
749.34	247.69
749.67	247.44
750.00	247.18
750.33	246.98
750.65	246.71
750.98	246.39
751.31	246.11
751.64	245.87
751.97	245.66
752.29	245.37
752.62	245.09
752.95	244.84
753.28	244.59
753.60	244.33
753.93	244.14
754.26	243.92
754.59	243.61
754.91	243.39
755.24	243.19
755.57	242.95
755.90	242.76
756.22	242.53
756.55	242.28
756.88	242.06
757.20	241.81
757.53	241.60
757.86	241.35
758.19	241.18
758.51	240.98
758.84	240.71
759.17	240.53
759.49	240.33
759.82	240.18
760.15	239.97
760.47	239.82
760.80	239.63
761.13	239.47
761.45	239.28
761.78	239.09
762.11	238.93
762.43	238.76
762.76	238.55
763.08	238.41
763.41	238.23
763.74	238.05
764.06	237.86
764.39	237.69
764.71	237.53
765.04	237.35
765.37	237.18
765.69	237.03
766.02	236.85
766.34	236.70
766.67	236.52
767.00	236.38
767.32	236.27
767.65	236.13
767.97	235.99
768.30	235.89
768.62	235.77
768.95	235.60
769.27	235.47
769.60	235.35
769.92	235.19
770.25	235.06
770.57	234.92
770.90	234.83
771.22	234.69
771.55	234.57
771.87	234.48
772.20	234.39
772.52	234.37
772.85	234.42
773.17	234.31
773.50	234.22
773.82	234.14
774.15	234.01
774.47	233.89
774.80	233.76
775.12	233.67
775.45	233.53
775.77	233.44
776.09	233.37
776.42	233.24
776.74	233.17
777.07	233.08
777.39	232.97
777.72	232.88
778.04	232.82
778.36	232.74
778.69	232.65
779.01	232.56
779.33	232.39
779.66	232.16
779.98	232.09
780.31	231.99
780.63	231.93
780.95	231.86
781.28	231.80
781.60	231.73
781.92	231.64
782.25	231.62
782.57	231.55
782.89	231.47
783.22	231.44
783.54	231.37
783.86	231.33
784.19	231.27
784.51	231.23
784.83	231.13
785.16	231.07
785.48	231.03
785.80	230.98
786.12	230.94
786.45	230.89
