SpectraSuite Data File
++++++++++++++++++++++++++++++++++++
Date: Fri Feb 01 15:14:36 EST 2013
User: group
Dark Spectrum Present: No
Reference Spectrum Present: No
Number of Sampled Component Spectra: 1
Spectrometers: USB2E7196
Integration Time (usec): 35000 (USB2E7196)
Spectra Averaged: 100 (USB2E7196)
Boxcar Smoothing: 10 (USB2E7196)
Correct for Electrical Dark: No (USB2E7196)
Strobe/Lamp Enabled: No (USB2E7196)
Correct for Detector Non-linearity: No (USB2E7196)
Correct for Stray Light: No (USB2E7196)
Number of Pixels in Processed Spectrum: 2048
>>>>>Begin Processed Spectral Data<<<<<
339.09	0.00
339.48	215.77
339.86	216.81
340.24	218.48
340.63	219.57
341.01	222.58
341.39	221.96
341.78	223.43
342.16	225.54
342.54	225.73
342.93	213.80
343.31	224.60
343.69	225.15
344.07	225.59
344.46	225.99
344.84	226.36
345.22	226.59
345.60	226.85
345.99	227.05
346.37	227.16
346.75	227.25
347.13	227.31
347.52	227.37
347.90	227.44
348.28	227.48
348.66	227.52
349.05	227.49
349.43	227.55
349.81	227.58
350.19	227.58
350.57	227.62
350.96	227.68
351.34	227.77
351.72	227.78
352.10	227.89
352.48	227.94
352.87	227.97
353.25	228.02
353.63	228.07
354.01	228.13
354.39	228.20
354.77	228.27
355.15	228.35
355.54	228.40
355.92	228.46
356.30	228.53
356.68	228.67
357.06	228.74
357.44	228.75
357.82	228.82
358.20	228.90
358.58	229.00
358.97	229.06
359.35	229.13
359.73	229.24
360.11	229.30
360.49	229.36
360.87	229.43
361.25	229.49
361.63	229.58
362.01	229.62
362.39	229.63
362.77	229.61
363.15	229.64
363.53	229.68
363.91	229.68
364.29	229.68
364.67	229.58
365.05	229.58
365.43	229.58
365.81	229.60
366.19	229.65
366.57	229.66
366.95	229.63
367.33	229.59
367.71	229.54
368.09	229.54
368.47	229.51
368.85	229.47
369.23	229.46
369.61	229.37
369.99	229.36
370.37	229.33
370.75	229.36
371.13	229.28
371.51	229.20
371.89	229.18
372.27	229.14
372.65	229.07
373.03	229.03
373.41	228.97
373.78	228.89
374.16	228.77
374.54	228.70
374.92	228.62
375.30	228.58
375.68	228.51
376.06	228.44
376.44	228.40
376.82	228.33
377.19	228.26
377.57	228.20
377.95	228.12
378.33	228.02
378.71	227.89
379.09	227.86
379.47	227.82
379.84	227.70
380.22	227.59
380.60	227.52
380.98	227.44
381.36	227.39
381.73	227.32
382.11	227.23
382.49	227.17
382.87	227.10
383.25	227.03
383.62	227.09
384.00	227.00
384.38	226.95
384.76	226.94
385.13	226.91
385.51	226.84
385.89	226.76
386.27	226.75
386.64	226.69
387.02	226.62
387.40	226.59
387.78	226.55
388.15	226.53
388.53	226.50
388.91	226.48
389.29	226.43
389.66	226.42
390.04	226.42
390.42	226.40
390.79	226.40
391.17	226.40
391.55	226.30
391.92	226.33
392.30	226.34
392.68	226.31
393.05	226.32
393.43	226.35
393.81	226.38
394.18	226.36
394.56	226.42
394.94	226.49
395.31	226.50
395.69	226.60
396.06	226.66
396.44	226.70
396.82	226.72
397.19	226.83
397.57	226.87
397.95	226.93
398.32	226.98
398.70	227.05
399.07	227.12
399.45	227.17
399.82	227.21
400.20	227.28
400.58	227.36
400.95	227.39
401.33	227.50
401.70	227.68
402.08	227.78
402.45	227.90
402.83	227.99
403.20	228.10
403.58	228.21
403.95	228.31
404.33	228.46
404.71	228.60
405.08	228.78
405.46	228.91
405.83	229.09
406.21	229.26
406.58	229.41
406.96	229.59
407.33	229.77
407.70	229.98
408.08	230.22
408.45	230.41
408.83	230.64
409.20	230.88
409.58	231.04
409.95	231.32
410.33	231.60
410.70	231.87
411.08	232.19
411.45	232.48
411.82	232.79
412.20	233.16
412.57	233.58
412.95	233.87
413.32	234.27
413.69	234.64
414.07	235.05
414.44	235.52
414.82	235.95
415.19	236.50
415.56	237.04
415.94	237.58
416.31	238.23
416.68	238.85
417.06	239.52
417.43	240.18
417.81	240.94
418.18	241.70
418.55	242.52
418.93	243.38
419.30	244.30
419.67	245.24
420.04	246.15
420.42	247.16
420.79	248.34
421.16	249.49
421.54	250.71
421.91	251.92
422.28	253.20
422.66	254.58
423.03	255.90
423.40	257.20
423.77	258.62
424.15	260.04
424.52	261.55
424.89	263.16
425.26	264.73
425.64	266.18
426.01	267.78
426.38	269.41
426.75	271.07
427.13	272.76
427.50	274.58
427.87	276.46
428.24	278.33
428.61	280.08
428.99	282.06
429.36	284.19
429.73	286.27
430.10	288.27
430.47	290.29
430.85	292.40
431.22	294.71
431.59	297.10
431.96	299.35
432.33	301.86
432.70	304.25
433.08	307.07
433.45	309.71
433.82	312.33
434.19	315.24
434.56	318.06
434.93	320.71
435.30	323.37
435.68	326.29
436.05	329.10
436.42	331.87
436.79	334.37
437.16	337.06
437.53	339.89
437.90	342.76
438.27	345.54
438.64	348.39
439.01	350.95
439.38	353.16
439.75	355.36
440.13	357.85
440.50	360.23
440.87	362.07
441.24	364.02
441.61	366.16
441.98	367.66
442.35	369.46
442.72	371.39
443.09	373.20
443.46	374.20
443.83	374.83
444.20	375.41
444.57	376.29
444.94	376.61
445.31	376.97
445.68	377.28
446.05	377.38
446.42	377.00
446.79	376.61
447.16	376.21
447.53	375.87
447.90	374.68
448.27	373.52
448.64	371.98
449.01	370.85
449.37	368.90
449.74	367.03
450.11	364.80
450.48	362.30
450.85	359.72
451.22	357.54
451.59	355.47
451.96	353.47
452.33	350.86
452.70	348.48
453.07	345.63
453.43	342.74
453.80	340.01
454.17	337.32
454.54	334.75
454.91	332.00
455.28	329.34
455.65	326.89
456.02	324.40
456.38	322.25
456.75	319.60
457.12	317.34
457.49	315.11
457.86	312.95
458.23	311.08
458.59	309.06
458.96	307.00
459.33	305.18
459.70	303.32
460.07	301.78
460.43	300.05
460.80	298.42
461.17	296.96
461.54	295.40
461.91	293.94
462.27	292.48
462.64	291.28
463.01	289.88
463.38	288.55
463.74	287.23
464.11	286.07
464.48	285.03
464.85	283.92
465.21	283.01
465.58	282.06
465.95	280.96
466.32	280.03
466.68	279.13
467.05	278.20
467.42	277.30
467.78	276.35
468.15	275.45
468.52	274.75
468.88	273.89
469.25	273.11
469.62	272.48
469.98	271.79
470.35	271.10
470.72	270.51
471.08	269.84
471.45	269.23
471.82	268.64
472.18	268.03
472.55	267.56
472.92	267.03
473.28	266.56
473.65	266.09
474.02	265.62
474.38	265.24
474.75	264.93
475.11	264.58
475.48	264.30
475.85	264.06
476.21	263.82
476.58	263.62
476.94	263.48
477.31	263.34
477.67	263.16
478.04	263.04
478.41	262.98
478.77	263.00
479.14	262.93
479.50	262.93
479.87	262.96
480.23	263.02
480.60	263.09
480.96	263.20
481.33	263.39
481.69	263.60
482.06	263.77
482.42	263.95
482.79	264.20
483.15	264.52
483.52	264.90
483.88	265.23
484.25	265.63
484.61	266.05
484.98	266.47
485.34	267.06
485.71	267.62
486.07	268.19
486.44	268.75
486.80	269.45
487.17	270.20
487.53	271.06
487.90	271.93
488.26	272.88
488.62	273.87
488.99	274.86
489.35	275.91
489.72	277.05
490.08	278.28
490.44	279.49
490.81	280.83
491.17	282.17
491.54	283.72
491.90	285.24
492.26	286.89
492.63	288.64
492.99	290.44
493.36	292.35
493.72	294.44
494.08	296.56
494.45	298.82
494.81	301.18
495.17	303.56
495.54	306.14
495.90	308.81
496.26	311.58
496.63	314.50
496.99	317.59
497.35	320.86
497.72	324.20
498.08	327.78
498.44	331.43
498.80	335.33
499.17	339.31
499.53	343.48
499.89	347.82
500.26	352.30
500.62	356.92
500.98	361.88
501.34	366.94
501.71	372.33
502.07	377.77
502.43	383.34
502.79	389.16
503.16	395.17
503.52	401.44
503.88	407.84
504.24	414.55
504.60	421.45
504.97	428.52
505.33	435.87
505.69	443.51
506.05	451.27
506.41	459.16
506.78	467.35
507.14	475.81
507.50	484.54
507.86	493.53
508.22	502.74
508.59	511.99
508.95	521.54
509.31	531.27
509.67	541.35
510.03	551.63
510.39	562.19
510.75	573.04
511.12	584.00
511.48	595.25
511.84	606.63
512.20	618.18
512.56	630.17
512.92	642.29
513.28	654.60
513.64	667.15
514.00	679.90
514.37	692.81
514.73	705.84
515.09	718.87
515.45	732.20
515.81	745.81
516.17	759.80
516.53	774.00
516.89	788.23
517.25	802.39
517.61	816.92
517.97	831.38
518.33	845.79
518.69	860.61
519.05	875.73
519.41	891.01
519.77	906.51
520.13	922.01
520.49	937.43
520.85	952.98
521.21	968.68
521.57	985.01
521.93	1000.89
522.29	1017.39
522.65	1033.73
523.01	1049.98
523.37	1066.02
523.73	1082.17
524.09	1098.28
524.45	1114.58
524.81	1131.28
525.17	1148.10
525.53	1165.15
525.89	1182.10
526.25	1198.95
526.61	1215.34
526.97	1232.02
527.33	1248.52
527.68	1265.28
528.04	1281.87
528.40	1298.51
528.76	1315.65
529.12	1332.28
529.48	1349.27
529.84	1365.32
530.20	1382.10
530.56	1399.12
530.91	1416.51
531.27	1433.47
531.63	1449.83
531.99	1466.55
532.35	1482.62
532.71	1498.58
533.07	1514.83
533.42	1530.78
533.78	1546.79
534.14	1563.14
534.50	1578.59
534.86	1594.59
535.21	1609.66
535.57	1625.69
535.93	1641.30
536.29	1656.16
536.65	1671.23
537.00	1686.01
537.36	1701.34
537.72	1715.91
538.08	1730.46
538.44	1744.52
538.79	1758.41
539.15	1772.38
539.51	1786.26
539.87	1800.73
540.22	1814.64
540.58	1828.54
540.94	1842.03
541.29	1855.07
541.65	1867.89
542.01	1881.36
542.37	1893.69
542.72	1906.20
543.08	1917.91
543.44	1930.33
543.79	1941.62
544.15	1952.77
544.51	1964.33
544.87	1975.28
545.22	1986.16
545.58	1996.36
545.94	2006.21
546.29	2016.15
546.65	2026.04
547.01	2035.20
547.36	2043.98
547.72	2052.30
548.07	2060.18
548.43	2068.31
548.79	2076.41
549.14	2083.90
549.50	2091.25
549.86	2099.01
550.21	2106.46
550.57	2113.78
550.92	2120.37
551.28	2127.50
551.64	2134.48
551.99	2141.00
552.35	2147.27
552.70	2153.42
553.06	2159.28
553.41	2165.45
553.77	2171.47
554.13	2177.47
554.48	2183.55
554.84	2188.95
555.19	2194.41
555.55	2199.53
555.90	2204.01
556.26	2208.85
556.61	2213.54
556.97	2217.65
557.32	2221.74
557.68	2225.70
558.03	2230.05
558.39	2233.72
558.74	2238.20
559.10	2242.11
559.45	2245.85
559.81	2250.17
560.16	2253.86
560.52	2257.37
560.87	2260.88
561.23	2263.55
561.58	2266.65
561.94	2269.13
562.29	2271.64
562.64	2274.22
563.00	2276.85
563.35	2280.31
563.71	2283.47
564.06	2286.55
564.42	2289.44
564.77	2291.96
565.12	2294.29
565.48	2296.00
565.83	2297.86
566.19	2299.00
566.54	2299.89
566.89	2300.87
567.25	2301.28
567.60	2302.63
567.96	2304.09
568.31	2304.82
568.66	2305.73
569.02	2306.02
569.37	2306.40
569.72	2306.91
570.08	2306.81
570.43	2306.68
570.78	2305.87
571.14	2304.20
571.49	2302.92
571.84	2302.40
572.20	2300.96
572.55	2299.76
572.90	2298.23
573.26	2296.67
573.61	2295.15
573.96	2293.15
574.31	2290.08
574.67	2287.02
575.02	2283.23
575.37	2279.73
575.72	2275.78
576.08	2272.47
576.43	2269.08
576.78	2265.22
577.13	2262.19
577.49	2259.13
577.84	2255.53
578.19	2251.87
578.54	2248.08
578.90	2243.68
579.25	2238.12
579.60	2233.12
579.95	2228.01
580.30	2222.81
580.66	2217.60
581.01	2212.53
581.36	2207.55
581.71	2203.31
582.06	2198.76
582.42	2194.25
582.77	2188.88
583.12	2184.26
583.47	2179.31
583.82	2174.10
584.17	2168.84
584.53	2163.22
584.88	2157.50
585.23	2151.59
585.58	2146.04
585.93	2140.49
586.28	2135.75
586.63	2130.60
586.98	2125.54
587.34	2120.90
587.69	2116.04
588.04	2110.65
588.39	2104.79
588.74	2098.24
589.09	2092.01
589.44	2085.04
589.79	2078.92
590.14	2073.24
590.49	2066.64
590.84	2060.26
591.19	2054.29
591.54	2047.66
591.89	2039.99
592.25	2033.07
592.60	2025.84
592.95	2018.01
593.30	2010.60
593.65	2002.95
594.00	1995.97
594.35	1988.71
594.70	1980.50
595.05	1973.15
595.40	1965.78
595.75	1958.26
596.10	1951.95
596.45	1945.10
596.80	1939.04
597.15	1932.25
597.50	1925.16
597.85	1918.59
598.19	1911.80
598.54	1904.71
598.89	1898.12
599.24	1892.27
599.59	1885.47
599.94	1879.26
600.29	1873.03
600.64	1866.41
600.99	1858.82
601.34	1851.75
601.69	1844.74
602.04	1837.79
602.39	1830.32
602.74	1823.51
603.08	1816.72
603.43	1810.03
603.78	1802.80
604.13	1795.57
604.48	1788.15
604.83	1781.21
605.18	1774.10
605.53	1766.10
605.87	1758.09
606.22	1750.77
606.57	1742.68
606.92	1735.46
607.27	1728.14
607.62	1721.20
607.96	1713.91
608.31	1707.21
608.66	1699.48
609.01	1691.84
609.36	1684.28
609.70	1676.27
610.05	1668.12
610.40	1660.36
610.75	1651.97
611.10	1644.24
611.44	1635.83
611.79	1627.99
612.14	1619.36
612.49	1610.40
612.83	1602.05
613.18	1593.90
613.53	1585.80
613.88	1577.42
614.22	1569.16
614.57	1560.62
614.92	1552.53
615.27	1544.96
615.61	1536.71
615.96	1528.81
616.31	1521.27
616.65	1513.88
617.00	1506.39
617.35	1498.78
617.70	1490.36
618.04	1481.80
618.39	1473.55
618.74	1465.96
619.08	1457.65
619.43	1450.05
619.78	1443.06
620.12	1435.85
620.47	1428.25
620.82	1420.12
621.16	1412.64
621.51	1405.06
621.85	1397.37
622.20	1388.78
622.55	1380.50
622.89	1372.68
623.24	1365.17
623.59	1357.73
623.93	1350.29
624.28	1342.97
624.62	1335.41
624.97	1328.35
625.32	1321.64
625.66	1314.70
626.01	1307.45
626.35	1299.84
626.70	1292.15
627.04	1284.41
627.39	1276.69
627.73	1269.35
628.08	1262.45
628.43	1255.12
628.77	1247.62
629.12	1240.17
629.46	1233.09
629.81	1225.69
630.15	1218.43
630.50	1210.96
630.84	1202.86
631.19	1194.94
631.53	1187.51
631.88	1180.08
632.22	1172.52
632.57	1165.24
632.91	1157.68
633.26	1150.33
633.60	1143.18
633.95	1136.09
634.29	1129.22
634.64	1122.59
634.98	1115.28
635.32	1108.12
635.67	1101.64
636.01	1095.07
636.36	1088.25
636.70	1081.77
637.05	1075.16
637.39	1068.77
637.73	1062.22
638.08	1056.37
638.42	1050.34
638.77	1043.89
639.11	1037.24
639.45	1030.88
639.80	1024.28
640.14	1017.79
640.49	1011.26
640.83	1004.92
641.17	998.77
641.52	992.38
641.86	985.93
642.20	980.06
642.55	973.86
642.89	967.42
643.23	960.90
643.58	955.18
643.92	948.94
644.26	942.88
644.61	936.86
644.95	930.80
645.29	924.12
645.64	917.39
645.98	911.11
646.32	905.36
646.66	899.33
647.01	893.64
647.35	887.97
647.69	882.15
648.04	876.69
648.38	870.85
648.72	864.76
649.06	858.60
649.41	852.62
649.75	846.51
650.09	840.45
650.43	834.62
650.78	828.47
651.12	822.54
651.46	816.83
651.80	811.00
652.14	805.67
652.49	800.36
652.83	795.15
653.17	789.36
653.51	783.56
653.85	778.16
654.20	772.36
654.54	766.42
654.88	760.71
655.22	754.77
655.56	749.07
655.90	743.65
656.25	738.54
656.59	733.28
656.93	728.28
657.27	723.21
657.61	717.82
657.95	712.74
658.29	707.75
658.64	702.51
658.98	697.29
659.32	691.80
659.66	686.58
660.00	681.34
660.34	676.50
660.68	671.60
661.02	666.64
661.36	662.05
661.70	657.49
662.05	653.16
662.39	648.82
662.73	644.42
663.07	640.05
663.41	635.53
663.75	631.00
664.09	626.41
664.43	622.04
664.77	617.89
665.11	613.69
665.45	609.53
665.79	605.49
666.13	601.37
666.47	597.36
666.81	593.21
667.15	589.09
667.49	585.24
667.83	581.45
668.17	577.44
668.51	573.28
668.85	569.36
669.19	565.53
669.53	561.67
669.87	557.76
670.21	554.10
670.55	550.52
670.89	547.19
671.23	543.82
671.57	540.32
671.91	536.87
672.25	533.34
672.58	529.82
672.92	526.47
673.26	523.35
673.60	520.21
673.94	517.12
674.28	514.21
674.62	511.20
674.96	508.18
675.30	505.22
675.64	502.38
675.97	499.56
676.31	496.62
676.65	493.76
676.99	491.08
677.33	488.23
677.67	485.39
678.01	482.26
678.34	479.29
678.68	476.42
679.02	473.57
679.36	470.85
679.70	468.13
680.04	465.32
680.37	462.38
680.71	459.61
681.05	456.99
681.39	454.26
681.73	451.61
682.06	449.02
682.40	446.60
682.74	444.04
683.08	441.50
683.42	439.02
683.75	436.56
684.09	434.05
684.43	431.59
684.77	429.19
685.10	426.91
685.44	424.60
685.78	422.33
686.12	420.10
686.45	417.81
686.79	415.54
687.13	413.36
687.46	411.26
687.80	409.10
688.14	406.88
688.48	404.88
688.81	402.66
689.15	400.52
689.49	398.34
689.82	396.28
690.16	394.20
690.50	392.19
690.83	390.26
691.17	388.24
691.51	386.33
691.84	384.50
692.18	382.55
692.52	380.59
692.85	378.71
693.19	376.84
693.52	375.03
693.86	373.19
694.20	371.43
694.53	369.61
694.87	367.76
695.21	366.02
695.54	364.16
695.88	362.45
696.21	360.75
696.55	359.07
696.88	357.41
697.22	355.78
697.56	354.15
697.89	352.47
698.23	350.89
698.56	349.28
698.90	347.68
699.23	346.05
699.57	344.46
699.90	342.89
700.24	341.37
700.58	339.81
700.91	338.34
701.25	336.88
701.58	335.51
701.92	334.13
702.25	332.75
702.59	331.42
702.92	330.13
703.26	328.81
703.59	327.55
703.93	326.36
704.26	325.11
704.60	323.83
704.93	322.59
705.26	321.36
705.60	320.22
705.93	319.06
706.27	318.04
706.60	317.05
706.94	315.98
707.27	314.87
707.61	313.80
707.94	312.81
708.27	311.75
708.61	310.71
708.94	309.75
709.28	308.77
709.61	307.82
709.94	306.87
710.28	305.91
710.61	304.95
710.95	303.91
711.28	303.01
711.61	302.10
711.95	301.16
712.28	300.24
712.61	299.24
712.95	298.32
713.28	297.46
713.61	296.55
713.95	295.64
714.28	294.83
714.61	294.00
714.95	293.15
715.28	292.27
715.61	291.42
715.95	290.57
716.28	289.74
716.61	288.92
716.95	288.13
717.28	287.39
717.61	286.63
717.94	285.89
718.28	285.08
718.61	284.33
718.94	283.64
719.27	282.99
719.61	282.36
719.94	281.70
720.27	280.99
720.60	280.30
720.94	279.70
721.27	279.09
721.60	278.53
721.93	277.96
722.27	277.40
722.60	276.85
722.93	276.28
723.26	275.74
723.59	275.13
723.93	274.60
724.26	274.01
724.59	273.47
724.92	272.95
725.25	272.49
725.59	271.96
725.92	271.42
726.25	270.87
726.58	270.36
726.91	269.87
727.24	269.36
727.57	268.92
727.91	268.38
728.24	267.88
728.57	267.33
728.90	266.86
729.23	266.35
729.56	265.93
729.89	265.47
730.22	264.97
730.55	264.53
730.89	264.08
731.22	263.62
731.55	263.17
731.88	262.75
732.21	262.28
732.54	261.83
732.87	261.42
733.20	261.06
733.53	260.67
733.86	260.29
734.19	259.91
734.52	259.51
734.85	259.24
735.18	258.86
735.51	258.55
735.84	258.17
736.17	257.84
736.50	257.41
736.83	257.18
737.16	256.86
737.49	256.55
737.82	256.16
738.15	255.86
738.48	255.52
738.81	255.18
739.14	254.85
739.47	254.55
739.80	254.23
740.13	253.87
740.46	253.55
740.79	253.22
741.12	252.89
741.45	252.60
741.78	252.23
742.11	251.93
742.44	251.57
742.77	251.33
743.10	251.04
743.43	250.74
743.75	250.32
744.08	250.20
744.41	249.90
744.74	249.66
745.07	249.36
745.40	249.12
745.73	248.87
746.06	248.62
746.39	248.39
746.71	248.14
747.04	247.90
747.37	247.65
747.70	247.37
748.03	247.11
748.36	246.86
748.68	246.61
749.01	246.37
749.34	246.15
749.67	245.87
750.00	245.63
750.33	245.49
750.65	245.29
750.98	244.93
751.31	244.70
751.64	244.51
751.97	244.35
752.29	244.12
752.62	243.88
752.95	243.69
753.28	243.45
753.60	243.28
753.93	243.13
754.26	242.94
754.59	242.75
754.91	242.56
755.24	242.38
755.57	242.23
755.90	242.02
756.22	241.82
756.55	241.61
756.88	241.44
757.20	241.21
757.53	241.02
757.86	240.84
758.19	240.71
758.51	240.55
758.84	240.37
759.17	240.20
759.49	240.06
759.82	239.94
760.15	239.82
760.47	239.66
760.80	239.49
761.13	239.38
761.45	239.23
761.78	239.10
762.11	238.98
762.43	238.84
762.76	238.73
763.08	238.63
763.41	238.54
763.74	238.40
764.06	238.26
764.39	238.14
764.71	238.01
765.04	237.85
765.37	237.68
765.69	237.53
766.02	237.43
766.34	237.27
766.67	237.11
767.00	237.01
767.32	236.93
767.65	236.87
767.97	236.72
768.30	236.64
768.62	236.53
768.95	236.37
769.27	236.25
769.60	236.14
769.92	236.01
770.25	235.85
770.57	235.74
770.90	235.65
771.22	235.52
771.55	235.40
771.87	235.34
772.20	235.25
772.52	235.27
772.85	235.27
773.17	235.22
773.50	235.13
773.82	235.03
774.15	234.89
774.47	234.72
774.80	234.63
775.12	234.53
775.45	234.43
775.77	234.37
776.09	234.28
776.42	234.18
776.74	234.11
777.07	234.03
777.39	233.96
777.72	233.86
778.04	233.83
778.36	233.77
778.69	233.68
779.01	233.62
779.33	233.43
779.66	233.25
779.98	233.12
780.31	233.02
780.63	232.97
780.95	232.95
781.28	232.94
781.60	232.85
781.92	232.76
782.25	232.70
782.57	232.62
782.89	232.55
783.22	232.50
783.54	232.43
783.86	232.39
784.19	232.37
784.51	232.36
784.83	232.26
785.16	232.19
785.48	232.11
785.80	232.06
786.12	232.03
786.45	231.99
786.77	231.99
787.09	231.99
