SpectraSuite Data File
++++++++++++++++++++++++++++++++++++
Date: Fri Feb 01 15:25:00 EST 2013
User: group
Dark Spectrum Present: No
Reference Spectrum Present: No
Number of Sampled Component Spectra: 1
Spectrometers: USB2E7196
Integration Time (usec): 35000 (USB2E7196)
Spectra Averaged: 100 (USB2E7196)
Boxcar Smoothing: 10 (USB2E7196)
Correct for Electrical Dark: No (USB2E7196)
Strobe/Lamp Enabled: No (USB2E7196)
Correct for Detector Non-linearity: No (USB2E7196)
Correct for Stray Light: No (USB2E7196)
Number of Pixels in Processed Spectrum: 2048
>>>>>Begin Processed Spectral Data<<<<<
339.09	0.00
339.48	215.07
339.86	216.91
340.24	218.07
340.63	219.45
341.01	222.29
341.39	222.05
341.78	223.12
342.16	224.62
342.54	225.14
342.93	213.42
343.31	224.21
343.69	224.73
344.07	225.14
344.46	225.57
344.84	225.94
345.22	226.17
345.60	226.42
345.99	226.62
346.37	226.75
346.75	226.83
347.13	226.88
347.52	226.94
347.90	227.01
348.28	227.03
348.66	227.04
349.05	227.04
349.43	227.07
349.81	227.15
350.19	227.23
350.57	227.23
350.96	227.26
351.34	227.35
351.72	227.44
352.10	227.55
352.48	227.61
352.87	227.66
353.25	227.73
353.63	227.79
354.01	227.84
354.39	227.90
354.77	227.99
355.15	228.12
355.54	228.14
355.92	228.16
356.30	228.23
356.68	228.39
357.06	228.48
357.44	228.57
357.82	228.60
358.20	228.70
358.58	228.80
358.97	228.87
359.35	228.95
359.73	229.02
360.11	229.10
360.49	229.13
360.87	229.20
361.25	229.25
361.63	229.35
362.01	229.39
362.39	229.43
362.77	229.47
363.15	229.50
363.53	229.55
363.91	229.59
364.29	229.62
364.67	229.53
365.05	229.56
365.43	229.54
365.81	229.58
366.19	229.62
366.57	229.66
366.95	229.66
367.33	229.61
367.71	229.60
368.09	229.61
368.47	229.62
368.85	229.60
369.23	229.58
369.61	229.51
369.99	229.52
370.37	229.50
370.75	229.55
371.13	229.50
371.51	229.46
371.89	229.43
372.27	229.39
372.65	229.40
373.03	229.31
373.41	229.27
373.78	229.21
374.16	229.09
374.54	229.00
374.92	228.93
375.30	228.89
375.68	228.81
376.06	228.74
376.44	228.67
376.82	228.62
377.19	228.58
377.57	228.48
377.95	228.39
378.33	228.31
378.71	228.19
379.09	228.13
379.47	228.08
379.84	227.97
380.22	227.90
380.60	227.81
380.98	227.75
381.36	227.69
381.73	227.62
382.11	227.56
382.49	227.46
382.87	227.40
383.25	227.35
383.62	227.42
384.00	227.36
384.38	227.29
384.76	227.24
385.13	227.20
385.51	227.17
385.89	227.11
386.27	227.08
386.64	226.98
387.02	226.95
387.40	226.90
387.78	226.87
388.15	226.85
388.53	226.79
388.91	226.74
389.29	226.70
389.66	226.71
390.04	226.68
390.42	226.72
390.79	226.68
391.17	226.65
391.55	226.53
391.92	226.52
392.30	226.52
392.68	226.49
393.05	226.47
393.43	226.49
393.81	226.52
394.18	226.50
394.56	226.55
394.94	226.56
395.31	226.58
395.69	226.66
396.06	226.68
396.44	226.73
396.82	226.79
397.19	226.87
397.57	226.89
397.95	226.96
398.32	226.98
398.70	227.06
399.07	227.13
399.45	227.17
399.82	227.20
400.20	227.26
400.58	227.36
400.95	227.40
401.33	227.51
401.70	227.68
402.08	227.79
402.45	227.87
402.83	228.00
403.20	228.10
403.58	228.19
403.95	228.32
404.33	228.49
404.71	228.58
405.08	228.75
405.46	228.86
405.83	229.01
406.21	229.16
406.58	229.33
406.96	229.51
407.33	229.71
407.70	229.93
408.08	230.19
408.45	230.39
408.83	230.65
409.20	230.86
409.58	230.99
409.95	231.25
410.33	231.54
410.70	231.77
411.08	232.09
411.45	232.41
411.82	232.72
412.20	233.02
412.57	233.45
412.95	233.77
413.32	234.21
413.69	234.60
414.07	235.03
414.44	235.53
414.82	235.98
415.19	236.52
415.56	237.10
415.94	237.68
416.31	238.33
416.68	238.94
417.06	239.67
417.43	240.40
417.81	241.15
418.18	241.89
418.55	242.76
418.93	243.62
419.30	244.52
419.67	245.48
420.04	246.45
420.42	247.45
420.79	248.62
421.16	249.77
421.54	250.98
421.91	252.22
422.28	253.44
422.66	254.82
423.03	256.10
423.40	257.40
423.77	258.80
424.15	260.18
424.52	261.66
424.89	263.26
425.26	264.82
425.64	266.28
426.01	267.89
426.38	269.53
426.75	271.19
427.13	272.90
427.50	274.69
427.87	276.58
428.24	278.46
428.61	280.21
428.99	282.16
429.36	284.29
429.73	286.39
430.10	288.47
430.47	290.53
430.85	292.69
431.22	294.93
431.59	297.32
431.96	299.66
432.33	302.17
432.70	304.57
433.08	307.36
433.45	310.07
433.82	312.67
434.19	315.58
434.56	318.39
434.93	321.05
435.30	323.67
435.68	326.58
436.05	329.38
436.42	332.20
436.79	334.73
437.16	337.41
437.53	340.22
437.90	343.03
438.27	345.77
438.64	348.60
439.01	351.20
439.38	353.44
439.75	355.57
440.13	358.04
440.50	360.38
440.87	362.24
441.24	364.15
441.61	366.32
441.98	367.85
442.35	369.72
442.72	371.58
443.09	373.39
443.46	374.38
443.83	375.00
444.20	375.53
444.57	376.34
444.94	376.62
445.31	376.94
445.68	377.24
446.05	377.29
446.42	376.91
446.79	376.48
447.16	376.01
447.53	375.70
447.90	374.53
448.27	373.31
448.64	371.73
449.01	370.60
449.37	368.63
449.74	366.70
450.11	364.44
450.48	361.93
450.85	359.40
451.22	357.25
451.59	355.20
451.96	353.20
452.33	350.60
452.70	348.24
453.07	345.41
453.43	342.50
453.80	339.79
454.17	337.09
454.54	334.57
454.91	331.86
455.28	329.14
455.65	326.66
456.02	324.22
456.38	322.06
456.75	319.38
457.12	317.09
457.49	314.86
457.86	312.68
458.23	310.91
458.59	308.86
458.96	306.79
459.33	304.96
459.70	303.08
460.07	301.60
460.43	299.88
460.80	298.27
461.17	296.84
461.54	295.33
461.91	293.92
462.27	292.47
462.64	291.19
463.01	289.87
463.38	288.61
463.74	287.25
464.11	286.08
464.48	285.04
464.85	283.92
465.21	283.04
465.58	282.13
465.95	280.95
466.32	280.06
466.68	279.12
467.05	278.21
467.42	277.34
467.78	276.40
468.15	275.50
468.52	274.81
468.88	273.94
469.25	273.15
469.62	272.50
469.98	271.83
470.35	271.23
470.72	270.63
471.08	269.96
471.45	269.43
471.82	268.88
472.18	268.28
472.55	267.83
472.92	267.31
473.28	266.81
473.65	266.40
474.02	265.94
474.38	265.59
474.75	265.30
475.11	264.94
475.48	264.67
475.85	264.48
476.21	264.25
476.58	264.08
476.94	263.93
477.31	263.74
477.67	263.56
478.04	263.44
478.41	263.33
478.77	263.36
479.14	263.30
479.50	263.30
479.87	263.39
480.23	263.51
480.60	263.59
480.96	263.69
481.33	263.90
481.69	264.09
482.06	264.25
482.42	264.42
482.79	264.69
483.15	265.02
483.52	265.37
483.88	265.71
484.25	266.10
484.61	266.53
484.98	266.96
485.34	267.52
485.71	268.12
486.07	268.72
486.44	269.27
486.80	269.96
487.17	270.70
487.53	271.52
487.90	272.34
488.26	273.25
488.62	274.22
488.99	275.16
489.35	276.19
489.72	277.30
490.08	278.49
490.44	279.68
490.81	280.98
491.17	282.31
491.54	283.78
491.90	285.26
492.26	286.91
492.63	288.67
492.99	290.44
493.36	292.32
493.72	294.36
494.08	296.45
494.45	298.67
494.81	300.97
495.17	303.36
495.54	305.91
495.90	308.61
496.26	311.41
496.63	314.33
496.99	317.39
497.35	320.64
497.72	324.03
498.08	327.57
498.44	331.28
498.80	335.18
499.17	339.20
499.53	343.39
499.89	347.75
500.26	352.27
500.62	356.95
500.98	361.93
501.34	367.05
501.71	372.40
502.07	377.85
502.43	383.45
502.79	389.29
503.16	395.39
503.52	401.64
503.88	408.07
504.24	414.75
504.60	421.70
504.97	428.79
505.33	436.17
505.69	443.85
506.05	451.58
506.41	459.49
506.78	467.74
507.14	476.24
507.50	485.02
507.86	494.03
508.22	503.26
508.59	512.50
508.95	522.07
509.31	531.89
509.67	541.95
510.03	552.29
510.39	562.76
510.75	573.51
511.12	584.41
511.48	595.69
511.84	607.14
512.20	618.70
512.56	630.71
512.92	642.85
513.28	655.16
513.64	667.68
514.00	680.39
514.37	693.30
514.73	706.36
515.09	719.40
515.45	732.72
515.81	746.29
516.17	760.24
516.53	774.35
516.89	788.56
517.25	802.86
517.61	817.33
517.97	831.93
518.33	846.49
518.69	861.37
519.05	876.44
519.41	891.70
519.77	907.19
520.13	922.69
520.49	938.08
520.85	953.69
521.21	969.39
521.57	985.66
521.93	1001.43
522.29	1017.83
522.65	1034.13
523.01	1050.34
523.37	1066.45
523.73	1082.65
524.09	1098.83
524.45	1115.26
524.81	1131.98
525.17	1148.82
525.53	1165.79
525.89	1182.62
526.25	1199.52
526.61	1215.85
526.97	1232.63
527.33	1249.13
527.68	1265.84
528.04	1282.40
528.40	1299.05
528.76	1316.28
529.12	1332.88
529.48	1349.84
529.84	1365.91
530.20	1382.63
530.56	1399.71
530.91	1417.12
531.27	1433.96
531.63	1450.46
531.99	1467.07
532.35	1482.92
532.71	1498.96
533.07	1515.20
533.42	1531.16
533.78	1547.22
534.14	1563.64
534.50	1578.93
534.86	1595.08
535.21	1610.32
535.57	1626.34
535.93	1641.91
536.29	1656.71
536.65	1671.82
537.00	1686.71
537.36	1702.12
537.72	1716.68
538.08	1731.19
538.44	1745.03
538.79	1759.03
539.15	1772.86
539.51	1786.66
539.87	1801.20
540.22	1814.89
540.58	1828.75
540.94	1842.19
541.29	1855.20
541.65	1867.93
542.01	1881.44
542.37	1893.69
542.72	1906.14
543.08	1917.96
543.44	1930.28
543.79	1941.60
544.15	1952.75
544.51	1964.36
544.87	1975.34
545.22	1986.21
545.58	1996.48
545.94	2006.37
546.29	2016.19
546.65	2025.88
547.01	2035.13
547.36	2043.91
547.72	2052.46
548.07	2060.31
548.43	2068.64
548.79	2076.70
549.14	2084.32
549.50	2091.51
549.86	2099.28
550.21	2106.58
550.57	2113.76
550.92	2120.54
551.28	2127.57
551.64	2134.61
551.99	2141.19
552.35	2147.39
552.70	2153.39
553.06	2159.42
553.41	2165.74
553.77	2171.83
554.13	2177.99
554.48	2184.15
554.84	2189.61
555.19	2194.88
555.55	2200.01
555.90	2204.36
556.26	2209.06
556.61	2213.85
556.97	2218.11
557.32	2222.22
557.68	2226.43
558.03	2230.66
558.39	2234.36
558.74	2238.98
559.10	2242.82
559.45	2246.37
559.81	2250.76
560.16	2254.51
560.52	2257.83
560.87	2261.23
561.23	2263.90
561.58	2266.88
561.94	2269.36
562.29	2271.73
562.64	2274.46
563.00	2277.23
563.35	2280.72
563.71	2283.88
564.06	2286.91
564.42	2289.69
564.77	2292.19
565.12	2294.33
565.48	2296.11
565.83	2297.82
566.19	2298.96
566.54	2300.07
566.89	2301.19
567.25	2301.66
567.60	2303.20
567.96	2304.68
568.31	2305.49
568.66	2306.49
569.02	2307.10
569.37	2307.29
569.72	2308.01
570.08	2308.05
570.43	2307.93
570.78	2307.23
571.14	2305.73
571.49	2304.45
571.84	2304.13
572.20	2302.79
572.55	2301.66
572.90	2300.31
573.26	2298.83
573.61	2297.25
573.96	2295.26
574.31	2292.19
574.67	2289.09
575.02	2285.27
575.37	2281.77
575.72	2277.82
576.08	2274.45
576.43	2271.08
576.78	2267.36
577.13	2264.14
577.49	2260.99
577.84	2257.41
578.19	2253.57
578.54	2249.87
578.90	2245.46
579.25	2239.96
579.60	2234.97
579.95	2229.93
580.30	2224.79
580.66	2219.61
581.01	2214.55
581.36	2209.55
581.71	2205.25
582.06	2200.68
582.42	2196.17
582.77	2190.93
583.12	2186.29
583.47	2181.37
583.82	2176.15
584.17	2170.86
584.53	2165.42
584.88	2159.76
585.23	2153.91
585.58	2148.43
585.93	2142.93
586.28	2138.12
586.63	2132.87
586.98	2127.75
587.34	2123.04
587.69	2117.99
588.04	2112.67
588.39	2106.92
588.74	2100.37
589.09	2094.20
589.44	2087.34
589.79	2081.34
590.14	2075.59
590.49	2068.94
590.84	2062.61
591.19	2056.65
591.54	2050.07
591.89	2042.44
592.25	2035.49
592.60	2028.24
592.95	2020.70
593.30	2013.21
593.65	2005.57
594.00	1998.48
594.35	1991.23
594.70	1983.01
595.05	1975.67
595.40	1968.26
595.75	1960.69
596.10	1954.32
596.45	1947.43
596.80	1941.15
597.15	1934.32
597.50	1927.18
597.85	1920.89
598.19	1914.11
598.54	1906.75
598.89	1900.14
599.24	1894.23
599.59	1887.51
599.94	1881.26
600.29	1874.84
600.64	1868.14
600.99	1860.67
601.34	1853.83
601.69	1846.84
602.04	1839.80
602.39	1832.52
602.74	1825.70
603.08	1818.89
603.43	1812.18
603.78	1804.96
604.13	1797.78
604.48	1790.37
604.83	1783.59
605.18	1776.38
605.53	1768.29
605.87	1760.30
606.22	1752.94
606.57	1744.92
606.92	1737.59
607.27	1730.34
607.62	1723.38
607.96	1716.11
608.31	1709.39
608.66	1701.64
609.01	1693.90
609.36	1686.54
609.70	1678.55
610.05	1670.46
610.40	1662.70
610.75	1654.48
611.10	1646.82
611.44	1638.38
611.79	1630.56
612.14	1621.78
612.49	1612.66
612.83	1604.50
613.18	1596.45
613.53	1588.41
613.88	1579.87
614.22	1571.54
614.57	1562.97
614.92	1554.88
615.27	1547.28
615.61	1538.93
615.96	1531.07
616.31	1523.49
616.65	1516.05
617.00	1508.54
617.35	1500.89
617.70	1492.48
618.04	1483.91
618.39	1475.60
618.74	1468.06
619.08	1459.64
619.43	1452.21
619.78	1445.39
620.12	1438.14
620.47	1430.42
620.82	1422.30
621.16	1414.99
621.51	1407.41
621.85	1399.73
622.20	1391.19
622.55	1382.85
622.89	1375.10
623.24	1367.48
623.59	1360.19
623.93	1352.59
624.28	1345.16
624.62	1337.56
624.97	1330.50
625.32	1323.76
625.66	1316.71
626.01	1309.44
626.35	1302.06
626.70	1294.16
627.04	1286.32
627.39	1278.54
627.73	1271.29
628.08	1264.36
628.43	1256.99
628.77	1249.61
629.12	1242.03
629.46	1234.83
629.81	1227.47
630.15	1220.08
630.50	1212.58
630.84	1204.34
631.19	1196.58
631.53	1189.19
631.88	1181.63
632.22	1174.07
632.57	1166.69
632.91	1159.22
633.26	1151.86
633.60	1144.56
633.95	1137.56
634.29	1130.63
634.64	1124.00
634.98	1116.63
635.32	1109.44
635.67	1102.86
636.01	1096.24
636.36	1089.50
636.70	1083.06
637.05	1076.43
637.39	1070.12
637.73	1063.63
638.08	1057.78
638.42	1051.74
638.77	1045.27
639.11	1038.70
639.45	1032.32
639.80	1025.67
640.14	1019.23
640.49	1012.65
640.83	1006.30
641.17	999.98
641.52	993.56
641.86	987.14
642.20	981.28
642.55	975.06
642.89	968.56
643.23	962.03
643.58	956.18
643.92	949.94
644.26	943.82
644.61	937.82
644.95	931.75
645.29	925.15
645.64	918.40
645.98	912.05
646.32	906.23
646.66	900.24
647.01	894.38
647.35	888.70
647.69	882.97
648.04	877.45
648.38	871.66
648.72	865.66
649.06	859.54
649.41	853.72
649.75	847.63
650.09	841.69
650.43	835.88
650.78	829.74
651.12	823.84
651.46	818.22
651.80	812.37
652.14	806.95
652.49	801.46
652.83	796.29
653.17	790.64
653.51	784.90
653.85	779.46
654.20	773.85
654.54	767.85
654.88	762.00
655.22	756.10
655.56	750.44
655.90	745.01
656.25	739.76
656.59	734.36
656.93	729.34
657.27	724.16
657.61	718.71
657.95	713.72
658.29	708.63
658.64	703.36
658.98	698.12
659.32	692.68
659.66	687.56
660.00	682.26
660.34	677.28
660.68	672.40
661.02	667.38
661.36	662.67
661.70	658.22
662.05	653.94
662.39	649.59
662.73	645.13
663.07	640.74
663.41	636.26
663.75	631.77
664.09	627.22
664.43	622.84
664.77	618.75
665.11	614.43
665.45	610.29
665.79	606.24
666.13	602.10
666.47	598.07
666.81	593.86
667.15	589.67
667.49	585.81
667.83	581.98
668.17	578.01
668.51	573.91
668.85	569.85
669.19	566.04
669.53	562.20
669.87	558.31
670.21	554.60
670.55	550.99
670.89	547.53
671.23	544.09
671.57	540.61
671.91	537.08
672.25	533.58
672.58	530.10
672.92	526.65
673.26	523.53
673.60	520.37
673.94	517.35
674.28	514.43
674.62	511.50
674.96	508.30
675.30	505.47
675.64	502.65
675.97	499.86
676.31	497.01
676.65	494.11
676.99	491.43
677.33	488.56
677.67	485.70
678.01	482.70
678.34	479.74
678.68	476.84
679.02	473.99
679.36	471.24
679.70	468.51
680.04	465.80
680.37	462.92
680.71	460.20
681.05	457.54
681.39	454.85
681.73	452.18
682.06	449.77
682.40	447.11
682.74	444.51
683.08	441.99
683.42	439.34
683.75	436.81
684.09	434.25
684.43	431.82
684.77	429.36
685.10	427.05
685.44	424.72
685.78	422.46
686.12	420.24
686.45	417.94
686.79	415.63
687.13	413.49
687.46	411.30
687.80	409.11
688.14	406.93
688.48	404.91
688.81	402.65
689.15	400.48
689.49	398.39
689.82	396.37
690.16	394.29
690.50	392.34
690.83	390.40
691.17	388.44
691.51	386.59
691.84	384.82
692.18	382.87
692.52	380.91
692.85	378.98
693.19	377.13
693.52	375.37
693.86	373.59
694.20	371.78
694.53	370.02
694.87	368.19
695.21	366.42
695.54	364.60
695.88	362.93
696.21	361.22
696.55	359.53
696.88	357.88
697.22	356.23
697.56	354.62
697.89	352.99
698.23	351.46
698.56	349.81
698.90	348.21
699.23	346.56
699.57	345.04
699.90	343.56
700.24	342.04
700.58	340.42
700.91	338.93
701.25	337.47
701.58	336.12
701.92	334.77
702.25	333.41
702.59	332.04
702.92	330.71
703.26	329.41
703.59	328.16
703.93	326.95
704.26	325.71
704.60	324.44
704.93	323.17
705.26	321.86
705.60	320.71
705.93	319.52
706.27	318.52
706.60	317.45
706.94	316.31
707.27	315.16
707.61	314.14
707.94	313.11
708.27	312.04
708.61	310.93
708.94	309.92
709.28	308.96
709.61	308.05
709.94	307.06
710.28	306.02
710.61	305.05
710.95	303.99
711.28	303.05
711.61	302.10
711.95	301.18
712.28	300.25
712.61	299.24
712.95	298.33
713.28	297.47
713.61	296.58
713.95	295.70
714.28	294.88
714.61	294.02
714.95	293.18
715.28	292.31
715.61	291.44
715.95	290.59
716.28	289.71
716.61	288.85
716.95	288.05
717.28	287.37
717.61	286.61
717.94	285.84
718.28	285.03
718.61	284.27
718.94	283.59
719.27	282.89
719.61	282.24
719.94	281.57
720.27	280.85
720.60	280.18
720.94	279.56
721.27	278.96
721.60	278.40
721.93	277.78
722.27	277.23
722.60	276.70
722.93	276.14
723.26	275.59
723.59	275.02
723.93	274.45
724.26	273.83
724.59	273.29
724.92	272.79
725.25	272.32
725.59	271.86
725.92	271.38
726.25	270.88
726.58	270.40
726.91	269.90
727.24	269.40
727.57	268.95
727.91	268.48
728.24	268.04
728.57	267.54
728.90	267.12
729.23	266.60
729.56	266.17
729.89	265.69
730.22	265.20
730.55	264.74
730.89	264.34
731.22	263.90
731.55	263.45
731.88	263.04
732.21	262.65
732.54	262.21
732.87	261.77
733.20	261.39
733.53	260.99
733.86	260.63
734.19	260.26
734.52	259.88
734.85	259.55
735.18	259.10
735.51	258.76
735.84	258.37
736.17	258.04
736.50	257.65
736.83	257.42
737.16	257.11
737.49	256.80
737.82	256.47
738.15	256.14
738.48	255.82
738.81	255.49
739.14	255.14
739.47	254.80
739.80	254.48
740.13	254.18
740.46	253.86
740.79	253.51
741.12	253.20
741.45	252.88
741.78	252.51
742.11	252.27
742.44	251.91
742.77	251.64
743.10	251.34
743.43	251.03
743.75	250.65
744.08	250.48
744.41	250.21
744.74	249.94
745.07	249.69
745.40	249.44
745.73	249.22
746.06	248.92
746.39	248.65
746.71	248.40
747.04	248.09
747.37	247.84
747.70	247.60
748.03	247.34
748.36	247.07
748.68	246.84
749.01	246.56
749.34	246.34
749.67	246.07
750.00	245.84
750.33	245.68
750.65	245.46
750.98	245.10
751.31	244.85
751.64	244.58
751.97	244.39
752.29	244.14
752.62	243.85
752.95	243.67
753.28	243.46
753.60	243.26
753.93	243.11
754.26	242.90
754.59	242.65
754.91	242.45
755.24	242.27
755.57	242.05
755.90	241.88
756.22	241.70
756.55	241.51
756.88	241.33
757.20	241.08
757.53	240.88
757.86	240.73
758.19	240.56
758.51	240.41
758.84	240.18
759.17	240.01
759.49	239.87
759.82	239.74
760.15	239.58
760.47	239.37
760.80	239.20
761.13	239.06
761.45	238.95
761.78	238.80
762.11	238.64
762.43	238.52
762.76	238.36
763.08	238.22
763.41	238.10
763.74	237.97
764.06	237.83
764.39	237.71
764.71	237.54
765.04	237.41
765.37	237.24
765.69	237.09
766.02	236.97
766.34	236.85
766.67	236.69
767.00	236.61
767.32	236.57
767.65	236.50
767.97	236.41
768.30	236.31
768.62	236.20
768.95	236.09
769.27	235.96
769.60	235.85
769.92	235.72
770.25	235.62
770.57	235.48
770.90	235.40
771.22	235.29
771.55	235.22
771.87	235.14
772.20	235.06
772.52	235.08
772.85	235.11
773.17	235.03
773.50	234.94
773.82	234.80
774.15	234.68
774.47	234.54
774.80	234.41
775.12	234.33
775.45	234.25
775.77	234.20
776.09	234.12
776.42	234.07
776.74	234.00
777.07	233.93
777.39	233.86
777.72	233.77
778.04	233.70
778.36	233.65
778.69	233.58
779.01	233.56
779.33	233.41
779.66	233.23
779.98	233.12
780.31	233.08
780.63	233.05
780.95	232.99
781.28	232.92
781.60	232.86
781.92	232.77
782.25	232.75
782.57	232.67
782.89	232.64
783.22	232.56
783.54	232.52
783.86	232.47
784.19	232.42
784.51	232.38
784.83	232.32
785.16	232.26
785.48	232.20
785.80	232.15
786.12	232.09
786.45	232.04
786.77	232.04
787.09	231.99
