SpectraSuite Data File
++++++++++++++++++++++++++++++++++++
Date: Fri Feb 01 14:57:27 EST 2013
User: group
Dark Spectrum Present: No
Reference Spectrum Present: No
Number of Sampled Component Spectra: 1
Spectrometers: USB2E7196
Integration Time (usec): 35000 (USB2E7196)
Spectra Averaged: 100 (USB2E7196)
Boxcar Smoothing: 10 (USB2E7196)
Correct for Electrical Dark: No (USB2E7196)
Strobe/Lamp Enabled: No (USB2E7196)
Correct for Detector Non-linearity: No (USB2E7196)
Correct for Stray Light: No (USB2E7196)
Number of Pixels in Processed Spectrum: 2048
>>>>>Begin Processed Spectral Data<<<<<
339.09	0.00
339.48	214.89
339.86	216.56
340.24	218.27
340.63	219.43
341.01	222.72
341.39	222.21
341.78	223.19
342.16	224.58
342.54	224.63
342.93	213.46
343.31	224.23
343.69	224.78
344.07	225.25
344.46	225.64
344.84	226.03
345.22	226.25
345.60	226.50
345.99	226.70
346.37	226.83
346.75	226.94
347.13	226.98
347.52	227.01
347.90	227.05
348.28	227.08
348.66	227.11
349.05	227.09
349.43	227.09
349.81	227.10
350.19	227.17
350.57	227.22
350.96	227.31
351.34	227.41
351.72	227.48
352.10	227.59
352.48	227.67
352.87	227.73
353.25	227.78
353.63	227.82
354.01	227.86
354.39	227.93
354.77	227.99
355.15	228.10
355.54	228.16
355.92	228.23
356.30	228.29
356.68	228.45
357.06	228.55
357.44	228.65
357.82	228.74
358.20	228.82
358.58	228.89
358.97	228.93
359.35	229.01
359.73	229.10
360.11	229.11
360.49	229.17
360.87	229.22
361.25	229.29
361.63	229.41
362.01	229.48
362.39	229.49
362.77	229.55
363.15	229.62
363.53	229.66
363.91	229.64
364.29	229.65
364.67	229.57
365.05	229.58
365.43	229.62
365.81	229.63
366.19	229.63
366.57	229.65
366.95	229.63
367.33	229.58
367.71	229.58
368.09	229.61
368.47	229.57
368.85	229.55
369.23	229.55
369.61	229.47
369.99	229.45
370.37	229.44
370.75	229.46
371.13	229.38
371.51	229.34
371.89	229.32
372.27	229.29
372.65	229.23
373.03	229.17
373.41	229.07
373.78	229.02
374.16	228.92
374.54	228.84
374.92	228.79
375.30	228.74
375.68	228.63
376.06	228.58
376.44	228.53
376.82	228.41
377.19	228.31
377.57	228.19
377.95	228.06
378.33	227.98
378.71	227.83
379.09	227.74
379.47	227.68
379.84	227.59
380.22	227.52
380.60	227.44
380.98	227.38
381.36	227.31
381.73	227.21
382.11	227.17
382.49	227.11
382.87	227.00
383.25	226.90
383.62	226.96
384.00	226.83
384.38	226.75
384.76	226.73
385.13	226.74
385.51	226.70
385.89	226.65
386.27	226.62
386.64	226.59
387.02	226.54
387.40	226.49
387.78	226.45
388.15	226.40
388.53	226.35
388.91	226.31
389.29	226.26
389.66	226.24
390.04	226.19
390.42	226.18
390.79	226.19
391.17	226.18
391.55	226.06
391.92	226.04
392.30	226.04
392.68	226.01
393.05	225.94
393.43	225.94
393.81	225.94
394.18	225.92
394.56	225.95
394.94	225.97
395.31	225.99
395.69	226.05
396.06	226.11
396.44	226.10
396.82	226.14
397.19	226.25
397.57	226.27
397.95	226.34
398.32	226.39
398.70	226.46
399.07	226.54
399.45	226.60
399.82	226.68
400.20	226.75
400.58	226.86
400.95	226.94
401.33	227.08
401.70	227.28
402.08	227.41
402.45	227.51
402.83	227.64
403.20	227.77
403.58	227.88
403.95	228.03
404.33	228.22
404.71	228.35
405.08	228.56
405.46	228.74
405.83	228.89
406.21	229.03
406.58	229.21
406.96	229.38
407.33	229.62
407.70	229.86
408.08	230.17
408.45	230.39
408.83	230.67
409.20	230.90
409.58	231.08
409.95	231.34
410.33	231.61
410.70	231.88
411.08	232.23
411.45	232.54
411.82	232.81
412.20	233.20
412.57	233.62
412.95	233.93
413.32	234.35
413.69	234.76
414.07	235.20
414.44	235.65
414.82	236.18
415.19	236.69
415.56	237.24
415.94	237.81
416.31	238.43
416.68	239.04
417.06	239.76
417.43	240.48
417.81	241.24
418.18	242.04
418.55	242.90
418.93	243.77
419.30	244.68
419.67	245.66
420.04	246.62
420.42	247.63
420.79	248.82
421.16	249.99
421.54	251.20
421.91	252.44
422.28	253.70
422.66	255.01
423.03	256.33
423.40	257.67
423.77	259.04
424.15	260.47
424.52	261.98
424.89	263.56
425.26	265.08
425.64	266.54
426.01	268.13
426.38	269.75
426.75	271.39
427.13	273.07
427.50	274.84
427.87	276.71
428.24	278.57
428.61	280.31
428.99	282.23
429.36	284.33
429.73	286.41
430.10	288.43
430.47	290.49
430.85	292.62
431.22	294.83
431.59	297.22
431.96	299.51
432.33	301.95
432.70	304.32
433.08	307.13
433.45	309.75
433.82	312.34
434.19	315.26
434.56	318.05
434.93	320.75
435.30	323.38
435.68	326.28
436.05	329.07
436.42	331.84
436.79	334.32
437.16	337.04
437.53	339.88
437.90	342.70
438.27	345.45
438.64	348.26
439.01	350.87
439.38	353.09
439.75	355.26
440.13	357.75
440.50	360.09
440.87	361.95
441.24	363.91
441.61	366.06
441.98	367.52
442.35	369.31
442.72	371.11
443.09	372.89
443.46	373.82
443.83	374.44
444.20	374.96
444.57	375.84
444.94	376.10
445.31	376.42
445.68	376.78
446.05	376.84
446.42	376.46
446.79	376.00
447.16	375.62
447.53	375.24
447.90	374.07
448.27	372.90
448.64	371.33
449.01	370.17
449.37	368.26
449.74	366.39
450.11	364.16
450.48	361.71
450.85	359.22
451.22	357.11
451.59	355.07
451.96	353.11
452.33	350.51
452.70	348.15
453.07	345.28
453.43	342.37
453.80	339.64
454.17	336.99
454.54	334.45
454.91	331.68
455.28	329.04
455.65	326.57
456.02	324.13
456.38	321.98
456.75	319.34
457.12	317.05
457.49	314.84
457.86	312.68
458.23	310.84
458.59	308.80
458.96	306.75
459.33	304.92
459.70	303.08
460.07	301.58
460.43	299.84
460.80	298.21
461.17	296.80
461.54	295.27
461.91	293.83
462.27	292.43
462.64	291.16
463.01	289.85
463.38	288.59
463.74	287.22
464.11	286.06
464.48	285.03
464.85	283.95
465.21	283.06
465.58	282.15
465.95	281.07
466.32	280.15
466.68	279.23
467.05	278.33
467.42	277.42
467.78	276.50
468.15	275.62
468.52	274.99
468.88	274.14
469.25	273.32
469.62	272.69
469.98	272.01
470.35	271.37
470.72	270.73
471.08	270.03
471.45	269.47
471.82	268.92
472.18	268.33
472.55	267.86
472.92	267.32
473.28	266.80
473.65	266.30
474.02	265.84
474.38	265.45
474.75	265.07
475.11	264.71
475.48	264.40
475.85	264.14
476.21	263.89
476.58	263.68
476.94	263.54
477.31	263.35
477.67	263.14
478.04	263.02
478.41	262.92
478.77	262.93
479.14	262.88
479.50	262.88
479.87	262.92
480.23	263.00
480.60	263.03
480.96	263.13
481.33	263.33
481.69	263.55
482.06	263.73
482.42	263.95
482.79	264.20
483.15	264.49
483.52	264.87
483.88	265.20
484.25	265.54
484.61	265.97
484.98	266.37
485.34	266.91
485.71	267.50
486.07	268.09
486.44	268.65
486.80	269.34
487.17	270.02
487.53	270.81
487.90	271.60
488.26	272.54
488.62	273.52
488.99	274.49
489.35	275.47
489.72	276.55
490.08	277.75
490.44	278.96
490.81	280.27
491.17	281.55
491.54	283.01
491.90	284.57
492.26	286.18
492.63	287.98
492.99	289.75
493.36	291.63
493.72	293.61
494.08	295.70
494.45	297.92
494.81	300.26
495.17	302.64
495.54	305.20
495.90	307.85
496.26	310.62
496.63	313.58
496.99	316.68
497.35	319.95
497.72	323.29
498.08	326.83
498.44	330.50
498.80	334.45
499.17	338.45
499.53	342.55
499.89	346.89
500.26	351.33
500.62	356.00
500.98	360.90
501.34	366.06
501.71	371.37
502.07	376.78
502.43	382.36
502.79	388.21
503.16	394.28
503.52	400.55
503.88	406.95
504.24	413.51
504.60	420.40
504.97	427.48
505.33	434.82
505.69	442.45
506.05	450.23
506.41	458.06
506.78	466.24
507.14	474.73
507.50	483.50
507.86	492.51
508.22	501.68
508.59	510.88
508.95	520.42
509.31	530.22
509.67	540.33
510.03	550.62
510.39	561.18
510.75	571.94
511.12	582.86
511.48	594.14
511.84	605.61
512.20	617.07
512.56	629.04
512.92	641.20
513.28	653.50
513.64	665.99
514.00	678.81
514.37	691.71
514.73	704.70
515.09	717.70
515.45	730.92
515.81	744.46
516.17	758.41
516.53	772.53
516.89	786.68
517.25	800.84
517.61	815.29
517.97	829.72
518.33	844.22
518.69	859.08
519.05	874.18
519.41	889.43
519.77	905.03
520.13	920.51
520.49	936.00
520.85	951.56
521.21	967.34
521.57	983.50
521.93	999.33
522.29	1015.82
522.65	1032.16
523.01	1048.59
523.37	1064.73
523.73	1080.96
524.09	1097.10
524.45	1113.51
524.81	1130.35
525.17	1147.26
525.53	1164.23
525.89	1181.09
526.25	1197.94
526.61	1214.27
526.97	1230.95
527.33	1247.47
527.68	1264.12
528.04	1280.56
528.40	1297.23
528.76	1314.42
529.12	1331.16
529.48	1348.06
529.84	1364.13
530.20	1380.87
530.56	1397.84
530.91	1415.29
531.27	1432.06
531.63	1448.63
531.99	1465.33
532.35	1481.39
532.71	1497.36
533.07	1513.69
533.42	1529.76
533.78	1545.74
534.14	1562.19
534.50	1577.72
534.86	1593.73
535.21	1609.03
535.57	1625.05
535.93	1640.66
536.29	1655.46
536.65	1670.65
537.00	1685.60
537.36	1701.06
537.72	1715.83
538.08	1730.41
538.44	1744.37
538.79	1758.52
539.15	1772.38
539.51	1786.19
539.87	1800.54
540.22	1814.39
540.58	1828.40
540.94	1841.88
541.29	1855.21
541.65	1867.92
542.01	1881.25
542.37	1893.59
542.72	1906.15
543.08	1918.06
543.44	1930.52
543.79	1941.80
544.15	1952.81
544.51	1964.40
544.87	1975.40
545.22	1986.05
545.58	1996.30
545.94	2006.12
546.29	2016.05
546.65	2025.80
547.01	2034.99
547.36	2043.78
547.72	2052.20
548.07	2059.89
548.43	2068.03
548.79	2075.81
549.14	2083.33
549.50	2090.75
549.86	2098.57
550.21	2105.72
550.57	2112.95
550.92	2119.39
551.28	2126.47
551.64	2133.46
551.99	2139.96
552.35	2145.96
552.70	2152.11
553.06	2157.91
553.41	2164.20
553.77	2170.14
554.13	2176.18
554.48	2182.36
554.84	2187.65
555.19	2192.99
555.55	2198.15
555.90	2202.52
556.26	2207.34
556.61	2212.07
556.97	2216.00
557.32	2220.04
557.68	2224.20
558.03	2228.48
558.39	2232.31
558.74	2236.90
559.10	2240.72
559.45	2244.36
559.81	2248.66
560.16	2252.35
560.52	2255.57
560.87	2258.90
561.23	2261.55
561.58	2264.60
561.94	2266.91
562.29	2269.26
562.64	2271.74
563.00	2274.35
563.35	2277.74
563.71	2280.80
564.06	2283.93
564.42	2286.79
564.77	2289.03
565.12	2291.10
565.48	2292.79
565.83	2294.32
566.19	2295.33
566.54	2296.23
566.89	2297.20
567.25	2297.65
567.60	2298.90
567.96	2300.51
568.31	2301.27
568.66	2302.00
569.02	2302.33
569.37	2302.53
569.72	2303.18
570.08	2303.00
570.43	2302.80
570.78	2301.95
571.14	2300.23
571.49	2298.73
571.84	2298.36
572.20	2297.07
572.55	2296.13
572.90	2294.37
573.26	2292.89
573.61	2291.17
573.96	2289.09
574.31	2285.99
574.67	2282.85
575.02	2279.13
575.37	2275.56
575.72	2271.47
576.08	2268.18
576.43	2264.69
576.78	2260.90
577.13	2257.69
577.49	2254.60
577.84	2250.99
578.19	2247.31
578.54	2243.49
578.90	2239.10
579.25	2233.32
579.60	2228.27
579.95	2222.84
580.30	2217.74
580.66	2212.58
581.01	2207.52
581.36	2202.57
581.71	2198.17
582.06	2193.54
582.42	2188.84
582.77	2183.49
583.12	2178.79
583.47	2173.62
583.82	2168.45
584.17	2163.09
584.53	2157.40
584.88	2151.68
585.23	2145.68
585.58	2140.13
585.93	2134.62
586.28	2129.73
586.63	2124.49
586.98	2119.36
587.34	2114.65
587.69	2109.62
588.04	2104.06
588.39	2098.16
588.74	2091.55
589.09	2085.38
589.44	2078.41
589.79	2072.29
590.14	2066.46
590.49	2059.75
590.84	2053.38
591.19	2047.34
591.54	2040.76
591.89	2033.16
592.25	2026.06
592.60	2018.66
592.95	2010.79
593.30	2003.32
593.65	1995.50
594.00	1988.51
594.35	1981.11
594.70	1973.02
595.05	1965.67
595.40	1958.31
595.75	1950.62
596.10	1944.28
596.45	1937.20
596.80	1931.00
597.15	1924.28
597.50	1917.02
597.85	1910.65
598.19	1903.92
598.54	1896.72
598.89	1889.97
599.24	1884.04
599.59	1877.45
599.94	1871.28
600.29	1864.86
600.64	1858.26
600.99	1850.71
601.34	1843.73
601.69	1836.74
602.04	1829.64
602.39	1822.23
602.74	1815.28
603.08	1808.71
603.43	1801.93
603.78	1794.86
604.13	1787.48
604.48	1780.03
604.83	1773.40
605.18	1766.29
605.53	1758.32
605.87	1750.20
606.22	1743.04
606.57	1735.13
606.92	1727.79
607.27	1720.55
607.62	1713.68
607.96	1706.41
608.31	1699.91
608.66	1692.32
609.01	1684.87
609.36	1677.44
609.70	1669.43
610.05	1661.41
610.40	1653.66
610.75	1645.42
611.10	1637.69
611.44	1629.57
611.79	1621.75
612.14	1612.99
612.49	1603.94
612.83	1595.63
613.18	1587.59
613.53	1579.44
613.88	1571.03
614.22	1562.77
614.57	1554.34
614.92	1546.27
615.27	1538.65
615.61	1530.36
615.96	1522.31
616.31	1514.65
616.65	1507.32
617.00	1499.79
617.35	1492.21
617.70	1483.90
618.04	1475.48
618.39	1467.29
618.74	1459.64
619.08	1451.36
619.43	1443.84
619.78	1436.97
620.12	1429.78
620.47	1422.26
620.82	1414.09
621.16	1406.78
621.51	1399.32
621.85	1391.78
622.20	1383.36
622.55	1375.23
622.89	1367.48
623.24	1360.09
623.59	1352.72
623.93	1345.29
624.28	1338.17
624.62	1330.82
624.97	1323.71
625.32	1316.95
625.66	1310.03
626.01	1302.93
626.35	1295.41
626.70	1287.76
627.04	1280.05
627.39	1272.41
627.73	1265.08
628.08	1258.27
628.43	1250.82
628.77	1243.45
629.12	1235.89
629.46	1228.75
629.81	1221.40
630.15	1214.24
630.50	1206.76
630.84	1198.60
631.19	1190.64
631.53	1183.10
631.88	1175.56
632.22	1168.02
632.57	1160.77
632.91	1153.32
633.26	1145.84
633.60	1138.67
633.95	1131.61
634.29	1124.67
634.64	1118.09
634.98	1110.76
635.32	1103.74
635.67	1097.36
636.01	1090.72
636.36	1083.97
636.70	1077.51
637.05	1070.94
637.39	1064.46
637.73	1058.03
638.08	1052.32
638.42	1046.38
638.77	1040.03
639.11	1033.38
639.45	1027.01
639.80	1020.45
640.14	1013.97
640.49	1007.56
640.83	1001.31
641.17	995.08
641.52	988.80
641.86	982.41
642.20	976.68
642.55	970.52
642.89	963.99
643.23	957.55
643.58	951.73
643.92	945.61
644.26	939.51
644.61	933.52
644.95	927.45
645.29	920.78
645.64	914.13
645.98	907.90
646.32	902.08
646.66	896.09
647.01	890.28
647.35	884.65
647.69	878.85
648.04	873.34
648.38	867.57
648.72	861.60
649.06	855.55
649.41	849.58
649.75	843.50
650.09	837.60
650.43	831.88
650.78	825.78
651.12	819.83
651.46	814.16
651.80	808.37
652.14	803.05
652.49	797.75
652.83	792.53
653.17	786.88
653.51	781.26
653.85	775.96
654.20	770.34
654.54	764.35
654.88	758.69
655.22	752.84
655.56	747.15
655.90	741.71
656.25	736.51
656.59	731.29
656.93	726.25
657.27	721.09
657.61	715.61
657.95	710.62
658.29	705.57
658.64	700.35
658.98	695.23
659.32	689.82
659.66	684.70
660.00	679.40
660.34	674.47
660.68	669.59
661.02	664.52
661.36	659.83
661.70	655.40
662.05	651.00
662.39	646.65
662.73	642.28
663.07	637.96
663.41	633.52
663.75	628.97
664.09	624.41
664.43	620.13
664.77	616.07
665.11	611.88
665.45	607.84
665.79	603.78
666.13	599.65
666.47	595.52
666.81	591.31
667.15	587.27
667.49	583.43
667.83	579.65
668.17	575.78
668.51	571.73
668.85	567.77
669.19	563.99
669.53	560.18
669.87	556.35
670.21	552.66
670.55	549.08
670.89	545.78
671.23	542.41
671.57	538.97
671.91	535.50
672.25	532.02
672.58	528.50
672.92	525.20
673.26	522.06
673.60	519.03
673.94	515.99
674.28	513.16
674.62	510.23
674.96	507.12
675.30	504.22
675.64	501.33
675.97	498.60
676.31	495.74
676.65	492.87
676.99	490.21
677.33	487.33
677.67	484.48
678.01	481.39
678.34	478.44
678.68	475.52
679.02	472.65
679.36	469.90
679.70	467.21
680.04	464.43
680.37	461.54
680.71	458.79
681.05	456.22
681.39	453.49
681.73	450.87
682.06	448.33
682.40	445.81
682.74	443.33
683.08	440.80
683.42	438.23
683.75	435.74
684.09	433.18
684.43	430.83
684.77	428.43
685.10	426.17
685.44	423.88
685.78	421.65
686.12	419.46
686.45	417.15
686.79	414.89
687.13	412.72
687.46	410.59
687.80	408.45
688.14	406.22
688.48	404.22
688.81	401.94
689.15	399.88
689.49	397.73
689.82	395.69
690.16	393.55
690.50	391.61
690.83	389.68
691.17	387.75
691.51	385.79
691.84	383.96
692.18	382.02
692.52	380.05
692.85	378.14
693.19	376.31
693.52	374.52
693.86	372.72
694.20	370.95
694.53	369.14
694.87	367.31
695.21	365.53
695.54	363.71
695.88	362.01
696.21	360.29
696.55	358.64
696.88	356.95
697.22	355.35
697.56	353.77
697.89	352.10
698.23	350.50
698.56	348.89
698.90	347.23
699.23	345.54
699.57	344.00
699.90	342.42
700.24	340.86
700.58	339.32
700.91	337.84
701.25	336.42
701.58	335.08
701.92	333.73
702.25	332.35
702.59	331.00
702.92	329.70
703.26	328.42
703.59	327.14
703.93	325.98
704.26	324.75
704.60	323.43
704.93	322.22
705.26	320.98
705.60	319.85
705.93	318.79
706.27	317.80
706.60	316.75
706.94	315.70
707.27	314.58
707.61	313.51
707.94	312.53
708.27	311.42
708.61	310.35
708.94	309.38
709.28	308.43
709.61	307.49
709.94	306.55
710.28	305.50
710.61	304.55
710.95	303.47
711.28	302.59
711.61	301.68
711.95	300.77
712.28	299.82
712.61	298.82
712.95	297.90
713.28	297.05
713.61	296.21
713.95	295.31
714.28	294.49
714.61	293.68
714.95	292.82
715.28	291.97
715.61	291.09
715.95	290.24
716.28	289.36
716.61	288.54
716.95	287.75
717.28	287.03
717.61	286.23
717.94	285.49
718.28	284.71
718.61	283.97
718.94	283.26
719.27	282.64
719.61	282.02
719.94	281.35
720.27	280.63
720.60	279.97
720.94	279.39
721.27	278.77
721.60	278.18
721.93	277.60
722.27	277.07
722.60	276.54
722.93	275.95
723.26	275.46
723.59	274.90
723.93	274.32
724.26	273.80
724.59	273.28
724.92	272.82
725.25	272.28
725.59	271.78
725.92	271.30
726.25	270.78
726.58	270.25
726.91	269.71
727.24	269.24
727.57	268.75
727.91	268.22
728.24	267.79
728.57	267.30
728.90	266.83
729.23	266.32
729.56	265.92
729.89	265.48
730.22	264.98
730.55	264.48
730.89	264.06
731.22	263.58
731.55	263.15
731.88	262.67
732.21	262.24
732.54	261.79
732.87	261.32
733.20	260.92
733.53	260.57
733.86	260.24
734.19	259.86
734.52	259.50
734.85	259.22
735.18	258.76
735.51	258.41
735.84	258.03
736.17	257.69
736.50	257.25
736.83	257.00
737.16	256.65
737.49	256.33
737.82	255.94
738.15	255.60
738.48	255.24
738.81	254.92
739.14	254.62
739.47	254.30
739.80	254.07
740.13	253.77
740.46	253.40
740.79	253.06
741.12	252.74
741.45	252.43
741.78	252.03
742.11	251.82
742.44	251.48
742.77	251.19
743.10	250.89
743.43	250.62
743.75	250.23
744.08	250.08
744.41	249.83
744.74	249.59
745.07	249.33
745.40	249.11
745.73	248.87
746.06	248.60
746.39	248.37
746.71	248.06
747.04	247.75
747.37	247.49
747.70	247.28
748.03	247.02
748.36	246.76
748.68	246.55
749.01	246.27
749.34	246.06
749.67	245.84
750.00	245.65
750.33	245.48
750.65	245.29
750.98	244.94
751.31	244.71
751.64	244.51
751.97	244.35
752.29	244.16
752.62	243.89
752.95	243.69
753.28	243.48
753.60	243.31
753.93	243.18
754.26	243.02
754.59	242.80
754.91	242.60
755.24	242.40
755.57	242.21
755.90	242.06
756.22	241.88
756.55	241.68
756.88	241.45
757.20	241.25
757.53	241.06
757.86	240.93
758.19	240.77
758.51	240.61
758.84	240.37
759.17	240.21
759.49	240.11
759.82	240.01
760.15	239.88
760.47	239.69
760.80	239.51
761.13	239.35
761.45	239.18
761.78	239.05
762.11	238.94
762.43	238.83
762.76	238.67
763.08	238.52
763.41	238.40
763.74	238.30
764.06	238.14
764.39	238.00
764.71	237.87
765.04	237.71
765.37	237.58
765.69	237.49
766.02	237.36
766.34	237.20
766.67	237.06
767.00	236.93
767.32	236.88
767.65	236.82
767.97	236.76
768.30	236.68
768.62	236.56
768.95	236.42
769.27	236.29
769.60	236.22
769.92	236.14
770.25	236.02
770.57	235.89
770.90	235.80
771.22	235.68
771.55	235.58
771.87	235.51
772.20	235.38
772.52	235.38
772.85	235.39
773.17	235.28
773.50	235.19
773.82	235.06
774.15	234.91
774.47	234.76
774.80	234.64
775.12	234.49
775.45	234.41
775.77	234.31
776.09	234.23
776.42	234.13
776.74	234.05
777.07	233.97
777.39	233.90
777.72	233.80
778.04	233.76
778.36	233.66
778.69	233.61
779.01	233.57
779.33	233.40
779.66	233.22
779.98	233.15
780.31	233.05
780.63	233.06
780.95	233.02
781.28	232.96
781.60	232.86
781.92	232.88
782.25	232.82
782.57	232.77
782.89	232.71
783.22	232.66
783.54	232.60
783.86	232.55
784.19	232.49
784.51	232.49
784.83	232.43
785.16	232.41
785.48	232.34
785.80	232.30
786.12	232.26
786.45	232.19
786.77	232.15
787.09	232.12
