SpectraSuite Data File
++++++++++++++++++++++++++++++++++++
Date: Fri Feb 01 15:22:52 EST 2013
User: group
Dark Spectrum Present: No
Reference Spectrum Present: No
Number of Sampled Component Spectra: 1
Spectrometers: USB2E7196
Integration Time (usec): 35000 (USB2E7196)
Spectra Averaged: 100 (USB2E7196)
Boxcar Smoothing: 10 (USB2E7196)
Correct for Electrical Dark: No (USB2E7196)
Strobe/Lamp Enabled: No (USB2E7196)
Correct for Detector Non-linearity: No (USB2E7196)
Correct for Stray Light: No (USB2E7196)
Number of Pixels in Processed Spectrum: 2048
>>>>>Begin Processed Spectral Data<<<<<
339.09	0.00
339.48	215.10
339.86	215.97
340.24	217.75
340.63	219.35
341.01	221.87
341.39	222.00
341.78	223.42
342.16	224.29
342.54	224.90
342.93	213.26
343.31	224.05
343.69	224.59
344.07	225.06
344.46	225.48
344.84	225.87
345.22	226.14
345.60	226.39
345.99	226.58
346.37	226.70
346.75	226.79
347.13	226.87
347.52	226.92
347.90	226.99
348.28	227.00
348.66	227.06
349.05	227.08
349.43	227.14
349.81	227.18
350.19	227.26
350.57	227.36
350.96	227.41
351.34	227.49
351.72	227.54
352.10	227.66
352.48	227.76
352.87	227.80
353.25	227.86
353.63	227.95
354.01	228.01
354.39	228.08
354.77	228.16
355.15	228.27
355.54	228.32
355.92	228.35
356.30	228.46
356.68	228.61
357.06	228.67
357.44	228.72
357.82	228.77
358.20	228.80
358.58	228.81
358.97	228.90
359.35	228.95
359.73	229.06
360.11	229.08
360.49	229.13
360.87	229.16
361.25	229.21
361.63	229.28
362.01	229.34
362.39	229.41
362.77	229.44
363.15	229.42
363.53	229.48
363.91	229.51
364.29	229.49
364.67	229.39
365.05	229.44
365.43	229.48
365.81	229.50
366.19	229.56
366.57	229.60
366.95	229.58
367.33	229.57
367.71	229.57
368.09	229.58
368.47	229.55
368.85	229.51
369.23	229.47
369.61	229.39
369.99	229.36
370.37	229.31
370.75	229.35
371.13	229.34
371.51	229.26
371.89	229.19
372.27	229.17
372.65	229.14
373.03	229.03
373.41	228.97
373.78	228.93
374.16	228.82
374.54	228.72
374.92	228.64
375.30	228.56
375.68	228.44
376.06	228.38
376.44	228.30
376.82	228.27
377.19	228.23
377.57	228.17
377.95	228.06
378.33	228.02
378.71	227.89
379.09	227.82
379.47	227.79
379.84	227.74
380.22	227.69
380.60	227.59
380.98	227.52
381.36	227.45
381.73	227.36
382.11	227.28
382.49	227.24
382.87	227.16
383.25	227.11
383.62	227.17
384.00	227.11
384.38	227.06
384.76	226.98
385.13	226.95
385.51	226.87
385.89	226.80
386.27	226.70
386.64	226.66
387.02	226.58
387.40	226.51
387.78	226.47
388.15	226.42
388.53	226.40
388.91	226.40
389.29	226.34
389.66	226.33
390.04	226.30
390.42	226.29
390.79	226.28
391.17	226.25
391.55	226.15
391.92	226.16
392.30	226.17
392.68	226.18
393.05	226.15
393.43	226.18
393.81	226.21
394.18	226.26
394.56	226.28
394.94	226.33
395.31	226.37
395.69	226.43
396.06	226.47
396.44	226.50
396.82	226.49
397.19	226.61
397.57	226.64
397.95	226.72
398.32	226.74
398.70	226.84
399.07	226.95
399.45	227.03
399.82	227.10
400.20	227.16
400.58	227.24
400.95	227.32
401.33	227.44
401.70	227.59
402.08	227.70
402.45	227.80
402.83	227.96
403.20	228.06
403.58	228.18
403.95	228.31
404.33	228.47
404.71	228.61
405.08	228.79
405.46	228.92
405.83	229.07
406.21	229.26
406.58	229.44
406.96	229.61
407.33	229.80
407.70	229.97
408.08	230.25
408.45	230.46
408.83	230.68
409.20	230.89
409.58	231.10
409.95	231.36
410.33	231.64
410.70	231.86
411.08	232.16
411.45	232.45
411.82	232.77
412.20	233.13
412.57	233.57
412.95	233.87
413.32	234.30
413.69	234.69
414.07	235.10
414.44	235.55
414.82	236.05
415.19	236.60
415.56	237.22
415.94	237.73
416.31	238.41
416.68	239.04
417.06	239.75
417.43	240.43
417.81	241.21
418.18	241.98
418.55	242.83
418.93	243.69
419.30	244.61
419.67	245.56
420.04	246.49
420.42	247.46
420.79	248.65
421.16	249.80
421.54	250.98
421.91	252.25
422.28	253.48
422.66	254.79
423.03	256.07
423.40	257.37
423.77	258.78
424.15	260.14
424.52	261.63
424.89	263.21
425.26	264.73
425.64	266.14
426.01	267.75
426.38	269.41
426.75	271.09
427.13	272.78
427.50	274.54
427.87	276.43
428.24	278.31
428.61	280.05
428.99	282.00
429.36	284.12
429.73	286.15
430.10	288.20
430.47	290.26
430.85	292.36
431.22	294.61
431.59	297.00
431.96	299.27
432.33	301.75
432.70	304.15
433.08	306.94
433.45	309.61
433.82	312.19
434.19	315.08
434.56	317.91
434.93	320.60
435.30	323.23
435.68	326.10
436.05	328.92
436.42	331.70
436.79	334.20
437.16	336.94
437.53	339.77
437.90	342.58
438.27	345.36
438.64	348.21
439.01	350.78
439.38	353.05
439.75	355.21
440.13	357.73
440.50	360.08
440.87	362.00
441.24	363.97
441.61	366.12
441.98	367.59
442.35	369.41
442.72	371.28
443.09	373.09
443.46	374.07
443.83	374.67
444.20	375.19
444.57	376.07
444.94	376.36
445.31	376.70
445.68	377.05
446.05	377.09
446.42	376.71
446.79	376.29
447.16	375.83
447.53	375.54
447.90	374.38
448.27	373.24
448.64	371.67
449.01	370.50
449.37	368.55
449.74	366.65
450.11	364.40
450.48	361.91
450.85	359.40
451.22	357.27
451.59	355.28
451.96	353.33
452.33	350.72
452.70	348.35
453.07	345.49
453.43	342.56
453.80	339.75
454.17	337.07
454.54	334.54
454.91	331.83
455.28	329.14
455.65	326.63
456.02	324.19
456.38	322.02
456.75	319.35
457.12	317.09
457.49	314.91
457.86	312.71
458.23	310.84
458.59	308.79
458.96	306.72
459.33	304.84
459.70	302.98
460.07	301.45
460.43	299.70
460.80	298.10
461.17	296.68
461.54	295.23
461.91	293.83
462.27	292.38
462.64	291.10
463.01	289.74
463.38	288.47
463.74	287.08
464.11	285.89
464.48	284.89
464.85	283.77
465.21	282.85
465.58	281.92
465.95	280.82
466.32	279.89
466.68	278.98
467.05	278.05
467.42	277.16
467.78	276.25
468.15	275.38
468.52	274.70
468.88	273.83
469.25	273.03
469.62	272.37
469.98	271.66
470.35	270.98
470.72	270.35
471.08	269.67
471.45	269.12
471.82	268.57
472.18	267.94
472.55	267.51
472.92	267.00
473.28	266.52
473.65	266.06
474.02	265.62
474.38	265.23
474.75	264.90
475.11	264.53
475.48	264.23
475.85	263.96
476.21	263.71
476.58	263.47
476.94	263.33
477.31	263.12
477.67	262.97
478.04	262.89
478.41	262.84
478.77	262.88
479.14	262.78
479.50	262.77
479.87	262.86
480.23	262.91
480.60	262.96
480.96	263.06
481.33	263.28
481.69	263.48
482.06	263.69
482.42	263.85
482.79	264.13
483.15	264.43
483.52	264.82
483.88	265.15
484.25	265.57
484.61	265.97
484.98	266.45
485.34	267.00
485.71	267.59
486.07	268.17
486.44	268.73
486.80	269.42
487.17	270.14
487.53	270.94
487.90	271.76
488.26	272.67
488.62	273.63
488.99	274.57
489.35	275.60
489.72	276.74
490.08	277.98
490.44	279.24
490.81	280.59
491.17	281.94
491.54	283.48
491.90	285.00
492.26	286.66
492.63	288.39
492.99	290.15
493.36	292.04
493.72	294.07
494.08	296.21
494.45	298.47
494.81	300.87
495.17	303.26
495.54	305.85
495.90	308.55
496.26	311.39
496.63	314.39
496.99	317.49
497.35	320.72
497.72	324.12
498.08	327.58
498.44	331.25
498.80	335.20
499.17	339.22
499.53	343.43
499.89	347.79
500.26	352.31
500.62	357.02
500.98	361.98
501.34	367.01
501.71	372.33
502.07	377.79
502.43	383.42
502.79	389.22
503.16	395.31
503.52	401.59
503.88	407.97
504.24	414.59
504.60	421.55
504.97	428.70
505.33	436.07
505.69	443.81
506.05	451.65
506.41	459.53
506.78	467.71
507.14	476.14
507.50	484.89
507.86	493.89
508.22	503.07
508.59	512.28
508.95	521.91
509.31	531.73
509.67	541.84
510.03	552.12
510.39	562.70
510.75	573.58
511.12	584.55
511.48	595.87
511.84	607.29
512.20	618.78
512.56	630.72
512.92	642.85
513.28	655.16
513.64	667.62
514.00	680.32
514.37	693.20
514.73	706.25
515.09	719.33
515.45	732.67
515.81	746.33
516.17	760.35
516.53	774.40
516.89	788.56
517.25	802.73
517.61	817.18
517.97	831.68
518.33	846.07
518.69	860.96
519.05	875.98
519.41	891.19
519.77	906.73
520.13	922.24
520.49	937.66
520.85	953.14
521.21	968.86
521.57	985.13
521.93	1000.95
522.29	1017.46
522.65	1033.73
523.01	1050.07
523.37	1066.12
523.73	1082.36
524.09	1098.54
524.45	1114.90
524.81	1131.50
525.17	1148.39
525.53	1165.29
525.89	1182.19
526.25	1198.96
526.61	1215.39
526.97	1232.13
527.33	1248.71
527.68	1265.33
528.04	1281.93
528.40	1298.58
528.76	1315.74
529.12	1332.37
529.48	1349.37
529.84	1365.46
530.20	1382.15
530.56	1399.17
530.91	1416.72
531.27	1433.53
531.63	1450.13
531.99	1466.81
532.35	1482.99
532.71	1498.82
533.07	1515.15
533.42	1531.14
533.78	1547.15
534.14	1563.51
534.50	1578.96
534.86	1594.86
535.21	1610.11
535.57	1626.03
535.93	1641.58
536.29	1656.38
536.65	1671.61
537.00	1686.51
537.36	1701.73
537.72	1716.28
538.08	1730.65
538.44	1744.37
538.79	1758.31
539.15	1772.05
539.51	1785.93
539.87	1800.32
540.22	1814.15
540.58	1828.02
540.94	1841.45
541.29	1854.42
541.65	1867.22
542.01	1880.59
542.37	1893.00
542.72	1905.45
543.08	1917.24
543.44	1929.72
543.79	1941.09
544.15	1952.04
544.51	1963.55
544.87	1974.69
545.22	1985.57
545.58	1995.86
545.94	2005.81
546.29	2015.71
546.65	2025.50
547.01	2034.62
547.36	2043.50
547.72	2052.01
548.07	2059.92
548.43	2068.26
548.79	2076.53
549.14	2084.03
549.50	2091.45
549.86	2099.29
550.21	2106.68
550.57	2114.07
550.92	2120.65
551.28	2127.67
551.64	2134.81
551.99	2141.42
552.35	2147.51
552.70	2153.70
553.06	2159.68
553.41	2165.97
553.77	2171.97
554.13	2178.18
554.48	2184.34
554.84	2189.58
555.19	2195.08
555.55	2200.21
555.90	2204.45
556.26	2209.04
556.61	2213.63
556.97	2217.67
557.32	2221.78
557.68	2225.96
558.03	2230.09
558.39	2233.77
558.74	2238.28
559.10	2242.08
559.45	2245.68
559.81	2249.98
560.16	2253.68
560.52	2257.07
560.87	2260.41
561.23	2263.07
561.58	2265.94
561.94	2268.56
562.29	2270.96
562.64	2273.48
563.00	2276.13
563.35	2279.66
563.71	2282.94
564.06	2286.33
564.42	2289.18
564.77	2291.49
565.12	2293.61
565.48	2295.47
565.83	2297.28
566.19	2298.65
566.54	2299.72
566.89	2300.80
567.25	2301.38
567.60	2302.88
567.96	2304.35
568.31	2305.15
568.66	2306.11
569.02	2306.68
569.37	2306.80
569.72	2307.53
570.08	2307.51
570.43	2307.24
570.78	2306.55
571.14	2305.03
571.49	2303.62
571.84	2303.35
572.20	2302.14
572.55	2300.98
572.90	2299.42
573.26	2298.10
573.61	2296.33
573.96	2294.25
574.31	2291.23
574.67	2288.08
575.02	2284.26
575.37	2280.83
575.72	2276.91
576.08	2273.71
576.43	2270.37
576.78	2266.76
577.13	2263.69
577.49	2260.63
577.84	2257.24
578.19	2253.45
578.54	2249.67
578.90	2245.29
579.25	2239.59
579.60	2234.54
579.95	2229.72
580.30	2224.75
580.66	2219.40
581.01	2214.34
581.36	2209.39
581.71	2205.20
582.06	2200.66
582.42	2196.08
582.77	2190.84
583.12	2186.19
583.47	2181.21
583.82	2176.10
584.17	2170.72
584.53	2165.03
584.88	2159.32
585.23	2153.46
585.58	2147.86
585.93	2142.26
586.28	2137.52
586.63	2132.42
586.98	2127.36
587.34	2122.48
587.69	2117.33
588.04	2111.93
588.39	2106.34
588.74	2099.97
589.09	2093.69
589.44	2086.97
589.79	2080.92
590.14	2075.28
590.49	2068.75
590.84	2062.38
591.19	2056.28
591.54	2049.79
591.89	2042.24
592.25	2035.33
592.60	2028.17
592.95	2020.64
593.30	2013.29
593.65	2005.67
594.00	1998.60
594.35	1991.34
594.70	1983.23
595.05	1975.99
595.40	1968.64
595.75	1960.99
596.10	1954.54
596.45	1947.64
596.80	1941.33
597.15	1934.66
597.50	1927.40
597.85	1920.95
598.19	1914.21
598.54	1907.04
598.89	1900.45
599.24	1894.65
599.59	1887.90
599.94	1881.50
600.29	1875.11
600.64	1868.57
600.99	1860.86
601.34	1853.86
601.69	1846.72
602.04	1839.69
602.39	1832.32
602.74	1825.50
603.08	1818.71
603.43	1811.96
603.78	1804.75
604.13	1797.49
604.48	1790.00
604.83	1783.14
605.18	1776.00
605.53	1767.87
605.87	1759.80
606.22	1752.34
606.57	1744.37
606.92	1736.94
607.27	1729.86
607.62	1722.86
607.96	1715.41
608.31	1708.78
608.66	1701.15
609.01	1693.51
609.36	1685.94
609.70	1677.83
610.05	1669.77
610.40	1662.03
610.75	1653.65
611.10	1645.89
611.44	1637.54
611.79	1629.82
612.14	1621.21
612.49	1612.05
612.83	1603.78
613.18	1595.60
613.53	1587.63
613.88	1579.00
614.22	1570.84
614.57	1562.11
614.92	1553.99
615.27	1546.34
615.61	1538.03
615.96	1530.09
616.31	1522.51
616.65	1515.16
617.00	1507.57
617.35	1499.95
617.70	1491.57
618.04	1483.03
618.39	1474.78
618.74	1467.03
619.08	1458.55
619.43	1450.82
619.78	1444.00
620.12	1436.86
620.47	1429.32
620.82	1421.09
621.16	1413.72
621.51	1406.13
621.85	1398.54
622.20	1390.13
622.55	1381.89
622.89	1374.11
623.24	1366.43
623.59	1359.12
623.93	1351.51
624.28	1344.33
624.62	1336.68
624.97	1329.45
625.32	1322.78
625.66	1315.88
626.01	1308.76
626.35	1301.32
626.70	1293.66
627.04	1285.76
627.39	1277.91
627.73	1270.50
628.08	1263.60
628.43	1256.26
628.77	1248.75
629.12	1241.17
629.46	1233.97
629.81	1226.60
630.15	1219.30
630.50	1211.98
630.84	1203.77
631.19	1195.97
631.53	1188.48
631.88	1180.99
632.22	1173.45
632.57	1166.19
632.91	1158.51
633.26	1151.17
633.60	1143.78
633.95	1136.67
634.29	1129.79
634.64	1123.18
634.98	1115.90
635.32	1108.75
635.67	1102.17
636.01	1095.62
636.36	1088.89
636.70	1082.44
637.05	1075.89
637.39	1069.51
637.73	1063.00
638.08	1057.07
638.42	1051.10
638.77	1044.70
639.11	1038.04
639.45	1031.68
639.80	1024.89
640.14	1018.50
640.49	1011.89
640.83	1005.70
641.17	999.40
641.52	993.03
641.86	986.66
642.20	980.82
642.55	974.57
642.89	968.14
643.23	961.67
643.58	955.86
643.92	949.60
644.26	943.50
644.61	937.52
644.95	931.40
645.29	924.91
645.64	918.17
645.98	911.89
646.32	906.16
646.66	900.16
647.01	894.46
647.35	888.77
647.69	882.96
648.04	877.35
648.38	871.63
648.72	865.55
649.06	859.39
649.41	853.51
649.75	847.45
650.09	841.46
650.43	835.61
650.78	829.45
651.12	823.53
651.46	817.78
651.80	811.92
652.14	806.55
652.49	801.08
652.83	795.87
653.17	790.10
653.51	784.36
653.85	779.00
654.20	773.32
654.54	767.36
654.88	761.70
655.22	755.94
655.56	750.20
655.90	744.83
656.25	739.57
656.59	734.24
656.93	729.20
657.27	724.05
657.61	718.64
657.95	713.53
658.29	708.47
658.64	703.23
658.98	697.98
659.32	692.56
659.66	687.41
660.00	682.11
660.34	677.23
660.68	672.32
661.02	667.23
661.36	662.54
661.70	658.04
662.05	653.61
662.39	649.18
662.73	644.76
663.07	640.37
663.41	635.97
663.75	631.46
664.09	626.89
664.43	622.55
664.77	618.35
665.11	614.13
665.45	609.98
665.79	605.91
666.13	601.78
666.47	597.66
666.81	593.49
667.15	589.39
667.49	585.46
667.83	581.63
668.17	577.71
668.51	573.59
668.85	569.55
669.19	565.69
669.53	561.83
669.87	557.94
670.21	554.29
670.55	550.66
670.89	547.26
671.23	543.94
671.57	540.41
671.91	536.94
672.25	533.46
672.58	529.95
672.92	526.58
673.26	523.45
673.60	520.34
673.94	517.26
674.28	514.33
674.62	511.34
674.96	508.26
675.30	505.35
675.64	502.46
675.97	499.80
676.31	496.96
676.65	494.09
676.99	491.39
677.33	488.54
677.67	485.66
678.01	482.60
678.34	479.56
678.68	476.67
679.02	473.84
679.36	471.09
679.70	468.37
680.04	465.58
680.37	462.70
680.71	459.89
681.05	457.28
681.39	454.60
681.73	452.03
682.06	449.49
682.40	447.01
682.74	444.53
683.08	441.93
683.42	439.36
683.75	436.83
684.09	434.26
684.43	431.78
684.77	429.33
685.10	427.03
685.44	424.73
685.78	422.46
686.12	420.31
686.45	418.03
686.79	415.72
687.13	413.55
687.46	411.40
687.80	409.31
688.14	407.10
688.48	405.03
688.81	402.73
689.15	400.61
689.49	398.47
689.82	396.38
690.16	394.30
690.50	392.31
690.83	390.36
691.17	388.40
691.51	386.51
691.84	384.74
692.18	382.81
692.52	380.86
692.85	378.95
693.19	376.99
693.52	375.19
693.86	373.43
694.20	371.66
694.53	369.87
694.87	368.02
695.21	366.26
695.54	364.42
695.88	362.73
696.21	361.04
696.55	359.35
696.88	357.68
697.22	356.03
697.56	354.44
697.89	352.79
698.23	351.16
698.56	349.53
698.90	347.92
699.23	346.26
699.57	344.70
699.90	343.19
700.24	341.63
700.58	340.09
700.91	338.58
701.25	337.12
701.58	335.74
701.92	334.38
702.25	333.01
702.59	331.67
702.92	330.32
703.26	328.98
703.59	327.69
703.93	326.50
704.26	325.25
704.60	323.93
704.93	322.66
705.26	321.45
705.60	320.29
705.93	319.11
706.27	318.06
706.60	316.99
706.94	315.90
707.27	314.82
707.61	313.76
707.94	312.71
708.27	311.64
708.61	310.58
708.94	309.53
709.28	308.55
709.61	307.59
709.94	306.69
710.28	305.70
710.61	304.72
710.95	303.67
711.28	302.75
711.61	301.82
711.95	300.96
712.28	299.98
712.61	299.01
712.95	298.06
713.28	297.20
713.61	296.29
713.95	295.40
714.28	294.54
714.61	293.66
714.95	292.84
715.28	291.96
715.61	291.08
715.95	290.25
716.28	289.43
716.61	288.59
716.95	287.78
717.28	287.04
717.61	286.31
717.94	285.56
718.28	284.80
718.61	284.08
718.94	283.35
719.27	282.72
719.61	282.06
719.94	281.44
720.27	280.72
720.60	280.07
720.94	279.44
721.27	278.88
721.60	278.30
721.93	277.69
722.27	277.15
722.60	276.59
722.93	276.02
723.26	275.47
723.59	274.91
723.93	274.36
724.26	273.83
724.59	273.25
724.92	272.72
725.25	272.19
725.59	271.67
725.92	271.22
726.25	270.71
726.58	270.23
726.91	269.72
727.24	269.25
727.57	268.78
727.91	268.27
728.24	267.79
728.57	267.32
728.90	266.89
729.23	266.43
729.56	266.00
729.89	265.52
730.22	265.02
730.55	264.56
730.89	264.11
731.22	263.62
731.55	263.21
731.88	262.80
732.21	262.37
732.54	261.94
732.87	261.51
733.20	261.08
733.53	260.69
733.86	260.34
734.19	259.95
734.52	259.57
734.85	259.25
735.18	258.82
735.51	258.47
735.84	258.11
736.17	257.77
736.50	257.39
736.83	257.17
737.16	256.85
737.49	256.50
737.82	256.14
738.15	255.84
738.48	255.50
738.81	255.16
739.14	254.85
739.47	254.55
739.80	254.22
740.13	253.93
740.46	253.58
740.79	253.23
741.12	252.93
741.45	252.61
741.78	252.26
742.11	251.99
742.44	251.62
742.77	251.31
743.10	251.00
743.43	250.70
743.75	250.30
744.08	250.12
744.41	249.85
744.74	249.57
745.07	249.28
745.40	249.02
745.73	248.80
746.06	248.54
746.39	248.26
746.71	247.99
747.04	247.71
747.37	247.48
747.70	247.23
748.03	246.96
748.36	246.73
748.68	246.50
749.01	246.24
749.34	246.08
749.67	245.86
750.00	245.62
750.33	245.51
750.65	245.31
750.98	244.98
751.31	244.77
751.64	244.53
751.97	244.39
752.29	244.17
752.62	243.90
752.95	243.70
753.28	243.50
753.60	243.29
753.93	243.12
754.26	242.94
754.59	242.73
754.91	242.58
755.24	242.40
755.57	242.20
755.90	242.05
756.22	241.86
756.55	241.64
756.88	241.41
757.20	241.16
757.53	240.95
757.86	240.83
758.19	240.71
758.51	240.60
758.84	240.37
759.17	240.23
759.49	240.11
759.82	239.95
760.15	239.82
760.47	239.72
760.80	239.55
761.13	239.41
761.45	239.25
761.78	239.07
762.11	238.95
762.43	238.84
762.76	238.69
763.08	238.54
763.41	238.44
763.74	238.34
764.06	238.21
764.39	238.07
764.71	237.95
765.04	237.78
765.37	237.62
765.69	237.47
766.02	237.34
766.34	237.21
766.67	237.08
767.00	236.97
767.32	236.87
767.65	236.85
767.97	236.71
768.30	236.62
768.62	236.51
768.95	236.41
769.27	236.28
769.60	236.15
769.92	236.04
770.25	235.90
770.57	235.78
770.90	235.65
771.22	235.56
771.55	235.42
771.87	235.34
772.20	235.27
772.52	235.24
772.85	235.25
773.17	235.13
773.50	235.03
773.82	234.91
774.15	234.77
774.47	234.59
774.80	234.49
775.12	234.37
775.45	234.28
775.77	234.16
776.09	234.07
776.42	234.03
776.74	233.95
777.07	233.86
777.39	233.80
777.72	233.73
778.04	233.66
778.36	233.61
778.69	233.52
779.01	233.44
779.33	233.36
779.66	233.16
779.98	233.10
780.31	233.03
780.63	233.01
780.95	232.96
781.28	232.89
781.60	232.84
781.92	232.78
782.25	232.73
782.57	232.68
782.89	232.63
783.22	232.55
783.54	232.48
783.86	232.47
784.19	232.43
784.51	232.40
784.83	232.33
785.16	232.27
785.48	232.25
785.80	232.18
786.12	232.10
786.45	232.06
786.77	232.04
787.09	231.95
