SpectraSuite Data File
++++++++++++++++++++++++++++++++++++
Date: Fri Feb 01 18:09:13 EST 2013
User: group
Dark Spectrum Present: No
Reference Spectrum Present: No
Number of Sampled Component Spectra: 1
Spectrometers: USB2E7196
Integration Time (usec): 35000 (USB2E7196)
Spectra Averaged: 100 (USB2E7196)
Boxcar Smoothing: 10 (USB2E7196)
Correct for Electrical Dark: No (USB2E7196)
Strobe/Lamp Enabled: No (USB2E7196)
Correct for Detector Non-linearity: No (USB2E7196)
Correct for Stray Light: No (USB2E7196)
Number of Pixels in Processed Spectrum: 2048
>>>>>Begin Processed Spectral Data<<<<<
339.09	0.00
339.48	212.77
339.86	214.84
340.24	216.53
340.63	217.72
341.01	220.41
341.39	220.40
341.78	221.92
342.16	222.69
342.54	223.00
342.93	211.68
343.31	222.34
343.69	222.91
344.07	223.35
344.46	223.73
344.84	224.10
345.22	224.32
345.60	224.56
345.99	224.74
346.37	224.86
346.75	224.95
347.13	225.01
347.52	225.05
347.90	225.09
348.28	225.12
348.66	225.14
349.05	225.13
349.43	225.16
349.81	225.20
350.19	225.26
350.57	225.32
350.96	225.40
351.34	225.50
351.72	225.55
352.10	225.64
352.48	225.72
352.87	225.76
353.25	225.81
353.63	225.88
354.01	225.90
354.39	225.98
354.77	226.04
355.15	226.12
355.54	226.17
355.92	226.19
356.30	226.25
356.68	226.40
357.06	226.46
357.44	226.49
357.82	226.56
358.20	226.60
358.58	226.64
358.97	226.72
359.35	226.85
359.73	226.92
360.11	226.99
360.49	227.04
360.87	227.09
361.25	227.16
361.63	227.20
362.01	227.29
362.39	227.31
362.77	227.39
363.15	227.42
363.53	227.50
363.91	227.54
364.29	227.57
364.67	227.50
365.05	227.54
365.43	227.58
365.81	227.62
366.19	227.69
366.57	227.75
366.95	227.72
367.33	227.69
367.71	227.69
368.09	227.73
368.47	227.74
368.85	227.74
369.23	227.74
369.61	227.71
369.99	227.65
370.37	227.64
370.75	227.62
371.13	227.60
371.51	227.54
371.89	227.52
372.27	227.48
372.65	227.45
373.03	227.39
373.41	227.34
373.78	227.26
374.16	227.14
374.54	227.07
374.92	227.02
375.30	226.97
375.68	226.92
376.06	226.86
376.44	226.80
376.82	226.74
377.19	226.70
377.57	226.66
377.95	226.59
378.33	226.51
378.71	226.43
379.09	226.39
379.47	226.33
379.84	226.27
380.22	226.21
380.60	226.13
380.98	226.09
381.36	226.03
381.73	225.99
382.11	225.94
382.49	225.90
382.87	225.82
383.25	225.75
383.62	225.79
384.00	225.69
384.38	225.62
384.76	225.61
385.13	225.58
385.51	225.54
385.89	225.51
386.27	225.53
386.64	225.50
387.02	225.45
387.40	225.40
387.78	225.39
388.15	225.35
388.53	225.34
388.91	225.30
389.29	225.24
389.66	225.25
390.04	225.25
390.42	225.25
390.79	225.26
391.17	225.24
391.55	225.14
391.92	225.14
392.30	225.16
392.68	225.10
393.05	225.09
393.43	225.08
393.81	225.08
394.18	225.06
394.56	225.08
394.94	225.12
395.31	225.15
395.69	225.16
396.06	225.16
396.44	225.17
396.82	225.18
397.19	225.31
397.57	225.31
397.95	225.35
398.32	225.37
398.70	225.41
399.07	225.47
399.45	225.50
399.82	225.55
400.20	225.61
400.58	225.71
400.95	225.72
401.33	225.83
401.70	225.95
402.08	226.06
402.45	226.12
402.83	226.23
403.20	226.31
403.58	226.41
403.95	226.56
404.33	226.70
404.71	226.85
405.08	227.01
405.46	227.18
405.83	227.36
406.21	227.50
406.58	227.72
406.96	227.90
407.33	228.14
407.70	228.38
408.08	228.67
408.45	228.92
408.83	229.23
409.20	229.47
409.58	229.74
409.95	230.01
410.33	230.37
410.70	230.69
411.08	231.09
411.45	231.49
411.82	231.95
412.20	232.41
412.57	232.93
412.95	233.35
413.32	233.90
413.69	234.45
414.07	235.08
414.44	235.73
414.82	236.39
415.19	237.13
415.56	237.90
415.94	238.65
416.31	239.56
416.68	240.45
417.06	241.44
417.43	242.37
417.81	243.47
418.18	244.57
418.55	245.73
418.93	246.96
419.30	248.21
419.67	249.47
420.04	250.80
420.42	252.19
420.79	253.82
421.16	255.42
421.54	257.02
421.91	258.70
422.28	260.43
422.66	262.30
423.03	264.08
423.40	265.92
423.77	267.89
424.15	269.89
424.52	271.98
424.89	274.24
425.26	276.43
425.64	278.48
426.01	280.71
426.38	283.01
426.75	285.35
427.13	287.82
427.50	290.37
427.87	293.00
428.24	295.68
428.61	298.18
428.99	300.90
429.36	303.91
429.73	306.86
430.10	309.73
430.47	312.61
430.85	315.60
431.22	318.79
431.59	322.08
431.96	325.21
432.33	328.66
432.70	331.99
433.08	335.95
433.45	339.61
433.82	343.23
434.19	347.32
434.56	351.24
434.93	354.96
435.30	358.64
435.68	362.73
436.05	366.65
436.42	370.57
436.79	374.09
437.16	377.83
437.53	381.75
437.90	385.69
438.27	389.56
438.64	393.57
439.01	397.19
439.38	400.36
439.75	403.41
440.13	406.89
440.50	410.16
440.87	412.75
441.24	415.55
441.61	418.65
441.98	420.75
442.35	423.34
442.72	425.95
443.09	428.51
443.46	429.90
443.83	430.72
444.20	431.39
444.57	432.54
444.94	432.99
445.31	433.50
445.68	433.94
446.05	434.01
446.42	433.47
446.79	432.86
447.16	432.22
447.53	431.78
447.90	430.21
448.27	428.60
448.64	426.32
449.01	424.65
449.37	421.83
449.74	419.13
450.11	415.91
450.48	412.41
450.85	408.85
451.22	405.87
451.59	403.04
451.96	400.33
452.33	396.71
452.70	393.37
453.07	389.40
453.43	385.34
453.80	381.50
454.17	377.73
454.54	374.17
454.91	370.36
455.28	366.57
455.65	363.02
456.02	359.49
456.38	356.50
456.75	352.76
457.12	349.61
457.49	346.49
457.86	343.48
458.23	340.82
458.59	337.88
458.96	334.89
459.33	332.28
459.70	329.64
460.07	327.50
460.43	325.05
460.80	322.73
461.17	320.70
461.54	318.52
461.91	316.48
462.27	314.42
462.64	312.68
463.01	310.75
463.38	308.94
463.74	307.10
464.11	305.44
464.48	303.99
464.85	302.39
465.21	301.12
465.58	299.80
465.95	298.26
466.32	296.98
466.68	295.72
467.05	294.44
467.42	293.16
467.78	291.86
468.15	290.64
468.52	289.71
468.88	288.51
469.25	287.42
469.62	286.55
469.98	285.61
470.35	284.72
470.72	283.88
471.08	282.96
471.45	282.15
471.82	281.38
472.18	280.52
472.55	279.88
472.92	279.18
473.28	278.50
473.65	277.87
474.02	277.24
474.38	276.70
474.75	276.20
475.11	275.68
475.48	275.27
475.85	274.88
476.21	274.55
476.58	274.27
476.94	274.03
477.31	273.69
477.67	273.43
478.04	273.17
478.41	273.07
478.77	273.02
479.14	272.89
479.50	272.83
479.87	272.84
480.23	272.90
480.60	272.87
480.96	272.85
481.33	273.00
481.69	273.16
482.06	273.32
482.42	273.45
482.79	273.71
483.15	273.96
483.52	274.33
483.88	274.63
484.25	274.96
484.61	275.37
484.98	275.82
485.34	276.37
485.71	276.98
486.07	277.53
486.44	278.07
486.80	278.76
487.17	279.53
487.53	280.38
487.90	281.28
488.26	282.23
488.62	283.30
488.99	284.30
489.35	285.39
489.72	286.57
490.08	287.81
490.44	289.09
490.81	290.53
491.17	291.93
491.54	293.47
491.90	295.09
492.26	296.88
492.63	298.71
492.99	300.57
493.36	302.57
493.72	304.80
494.08	307.08
494.45	309.49
494.81	311.99
495.17	314.55
495.54	317.22
495.90	320.09
496.26	323.07
496.63	326.25
496.99	329.57
497.35	333.06
497.72	336.73
498.08	340.54
498.44	344.46
498.80	348.66
499.17	352.98
499.53	357.45
499.89	362.08
500.26	366.93
500.62	371.93
500.98	377.28
501.34	382.68
501.71	388.41
502.07	394.25
502.43	400.26
502.79	406.53
503.16	413.08
503.52	419.79
503.88	426.65
504.24	433.85
504.60	441.23
504.97	448.88
505.33	456.78
505.69	465.11
506.05	473.53
506.41	482.04
506.78	490.82
507.14	499.91
507.50	509.33
507.86	519.10
508.22	529.05
508.59	539.07
508.95	549.44
509.31	560.08
509.67	571.00
510.03	582.21
510.39	593.65
510.75	605.37
511.12	617.27
511.48	629.53
511.84	641.89
512.20	654.34
512.56	667.29
512.92	680.57
513.28	694.04
513.64	707.68
514.00	721.55
514.37	735.73
514.73	749.96
515.09	764.23
515.45	778.69
515.81	793.53
516.17	808.83
516.53	824.36
516.89	839.88
517.25	855.39
517.61	871.22
517.97	887.08
518.33	902.99
518.69	919.29
519.05	935.86
519.41	952.55
519.77	969.80
520.13	986.95
520.49	1004.03
520.85	1020.94
521.21	1038.24
521.57	1056.25
521.93	1073.74
522.29	1091.89
522.65	1110.01
523.01	1128.12
523.37	1146.12
523.73	1164.16
524.09	1181.99
524.45	1200.14
524.81	1218.81
525.17	1237.62
525.53	1256.48
525.89	1275.36
526.25	1294.25
526.61	1312.64
526.97	1331.63
527.33	1350.20
527.68	1368.88
528.04	1387.31
528.40	1406.13
528.76	1425.41
529.12	1444.15
529.48	1463.30
529.84	1481.56
530.20	1500.36
530.56	1519.55
530.91	1539.25
531.27	1558.21
531.63	1577.06
531.99	1596.07
532.35	1614.41
532.71	1632.69
533.07	1651.55
533.42	1669.98
533.78	1688.52
534.14	1707.29
534.50	1724.97
534.86	1743.22
535.21	1760.75
535.57	1779.31
535.93	1797.21
536.29	1814.53
536.65	1831.99
537.00	1849.27
537.36	1867.21
537.72	1884.23
538.08	1901.32
538.44	1917.52
538.79	1934.00
539.15	1949.99
539.51	1966.20
539.87	1983.02
540.22	1999.28
540.58	2015.49
540.94	2031.10
541.29	2046.43
541.65	2061.58
542.01	2077.42
542.37	2092.36
542.72	2107.34
543.08	2121.69
543.44	2136.85
543.79	2150.57
544.15	2164.13
544.51	2178.24
544.87	2191.62
545.22	2205.03
545.58	2217.77
545.94	2230.10
546.29	2242.37
546.65	2254.98
547.01	2266.84
547.36	2278.05
547.72	2288.82
548.07	2299.04
548.43	2309.49
548.79	2319.74
549.14	2329.68
549.50	2339.15
549.86	2349.03
550.21	2358.66
550.57	2368.00
550.92	2376.66
551.28	2385.99
551.64	2395.27
551.99	2403.93
552.35	2412.30
552.70	2420.50
553.06	2428.54
553.41	2436.96
553.77	2445.06
554.13	2453.10
554.48	2461.21
554.84	2468.88
555.19	2475.99
555.55	2483.05
555.90	2489.62
556.26	2496.60
556.61	2503.22
556.97	2509.65
557.32	2515.70
557.68	2521.59
558.03	2527.88
558.39	2533.22
558.74	2539.65
559.10	2545.35
559.45	2550.72
559.81	2556.57
560.16	2562.12
560.52	2566.93
560.87	2571.92
561.23	2576.01
561.58	2580.43
561.94	2584.51
562.29	2588.02
562.64	2592.45
563.00	2596.53
563.35	2601.52
563.71	2605.96
564.06	2610.56
564.42	2614.66
564.77	2618.58
565.12	2622.34
565.48	2625.36
565.83	2628.60
566.19	2631.13
566.54	2632.94
566.89	2635.19
567.25	2636.89
567.60	2639.33
567.96	2642.28
568.31	2644.21
568.66	2646.56
569.02	2648.21
569.37	2649.35
569.72	2651.42
570.08	2652.41
570.43	2653.21
570.78	2653.40
571.14	2652.50
571.49	2651.64
571.84	2652.00
572.20	2651.48
572.55	2650.98
572.90	2649.66
573.26	2648.89
573.61	2647.52
573.96	2646.48
574.31	2643.80
574.67	2641.14
575.02	2637.51
575.37	2634.06
575.72	2630.45
576.08	2626.87
576.43	2623.48
576.78	2619.85
577.13	2616.58
577.49	2613.23
577.84	2609.97
578.19	2606.10
578.54	2602.48
578.90	2598.33
579.25	2592.32
579.60	2587.00
579.95	2581.67
580.30	2576.40
580.66	2570.86
581.01	2565.53
581.36	2560.03
581.71	2555.67
582.06	2550.96
582.42	2546.29
582.77	2540.69
583.12	2535.63
583.47	2530.88
583.82	2525.58
584.17	2519.91
584.53	2513.81
584.88	2507.79
585.23	2501.27
585.58	2495.27
585.93	2489.11
586.28	2483.56
586.63	2478.13
586.98	2472.47
587.34	2467.12
587.69	2461.80
588.04	2455.95
588.39	2449.48
588.74	2442.11
589.09	2435.04
589.44	2427.22
589.79	2420.17
590.14	2413.64
590.49	2406.10
590.84	2398.62
591.19	2391.61
591.54	2384.21
591.89	2375.98
592.25	2368.28
592.60	2360.06
592.95	2351.37
593.30	2342.91
593.65	2334.36
594.00	2325.97
594.35	2317.48
594.70	2308.19
595.05	2299.94
595.40	2291.35
595.75	2282.68
596.10	2275.51
596.45	2267.74
596.80	2260.73
597.15	2253.20
597.50	2245.31
597.85	2237.60
598.19	2229.96
598.54	2221.85
598.89	2214.00
599.24	2206.94
599.59	2199.21
599.94	2191.83
600.29	2184.20
600.64	2176.41
600.99	2167.45
601.34	2159.69
601.69	2151.61
602.04	2143.59
602.39	2134.80
602.74	2126.69
603.08	2118.74
603.43	2110.78
603.78	2101.95
604.13	2093.20
604.48	2084.48
604.83	2076.02
605.18	2068.10
605.53	2058.53
605.87	2048.82
606.22	2040.17
606.57	2030.58
606.92	2021.46
607.27	2012.90
607.62	2004.73
607.96	1996.22
608.31	1988.52
608.66	1979.34
609.01	1970.35
609.36	1961.37
609.70	1951.83
610.05	1942.23
610.40	1933.17
610.75	1923.16
611.10	1914.25
611.44	1904.23
611.79	1894.66
612.14	1884.41
612.49	1873.30
612.83	1863.22
613.18	1853.64
613.53	1844.04
613.88	1833.85
614.22	1824.05
614.57	1813.59
614.92	1804.08
615.27	1795.17
615.61	1785.22
615.96	1775.69
616.31	1766.51
616.65	1757.54
617.00	1748.55
617.35	1739.36
617.70	1729.44
618.04	1719.39
618.39	1709.41
618.74	1700.40
619.08	1690.49
619.43	1681.35
619.78	1673.07
620.12	1664.66
620.47	1655.65
620.82	1645.67
621.16	1636.80
621.51	1627.63
621.85	1618.56
622.20	1608.35
622.55	1598.16
622.89	1588.66
623.24	1579.23
623.59	1570.17
623.93	1561.16
624.28	1552.36
624.62	1543.46
624.97	1534.73
625.32	1526.48
625.66	1518.04
626.01	1509.31
626.35	1500.50
626.70	1491.19
627.04	1481.81
627.39	1472.33
627.73	1463.38
628.08	1455.16
628.43	1446.45
628.77	1437.71
629.12	1428.76
629.46	1420.13
629.81	1411.09
630.15	1402.46
630.50	1393.77
630.84	1384.06
631.19	1374.48
631.53	1365.45
631.88	1356.21
632.22	1347.14
632.57	1338.38
632.91	1329.22
633.26	1320.37
633.60	1311.40
633.95	1302.72
634.29	1294.27
634.64	1286.15
634.98	1277.41
635.32	1268.79
635.67	1260.86
636.01	1252.81
636.36	1244.55
636.70	1236.67
637.05	1228.87
637.39	1221.13
637.73	1213.28
638.08	1206.24
638.42	1199.15
638.77	1191.54
639.11	1183.77
639.45	1176.04
639.80	1168.07
640.14	1160.52
640.49	1152.85
640.83	1145.28
641.17	1138.02
641.52	1130.60
641.86	1122.92
642.20	1115.92
642.55	1108.43
642.89	1100.82
643.23	1093.03
643.58	1086.31
643.92	1079.06
644.26	1071.89
644.61	1064.62
644.95	1057.49
645.29	1049.76
645.64	1041.65
645.98	1034.06
646.32	1027.08
646.66	1020.01
647.01	1013.17
647.35	1006.38
647.69	999.33
648.04	992.80
648.38	985.94
648.72	978.84
649.06	971.79
649.41	964.77
649.75	957.81
650.09	950.73
650.43	943.94
650.78	936.60
651.12	929.52
651.46	922.80
651.80	916.17
652.14	909.82
652.49	903.46
652.83	897.45
653.17	890.92
653.51	884.26
653.85	877.74
654.20	871.25
654.54	864.13
654.88	857.39
655.22	850.38
655.56	843.65
655.90	837.13
656.25	830.99
656.59	824.61
656.93	818.54
657.27	812.49
657.61	806.08
657.95	800.11
658.29	794.07
658.64	787.84
658.98	781.50
659.32	775.02
659.66	768.88
660.00	762.63
660.34	756.67
660.68	750.80
661.02	744.95
661.36	739.31
661.70	734.02
662.05	728.91
662.39	723.86
662.73	718.57
663.07	713.48
663.41	708.22
663.75	702.96
664.09	697.54
664.43	692.30
664.77	687.53
665.11	682.51
665.45	677.65
665.79	672.80
666.13	667.93
666.47	663.14
666.81	658.26
667.15	653.46
667.49	648.90
667.83	644.35
668.17	639.73
668.51	634.99
668.85	630.28
669.19	625.72
669.53	621.24
669.87	616.75
670.21	612.35
670.55	608.04
670.89	604.06
671.23	600.12
671.57	595.97
671.91	591.81
672.25	587.71
672.58	583.59
672.92	579.58
673.26	575.88
673.60	572.16
673.94	568.54
674.28	565.08
674.62	561.58
674.96	558.00
675.30	554.58
675.64	551.05
675.97	547.82
676.31	544.47
676.65	541.05
676.99	537.87
677.33	534.53
677.67	531.25
678.01	527.67
678.34	524.17
678.68	520.81
679.02	517.46
679.36	514.10
679.70	510.92
680.04	507.67
680.37	504.35
680.71	501.09
681.05	497.99
681.39	494.79
681.73	491.72
682.06	488.72
682.40	485.75
682.74	482.85
683.08	479.84
683.42	476.78
683.75	473.89
684.09	470.86
684.43	467.99
684.77	465.11
685.10	462.33
685.44	459.60
685.78	456.93
686.12	454.29
686.45	451.61
686.79	448.87
687.13	446.27
687.46	443.68
687.80	441.12
688.14	438.45
688.48	435.99
688.81	433.30
689.15	430.79
689.49	428.22
689.82	425.71
690.16	423.20
690.50	420.90
690.83	418.58
691.17	416.21
691.51	413.91
691.84	411.69
692.18	409.43
692.52	407.10
692.85	404.78
693.19	402.55
693.52	400.42
693.86	398.27
694.20	396.17
694.53	394.09
694.87	391.91
695.21	389.81
695.54	387.64
695.88	385.60
696.21	383.54
696.55	381.59
696.88	379.62
697.22	377.66
697.56	375.68
697.89	373.75
698.23	371.90
698.56	369.98
698.90	368.10
699.23	366.20
699.57	364.37
699.90	362.55
700.24	360.68
700.58	358.86
700.91	357.13
701.25	355.43
701.58	353.79
701.92	352.15
702.25	350.52
702.59	348.92
702.92	347.37
703.26	345.84
703.59	344.34
703.93	342.90
704.26	341.49
704.60	339.99
704.93	338.46
705.26	337.00
705.60	335.62
705.93	334.25
706.27	332.98
706.60	331.73
706.94	330.48
707.27	329.17
707.61	327.93
707.94	326.71
708.27	325.43
708.61	324.12
708.94	322.91
709.28	321.75
709.61	320.61
709.94	319.49
710.28	318.31
710.61	317.10
710.95	315.80
711.28	314.68
711.61	313.54
711.95	312.48
712.28	311.36
712.61	310.22
712.95	309.09
713.28	308.04
713.61	306.96
713.95	305.93
714.28	304.99
714.61	303.96
714.95	302.95
715.28	301.97
715.61	300.95
715.95	299.99
716.28	298.98
716.61	298.00
716.95	297.00
717.28	296.09
717.61	295.21
717.94	294.41
718.28	293.48
718.61	292.64
718.94	291.82
719.27	291.01
719.61	290.28
719.94	289.54
720.27	288.69
720.60	287.92
720.94	287.17
721.27	286.45
721.60	285.78
721.93	285.08
722.27	284.41
722.60	283.77
722.93	283.10
723.26	282.49
723.59	281.83
723.93	281.24
724.26	280.58
724.59	279.93
724.92	279.29
725.25	278.69
725.59	278.09
725.92	277.49
726.25	276.90
726.58	276.30
726.91	275.71
727.24	275.17
727.57	274.59
727.91	274.00
728.24	273.41
728.57	272.82
728.90	272.29
729.23	271.69
729.56	271.18
729.89	270.58
730.22	269.98
730.55	269.42
730.89	268.87
731.22	268.31
731.55	267.80
731.88	267.27
732.21	266.83
732.54	266.28
732.87	265.77
733.20	265.27
733.53	264.79
733.86	264.37
734.19	263.90
734.52	263.46
734.85	263.06
735.18	262.59
735.51	262.21
735.84	261.74
736.17	261.35
736.50	260.86
736.83	260.62
737.16	260.22
737.49	259.84
737.82	259.38
738.15	259.01
738.48	258.63
738.81	258.26
739.14	257.81
739.47	257.44
739.80	257.05
740.13	256.69
740.46	256.34
740.79	255.94
741.12	255.55
741.45	255.18
741.78	254.78
742.11	254.43
742.44	254.02
742.77	253.66
743.10	253.32
743.43	252.98
743.75	252.49
744.08	252.32
744.41	251.99
744.74	251.73
745.07	251.42
745.40	251.10
745.73	250.80
746.06	250.49
746.39	250.22
746.71	249.92
747.04	249.62
747.37	249.27
747.70	248.98
748.03	248.71
748.36	248.45
748.68	248.15
749.01	247.88
749.34	247.62
749.67	247.34
750.00	247.04
750.33	246.83
750.65	246.59
750.98	246.19
751.31	245.92
751.64	245.66
751.97	245.43
752.29	245.18
752.62	244.92
752.95	244.66
753.28	244.36
753.60	244.13
753.93	243.88
754.26	243.68
754.59	243.42
754.91	243.17
755.24	242.94
755.57	242.70
755.90	242.48
756.22	242.25
756.55	242.04
756.88	241.80
757.20	241.55
757.53	241.35
757.86	241.14
758.19	240.97
758.51	240.78
758.84	240.55
759.17	240.37
759.49	240.17
759.82	240.03
760.15	239.84
760.47	239.69
760.80	239.50
761.13	239.33
761.45	239.13
761.78	238.97
762.11	238.77
762.43	238.60
762.76	238.44
763.08	238.30
763.41	238.13
763.74	238.01
764.06	237.81
764.39	237.65
764.71	237.53
765.04	237.34
765.37	237.16
765.69	237.02
766.02	236.85
766.34	236.71
766.67	236.54
767.00	236.45
767.32	236.34
767.65	236.29
767.97	236.18
768.30	236.07
768.62	235.93
768.95	235.83
769.27	235.69
769.60	235.53
769.92	235.39
770.25	235.28
770.57	235.13
770.90	235.04
771.22	234.94
771.55	234.79
771.87	234.71
772.20	234.59
772.52	234.54
772.85	234.56
773.17	234.45
773.50	234.32
773.82	234.19
774.15	234.06
774.47	233.87
774.80	233.74
775.12	233.61
775.45	233.51
775.77	233.40
776.09	233.35
776.42	233.25
776.74	233.17
777.07	233.06
777.39	232.98
777.72	232.89
778.04	232.82
778.36	232.73
778.69	232.66
779.01	232.59
779.33	232.44
779.66	232.22
779.98	232.13
780.31	232.07
780.63	232.07
780.95	231.97
781.28	231.91
781.60	231.80
781.92	231.74
782.25	231.66
782.57	231.58
782.89	231.49
783.22	231.43
783.54	231.34
783.86	231.28
784.19	231.19
784.51	231.12
784.83	230.98
785.16	230.90
785.48	230.82
785.80	230.77
786.12	230.74
786.45	230.68
