SpectraSuite Data File
++++++++++++++++++++++++++++++++++++
Date: Fri Feb 01 15:27:33 EST 2013
User: group
Dark Spectrum Present: No
Reference Spectrum Present: No
Number of Sampled Component Spectra: 1
Spectrometers: USB2E7196
Integration Time (usec): 35000 (USB2E7196)
Spectra Averaged: 100 (USB2E7196)
Boxcar Smoothing: 10 (USB2E7196)
Correct for Electrical Dark: No (USB2E7196)
Strobe/Lamp Enabled: No (USB2E7196)
Correct for Detector Non-linearity: No (USB2E7196)
Correct for Stray Light: No (USB2E7196)
Number of Pixels in Processed Spectrum: 2048
>>>>>Begin Processed Spectral Data<<<<<
339.09	0.00
339.48	214.88
339.86	216.45
340.24	218.14
340.63	218.74
341.01	221.85
341.39	221.72
341.78	223.02
342.16	224.62
342.54	225.09
342.93	213.25
343.31	224.02
343.69	224.57
344.07	225.02
344.46	225.42
344.84	225.79
345.22	226.03
345.60	226.29
345.99	226.48
346.37	226.57
346.75	226.67
347.13	226.75
347.52	226.77
347.90	226.82
348.28	226.86
348.66	226.92
349.05	226.95
349.43	227.00
349.81	227.05
350.19	227.10
350.57	227.16
350.96	227.27
351.34	227.35
351.72	227.43
352.10	227.56
352.48	227.62
352.87	227.69
353.25	227.78
353.63	227.84
354.01	227.94
354.39	228.04
354.77	228.10
355.15	228.17
355.54	228.24
355.92	228.28
356.30	228.39
356.68	228.50
357.06	228.52
357.44	228.60
357.82	228.64
358.20	228.71
358.58	228.78
358.97	228.83
359.35	228.92
359.73	228.99
360.11	229.04
360.49	229.12
360.87	229.20
361.25	229.26
361.63	229.32
362.01	229.33
362.39	229.35
362.77	229.42
363.15	229.45
363.53	229.48
363.91	229.51
364.29	229.50
364.67	229.44
365.05	229.49
365.43	229.52
365.81	229.57
366.19	229.62
366.57	229.66
366.95	229.67
367.33	229.62
367.71	229.61
368.09	229.59
368.47	229.57
368.85	229.50
369.23	229.45
369.61	229.39
369.99	229.41
370.37	229.43
370.75	229.46
371.13	229.40
371.51	229.38
371.89	229.34
372.27	229.29
372.65	229.26
373.03	229.23
373.41	229.13
373.78	229.05
374.16	228.92
374.54	228.83
374.92	228.73
375.30	228.68
375.68	228.61
376.06	228.55
376.44	228.46
376.82	228.41
377.19	228.39
377.57	228.31
377.95	228.20
378.33	228.11
378.71	227.95
379.09	227.88
379.47	227.82
379.84	227.75
380.22	227.72
380.60	227.62
380.98	227.51
381.36	227.44
381.73	227.37
382.11	227.34
382.49	227.27
382.87	227.23
383.25	227.17
383.62	227.22
384.00	227.14
384.38	227.08
384.76	227.05
385.13	227.02
385.51	226.97
385.89	226.90
386.27	226.85
386.64	226.82
387.02	226.78
387.40	226.68
387.78	226.67
388.15	226.59
388.53	226.58
388.91	226.54
389.29	226.51
389.66	226.51
390.04	226.43
390.42	226.42
390.79	226.38
391.17	226.35
391.55	226.22
391.92	226.21
392.30	226.24
392.68	226.22
393.05	226.18
393.43	226.20
393.81	226.19
394.18	226.19
394.56	226.22
394.94	226.24
395.31	226.31
395.69	226.32
396.06	226.34
396.44	226.33
396.82	226.38
397.19	226.43
397.57	226.45
397.95	226.55
398.32	226.56
398.70	226.62
399.07	226.72
399.45	226.79
399.82	226.83
400.20	226.90
400.58	226.96
400.95	227.05
401.33	227.14
401.70	227.32
402.08	227.42
402.45	227.50
402.83	227.64
403.20	227.73
403.58	227.84
403.95	228.02
404.33	228.17
404.71	228.28
405.08	228.50
405.46	228.63
405.83	228.79
406.21	228.96
406.58	229.14
406.96	229.29
407.33	229.49
407.70	229.71
408.08	229.97
408.45	230.18
408.83	230.38
409.20	230.61
409.58	230.79
409.95	231.04
410.33	231.35
410.70	231.58
411.08	231.91
411.45	232.21
411.82	232.49
412.20	232.85
412.57	233.31
412.95	233.61
413.32	234.05
413.69	234.44
414.07	234.90
414.44	235.38
414.82	235.87
415.19	236.45
415.56	236.98
415.94	237.52
416.31	238.20
416.68	238.85
417.06	239.57
417.43	240.25
417.81	241.02
418.18	241.76
418.55	242.60
418.93	243.45
419.30	244.35
419.67	245.31
420.04	246.28
420.42	247.25
420.79	248.44
421.16	249.56
421.54	250.78
421.91	251.99
422.28	253.27
422.66	254.59
423.03	255.83
423.40	257.21
423.77	258.61
424.15	260.04
424.52	261.54
424.89	263.16
425.26	264.71
425.64	266.17
426.01	267.77
426.38	269.45
426.75	271.11
427.13	272.83
427.50	274.65
427.87	276.55
428.24	278.39
428.61	280.13
428.99	282.11
429.36	284.20
429.73	286.29
430.10	288.32
430.47	290.37
430.85	292.52
431.22	294.74
431.59	297.13
431.96	299.37
432.33	301.86
432.70	304.19
433.08	306.99
433.45	309.67
433.82	312.31
434.19	315.20
434.56	318.03
434.93	320.68
435.30	323.27
435.68	326.14
436.05	328.99
436.42	331.80
436.79	334.30
437.16	337.00
437.53	339.82
437.90	342.63
438.27	345.37
438.64	348.18
439.01	350.80
439.38	353.05
439.75	355.22
440.13	357.68
440.50	360.03
440.87	361.89
441.24	363.77
441.61	365.88
441.98	367.40
442.35	369.16
442.72	371.02
443.09	372.86
443.46	373.84
443.83	374.42
444.20	374.94
444.57	375.73
444.94	375.99
445.31	376.36
445.68	376.70
446.05	376.80
446.42	376.37
446.79	375.93
447.16	375.49
447.53	375.19
447.90	374.05
448.27	372.87
448.64	371.31
449.01	370.21
449.37	368.23
449.74	366.29
450.11	364.05
450.48	361.56
450.85	358.99
451.22	356.84
451.59	354.78
451.96	352.82
452.33	350.21
452.70	347.88
453.07	345.06
453.43	342.12
453.80	339.32
454.17	336.68
454.54	334.16
454.91	331.39
455.28	328.70
455.65	326.18
456.02	323.75
456.38	321.58
456.75	318.89
457.12	316.69
457.49	314.50
457.86	312.35
458.23	310.51
458.59	308.47
458.96	306.41
459.33	304.57
459.70	302.71
460.07	301.27
460.43	299.59
460.80	297.92
461.17	296.53
461.54	295.10
461.91	293.72
462.27	292.25
462.64	291.05
463.01	289.74
463.38	288.48
463.74	287.16
464.11	286.01
464.48	285.01
464.85	283.91
465.21	283.03
465.58	282.11
465.95	281.03
466.32	280.13
466.68	279.21
467.05	278.33
467.42	277.44
467.78	276.45
468.15	275.53
468.52	274.87
468.88	274.01
469.25	273.22
469.62	272.55
469.98	271.89
470.35	271.22
470.72	270.55
471.08	269.90
471.45	269.35
471.82	268.77
472.18	268.16
472.55	267.71
472.92	267.15
473.28	266.73
473.65	266.25
474.02	265.79
474.38	265.48
474.75	265.14
475.11	264.79
475.48	264.55
475.85	264.32
476.21	264.12
476.58	263.92
476.94	263.74
477.31	263.58
477.67	263.47
478.04	263.34
478.41	263.29
478.77	263.31
479.14	263.23
479.50	263.25
479.87	263.33
480.23	263.36
480.60	263.45
480.96	263.45
481.33	263.68
481.69	263.90
482.06	264.05
482.42	264.26
482.79	264.53
483.15	264.81
483.52	265.20
483.88	265.50
484.25	265.87
484.61	266.30
484.98	266.71
485.34	267.24
485.71	267.86
486.07	268.46
486.44	269.02
486.80	269.71
487.17	270.42
487.53	271.22
487.90	272.06
488.26	273.05
488.62	274.07
488.99	275.05
489.35	276.07
489.72	277.20
490.08	278.42
490.44	279.62
490.81	280.94
491.17	282.29
491.54	283.77
491.90	285.31
492.26	286.95
492.63	288.74
492.99	290.45
493.36	292.31
493.72	294.35
494.08	296.47
494.45	298.72
494.81	301.10
495.17	303.51
495.54	306.10
495.90	308.72
496.26	311.49
496.63	314.39
496.99	317.51
497.35	320.72
497.72	324.08
498.08	327.56
498.44	331.25
498.80	335.18
499.17	339.20
499.53	343.38
499.89	347.76
500.26	352.23
500.62	356.93
500.98	361.90
501.34	366.97
501.71	372.27
502.07	377.69
502.43	383.29
502.79	389.11
503.16	395.16
503.52	401.44
503.88	407.85
504.24	414.54
504.60	421.39
504.97	428.59
505.33	435.88
505.69	443.67
506.05	451.49
506.41	459.34
506.78	467.53
507.14	475.94
507.50	484.62
507.86	493.68
508.22	502.86
508.59	512.12
508.95	521.71
509.31	531.53
509.67	541.65
510.03	551.96
510.39	562.61
510.75	573.42
511.12	584.35
511.48	595.66
511.84	607.14
512.20	618.76
512.56	630.68
512.92	642.90
513.28	655.18
513.64	667.63
514.00	680.40
514.37	693.34
514.73	706.53
515.09	719.66
515.45	732.94
515.81	746.60
516.17	760.56
516.53	774.70
516.89	788.91
517.25	803.10
517.61	817.51
517.97	831.91
518.33	846.44
518.69	861.29
519.05	876.34
519.41	891.49
519.77	907.01
520.13	922.54
520.49	937.96
520.85	953.42
521.21	969.29
521.57	985.56
521.93	1001.35
522.29	1017.80
522.65	1034.05
523.01	1050.34
523.37	1066.37
523.73	1082.64
524.09	1098.85
524.45	1115.32
524.81	1132.03
525.17	1148.97
525.53	1165.92
525.89	1182.80
526.25	1199.64
526.61	1216.10
526.97	1232.92
527.33	1249.47
527.68	1266.01
528.04	1282.61
528.40	1299.34
528.76	1316.30
529.12	1332.89
529.48	1349.69
529.84	1365.79
530.20	1382.48
530.56	1399.60
530.91	1416.97
531.27	1433.82
531.63	1450.24
531.99	1466.80
532.35	1482.84
532.71	1498.67
533.07	1514.89
533.42	1530.85
533.78	1546.90
534.14	1563.23
534.50	1578.55
534.86	1594.50
535.21	1609.87
535.57	1625.87
535.93	1641.38
536.29	1656.30
536.65	1671.59
537.00	1686.65
537.36	1702.01
537.72	1716.65
538.08	1731.09
538.44	1744.95
538.79	1758.80
539.15	1772.58
539.51	1786.39
539.87	1800.78
540.22	1814.62
540.58	1828.63
540.94	1842.12
541.29	1855.15
541.65	1868.00
542.01	1881.44
542.37	1893.82
542.72	1906.28
543.08	1918.08
543.44	1930.49
543.79	1941.70
544.15	1952.66
544.51	1964.26
544.87	1975.15
545.22	1985.95
545.58	1996.21
545.94	2006.16
546.29	2016.03
546.65	2025.88
547.01	2035.10
547.36	2043.92
547.72	2052.44
548.07	2060.25
548.43	2068.31
548.79	2076.42
549.14	2083.90
549.50	2091.23
549.86	2098.94
550.21	2106.27
550.57	2113.56
550.92	2120.28
551.28	2127.47
551.64	2134.50
551.99	2141.02
552.35	2147.18
552.70	2153.41
553.06	2159.37
553.41	2165.77
553.77	2171.95
554.13	2178.02
554.48	2184.16
554.84	2189.51
555.19	2194.89
555.55	2200.04
555.90	2204.59
556.26	2209.35
556.61	2214.01
556.97	2218.19
557.32	2222.31
557.68	2226.53
558.03	2230.78
558.39	2234.52
558.74	2239.17
559.10	2243.04
559.45	2246.71
559.81	2251.04
560.16	2254.84
560.52	2258.10
560.87	2261.58
561.23	2264.23
561.58	2267.23
561.94	2269.88
562.29	2272.38
562.64	2275.03
563.00	2277.64
563.35	2281.22
563.71	2284.41
564.06	2287.65
564.42	2290.48
564.77	2292.85
565.12	2295.17
565.48	2296.90
565.83	2298.66
566.19	2299.89
566.54	2300.88
566.89	2302.02
567.25	2302.74
567.60	2303.95
567.96	2305.56
568.31	2306.27
568.66	2307.35
569.02	2307.92
569.37	2308.08
569.72	2308.69
570.08	2308.73
570.43	2308.64
570.78	2307.79
571.14	2306.22
571.49	2304.83
571.84	2304.52
572.20	2303.28
572.55	2302.09
572.90	2300.58
573.26	2299.05
573.61	2297.22
573.96	2295.20
574.31	2292.21
574.67	2288.97
575.02	2285.38
575.37	2281.92
575.72	2278.03
576.08	2274.61
576.43	2271.17
576.78	2267.43
577.13	2264.36
577.49	2261.31
577.84	2257.92
578.19	2254.13
578.54	2250.34
578.90	2245.88
579.25	2240.25
579.60	2235.32
579.95	2230.15
580.30	2225.06
580.66	2219.99
581.01	2215.06
581.36	2210.28
581.71	2205.85
582.06	2201.36
582.42	2196.67
582.77	2191.26
583.12	2186.51
583.47	2181.54
583.82	2176.41
584.17	2171.16
584.53	2165.44
584.88	2159.72
585.23	2153.75
585.58	2148.25
585.93	2142.78
586.28	2138.10
586.63	2132.85
586.98	2127.73
587.34	2122.95
587.69	2117.91
588.04	2112.53
588.39	2106.66
588.74	2100.13
589.09	2093.92
589.44	2087.07
589.79	2081.10
590.14	2075.53
590.49	2069.01
590.84	2062.60
591.19	2056.52
591.54	2049.99
591.89	2042.52
592.25	2035.55
592.60	2028.26
592.95	2020.61
593.30	2013.15
593.65	2005.49
594.00	1998.43
594.35	1991.23
594.70	1983.12
595.05	1975.90
595.40	1968.45
595.75	1960.88
596.10	1954.47
596.45	1947.67
596.80	1941.48
597.15	1934.66
597.50	1927.49
597.85	1920.98
598.19	1914.31
598.54	1907.32
598.89	1900.55
599.24	1894.72
599.59	1887.89
599.94	1881.69
600.29	1875.23
600.64	1868.81
600.99	1861.26
601.34	1854.35
601.69	1847.20
602.04	1840.24
602.39	1832.86
602.74	1826.05
603.08	1819.47
603.43	1812.65
603.78	1805.34
604.13	1798.04
604.48	1790.78
604.83	1783.87
605.18	1776.69
605.53	1768.58
605.87	1760.45
606.22	1753.15
606.57	1745.22
606.92	1737.97
607.27	1730.64
607.62	1723.81
607.96	1716.29
608.31	1709.73
608.66	1702.08
609.01	1694.45
609.36	1686.90
609.70	1678.79
610.05	1670.63
610.40	1662.89
610.75	1654.64
611.10	1646.90
611.44	1638.57
611.79	1630.59
612.14	1621.97
612.49	1612.98
612.83	1604.70
613.18	1596.54
613.53	1588.47
613.88	1579.91
614.22	1571.55
614.57	1563.07
614.92	1554.90
615.27	1547.34
615.61	1538.95
615.96	1531.10
616.31	1523.50
616.65	1516.21
617.00	1508.67
617.35	1501.09
617.70	1492.60
618.04	1484.03
618.39	1475.90
618.74	1468.25
619.08	1459.96
619.43	1452.36
619.78	1445.37
620.12	1438.08
620.47	1430.47
620.82	1422.47
621.16	1415.10
621.51	1407.64
621.85	1399.91
622.20	1391.43
622.55	1383.15
622.89	1375.39
623.24	1367.78
623.59	1360.41
623.93	1352.76
624.28	1345.58
624.62	1337.97
624.97	1330.77
625.32	1323.99
625.66	1316.99
626.01	1309.70
626.35	1302.12
626.70	1294.30
627.04	1286.48
627.39	1278.81
627.73	1271.38
628.08	1264.36
628.43	1256.87
628.77	1249.40
629.12	1241.93
629.46	1234.88
629.81	1227.43
630.15	1220.08
630.50	1212.54
630.84	1204.37
631.19	1196.43
631.53	1188.89
631.88	1181.31
632.22	1173.76
632.57	1166.46
632.91	1158.97
633.26	1151.61
633.60	1144.32
633.95	1137.34
634.29	1130.39
634.64	1123.76
634.98	1116.44
635.32	1109.29
635.67	1102.86
636.01	1096.26
636.36	1089.48
636.70	1082.99
637.05	1076.33
637.39	1069.97
637.73	1063.56
638.08	1057.73
638.42	1051.88
638.77	1045.40
639.11	1038.91
639.45	1032.57
639.80	1025.94
640.14	1019.30
640.49	1012.79
640.83	1006.51
641.17	1000.17
641.52	993.84
641.86	987.40
642.20	981.61
642.55	975.23
642.89	968.69
643.23	962.18
643.58	956.35
643.92	950.10
644.26	944.05
644.61	938.04
644.95	931.93
645.29	925.28
645.64	918.55
645.98	912.24
646.32	906.36
646.66	900.27
647.01	894.57
647.35	889.01
647.69	883.19
648.04	877.71
648.38	871.89
648.72	865.88
649.06	859.75
649.41	853.85
649.75	847.83
650.09	841.82
650.43	836.01
650.78	829.82
651.12	823.86
651.46	818.21
651.80	812.34
652.14	806.95
652.49	801.68
652.83	796.42
653.17	790.76
653.51	784.98
653.85	779.61
654.20	773.86
654.54	767.90
654.88	762.15
655.22	756.19
655.56	750.65
655.90	745.24
656.25	739.96
656.59	734.62
656.93	729.57
657.27	724.46
657.61	719.04
657.95	713.91
658.29	708.77
658.64	703.48
658.98	698.20
659.32	692.77
659.66	687.50
660.00	682.19
660.34	677.21
660.68	672.34
661.02	667.31
661.36	662.58
661.70	658.04
662.05	653.68
662.39	649.35
662.73	644.87
663.07	640.52
663.41	636.09
663.75	631.62
664.09	627.15
664.43	622.79
664.77	618.66
665.11	614.49
665.45	610.41
665.79	606.38
666.13	602.32
666.47	598.15
666.81	593.99
667.15	589.87
667.49	586.04
667.83	582.25
668.17	578.34
668.51	574.29
668.85	570.21
669.19	566.37
669.53	562.54
669.87	558.65
670.21	554.88
670.55	551.27
670.89	547.81
671.23	544.32
671.57	540.79
671.91	537.23
672.25	533.75
672.58	530.25
672.92	526.84
673.26	523.70
673.60	520.62
673.94	517.50
674.28	514.62
674.62	511.60
674.96	508.47
675.30	505.55
675.64	502.63
675.97	499.92
676.31	497.03
676.65	494.09
676.99	491.37
677.33	488.58
677.67	485.73
678.01	482.72
678.34	479.72
678.68	476.79
679.02	474.00
679.36	471.24
679.70	468.52
680.04	465.68
680.37	462.73
680.71	459.92
681.05	457.27
681.39	454.60
681.73	451.95
682.06	449.43
682.40	446.85
682.74	444.37
683.08	441.80
683.42	439.21
683.75	436.75
684.09	434.21
684.43	431.69
684.77	429.26
685.10	426.95
685.44	424.67
685.78	422.48
686.12	420.25
686.45	417.96
686.79	415.64
687.13	413.51
687.46	411.37
687.80	409.26
688.14	407.04
688.48	404.97
688.81	402.76
689.15	400.63
689.49	398.49
689.82	396.47
690.16	394.39
690.50	392.46
690.83	390.47
691.17	388.51
691.51	386.65
691.84	384.79
692.18	382.85
692.52	380.88
692.85	378.93
693.19	377.02
693.52	375.21
693.86	373.43
694.20	371.69
694.53	369.91
694.87	368.08
695.21	366.35
695.54	364.52
695.88	362.83
696.21	361.13
696.55	359.42
696.88	357.69
697.22	356.05
697.56	354.47
697.89	352.83
698.23	351.23
698.56	349.62
698.90	348.07
699.23	346.43
699.57	344.92
699.90	343.40
700.24	341.91
700.58	340.35
700.91	338.83
701.25	337.34
701.58	336.01
701.92	334.65
702.25	333.28
702.59	331.96
702.92	330.60
703.26	329.31
703.59	328.05
703.93	326.84
704.26	325.61
704.60	324.30
704.93	323.03
705.26	321.77
705.60	320.63
705.93	319.46
706.27	318.43
706.60	317.37
706.94	316.30
707.27	315.12
707.61	314.12
707.94	313.12
708.27	312.04
708.61	310.93
708.94	309.88
709.28	308.88
709.61	307.87
709.94	306.91
710.28	305.85
710.61	304.90
710.95	303.85
711.28	302.92
711.61	301.90
711.95	300.98
712.28	300.03
712.61	299.01
712.95	298.07
713.28	297.19
713.61	296.29
713.95	295.38
714.28	294.58
714.61	293.69
714.95	292.84
715.28	291.97
715.61	291.10
715.95	290.24
716.28	289.43
716.61	288.60
716.95	287.79
717.28	287.06
717.61	286.27
717.94	285.54
718.28	284.74
718.61	284.07
718.94	283.41
719.27	282.73
719.61	282.09
719.94	281.43
720.27	280.70
720.60	280.02
720.94	279.40
721.27	278.81
721.60	278.21
721.93	277.61
722.27	277.10
722.60	276.54
722.93	276.02
723.26	275.46
723.59	274.87
723.93	274.34
724.26	273.83
724.59	273.33
724.92	272.81
725.25	272.30
725.59	271.76
725.92	271.18
726.25	270.69
726.58	270.16
726.91	269.65
727.24	269.17
727.57	268.72
727.91	268.21
728.24	267.73
728.57	267.29
728.90	266.85
729.23	266.31
729.56	265.90
729.89	265.42
730.22	264.94
730.55	264.49
730.89	264.02
731.22	263.58
731.55	263.11
731.88	262.68
732.21	262.21
732.54	261.80
732.87	261.43
733.20	261.06
733.53	260.71
733.86	260.32
734.19	259.93
734.52	259.57
734.85	259.27
735.18	258.83
735.51	258.41
735.84	258.03
736.17	257.72
736.50	257.33
736.83	257.07
737.16	256.76
737.49	256.42
737.82	256.11
738.15	255.76
738.48	255.43
738.81	255.11
739.14	254.83
739.47	254.50
739.80	254.18
740.13	253.85
740.46	253.54
740.79	253.24
741.12	252.94
741.45	252.60
741.78	252.25
742.11	252.01
742.44	251.72
742.77	251.47
743.10	251.14
743.43	250.84
743.75	250.46
744.08	250.33
744.41	250.09
744.74	249.80
745.07	249.50
745.40	249.27
745.73	249.05
746.06	248.78
746.39	248.52
746.71	248.25
747.04	247.99
747.37	247.73
747.70	247.50
748.03	247.25
748.36	247.03
748.68	246.79
749.01	246.54
749.34	246.29
749.67	246.00
750.00	245.79
750.33	245.67
750.65	245.48
750.98	245.09
751.31	244.86
751.64	244.66
751.97	244.52
752.29	244.32
752.62	244.03
752.95	243.82
753.28	243.61
753.60	243.44
753.93	243.28
754.26	243.08
754.59	242.85
754.91	242.64
755.24	242.44
755.57	242.26
755.90	242.07
756.22	241.90
756.55	241.74
756.88	241.52
757.20	241.26
757.53	241.06
757.86	240.89
758.19	240.72
758.51	240.57
758.84	240.36
759.17	240.15
759.49	240.03
759.82	239.90
760.15	239.72
760.47	239.55
760.80	239.36
761.13	239.22
761.45	239.05
761.78	238.89
762.11	238.72
762.43	238.56
762.76	238.42
763.08	238.26
763.41	238.12
763.74	237.99
764.06	237.86
764.39	237.72
764.71	237.57
765.04	237.45
765.37	237.29
765.69	237.15
766.02	237.00
766.34	236.87
766.67	236.70
767.00	236.59
767.32	236.53
767.65	236.46
767.97	236.33
768.30	236.22
768.62	236.12
768.95	236.01
769.27	235.88
769.60	235.80
769.92	235.68
770.25	235.54
770.57	235.43
770.90	235.31
771.22	235.21
771.55	235.13
771.87	235.01
772.20	234.92
772.52	234.91
772.85	234.91
773.17	234.81
773.50	234.73
773.82	234.65
774.15	234.48
774.47	234.34
774.80	234.25
775.12	234.18
775.45	234.07
775.77	234.03
776.09	233.94
776.42	233.82
776.74	233.80
777.07	233.72
777.39	233.66
777.72	233.56
778.04	233.50
778.36	233.41
778.69	233.34
779.01	233.28
779.33	233.14
779.66	232.99
779.98	232.93
780.31	232.85
780.63	232.83
780.95	232.80
781.28	232.76
781.60	232.69
781.92	232.63
782.25	232.57
782.57	232.49
782.89	232.45
783.22	232.40
783.54	232.32
783.86	232.26
784.19	232.23
784.51	232.20
784.83	232.11
785.16	232.09
785.48	232.09
785.80	232.02
786.12	231.96
786.45	231.94
786.77	231.90
787.09	231.86
