SpectraSuite Data File
++++++++++++++++++++++++++++++++++++
Date: Fri Feb 01 16:28:02 EST 2013
User: group
Dark Spectrum Present: No
Reference Spectrum Present: No
Number of Sampled Component Spectra: 1
Spectrometers: USB2E7196
Integration Time (usec): 35000 (USB2E7196)
Spectra Averaged: 100 (USB2E7196)
Boxcar Smoothing: 10 (USB2E7196)
Correct for Electrical Dark: No (USB2E7196)
Strobe/Lamp Enabled: No (USB2E7196)
Correct for Detector Non-linearity: No (USB2E7196)
Correct for Stray Light: No (USB2E7196)
Number of Pixels in Processed Spectrum: 2048
>>>>>Begin Processed Spectral Data<<<<<
339.09	0.00
339.48	213.41
339.86	214.91
340.24	216.59
340.63	218.51
341.01	220.31
341.39	220.15
341.78	222.52
342.16	223.23
342.54	223.61
342.93	212.10
343.31	222.80
343.69	223.33
344.07	223.82
344.46	224.24
344.84	224.58
345.22	224.82
345.60	225.09
345.99	225.25
346.37	225.38
346.75	225.45
347.13	225.51
347.52	225.56
347.90	225.61
348.28	225.62
348.66	225.65
349.05	225.65
349.43	225.69
349.81	225.75
350.19	225.75
350.57	225.82
350.96	225.91
351.34	226.00
351.72	226.12
352.10	226.19
352.48	226.26
352.87	226.34
353.25	226.43
353.63	226.50
354.01	226.58
354.39	226.66
354.77	226.76
355.15	226.86
355.54	226.96
355.92	226.99
356.30	227.07
356.68	227.20
357.06	227.28
357.44	227.33
357.82	227.42
358.20	227.53
358.58	227.59
358.97	227.64
359.35	227.76
359.73	227.83
360.11	227.91
360.49	228.00
360.87	228.05
361.25	228.13
361.63	228.22
362.01	228.26
362.39	228.29
362.77	228.33
363.15	228.38
363.53	228.36
363.91	228.40
364.29	228.46
364.67	228.40
365.05	228.43
365.43	228.50
365.81	228.50
366.19	228.53
366.57	228.59
366.95	228.62
367.33	228.57
367.71	228.58
368.09	228.55
368.47	228.53
368.85	228.52
369.23	228.52
369.61	228.48
369.99	228.51
370.37	228.51
370.75	228.57
371.13	228.53
371.51	228.51
371.89	228.49
372.27	228.48
372.65	228.47
373.03	228.42
373.41	228.34
373.78	228.26
374.16	228.18
374.54	228.07
374.92	228.01
375.30	227.98
375.68	227.91
376.06	227.87
376.44	227.80
376.82	227.72
377.19	227.64
377.57	227.56
377.95	227.46
378.33	227.33
378.71	227.18
379.09	227.14
379.47	227.06
379.84	226.96
380.22	226.86
380.60	226.74
380.98	226.68
381.36	226.61
381.73	226.55
382.11	226.47
382.49	226.42
382.87	226.33
383.25	226.28
383.62	226.33
384.00	226.24
384.38	226.20
384.76	226.15
385.13	226.16
385.51	226.11
385.89	226.05
386.27	226.03
386.64	226.01
387.02	225.94
387.40	225.93
387.78	225.92
388.15	225.92
388.53	225.90
388.91	225.86
389.29	225.84
389.66	225.83
390.04	225.79
390.42	225.77
390.79	225.77
391.17	225.75
391.55	225.61
391.92	225.60
392.30	225.61
392.68	225.56
393.05	225.52
393.43	225.51
393.81	225.51
394.18	225.53
394.56	225.55
394.94	225.57
395.31	225.55
395.69	225.57
396.06	225.55
396.44	225.57
396.82	225.56
397.19	225.65
397.57	225.68
397.95	225.73
398.32	225.78
398.70	225.86
399.07	225.90
399.45	225.95
399.82	226.01
400.20	226.03
400.58	226.16
400.95	226.18
401.33	226.30
401.70	226.45
402.08	226.51
402.45	226.57
402.83	226.70
403.20	226.80
403.58	226.91
403.95	227.08
404.33	227.22
404.71	227.37
405.08	227.52
405.46	227.66
405.83	227.82
406.21	227.94
406.58	228.09
406.96	228.23
407.33	228.42
407.70	228.61
408.08	228.91
408.45	229.09
408.83	229.37
409.20	229.57
409.58	229.76
409.95	230.01
410.33	230.30
410.70	230.56
411.08	230.89
411.45	231.21
411.82	231.50
412.20	231.84
412.57	232.25
412.95	232.55
413.32	232.98
413.69	233.40
414.07	233.86
414.44	234.31
414.82	234.81
415.19	235.36
415.56	235.91
415.94	236.44
416.31	237.08
416.68	237.67
417.06	238.39
417.43	239.09
417.81	239.89
418.18	240.66
418.55	241.52
418.93	242.38
419.30	243.27
419.67	244.20
420.04	245.15
420.42	246.13
420.79	247.34
421.16	248.49
421.54	249.68
421.91	250.86
422.28	252.16
422.66	253.47
423.03	254.77
423.40	256.12
423.77	257.52
424.15	258.96
424.52	260.45
424.89	262.01
425.26	263.53
425.64	264.96
426.01	266.56
426.38	268.17
426.75	269.84
427.13	271.55
427.50	273.37
427.87	275.25
428.24	277.11
428.61	278.81
428.99	280.73
429.36	282.78
429.73	284.89
430.10	286.88
430.47	288.95
430.85	291.04
431.22	293.23
431.59	295.58
431.96	297.82
432.33	300.24
432.70	302.62
433.08	305.37
433.45	308.00
433.82	310.57
434.19	313.42
434.56	316.21
434.93	318.86
435.30	321.44
435.68	324.29
436.05	327.12
436.42	329.88
436.79	332.36
437.16	335.04
437.53	337.82
437.90	340.60
438.27	343.34
438.64	346.18
439.01	348.78
439.38	350.99
439.75	353.11
440.13	355.60
440.50	357.88
440.87	359.77
441.24	361.65
441.61	363.80
441.98	365.28
442.35	367.08
442.72	368.90
443.09	370.67
443.46	371.63
443.83	372.21
444.20	372.69
444.57	373.53
444.94	373.80
445.31	374.14
445.68	374.43
446.05	374.50
446.42	374.11
446.79	373.71
447.16	373.31
447.53	373.03
447.90	371.89
448.27	370.78
448.64	369.22
449.01	368.12
449.37	366.14
449.74	364.28
450.11	362.01
450.48	359.57
450.85	357.04
451.22	354.91
451.59	352.89
451.96	351.00
452.33	348.46
452.70	346.13
453.07	343.31
453.43	340.51
453.80	337.77
454.17	335.09
454.54	332.52
454.91	329.79
455.28	327.10
455.65	324.63
456.02	322.19
456.38	320.02
456.75	317.37
457.12	315.14
457.49	312.90
457.86	310.76
458.23	308.91
458.59	306.90
458.96	304.82
459.33	302.98
459.70	301.11
460.07	299.60
460.43	297.92
460.80	296.33
461.17	294.91
461.54	293.41
461.91	292.03
462.27	290.61
462.64	289.37
463.01	288.03
463.38	286.76
463.74	285.36
464.11	284.21
464.48	283.13
464.85	282.03
465.21	281.20
465.58	280.30
465.95	279.23
466.32	278.36
466.68	277.51
467.05	276.63
467.42	275.77
467.78	274.83
468.15	273.95
468.52	273.25
468.88	272.41
469.25	271.63
469.62	271.02
469.98	270.35
470.35	269.72
470.72	269.13
471.08	268.50
471.45	268.00
471.82	267.48
472.18	266.97
472.55	266.56
472.92	266.02
473.28	265.54
473.65	265.09
474.02	264.66
474.38	264.30
474.75	263.95
475.11	263.66
475.48	263.45
475.85	263.25
476.21	263.07
476.58	262.85
476.94	262.74
477.31	262.56
477.67	262.43
478.04	262.32
478.41	262.28
478.77	262.31
479.14	262.27
479.50	262.29
479.87	262.34
480.23	262.46
480.60	262.54
480.96	262.67
481.33	262.87
481.69	263.06
482.06	263.24
482.42	263.47
482.79	263.72
483.15	263.99
483.52	264.35
483.88	264.72
484.25	265.15
484.61	265.57
484.98	266.00
485.34	266.55
485.71	267.14
486.07	267.75
486.44	268.35
486.80	269.02
487.17	269.72
487.53	270.58
487.90	271.40
488.26	272.34
488.62	273.34
488.99	274.33
489.35	275.40
489.72	276.53
490.08	277.70
490.44	278.93
490.81	280.24
491.17	281.58
491.54	283.06
491.90	284.57
492.26	286.19
492.63	287.91
492.99	289.68
493.36	291.56
493.72	293.59
494.08	295.70
494.45	298.01
494.81	300.42
495.17	302.83
495.54	305.45
495.90	308.12
496.26	310.91
496.63	313.86
496.99	316.98
497.35	320.22
497.72	323.66
498.08	327.17
498.44	330.87
498.80	334.75
499.17	338.79
499.53	342.99
499.89	347.37
500.26	351.91
500.62	356.62
500.98	361.59
501.34	366.71
501.71	372.04
502.07	377.45
502.43	383.10
502.79	388.91
503.16	394.96
503.52	401.25
503.88	407.62
504.24	414.30
504.60	421.23
504.97	428.35
505.33	435.68
505.69	443.41
506.05	451.18
506.41	459.08
506.78	467.21
507.14	475.63
507.50	484.34
507.86	493.37
508.22	502.61
508.59	511.87
508.95	521.45
509.31	531.26
509.67	541.46
510.03	551.74
510.39	562.35
510.75	573.11
511.12	584.03
511.48	595.31
511.84	606.80
512.20	618.26
512.56	630.18
512.92	642.39
513.28	654.71
513.64	667.17
514.00	679.94
514.37	692.96
514.73	706.03
515.09	719.17
515.45	732.35
515.81	745.82
516.17	759.82
516.53	773.94
516.89	788.12
517.25	802.15
517.61	816.53
517.97	830.92
518.33	845.36
518.69	860.15
519.05	875.16
519.41	890.24
519.77	905.70
520.13	921.17
520.49	936.43
520.85	951.76
521.21	967.43
521.57	983.58
521.93	999.23
522.29	1015.55
522.65	1031.58
523.01	1047.80
523.37	1063.93
523.73	1079.93
524.09	1095.79
524.45	1111.98
524.81	1128.57
525.17	1145.33
525.53	1162.25
525.89	1179.07
526.25	1195.73
526.61	1212.04
526.97	1228.68
527.33	1245.19
527.68	1261.70
528.04	1278.16
528.40	1294.70
528.76	1311.65
529.12	1328.22
529.48	1345.03
529.84	1361.06
530.20	1377.68
530.56	1394.63
530.91	1411.84
531.27	1428.57
531.63	1445.03
531.99	1461.45
532.35	1477.47
532.71	1493.29
533.07	1509.36
533.42	1525.13
533.78	1541.23
534.14	1557.44
534.50	1572.70
534.86	1588.38
535.21	1603.52
535.57	1619.35
535.93	1634.94
536.29	1649.76
536.65	1664.58
537.00	1679.16
537.36	1694.30
537.72	1708.68
538.08	1723.07
538.44	1736.76
538.79	1750.58
539.15	1764.15
539.51	1777.84
539.87	1791.92
540.22	1805.55
540.58	1819.31
540.94	1832.50
541.29	1845.14
541.65	1857.72
542.01	1870.83
542.37	1882.98
542.72	1895.23
543.08	1906.85
543.44	1919.02
543.79	1930.18
544.15	1941.16
544.51	1952.76
544.87	1963.66
545.22	1974.41
545.58	1984.47
545.94	1994.16
546.29	2003.90
546.65	2013.76
547.01	2022.83
547.36	2031.52
547.72	2039.89
548.07	2047.43
548.43	2055.52
548.79	2063.59
549.14	2071.01
549.50	2078.26
549.86	2085.95
550.21	2093.21
550.57	2100.40
550.92	2106.84
551.28	2113.69
551.64	2120.68
551.99	2127.12
552.35	2133.14
552.70	2139.43
553.06	2145.40
553.41	2151.70
553.77	2157.75
554.13	2163.76
554.48	2169.95
554.84	2175.38
555.19	2180.61
555.55	2185.91
555.90	2190.47
556.26	2195.41
556.61	2200.21
556.97	2204.45
557.32	2208.58
557.68	2212.76
558.03	2217.11
558.39	2220.89
558.74	2225.74
559.10	2229.71
559.45	2233.44
559.81	2237.90
560.16	2241.52
560.52	2244.74
560.87	2248.10
561.23	2250.73
561.58	2253.67
561.94	2256.19
562.29	2258.61
562.64	2261.25
563.00	2263.80
563.35	2267.23
563.71	2270.19
564.06	2273.32
564.42	2276.27
564.77	2278.92
565.12	2281.26
565.48	2283.14
565.83	2284.96
566.19	2286.16
566.54	2287.07
566.89	2288.20
567.25	2288.75
567.60	2290.20
567.96	2291.87
568.31	2292.84
568.66	2294.05
569.02	2294.68
569.37	2295.04
569.72	2295.92
570.08	2296.34
570.43	2296.56
570.78	2296.11
571.14	2294.62
571.49	2293.30
571.84	2293.06
572.20	2291.90
572.55	2290.78
572.90	2289.21
573.26	2288.02
573.61	2286.34
573.96	2284.53
574.31	2281.60
574.67	2278.61
575.02	2275.04
575.37	2271.68
575.72	2267.96
576.08	2264.55
576.43	2261.31
576.78	2257.73
577.13	2254.53
577.49	2251.37
577.84	2247.77
578.19	2244.10
578.54	2240.70
578.90	2236.51
579.25	2230.96
579.60	2226.02
579.95	2221.14
580.30	2216.26
580.66	2211.07
581.01	2206.23
581.36	2201.38
581.71	2197.24
582.06	2192.89
582.42	2188.40
582.77	2183.33
583.12	2178.95
583.47	2174.39
583.82	2169.40
584.17	2164.35
584.53	2158.85
584.88	2153.25
585.23	2147.68
585.58	2142.16
585.93	2136.72
586.28	2132.03
586.63	2127.12
586.98	2122.10
587.34	2117.30
587.69	2112.44
588.04	2107.24
588.39	2101.64
588.74	2095.24
589.09	2089.17
589.44	2082.37
589.79	2076.52
590.14	2070.98
590.49	2064.18
590.84	2057.78
591.19	2051.87
591.54	2045.45
591.89	2038.26
592.25	2031.47
592.60	2024.42
592.95	2016.87
593.30	2009.47
593.65	2002.06
594.00	1994.98
594.35	1987.91
594.70	1980.16
595.05	1972.92
595.40	1965.57
595.75	1958.10
596.10	1952.03
596.45	1945.38
596.80	1939.34
597.15	1932.74
597.50	1925.74
597.85	1919.37
598.19	1912.69
598.54	1905.55
598.89	1898.93
599.24	1893.15
599.59	1886.56
599.94	1880.26
600.29	1874.13
600.64	1867.67
600.99	1860.22
601.34	1853.41
601.69	1846.34
602.04	1839.47
602.39	1832.23
602.74	1825.50
603.08	1818.70
603.43	1811.86
603.78	1804.48
604.13	1797.45
604.48	1789.97
604.83	1783.06
605.18	1776.22
605.53	1768.40
605.87	1760.50
606.22	1753.35
606.57	1745.35
606.92	1738.09
607.27	1731.08
607.62	1724.15
607.96	1716.95
608.31	1710.41
608.66	1702.89
609.01	1695.39
609.36	1687.76
609.70	1679.84
610.05	1671.80
610.40	1664.18
610.75	1656.04
611.10	1648.52
611.44	1640.01
611.79	1632.20
612.14	1623.52
612.49	1614.37
612.83	1606.06
613.18	1597.86
613.53	1589.66
613.88	1581.06
614.22	1572.72
614.57	1564.08
614.92	1556.04
615.27	1548.42
615.61	1539.97
615.96	1531.98
616.31	1524.33
616.65	1517.07
617.00	1509.39
617.35	1501.79
617.70	1493.42
618.04	1484.96
618.39	1476.63
618.74	1469.02
619.08	1460.61
619.43	1453.06
619.78	1446.15
620.12	1438.87
620.47	1431.36
620.82	1423.18
621.16	1415.85
621.51	1408.47
621.85	1400.85
622.20	1392.20
622.55	1383.87
622.89	1376.13
623.24	1368.47
623.59	1361.17
623.93	1353.63
624.28	1346.51
624.62	1338.93
624.97	1331.78
625.32	1324.94
625.66	1317.91
626.01	1310.75
626.35	1303.45
626.70	1295.65
627.04	1287.87
627.39	1280.16
627.73	1272.73
628.08	1265.89
628.43	1258.66
628.77	1251.07
629.12	1243.45
629.46	1236.43
629.81	1228.98
630.15	1221.74
630.50	1214.34
630.84	1206.11
631.19	1198.18
631.53	1190.63
631.88	1183.13
632.22	1175.55
632.57	1168.23
632.91	1160.71
633.26	1153.25
633.60	1145.81
633.95	1138.72
634.29	1131.85
634.64	1125.26
634.98	1117.84
635.32	1110.62
635.67	1103.95
636.01	1097.23
636.36	1090.36
636.70	1083.79
637.05	1077.27
637.39	1070.71
637.73	1064.17
638.08	1058.23
638.42	1052.25
638.77	1045.77
639.11	1039.15
639.45	1032.71
639.80	1026.05
640.14	1019.71
640.49	1013.15
640.83	1006.72
641.17	1000.40
641.52	993.93
641.86	987.27
642.20	981.56
642.55	975.26
642.89	968.82
643.23	962.32
643.58	956.63
643.92	950.46
644.26	944.31
644.61	938.32
644.95	932.20
645.29	925.64
645.64	918.87
645.98	912.55
646.32	906.75
646.66	900.78
647.01	894.96
647.35	889.16
647.69	883.32
648.04	877.96
648.38	872.25
648.72	866.21
649.06	860.12
649.41	854.24
649.75	848.26
650.09	842.29
650.43	836.51
650.78	830.31
651.12	824.32
651.46	818.63
651.80	812.84
652.14	807.53
652.49	802.18
652.83	796.93
653.17	791.12
653.51	785.33
653.85	779.96
654.20	774.31
654.54	768.35
654.88	762.62
655.22	756.70
655.56	751.04
655.90	745.64
656.25	740.39
656.59	735.04
656.93	730.02
657.27	724.80
657.61	719.38
657.95	714.30
658.29	709.17
658.64	703.88
658.98	698.58
659.32	693.15
659.66	687.89
660.00	682.57
660.34	677.67
660.68	672.72
661.02	667.63
661.36	662.94
661.70	658.41
662.05	654.07
662.39	649.66
662.73	645.19
663.07	640.81
663.41	636.42
663.75	631.88
664.09	627.24
664.43	622.91
664.77	618.78
665.11	614.48
665.45	610.32
665.79	606.24
666.13	602.21
666.47	598.10
666.81	593.98
667.15	589.93
667.49	586.08
667.83	582.33
668.17	578.40
668.51	574.29
668.85	570.22
669.19	566.36
669.53	562.55
669.87	558.63
670.21	554.89
670.55	551.28
670.89	547.83
671.23	544.43
671.57	540.86
671.91	537.36
672.25	533.87
672.58	530.44
672.92	527.03
673.26	523.79
673.60	520.62
673.94	517.47
674.28	514.53
674.62	511.52
674.96	508.40
675.30	505.51
675.64	502.57
675.97	499.86
676.31	496.97
676.65	494.04
676.99	491.33
677.33	488.47
677.67	485.59
678.01	482.53
678.34	479.60
678.68	476.77
679.02	473.89
679.36	471.13
679.70	468.38
680.04	465.61
680.37	462.71
680.71	459.93
681.05	457.33
681.39	454.61
681.73	451.99
682.06	449.44
682.40	446.87
682.74	444.36
683.08	441.78
683.42	439.22
683.75	436.70
684.09	434.18
684.43	431.72
684.77	429.30
685.10	426.97
685.44	424.63
685.78	422.34
686.12	420.09
686.45	417.76
686.79	415.42
687.13	413.19
687.46	411.05
687.80	408.89
688.14	406.67
688.48	404.56
688.81	402.27
689.15	400.10
689.49	397.92
689.82	395.84
690.16	393.74
690.50	391.70
690.83	389.77
691.17	387.78
691.51	385.85
691.84	383.96
692.18	382.05
692.52	380.02
692.85	378.06
693.19	376.19
693.52	374.36
693.86	372.55
694.20	370.80
694.53	368.97
694.87	367.10
695.21	365.27
695.54	363.50
695.88	361.75
696.21	360.01
696.55	358.38
696.88	356.64
697.22	355.01
697.56	353.43
697.89	351.76
698.23	350.14
698.56	348.54
698.90	346.98
699.23	345.28
699.57	343.69
699.90	342.16
700.24	340.56
700.58	339.07
700.91	337.62
701.25	336.20
701.58	334.86
701.92	333.52
702.25	332.15
702.59	330.75
702.92	329.48
703.26	328.19
703.59	326.88
703.93	325.73
704.26	324.45
704.60	323.18
704.93	321.91
705.26	320.61
705.60	319.44
705.93	318.29
706.27	317.29
706.60	316.28
706.94	315.18
707.27	314.11
707.61	313.03
707.94	311.97
708.27	310.86
708.61	309.77
708.94	308.75
709.28	307.78
709.61	306.83
709.94	305.90
710.28	304.85
710.61	303.91
710.95	302.81
711.28	301.92
711.61	300.95
711.95	300.03
712.28	299.16
712.61	298.14
712.95	297.19
713.28	296.32
713.61	295.44
713.95	294.58
714.28	293.71
714.61	292.85
714.95	292.01
715.28	291.14
715.61	290.30
715.95	289.49
716.28	288.69
716.61	287.88
716.95	287.06
717.28	286.38
717.61	285.60
717.94	284.91
718.28	284.09
718.61	283.37
718.94	282.71
719.27	282.03
719.61	281.43
719.94	280.78
720.27	280.07
720.60	279.44
720.94	278.82
721.27	278.27
721.60	277.69
721.93	277.08
722.27	276.55
722.60	276.03
722.93	275.42
723.26	274.86
723.59	274.29
723.93	273.71
724.26	273.13
724.59	272.62
724.92	272.07
725.25	271.61
725.59	271.08
725.92	270.57
726.25	270.06
726.58	269.57
726.91	269.11
727.24	268.62
727.57	268.13
727.91	267.58
728.24	267.09
728.57	266.59
728.90	266.18
729.23	265.69
729.56	265.24
729.89	264.75
730.22	264.27
730.55	263.83
730.89	263.39
731.22	262.93
731.55	262.46
731.88	262.04
732.21	261.60
732.54	261.18
732.87	260.74
733.20	260.32
733.53	259.92
733.86	259.48
734.19	259.08
734.52	258.65
734.85	258.40
735.18	257.99
735.51	257.62
735.84	257.22
736.17	256.86
736.50	256.42
736.83	256.19
737.16	255.85
737.49	255.51
737.82	255.14
738.15	254.80
738.48	254.48
738.81	254.12
739.14	253.77
739.47	253.45
739.80	253.14
740.13	252.84
740.46	252.47
740.79	252.15
741.12	251.84
741.45	251.54
741.78	251.17
742.11	250.89
742.44	250.54
742.77	250.25
743.10	249.90
743.43	249.61
743.75	249.21
744.08	249.06
744.41	248.74
744.74	248.49
745.07	248.19
745.40	247.94
745.73	247.70
746.06	247.45
746.39	247.17
746.71	246.88
747.04	246.60
747.37	246.38
747.70	246.11
748.03	245.87
748.36	245.65
748.68	245.40
749.01	245.11
749.34	244.90
749.67	244.69
750.00	244.53
750.33	244.38
750.65	244.14
750.98	243.82
751.31	243.63
751.64	243.44
751.97	243.28
752.29	243.03
752.62	242.78
752.95	242.52
753.28	242.31
753.60	242.13
753.93	241.97
754.26	241.76
754.59	241.56
754.91	241.33
755.24	241.12
755.57	240.94
755.90	240.79
756.22	240.57
756.55	240.36
756.88	240.13
757.20	239.88
757.53	239.71
757.86	239.53
758.19	239.35
758.51	239.17
758.84	238.96
759.17	238.81
759.49	238.66
759.82	238.57
760.15	238.42
760.47	238.31
760.80	238.14
761.13	237.99
761.45	237.85
761.78	237.73
762.11	237.59
762.43	237.49
762.76	237.36
763.08	237.26
763.41	237.14
763.74	237.04
764.06	236.93
764.39	236.81
764.71	236.66
765.04	236.53
765.37	236.43
765.69	236.33
766.02	236.22
766.34	236.13
766.67	236.00
767.00	235.93
767.32	235.84
767.65	235.80
767.97	235.71
768.30	235.60
768.62	235.50
768.95	235.37
769.27	235.22
769.60	235.11
769.92	235.00
770.25	234.88
770.57	234.75
770.90	234.65
771.22	234.55
771.55	234.47
771.87	234.37
772.20	234.25
772.52	234.22
772.85	234.25
773.17	234.16
773.50	234.06
773.82	233.93
774.15	233.78
774.47	233.61
774.80	233.52
775.12	233.42
775.45	233.37
775.77	233.32
776.09	233.27
776.42	233.18
776.74	233.17
777.07	233.08
777.39	233.05
777.72	232.97
778.04	232.95
778.36	232.90
778.69	232.82
779.01	232.77
779.33	232.63
779.66	232.46
779.98	232.38
780.31	232.30
780.63	232.28
780.95	232.27
781.28	232.24
781.60	232.15
781.92	232.09
782.25	232.00
782.57	231.93
782.89	231.86
783.22	231.80
783.54	231.70
783.86	231.66
784.19	231.60
784.51	231.58
784.83	231.45
785.16	231.36
785.48	231.35
785.80	231.28
786.12	231.21
786.45	231.16
786.77	231.11
787.09	231.06
