SpectraSuite Data File
++++++++++++++++++++++++++++++++++++
Date: Fri Feb 01 16:50:31 EST 2013
User: group
Dark Spectrum Present: No
Reference Spectrum Present: No
Number of Sampled Component Spectra: 1
Spectrometers: USB2E7196
Integration Time (usec): 35000 (USB2E7196)
Spectra Averaged: 100 (USB2E7196)
Boxcar Smoothing: 10 (USB2E7196)
Correct for Electrical Dark: No (USB2E7196)
Strobe/Lamp Enabled: No (USB2E7196)
Correct for Detector Non-linearity: No (USB2E7196)
Correct for Stray Light: No (USB2E7196)
Number of Pixels in Processed Spectrum: 2048
>>>>>Begin Processed Spectral Data<<<<<
339.09	0.00
339.48	213.07
339.86	214.41
340.24	215.99
340.63	217.71
341.01	220.30
341.39	220.69
341.78	222.09
342.16	222.08
342.54	222.62
342.93	211.67
343.31	222.35
343.69	222.91
344.07	223.40
344.46	223.83
344.84	224.20
345.22	224.42
345.60	224.65
345.99	224.79
346.37	224.94
346.75	225.04
347.13	225.08
347.52	225.18
347.90	225.21
348.28	225.19
348.66	225.22
349.05	225.22
349.43	225.27
349.81	225.27
350.19	225.27
350.57	225.30
350.96	225.36
351.34	225.43
351.72	225.50
352.10	225.59
352.48	225.65
352.87	225.69
353.25	225.74
353.63	225.82
354.01	225.89
354.39	225.96
354.77	226.04
355.15	226.16
355.54	226.20
355.92	226.25
356.30	226.36
356.68	226.50
357.06	226.57
357.44	226.59
357.82	226.70
358.20	226.81
358.58	226.88
358.97	226.96
359.35	227.05
359.73	227.13
360.11	227.15
360.49	227.20
360.87	227.27
361.25	227.37
361.63	227.44
362.01	227.47
362.39	227.50
362.77	227.57
363.15	227.59
363.53	227.61
363.91	227.66
364.29	227.66
364.67	227.55
365.05	227.59
365.43	227.68
365.81	227.70
366.19	227.74
366.57	227.79
366.95	227.81
367.33	227.78
367.71	227.77
368.09	227.80
368.47	227.79
368.85	227.78
369.23	227.77
369.61	227.71
369.99	227.73
370.37	227.73
370.75	227.76
371.13	227.73
371.51	227.69
371.89	227.67
372.27	227.67
372.65	227.68
373.03	227.65
373.41	227.60
373.78	227.54
374.16	227.45
374.54	227.38
374.92	227.31
375.30	227.29
375.68	227.20
376.06	227.12
376.44	227.05
376.82	226.95
377.19	226.92
377.57	226.88
377.95	226.80
378.33	226.72
378.71	226.59
379.09	226.53
379.47	226.48
379.84	226.40
380.22	226.33
380.60	226.26
380.98	226.19
381.36	226.11
381.73	226.02
382.11	225.96
382.49	225.91
382.87	225.85
383.25	225.79
383.62	225.86
384.00	225.81
384.38	225.71
384.76	225.71
385.13	225.68
385.51	225.60
385.89	225.50
386.27	225.50
386.64	225.46
387.02	225.41
387.40	225.34
387.78	225.33
388.15	225.28
388.53	225.21
388.91	225.16
389.29	225.10
389.66	225.12
390.04	225.07
390.42	225.06
390.79	225.05
391.17	225.03
391.55	224.91
391.92	224.88
392.30	224.93
392.68	224.89
393.05	224.86
393.43	224.87
393.81	224.87
394.18	224.81
394.56	224.84
394.94	224.86
395.31	224.86
395.69	224.89
396.06	224.93
396.44	224.92
396.82	224.94
397.19	225.04
397.57	225.02
397.95	225.07
398.32	225.07
398.70	225.07
399.07	225.09
399.45	225.15
399.82	225.22
400.20	225.24
400.58	225.31
400.95	225.33
401.33	225.41
401.70	225.57
402.08	225.68
402.45	225.72
402.83	225.84
403.20	225.97
403.58	226.04
403.95	226.14
404.33	226.28
404.71	226.40
405.08	226.55
405.46	226.68
405.83	226.81
406.21	226.95
406.58	227.14
406.96	227.30
407.33	227.48
407.70	227.67
408.08	228.00
408.45	228.21
408.83	228.44
409.20	228.64
409.58	228.82
409.95	229.08
410.33	229.38
410.70	229.60
411.08	229.91
411.45	230.22
411.82	230.52
412.20	230.90
412.57	231.30
412.95	231.55
413.32	231.98
413.69	232.40
414.07	232.84
414.44	233.30
414.82	233.81
415.19	234.35
415.56	234.87
415.94	235.38
416.31	236.02
416.68	236.64
417.06	237.36
417.43	238.05
417.81	238.84
418.18	239.60
418.55	240.43
418.93	241.28
419.30	242.19
419.67	243.14
420.04	244.10
420.42	245.10
420.79	246.29
421.16	247.44
421.54	248.66
421.91	249.87
422.28	251.15
422.66	252.46
423.03	253.74
423.40	255.07
423.77	256.51
424.15	257.92
424.52	259.41
424.89	261.00
425.26	262.56
425.64	263.96
426.01	265.55
426.38	267.18
426.75	268.85
427.13	270.56
427.50	272.34
427.87	274.21
428.24	276.04
428.61	277.80
428.99	279.70
429.36	281.73
429.73	283.79
430.10	285.75
430.47	287.81
430.85	289.89
431.22	292.08
431.59	294.42
431.96	296.63
432.33	299.07
432.70	301.40
433.08	304.15
433.45	306.78
433.82	309.37
434.19	312.26
434.56	315.05
434.93	317.68
435.30	320.28
435.68	323.16
436.05	325.97
436.42	328.69
436.79	331.15
437.16	333.86
437.53	336.70
437.90	339.43
438.27	342.12
438.64	344.98
439.01	347.53
439.38	349.72
439.75	351.85
440.13	354.34
440.50	356.67
440.87	358.54
441.24	360.42
441.61	362.56
441.98	364.03
442.35	365.80
442.72	367.59
443.09	369.39
443.46	370.35
443.83	370.95
444.20	371.46
444.57	372.32
444.94	372.57
445.31	372.85
445.68	373.27
446.05	373.35
446.42	372.95
446.79	372.58
447.16	372.17
447.53	371.90
447.90	370.73
448.27	369.57
448.64	367.98
449.01	366.87
449.37	364.93
449.74	363.02
450.11	360.74
450.48	358.34
450.85	355.79
451.22	353.67
451.59	351.67
451.96	349.77
452.33	347.19
452.70	344.87
453.07	342.14
453.43	339.26
453.80	336.52
454.17	333.85
454.54	331.35
454.91	328.62
455.28	325.96
455.65	323.54
456.02	321.13
456.38	319.00
456.75	316.37
457.12	314.12
457.49	311.94
457.86	309.81
458.23	308.00
458.59	306.00
458.96	303.93
459.33	302.08
459.70	300.22
460.07	298.75
460.43	297.05
460.80	295.37
461.17	293.95
461.54	292.48
461.91	291.06
462.27	289.62
462.64	288.39
463.01	287.06
463.38	285.77
463.74	284.44
464.11	283.31
464.48	282.27
464.85	281.18
465.21	280.35
465.58	279.46
465.95	278.37
466.32	277.46
466.68	276.57
467.05	275.72
467.42	274.86
467.78	273.93
468.15	273.11
468.52	272.45
468.88	271.59
469.25	270.86
469.62	270.27
469.98	269.59
470.35	269.00
470.72	268.43
471.08	267.78
471.45	267.24
471.82	266.71
472.18	266.17
472.55	265.75
472.92	265.25
473.28	264.81
473.65	264.37
474.02	263.97
474.38	263.63
474.75	263.31
475.11	262.97
475.48	262.75
475.85	262.50
476.21	262.33
476.58	262.20
476.94	262.04
477.31	261.92
477.67	261.78
478.04	261.69
478.41	261.60
478.77	261.61
479.14	261.57
479.50	261.58
479.87	261.71
480.23	261.82
480.60	261.86
480.96	261.96
481.33	262.18
481.69	262.37
482.06	262.55
482.42	262.74
482.79	262.99
483.15	263.27
483.52	263.67
483.88	264.00
484.25	264.40
484.61	264.83
484.98	265.26
485.34	265.84
485.71	266.42
486.07	267.05
486.44	267.63
486.80	268.32
487.17	269.02
487.53	269.76
487.90	270.56
488.26	271.53
488.62	272.48
488.99	273.46
489.35	274.50
489.72	275.64
490.08	276.80
490.44	278.08
490.81	279.42
491.17	280.74
491.54	282.20
491.90	283.72
492.26	285.36
492.63	287.11
492.99	288.86
493.36	290.72
493.72	292.77
494.08	294.88
494.45	297.10
494.81	299.51
495.17	301.96
495.54	304.55
495.90	307.21
496.26	310.10
496.63	312.99
496.99	316.10
497.35	319.33
497.72	322.75
498.08	326.22
498.44	329.86
498.80	333.81
499.17	337.89
499.53	342.09
499.89	346.44
500.26	350.95
500.62	355.62
500.98	360.57
501.34	365.60
501.71	370.93
502.07	376.34
502.43	381.93
502.79	387.74
503.16	393.73
503.52	399.99
503.88	406.30
504.24	412.99
504.60	419.85
504.97	426.98
505.33	434.24
505.69	441.99
506.05	449.78
506.41	457.59
506.78	465.62
507.14	473.97
507.50	482.61
507.86	491.59
508.22	500.74
508.59	509.88
508.95	519.41
509.31	529.19
509.67	539.28
510.03	549.49
510.39	560.03
510.75	570.80
511.12	581.65
511.48	592.90
511.84	604.24
512.20	615.61
512.56	627.47
512.92	639.58
513.28	651.81
513.64	664.19
514.00	676.89
514.37	689.77
514.73	702.80
515.09	715.83
515.45	729.07
515.81	742.53
516.17	756.37
516.53	770.40
516.89	784.34
517.25	798.37
517.61	812.64
517.97	826.95
518.33	841.22
518.69	855.83
519.05	870.65
519.41	885.64
519.77	901.06
520.13	916.34
520.49	931.49
520.85	946.65
521.21	962.14
521.57	978.08
521.93	993.62
522.29	1009.74
522.65	1025.76
523.01	1041.67
523.37	1057.55
523.73	1073.58
524.09	1089.43
524.45	1105.52
524.81	1121.91
525.17	1138.45
525.53	1155.10
525.89	1171.81
526.25	1188.53
526.61	1204.71
526.97	1221.23
527.33	1237.51
527.68	1253.82
528.04	1270.16
528.40	1286.50
528.76	1303.37
529.12	1319.72
529.48	1336.48
529.84	1352.28
530.20	1368.65
530.56	1385.39
530.91	1402.60
531.27	1418.99
531.63	1435.16
531.99	1451.61
532.35	1467.46
532.71	1483.18
533.07	1499.32
533.42	1514.97
533.78	1530.79
534.14	1546.82
534.50	1562.03
534.86	1577.75
535.21	1592.79
535.57	1608.47
535.93	1623.77
536.29	1638.30
536.65	1653.21
537.00	1667.60
537.36	1682.77
537.72	1697.07
538.08	1711.26
538.44	1724.81
538.79	1738.68
539.15	1752.15
539.51	1765.66
539.87	1779.61
540.22	1793.14
540.58	1806.50
540.94	1819.50
541.29	1832.05
541.65	1844.47
542.01	1857.33
542.37	1869.41
542.72	1881.62
543.08	1893.18
543.44	1905.50
543.79	1916.64
544.15	1927.44
544.51	1939.00
544.87	1949.67
545.22	1960.32
545.58	1970.44
545.94	1980.06
546.29	1989.82
546.65	1999.63
547.01	2008.73
547.36	2017.39
547.72	2025.81
548.07	2033.59
548.43	2041.71
548.79	2049.55
549.14	2057.07
549.50	2064.27
549.86	2071.79
550.21	2079.06
550.57	2086.18
550.92	2092.65
551.28	2099.63
551.64	2106.72
551.99	2113.12
552.35	2119.36
552.70	2125.49
553.06	2131.59
553.41	2137.88
553.77	2143.72
554.13	2149.72
554.48	2155.98
554.84	2161.68
555.19	2166.84
555.55	2172.04
555.90	2176.59
556.26	2181.69
556.61	2186.50
556.97	2191.05
557.32	2195.11
557.68	2199.16
558.03	2203.47
558.39	2207.07
558.74	2211.65
559.10	2215.42
559.45	2219.15
559.81	2223.34
560.16	2227.23
560.52	2230.30
560.87	2233.78
561.23	2236.61
561.58	2239.49
561.94	2241.91
562.29	2244.08
562.64	2246.89
563.00	2249.50
563.35	2252.94
563.71	2255.95
564.06	2259.02
564.42	2261.97
564.77	2264.65
565.12	2267.20
565.48	2269.25
565.83	2271.29
566.19	2272.83
566.54	2273.78
566.89	2274.99
567.25	2275.81
567.60	2277.11
567.96	2278.98
568.31	2279.79
568.66	2281.04
569.02	2281.82
569.37	2282.34
569.72	2283.38
570.08	2283.67
570.43	2283.81
570.78	2283.44
571.14	2282.12
571.49	2281.04
571.84	2280.62
572.20	2279.81
572.55	2278.75
572.90	2277.17
573.26	2275.90
573.61	2274.29
573.96	2272.78
574.31	2270.01
574.67	2267.12
575.02	2263.64
575.37	2260.35
575.72	2256.80
576.08	2253.30
576.43	2249.99
576.78	2246.34
577.13	2243.29
577.49	2240.15
577.84	2236.96
578.19	2233.38
578.54	2229.84
578.90	2225.84
579.25	2220.51
579.60	2215.60
579.95	2210.79
580.30	2205.92
580.66	2200.96
581.01	2196.04
581.36	2191.23
581.71	2187.24
582.06	2183.03
582.42	2178.77
582.77	2173.80
583.12	2169.40
583.47	2165.10
583.82	2160.38
584.17	2155.45
584.53	2150.12
584.88	2144.71
585.23	2139.01
585.58	2133.67
585.93	2128.35
586.28	2123.66
586.63	2118.87
586.98	2113.86
587.34	2109.25
587.69	2104.51
588.04	2099.41
588.39	2093.94
588.74	2087.48
589.09	2081.29
589.44	2074.54
589.79	2068.56
590.14	2062.88
590.49	2056.42
590.84	2050.07
591.19	2044.23
591.54	2037.79
591.89	2030.70
592.25	2024.29
592.60	2017.11
592.95	2009.75
593.30	2002.64
593.65	1995.08
594.00	1988.16
594.35	1981.12
594.70	1973.24
595.05	1966.33
595.40	1959.09
595.75	1951.70
596.10	1945.87
596.45	1939.40
596.80	1933.40
597.15	1927.09
597.50	1920.38
597.85	1913.91
598.19	1907.39
598.54	1900.38
598.89	1893.84
599.24	1887.85
599.59	1881.29
599.94	1875.22
600.29	1868.85
600.64	1862.19
600.99	1854.93
601.34	1848.16
601.69	1841.22
602.04	1834.56
602.39	1827.24
602.74	1820.51
603.08	1813.82
603.43	1807.14
603.78	1799.82
604.13	1792.81
604.48	1785.53
604.83	1778.64
605.18	1772.10
605.53	1764.29
605.87	1756.40
606.22	1749.30
606.57	1741.48
606.92	1734.05
607.27	1727.16
607.62	1720.52
607.96	1713.51
608.31	1707.06
608.66	1699.50
609.01	1692.09
609.36	1684.52
609.70	1676.62
610.05	1668.64
610.40	1661.06
610.75	1652.72
611.10	1645.23
611.44	1636.66
611.79	1628.63
612.14	1619.96
612.49	1610.67
612.83	1602.17
613.18	1593.99
613.53	1585.91
613.88	1577.45
614.22	1569.13
614.57	1560.39
614.92	1552.24
615.27	1544.70
615.61	1536.32
615.96	1528.28
616.31	1520.55
616.65	1513.20
617.00	1505.66
617.35	1498.12
617.70	1489.91
618.04	1481.46
618.39	1473.17
618.74	1465.74
619.08	1457.48
619.43	1449.92
619.78	1442.96
620.12	1435.95
620.47	1428.43
620.82	1420.28
621.16	1412.76
621.51	1405.18
621.85	1397.46
622.20	1389.01
622.55	1380.57
622.89	1372.70
623.24	1365.06
623.59	1357.63
623.93	1350.10
624.28	1342.81
624.62	1335.21
624.97	1327.90
625.32	1321.05
625.66	1314.14
626.01	1306.89
626.35	1299.56
626.70	1291.75
627.04	1284.16
627.39	1276.27
627.73	1268.92
628.08	1261.98
628.43	1254.82
628.77	1247.55
629.12	1240.17
629.46	1232.99
629.81	1225.62
630.15	1218.34
630.50	1211.04
630.84	1202.98
631.19	1194.97
631.53	1187.45
631.88	1179.80
632.22	1172.29
632.57	1165.05
632.91	1157.46
633.26	1150.07
633.60	1142.63
633.95	1135.51
634.29	1128.42
634.64	1121.82
634.98	1114.57
635.32	1107.43
635.67	1100.78
636.01	1094.14
636.36	1087.32
636.70	1080.81
637.05	1074.22
637.39	1067.81
637.73	1061.36
638.08	1055.48
638.42	1049.57
638.77	1043.17
639.11	1036.77
639.45	1030.44
639.80	1023.82
640.14	1017.54
640.49	1011.11
640.83	1004.86
641.17	998.76
641.52	992.43
641.86	985.96
642.20	980.08
642.55	973.75
642.89	967.34
643.23	960.78
643.58	955.03
643.92	948.86
644.26	942.90
644.61	936.80
644.95	930.83
645.29	924.29
645.64	917.57
645.98	911.30
646.32	905.34
646.66	899.25
647.01	893.43
647.35	887.50
647.69	881.57
648.04	875.97
648.38	870.25
648.72	864.33
649.06	858.29
649.41	852.32
649.75	846.51
650.09	840.57
650.43	834.80
650.78	828.65
651.12	822.77
651.46	817.02
651.80	811.38
652.14	805.92
652.49	800.55
652.83	795.40
653.17	789.77
653.51	784.19
653.85	778.78
654.20	773.20
654.54	767.30
654.88	761.61
655.22	755.81
655.56	750.08
655.90	744.55
656.25	739.37
656.59	734.03
656.93	728.88
657.27	723.78
657.61	718.36
657.95	713.24
658.29	708.09
658.64	702.78
658.98	697.43
659.32	691.98
659.66	686.77
660.00	681.47
660.34	676.48
660.68	671.50
661.02	666.47
661.36	661.72
661.70	657.20
662.05	652.78
662.39	648.47
662.73	643.90
663.07	639.56
663.41	635.13
663.75	630.67
664.09	626.08
664.43	621.57
664.77	617.48
665.11	613.25
665.45	609.12
665.79	605.13
666.13	601.08
666.47	596.92
666.81	592.80
667.15	588.67
667.49	584.73
667.83	580.87
668.17	576.94
668.51	572.88
668.85	568.83
669.19	565.01
669.53	561.15
669.87	557.36
670.21	553.67
670.55	549.97
670.89	546.54
671.23	543.07
671.57	539.58
671.91	536.10
672.25	532.59
672.58	529.02
672.92	525.54
673.26	522.35
673.60	519.25
673.94	516.13
674.28	513.20
674.62	510.32
674.96	507.26
675.30	504.41
675.64	501.53
675.97	498.73
676.31	495.86
676.65	492.97
676.99	490.25
677.33	487.34
677.67	484.55
678.01	481.53
678.34	478.67
678.68	475.84
679.02	473.00
679.36	470.22
679.70	467.54
680.04	464.84
680.37	462.05
680.71	459.26
681.05	456.57
681.39	453.93
681.73	451.26
682.06	448.73
682.40	446.21
682.74	443.65
683.08	441.18
683.42	438.60
683.75	436.12
684.09	433.58
684.43	431.18
684.77	428.77
685.10	426.42
685.44	424.12
685.78	421.84
686.12	419.60
686.45	417.34
686.79	415.05
687.13	412.86
687.46	410.62
687.80	408.48
688.14	406.29
688.48	404.17
688.81	401.93
689.15	399.76
689.49	397.60
689.82	395.55
690.16	393.42
690.50	391.45
690.83	389.45
691.17	387.47
691.51	385.52
691.84	383.63
692.18	381.75
692.52	379.75
692.85	377.74
693.19	375.86
693.52	374.05
693.86	372.26
694.20	370.47
694.53	368.74
694.87	366.87
695.21	365.08
695.54	363.26
695.88	361.52
696.21	359.79
696.55	358.10
696.88	356.34
697.22	354.67
697.56	353.03
697.89	351.38
698.23	349.77
698.56	348.18
698.90	346.57
699.23	344.90
699.57	343.30
699.90	341.79
700.24	340.19
700.58	338.63
700.91	337.09
701.25	335.63
701.58	334.23
701.92	332.86
702.25	331.49
702.59	330.13
702.92	328.78
703.26	327.48
703.59	326.15
703.93	325.01
704.26	323.81
704.60	322.51
704.93	321.25
705.26	319.97
705.60	318.74
705.93	317.56
706.27	316.50
706.60	315.47
706.94	314.36
707.27	313.21
707.61	312.11
707.94	311.09
708.27	309.99
708.61	308.89
708.94	307.83
709.28	306.86
709.61	305.91
709.94	304.96
710.28	303.94
710.61	302.96
710.95	301.86
711.28	300.90
711.61	299.98
711.95	299.03
712.28	298.07
712.61	297.14
712.95	296.22
713.28	295.32
713.61	294.39
713.95	293.55
714.28	292.75
714.61	291.94
714.95	291.10
715.28	290.25
715.61	289.39
715.95	288.54
716.28	287.67
716.61	286.81
716.95	285.99
717.28	285.24
717.61	284.44
717.94	283.72
718.28	282.94
718.61	282.18
718.94	281.52
719.27	280.89
719.61	280.23
719.94	279.61
720.27	278.96
720.60	278.31
720.94	277.68
721.27	277.09
721.60	276.50
721.93	275.85
722.27	275.28
722.60	274.74
722.93	274.19
723.26	273.67
723.59	273.10
723.93	272.54
724.26	272.00
724.59	271.49
724.92	270.96
725.25	270.44
725.59	269.93
725.92	269.43
726.25	268.94
726.58	268.43
726.91	267.91
727.24	267.38
727.57	266.94
727.91	266.46
728.24	266.00
728.57	265.50
728.90	265.07
729.23	264.60
729.56	264.17
729.89	263.71
730.22	263.22
730.55	262.75
730.89	262.34
731.22	261.88
731.55	261.42
731.88	260.99
732.21	260.56
732.54	260.14
732.87	259.70
733.20	259.29
733.53	258.92
733.86	258.54
734.19	258.13
734.52	257.76
734.85	257.44
735.18	257.04
735.51	256.68
735.84	256.32
736.17	255.95
736.50	255.51
736.83	255.30
737.16	254.98
737.49	254.67
737.82	254.28
738.15	253.99
738.48	253.66
738.81	253.34
739.14	253.05
739.47	252.73
739.80	252.39
740.13	252.08
740.46	251.75
740.79	251.43
741.12	251.17
741.45	250.82
741.78	250.43
742.11	250.14
742.44	249.79
742.77	249.51
743.10	249.17
743.43	248.89
743.75	248.46
744.08	248.27
744.41	248.02
744.74	247.78
745.07	247.45
745.40	247.19
745.73	246.96
746.06	246.65
746.39	246.39
746.71	246.14
747.04	245.83
747.37	245.56
747.70	245.30
748.03	245.02
748.36	244.78
748.68	244.55
749.01	244.31
749.34	244.10
749.67	243.85
750.00	243.67
750.33	243.51
750.65	243.30
750.98	242.98
751.31	242.75
751.64	242.55
751.97	242.43
752.29	242.22
752.62	241.97
752.95	241.77
753.28	241.57
753.60	241.37
753.93	241.21
754.26	241.01
754.59	240.77
754.91	240.60
755.24	240.40
755.57	240.21
755.90	240.00
756.22	239.81
756.55	239.63
756.88	239.46
757.20	239.23
757.53	239.05
757.86	238.86
758.19	238.69
758.51	238.49
758.84	238.26
759.17	238.09
759.49	237.96
759.82	237.86
760.15	237.69
760.47	237.53
760.80	237.38
761.13	237.27
761.45	237.15
761.78	237.00
762.11	236.85
762.43	236.73
762.76	236.61
763.08	236.51
763.41	236.40
763.74	236.26
764.06	236.13
764.39	235.98
764.71	235.88
765.04	235.73
765.37	235.66
765.69	235.54
766.02	235.45
766.34	235.31
766.67	235.14
767.00	235.04
767.32	235.00
767.65	234.93
767.97	234.83
768.30	234.71
768.62	234.59
768.95	234.46
769.27	234.35
769.60	234.25
769.92	234.12
770.25	234.01
770.57	233.89
770.90	233.80
771.22	233.70
771.55	233.59
771.87	233.49
772.20	233.35
772.52	233.34
772.85	233.32
773.17	233.23
773.50	233.15
773.82	233.04
774.15	232.89
774.47	232.74
774.80	232.64
775.12	232.57
775.45	232.49
775.77	232.42
776.09	232.32
776.42	232.24
776.74	232.19
777.07	232.11
777.39	232.04
777.72	231.97
778.04	231.91
778.36	231.83
778.69	231.72
779.01	231.69
779.33	231.52
779.66	231.35
779.98	231.28
780.31	231.22
780.63	231.20
780.95	231.12
781.28	231.05
781.60	230.95
781.92	230.87
782.25	230.83
782.57	230.74
782.89	230.71
783.22	230.61
783.54	230.52
783.86	230.44
784.19	230.37
784.51	230.31
784.83	230.24
785.16	230.17
785.48	230.13
785.80	230.06
786.12	230.05
786.45	229.96
786.77	229.94
787.09	229.90
