SpectraSuite Data File
++++++++++++++++++++++++++++++++++++
Date: Fri Feb 01 16:00:01 EST 2013
User: group
Dark Spectrum Present: No
Reference Spectrum Present: No
Number of Sampled Component Spectra: 1
Spectrometers: USB2E7196
Integration Time (usec): 35000 (USB2E7196)
Spectra Averaged: 100 (USB2E7196)
Boxcar Smoothing: 10 (USB2E7196)
Correct for Electrical Dark: No (USB2E7196)
Strobe/Lamp Enabled: No (USB2E7196)
Correct for Detector Non-linearity: No (USB2E7196)
Correct for Stray Light: No (USB2E7196)
Number of Pixels in Processed Spectrum: 2048
>>>>>Begin Processed Spectral Data<<<<<
339.09	0.00
339.48	215.09
339.86	215.89
340.24	217.88
340.63	218.78
341.01	222.05
341.39	221.70
341.78	222.56
342.16	224.14
342.54	224.44
342.93	213.11
343.31	223.87
343.69	224.40
344.07	224.88
344.46	225.28
344.84	225.67
345.22	225.88
345.60	226.10
345.99	226.30
346.37	226.45
346.75	226.56
347.13	226.61
347.52	226.68
347.90	226.76
348.28	226.80
348.66	226.82
349.05	226.80
349.43	226.85
349.81	226.88
350.19	226.90
350.57	226.96
350.96	227.02
351.34	227.09
351.72	227.16
352.10	227.22
352.48	227.30
352.87	227.35
353.25	227.42
353.63	227.49
354.01	227.56
354.39	227.63
354.77	227.70
355.15	227.81
355.54	227.86
355.92	227.89
356.30	227.93
356.68	228.07
357.06	228.15
357.44	228.17
357.82	228.25
358.20	228.34
358.58	228.41
358.97	228.48
359.35	228.57
359.73	228.66
360.11	228.71
360.49	228.79
360.87	228.84
361.25	228.91
361.63	229.03
362.01	229.11
362.39	229.11
362.77	229.16
363.15	229.19
363.53	229.22
363.91	229.28
364.29	229.31
364.67	229.24
365.05	229.28
365.43	229.31
365.81	229.35
366.19	229.42
366.57	229.45
366.95	229.45
367.33	229.43
367.71	229.43
368.09	229.46
368.47	229.41
368.85	229.42
369.23	229.42
369.61	229.30
369.99	229.28
370.37	229.29
370.75	229.32
371.13	229.28
371.51	229.22
371.89	229.19
372.27	229.18
372.65	229.16
373.03	229.08
373.41	229.04
373.78	228.94
374.16	228.81
374.54	228.71
374.92	228.64
375.30	228.58
375.68	228.51
376.06	228.47
376.44	228.43
376.82	228.35
377.19	228.28
377.57	228.22
377.95	228.14
378.33	228.05
378.71	227.91
379.09	227.84
379.47	227.78
379.84	227.67
380.22	227.58
380.60	227.49
380.98	227.43
381.36	227.34
381.73	227.27
382.11	227.21
382.49	227.17
382.87	227.09
383.25	227.05
383.62	227.07
384.00	227.00
384.38	226.93
384.76	226.90
385.13	226.87
385.51	226.86
385.89	226.80
386.27	226.76
386.64	226.73
387.02	226.68
387.40	226.64
387.78	226.63
388.15	226.61
388.53	226.59
388.91	226.58
389.29	226.54
389.66	226.55
390.04	226.54
390.42	226.50
390.79	226.48
391.17	226.45
391.55	226.32
391.92	226.30
392.30	226.28
392.68	226.27
393.05	226.25
393.43	226.24
393.81	226.26
394.18	226.26
394.56	226.27
394.94	226.30
395.31	226.29
395.69	226.35
396.06	226.39
396.44	226.39
396.82	226.39
397.19	226.50
397.57	226.51
397.95	226.56
398.32	226.62
398.70	226.70
399.07	226.78
399.45	226.86
399.82	226.92
400.20	226.99
400.58	227.05
400.95	227.11
401.33	227.19
401.70	227.33
402.08	227.44
402.45	227.53
402.83	227.63
403.20	227.78
403.58	227.89
403.95	228.00
404.33	228.15
404.71	228.27
405.08	228.45
405.46	228.57
405.83	228.74
406.21	228.87
406.58	229.04
406.96	229.19
407.33	229.36
407.70	229.56
408.08	229.82
408.45	230.03
408.83	230.25
409.20	230.43
409.58	230.59
409.95	230.83
410.33	231.09
410.70	231.37
411.08	231.64
411.45	231.94
411.82	232.26
412.20	232.57
412.57	233.02
412.95	233.29
413.32	233.72
413.69	234.10
414.07	234.52
414.44	234.96
414.82	235.46
415.19	236.00
415.56	236.51
415.94	237.07
416.31	237.72
416.68	238.35
417.06	239.13
417.43	239.83
417.81	240.59
418.18	241.42
418.55	242.24
418.93	243.12
419.30	243.99
419.67	244.90
420.04	245.90
420.42	246.91
420.79	248.13
421.16	249.26
421.54	250.45
421.91	251.70
422.28	252.94
422.66	254.27
423.03	255.55
423.40	256.91
423.77	258.33
424.15	259.73
424.52	261.20
424.89	262.81
425.26	264.38
425.64	265.83
426.01	267.34
426.38	268.99
426.75	270.65
427.13	272.34
427.50	274.18
427.87	276.00
428.24	277.79
428.61	279.50
428.99	281.43
429.36	283.52
429.73	285.55
430.10	287.56
430.47	289.60
430.85	291.74
431.22	293.96
431.59	296.31
431.96	298.55
432.33	301.04
432.70	303.33
433.08	306.10
433.45	308.72
433.82	311.33
434.19	314.22
434.56	317.00
434.93	319.69
435.30	322.25
435.68	325.12
436.05	327.97
436.42	330.77
436.79	333.27
437.16	335.97
437.53	338.76
437.90	341.59
438.27	344.32
438.64	347.15
439.01	349.69
439.38	351.91
439.75	354.08
440.13	356.55
440.50	358.93
440.87	360.80
441.24	362.71
441.61	364.90
441.98	366.40
442.35	368.21
442.72	370.04
443.09	371.83
443.46	372.85
443.83	373.45
444.20	373.93
444.57	374.74
444.94	375.05
445.31	375.43
445.68	375.78
446.05	375.83
446.42	375.41
446.79	375.04
447.16	374.65
447.53	374.31
447.90	373.19
448.27	371.97
448.64	370.35
449.01	369.24
449.37	367.27
449.74	365.37
450.11	363.14
450.48	360.65
450.85	358.17
451.22	356.05
451.59	354.03
451.96	352.08
452.33	349.50
452.70	347.14
453.07	344.32
453.43	341.42
453.80	338.68
454.17	336.04
454.54	333.54
454.91	330.81
455.28	328.15
455.65	325.68
456.02	323.24
456.38	321.12
456.75	318.50
457.12	316.24
457.49	314.03
457.86	311.82
458.23	310.02
458.59	307.98
458.96	305.87
459.33	304.01
459.70	302.17
460.07	300.70
460.43	298.96
460.80	297.34
461.17	295.93
461.54	294.43
461.91	293.00
462.27	291.51
462.64	290.26
463.01	288.90
463.38	287.57
463.74	286.23
464.11	285.02
464.48	283.98
464.85	282.86
465.21	281.99
465.58	281.09
465.95	280.00
466.32	279.09
466.68	278.22
467.05	277.32
467.42	276.43
467.78	275.46
468.15	274.61
468.52	273.94
468.88	273.06
469.25	272.27
469.62	271.67
469.98	270.99
470.35	270.39
470.72	269.77
471.08	269.11
471.45	268.57
471.82	268.06
472.18	267.46
472.55	267.04
472.92	266.49
473.28	266.05
473.65	265.60
474.02	265.16
474.38	264.81
474.75	264.51
475.11	264.19
475.48	263.91
475.85	263.71
476.21	263.49
476.58	263.30
476.94	263.19
477.31	263.00
477.67	262.88
478.04	262.73
478.41	262.68
478.77	262.75
479.14	262.71
479.50	262.70
479.87	262.79
480.23	262.85
480.60	262.95
480.96	263.03
481.33	263.22
481.69	263.39
482.06	263.57
482.42	263.79
482.79	264.05
483.15	264.41
483.52	264.77
483.88	265.10
484.25	265.47
484.61	265.90
484.98	266.35
485.34	266.88
485.71	267.51
486.07	268.14
486.44	268.74
486.80	269.44
487.17	270.21
487.53	271.02
487.90	271.89
488.26	272.81
488.62	273.84
488.99	274.82
489.35	275.89
489.72	277.06
490.08	278.24
490.44	279.46
490.81	280.76
491.17	282.14
491.54	283.64
491.90	285.22
492.26	286.82
492.63	288.57
492.99	290.37
493.36	292.23
493.72	294.30
494.08	296.39
494.45	298.65
494.81	301.01
495.17	303.49
495.54	306.10
495.90	308.81
496.26	311.61
496.63	314.64
496.99	317.76
497.35	321.01
497.72	324.47
498.08	328.04
498.44	331.69
498.80	335.68
499.17	339.69
499.53	343.86
499.89	348.29
500.26	352.77
500.62	357.45
500.98	362.47
501.34	367.55
501.71	372.86
502.07	378.32
502.43	383.91
502.79	389.68
503.16	395.76
503.52	402.06
503.88	408.48
504.24	415.13
504.60	422.04
504.97	429.16
505.33	436.44
505.69	444.18
506.05	452.03
506.41	459.79
506.78	468.02
507.14	476.51
507.50	485.30
507.86	494.38
508.22	503.58
508.59	512.77
508.95	522.35
509.31	532.16
509.67	542.26
510.03	552.62
510.39	563.23
510.75	574.00
511.12	584.91
511.48	596.23
511.84	607.56
512.20	618.99
512.56	630.95
512.92	643.14
513.28	655.44
513.64	667.92
514.00	680.72
514.37	693.58
514.73	706.64
515.09	719.63
515.45	732.86
515.81	746.38
516.17	760.41
516.53	774.57
516.89	788.73
517.25	802.83
517.61	817.24
517.97	831.67
518.33	846.00
518.69	860.66
519.05	875.62
519.41	890.80
519.77	906.43
520.13	921.80
520.49	937.09
520.85	952.45
521.21	968.21
521.57	984.46
521.93	1000.28
522.29	1016.61
522.65	1032.73
523.01	1048.92
523.37	1064.95
523.73	1081.08
524.09	1097.13
524.45	1113.42
524.81	1130.07
525.17	1146.85
525.53	1163.76
525.89	1180.70
526.25	1197.61
526.61	1213.94
526.97	1230.69
527.33	1247.08
527.68	1263.69
528.04	1280.24
528.40	1296.84
528.76	1313.84
529.12	1330.31
529.48	1347.21
529.84	1363.18
530.20	1379.81
530.56	1396.76
530.91	1414.22
531.27	1430.94
531.63	1447.32
531.99	1463.86
532.35	1479.70
532.71	1495.54
533.07	1511.79
533.42	1527.71
533.78	1543.60
534.14	1559.77
534.50	1575.13
534.86	1591.00
535.21	1606.08
535.57	1622.00
535.93	1637.49
536.29	1652.13
536.65	1666.95
537.00	1681.59
537.36	1696.94
537.72	1711.49
538.08	1725.97
538.44	1739.65
538.79	1753.46
539.15	1767.18
539.51	1780.88
539.87	1795.24
540.22	1808.97
540.58	1822.72
540.94	1836.01
541.29	1849.09
541.65	1861.88
542.01	1875.14
542.37	1887.35
542.72	1899.90
543.08	1911.71
543.44	1924.05
543.79	1935.43
544.15	1946.58
544.51	1958.16
544.87	1969.24
545.22	1980.01
545.58	1990.10
545.94	1999.91
546.29	2009.76
546.65	2019.58
547.01	2028.91
547.36	2037.85
547.72	2046.23
548.07	2053.97
548.43	2062.10
548.79	2069.91
549.14	2077.27
549.50	2084.54
549.86	2092.23
550.21	2099.59
550.57	2106.70
550.92	2113.26
551.28	2120.28
551.64	2127.39
551.99	2133.89
552.35	2139.81
552.70	2145.94
553.06	2152.06
553.41	2158.36
553.77	2164.46
554.13	2170.51
554.48	2176.70
554.84	2181.87
555.19	2187.32
555.55	2192.43
555.90	2196.85
556.26	2201.76
556.61	2206.68
556.97	2210.88
557.32	2215.04
557.68	2219.06
558.03	2223.29
558.39	2227.11
558.74	2231.69
559.10	2235.47
559.45	2239.12
559.81	2243.52
560.16	2247.49
560.52	2250.66
560.87	2253.99
561.23	2256.49
561.58	2259.45
561.94	2261.86
562.29	2264.31
562.64	2266.72
563.00	2269.42
563.35	2272.98
563.71	2276.13
564.06	2279.27
564.42	2281.99
564.77	2284.49
565.12	2286.70
565.48	2288.74
565.83	2290.55
566.19	2291.80
566.54	2292.80
566.89	2293.96
567.25	2294.51
567.60	2295.74
567.96	2297.44
568.31	2298.43
568.66	2299.73
569.02	2300.23
569.37	2300.47
569.72	2301.35
570.08	2301.62
570.43	2301.64
570.78	2300.95
571.14	2299.37
571.49	2298.07
571.84	2298.00
572.20	2296.90
572.55	2295.89
572.90	2294.12
573.26	2292.63
573.61	2290.92
573.96	2289.19
574.31	2286.25
574.67	2283.10
575.02	2279.41
575.37	2276.12
575.72	2272.16
576.08	2268.74
576.43	2265.35
576.78	2261.62
577.13	2258.64
577.49	2255.58
577.84	2251.97
578.19	2248.32
578.54	2244.78
578.90	2240.46
579.25	2234.78
579.60	2229.60
579.95	2224.57
580.30	2219.74
580.66	2214.61
581.01	2209.71
581.36	2204.75
581.71	2200.54
582.06	2196.19
582.42	2191.78
582.77	2186.45
583.12	2182.01
583.47	2177.23
583.82	2172.21
584.17	2167.10
584.53	2161.48
584.88	2155.86
585.23	2150.14
585.58	2144.72
585.93	2139.33
586.28	2134.62
586.63	2129.67
586.98	2124.64
587.34	2119.89
587.69	2114.92
588.04	2109.69
588.39	2104.11
588.74	2097.74
589.09	2091.52
589.44	2084.87
589.79	2079.02
590.14	2073.39
590.49	2066.81
590.84	2060.55
591.19	2054.63
591.54	2048.22
591.89	2040.70
592.25	2034.02
592.60	2026.81
592.95	2019.18
593.30	2011.67
593.65	2004.06
594.00	1997.08
594.35	1990.09
594.70	1982.13
595.05	1974.88
595.40	1967.58
595.75	1960.04
596.10	1953.70
596.45	1947.07
596.80	1940.82
597.15	1934.08
597.50	1927.00
597.85	1920.62
598.19	1913.87
598.54	1906.78
598.89	1900.09
599.24	1894.34
599.59	1887.37
599.94	1881.26
600.29	1875.08
600.64	1868.69
600.99	1861.37
601.34	1854.35
601.69	1847.43
602.04	1840.47
602.39	1833.15
602.74	1826.30
603.08	1819.65
603.43	1812.85
603.78	1805.62
604.13	1798.47
604.48	1791.10
604.83	1784.31
605.18	1777.28
605.53	1769.35
605.87	1761.38
606.22	1754.18
606.57	1746.33
606.92	1739.19
607.27	1731.90
607.62	1724.91
607.96	1717.55
608.31	1710.86
608.66	1703.26
609.01	1695.56
609.36	1688.13
609.70	1680.14
610.05	1672.10
610.40	1664.19
610.75	1655.94
611.10	1648.31
611.44	1639.92
611.79	1631.82
612.14	1623.09
612.49	1613.86
612.83	1605.51
613.18	1597.41
613.53	1589.28
613.88	1580.52
614.22	1572.29
614.57	1563.79
614.92	1555.71
615.27	1548.10
615.61	1539.74
615.96	1531.85
616.31	1524.21
616.65	1517.06
617.00	1509.47
617.35	1501.85
617.70	1493.54
618.04	1485.08
618.39	1476.74
618.74	1469.13
619.08	1460.91
619.43	1453.24
619.78	1446.47
620.12	1439.20
620.47	1431.66
620.82	1423.44
621.16	1416.22
621.51	1408.54
621.85	1400.96
622.20	1392.45
622.55	1384.13
622.89	1376.32
623.24	1368.63
623.59	1361.26
623.93	1353.48
624.28	1346.26
624.62	1338.67
624.97	1331.61
625.32	1324.88
625.66	1317.89
626.01	1310.63
626.35	1303.24
626.70	1295.56
627.04	1287.73
627.39	1279.98
627.73	1272.57
628.08	1265.80
628.43	1258.28
628.77	1250.84
629.12	1243.23
629.46	1236.07
629.81	1228.65
630.15	1221.44
630.50	1214.08
630.84	1205.87
631.19	1198.01
631.53	1190.52
631.88	1183.01
632.22	1175.35
632.57	1167.93
632.91	1160.30
633.26	1152.87
633.60	1145.52
633.95	1138.52
634.29	1131.52
634.64	1124.84
634.98	1117.47
635.32	1110.29
635.67	1103.84
636.01	1097.32
636.36	1090.47
636.70	1083.96
637.05	1077.39
637.39	1070.94
637.73	1064.33
638.08	1058.46
638.42	1052.44
638.77	1046.01
639.11	1039.35
639.45	1032.98
639.80	1026.30
640.14	1019.92
640.49	1013.33
640.83	1006.97
641.17	1000.60
641.52	994.22
641.86	987.76
642.20	981.86
642.55	975.57
642.89	969.03
643.23	962.49
643.58	956.75
643.92	950.53
644.26	944.37
644.61	938.25
644.95	932.26
645.29	925.65
645.64	918.95
645.98	912.68
646.32	906.94
646.66	900.95
647.01	895.25
647.35	889.57
647.69	883.79
648.04	878.28
648.38	872.52
648.72	866.54
649.06	860.53
649.41	854.67
649.75	848.68
650.09	842.81
650.43	837.01
650.78	830.83
651.12	824.84
651.46	819.23
651.80	813.52
652.14	808.15
652.49	802.83
652.83	797.64
653.17	791.82
653.51	786.06
653.85	780.71
654.20	775.01
654.54	768.93
654.88	763.26
655.22	757.35
655.56	751.62
655.90	746.21
656.25	740.90
656.59	735.56
656.93	730.50
657.27	725.35
657.61	719.88
657.95	714.84
658.29	709.81
658.64	704.53
658.98	699.27
659.32	693.78
659.66	688.51
660.00	683.11
660.34	678.20
660.68	673.24
661.02	668.15
661.36	663.48
661.70	659.06
662.05	654.70
662.39	650.36
662.73	645.88
663.07	641.46
663.41	637.02
663.75	632.47
664.09	627.86
664.43	623.40
664.77	619.32
665.11	615.01
665.45	610.90
665.79	606.77
666.13	602.61
666.47	598.51
666.81	594.38
667.15	590.37
667.49	586.52
667.83	582.77
668.17	578.81
668.51	574.70
668.85	570.62
669.19	566.76
669.53	562.88
669.87	559.00
670.21	555.30
670.55	551.65
670.89	548.22
671.23	544.80
671.57	541.26
671.91	537.64
672.25	534.11
672.58	530.57
672.92	527.14
673.26	523.93
673.60	520.76
673.94	517.63
674.28	514.70
674.62	511.66
674.96	508.52
675.30	505.61
675.64	502.67
675.97	499.88
676.31	497.00
676.65	494.11
676.99	491.47
677.33	488.65
677.67	485.82
678.01	482.79
678.34	479.76
678.68	476.89
679.02	474.12
679.36	471.36
679.70	468.64
680.04	465.94
680.37	463.08
680.71	460.31
681.05	457.64
681.39	454.83
681.73	452.25
682.06	449.72
682.40	447.16
682.74	444.65
683.08	442.16
683.42	439.52
683.75	437.04
684.09	434.49
684.43	432.00
684.77	429.60
685.10	427.28
685.44	424.96
685.78	422.73
686.12	420.47
686.45	418.22
686.79	415.88
687.13	413.66
687.46	411.54
687.80	409.41
688.14	407.27
688.48	405.27
688.81	402.95
689.15	400.77
689.49	398.63
689.82	396.55
690.16	394.44
690.50	392.53
690.83	390.61
691.17	388.61
691.51	386.76
691.84	384.89
692.18	382.95
692.52	381.01
692.85	379.09
693.19	377.22
693.52	375.40
693.86	373.61
694.20	371.86
694.53	370.04
694.87	368.17
695.21	366.40
695.54	364.60
695.88	362.95
696.21	361.26
696.55	359.58
696.88	357.90
697.22	356.28
697.56	354.66
697.89	352.99
698.23	351.40
698.56	349.78
698.90	348.18
699.23	346.54
699.57	345.02
699.90	343.49
700.24	341.95
700.58	340.39
700.91	338.91
701.25	337.46
701.58	336.07
701.92	334.73
702.25	333.33
702.59	331.94
702.92	330.58
703.26	329.28
703.59	328.02
703.93	326.86
704.26	325.64
704.60	324.31
704.93	323.03
705.26	321.77
705.60	320.53
705.93	319.35
706.27	318.30
706.60	317.21
706.94	316.12
707.27	314.97
707.61	313.92
707.94	312.88
708.27	311.77
708.61	310.68
708.94	309.66
709.28	308.67
709.61	307.68
709.94	306.77
710.28	305.71
710.61	304.73
710.95	303.63
711.28	302.67
711.61	301.74
711.95	300.81
712.28	299.81
712.61	298.83
712.95	297.92
713.28	297.02
713.61	296.12
713.95	295.22
714.28	294.36
714.61	293.51
714.95	292.61
715.28	291.76
715.61	290.88
715.95	290.00
716.28	289.12
716.61	288.29
716.95	287.47
717.28	286.77
717.61	285.94
717.94	285.16
718.28	284.35
718.61	283.62
718.94	282.94
719.27	282.30
719.61	281.69
719.94	281.02
720.27	280.28
720.60	279.62
720.94	278.96
721.27	278.39
721.60	277.78
721.93	277.23
722.27	276.69
722.60	276.16
722.93	275.63
723.26	275.14
723.59	274.58
723.93	274.01
724.26	273.42
724.59	272.93
724.92	272.45
725.25	271.99
725.59	271.46
725.92	270.91
726.25	270.43
726.58	269.93
726.91	269.46
727.24	269.05
727.57	268.58
727.91	268.11
728.24	267.62
728.57	267.15
728.90	266.69
729.23	266.21
729.56	265.79
729.89	265.30
730.22	264.81
730.55	264.39
730.89	263.97
731.22	263.52
731.55	263.05
731.88	262.65
732.21	262.20
732.54	261.79
732.87	261.37
733.20	260.99
733.53	260.59
733.86	260.22
734.19	259.84
734.52	259.48
734.85	259.16
735.18	258.76
735.51	258.42
735.84	258.04
736.17	257.68
736.50	257.24
736.83	256.99
737.16	256.69
737.49	256.34
737.82	255.98
738.15	255.67
738.48	255.37
738.81	255.00
739.14	254.71
739.47	254.35
739.80	254.08
740.13	253.77
740.46	253.43
740.79	253.06
741.12	252.71
741.45	252.37
741.78	252.03
742.11	251.74
742.44	251.37
742.77	251.08
743.10	250.78
743.43	250.53
743.75	250.17
744.08	249.99
744.41	249.71
744.74	249.47
745.07	249.16
745.40	248.90
745.73	248.68
746.06	248.39
746.39	248.16
746.71	247.88
747.04	247.58
747.37	247.32
747.70	247.07
748.03	246.81
748.36	246.58
748.68	246.33
749.01	246.05
749.34	245.85
749.67	245.61
750.00	245.39
750.33	245.21
750.65	244.99
750.98	244.62
751.31	244.39
751.64	244.14
751.97	243.97
752.29	243.74
752.62	243.48
752.95	243.28
753.28	243.02
753.60	242.79
753.93	242.62
754.26	242.44
754.59	242.20
754.91	242.03
755.24	241.82
755.57	241.63
755.90	241.46
756.22	241.27
756.55	241.07
756.88	240.86
757.20	240.62
757.53	240.41
757.86	240.22
758.19	240.05
758.51	239.87
758.84	239.65
759.17	239.47
759.49	239.32
759.82	239.18
760.15	239.05
760.47	238.88
760.80	238.68
761.13	238.54
761.45	238.40
761.78	238.21
762.11	238.07
762.43	237.93
762.76	237.79
763.08	237.65
763.41	237.55
763.74	237.45
764.06	237.30
764.39	237.18
764.71	237.06
765.04	236.94
765.37	236.84
765.69	236.71
766.02	236.60
766.34	236.45
766.67	236.30
767.00	236.22
767.32	236.19
767.65	236.14
767.97	236.05
768.30	235.96
768.62	235.87
768.95	235.73
769.27	235.62
769.60	235.55
769.92	235.45
770.25	235.33
770.57	235.20
770.90	235.12
771.22	235.02
771.55	234.94
771.87	234.86
772.20	234.75
772.52	234.75
772.85	234.76
773.17	234.71
773.50	234.62
773.82	234.53
774.15	234.42
774.47	234.28
774.80	234.16
775.12	234.08
775.45	234.03
775.77	233.98
776.09	233.93
776.42	233.85
776.74	233.81
777.07	233.73
777.39	233.68
777.72	233.59
778.04	233.55
778.36	233.47
778.69	233.41
779.01	233.38
779.33	233.23
779.66	233.07
779.98	233.01
780.31	232.93
780.63	232.91
780.95	232.83
781.28	232.77
781.60	232.72
781.92	232.66
782.25	232.58
782.57	232.52
782.89	232.43
783.22	232.34
783.54	232.25
783.86	232.22
784.19	232.15
784.51	232.17
784.83	232.09
785.16	232.03
785.48	231.97
785.80	231.89
786.12	231.85
786.45	231.80
786.77	231.73
787.09	231.68
