SpectraSuite Data File
++++++++++++++++++++++++++++++++++++
Date: Fri Feb 01 16:22:27 EST 2013
User: group
Dark Spectrum Present: No
Reference Spectrum Present: No
Number of Sampled Component Spectra: 1
Spectrometers: USB2E7196
Integration Time (usec): 35000 (USB2E7196)
Spectra Averaged: 100 (USB2E7196)
Boxcar Smoothing: 10 (USB2E7196)
Correct for Electrical Dark: No (USB2E7196)
Strobe/Lamp Enabled: No (USB2E7196)
Correct for Detector Non-linearity: No (USB2E7196)
Correct for Stray Light: No (USB2E7196)
Number of Pixels in Processed Spectrum: 2048
>>>>>Begin Processed Spectral Data<<<<<
339.09	0.00
339.48	213.77
339.86	215.77
340.24	216.50
340.63	218.14
341.01	221.03
341.39	220.65
341.78	222.44
342.16	223.37
342.54	223.73
342.93	212.28
343.31	223.03
343.69	223.58
344.07	224.02
344.46	224.48
344.84	224.87
345.22	225.10
345.60	225.36
345.99	225.56
346.37	225.72
346.75	225.83
347.13	225.91
347.52	225.98
347.90	226.07
348.28	226.11
348.66	226.17
349.05	226.17
349.43	226.22
349.81	226.23
350.19	226.31
350.57	226.41
350.96	226.50
351.34	226.55
351.72	226.61
352.10	226.69
352.48	226.75
352.87	226.81
353.25	226.86
353.63	226.90
354.01	226.95
354.39	227.01
354.77	227.11
355.15	227.19
355.54	227.25
355.92	227.29
356.30	227.35
356.68	227.47
357.06	227.53
357.44	227.56
357.82	227.63
358.20	227.67
358.58	227.73
358.97	227.79
359.35	227.85
359.73	227.95
360.11	228.03
360.49	228.08
360.87	228.10
361.25	228.17
361.63	228.26
362.01	228.31
362.39	228.34
362.77	228.39
363.15	228.41
363.53	228.44
363.91	228.48
364.29	228.47
364.67	228.40
365.05	228.42
365.43	228.46
365.81	228.48
366.19	228.54
366.57	228.59
366.95	228.55
367.33	228.57
367.71	228.53
368.09	228.53
368.47	228.54
368.85	228.54
369.23	228.53
369.61	228.50
369.99	228.51
370.37	228.47
370.75	228.44
371.13	228.38
371.51	228.33
371.89	228.28
372.27	228.24
372.65	228.23
373.03	228.17
373.41	228.14
373.78	228.06
374.16	227.95
374.54	227.87
374.92	227.84
375.30	227.75
375.68	227.71
376.06	227.66
376.44	227.58
376.82	227.48
377.19	227.40
377.57	227.30
377.95	227.18
378.33	227.10
378.71	227.01
379.09	226.97
379.47	226.95
379.84	226.87
380.22	226.82
380.60	226.70
380.98	226.62
381.36	226.56
381.73	226.50
382.11	226.47
382.49	226.40
382.87	226.31
383.25	226.27
383.62	226.26
384.00	226.16
384.38	226.11
384.76	226.11
385.13	226.14
385.51	226.08
385.89	226.04
386.27	226.01
386.64	225.96
387.02	225.93
387.40	225.86
387.78	225.86
388.15	225.82
388.53	225.81
388.91	225.79
389.29	225.72
389.66	225.72
390.04	225.68
390.42	225.67
390.79	225.69
391.17	225.67
391.55	225.58
391.92	225.57
392.30	225.61
392.68	225.60
393.05	225.57
393.43	225.60
393.81	225.61
394.18	225.59
394.56	225.64
394.94	225.63
395.31	225.61
395.69	225.65
396.06	225.70
396.44	225.72
396.82	225.77
397.19	225.87
397.57	225.89
397.95	225.92
398.32	225.93
398.70	225.96
399.07	226.05
399.45	226.10
399.82	226.17
400.20	226.19
400.58	226.22
400.95	226.25
401.33	226.35
401.70	226.46
402.08	226.56
402.45	226.60
402.83	226.71
403.20	226.84
403.58	226.94
403.95	227.05
404.33	227.18
404.71	227.29
405.08	227.43
405.46	227.54
405.83	227.70
406.21	227.83
406.58	228.00
406.96	228.15
407.33	228.33
407.70	228.55
408.08	228.81
408.45	229.06
408.83	229.27
409.20	229.50
409.58	229.69
409.95	229.95
410.33	230.24
410.70	230.51
411.08	230.79
411.45	231.11
411.82	231.42
412.20	231.80
412.57	232.21
412.95	232.48
413.32	232.93
413.69	233.36
414.07	233.79
414.44	234.24
414.82	234.73
415.19	235.29
415.56	235.82
415.94	236.37
416.31	237.01
416.68	237.66
417.06	238.35
417.43	239.05
417.81	239.83
418.18	240.61
418.55	241.46
418.93	242.33
419.30	243.23
419.67	244.17
420.04	245.11
420.42	246.10
420.79	247.31
421.16	248.45
421.54	249.65
421.91	250.88
422.28	252.13
422.66	253.43
423.03	254.70
423.40	256.02
423.77	257.43
424.15	258.84
424.52	260.32
424.89	261.94
425.26	263.50
425.64	264.95
426.01	266.53
426.38	268.12
426.75	269.84
427.13	271.54
427.50	273.33
427.87	275.22
428.24	277.11
428.61	278.84
428.99	280.77
429.36	282.83
429.73	284.92
430.10	286.94
430.47	289.01
430.85	291.16
431.22	293.37
431.59	295.72
431.96	297.94
432.33	300.46
432.70	302.83
433.08	305.64
433.45	308.25
433.82	310.91
434.19	313.82
434.56	316.60
434.93	319.27
435.30	321.88
435.68	324.73
436.05	327.53
436.42	330.30
436.79	332.81
437.16	335.50
437.53	338.31
437.90	341.16
438.27	343.89
438.64	346.68
439.01	349.28
439.38	351.52
439.75	353.70
440.13	356.11
440.50	358.42
440.87	360.25
441.24	362.19
441.61	364.25
441.98	365.72
442.35	367.49
442.72	369.32
443.09	371.11
443.46	372.11
443.83	372.69
444.20	373.21
444.57	374.00
444.94	374.26
445.31	374.58
445.68	374.92
446.05	374.97
446.42	374.65
446.79	374.24
447.16	373.79
447.53	373.41
447.90	372.30
448.27	371.13
448.64	369.53
449.01	368.40
449.37	366.43
449.74	364.53
450.11	362.29
450.48	359.81
450.85	357.29
451.22	355.12
451.59	353.10
451.96	351.18
452.33	348.57
452.70	346.19
453.07	343.38
453.43	340.45
453.80	337.69
454.17	335.02
454.54	332.44
454.91	329.74
455.28	327.14
455.65	324.63
456.02	322.23
456.38	320.07
456.75	317.40
457.12	315.19
457.49	312.97
457.86	310.76
458.23	308.89
458.59	306.84
458.96	304.78
459.33	302.96
459.70	301.06
460.07	299.57
460.43	297.93
460.80	296.29
461.17	294.88
461.54	293.42
461.91	291.97
462.27	290.57
462.64	289.32
463.01	287.95
463.38	286.68
463.74	285.32
464.11	284.17
464.48	283.16
464.85	282.07
465.21	281.21
465.58	280.32
465.95	279.24
466.32	278.38
466.68	277.49
467.05	276.61
467.42	275.71
467.78	274.82
468.15	273.98
468.52	273.34
468.88	272.52
469.25	271.75
469.62	271.15
469.98	270.48
470.35	269.88
470.72	269.32
471.08	268.69
471.45	268.15
471.82	267.62
472.18	267.04
472.55	266.60
472.92	266.10
473.28	265.69
473.65	265.27
474.02	264.82
474.38	264.43
474.75	264.13
475.11	263.84
475.48	263.59
475.85	263.35
476.21	263.09
476.58	262.91
476.94	262.79
477.31	262.60
477.67	262.51
478.04	262.38
478.41	262.30
478.77	262.33
479.14	262.29
479.50	262.33
479.87	262.43
480.23	262.53
480.60	262.64
480.96	262.73
481.33	262.96
481.69	263.15
482.06	263.38
482.42	263.58
482.79	263.85
483.15	264.19
483.52	264.58
483.88	264.97
484.25	265.35
484.61	265.79
484.98	266.24
485.34	266.76
485.71	267.36
486.07	267.95
486.44	268.53
486.80	269.18
487.17	269.88
487.53	270.67
487.90	271.49
488.26	272.42
488.62	273.40
488.99	274.35
489.35	275.38
489.72	276.51
490.08	277.69
490.44	278.87
490.81	280.19
491.17	281.51
491.54	282.97
491.90	284.49
492.26	286.11
492.63	287.87
492.99	289.62
493.36	291.47
493.72	293.54
494.08	295.62
494.45	297.88
494.81	300.27
495.17	302.71
495.54	305.27
495.90	307.94
496.26	310.75
496.63	313.73
496.99	316.85
497.35	320.11
497.72	323.52
498.08	327.08
498.44	330.75
498.80	334.69
499.17	338.74
499.53	342.92
499.89	347.27
500.26	351.72
500.62	356.47
500.98	361.44
501.34	366.52
501.71	371.85
502.07	377.29
502.43	382.88
502.79	388.70
503.16	394.78
503.52	401.10
503.88	407.52
504.24	414.13
504.60	421.01
504.97	428.11
505.33	435.41
505.69	443.05
506.05	450.84
506.41	458.71
506.78	466.89
507.14	475.34
507.50	484.08
507.86	493.09
508.22	502.24
508.59	511.53
508.95	521.11
509.31	530.97
509.67	541.14
510.03	551.46
510.39	562.00
510.75	572.79
511.12	583.69
511.48	594.99
511.84	606.44
512.20	618.02
512.56	630.02
512.92	642.26
513.28	654.65
513.64	667.21
514.00	679.99
514.37	692.92
514.73	706.02
515.09	719.03
515.45	732.38
515.81	745.99
516.17	760.08
516.53	774.11
516.89	788.35
517.25	802.50
517.61	816.91
517.97	831.37
518.33	845.86
518.69	860.66
519.05	875.61
519.41	890.78
519.77	906.26
520.13	921.63
520.49	936.87
520.85	952.26
521.21	967.94
521.57	984.17
521.93	999.92
522.29	1016.26
522.65	1032.49
523.01	1048.70
523.37	1064.63
523.73	1080.59
524.09	1096.64
524.45	1112.78
524.81	1129.36
525.17	1146.18
525.53	1163.11
525.89	1179.92
526.25	1196.65
526.61	1213.03
526.97	1229.71
527.33	1246.20
527.68	1262.76
528.04	1279.16
528.40	1295.64
528.76	1312.52
529.12	1328.91
529.48	1345.68
529.84	1361.53
530.20	1378.20
530.56	1395.13
530.91	1412.50
531.27	1429.17
531.63	1445.57
531.99	1462.07
532.35	1477.86
532.71	1493.72
533.07	1509.84
533.42	1525.75
533.78	1541.73
534.14	1557.83
534.50	1573.07
534.86	1588.76
535.21	1603.78
535.57	1619.68
535.93	1635.09
536.29	1649.84
536.65	1664.83
537.00	1679.51
537.36	1694.87
537.72	1709.18
538.08	1723.50
538.44	1737.18
538.79	1750.98
539.15	1764.67
539.51	1778.19
539.87	1792.45
540.22	1806.03
540.58	1819.74
540.94	1832.98
541.29	1845.72
541.65	1858.24
542.01	1871.38
542.37	1883.62
542.72	1896.00
543.08	1907.79
543.44	1920.10
543.79	1931.23
544.15	1942.14
544.51	1953.76
544.87	1964.57
545.22	1975.42
545.58	1985.63
545.94	1995.39
546.29	2005.20
546.65	2015.02
547.01	2024.46
547.36	2033.22
547.72	2041.66
548.07	2049.42
548.43	2057.48
548.79	2065.55
549.14	2073.09
549.50	2080.48
549.86	2088.01
550.21	2095.40
550.57	2102.52
550.92	2109.06
551.28	2116.09
551.64	2123.18
551.99	2129.49
552.35	2135.58
552.70	2141.69
553.06	2147.62
553.41	2154.05
553.77	2160.03
554.13	2166.04
554.48	2172.17
554.84	2177.65
555.19	2182.79
555.55	2187.89
555.90	2192.39
556.26	2197.22
556.61	2202.01
556.97	2206.25
557.32	2210.48
557.68	2214.61
558.03	2218.94
558.39	2222.73
558.74	2227.43
559.10	2231.24
559.45	2235.03
559.81	2239.36
560.16	2243.13
560.52	2246.37
560.87	2249.67
561.23	2252.41
561.58	2255.31
561.94	2257.65
562.29	2259.92
562.64	2262.65
563.00	2265.31
563.35	2268.67
563.71	2271.83
564.06	2275.23
564.42	2278.00
564.77	2280.51
565.12	2282.71
565.48	2284.49
565.83	2286.29
566.19	2287.59
566.54	2288.48
566.89	2289.60
567.25	2290.27
567.60	2291.67
567.96	2293.45
568.31	2294.34
568.66	2295.61
569.02	2296.27
569.37	2296.86
569.72	2297.82
570.08	2298.12
570.43	2298.19
570.78	2297.75
571.14	2296.40
571.49	2294.94
571.84	2294.78
572.20	2293.81
572.55	2292.97
572.90	2291.54
573.26	2290.33
573.61	2288.60
573.96	2287.03
574.31	2284.24
574.67	2281.32
575.02	2277.77
575.37	2274.32
575.72	2270.57
576.08	2267.09
576.43	2263.79
576.78	2260.09
577.13	2256.88
577.49	2253.81
577.84	2250.29
578.19	2246.61
578.54	2242.85
578.90	2238.72
579.25	2233.22
579.60	2228.15
579.95	2222.95
580.30	2217.93
580.66	2212.84
581.01	2207.90
581.36	2202.99
581.71	2198.64
582.06	2194.13
582.42	2189.70
582.77	2184.65
583.12	2180.16
583.47	2175.51
583.82	2170.47
584.17	2165.30
584.53	2159.87
584.88	2154.20
585.23	2148.58
585.58	2143.15
585.93	2137.72
586.28	2132.90
586.63	2127.90
586.98	2123.04
587.34	2118.33
587.69	2113.60
588.04	2108.32
588.39	2102.75
588.74	2096.34
589.09	2090.36
589.44	2083.69
589.79	2077.76
590.14	2071.96
590.49	2065.30
590.84	2058.88
591.19	2053.10
591.54	2046.63
591.89	2039.36
592.25	2032.67
592.60	2025.42
592.95	2017.95
593.30	2010.77
593.65	2003.34
594.00	1996.23
594.35	1989.00
594.70	1981.12
595.05	1973.86
595.40	1966.68
595.75	1959.13
596.10	1953.03
596.45	1946.28
596.80	1940.22
597.15	1933.51
597.50	1926.46
597.85	1920.05
598.19	1913.46
598.54	1906.24
598.89	1899.68
599.24	1893.83
599.59	1887.12
599.94	1881.05
600.29	1874.56
600.64	1867.91
600.99	1860.48
601.34	1853.58
601.69	1846.60
602.04	1839.82
602.39	1832.61
602.74	1825.82
603.08	1819.13
603.43	1812.31
603.78	1805.04
604.13	1797.76
604.48	1790.57
604.83	1783.82
605.18	1777.06
605.53	1769.26
605.87	1761.42
606.22	1754.27
606.57	1746.24
606.92	1738.95
607.27	1731.75
607.62	1724.97
607.96	1717.74
608.31	1711.22
608.66	1703.84
609.01	1696.40
609.36	1688.82
609.70	1680.80
610.05	1672.67
610.40	1665.14
610.75	1656.84
611.10	1649.16
611.44	1640.86
611.79	1632.74
612.14	1624.13
612.49	1614.87
612.83	1606.41
613.18	1598.21
613.53	1590.01
613.88	1581.62
614.22	1573.41
614.57	1564.81
614.92	1556.80
615.27	1549.28
615.61	1540.84
615.96	1532.81
616.31	1525.18
616.65	1517.84
617.00	1510.21
617.35	1502.53
617.70	1494.23
618.04	1485.80
618.39	1477.57
618.74	1469.90
619.08	1461.60
619.43	1453.96
619.78	1447.05
620.12	1439.79
620.47	1432.23
620.82	1424.05
621.16	1416.44
621.51	1408.63
621.85	1401.04
622.20	1392.42
622.55	1383.94
622.89	1376.09
623.24	1368.42
623.59	1360.96
623.93	1353.42
624.28	1346.19
624.62	1338.67
624.97	1331.43
625.32	1324.57
625.66	1317.57
626.01	1310.35
626.35	1302.91
626.70	1295.12
627.04	1287.44
627.39	1279.70
627.73	1272.27
628.08	1265.40
628.43	1258.31
628.77	1251.02
629.12	1243.38
629.46	1236.35
629.81	1228.95
630.15	1221.69
630.50	1214.31
630.84	1206.04
631.19	1198.04
631.53	1190.55
631.88	1182.90
632.22	1175.20
632.57	1167.94
632.91	1160.36
633.26	1153.01
633.60	1145.71
633.95	1138.64
634.29	1131.46
634.64	1124.81
634.98	1117.40
635.32	1110.18
635.67	1103.52
636.01	1096.83
636.36	1090.05
636.70	1083.46
637.05	1076.97
637.39	1070.44
637.73	1063.93
638.08	1058.11
638.42	1052.14
638.77	1045.66
639.11	1039.17
639.45	1032.85
639.80	1026.15
640.14	1019.84
640.49	1013.22
640.83	1006.87
641.17	1000.58
641.52	994.33
641.86	987.84
642.20	982.07
642.55	975.75
642.89	969.21
643.23	962.70
643.58	956.95
643.92	950.74
644.26	944.59
644.61	938.58
644.95	932.57
645.29	925.97
645.64	919.25
645.98	912.98
646.32	907.14
646.66	901.12
647.01	895.27
647.35	889.52
647.69	883.66
648.04	878.14
648.38	872.39
648.72	866.32
649.06	860.28
649.41	854.36
649.75	848.45
650.09	842.58
650.43	836.84
650.78	830.64
651.12	824.76
651.46	819.04
651.80	813.26
652.14	807.83
652.49	802.49
652.83	797.28
653.17	791.55
653.51	785.84
653.85	780.44
654.20	774.81
654.54	768.76
654.88	763.10
655.22	757.20
655.56	751.46
655.90	746.13
656.25	740.90
656.59	735.54
656.93	730.44
657.27	725.26
657.61	719.85
657.95	714.84
658.29	709.67
658.64	704.38
658.98	699.20
659.32	693.65
659.66	688.38
660.00	683.08
660.34	678.14
660.68	673.19
661.02	668.13
661.36	663.49
661.70	658.96
662.05	654.55
662.39	650.23
662.73	645.78
663.07	641.32
663.41	636.84
663.75	632.32
664.09	627.72
664.43	623.32
664.77	619.17
665.11	614.80
665.45	610.68
665.79	606.59
666.13	602.42
666.47	598.36
666.81	594.22
667.15	590.06
667.49	586.15
667.83	582.31
668.17	578.35
668.51	574.21
668.85	570.11
669.19	566.28
669.53	562.49
669.87	558.59
670.21	554.87
670.55	551.25
670.89	547.82
671.23	544.34
671.57	540.81
671.91	537.23
672.25	533.74
672.58	530.22
672.92	526.84
673.26	523.70
673.60	520.51
673.94	517.40
674.28	514.51
674.62	511.50
674.96	508.39
675.30	505.49
675.64	502.57
675.97	499.80
676.31	496.92
676.65	493.92
676.99	491.23
677.33	488.39
677.67	485.57
678.01	482.57
678.34	479.63
678.68	476.75
679.02	473.93
679.36	471.16
679.70	468.45
680.04	465.69
680.37	462.79
680.71	460.03
681.05	457.40
681.39	454.65
681.73	452.03
682.06	449.52
682.40	446.94
682.74	444.45
683.08	441.98
683.42	439.40
683.75	436.91
684.09	434.36
684.43	431.89
684.77	429.37
685.10	427.00
685.44	424.71
685.78	422.46
686.12	420.25
686.45	417.98
686.79	415.64
687.13	413.43
687.46	411.22
687.80	409.05
688.14	406.83
688.48	404.80
688.81	402.55
689.15	400.44
689.49	398.32
689.82	396.22
690.16	394.10
690.50	392.12
690.83	390.23
691.17	388.23
691.51	386.33
691.84	384.51
692.18	382.61
692.52	380.59
692.85	378.62
693.19	376.74
693.52	374.93
693.86	373.18
694.20	371.40
694.53	369.64
694.87	367.82
695.21	366.06
695.54	364.22
695.88	362.55
696.21	360.77
696.55	359.11
696.88	357.44
697.22	355.80
697.56	354.15
697.89	352.46
698.23	350.86
698.56	349.23
698.90	347.63
699.23	345.94
699.57	344.46
699.90	342.95
700.24	341.40
700.58	339.87
700.91	338.34
701.25	336.87
701.58	335.51
701.92	334.13
702.25	332.71
702.59	331.36
702.92	330.03
703.26	328.76
703.59	327.43
703.93	326.26
704.26	325.04
704.60	323.76
704.93	322.45
705.26	321.20
705.60	320.03
705.93	318.87
706.27	317.81
706.60	316.69
706.94	315.59
707.27	314.42
707.61	313.35
707.94	312.32
708.27	311.26
708.61	310.17
708.94	309.15
709.28	308.20
709.61	307.22
709.94	306.24
710.28	305.22
710.61	304.25
710.95	303.12
711.28	302.18
711.61	301.24
711.95	300.32
712.28	299.37
712.61	298.40
712.95	297.48
713.28	296.64
713.61	295.75
713.95	294.85
714.28	294.03
714.61	293.17
714.95	292.28
715.28	291.44
715.61	290.58
715.95	289.74
716.28	288.85
716.61	287.98
716.95	287.15
717.28	286.35
717.61	285.60
717.94	284.89
718.28	284.06
718.61	283.32
718.94	282.65
719.27	281.98
719.61	281.27
719.94	280.60
720.27	279.89
720.60	279.24
720.94	278.59
721.27	277.99
721.60	277.38
721.93	276.77
722.27	276.23
722.60	275.65
722.93	275.07
723.26	274.54
723.59	274.01
723.93	273.45
724.26	272.92
724.59	272.30
724.92	271.80
725.25	271.32
725.59	270.79
725.92	270.29
726.25	269.79
726.58	269.33
726.91	268.83
727.24	268.34
727.57	267.84
727.91	267.32
728.24	266.83
728.57	266.38
728.90	265.93
729.23	265.39
729.56	264.96
729.89	264.48
730.22	263.99
730.55	263.50
730.89	263.06
731.22	262.62
731.55	262.21
731.88	261.74
732.21	261.33
732.54	260.87
732.87	260.42
733.20	260.01
733.53	259.60
733.86	259.22
734.19	258.84
734.52	258.51
734.85	258.21
735.18	257.83
735.51	257.45
735.84	257.09
736.17	256.74
736.50	256.32
736.83	256.09
737.16	255.73
737.49	255.44
737.82	255.11
738.15	254.78
738.48	254.45
738.81	254.15
739.14	253.80
739.47	253.54
739.80	253.24
740.13	252.95
740.46	252.63
740.79	252.33
741.12	251.98
741.45	251.66
741.78	251.31
742.11	251.01
742.44	250.63
742.77	250.34
743.10	250.00
743.43	249.72
743.75	249.32
744.08	249.18
744.41	248.89
744.74	248.60
745.07	248.32
745.40	248.06
745.73	247.82
746.06	247.51
746.39	247.25
746.71	246.94
747.04	246.64
747.37	246.41
747.70	246.14
748.03	245.92
748.36	245.67
748.68	245.44
749.01	245.19
749.34	245.00
749.67	244.75
750.00	244.55
750.33	244.41
750.65	244.21
750.98	243.89
751.31	243.67
751.64	243.46
751.97	243.29
752.29	243.08
752.62	242.80
752.95	242.62
753.28	242.39
753.60	242.19
753.93	242.05
754.26	241.80
754.59	241.58
754.91	241.38
755.24	241.18
755.57	240.98
755.90	240.79
756.22	240.62
756.55	240.40
756.88	240.24
757.20	239.98
757.53	239.74
757.86	239.57
758.19	239.44
758.51	239.25
758.84	239.04
759.17	238.88
759.49	238.75
759.82	238.63
760.15	238.51
760.47	238.37
760.80	238.20
761.13	238.07
761.45	237.92
761.78	237.75
762.11	237.60
762.43	237.42
762.76	237.29
763.08	237.17
763.41	237.07
763.74	236.93
764.06	236.81
764.39	236.73
764.71	236.56
765.04	236.41
765.37	236.33
765.69	236.21
766.02	236.09
766.34	235.96
766.67	235.81
767.00	235.70
767.32	235.63
767.65	235.56
767.97	235.47
768.30	235.36
768.62	235.27
768.95	235.16
769.27	235.08
769.60	234.97
769.92	234.83
770.25	234.71
770.57	234.62
770.90	234.51
771.22	234.39
771.55	234.32
771.87	234.22
772.20	234.13
772.52	234.11
772.85	234.11
773.17	234.01
773.50	233.92
773.82	233.81
774.15	233.69
774.47	233.57
774.80	233.44
775.12	233.34
775.45	233.23
775.77	233.16
776.09	233.05
776.42	233.00
776.74	232.96
777.07	232.91
777.39	232.81
777.72	232.74
778.04	232.67
778.36	232.57
778.69	232.51
779.01	232.40
779.33	232.23
779.66	232.07
779.98	232.01
780.31	231.96
780.63	231.94
780.95	231.87
781.28	231.81
781.60	231.75
781.92	231.71
782.25	231.69
782.57	231.64
782.89	231.60
783.22	231.51
783.54	231.43
783.86	231.35
784.19	231.32
784.51	231.32
784.83	231.29
785.16	231.23
785.48	231.14
785.80	231.13
786.12	231.09
786.45	231.01
786.77	230.96
787.09	230.89
