SpectraSuite Data File
++++++++++++++++++++++++++++++++++++
Date: Fri Feb 01 18:03:36 EST 2013
User: group
Dark Spectrum Present: No
Reference Spectrum Present: No
Number of Sampled Component Spectra: 1
Spectrometers: USB2E7196
Integration Time (usec): 35000 (USB2E7196)
Spectra Averaged: 100 (USB2E7196)
Boxcar Smoothing: 10 (USB2E7196)
Correct for Electrical Dark: No (USB2E7196)
Strobe/Lamp Enabled: No (USB2E7196)
Correct for Detector Non-linearity: No (USB2E7196)
Correct for Stray Light: No (USB2E7196)
Number of Pixels in Processed Spectrum: 2048
>>>>>Begin Processed Spectral Data<<<<<
339.09	0.00
339.48	213.13
339.86	214.77
340.24	215.64
340.63	216.61
341.01	220.21
341.39	219.61
341.78	221.22
342.16	221.86
342.54	223.30
342.93	211.30
343.31	221.99
343.69	222.55
344.07	222.99
344.46	223.43
344.84	223.83
345.22	224.06
345.60	224.33
345.99	224.53
346.37	224.70
346.75	224.76
347.13	224.83
347.52	224.88
347.90	224.95
348.28	224.99
348.66	225.08
349.05	225.10
349.43	225.15
349.81	225.21
350.19	225.29
350.57	225.37
350.96	225.43
351.34	225.51
351.72	225.62
352.10	225.74
352.48	225.82
352.87	225.89
353.25	225.97
353.63	226.04
354.01	226.10
354.39	226.17
354.77	226.26
355.15	226.34
355.54	226.39
355.92	226.43
356.30	226.51
356.68	226.64
357.06	226.68
357.44	226.76
357.82	226.81
358.20	226.88
358.58	226.94
358.97	227.01
359.35	227.07
359.73	227.11
360.11	227.13
360.49	227.18
360.87	227.25
361.25	227.27
361.63	227.32
362.01	227.36
362.39	227.37
362.77	227.44
363.15	227.51
363.53	227.59
363.91	227.61
364.29	227.63
364.67	227.57
365.05	227.61
365.43	227.60
365.81	227.62
366.19	227.66
366.57	227.68
366.95	227.67
367.33	227.65
367.71	227.66
368.09	227.68
368.47	227.66
368.85	227.63
369.23	227.67
369.61	227.65
369.99	227.66
370.37	227.67
370.75	227.69
371.13	227.61
371.51	227.55
371.89	227.53
372.27	227.50
372.65	227.46
373.03	227.40
373.41	227.35
373.78	227.30
374.16	227.22
374.54	227.15
374.92	227.12
375.30	227.08
375.68	226.98
376.06	226.93
376.44	226.84
376.82	226.78
377.19	226.69
377.57	226.62
377.95	226.53
378.33	226.42
378.71	226.30
379.09	226.26
379.47	226.20
379.84	226.11
380.22	226.01
380.60	225.93
380.98	225.90
381.36	225.83
381.73	225.75
382.11	225.68
382.49	225.62
382.87	225.53
383.25	225.49
383.62	225.57
384.00	225.51
384.38	225.46
384.76	225.41
385.13	225.41
385.51	225.36
385.89	225.28
386.27	225.27
386.64	225.22
387.02	225.18
387.40	225.14
387.78	225.14
388.15	225.12
388.53	225.10
388.91	225.05
389.29	225.02
389.66	225.00
390.04	224.99
390.42	224.98
390.79	224.96
391.17	224.93
391.55	224.79
391.92	224.78
392.30	224.82
392.68	224.79
393.05	224.79
393.43	224.80
393.81	224.83
394.18	224.83
394.56	224.87
394.94	224.89
395.31	224.89
395.69	224.92
396.06	224.97
396.44	224.97
396.82	224.99
397.19	225.11
397.57	225.15
397.95	225.18
398.32	225.20
398.70	225.26
399.07	225.34
399.45	225.40
399.82	225.43
400.20	225.47
400.58	225.56
400.95	225.59
401.33	225.65
401.70	225.77
402.08	225.87
402.45	225.95
402.83	226.09
403.20	226.19
403.58	226.29
403.95	226.39
404.33	226.56
404.71	226.69
405.08	226.85
405.46	227.01
405.83	227.20
406.21	227.37
406.58	227.56
406.96	227.71
407.33	227.92
407.70	228.15
408.08	228.47
408.45	228.74
408.83	229.04
409.20	229.34
409.58	229.58
409.95	229.91
410.33	230.25
410.70	230.55
411.08	230.92
411.45	231.30
411.82	231.74
412.20	232.17
412.57	232.71
412.95	233.10
413.32	233.64
413.69	234.19
414.07	234.79
414.44	235.42
414.82	236.12
415.19	236.86
415.56	237.62
415.94	238.35
416.31	239.21
416.68	240.04
417.06	240.99
417.43	241.90
417.81	242.94
418.18	244.01
418.55	245.13
418.93	246.31
419.30	247.53
419.67	248.78
420.04	250.07
420.42	251.41
420.79	253.01
421.16	254.58
421.54	256.17
421.91	257.78
422.28	259.50
422.66	261.28
423.03	263.03
423.40	264.82
423.77	266.72
424.15	268.64
424.52	270.66
424.89	272.81
425.26	274.95
425.64	276.87
426.01	279.02
426.38	281.31
426.75	283.60
427.13	285.95
427.50	288.40
427.87	290.95
428.24	293.48
428.61	295.88
428.99	298.48
429.36	301.35
429.73	304.21
430.10	306.94
430.47	309.72
430.85	312.64
431.22	315.71
431.59	318.99
431.96	322.07
432.33	325.46
432.70	328.74
433.08	332.58
433.45	336.20
433.82	339.77
434.19	343.69
434.56	347.52
434.93	351.12
435.30	354.71
435.68	358.66
436.05	362.52
436.42	366.39
436.79	369.83
437.16	373.54
437.53	377.38
437.90	381.23
438.27	384.97
438.64	388.84
439.01	392.36
439.38	395.38
439.75	398.35
440.13	401.77
440.50	405.02
440.87	407.55
441.24	410.23
441.61	413.21
441.98	415.28
442.35	417.81
442.72	420.37
443.09	422.86
443.46	424.27
443.83	425.10
444.20	425.76
444.57	426.90
444.94	427.34
445.31	427.79
445.68	428.25
446.05	428.44
446.42	427.90
446.79	427.33
447.16	426.81
447.53	426.34
447.90	424.74
448.27	423.13
448.64	420.97
449.01	419.38
449.37	416.66
449.74	414.10
450.11	410.99
450.48	407.60
450.85	404.15
451.22	401.22
451.59	398.46
451.96	395.84
452.33	392.32
452.70	389.06
453.07	385.24
453.43	381.31
453.80	377.52
454.17	373.86
454.54	370.39
454.91	366.63
455.28	363.00
455.65	359.64
456.02	356.23
456.38	353.31
456.75	349.67
457.12	346.60
457.49	343.50
457.86	340.52
458.23	338.00
458.59	335.20
458.96	332.29
459.33	329.74
459.70	327.15
460.07	325.11
460.43	322.73
460.80	320.51
461.17	318.51
461.54	316.39
461.91	314.46
462.27	312.50
462.64	310.74
463.01	308.88
463.38	307.03
463.74	305.21
464.11	303.56
464.48	302.15
464.85	300.61
465.21	299.39
465.58	298.11
465.95	296.60
466.32	295.34
466.68	294.14
467.05	292.91
467.42	291.70
467.78	290.41
468.15	289.20
468.52	288.25
468.88	287.08
469.25	286.08
469.62	285.23
469.98	284.29
470.35	283.44
470.72	282.64
471.08	281.75
471.45	280.99
471.82	280.25
472.18	279.43
472.55	278.83
472.92	278.12
473.28	277.47
473.65	276.84
474.02	276.19
474.38	275.63
474.75	275.19
475.11	274.67
475.48	274.25
475.85	273.89
476.21	273.53
476.58	273.19
476.94	272.87
477.31	272.57
477.67	272.29
478.04	272.08
478.41	271.90
478.77	271.85
479.14	271.66
479.50	271.57
479.87	271.60
480.23	271.63
480.60	271.62
480.96	271.63
481.33	271.77
481.69	271.93
482.06	272.07
482.42	272.19
482.79	272.36
483.15	272.68
483.52	273.04
483.88	273.39
484.25	273.82
484.61	274.24
484.98	274.66
485.34	275.21
485.71	275.81
486.07	276.39
486.44	276.96
486.80	277.68
487.17	278.45
487.53	279.30
487.90	280.18
488.26	281.13
488.62	282.17
488.99	283.19
489.35	284.27
489.72	285.41
490.08	286.70
490.44	288.01
490.81	289.34
491.17	290.74
491.54	292.25
491.90	293.86
492.26	295.62
492.63	297.43
492.99	299.27
493.36	301.24
493.72	303.45
494.08	305.67
494.45	308.02
494.81	310.51
495.17	313.04
495.54	315.78
495.90	318.65
496.26	321.58
496.63	324.75
496.99	328.04
497.35	331.48
497.72	335.08
498.08	338.81
498.44	342.75
498.80	346.93
499.17	351.27
499.53	355.69
499.89	360.33
500.26	365.09
500.62	370.03
500.98	375.35
501.34	380.71
501.71	386.40
502.07	392.23
502.43	398.21
502.79	404.43
503.16	410.83
503.52	417.48
503.88	424.34
504.24	431.36
504.60	438.68
504.97	446.30
505.33	454.06
505.69	462.32
506.05	470.57
506.41	478.98
506.78	487.65
507.14	496.64
507.50	505.89
507.86	515.54
508.22	525.38
508.59	535.22
508.95	545.41
509.31	555.88
509.67	566.67
510.03	577.61
510.39	588.92
510.75	600.49
511.12	612.22
511.48	624.27
511.84	636.56
512.20	648.93
512.56	661.84
512.92	674.90
513.28	688.24
513.64	701.71
514.00	715.41
514.37	729.42
514.73	743.58
515.09	757.67
515.45	772.03
515.81	786.78
516.17	801.89
516.53	817.29
516.89	832.74
517.25	848.07
517.61	863.85
517.97	879.55
518.33	895.23
518.69	911.28
519.05	927.57
519.41	944.13
519.77	961.07
520.13	977.82
520.49	994.69
520.85	1011.51
521.21	1028.61
521.57	1046.35
521.93	1063.55
522.29	1081.46
522.65	1099.33
523.01	1117.11
523.37	1134.69
523.73	1152.51
524.09	1170.29
524.45	1188.08
524.81	1206.49
525.17	1224.85
525.53	1243.50
525.89	1262.18
526.25	1280.82
526.61	1299.06
526.97	1317.61
527.33	1335.83
527.68	1354.30
528.04	1372.63
528.40	1390.95
528.76	1410.01
529.12	1428.45
529.48	1447.35
529.84	1465.21
530.20	1483.90
530.56	1502.89
530.91	1522.51
531.27	1541.37
531.63	1559.74
531.99	1578.52
532.35	1596.51
532.71	1614.53
533.07	1632.95
533.42	1650.98
533.78	1669.11
534.14	1687.58
534.50	1704.91
534.86	1722.97
535.21	1740.22
535.57	1758.31
535.93	1776.10
536.29	1793.09
536.65	1810.42
537.00	1827.30
537.36	1844.97
537.72	1861.68
538.08	1878.43
538.44	1894.29
538.79	1910.30
539.15	1926.10
539.51	1942.03
539.87	1958.54
540.22	1974.55
540.58	1990.46
540.94	2006.08
541.29	2021.24
541.65	2036.08
542.01	2051.75
542.37	2066.42
542.72	2081.22
543.08	2095.28
543.44	2110.11
543.79	2123.62
544.15	2136.81
544.51	2150.72
544.87	2163.92
545.22	2176.93
545.58	2189.35
545.94	2201.29
546.29	2213.41
546.65	2225.67
547.01	2237.23
547.36	2248.17
547.72	2258.90
548.07	2268.95
548.43	2279.01
548.79	2289.14
549.14	2298.97
549.50	2308.17
549.86	2317.88
550.21	2327.30
550.57	2336.42
550.92	2344.88
551.28	2353.86
551.64	2363.05
551.99	2371.55
552.35	2379.65
552.70	2387.67
553.06	2395.61
553.41	2403.83
553.77	2411.81
554.13	2419.67
554.48	2427.66
554.84	2435.34
555.19	2442.31
555.55	2449.21
555.90	2455.61
556.26	2462.29
556.61	2468.61
556.97	2474.74
557.32	2480.46
557.68	2486.26
558.03	2492.48
558.39	2497.80
558.74	2504.32
559.10	2509.87
559.45	2515.15
559.81	2520.88
560.16	2526.22
560.52	2530.96
560.87	2535.94
561.23	2539.89
561.58	2544.18
561.94	2548.01
562.29	2551.26
562.64	2555.28
563.00	2559.14
563.35	2563.86
563.71	2568.40
564.06	2572.92
564.42	2577.29
564.77	2581.29
565.12	2584.89
565.48	2587.94
565.83	2591.00
566.19	2593.32
566.54	2595.05
566.89	2597.22
567.25	2598.99
567.60	2601.43
567.96	2604.29
568.31	2606.11
568.66	2608.49
569.02	2610.16
569.37	2611.49
569.72	2613.57
570.08	2614.64
570.43	2615.63
570.78	2616.03
571.14	2614.92
571.49	2614.08
571.84	2614.34
572.20	2613.89
572.55	2613.25
572.90	2612.05
573.26	2611.18
573.61	2609.91
573.96	2608.89
574.31	2606.22
574.67	2603.56
575.02	2600.22
575.37	2596.94
575.72	2593.22
576.08	2589.77
576.43	2586.35
576.78	2582.76
577.13	2579.51
577.49	2576.35
577.84	2572.83
578.19	2569.02
578.54	2565.61
578.90	2561.49
579.25	2555.47
579.60	2550.21
579.95	2545.02
580.30	2539.69
580.66	2534.17
581.01	2528.77
581.36	2523.38
581.71	2518.93
582.06	2514.17
582.42	2509.25
582.77	2503.52
583.12	2498.72
583.47	2493.67
583.82	2488.49
584.17	2482.67
584.53	2476.84
584.88	2471.04
585.23	2464.81
585.58	2458.85
585.93	2452.67
586.28	2447.38
586.63	2442.04
586.98	2436.35
587.34	2431.15
587.69	2425.79
588.04	2420.21
588.39	2413.96
588.74	2406.64
589.09	2399.83
589.44	2392.33
589.79	2385.48
590.14	2379.21
590.49	2371.82
590.84	2364.61
591.19	2357.82
591.54	2350.51
591.89	2342.35
592.25	2334.45
592.60	2326.31
592.95	2317.84
593.30	2309.58
593.65	2300.96
594.00	2292.84
594.35	2284.56
594.70	2275.38
595.05	2267.39
595.40	2258.83
595.75	2250.37
596.10	2243.28
596.45	2235.52
596.80	2228.47
597.15	2221.09
597.50	2213.30
597.85	2205.90
598.19	2198.34
598.54	2190.28
598.89	2182.77
599.24	2175.70
599.59	2168.15
599.94	2160.95
600.29	2153.54
600.64	2145.98
600.99	2137.46
601.34	2129.67
601.69	2121.64
602.04	2113.75
602.39	2105.21
602.74	2097.37
603.08	2089.57
603.43	2081.86
603.78	2073.47
604.13	2064.88
604.48	2056.37
604.83	2048.15
605.18	2040.11
605.53	2030.76
605.87	2021.43
606.22	2012.86
606.57	2003.66
606.92	1994.93
607.27	1986.60
607.62	1978.47
607.96	1969.91
608.31	1962.24
608.66	1953.25
609.01	1944.46
609.36	1935.59
609.70	1925.99
610.05	1916.56
610.40	1907.56
610.75	1897.64
611.10	1888.63
611.44	1878.72
611.79	1869.27
612.14	1859.08
612.49	1848.10
612.83	1838.30
613.18	1828.60
613.53	1819.05
613.88	1808.97
614.22	1799.16
614.57	1788.77
614.92	1779.36
615.27	1770.56
615.61	1760.58
615.96	1751.18
616.31	1742.11
616.65	1733.41
617.00	1724.60
617.35	1715.37
617.70	1705.57
618.04	1695.62
618.39	1685.87
618.74	1676.99
619.08	1667.27
619.43	1658.29
619.78	1650.05
620.12	1641.44
620.47	1632.61
620.82	1622.97
621.16	1614.12
621.51	1605.15
621.85	1596.19
622.20	1586.01
622.55	1576.03
622.89	1566.76
623.24	1557.56
623.59	1548.73
623.93	1539.82
624.28	1531.24
624.62	1522.43
624.97	1513.74
625.32	1505.70
625.66	1497.38
626.01	1488.89
626.35	1480.21
626.70	1471.10
627.04	1462.12
627.39	1453.01
627.73	1444.22
628.08	1436.12
628.43	1427.66
628.77	1419.15
629.12	1410.27
629.46	1401.91
629.81	1392.99
630.15	1384.49
630.50	1375.93
630.84	1366.26
631.19	1356.76
631.53	1347.83
631.88	1338.88
632.22	1330.08
632.57	1321.44
632.91	1312.58
633.26	1303.82
633.60	1294.98
633.95	1286.52
634.29	1278.13
634.64	1270.16
634.98	1261.47
635.32	1252.92
635.67	1245.11
636.01	1237.21
636.36	1229.28
636.70	1221.48
637.05	1213.97
637.39	1206.36
637.73	1198.70
638.08	1191.87
638.42	1184.89
638.77	1177.43
639.11	1169.78
639.45	1162.25
639.80	1154.48
640.14	1146.96
640.49	1139.34
640.83	1131.96
641.17	1124.77
641.52	1117.37
641.86	1109.82
642.20	1102.96
642.55	1095.54
642.89	1087.98
643.23	1080.29
643.58	1073.58
643.92	1066.41
644.26	1059.27
644.61	1052.18
644.95	1045.16
645.29	1037.46
645.64	1029.66
645.98	1022.12
646.32	1015.20
646.66	1008.14
647.01	1001.39
647.35	994.70
647.69	987.84
648.04	981.39
648.38	974.60
648.72	967.74
649.06	960.73
649.41	953.89
649.75	947.09
650.09	940.21
650.43	933.49
650.78	926.24
651.12	919.36
651.46	912.70
651.80	906.12
652.14	899.80
652.49	893.57
652.83	887.65
653.17	881.19
653.51	874.59
653.85	868.32
654.20	861.81
654.54	854.78
654.88	848.10
655.22	841.31
655.56	834.65
655.90	828.19
656.25	822.10
656.59	815.83
656.93	809.93
657.27	803.93
657.61	797.63
657.95	791.79
658.29	785.80
658.64	779.71
658.98	773.53
659.32	767.19
659.66	761.18
660.00	754.90
660.34	749.12
660.68	743.35
661.02	737.51
661.36	732.00
661.70	726.84
662.05	721.89
662.39	716.85
662.73	711.66
663.07	706.67
663.41	701.57
663.75	696.44
664.09	691.08
664.43	685.97
664.77	681.25
665.11	676.28
665.45	671.49
665.79	666.76
666.13	661.94
666.47	657.15
666.81	652.32
667.15	647.58
667.49	643.07
667.83	638.63
668.17	634.08
668.51	629.38
668.85	624.65
669.19	620.12
669.53	615.59
669.87	611.10
670.21	606.77
670.55	602.52
670.89	598.47
671.23	594.48
671.57	590.35
671.91	586.20
672.25	582.11
672.58	578.10
672.92	574.13
673.26	570.44
673.60	566.80
673.94	563.19
674.28	559.83
674.62	556.39
674.96	552.79
675.30	549.37
675.64	545.98
675.97	542.74
676.31	539.42
676.65	536.10
676.99	533.02
677.33	529.71
677.67	526.42
678.01	522.98
678.34	519.58
678.68	516.30
679.02	513.04
679.36	509.86
679.70	506.73
680.04	503.59
680.37	500.32
680.71	497.11
681.05	494.05
681.39	490.87
681.73	487.77
682.06	484.94
682.40	482.04
682.74	479.15
683.08	476.23
683.42	473.21
683.75	470.32
684.09	467.33
684.43	464.47
684.77	461.64
685.10	458.91
685.44	456.24
685.78	453.56
686.12	450.94
686.45	448.25
686.79	445.54
687.13	442.97
687.46	440.41
687.80	437.91
688.14	435.36
688.48	432.98
688.81	430.38
689.15	427.87
689.49	425.38
689.82	422.92
690.16	420.48
690.50	418.18
690.83	415.96
691.17	413.64
691.51	411.44
691.84	409.29
692.18	407.01
692.52	404.72
692.85	402.41
693.19	400.19
693.52	398.06
693.86	395.94
694.20	393.82
694.53	391.74
694.87	389.55
695.21	387.48
695.54	385.34
695.88	383.36
696.21	381.35
696.55	379.39
696.88	377.44
697.22	375.54
697.56	373.65
697.89	371.70
698.23	369.84
698.56	367.97
698.90	366.11
699.23	364.23
699.57	362.37
699.90	360.63
700.24	358.91
700.58	357.14
700.91	355.44
701.25	353.76
701.58	352.14
701.92	350.57
702.25	348.94
702.59	347.34
702.92	345.79
703.26	344.27
703.59	342.80
703.93	341.42
704.26	339.96
704.60	338.47
704.93	336.99
705.26	335.50
705.60	334.12
705.93	332.78
706.27	331.57
706.60	330.36
706.94	329.08
707.27	327.71
707.61	326.46
707.94	325.24
708.27	323.95
708.61	322.70
708.94	321.52
709.28	320.36
709.61	319.27
709.94	318.17
710.28	316.99
710.61	315.80
710.95	314.53
711.28	313.46
711.61	312.36
711.95	311.27
712.28	310.16
712.61	309.00
712.95	307.88
713.28	306.80
713.61	305.75
713.95	304.74
714.28	303.78
714.61	302.78
714.95	301.75
715.28	300.78
715.61	299.72
715.95	298.73
716.28	297.72
716.61	296.75
716.95	295.79
717.28	294.89
717.61	294.03
717.94	293.17
718.28	292.23
718.61	291.39
718.94	290.59
719.27	289.88
719.61	289.11
719.94	288.36
720.27	287.61
720.60	286.86
720.94	286.11
721.27	285.39
721.60	284.72
721.93	284.07
722.27	283.44
722.60	282.83
722.93	282.21
723.26	281.60
723.59	280.92
723.93	280.26
724.26	279.60
724.59	278.93
724.92	278.32
725.25	277.78
725.59	277.18
725.92	276.58
726.25	275.96
726.58	275.39
726.91	274.82
727.24	274.21
727.57	273.64
727.91	273.06
728.24	272.52
728.57	271.98
728.90	271.46
729.23	270.90
729.56	270.37
729.89	269.82
730.22	269.27
730.55	268.75
730.89	268.24
731.22	267.74
731.55	267.24
731.88	266.76
732.21	266.21
732.54	265.71
732.87	265.22
733.20	264.74
733.53	264.32
733.86	263.86
734.19	263.41
734.52	262.98
734.85	262.60
735.18	262.12
735.51	261.68
735.84	261.25
736.17	260.86
736.50	260.40
736.83	260.09
737.16	259.70
737.49	259.36
737.82	258.96
738.15	258.60
738.48	258.18
738.81	257.79
739.14	257.43
739.47	257.05
739.80	256.68
740.13	256.35
740.46	255.95
740.79	255.58
741.12	255.23
741.45	254.86
741.78	254.47
742.11	254.14
742.44	253.75
742.77	253.39
743.10	253.01
743.43	252.68
743.75	252.24
744.08	252.06
744.41	251.69
744.74	251.37
745.07	251.04
745.40	250.78
745.73	250.50
746.06	250.15
746.39	249.82
746.71	249.48
747.04	249.13
747.37	248.83
747.70	248.52
748.03	248.23
748.36	247.95
748.68	247.67
749.01	247.38
749.34	247.12
749.67	246.86
750.00	246.61
750.33	246.42
750.65	246.16
750.98	245.75
751.31	245.50
751.64	245.26
751.97	245.07
752.29	244.82
752.62	244.52
752.95	244.34
753.28	244.13
753.60	243.90
753.93	243.70
754.26	243.48
754.59	243.23
754.91	243.00
755.24	242.78
755.57	242.56
755.90	242.32
756.22	242.10
756.55	241.85
756.88	241.61
757.20	241.34
757.53	241.15
757.86	240.99
758.19	240.80
758.51	240.58
758.84	240.30
759.17	240.10
759.49	239.92
759.82	239.74
760.15	239.55
760.47	239.40
760.80	239.22
761.13	239.09
761.45	238.92
761.78	238.74
762.11	238.56
762.43	238.40
762.76	238.25
763.08	238.10
763.41	237.94
763.74	237.78
764.06	237.64
764.39	237.42
764.71	237.25
765.04	237.08
765.37	236.92
765.69	236.78
766.02	236.64
766.34	236.47
766.67	236.28
767.00	236.18
767.32	236.08
767.65	235.99
767.97	235.83
768.30	235.71
768.62	235.59
768.95	235.46
769.27	235.35
769.60	235.20
769.92	235.04
770.25	234.93
770.57	234.80
770.90	234.69
771.22	234.58
771.55	234.48
771.87	234.37
772.20	234.28
772.52	234.28
772.85	234.27
773.17	234.18
773.50	234.06
773.82	233.92
774.15	233.79
774.47	233.63
774.80	233.50
775.12	233.41
775.45	233.30
775.77	233.23
776.09	233.13
776.42	233.05
776.74	233.02
777.07	232.90
777.39	232.82
777.72	232.72
778.04	232.65
778.36	232.58
778.69	232.51
779.01	232.43
779.33	232.23
779.66	232.03
779.98	231.95
780.31	231.87
780.63	231.84
780.95	231.77
781.28	231.70
781.60	231.66
781.92	231.55
782.25	231.45
782.57	231.34
782.89	231.25
783.22	231.22
783.54	231.09
783.86	231.03
784.19	230.95
784.51	230.88
784.83	230.81
785.16	230.71
785.48	230.64
785.80	230.57
786.12	230.54
786.45	230.48
