SpectraSuite Data File
++++++++++++++++++++++++++++++++++++
Date: Fri Feb 01 15:09:16 EST 2013
User: group
Dark Spectrum Present: No
Reference Spectrum Present: No
Number of Sampled Component Spectra: 1
Spectrometers: USB2E7196
Integration Time (usec): 35000 (USB2E7196)
Spectra Averaged: 100 (USB2E7196)
Boxcar Smoothing: 10 (USB2E7196)
Correct for Electrical Dark: No (USB2E7196)
Strobe/Lamp Enabled: No (USB2E7196)
Correct for Detector Non-linearity: No (USB2E7196)
Correct for Stray Light: No (USB2E7196)
Number of Pixels in Processed Spectrum: 2048
>>>>>Begin Processed Spectral Data<<<<<
339.09	0.00
339.48	215.21
339.86	216.23
340.24	217.78
340.63	219.48
341.01	222.46
341.39	222.36
341.78	223.28
342.16	224.54
342.54	225.04
342.93	213.41
343.31	224.20
343.69	224.73
344.07	225.20
344.46	225.61
344.84	225.98
345.22	226.18
345.60	226.39
345.99	226.58
346.37	226.70
346.75	226.79
347.13	226.88
347.52	226.96
347.90	227.05
348.28	227.03
348.66	227.06
349.05	227.02
349.43	227.07
349.81	227.12
350.19	227.15
350.57	227.22
350.96	227.26
351.34	227.34
351.72	227.42
352.10	227.54
352.48	227.65
352.87	227.71
353.25	227.80
353.63	227.88
354.01	227.97
354.39	228.07
354.77	228.16
355.15	228.27
355.54	228.34
355.92	228.39
356.30	228.50
356.68	228.64
357.06	228.72
357.44	228.78
357.82	228.85
358.20	228.93
358.58	228.98
358.97	229.06
359.35	229.16
359.73	229.23
360.11	229.24
360.49	229.28
360.87	229.33
361.25	229.39
361.63	229.48
362.01	229.50
362.39	229.52
362.77	229.57
363.15	229.57
363.53	229.59
363.91	229.61
364.29	229.66
364.67	229.59
365.05	229.59
365.43	229.63
365.81	229.62
366.19	229.66
366.57	229.70
366.95	229.72
367.33	229.67
367.71	229.62
368.09	229.64
368.47	229.61
368.85	229.60
369.23	229.57
369.61	229.45
369.99	229.45
370.37	229.43
370.75	229.44
371.13	229.39
371.51	229.33
371.89	229.28
372.27	229.20
372.65	229.12
373.03	229.08
373.41	229.00
373.78	228.96
374.16	228.89
374.54	228.78
374.92	228.69
375.30	228.62
375.68	228.56
376.06	228.50
376.44	228.44
376.82	228.34
377.19	228.27
377.57	228.22
377.95	228.13
378.33	228.06
378.71	227.91
379.09	227.88
379.47	227.80
379.84	227.73
380.22	227.66
380.60	227.58
380.98	227.52
381.36	227.42
381.73	227.32
382.11	227.23
382.49	227.17
382.87	227.08
383.25	227.02
383.62	227.05
384.00	226.97
384.38	226.92
384.76	226.93
385.13	226.90
385.51	226.85
385.89	226.78
386.27	226.73
386.64	226.67
387.02	226.58
387.40	226.56
387.78	226.49
388.15	226.45
388.53	226.44
388.91	226.40
389.29	226.37
389.66	226.40
390.04	226.39
390.42	226.42
390.79	226.43
391.17	226.42
391.55	226.33
391.92	226.33
392.30	226.38
392.68	226.30
393.05	226.34
393.43	226.37
393.81	226.40
394.18	226.41
394.56	226.46
394.94	226.52
395.31	226.53
395.69	226.63
396.06	226.69
396.44	226.72
396.82	226.77
397.19	226.89
397.57	226.95
397.95	227.01
398.32	227.03
398.70	227.10
399.07	227.19
399.45	227.25
399.82	227.34
400.20	227.43
400.58	227.53
400.95	227.53
401.33	227.65
401.70	227.81
402.08	227.91
402.45	228.02
402.83	228.14
403.20	228.28
403.58	228.40
403.95	228.57
404.33	228.73
404.71	228.86
405.08	229.05
405.46	229.17
405.83	229.32
406.21	229.50
406.58	229.68
406.96	229.87
407.33	230.07
407.70	230.29
408.08	230.52
408.45	230.79
408.83	231.08
409.20	231.31
409.58	231.51
409.95	231.77
410.33	232.06
410.70	232.32
411.08	232.61
411.45	232.90
411.82	233.17
412.20	233.54
412.57	233.97
412.95	234.24
413.32	234.66
413.69	235.05
414.07	235.48
414.44	235.95
414.82	236.42
415.19	236.97
415.56	237.49
415.94	238.05
416.31	238.68
416.68	239.28
417.06	239.98
417.43	240.62
417.81	241.42
418.18	242.16
418.55	243.02
418.93	243.89
419.30	244.81
419.67	245.73
420.04	246.70
420.42	247.62
420.79	248.79
421.16	249.93
421.54	251.17
421.91	252.37
422.28	253.59
422.66	254.89
423.03	256.17
423.40	257.50
423.77	258.85
424.15	260.25
424.52	261.70
424.89	263.31
425.26	264.85
425.64	266.27
426.01	267.87
426.38	269.51
426.75	271.19
427.13	272.92
427.50	274.74
427.87	276.56
428.24	278.48
428.61	280.24
428.99	282.15
429.36	284.23
429.73	286.29
430.10	288.33
430.47	290.38
430.85	292.45
431.22	294.70
431.59	297.11
431.96	299.32
432.33	301.84
432.70	304.20
433.08	307.01
433.45	309.66
433.82	312.29
434.19	315.17
434.56	318.01
434.93	320.65
435.30	323.27
435.68	326.15
436.05	328.99
436.42	331.79
436.79	334.32
437.16	337.05
437.53	339.90
437.90	342.70
438.27	345.48
438.64	348.40
439.01	350.95
439.38	353.16
439.75	355.36
440.13	357.94
440.50	360.29
440.87	362.13
441.24	364.09
441.61	366.22
441.98	367.72
442.35	369.48
442.72	371.32
443.09	373.19
443.46	374.22
443.83	374.80
444.20	375.35
444.57	376.21
444.94	376.49
445.31	376.84
445.68	377.22
446.05	377.33
446.42	376.96
446.79	376.59
447.16	376.19
447.53	375.88
447.90	374.65
448.27	373.52
448.64	371.97
449.01	370.83
449.37	368.86
449.74	366.97
450.11	364.73
450.48	362.26
450.85	359.71
451.22	357.57
451.59	355.58
451.96	353.61
452.33	350.99
452.70	348.64
453.07	345.82
453.43	342.93
453.80	340.10
454.17	337.39
454.54	334.84
454.91	332.07
455.28	329.38
455.65	326.89
456.02	324.42
456.38	322.30
456.75	319.63
457.12	317.41
457.49	315.19
457.86	313.04
458.23	311.21
458.59	309.13
458.96	307.03
459.33	305.11
459.70	303.24
460.07	301.76
460.43	299.98
460.80	298.31
461.17	296.85
461.54	295.40
461.91	293.96
462.27	292.51
462.64	291.30
463.01	290.00
463.38	288.69
463.74	287.31
464.11	286.12
464.48	285.09
464.85	283.95
465.21	283.06
465.58	282.12
465.95	281.00
466.32	280.08
466.68	279.16
467.05	278.26
467.42	277.33
467.78	276.31
468.15	275.43
468.52	274.74
468.88	273.88
469.25	273.07
469.62	272.40
469.98	271.74
470.35	271.07
470.72	270.42
471.08	269.77
471.45	269.18
471.82	268.61
472.18	267.99
472.55	267.51
472.92	266.99
473.28	266.47
473.65	266.03
474.02	265.55
474.38	265.18
474.75	264.86
475.11	264.53
475.48	264.30
475.85	264.06
476.21	263.82
476.58	263.63
476.94	263.45
477.31	263.29
477.67	263.09
478.04	262.95
478.41	262.89
478.77	262.90
479.14	262.85
479.50	262.85
479.87	262.92
480.23	262.99
480.60	263.01
480.96	263.10
481.33	263.31
481.69	263.50
482.06	263.68
482.42	263.88
482.79	264.09
483.15	264.42
483.52	264.80
483.88	265.13
484.25	265.49
484.61	265.93
484.98	266.39
485.34	266.94
485.71	267.55
486.07	268.12
486.44	268.70
486.80	269.43
487.17	270.13
487.53	270.95
487.90	271.80
488.26	272.75
488.62	273.74
488.99	274.71
489.35	275.77
489.72	276.86
490.08	278.06
490.44	279.36
490.81	280.68
491.17	282.00
491.54	283.51
491.90	285.04
492.26	286.68
492.63	288.43
492.99	290.26
493.36	292.08
493.72	294.16
494.08	296.20
494.45	298.42
494.81	300.80
495.17	303.21
495.54	305.80
495.90	308.48
496.26	311.29
496.63	314.23
496.99	317.33
497.35	320.61
497.72	324.01
498.08	327.50
498.44	331.18
498.80	335.14
499.17	339.14
499.53	343.31
499.89	347.68
500.26	352.21
500.62	356.85
500.98	361.86
501.34	366.89
501.71	372.24
502.07	377.67
502.43	383.32
502.79	389.15
503.16	395.19
503.52	401.49
503.88	407.87
504.24	414.48
504.60	421.35
504.97	428.46
505.33	435.79
505.69	443.43
506.05	451.19
506.41	459.06
506.78	467.23
507.14	475.72
507.50	484.41
507.86	493.32
508.22	502.41
508.59	511.57
508.95	521.14
509.31	530.90
509.67	541.00
510.03	551.27
510.39	561.82
510.75	572.66
511.12	583.47
511.48	594.70
511.84	606.17
512.20	617.75
512.56	629.65
512.92	641.83
513.28	654.14
513.64	666.56
514.00	679.26
514.37	692.22
514.73	705.26
515.09	718.32
515.45	731.65
515.81	745.28
516.17	759.31
516.53	773.42
516.89	787.65
517.25	801.78
517.61	816.26
517.97	830.66
518.33	845.04
518.69	859.94
519.05	875.03
519.41	890.18
519.77	905.64
520.13	921.12
520.49	936.49
520.85	951.99
521.21	967.91
521.57	984.20
521.93	1000.03
522.29	1016.44
522.65	1032.66
523.01	1048.88
523.37	1065.02
523.73	1081.25
524.09	1097.46
524.45	1113.72
524.81	1130.48
525.17	1147.41
525.53	1164.35
525.89	1181.32
526.25	1198.02
526.61	1214.46
526.97	1231.23
527.33	1247.87
527.68	1264.61
528.04	1281.12
528.40	1297.70
528.76	1314.62
529.12	1331.21
529.48	1348.20
529.84	1364.31
530.20	1381.17
530.56	1398.37
530.91	1415.80
531.27	1432.61
531.63	1449.10
531.99	1465.89
532.35	1481.92
532.71	1497.74
533.07	1514.04
533.42	1529.86
533.78	1546.10
534.14	1562.45
534.50	1577.97
534.86	1593.92
535.21	1609.06
535.57	1625.14
535.93	1640.86
536.29	1655.88
536.65	1671.08
537.00	1685.84
537.36	1701.33
537.72	1715.82
538.08	1730.28
538.44	1744.13
538.79	1758.09
539.15	1771.91
539.51	1785.72
539.87	1800.14
540.22	1813.97
540.58	1828.08
540.94	1841.64
541.29	1854.70
541.65	1867.41
542.01	1880.64
542.37	1893.08
542.72	1905.67
543.08	1917.58
543.44	1929.93
543.79	1941.18
544.15	1952.15
544.51	1963.82
544.87	1974.72
545.22	1985.58
545.58	1995.75
545.94	2005.48
546.29	2015.45
546.65	2025.20
547.01	2034.43
547.36	2043.18
547.72	2051.74
548.07	2059.44
548.43	2067.73
548.79	2075.77
549.14	2083.30
549.50	2090.82
549.86	2098.51
550.21	2105.78
550.57	2112.99
550.92	2119.65
551.28	2126.81
551.64	2133.99
551.99	2140.49
552.35	2146.63
552.70	2152.85
553.06	2158.91
553.41	2165.38
553.77	2171.34
554.13	2177.52
554.48	2183.71
554.84	2189.07
555.19	2194.40
555.55	2199.46
555.90	2203.82
556.26	2208.57
556.61	2213.43
556.97	2217.56
557.32	2221.58
557.68	2225.82
558.03	2230.02
558.39	2233.77
558.74	2238.27
559.10	2242.08
559.45	2245.71
559.81	2250.03
560.16	2253.69
560.52	2256.80
560.87	2260.10
561.23	2262.71
561.58	2265.65
561.94	2268.11
562.29	2270.65
562.64	2273.33
563.00	2275.98
563.35	2279.43
563.71	2282.58
564.06	2285.66
564.42	2288.31
564.77	2290.78
565.12	2292.91
565.48	2294.68
565.83	2296.32
566.19	2297.49
566.54	2298.42
566.89	2299.46
567.25	2299.88
567.60	2301.12
567.96	2302.69
568.31	2303.57
568.66	2304.50
569.02	2304.99
569.37	2305.12
569.72	2305.63
570.08	2305.48
570.43	2305.29
570.78	2304.49
571.14	2302.87
571.49	2301.42
571.84	2301.08
572.20	2299.73
572.55	2298.57
572.90	2296.91
573.26	2295.41
573.61	2293.69
573.96	2291.65
574.31	2288.56
574.67	2285.41
575.02	2281.76
575.37	2278.30
575.72	2274.30
576.08	2271.00
576.43	2267.54
576.78	2263.85
577.13	2260.74
577.49	2257.58
577.84	2254.05
578.19	2250.26
578.54	2246.38
578.90	2242.05
579.25	2236.52
579.60	2231.41
579.95	2226.32
580.30	2221.20
580.66	2216.06
581.01	2210.96
581.36	2206.03
581.71	2201.78
582.06	2197.20
582.42	2192.46
582.77	2187.17
583.12	2182.40
583.47	2177.40
583.82	2172.25
584.17	2166.97
584.53	2161.34
584.88	2155.60
585.23	2149.74
585.58	2144.18
585.93	2138.82
586.28	2133.83
586.63	2128.63
586.98	2123.66
587.34	2118.86
587.69	2113.80
588.04	2108.42
588.39	2102.57
588.74	2096.06
589.09	2089.80
589.44	2082.99
589.79	2077.00
590.14	2071.24
590.49	2064.62
590.84	2058.28
591.19	2052.13
591.54	2045.47
591.89	2037.83
592.25	2030.84
592.60	2023.69
592.95	2016.05
593.30	2008.55
593.65	2001.04
594.00	1993.94
594.35	1986.47
594.70	1978.32
595.05	1971.10
595.40	1963.69
595.75	1956.21
596.10	1949.84
596.45	1942.86
596.80	1936.54
597.15	1929.86
597.50	1922.70
597.85	1916.34
598.19	1909.60
598.54	1902.53
598.89	1895.93
599.24	1890.06
599.59	1883.37
599.94	1876.87
600.29	1870.54
600.64	1863.90
600.99	1856.21
601.34	1849.19
601.69	1842.20
602.04	1835.06
602.39	1827.61
602.74	1820.81
603.08	1814.11
603.43	1807.36
603.78	1800.20
604.13	1792.95
604.48	1785.48
604.83	1778.60
605.18	1771.50
605.53	1763.37
605.87	1755.20
606.22	1747.97
606.57	1740.02
606.92	1732.71
607.27	1725.49
607.62	1718.55
607.96	1711.08
608.31	1704.49
608.66	1696.77
609.01	1689.23
609.36	1681.84
609.70	1673.93
610.05	1665.74
610.40	1657.95
610.75	1649.53
611.10	1641.83
611.44	1633.45
611.79	1625.56
612.14	1616.90
612.49	1607.79
612.83	1599.55
613.18	1591.58
613.53	1583.46
613.88	1574.89
614.22	1566.61
614.57	1558.23
614.92	1550.21
615.27	1542.79
615.61	1534.44
615.96	1526.53
616.31	1518.96
616.65	1511.58
617.00	1503.91
617.35	1496.33
617.70	1487.96
618.04	1479.49
618.39	1471.23
618.74	1463.68
619.08	1455.40
619.43	1447.88
619.78	1441.05
620.12	1433.80
620.47	1426.21
620.82	1418.00
621.16	1410.74
621.51	1403.13
621.85	1395.55
622.20	1386.99
622.55	1378.69
622.89	1371.04
623.24	1363.52
623.59	1356.10
623.93	1348.65
624.28	1341.46
624.62	1334.00
624.97	1326.86
625.32	1320.21
625.66	1313.30
626.01	1306.10
626.35	1298.62
626.70	1290.93
627.04	1283.12
627.39	1275.39
627.73	1268.03
628.08	1261.20
628.43	1253.90
628.77	1246.54
629.12	1238.88
629.46	1231.77
629.81	1224.37
630.15	1217.16
630.50	1209.73
630.84	1201.69
631.19	1193.79
631.53	1186.40
631.88	1178.80
632.22	1171.23
632.57	1164.07
632.91	1156.53
633.26	1149.27
633.60	1142.06
633.95	1135.11
634.29	1128.21
634.64	1121.64
634.98	1114.36
635.32	1107.25
635.67	1100.67
636.01	1094.19
636.36	1087.53
636.70	1081.06
637.05	1074.56
637.39	1068.16
637.73	1061.81
638.08	1055.95
638.42	1049.99
638.77	1043.54
639.11	1036.99
639.45	1030.59
639.80	1023.79
640.14	1017.26
640.49	1010.66
640.83	1004.34
641.17	997.94
641.52	991.61
641.86	985.24
642.20	979.40
642.55	973.16
642.89	966.69
643.23	960.16
643.58	954.31
643.92	948.05
644.26	941.90
644.61	935.82
644.95	929.77
645.29	923.10
645.64	916.38
645.98	910.07
646.32	904.32
646.66	898.40
647.01	892.67
647.35	887.12
647.69	881.44
648.04	875.98
648.38	870.15
648.72	864.07
649.06	857.95
649.41	851.98
649.75	845.84
650.09	839.83
650.43	833.98
650.78	827.83
651.12	821.91
651.46	816.21
651.80	810.52
652.14	805.09
652.49	799.76
652.83	794.61
653.17	788.84
653.51	783.02
653.85	777.67
654.20	771.97
654.54	765.94
654.88	760.14
655.22	754.20
655.56	748.64
655.90	743.23
656.25	737.93
656.59	732.66
656.93	727.69
657.27	722.56
657.61	717.16
657.95	712.07
658.29	706.97
658.64	701.81
658.98	696.54
659.32	691.03
659.66	685.80
660.00	680.44
660.34	675.58
660.68	670.76
661.02	665.73
661.36	661.07
661.70	656.63
662.05	652.29
662.39	648.04
662.73	643.56
663.07	639.28
663.41	634.93
663.75	630.44
664.09	625.85
664.43	621.49
664.77	617.35
665.11	613.13
665.45	609.11
665.79	605.05
666.13	600.93
666.47	596.86
666.81	592.70
667.15	588.69
667.49	584.87
667.83	581.07
668.17	577.16
668.51	573.12
668.85	569.10
669.19	565.22
669.53	561.36
669.87	557.50
670.21	553.81
670.55	550.15
670.89	546.78
671.23	543.38
671.57	539.95
671.91	536.45
672.25	533.03
672.58	529.51
672.92	526.15
673.26	523.06
673.60	519.96
673.94	516.93
674.28	514.04
674.62	511.09
674.96	508.01
675.30	505.04
675.64	502.16
675.97	499.48
676.31	496.66
676.65	493.77
676.99	491.11
677.33	488.22
677.67	485.45
678.01	482.39
678.34	479.43
678.68	476.54
679.02	473.75
679.36	470.98
679.70	468.27
680.04	465.50
680.37	462.56
680.71	459.75
681.05	457.13
681.39	454.40
681.73	451.73
682.06	449.25
682.40	446.72
682.74	444.17
683.08	441.56
683.42	438.98
683.75	436.48
684.09	433.98
684.43	431.52
684.77	429.04
685.10	426.75
685.44	424.51
685.78	422.23
686.12	419.96
686.45	417.67
686.79	415.33
687.13	413.10
687.46	410.95
687.80	408.82
688.14	406.62
688.48	404.58
688.81	402.34
689.15	400.15
689.49	398.01
689.82	395.96
690.16	393.88
690.50	391.92
690.83	389.95
691.17	387.95
691.51	386.03
691.84	384.20
692.18	382.21
692.52	380.20
692.85	378.29
693.19	376.43
693.52	374.62
693.86	372.84
694.20	371.11
694.53	369.30
694.87	367.49
695.21	365.73
695.54	363.93
695.88	362.17
696.21	360.46
696.55	358.77
696.88	357.07
697.22	355.47
697.56	353.86
697.89	352.21
698.23	350.60
698.56	349.02
698.90	347.43
699.23	345.81
699.57	344.29
699.90	342.77
700.24	341.26
700.58	339.74
700.91	338.25
701.25	336.80
701.58	335.44
701.92	334.12
702.25	332.79
702.59	331.40
702.92	330.15
703.26	328.85
703.59	327.60
703.93	326.42
704.26	325.17
704.60	323.91
704.93	322.67
705.26	321.46
705.60	320.34
705.93	319.21
706.27	318.20
706.60	317.16
706.94	316.11
707.27	314.98
707.61	313.94
707.94	312.99
708.27	311.94
708.61	310.90
708.94	309.90
709.28	308.94
709.61	308.02
709.94	307.12
710.28	306.14
710.61	305.17
710.95	304.12
711.28	303.23
711.61	302.28
711.95	301.40
712.28	300.49
712.61	299.46
712.95	298.58
713.28	297.72
713.61	296.82
713.95	295.92
714.28	295.12
714.61	294.27
714.95	293.42
715.28	292.58
715.61	291.72
715.95	290.85
716.28	289.94
716.61	289.11
716.95	288.31
717.28	287.55
717.61	286.82
717.94	286.11
718.28	285.29
718.61	284.56
718.94	283.86
719.27	283.18
719.61	282.57
719.94	281.87
720.27	281.17
720.60	280.50
720.94	279.84
721.27	279.22
721.60	278.64
721.93	278.01
722.27	277.42
722.60	276.85
722.93	276.31
723.26	275.79
723.59	275.24
723.93	274.65
724.26	274.10
724.59	273.50
724.92	272.96
725.25	272.46
725.59	271.94
725.92	271.45
726.25	270.94
726.58	270.46
726.91	269.95
727.24	269.45
727.57	268.98
727.91	268.49
728.24	268.02
728.57	267.53
728.90	267.09
729.23	266.59
729.56	266.17
729.89	265.66
730.22	265.16
730.55	264.66
730.89	264.21
731.22	263.75
731.55	263.33
731.88	262.89
732.21	262.43
732.54	262.01
732.87	261.52
733.20	261.10
733.53	260.67
733.86	260.32
734.19	259.93
734.52	259.51
734.85	259.20
735.18	258.77
735.51	258.42
735.84	258.02
736.17	257.70
736.50	257.27
736.83	257.04
737.16	256.71
737.49	256.41
737.82	256.04
738.15	255.74
738.48	255.40
738.81	255.10
739.14	254.81
739.47	254.48
739.80	254.17
740.13	253.87
740.46	253.55
740.79	253.22
741.12	252.90
741.45	252.61
741.78	252.27
742.11	251.96
742.44	251.62
742.77	251.33
743.10	251.02
743.43	250.74
743.75	250.37
744.08	250.23
744.41	249.95
744.74	249.73
745.07	249.40
745.40	249.19
745.73	248.95
746.06	248.69
746.39	248.43
746.71	248.21
747.04	247.93
747.37	247.72
747.70	247.48
748.03	247.26
748.36	247.09
748.68	246.89
749.01	246.68
749.34	246.48
749.67	246.32
750.00	246.11
750.33	245.98
750.65	245.76
750.98	245.43
751.31	245.24
751.64	245.05
751.97	244.94
752.29	244.69
752.62	244.47
752.95	244.27
753.28	244.07
753.60	243.89
753.93	243.74
754.26	243.55
754.59	243.32
754.91	243.10
755.24	242.86
755.57	242.67
755.90	242.49
756.22	242.27
756.55	242.04
756.88	241.86
757.20	241.66
757.53	241.47
757.86	241.32
758.19	241.13
758.51	240.95
758.84	240.73
759.17	240.57
759.49	240.40
759.82	240.29
760.15	240.15
760.47	239.98
760.80	239.78
761.13	239.63
761.45	239.50
761.78	239.37
762.11	239.24
762.43	239.06
762.76	238.92
763.08	238.80
763.41	238.66
763.74	238.48
764.06	238.28
764.39	238.17
764.71	238.00
765.04	237.86
765.37	237.70
765.69	237.54
766.02	237.41
766.34	237.30
766.67	237.13
767.00	237.02
767.32	236.94
767.65	236.87
767.97	236.75
768.30	236.63
768.62	236.49
768.95	236.35
769.27	236.23
769.60	236.11
769.92	235.98
770.25	235.87
770.57	235.71
770.90	235.61
771.22	235.48
771.55	235.38
771.87	235.27
772.20	235.14
772.52	235.14
772.85	235.14
773.17	235.01
773.50	234.88
773.82	234.72
774.15	234.55
774.47	234.42
774.80	234.29
775.12	234.16
775.45	234.06
775.77	233.94
776.09	233.86
776.42	233.77
776.74	233.70
777.07	233.59
777.39	233.54
777.72	233.43
778.04	233.35
778.36	233.24
778.69	233.18
779.01	233.13
779.33	232.96
779.66	232.75
779.98	232.68
780.31	232.65
780.63	232.66
780.95	232.62
781.28	232.53
781.60	232.52
781.92	232.51
782.25	232.46
782.57	232.43
782.89	232.39
783.22	232.33
783.54	232.28
783.86	232.26
784.19	232.23
784.51	232.22
784.83	232.20
785.16	232.14
785.48	232.07
785.80	232.05
786.12	232.05
786.45	232.03
786.77	232.01
787.09	231.95
