SpectraSuite Data File
++++++++++++++++++++++++++++++++++++
Date: Fri Feb 01 14:54:04 EST 2013
User: group
Dark Spectrum Present: No
Reference Spectrum Present: No
Number of Sampled Component Spectra: 1
Spectrometers: USB2E7196
Integration Time (usec): 35000 (USB2E7196)
Spectra Averaged: 100 (USB2E7196)
Boxcar Smoothing: 10 (USB2E7196)
Correct for Electrical Dark: No (USB2E7196)
Strobe/Lamp Enabled: No (USB2E7196)
Correct for Detector Non-linearity: No (USB2E7196)
Correct for Stray Light: No (USB2E7196)
Number of Pixels in Processed Spectrum: 2048
>>>>>Begin Processed Spectral Data<<<<<
339.09	0.00
339.48	215.58
339.86	217.38
340.24	217.77
340.63	219.55
341.01	222.43
341.39	222.84
341.78	223.48
342.16	224.97
342.54	225.62
342.93	213.86
343.31	224.66
343.69	225.19
344.07	225.67
344.46	226.13
344.84	226.50
345.22	226.71
345.60	226.95
345.99	227.16
346.37	227.27
346.75	227.36
347.13	227.44
347.52	227.46
347.90	227.55
348.28	227.57
348.66	227.60
349.05	227.60
349.43	227.60
349.81	227.65
350.19	227.67
350.57	227.73
350.96	227.76
351.34	227.87
351.72	227.97
352.10	228.00
352.48	228.07
352.87	228.16
353.25	228.26
353.63	228.29
354.01	228.33
354.39	228.42
354.77	228.52
355.15	228.63
355.54	228.69
355.92	228.71
356.30	228.78
356.68	228.93
357.06	229.01
357.44	229.08
357.82	229.12
358.20	229.19
358.58	229.22
358.97	229.31
359.35	229.37
359.73	229.41
360.11	229.49
360.49	229.56
360.87	229.60
361.25	229.66
361.63	229.74
362.01	229.81
362.39	229.82
362.77	229.82
363.15	229.84
363.53	229.87
363.91	229.90
364.29	229.92
364.67	229.78
365.05	229.78
365.43	229.79
365.81	229.80
366.19	229.83
366.57	229.86
366.95	229.81
367.33	229.74
367.71	229.72
368.09	229.71
368.47	229.67
368.85	229.61
369.23	229.56
369.61	229.51
369.99	229.47
370.37	229.49
370.75	229.51
371.13	229.42
371.51	229.39
371.89	229.34
372.27	229.27
372.65	229.27
373.03	229.21
373.41	229.15
373.78	229.07
374.16	228.97
374.54	228.83
374.92	228.75
375.30	228.69
375.68	228.59
376.06	228.52
376.44	228.43
376.82	228.35
377.19	228.24
377.57	228.16
377.95	228.05
378.33	227.94
378.71	227.79
379.09	227.74
379.47	227.65
379.84	227.55
380.22	227.48
380.60	227.38
380.98	227.31
381.36	227.24
381.73	227.17
382.11	227.10
382.49	227.04
382.87	226.97
383.25	226.88
383.62	226.97
384.00	226.88
384.38	226.83
384.76	226.79
385.13	226.81
385.51	226.75
385.89	226.73
386.27	226.69
386.64	226.65
387.02	226.59
387.40	226.55
387.78	226.52
388.15	226.50
388.53	226.45
388.91	226.42
389.29	226.40
389.66	226.38
390.04	226.39
390.42	226.43
390.79	226.46
391.17	226.44
391.55	226.32
391.92	226.34
392.30	226.38
392.68	226.35
393.05	226.36
393.43	226.38
393.81	226.38
394.18	226.36
394.56	226.42
394.94	226.44
395.31	226.43
395.69	226.53
396.06	226.56
396.44	226.64
396.82	226.69
397.19	226.82
397.57	226.88
397.95	226.96
398.32	227.00
398.70	227.09
399.07	227.22
399.45	227.29
399.82	227.39
400.20	227.47
400.58	227.56
400.95	227.60
401.33	227.70
401.70	227.84
402.08	227.97
402.45	228.06
402.83	228.26
403.20	228.43
403.58	228.55
403.95	228.70
404.33	228.84
404.71	228.97
405.08	229.13
405.46	229.25
405.83	229.43
406.21	229.58
406.58	229.72
406.96	229.87
407.33	230.07
407.70	230.23
408.08	230.51
408.45	230.77
408.83	231.00
409.20	231.23
409.58	231.43
409.95	231.69
410.33	231.98
410.70	232.19
411.08	232.48
411.45	232.77
411.82	233.07
412.20	233.40
412.57	233.82
412.95	234.12
413.32	234.55
413.69	234.95
414.07	235.40
414.44	235.86
414.82	236.32
415.19	236.89
415.56	237.46
415.94	237.98
416.31	238.59
416.68	239.22
417.06	239.94
417.43	240.62
417.81	241.39
418.18	242.13
418.55	242.95
418.93	243.81
419.30	244.67
419.67	245.59
420.04	246.54
420.42	247.49
420.79	248.63
421.16	249.76
421.54	250.93
421.91	252.11
422.28	253.37
422.66	254.73
423.03	255.96
423.40	257.26
423.77	258.66
424.15	260.07
424.52	261.55
424.89	263.11
425.26	264.69
425.64	266.10
426.01	267.69
426.38	269.34
426.75	271.05
427.13	272.79
427.50	274.63
427.87	276.53
428.24	278.40
428.61	280.17
428.99	282.14
429.36	284.23
429.73	286.28
430.10	288.29
430.47	290.35
430.85	292.51
431.22	294.74
431.59	297.11
431.96	299.39
432.33	301.91
432.70	304.33
433.08	307.10
433.45	309.83
433.82	312.46
434.19	315.37
434.56	318.19
434.93	320.86
435.30	323.44
435.68	326.35
436.05	329.22
436.42	332.02
436.79	334.53
437.16	337.25
437.53	340.15
437.90	342.99
438.27	345.73
438.64	348.54
439.01	351.13
439.38	353.41
439.75	355.56
440.13	358.00
440.50	360.35
440.87	362.21
441.24	364.13
441.61	366.28
441.98	367.81
442.35	369.63
442.72	371.48
443.09	373.33
443.46	374.32
443.83	374.89
444.20	375.41
444.57	376.27
444.94	376.54
445.31	376.85
445.68	377.22
446.05	377.31
446.42	376.94
446.79	376.50
447.16	376.05
447.53	375.78
447.90	374.62
448.27	373.46
448.64	371.88
449.01	370.75
449.37	368.78
449.74	366.83
450.11	364.57
450.48	362.05
450.85	359.55
451.22	357.37
451.59	355.33
451.96	353.37
452.33	350.73
452.70	348.39
453.07	345.56
453.43	342.62
453.80	339.82
454.17	337.14
454.54	334.63
454.91	331.89
455.28	329.17
455.65	326.74
456.02	324.29
456.38	322.14
456.75	319.46
457.12	317.22
457.49	314.99
457.86	312.79
458.23	310.99
458.59	308.91
458.96	306.86
459.33	305.05
459.70	303.19
460.07	301.68
460.43	299.94
460.80	298.33
461.17	296.93
461.54	295.44
461.91	294.01
462.27	292.55
462.64	291.32
463.01	289.95
463.38	288.62
463.74	287.24
464.11	286.05
464.48	284.99
464.85	283.84
465.21	282.99
465.58	282.05
465.95	280.94
466.32	280.00
466.68	279.09
467.05	278.14
467.42	277.23
467.78	276.29
468.15	275.43
468.52	274.73
468.88	273.82
469.25	273.04
469.62	272.44
469.98	271.76
470.35	271.09
470.72	270.49
471.08	269.83
471.45	269.27
471.82	268.72
472.18	268.13
472.55	267.69
472.92	267.13
473.28	266.68
473.65	266.20
474.02	265.78
474.38	265.39
474.75	265.05
475.11	264.72
475.48	264.45
475.85	264.19
476.21	263.95
476.58	263.77
476.94	263.62
477.31	263.40
477.67	263.25
478.04	263.14
478.41	263.08
478.77	263.09
479.14	263.03
479.50	263.02
479.87	263.11
480.23	263.18
480.60	263.22
480.96	263.27
481.33	263.47
481.69	263.64
482.06	263.81
482.42	264.01
482.79	264.21
483.15	264.54
483.52	264.90
483.88	265.23
484.25	265.60
484.61	266.03
484.98	266.45
485.34	267.02
485.71	267.60
486.07	268.15
486.44	268.74
486.80	269.42
487.17	270.12
487.53	270.92
487.90	271.77
488.26	272.74
488.62	273.71
488.99	274.69
489.35	275.74
489.72	276.84
490.08	278.05
490.44	279.31
490.81	280.61
491.17	281.97
491.54	283.48
491.90	285.03
492.26	286.65
492.63	288.42
492.99	290.16
493.36	292.03
493.72	294.09
494.08	296.18
494.45	298.45
494.81	300.87
495.17	303.27
495.54	305.82
495.90	308.48
496.26	311.24
496.63	314.14
496.99	317.25
497.35	320.51
497.72	323.89
498.08	327.38
498.44	331.02
498.80	334.89
499.17	338.85
499.53	342.98
499.89	347.38
500.26	351.82
500.62	356.51
500.98	361.50
501.34	366.52
501.71	371.79
502.07	377.19
502.43	382.74
502.79	388.54
503.16	394.59
503.52	400.85
503.88	407.27
504.24	413.91
504.60	420.73
504.97	427.84
505.33	435.11
505.69	442.79
506.05	450.49
506.41	458.32
506.78	466.48
507.14	474.89
507.50	483.49
507.86	492.49
508.22	501.61
508.59	510.71
508.95	520.25
509.31	529.97
509.67	539.99
510.03	550.20
510.39	560.73
510.75	571.45
511.12	582.38
511.48	593.57
511.84	605.01
512.20	616.45
512.56	628.36
512.92	640.48
513.28	652.79
513.64	665.29
514.00	678.03
514.37	690.90
514.73	703.90
515.09	717.03
515.45	730.33
515.81	743.91
516.17	757.88
516.53	772.02
516.89	786.31
517.25	800.51
517.61	814.99
517.97	829.45
518.33	843.95
518.69	858.72
519.05	873.76
519.41	888.87
519.77	904.53
520.13	919.97
520.49	935.31
520.85	950.76
521.21	966.57
521.57	982.82
521.93	998.75
522.29	1015.18
522.65	1031.42
523.01	1047.68
523.37	1063.77
523.73	1079.98
524.09	1096.11
524.45	1112.40
524.81	1129.08
525.17	1145.90
525.53	1162.88
525.89	1179.77
526.25	1196.56
526.61	1213.09
526.97	1230.01
527.33	1246.52
527.68	1263.28
528.04	1279.89
528.40	1296.68
528.76	1313.81
529.12	1330.42
529.48	1347.23
529.84	1363.41
530.20	1380.29
530.56	1397.44
530.91	1414.90
531.27	1431.84
531.63	1448.51
531.99	1465.11
532.35	1481.24
532.71	1497.21
533.07	1513.54
533.42	1529.50
533.78	1545.79
534.14	1562.06
534.50	1577.47
534.86	1593.44
535.21	1608.64
535.57	1624.65
535.93	1640.15
536.29	1654.97
536.65	1670.37
537.00	1685.34
537.36	1700.67
537.72	1715.10
538.08	1729.51
538.44	1743.49
538.79	1757.45
539.15	1771.18
539.51	1785.21
539.87	1799.71
540.22	1813.56
540.58	1827.49
540.94	1840.95
541.29	1853.95
541.65	1866.76
542.01	1880.02
542.37	1892.36
542.72	1904.92
543.08	1916.86
543.44	1929.26
543.79	1940.58
544.15	1951.50
544.51	1963.00
544.87	1974.11
545.22	1984.86
545.58	1995.03
545.94	2004.69
546.29	2014.65
546.65	2024.51
547.01	2033.56
547.36	2042.27
547.72	2050.80
548.07	2058.58
548.43	2066.69
548.79	2074.72
549.14	2082.22
549.50	2089.60
549.86	2097.47
550.21	2104.70
550.57	2111.84
550.92	2118.44
551.28	2125.38
551.64	2132.48
551.99	2139.14
552.35	2145.23
552.70	2151.54
553.06	2157.53
553.41	2163.94
553.77	2169.81
554.13	2175.73
554.48	2181.82
554.84	2187.20
555.19	2192.44
555.55	2197.50
555.90	2201.98
556.26	2206.66
556.61	2211.23
556.97	2215.28
557.32	2219.26
557.68	2223.30
558.03	2227.52
558.39	2231.18
558.74	2235.82
559.10	2239.43
559.45	2242.96
559.81	2247.16
560.16	2250.71
560.52	2253.73
560.87	2257.06
561.23	2259.58
561.58	2262.35
561.94	2264.78
562.29	2266.90
562.64	2269.34
563.00	2271.96
563.35	2275.39
563.71	2278.46
564.06	2281.47
564.42	2284.37
564.77	2286.68
565.12	2288.90
565.48	2290.58
565.83	2292.11
566.19	2293.32
566.54	2294.16
566.89	2295.09
567.25	2295.33
567.60	2296.63
567.96	2298.26
568.31	2298.77
568.66	2299.65
569.02	2300.19
569.37	2300.46
569.72	2301.30
570.08	2301.22
570.43	2300.85
570.78	2299.82
571.14	2298.06
571.49	2296.67
571.84	2296.05
572.20	2294.67
572.55	2293.28
572.90	2291.59
573.26	2290.08
573.61	2288.07
573.96	2286.04
574.31	2282.80
574.67	2279.64
575.02	2275.78
575.37	2272.16
575.72	2268.29
576.08	2264.83
576.43	2261.24
576.78	2257.29
577.13	2253.84
577.49	2250.71
577.84	2247.19
578.19	2243.55
578.54	2239.62
578.90	2235.09
579.25	2229.48
579.60	2224.29
579.95	2219.11
580.30	2213.97
580.66	2208.62
581.01	2203.55
581.36	2198.59
581.71	2194.25
582.06	2189.79
582.42	2185.07
582.77	2179.73
583.12	2174.99
583.47	2170.11
583.82	2164.95
584.17	2159.49
584.53	2153.79
584.88	2148.00
585.23	2142.00
585.58	2136.34
585.93	2130.84
586.28	2126.04
586.63	2120.77
586.98	2115.72
587.34	2110.87
587.69	2105.79
588.04	2100.45
588.39	2094.62
588.74	2087.95
589.09	2081.72
589.44	2074.73
589.79	2068.64
590.14	2062.99
590.49	2056.23
590.84	2049.65
591.19	2043.51
591.54	2037.04
591.89	2029.56
592.25	2022.60
592.60	2015.12
592.95	2007.38
593.30	1999.97
593.65	1992.25
594.00	1985.09
594.35	1977.71
594.70	1969.65
595.05	1962.38
595.40	1955.04
595.75	1947.44
596.10	1941.17
596.45	1934.22
596.80	1927.89
597.15	1921.02
597.50	1913.70
597.85	1907.30
598.19	1900.61
598.54	1893.43
598.89	1886.75
599.24	1880.87
599.59	1874.05
599.94	1868.00
600.29	1861.59
600.64	1854.96
600.99	1847.43
601.34	1840.66
601.69	1833.68
602.04	1826.72
602.39	1819.19
602.74	1812.24
603.08	1805.59
603.43	1798.76
603.78	1791.44
604.13	1784.33
604.48	1777.06
604.83	1770.32
605.18	1763.29
605.53	1755.35
605.87	1747.34
606.22	1740.08
606.57	1732.16
606.92	1725.01
607.27	1717.76
607.62	1710.85
607.96	1703.43
608.31	1696.91
608.66	1689.18
609.01	1681.56
609.36	1674.12
609.70	1666.31
610.05	1658.40
610.40	1650.65
610.75	1642.50
611.10	1635.01
611.44	1626.76
611.79	1619.00
612.14	1610.27
612.49	1601.28
612.83	1593.01
613.18	1585.08
613.53	1577.06
613.88	1568.57
614.22	1560.20
614.57	1551.72
614.92	1543.81
615.27	1536.58
615.61	1528.27
615.96	1520.41
616.31	1512.91
616.65	1505.46
617.00	1497.94
617.35	1490.25
617.70	1481.96
618.04	1473.34
618.39	1465.13
618.74	1457.47
619.08	1449.22
619.43	1441.79
619.78	1434.85
620.12	1427.70
620.47	1420.08
620.82	1411.94
621.16	1404.61
621.51	1397.19
621.85	1389.64
622.20	1381.15
622.55	1372.77
622.89	1365.07
623.24	1357.40
623.59	1349.99
623.93	1342.62
624.28	1335.42
624.62	1327.96
624.97	1320.92
625.32	1314.34
625.66	1307.44
626.01	1300.31
626.35	1292.84
626.70	1285.10
627.04	1277.45
627.39	1269.71
627.73	1262.41
628.08	1255.64
628.43	1248.38
628.77	1240.90
629.12	1233.42
629.46	1226.34
629.81	1218.92
630.15	1211.78
630.50	1204.50
630.84	1196.46
631.19	1188.63
631.53	1181.16
631.88	1173.70
632.22	1166.10
632.57	1158.82
632.91	1151.41
633.26	1144.09
633.60	1136.91
633.95	1129.97
634.29	1123.02
634.64	1116.48
634.98	1109.29
635.32	1102.23
635.67	1095.71
636.01	1089.28
636.36	1082.53
636.70	1076.06
637.05	1069.59
637.39	1063.18
637.73	1056.74
638.08	1050.88
638.42	1045.00
638.77	1038.65
639.11	1032.16
639.45	1025.92
639.80	1019.36
640.14	1012.93
640.49	1006.46
640.83	1000.21
641.17	993.94
641.52	987.69
641.86	981.28
642.20	975.43
642.55	969.12
642.89	962.69
643.23	956.25
643.58	950.59
643.92	944.42
644.26	938.39
644.61	932.36
644.95	926.45
645.29	920.01
645.64	913.30
645.98	907.03
646.32	901.20
646.66	895.18
647.01	889.33
647.35	883.74
647.69	877.96
648.04	872.46
648.38	866.78
648.72	860.74
649.06	854.76
649.41	848.94
649.75	843.05
650.09	837.09
650.43	831.26
650.78	825.12
651.12	819.30
651.46	813.68
651.80	807.93
652.14	802.58
652.49	797.18
652.83	791.98
653.17	786.32
653.51	780.63
653.85	775.25
654.20	769.73
654.54	763.75
654.88	758.05
655.22	752.20
655.56	746.52
655.90	741.07
656.25	735.82
656.59	730.50
656.93	725.40
657.27	720.26
657.61	714.92
657.95	709.86
658.29	704.69
658.64	699.48
658.98	694.23
659.32	688.81
659.66	683.67
660.00	678.34
660.34	673.45
660.68	668.62
661.02	663.65
661.36	658.97
661.70	654.48
662.05	650.14
662.39	645.86
662.73	641.46
663.07	637.15
663.41	632.76
663.75	628.29
664.09	623.80
664.43	619.55
664.77	615.50
665.11	611.30
665.45	607.29
665.79	603.26
666.13	599.29
666.47	595.25
666.81	591.13
667.15	587.18
667.49	583.31
667.83	579.59
668.17	575.73
668.51	571.68
668.85	567.71
669.19	563.88
669.53	560.09
669.87	556.21
670.21	552.58
670.55	549.00
670.89	545.64
671.23	542.22
671.57	538.72
671.91	535.13
672.25	531.68
672.58	528.15
672.92	524.78
673.26	521.56
673.60	518.40
673.94	515.30
674.28	512.41
674.62	509.51
674.96	506.41
675.30	503.49
675.64	500.64
675.97	497.96
676.31	495.19
676.65	492.26
676.99	489.58
677.33	486.76
677.67	483.95
678.01	480.86
678.34	477.92
678.68	475.03
679.02	472.29
679.36	469.58
679.70	466.90
680.04	464.14
680.37	461.29
680.71	458.52
681.05	455.93
681.39	453.19
681.73	450.50
682.06	447.95
682.40	445.42
682.74	442.88
683.08	440.29
683.42	437.66
683.75	435.19
684.09	432.73
684.43	430.30
684.77	427.89
685.10	425.63
685.44	423.34
685.78	421.10
686.12	418.89
686.45	416.63
686.79	414.39
687.13	412.31
687.46	410.17
687.80	408.07
688.14	405.86
688.48	403.90
688.81	401.74
689.15	399.66
689.49	397.55
689.82	395.51
690.16	393.46
690.50	391.57
690.83	389.64
691.17	387.64
691.51	385.77
691.84	383.96
692.18	382.07
692.52	380.12
692.85	378.26
693.19	376.42
693.52	374.59
693.86	372.79
694.20	370.98
694.53	369.24
694.87	367.43
695.21	365.71
695.54	363.87
695.88	362.18
696.21	360.47
696.55	358.81
696.88	357.15
697.22	355.52
697.56	353.94
697.89	352.29
698.23	350.75
698.56	349.12
698.90	347.50
699.23	345.84
699.57	344.32
699.90	342.78
700.24	341.26
700.58	339.74
700.91	338.27
701.25	336.84
701.58	335.49
701.92	334.12
702.25	332.76
702.59	331.39
702.92	330.07
703.26	328.83
703.59	327.59
703.93	326.40
704.26	325.20
704.60	323.91
704.93	322.68
705.26	321.43
705.60	320.31
705.93	319.19
706.27	318.22
706.60	317.21
706.94	316.10
707.27	314.95
707.61	313.92
707.94	312.89
708.27	311.79
708.61	310.72
708.94	309.71
709.28	308.75
709.61	307.83
709.94	306.86
710.28	305.83
710.61	304.83
710.95	303.78
711.28	302.89
711.61	301.97
711.95	301.07
712.28	300.11
712.61	299.09
712.95	298.18
713.28	297.31
713.61	296.38
713.95	295.56
714.28	294.73
714.61	293.91
714.95	293.07
715.28	292.27
715.61	291.39
715.95	290.56
716.28	289.70
716.61	288.90
716.95	288.12
717.28	287.40
717.61	286.64
717.94	285.90
718.28	285.04
718.61	284.30
718.94	283.64
719.27	283.02
719.61	282.36
719.94	281.69
720.27	280.94
720.60	280.26
720.94	279.63
721.27	279.05
721.60	278.45
721.93	277.84
722.27	277.26
722.60	276.74
722.93	276.18
723.26	275.65
723.59	275.07
723.93	274.50
724.26	273.93
724.59	273.38
724.92	272.84
725.25	272.37
725.59	271.85
725.92	271.31
726.25	270.79
726.58	270.30
726.91	269.77
727.24	269.30
727.57	268.85
727.91	268.32
728.24	267.84
728.57	267.32
728.90	266.89
729.23	266.40
729.56	265.95
729.89	265.46
730.22	264.95
730.55	264.49
730.89	264.03
731.22	263.57
731.55	263.14
731.88	262.73
732.21	262.32
732.54	261.89
732.87	261.45
733.20	261.07
733.53	260.69
733.86	260.35
734.19	259.95
734.52	259.58
734.85	259.29
735.18	258.88
735.51	258.54
735.84	258.14
736.17	257.84
736.50	257.43
736.83	257.22
737.16	256.87
737.49	256.53
737.82	256.20
738.15	255.87
738.48	255.55
738.81	255.26
739.14	254.92
739.47	254.63
739.80	254.36
740.13	254.06
740.46	253.73
740.79	253.41
741.12	253.12
741.45	252.78
741.78	252.41
742.11	252.14
742.44	251.83
742.77	251.54
743.10	251.20
743.43	250.92
743.75	250.53
744.08	250.41
744.41	250.13
744.74	249.90
745.07	249.63
745.40	249.41
745.73	249.16
746.06	248.86
746.39	248.61
746.71	248.32
747.04	248.07
747.37	247.82
747.70	247.59
748.03	247.33
748.36	247.16
748.68	246.94
749.01	246.67
749.34	246.46
749.67	246.27
750.00	246.06
750.33	245.94
750.65	245.74
750.98	245.40
751.31	245.20
751.64	244.99
751.97	244.85
752.29	244.62
752.62	244.40
752.95	244.21
753.28	244.03
753.60	243.81
753.93	243.62
754.26	243.45
754.59	243.24
754.91	243.03
755.24	242.82
755.57	242.64
755.90	242.50
756.22	242.32
756.55	242.09
756.88	241.90
757.20	241.66
757.53	241.45
757.86	241.27
758.19	241.07
758.51	240.89
758.84	240.66
759.17	240.50
759.49	240.32
759.82	240.20
760.15	240.01
760.47	239.85
760.80	239.68
761.13	239.54
761.45	239.35
761.78	239.22
762.11	239.09
762.43	238.94
762.76	238.79
763.08	238.65
763.41	238.52
763.74	238.36
764.06	238.20
764.39	238.08
764.71	237.97
765.04	237.84
765.37	237.71
765.69	237.60
766.02	237.44
766.34	237.30
766.67	237.15
767.00	237.03
767.32	236.95
767.65	236.86
767.97	236.76
768.30	236.66
768.62	236.52
768.95	236.38
769.27	236.25
769.60	236.13
769.92	235.96
770.25	235.85
770.57	235.74
770.90	235.62
771.22	235.50
771.55	235.36
771.87	235.29
772.20	235.14
772.52	235.12
772.85	235.15
773.17	235.04
773.50	234.93
773.82	234.82
774.15	234.70
774.47	234.58
774.80	234.45
775.12	234.37
775.45	234.30
775.77	234.23
776.09	234.14
776.42	234.05
776.74	234.03
777.07	233.95
777.39	233.89
777.72	233.81
778.04	233.72
778.36	233.65
778.69	233.59
779.01	233.57
779.33	233.40
779.66	233.24
779.98	233.20
780.31	233.15
780.63	233.11
780.95	233.07
781.28	233.00
781.60	232.93
781.92	232.89
782.25	232.82
782.57	232.75
782.89	232.69
783.22	232.63
783.54	232.54
783.86	232.53
784.19	232.45
784.51	232.40
784.83	232.38
785.16	232.35
785.48	232.28
785.80	232.22
786.12	232.24
786.45	232.17
786.77	232.14
787.09	232.08
