SpectraSuite Data File
++++++++++++++++++++++++++++++++++++
Date: Fri Feb 01 15:22:16 EST 2013
User: group
Dark Spectrum Present: No
Reference Spectrum Present: No
Number of Sampled Component Spectra: 1
Spectrometers: USB2E7196
Integration Time (usec): 35000 (USB2E7196)
Spectra Averaged: 100 (USB2E7196)
Boxcar Smoothing: 10 (USB2E7196)
Correct for Electrical Dark: No (USB2E7196)
Strobe/Lamp Enabled: No (USB2E7196)
Correct for Detector Non-linearity: No (USB2E7196)
Correct for Stray Light: No (USB2E7196)
Number of Pixels in Processed Spectrum: 2048
>>>>>Begin Processed Spectral Data<<<<<
339.09	0.00
339.48	214.92
339.86	216.98
340.24	217.47
340.63	219.53
341.01	221.94
341.39	222.31
341.78	223.21
342.16	224.86
342.54	224.70
342.93	213.46
343.31	224.28
343.69	224.83
344.07	225.27
344.46	225.74
344.84	226.11
345.22	226.34
345.60	226.59
345.99	226.82
346.37	226.92
346.75	227.04
347.13	227.05
347.52	227.10
347.90	227.16
348.28	227.19
348.66	227.23
349.05	227.22
349.43	227.24
349.81	227.33
350.19	227.40
350.57	227.46
350.96	227.57
351.34	227.63
351.72	227.72
352.10	227.84
352.48	227.88
352.87	227.94
353.25	228.02
353.63	228.06
354.01	228.09
354.39	228.20
354.77	228.29
355.15	228.40
355.54	228.43
355.92	228.45
356.30	228.53
356.68	228.65
357.06	228.74
357.44	228.81
357.82	228.85
358.20	228.92
358.58	228.96
358.97	229.00
359.35	229.09
359.73	229.12
360.11	229.15
360.49	229.26
360.87	229.30
361.25	229.35
361.63	229.42
362.01	229.48
362.39	229.49
362.77	229.51
363.15	229.52
363.53	229.57
363.91	229.58
364.29	229.57
364.67	229.49
365.05	229.51
365.43	229.50
365.81	229.50
366.19	229.54
366.57	229.58
366.95	229.56
367.33	229.49
367.71	229.49
368.09	229.48
368.47	229.41
368.85	229.37
369.23	229.34
369.61	229.28
369.99	229.25
370.37	229.25
370.75	229.25
371.13	229.23
371.51	229.16
371.89	229.13
372.27	229.08
372.65	229.04
373.03	228.96
373.41	228.90
373.78	228.84
374.16	228.69
374.54	228.60
374.92	228.54
375.30	228.48
375.68	228.40
376.06	228.38
376.44	228.33
376.82	228.27
377.19	228.18
377.57	228.12
377.95	228.00
378.33	227.91
378.71	227.78
379.09	227.73
379.47	227.67
379.84	227.59
380.22	227.53
380.60	227.44
380.98	227.38
381.36	227.30
381.73	227.21
382.11	227.19
382.49	227.12
382.87	227.03
383.25	226.98
383.62	227.02
384.00	226.90
384.38	226.84
384.76	226.82
385.13	226.82
385.51	226.79
385.89	226.74
386.27	226.68
386.64	226.63
387.02	226.56
387.40	226.48
387.78	226.46
388.15	226.43
388.53	226.38
388.91	226.37
389.29	226.36
389.66	226.37
390.04	226.32
390.42	226.29
390.79	226.29
391.17	226.26
391.55	226.14
391.92	226.13
392.30	226.12
392.68	226.07
393.05	226.05
393.43	226.06
393.81	226.10
394.18	226.13
394.56	226.17
394.94	226.19
395.31	226.28
395.69	226.34
396.06	226.40
396.44	226.48
396.82	226.48
397.19	226.58
397.57	226.60
397.95	226.67
398.32	226.73
398.70	226.80
399.07	226.91
399.45	227.01
399.82	227.09
400.20	227.14
400.58	227.24
400.95	227.32
401.33	227.41
401.70	227.55
402.08	227.64
402.45	227.76
402.83	227.91
403.20	228.00
403.58	228.09
403.95	228.25
404.33	228.38
404.71	228.56
405.08	228.72
405.46	228.85
405.83	229.02
406.21	229.18
406.58	229.35
406.96	229.48
407.33	229.66
407.70	229.86
408.08	230.18
408.45	230.40
408.83	230.63
409.20	230.85
409.58	231.03
409.95	231.29
410.33	231.53
410.70	231.75
411.08	232.04
411.45	232.33
411.82	232.63
412.20	232.97
412.57	233.35
412.95	233.60
413.32	234.03
413.69	234.42
414.07	234.87
414.44	235.32
414.82	235.81
415.19	236.32
415.56	236.89
415.94	237.40
416.31	238.05
416.68	238.65
417.06	239.39
417.43	240.09
417.81	240.88
418.18	241.67
418.55	242.50
418.93	243.39
419.30	244.32
419.67	245.27
420.04	246.18
420.42	247.18
420.79	248.41
421.16	249.56
421.54	250.77
421.91	251.94
422.28	253.20
422.66	254.56
423.03	255.88
423.40	257.20
423.77	258.56
424.15	259.96
424.52	261.46
424.89	263.04
425.26	264.59
425.64	266.00
426.01	267.62
426.38	269.31
426.75	270.97
427.13	272.69
427.50	274.48
427.87	276.38
428.24	278.25
428.61	279.96
428.99	281.89
429.36	284.01
429.73	286.12
430.10	288.16
430.47	290.22
430.85	292.32
431.22	294.57
431.59	296.95
431.96	299.20
432.33	301.72
432.70	304.10
433.08	306.90
433.45	309.54
433.82	312.14
434.19	315.04
434.56	317.87
434.93	320.52
435.30	323.10
435.68	325.97
436.05	328.80
436.42	331.65
436.79	334.18
437.16	336.85
437.53	339.72
437.90	342.54
438.27	345.30
438.64	348.13
439.01	350.72
439.38	353.04
439.75	355.26
440.13	357.74
440.50	360.09
440.87	361.93
441.24	363.89
441.61	366.04
441.98	367.56
442.35	369.32
442.72	371.18
443.09	373.00
443.46	374.02
443.83	374.61
444.20	375.14
444.57	376.00
444.94	376.29
445.31	376.58
445.68	376.93
446.05	376.95
446.42	376.58
446.79	376.19
447.16	375.72
447.53	375.38
447.90	374.25
448.27	373.11
448.64	371.53
449.01	370.42
449.37	368.42
449.74	366.49
450.11	364.27
450.48	361.78
450.85	359.28
451.22	357.16
451.59	355.11
451.96	353.10
452.33	350.45
452.70	348.09
453.07	345.24
453.43	342.36
453.80	339.59
454.17	336.92
454.54	334.34
454.91	331.62
455.28	328.94
455.65	326.39
456.02	323.86
456.38	321.75
456.75	319.09
457.12	316.84
457.49	314.60
457.86	312.39
458.23	310.54
458.59	308.44
458.96	306.32
459.33	304.47
459.70	302.61
460.07	301.14
460.43	299.41
460.80	297.85
461.17	296.38
461.54	294.91
461.91	293.48
462.27	292.05
462.64	290.75
463.01	289.38
463.38	288.13
463.74	286.79
464.11	285.58
464.48	284.56
464.85	283.47
465.21	282.60
465.58	281.68
465.95	280.60
466.32	279.73
466.68	278.84
467.05	277.95
467.42	277.05
467.78	276.11
468.15	275.24
468.52	274.56
468.88	273.68
469.25	272.91
469.62	272.31
469.98	271.63
470.35	270.99
470.72	270.38
471.08	269.68
471.45	269.11
471.82	268.58
472.18	267.93
472.55	267.47
472.92	266.94
473.28	266.51
473.65	266.04
474.02	265.55
474.38	265.19
474.75	264.89
475.11	264.57
475.48	264.32
475.85	264.09
476.21	263.86
476.58	263.66
476.94	263.51
477.31	263.32
477.67	263.18
478.04	263.10
478.41	263.04
478.77	263.08
479.14	263.06
479.50	263.03
479.87	263.13
480.23	263.26
480.60	263.33
480.96	263.42
481.33	263.63
481.69	263.87
482.06	264.09
482.42	264.25
482.79	264.51
483.15	264.84
483.52	265.21
483.88	265.55
484.25	265.96
484.61	266.42
484.98	266.83
485.34	267.41
485.71	268.00
486.07	268.60
486.44	269.18
486.80	269.87
487.17	270.62
487.53	271.44
487.90	272.25
488.26	273.19
488.62	274.18
488.99	275.20
489.35	276.23
489.72	277.35
490.08	278.56
490.44	279.80
490.81	281.12
491.17	282.47
491.54	283.93
491.90	285.46
492.26	287.10
492.63	288.84
492.99	290.61
493.36	292.49
493.72	294.51
494.08	296.62
494.45	298.86
494.81	301.27
495.17	303.70
495.54	306.29
495.90	308.97
496.26	311.73
496.63	314.68
496.99	317.80
497.35	321.02
497.72	324.42
498.08	327.92
498.44	331.58
498.80	335.51
499.17	339.53
499.53	343.69
499.89	348.05
500.26	352.54
500.62	357.19
500.98	362.20
501.34	367.30
501.71	372.62
502.07	378.04
502.43	383.60
502.79	389.36
503.16	395.40
503.52	401.65
503.88	408.08
504.24	414.63
504.60	421.49
504.97	428.62
505.33	435.95
505.69	443.65
506.05	451.38
506.41	459.24
506.78	467.38
507.14	475.81
507.50	484.48
507.86	493.52
508.22	502.72
508.59	511.87
508.95	521.41
509.31	531.22
509.67	541.34
510.03	551.67
510.39	562.26
510.75	573.11
511.12	584.04
511.48	595.31
511.84	606.81
512.20	618.37
512.56	630.33
512.92	642.51
513.28	654.79
513.64	667.30
514.00	679.99
514.37	692.93
514.73	705.96
515.09	719.10
515.45	732.40
515.81	746.02
516.17	760.02
516.53	774.18
516.89	788.34
517.25	802.49
517.61	816.94
517.97	831.42
518.33	845.86
518.69	860.68
519.05	875.86
519.41	891.14
519.77	906.72
520.13	922.18
520.49	937.62
520.85	953.19
521.21	968.96
521.57	985.24
521.93	1001.15
522.29	1017.66
522.65	1033.92
523.01	1050.16
523.37	1066.27
523.73	1082.52
524.09	1098.55
524.45	1115.01
524.81	1131.75
525.17	1148.63
525.53	1165.64
525.89	1182.56
526.25	1199.52
526.61	1215.80
526.97	1232.52
527.33	1249.09
527.68	1265.68
528.04	1282.15
528.40	1298.76
528.76	1315.85
529.12	1332.57
529.48	1349.57
529.84	1365.66
530.20	1382.27
530.56	1399.40
530.91	1416.76
531.27	1433.50
531.63	1450.13
531.99	1466.71
532.35	1482.81
532.71	1498.68
533.07	1514.96
533.42	1530.91
533.78	1546.89
534.14	1563.25
534.50	1578.68
534.86	1594.55
535.21	1609.92
535.57	1626.05
535.93	1641.54
536.29	1656.44
536.65	1671.68
537.00	1686.55
537.36	1701.98
537.72	1716.61
538.08	1731.05
538.44	1744.92
538.79	1758.97
539.15	1772.84
539.51	1786.58
539.87	1800.96
540.22	1814.86
540.58	1828.77
540.94	1842.27
541.29	1855.39
541.65	1868.16
542.01	1881.66
542.37	1893.99
542.72	1906.49
543.08	1918.43
543.44	1930.92
543.79	1942.17
544.15	1953.10
544.51	1964.66
544.87	1975.72
545.22	1986.62
545.58	1996.88
545.94	2006.70
546.29	2016.64
546.65	2026.43
547.01	2035.77
547.36	2044.57
547.72	2052.98
548.07	2060.77
548.43	2068.87
548.79	2076.93
549.14	2084.59
549.50	2091.80
549.86	2099.62
550.21	2106.91
550.57	2114.03
550.92	2120.64
551.28	2127.84
551.64	2134.81
551.99	2141.21
552.35	2147.30
552.70	2153.34
553.06	2159.45
553.41	2165.93
553.77	2171.86
554.13	2178.01
554.48	2184.19
554.84	2189.41
555.19	2194.83
555.55	2199.91
555.90	2204.45
556.26	2209.19
556.61	2213.81
556.97	2217.96
557.32	2222.02
557.68	2226.19
558.03	2230.37
558.39	2234.14
558.74	2238.76
559.10	2242.65
559.45	2246.35
559.81	2250.82
560.16	2254.74
560.52	2257.95
560.87	2261.26
561.23	2264.01
561.58	2266.89
561.94	2269.45
562.29	2271.98
562.64	2274.65
563.00	2277.38
563.35	2280.84
563.71	2284.10
564.06	2287.19
564.42	2290.08
564.77	2292.56
565.12	2294.65
565.48	2296.47
565.83	2298.30
566.19	2299.50
566.54	2300.41
566.89	2301.49
567.25	2301.96
567.60	2303.24
567.96	2304.77
568.31	2305.54
568.66	2306.46
569.02	2307.01
569.37	2307.16
569.72	2307.87
570.08	2307.90
570.43	2307.83
570.78	2307.00
571.14	2305.29
571.49	2303.94
571.84	2303.45
572.20	2302.27
572.55	2301.32
572.90	2299.80
573.26	2298.22
573.61	2296.52
573.96	2294.67
574.31	2291.58
574.67	2288.35
575.02	2284.75
575.37	2281.29
575.72	2277.36
576.08	2274.02
576.43	2270.63
576.78	2266.85
577.13	2263.84
577.49	2260.59
577.84	2256.96
578.19	2253.35
578.54	2249.68
578.90	2245.42
579.25	2239.90
579.60	2234.84
579.95	2229.62
580.30	2224.63
580.66	2219.47
581.01	2214.36
581.36	2209.35
581.71	2205.23
582.06	2200.69
582.42	2196.08
582.77	2190.80
583.12	2186.12
583.47	2181.25
583.82	2176.07
584.17	2170.85
584.53	2165.07
584.88	2159.42
585.23	2153.60
585.58	2148.02
585.93	2142.45
586.28	2137.65
586.63	2132.39
586.98	2127.20
587.34	2122.59
587.69	2117.50
588.04	2112.17
588.39	2106.44
588.74	2099.99
589.09	2093.69
589.44	2086.82
589.79	2080.66
590.14	2074.92
590.49	2068.45
590.84	2062.05
591.19	2055.86
591.54	2049.27
591.89	2041.76
592.25	2034.83
592.60	2027.54
592.95	2019.82
593.30	2012.40
593.65	2004.70
594.00	1997.63
594.35	1990.49
594.70	1982.31
595.05	1974.91
595.40	1967.57
595.75	1960.00
596.10	1953.44
596.45	1946.64
596.80	1940.44
597.15	1933.69
597.50	1926.60
597.85	1920.23
598.19	1913.54
598.54	1906.56
598.89	1899.97
599.24	1894.08
599.59	1887.27
599.94	1881.09
600.29	1874.90
600.64	1868.36
600.99	1860.79
601.34	1853.90
601.69	1846.75
602.04	1839.71
602.39	1832.32
602.74	1825.47
603.08	1818.77
603.43	1812.18
603.78	1805.01
604.13	1797.75
604.48	1790.50
604.83	1783.51
605.18	1776.28
605.53	1768.28
605.87	1760.11
606.22	1752.76
606.57	1744.80
606.92	1737.56
607.27	1730.27
607.62	1723.10
607.96	1715.68
608.31	1709.11
608.66	1701.48
609.01	1694.04
609.36	1686.42
609.70	1678.53
610.05	1670.35
610.40	1662.54
610.75	1654.31
611.10	1646.46
611.44	1638.14
611.79	1630.14
612.14	1621.41
612.49	1612.36
612.83	1603.81
613.18	1595.74
613.53	1587.67
613.88	1579.13
614.22	1570.78
614.57	1562.22
614.92	1554.32
615.27	1546.76
615.61	1538.38
615.96	1530.38
616.31	1522.63
616.65	1515.35
617.00	1507.76
617.35	1500.25
617.70	1491.77
618.04	1483.08
618.39	1474.94
618.74	1467.25
619.08	1458.95
619.43	1451.47
619.78	1444.45
620.12	1437.34
620.47	1429.85
620.82	1421.72
621.16	1414.25
621.51	1406.68
621.85	1399.08
622.20	1390.58
622.55	1382.26
622.89	1374.43
623.24	1366.87
623.59	1359.51
623.93	1352.05
624.28	1344.67
624.62	1337.07
624.97	1329.96
625.32	1323.36
625.66	1316.33
626.01	1309.14
626.35	1301.64
626.70	1293.80
627.04	1286.10
627.39	1278.39
627.73	1271.06
628.08	1264.02
628.43	1256.80
628.77	1249.41
629.12	1241.77
629.46	1234.51
629.81	1227.00
630.15	1219.72
630.50	1212.22
630.84	1204.18
631.19	1196.19
631.53	1188.82
631.88	1181.34
632.22	1173.83
632.57	1166.50
632.91	1158.87
633.26	1151.49
633.60	1144.17
633.95	1137.24
634.29	1130.30
634.64	1123.59
634.98	1116.13
635.32	1109.12
635.67	1102.54
636.01	1095.98
636.36	1089.30
636.70	1082.78
637.05	1076.39
637.39	1069.99
637.73	1063.56
638.08	1057.59
638.42	1051.54
638.77	1045.10
639.11	1038.38
639.45	1031.96
639.80	1025.21
640.14	1018.79
640.49	1012.21
640.83	1005.89
641.17	999.53
641.52	993.19
641.86	986.80
642.20	980.99
642.55	974.65
642.89	968.10
643.23	961.53
643.58	955.66
643.92	949.47
644.26	943.27
644.61	937.23
644.95	931.16
645.29	924.51
645.64	917.84
645.98	911.49
646.32	905.66
646.66	899.63
647.01	893.88
647.35	888.17
647.69	882.41
648.04	876.89
648.38	871.10
648.72	865.00
649.06	858.95
649.41	853.05
649.75	847.03
650.09	841.16
650.43	835.34
650.78	829.13
651.12	823.18
651.46	817.44
651.80	811.68
652.14	806.27
652.49	800.89
652.83	795.69
653.17	789.93
653.51	784.18
653.85	778.79
654.20	773.19
654.54	767.18
654.88	761.48
655.22	755.58
655.56	749.88
655.90	744.45
656.25	739.17
656.59	733.79
656.93	728.77
657.27	723.61
657.61	718.21
657.95	713.23
658.29	708.05
658.64	702.90
658.98	697.66
659.32	692.23
659.66	687.10
660.00	681.80
660.34	676.90
660.68	672.04
661.02	667.02
661.36	662.27
661.70	657.80
662.05	653.40
662.39	649.11
662.73	644.72
663.07	640.39
663.41	635.96
663.75	631.53
664.09	626.97
664.43	622.58
664.77	618.44
665.11	614.18
665.45	610.17
665.79	606.10
666.13	601.94
666.47	597.85
666.81	593.60
667.15	589.58
667.49	585.66
667.83	581.94
668.17	577.98
668.51	573.97
668.85	569.98
669.19	566.11
669.53	562.26
669.87	558.35
670.21	554.69
670.55	551.01
670.89	547.53
671.23	544.08
671.57	540.59
671.91	537.07
672.25	533.65
672.58	530.17
672.92	526.78
673.26	523.64
673.60	520.52
673.94	517.43
674.28	514.54
674.62	511.59
674.96	508.40
675.30	505.58
675.64	502.66
675.97	499.98
676.31	497.13
676.65	494.26
676.99	491.58
677.33	488.69
677.67	485.87
678.01	482.84
678.34	479.86
678.68	476.96
679.02	474.14
679.36	471.30
679.70	468.61
680.04	465.83
680.37	462.97
680.71	460.21
681.05	457.65
681.39	454.90
681.73	452.32
682.06	449.79
682.40	447.19
682.74	444.66
683.08	442.02
683.42	439.45
683.75	436.91
684.09	434.36
684.43	431.91
684.77	429.48
685.10	427.15
685.44	424.88
685.78	422.66
686.12	420.42
686.45	418.16
686.79	415.84
687.13	413.68
687.46	411.49
687.80	409.33
688.14	407.08
688.48	405.00
688.81	402.76
689.15	400.59
689.49	398.50
689.82	396.43
690.16	394.35
690.50	392.39
690.83	390.51
691.17	388.57
691.51	386.67
691.84	384.84
692.18	382.93
692.52	380.94
692.85	379.02
693.19	377.16
693.52	375.36
693.86	373.55
694.20	371.79
694.53	370.07
694.87	368.19
695.21	366.46
695.54	364.63
695.88	362.86
696.21	361.17
696.55	359.50
696.88	357.85
697.22	356.18
697.56	354.58
697.89	352.91
698.23	351.30
698.56	349.73
698.90	348.15
699.23	346.47
699.57	344.89
699.90	343.30
700.24	341.73
700.58	340.14
700.91	338.61
701.25	337.13
701.58	335.75
701.92	334.42
702.25	333.03
702.59	331.69
702.92	330.40
703.26	329.09
703.59	327.78
703.93	326.57
704.26	325.35
704.60	324.04
704.93	322.73
705.26	321.45
705.60	320.24
705.93	319.08
706.27	318.09
706.60	317.06
706.94	315.99
707.27	314.88
707.61	313.87
707.94	312.86
708.27	311.78
708.61	310.67
708.94	309.63
709.28	308.63
709.61	307.69
709.94	306.74
710.28	305.71
710.61	304.73
710.95	303.64
711.28	302.72
711.61	301.80
711.95	300.90
712.28	299.96
712.61	298.98
712.95	298.08
713.28	297.21
713.61	296.32
713.95	295.42
714.28	294.60
714.61	293.73
714.95	292.88
715.28	292.04
715.61	291.17
715.95	290.32
716.28	289.50
716.61	288.67
716.95	287.86
717.28	287.15
717.61	286.41
717.94	285.72
718.28	284.94
718.61	284.18
718.94	283.51
719.27	282.88
719.61	282.22
719.94	281.55
720.27	280.82
720.60	280.18
720.94	279.57
721.27	279.02
721.60	278.44
721.93	277.83
722.27	277.31
722.60	276.76
722.93	276.24
723.26	275.70
723.59	275.14
723.93	274.63
724.26	274.07
724.59	273.52
724.92	272.96
725.25	272.50
725.59	272.00
725.92	271.47
726.25	270.99
726.58	270.52
726.91	270.00
727.24	269.57
727.57	269.09
727.91	268.62
728.24	268.10
728.57	267.61
728.90	267.21
729.23	266.69
729.56	266.30
729.89	265.81
730.22	265.30
730.55	264.84
730.89	264.39
731.22	263.95
731.55	263.52
731.88	263.14
732.21	262.70
732.54	262.25
732.87	261.83
733.20	261.39
733.53	261.01
733.86	260.63
734.19	260.24
734.52	259.85
734.85	259.51
735.18	259.12
735.51	258.76
735.84	258.37
736.17	258.03
736.50	257.59
736.83	257.39
737.16	257.09
737.49	256.76
737.82	256.42
738.15	256.11
738.48	255.77
738.81	255.42
739.14	255.06
739.47	254.75
739.80	254.43
740.13	254.16
740.46	253.82
740.79	253.49
741.12	253.17
741.45	252.83
741.78	252.51
742.11	252.18
742.44	251.85
742.77	251.52
743.10	251.23
743.43	250.92
743.75	250.48
744.08	250.32
744.41	250.01
744.74	249.74
745.07	249.44
745.40	249.18
745.73	248.94
746.06	248.69
746.39	248.40
746.71	248.18
747.04	247.85
747.37	247.59
747.70	247.32
748.03	247.09
748.36	246.87
748.68	246.61
749.01	246.40
749.34	246.14
749.67	245.91
750.00	245.68
750.33	245.53
750.65	245.35
750.98	245.02
751.31	244.81
751.64	244.59
751.97	244.41
752.29	244.20
752.62	243.90
752.95	243.67
753.28	243.52
753.60	243.28
753.93	243.11
754.26	242.94
754.59	242.71
754.91	242.47
755.24	242.25
755.57	242.05
755.90	241.84
756.22	241.66
756.55	241.47
756.88	241.25
757.20	240.99
757.53	240.79
757.86	240.63
758.19	240.47
758.51	240.29
758.84	240.05
759.17	239.85
759.49	239.77
759.82	239.63
760.15	239.43
760.47	239.28
760.80	239.12
761.13	238.95
761.45	238.81
761.78	238.68
762.11	238.56
762.43	238.41
762.76	238.30
763.08	238.20
763.41	238.08
763.74	237.97
764.06	237.83
764.39	237.67
764.71	237.50
765.04	237.35
765.37	237.23
765.69	237.12
766.02	237.02
766.34	236.83
766.67	236.71
767.00	236.63
767.32	236.59
767.65	236.53
767.97	236.43
768.30	236.33
768.62	236.22
768.95	236.13
769.27	236.04
769.60	235.91
769.92	235.79
770.25	235.70
770.57	235.56
770.90	235.49
771.22	235.37
771.55	235.32
771.87	235.25
772.20	235.14
772.52	235.16
772.85	235.19
773.17	235.15
773.50	235.02
773.82	234.94
774.15	234.79
774.47	234.64
774.80	234.57
775.12	234.47
775.45	234.38
775.77	234.29
776.09	234.20
776.42	234.13
776.74	234.08
777.07	233.99
777.39	233.97
777.72	233.90
778.04	233.86
778.36	233.74
778.69	233.66
779.01	233.61
779.33	233.43
779.66	233.26
779.98	233.19
780.31	233.14
780.63	233.11
780.95	233.06
781.28	233.03
781.60	232.96
781.92	232.89
782.25	232.82
782.57	232.74
782.89	232.69
783.22	232.62
783.54	232.52
783.86	232.42
784.19	232.35
784.51	232.29
784.83	232.25
785.16	232.20
785.48	232.18
785.80	232.12
786.12	232.08
786.45	232.02
786.77	231.95
787.09	231.88
