SpectraSuite Data File
++++++++++++++++++++++++++++++++++++
Date: Fri Feb 01 15:04:51 EST 2013
User: group
Dark Spectrum Present: No
Reference Spectrum Present: No
Number of Sampled Component Spectra: 1
Spectrometers: USB2E7196
Integration Time (usec): 35000 (USB2E7196)
Spectra Averaged: 100 (USB2E7196)
Boxcar Smoothing: 10 (USB2E7196)
Correct for Electrical Dark: No (USB2E7196)
Strobe/Lamp Enabled: No (USB2E7196)
Correct for Detector Non-linearity: No (USB2E7196)
Correct for Stray Light: No (USB2E7196)
Number of Pixels in Processed Spectrum: 2048
>>>>>Begin Processed Spectral Data<<<<<
339.09	0.00
339.48	215.14
339.86	217.18
340.24	217.70
340.63	219.79
341.01	221.76
341.39	222.34
341.78	223.79
342.16	224.84
342.54	225.22
342.93	213.64
343.31	224.45
343.69	225.01
344.07	225.50
344.46	225.96
344.84	226.30
345.22	226.57
345.60	226.81
345.99	226.98
346.37	227.11
346.75	227.21
347.13	227.28
347.52	227.31
347.90	227.36
348.28	227.38
348.66	227.43
349.05	227.45
349.43	227.51
349.81	227.56
350.19	227.60
350.57	227.65
350.96	227.73
351.34	227.78
351.72	227.85
352.10	227.92
352.48	227.99
352.87	228.06
353.25	228.12
353.63	228.18
354.01	228.25
354.39	228.29
354.77	228.36
355.15	228.46
355.54	228.51
355.92	228.54
356.30	228.62
356.68	228.73
357.06	228.80
357.44	228.85
357.82	228.87
358.20	228.90
358.58	228.95
358.97	228.99
359.35	229.05
359.73	229.13
360.11	229.16
360.49	229.21
360.87	229.26
361.25	229.30
361.63	229.36
362.01	229.40
362.39	229.43
362.77	229.46
363.15	229.48
363.53	229.49
363.91	229.50
364.29	229.50
364.67	229.41
365.05	229.42
365.43	229.39
365.81	229.42
366.19	229.49
366.57	229.50
366.95	229.45
367.33	229.39
367.71	229.37
368.09	229.33
368.47	229.31
368.85	229.27
369.23	229.22
369.61	229.16
369.99	229.16
370.37	229.13
370.75	229.10
371.13	229.04
371.51	228.99
371.89	228.95
372.27	228.88
372.65	228.85
373.03	228.79
373.41	228.73
373.78	228.64
374.16	228.50
374.54	228.42
374.92	228.38
375.30	228.35
375.68	228.25
376.06	228.19
376.44	228.10
376.82	228.02
377.19	227.95
377.57	227.89
377.95	227.78
378.33	227.70
378.71	227.60
379.09	227.49
379.47	227.46
379.84	227.39
380.22	227.32
380.60	227.20
380.98	227.13
381.36	227.08
381.73	227.05
382.11	227.03
382.49	226.96
382.87	226.86
383.25	226.80
383.62	226.83
384.00	226.77
384.38	226.71
384.76	226.67
385.13	226.67
385.51	226.59
385.89	226.52
386.27	226.47
386.64	226.46
387.02	226.45
387.40	226.39
387.78	226.38
388.15	226.38
388.53	226.39
388.91	226.38
389.29	226.32
389.66	226.30
390.04	226.27
390.42	226.29
390.79	226.32
391.17	226.33
391.55	226.23
391.92	226.23
392.30	226.24
392.68	226.23
393.05	226.24
393.43	226.26
393.81	226.30
394.18	226.31
394.56	226.31
394.94	226.34
395.31	226.36
395.69	226.40
396.06	226.43
396.44	226.47
396.82	226.49
397.19	226.63
397.57	226.68
397.95	226.75
398.32	226.81
398.70	226.88
399.07	226.94
399.45	227.02
399.82	227.08
400.20	227.18
400.58	227.28
400.95	227.33
401.33	227.46
401.70	227.60
402.08	227.72
402.45	227.85
402.83	227.98
403.20	228.08
403.58	228.22
403.95	228.37
404.33	228.51
404.71	228.67
405.08	228.85
405.46	228.99
405.83	229.13
406.21	229.26
406.58	229.44
406.96	229.63
407.33	229.82
407.70	230.02
408.08	230.29
408.45	230.52
408.83	230.75
409.20	230.95
409.58	231.15
409.95	231.40
410.33	231.65
410.70	231.88
411.08	232.19
411.45	232.49
411.82	232.79
412.20	233.15
412.57	233.55
412.95	233.79
413.32	234.19
413.69	234.58
414.07	234.99
414.44	235.44
414.82	235.88
415.19	236.44
415.56	237.00
415.94	237.52
416.31	238.13
416.68	238.76
417.06	239.47
417.43	240.16
417.81	240.89
418.18	241.70
418.55	242.54
418.93	243.41
419.30	244.28
419.67	245.21
420.04	246.12
420.42	247.08
420.79	248.29
421.16	249.43
421.54	250.66
421.91	251.87
422.28	253.12
422.66	254.49
423.03	255.83
423.40	257.17
423.77	258.56
424.15	260.00
424.52	261.47
424.89	263.11
425.26	264.65
425.64	266.14
426.01	267.70
426.38	269.37
426.75	271.05
427.13	272.77
427.50	274.60
427.87	276.54
428.24	278.40
428.61	280.12
428.99	282.09
429.36	284.17
429.73	286.24
430.10	288.26
430.47	290.32
430.85	292.40
431.22	294.63
431.59	297.04
431.96	299.27
432.33	301.81
432.70	304.17
433.08	306.96
433.45	309.61
433.82	312.27
434.19	315.15
434.56	318.00
434.93	320.68
435.30	323.28
435.68	326.19
436.05	329.05
436.42	331.88
436.79	334.41
437.16	337.12
437.53	339.99
437.90	342.83
438.27	345.56
438.64	348.37
439.01	350.98
439.38	353.19
439.75	355.37
440.13	357.84
440.50	360.16
440.87	362.02
441.24	363.98
441.61	366.12
441.98	367.61
442.35	369.39
442.72	371.26
443.09	373.08
443.46	374.07
443.83	374.68
444.20	375.20
444.57	376.06
444.94	376.33
445.31	376.68
445.68	377.02
446.05	377.14
446.42	376.76
446.79	376.34
447.16	375.92
447.53	375.66
447.90	374.48
448.27	373.30
448.64	371.78
449.01	370.58
449.37	368.56
449.74	366.68
450.11	364.46
450.48	361.95
450.85	359.39
451.22	357.24
451.59	355.19
451.96	353.24
452.33	350.58
452.70	348.23
453.07	345.36
453.43	342.46
453.80	339.69
454.17	337.03
454.54	334.49
454.91	331.73
455.28	328.97
455.65	326.49
456.02	324.07
456.38	321.90
456.75	319.27
457.12	317.06
457.49	314.85
457.86	312.64
458.23	310.81
458.59	308.78
458.96	306.62
459.33	304.76
459.70	302.85
460.07	301.39
460.43	299.68
460.80	298.06
461.17	296.62
461.54	295.08
461.91	293.64
462.27	292.16
462.64	290.94
463.01	289.60
463.38	288.32
463.74	286.90
464.11	285.74
464.48	284.71
464.85	283.57
465.21	282.68
465.58	281.72
465.95	280.60
466.32	279.68
466.68	278.79
467.05	277.91
467.42	277.03
467.78	276.08
468.15	275.18
468.52	274.50
468.88	273.65
469.25	272.85
469.62	272.21
469.98	271.55
470.35	270.91
470.72	270.31
471.08	269.64
471.45	269.12
471.82	268.56
472.18	267.95
472.55	267.50
472.92	266.95
473.28	266.48
473.65	266.02
474.02	265.56
474.38	265.18
474.75	264.83
475.11	264.45
475.48	264.14
475.85	263.91
476.21	263.65
476.58	263.45
476.94	263.33
477.31	263.15
477.67	262.96
478.04	262.82
478.41	262.78
478.77	262.81
479.14	262.74
479.50	262.73
479.87	262.81
480.23	262.92
480.60	263.00
480.96	263.09
481.33	263.30
481.69	263.52
482.06	263.75
482.42	263.96
482.79	264.24
483.15	264.59
483.52	264.98
483.88	265.32
484.25	265.68
484.61	266.10
484.98	266.57
485.34	267.15
485.71	267.73
486.07	268.33
486.44	268.89
486.80	269.56
487.17	270.30
487.53	271.11
487.90	271.94
488.26	272.86
488.62	273.89
488.99	274.87
489.35	275.91
489.72	277.04
490.08	278.20
490.44	279.43
490.81	280.74
491.17	282.09
491.54	283.57
491.90	285.09
492.26	286.70
492.63	288.45
492.99	290.21
493.36	292.10
493.72	294.11
494.08	296.19
494.45	298.45
494.81	300.78
495.17	303.20
495.54	305.72
495.90	308.40
496.26	311.16
496.63	314.12
496.99	317.20
497.35	320.41
497.72	323.79
498.08	327.25
498.44	330.86
498.80	334.76
499.17	338.79
499.53	342.96
499.89	347.29
500.26	351.77
500.62	356.43
500.98	361.38
501.34	366.41
501.71	371.75
502.07	377.17
502.43	382.78
502.79	388.54
503.16	394.58
503.52	400.83
503.88	407.23
504.24	413.87
504.60	420.71
504.97	427.79
505.33	435.08
505.69	442.77
506.05	450.52
506.41	458.37
506.78	466.49
507.14	474.90
507.50	483.63
507.86	492.64
508.22	501.80
508.59	510.95
508.95	520.54
509.31	530.32
509.67	540.42
510.03	550.65
510.39	561.25
510.75	572.07
511.12	582.99
511.48	594.22
511.84	605.56
512.20	617.04
512.56	629.06
512.92	641.21
513.28	653.54
513.64	666.09
514.00	678.82
514.37	691.76
514.73	704.81
515.09	717.91
515.45	731.14
515.81	744.78
516.17	758.84
516.53	773.01
516.89	787.20
517.25	801.33
517.61	815.83
517.97	830.27
518.33	844.75
518.69	859.62
519.05	874.54
519.41	889.75
519.77	905.40
520.13	920.82
520.49	936.30
520.85	951.94
521.21	967.67
521.57	983.94
521.93	999.79
522.29	1016.29
522.65	1032.63
523.01	1048.95
523.37	1065.04
523.73	1081.29
524.09	1097.42
524.45	1113.80
524.81	1130.62
525.17	1147.54
525.53	1164.50
525.89	1181.38
526.25	1198.12
526.61	1214.77
526.97	1231.71
527.33	1248.17
527.68	1264.92
528.04	1281.40
528.40	1298.04
528.76	1315.24
529.12	1331.89
529.48	1348.79
529.84	1364.90
530.20	1381.54
530.56	1398.60
530.91	1416.10
531.27	1432.83
531.63	1449.42
531.99	1466.12
532.35	1482.10
532.71	1498.01
533.07	1514.43
533.42	1530.42
533.78	1546.59
534.14	1562.95
534.50	1578.25
534.86	1594.16
535.21	1609.50
535.57	1625.67
535.93	1641.18
536.29	1655.94
536.65	1671.12
537.00	1686.03
537.36	1701.40
537.72	1716.15
538.08	1730.64
538.44	1744.47
538.79	1758.54
539.15	1772.37
539.51	1786.16
539.87	1800.55
540.22	1814.42
540.58	1828.39
540.94	1841.89
541.29	1854.93
541.65	1867.61
542.01	1880.99
542.37	1893.41
542.72	1905.83
543.08	1917.60
543.44	1930.07
543.79	1941.43
544.15	1952.40
544.51	1963.99
544.87	1974.90
545.22	1985.63
545.58	1995.90
545.94	2005.79
546.29	2015.65
546.65	2025.38
547.01	2034.67
547.36	2043.67
547.72	2052.07
548.07	2059.75
548.43	2067.88
548.79	2076.00
549.14	2083.56
549.50	2090.96
549.86	2098.74
550.21	2105.94
550.57	2113.21
550.92	2119.79
551.28	2126.92
551.64	2134.04
551.99	2140.60
552.35	2146.81
552.70	2152.83
553.06	2158.82
553.41	2165.10
553.77	2171.21
554.13	2177.30
554.48	2183.42
554.84	2188.57
555.19	2193.89
555.55	2198.96
555.90	2203.45
556.26	2208.32
556.61	2212.98
556.97	2217.09
557.32	2221.24
557.68	2225.42
558.03	2229.60
558.39	2233.26
558.74	2237.79
559.10	2241.62
559.45	2245.27
559.81	2249.52
560.16	2253.46
560.52	2256.64
560.87	2259.95
561.23	2262.36
561.58	2265.21
561.94	2267.56
562.29	2270.12
562.64	2272.70
563.00	2275.32
563.35	2278.70
563.71	2281.55
564.06	2284.70
564.42	2287.49
564.77	2289.92
565.12	2292.20
565.48	2293.91
565.83	2295.56
566.19	2296.84
566.54	2297.73
566.89	2298.78
567.25	2299.20
567.60	2300.42
567.96	2301.99
568.31	2302.78
568.66	2303.86
569.02	2304.34
569.37	2304.69
569.72	2305.10
570.08	2305.17
570.43	2305.03
570.78	2304.22
571.14	2302.74
571.49	2301.32
571.84	2300.86
572.20	2299.43
572.55	2298.09
572.90	2296.47
573.26	2294.98
573.61	2293.12
573.96	2291.18
574.31	2287.94
574.67	2284.80
575.02	2280.98
575.37	2277.53
575.72	2273.58
576.08	2270.22
576.43	2266.91
576.78	2263.03
577.13	2259.94
577.49	2256.67
577.84	2253.15
578.19	2249.34
578.54	2245.40
578.90	2241.04
579.25	2235.50
579.60	2230.50
579.95	2225.31
580.30	2220.22
580.66	2215.03
581.01	2210.01
581.36	2204.94
581.71	2200.76
582.06	2196.26
582.42	2191.57
582.77	2186.19
583.12	2181.37
583.47	2176.32
583.82	2171.07
584.17	2165.78
584.53	2159.99
584.88	2154.28
585.23	2148.38
585.58	2142.82
585.93	2137.30
586.28	2132.43
586.63	2127.31
586.98	2122.05
587.34	2117.48
587.69	2112.54
588.04	2107.11
588.39	2101.22
588.74	2094.73
589.09	2088.39
589.44	2081.52
589.79	2075.51
590.14	2069.80
590.49	2063.25
590.84	2056.94
591.19	2050.77
591.54	2044.28
591.89	2036.83
592.25	2029.88
592.60	2022.59
592.95	2015.03
593.30	2007.60
593.65	1999.84
594.00	1992.61
594.35	1985.31
594.70	1977.16
595.05	1969.66
595.40	1962.35
595.75	1954.73
596.10	1948.35
596.45	1941.51
596.80	1935.31
597.15	1928.61
597.50	1921.23
597.85	1914.69
598.19	1907.87
598.54	1900.84
598.89	1894.18
599.24	1888.27
599.59	1881.56
599.94	1875.28
600.29	1868.89
600.64	1862.30
600.99	1854.80
601.34	1847.96
601.69	1840.88
602.04	1833.80
602.39	1826.55
602.74	1819.58
603.08	1812.83
603.43	1806.07
603.78	1798.77
604.13	1791.47
604.48	1784.11
604.83	1777.36
605.18	1770.29
605.53	1762.23
605.87	1754.03
606.22	1746.65
606.57	1738.75
606.92	1731.36
607.27	1724.08
607.62	1717.09
607.96	1709.65
608.31	1703.01
608.66	1695.30
609.01	1687.86
609.36	1680.36
609.70	1672.35
610.05	1664.36
610.40	1656.67
610.75	1648.30
611.10	1640.65
611.44	1632.40
611.79	1624.36
612.14	1615.67
612.49	1606.74
612.83	1598.50
613.18	1590.48
613.53	1582.35
613.88	1573.74
614.22	1565.46
614.57	1557.01
614.92	1548.92
615.27	1541.48
615.61	1533.03
615.96	1525.06
616.31	1517.50
616.65	1510.12
617.00	1502.51
617.35	1494.94
617.70	1486.60
618.04	1478.21
618.39	1469.99
618.74	1462.34
619.08	1454.16
619.43	1446.62
619.78	1439.65
620.12	1432.56
620.47	1425.07
620.82	1416.97
621.16	1409.63
621.51	1402.07
621.85	1394.41
622.20	1385.97
622.55	1377.70
622.89	1370.12
623.24	1362.56
623.59	1355.12
623.93	1347.68
624.28	1340.56
624.62	1332.95
624.97	1325.83
625.32	1319.04
625.66	1312.08
626.01	1304.84
626.35	1297.38
626.70	1289.68
627.04	1281.94
627.39	1274.18
627.73	1266.83
628.08	1259.97
628.43	1252.71
628.77	1245.41
629.12	1237.81
629.46	1230.70
629.81	1223.36
630.15	1216.19
630.50	1208.75
630.84	1200.65
631.19	1192.85
631.53	1185.40
631.88	1177.91
632.22	1170.37
632.57	1163.22
632.91	1155.72
633.26	1148.38
633.60	1141.03
633.95	1134.10
634.29	1127.13
634.64	1120.45
634.98	1113.11
635.32	1105.99
635.67	1099.53
636.01	1092.99
636.36	1086.30
636.70	1079.81
637.05	1073.19
637.39	1066.74
637.73	1060.41
638.08	1054.66
638.42	1048.67
638.77	1042.21
639.11	1035.66
639.45	1029.37
639.80	1022.58
640.14	1016.14
640.49	1009.59
640.83	1003.34
641.17	996.97
641.52	990.71
641.86	984.32
642.20	978.50
642.55	972.27
642.89	965.76
643.23	959.21
643.58	953.48
643.92	947.24
644.26	941.24
644.61	935.31
644.95	929.23
645.29	922.49
645.64	915.71
645.98	909.40
646.32	903.62
646.66	897.50
647.01	891.80
647.35	886.15
647.69	880.39
648.04	874.86
648.38	869.17
648.72	863.15
649.06	857.05
649.41	851.15
649.75	845.09
650.09	839.17
650.43	833.39
650.78	827.18
651.12	821.27
651.46	815.52
651.80	809.66
652.14	804.24
652.49	798.87
652.83	793.72
653.17	787.97
653.51	782.22
653.85	776.89
654.20	771.22
654.54	765.24
654.88	759.58
655.22	753.77
655.56	748.09
655.90	742.58
656.25	737.30
656.59	732.03
656.93	726.90
657.27	721.71
657.61	716.28
657.95	711.19
658.29	706.15
658.64	700.94
658.98	695.66
659.32	690.20
659.66	685.02
660.00	679.71
660.34	674.88
660.68	670.02
661.02	664.99
661.36	660.29
661.70	655.80
662.05	651.44
662.39	647.05
662.73	642.63
663.07	638.39
663.41	634.02
663.75	629.46
664.09	624.98
664.43	620.63
664.77	616.53
665.11	612.31
665.45	608.21
665.79	604.21
666.13	600.15
666.47	596.12
666.81	591.98
667.15	587.92
667.49	584.01
667.83	580.21
668.17	576.35
668.51	572.31
668.85	568.36
669.19	564.58
669.53	560.81
669.87	556.94
670.21	553.22
670.55	549.56
670.89	546.16
671.23	542.86
671.57	539.41
671.91	535.98
672.25	532.59
672.58	529.13
672.92	525.75
673.26	522.62
673.60	519.48
673.94	516.48
674.28	513.59
674.62	510.66
674.96	507.61
675.30	504.66
675.64	501.83
675.97	499.10
676.31	496.24
676.65	493.33
676.99	490.64
677.33	487.85
677.67	485.08
678.01	482.08
678.34	479.01
678.68	476.16
679.02	473.29
679.36	470.56
679.70	467.82
680.04	465.06
680.37	462.20
680.71	459.45
681.05	456.81
681.39	454.13
681.73	451.47
682.06	448.95
682.40	446.47
682.74	443.92
683.08	441.41
683.42	438.82
683.75	436.33
684.09	433.79
684.43	431.35
684.77	428.93
685.10	426.64
685.44	424.39
685.78	422.13
686.12	419.96
686.45	417.65
686.79	415.38
687.13	413.21
687.46	411.03
687.80	408.91
688.14	406.75
688.48	404.68
688.81	402.44
689.15	400.30
689.49	398.14
689.82	396.05
690.16	393.95
690.50	392.00
690.83	390.07
691.17	388.12
691.51	386.16
691.84	384.32
692.18	382.37
692.52	380.39
692.85	378.45
693.19	376.57
693.52	374.72
693.86	372.93
694.20	371.16
694.53	369.37
694.87	367.49
695.21	365.71
695.54	363.89
695.88	362.23
696.21	360.47
696.55	358.79
696.88	357.10
697.22	355.41
697.56	353.76
697.89	352.08
698.23	350.41
698.56	348.81
698.90	347.24
699.23	345.61
699.57	344.10
699.90	342.59
700.24	341.04
700.58	339.52
700.91	338.02
701.25	336.58
701.58	335.23
701.92	333.91
702.25	332.50
702.59	331.12
702.92	329.77
703.26	328.48
703.59	327.23
703.93	326.10
704.26	324.89
704.60	323.62
704.93	322.40
705.26	321.22
705.60	320.03
705.93	318.85
706.27	317.85
706.60	316.79
706.94	315.74
707.27	314.61
707.61	313.60
707.94	312.63
708.27	311.52
708.61	310.46
708.94	309.49
709.28	308.53
709.61	307.66
709.94	306.79
710.28	305.81
710.61	304.83
710.95	303.76
711.28	302.86
711.61	301.95
711.95	301.03
712.28	300.09
712.61	299.16
712.95	298.22
713.28	297.29
713.61	296.41
713.95	295.48
714.28	294.67
714.61	293.85
714.95	292.98
715.28	292.16
715.61	291.31
715.95	290.51
716.28	289.69
716.61	288.84
716.95	288.04
717.28	287.29
717.61	286.56
717.94	285.87
718.28	285.07
718.61	284.36
718.94	283.70
719.27	283.08
719.61	282.43
719.94	281.79
720.27	281.12
720.60	280.44
720.94	279.87
721.27	279.28
721.60	278.64
721.93	278.05
722.27	277.51
722.60	276.99
722.93	276.37
723.26	275.88
723.59	275.32
723.93	274.77
724.26	274.24
724.59	273.68
724.92	273.13
725.25	272.66
725.59	272.14
725.92	271.67
726.25	271.11
726.58	270.64
726.91	270.15
727.24	269.68
727.57	269.21
727.91	268.66
728.24	268.17
728.57	267.69
728.90	267.25
729.23	266.73
729.56	266.28
729.89	265.83
730.22	265.28
730.55	264.80
730.89	264.31
731.22	263.85
731.55	263.38
731.88	262.95
732.21	262.46
732.54	262.00
732.87	261.50
733.20	261.10
733.53	260.67
733.86	260.32
734.19	259.88
734.52	259.47
734.85	259.16
735.18	258.72
735.51	258.34
735.84	257.93
736.17	257.56
736.50	257.12
736.83	256.86
737.16	256.49
737.49	256.12
737.82	255.74
738.15	255.37
738.48	255.04
738.81	254.70
739.14	254.40
739.47	254.10
739.80	253.81
740.13	253.52
740.46	253.20
740.79	252.85
741.12	252.55
741.45	252.24
741.78	251.93
742.11	251.68
742.44	251.37
742.77	251.10
743.10	250.80
743.43	250.53
743.75	250.13
744.08	250.01
744.41	249.76
744.74	249.52
745.07	249.24
745.40	249.00
745.73	248.80
746.06	248.51
746.39	248.24
746.71	247.98
747.04	247.69
747.37	247.45
747.70	247.22
748.03	246.98
748.36	246.80
748.68	246.56
749.01	246.30
749.34	246.10
749.67	245.89
750.00	245.72
750.33	245.60
750.65	245.40
750.98	245.09
751.31	244.89
751.64	244.68
751.97	244.57
752.29	244.34
752.62	244.07
752.95	243.90
753.28	243.69
753.60	243.51
753.93	243.36
754.26	243.18
754.59	242.97
754.91	242.75
755.24	242.56
755.57	242.38
755.90	242.20
756.22	241.99
756.55	241.77
756.88	241.54
757.20	241.29
757.53	241.10
757.86	240.94
758.19	240.83
758.51	240.71
758.84	240.48
759.17	240.33
759.49	240.22
759.82	240.10
760.15	240.00
760.47	239.86
760.80	239.69
761.13	239.55
761.45	239.40
761.78	239.30
762.11	239.14
762.43	238.99
762.76	238.86
763.08	238.77
763.41	238.66
763.74	238.57
764.06	238.41
764.39	238.28
764.71	238.12
765.04	237.94
765.37	237.79
765.69	237.66
766.02	237.53
766.34	237.35
766.67	237.19
767.00	237.05
767.32	236.99
767.65	236.94
767.97	236.82
768.30	236.70
768.62	236.55
768.95	236.43
769.27	236.32
769.60	236.23
769.92	236.11
770.25	235.95
770.57	235.80
770.90	235.67
771.22	235.53
771.55	235.43
771.87	235.34
772.20	235.22
772.52	235.23
772.85	235.24
773.17	235.16
773.50	235.07
773.82	234.98
774.15	234.79
774.47	234.64
774.80	234.55
775.12	234.47
775.45	234.41
775.77	234.34
776.09	234.24
776.42	234.12
776.74	234.03
777.07	233.95
777.39	233.87
777.72	233.81
778.04	233.75
778.36	233.66
778.69	233.60
779.01	233.54
779.33	233.37
779.66	233.19
779.98	233.10
780.31	233.03
780.63	232.98
780.95	232.95
781.28	232.85
781.60	232.75
781.92	232.68
782.25	232.59
782.57	232.50
782.89	232.44
783.22	232.40
783.54	232.31
783.86	232.24
784.19	232.19
784.51	232.17
784.83	232.12
785.16	232.05
785.48	231.97
785.80	231.90
786.12	231.84
786.45	231.81
786.77	231.81
787.09	231.79
