SpectraSuite Data File
++++++++++++++++++++++++++++++++++++
Date: Fri Feb 01 15:45:33 EST 2013
User: group
Dark Spectrum Present: No
Reference Spectrum Present: No
Number of Sampled Component Spectra: 1
Spectrometers: USB2E7196
Integration Time (usec): 35000 (USB2E7196)
Spectra Averaged: 100 (USB2E7196)
Boxcar Smoothing: 10 (USB2E7196)
Correct for Electrical Dark: No (USB2E7196)
Strobe/Lamp Enabled: No (USB2E7196)
Correct for Detector Non-linearity: No (USB2E7196)
Correct for Stray Light: No (USB2E7196)
Number of Pixels in Processed Spectrum: 2048
>>>>>Begin Processed Spectral Data<<<<<
339.09	0.00
339.48	214.84
339.86	216.16
340.24	217.29
340.63	219.24
341.01	221.82
341.39	221.55
341.78	223.25
342.16	224.30
342.54	224.41
342.93	213.18
343.31	223.95
343.69	224.50
344.07	224.96
344.46	225.38
344.84	225.75
345.22	226.01
345.60	226.27
345.99	226.44
346.37	226.57
346.75	226.71
347.13	226.77
347.52	226.83
347.90	226.90
348.28	226.94
348.66	226.96
349.05	226.95
349.43	227.01
349.81	227.03
350.19	227.08
350.57	227.13
350.96	227.19
351.34	227.25
351.72	227.32
352.10	227.45
352.48	227.54
352.87	227.62
353.25	227.66
353.63	227.69
354.01	227.77
354.39	227.86
354.77	227.90
355.15	228.01
355.54	228.07
355.92	228.15
356.30	228.18
356.68	228.33
357.06	228.42
357.44	228.47
357.82	228.52
358.20	228.58
358.58	228.64
358.97	228.69
359.35	228.79
359.73	228.87
360.11	228.91
360.49	228.93
360.87	228.97
361.25	229.03
361.63	229.12
362.01	229.17
362.39	229.18
362.77	229.25
363.15	229.26
363.53	229.30
363.91	229.29
364.29	229.34
364.67	229.21
365.05	229.20
365.43	229.23
365.81	229.29
366.19	229.30
366.57	229.32
366.95	229.32
367.33	229.30
367.71	229.26
368.09	229.27
368.47	229.28
368.85	229.27
369.23	229.24
369.61	229.18
369.99	229.15
370.37	229.13
370.75	229.13
371.13	229.07
371.51	229.00
371.89	228.95
372.27	228.90
372.65	228.87
373.03	228.84
373.41	228.78
373.78	228.68
374.16	228.59
374.54	228.51
374.92	228.44
375.30	228.35
375.68	228.27
376.06	228.19
376.44	228.09
376.82	228.00
377.19	227.91
377.57	227.83
377.95	227.76
378.33	227.68
378.71	227.56
379.09	227.47
379.47	227.39
379.84	227.37
380.22	227.30
380.60	227.25
380.98	227.17
381.36	227.10
381.73	227.02
382.11	226.98
382.49	226.93
382.87	226.83
383.25	226.79
383.62	226.86
384.00	226.78
384.38	226.73
384.76	226.68
385.13	226.68
385.51	226.62
385.89	226.53
386.27	226.49
386.64	226.40
387.02	226.39
387.40	226.38
387.78	226.30
388.15	226.25
388.53	226.17
388.91	226.12
389.29	226.08
389.66	226.06
390.04	226.04
390.42	226.02
390.79	226.03
391.17	226.01
391.55	225.90
391.92	225.88
392.30	225.92
392.68	225.94
393.05	225.94
393.43	225.97
393.81	225.99
394.18	225.98
394.56	226.01
394.94	226.06
395.31	226.05
395.69	226.10
396.06	226.14
396.44	226.19
396.82	226.23
397.19	226.30
397.57	226.33
397.95	226.39
398.32	226.43
398.70	226.49
399.07	226.55
399.45	226.60
399.82	226.67
400.20	226.70
400.58	226.76
400.95	226.80
401.33	226.89
401.70	227.05
402.08	227.17
402.45	227.27
402.83	227.35
403.20	227.46
403.58	227.58
403.95	227.73
404.33	227.87
404.71	228.05
405.08	228.27
405.46	228.41
405.83	228.57
406.21	228.74
406.58	228.91
406.96	229.09
407.33	229.30
407.70	229.49
408.08	229.80
408.45	230.05
408.83	230.29
409.20	230.53
409.58	230.71
409.95	230.96
410.33	231.25
410.70	231.53
411.08	231.83
411.45	232.14
411.82	232.43
412.20	232.81
412.57	233.19
412.95	233.43
413.32	233.85
413.69	234.24
414.07	234.63
414.44	235.09
414.82	235.56
415.19	236.08
415.56	236.66
415.94	237.18
416.31	237.80
416.68	238.42
417.06	239.10
417.43	239.81
417.81	240.58
418.18	241.34
418.55	242.19
418.93	243.08
419.30	244.00
419.67	244.97
420.04	245.92
420.42	246.91
420.79	248.08
421.16	249.24
421.54	250.46
421.91	251.70
422.28	252.99
422.66	254.36
423.03	255.71
423.40	257.05
423.77	258.44
424.15	259.89
424.52	261.40
424.89	263.03
425.26	264.56
425.64	266.01
426.01	267.61
426.38	269.25
426.75	270.92
427.13	272.61
427.50	274.44
427.87	276.32
428.24	278.21
428.61	279.96
428.99	281.94
429.36	284.03
429.73	286.09
430.10	288.13
430.47	290.20
430.85	292.30
431.22	294.54
431.59	296.93
431.96	299.18
432.33	301.70
432.70	304.10
433.08	306.95
433.45	309.61
433.82	312.25
434.19	315.11
434.56	317.94
434.93	320.59
435.30	323.20
435.68	326.07
436.05	328.90
436.42	331.69
436.79	334.16
437.16	336.83
437.53	339.68
437.90	342.46
438.27	345.15
438.64	347.96
439.01	350.56
439.38	352.81
439.75	354.95
440.13	357.40
440.50	359.74
440.87	361.59
441.24	363.52
441.61	365.74
441.98	367.25
442.35	369.07
442.72	370.92
443.09	372.71
443.46	373.70
443.83	374.29
444.20	374.81
444.57	375.64
444.94	375.91
445.31	376.20
445.68	376.56
446.05	376.65
446.42	376.32
446.79	375.86
447.16	375.41
447.53	375.06
447.90	373.87
448.27	372.70
448.64	371.09
449.01	369.94
449.37	367.89
449.74	366.00
450.11	363.73
450.48	361.27
450.85	358.73
451.22	356.61
451.59	354.55
451.96	352.60
452.33	350.02
452.70	347.67
453.07	344.85
453.43	341.93
453.80	339.14
454.17	336.41
454.54	333.87
454.91	331.13
455.28	328.50
455.65	326.03
456.02	323.56
456.38	321.40
456.75	318.72
457.12	316.46
457.49	314.19
457.86	312.01
458.23	310.15
458.59	308.08
458.96	305.99
459.33	304.15
459.70	302.28
460.07	300.77
460.43	299.04
460.80	297.44
461.17	296.01
461.54	294.51
461.91	293.09
462.27	291.67
462.64	290.43
463.01	289.07
463.38	287.79
463.74	286.42
464.11	285.25
464.48	284.26
464.85	283.14
465.21	282.28
465.58	281.37
465.95	280.28
466.32	279.39
466.68	278.50
467.05	277.63
467.42	276.77
467.78	275.86
468.15	275.01
468.52	274.34
468.88	273.46
469.25	272.71
469.62	272.10
469.98	271.44
470.35	270.81
470.72	270.20
471.08	269.54
471.45	269.01
471.82	268.47
472.18	267.88
472.55	267.44
472.92	266.90
473.28	266.42
473.65	266.01
474.02	265.57
474.38	265.19
474.75	264.86
475.11	264.50
475.48	264.23
475.85	264.01
476.21	263.77
476.58	263.61
476.94	263.46
477.31	263.27
477.67	263.11
478.04	263.02
478.41	262.97
478.77	263.01
479.14	262.92
479.50	262.95
479.87	263.01
480.23	263.12
480.60	263.22
480.96	263.34
481.33	263.50
481.69	263.68
482.06	263.88
482.42	264.06
482.79	264.34
483.15	264.66
483.52	265.05
483.88	265.39
484.25	265.78
484.61	266.19
484.98	266.65
485.34	267.22
485.71	267.77
486.07	268.33
486.44	268.88
486.80	269.62
487.17	270.30
487.53	271.14
487.90	271.99
488.26	272.92
488.62	273.91
488.99	274.89
489.35	275.92
489.72	277.04
490.08	278.23
490.44	279.44
490.81	280.74
491.17	282.04
491.54	283.50
491.90	285.01
492.26	286.69
492.63	288.41
492.99	290.22
493.36	292.11
493.72	294.15
494.08	296.25
494.45	298.46
494.81	300.89
495.17	303.32
495.54	305.87
495.90	308.56
496.26	311.38
496.63	314.35
496.99	317.47
497.35	320.75
497.72	324.22
498.08	327.73
498.44	331.43
498.80	335.42
499.17	339.48
499.53	343.67
499.89	348.04
500.26	352.54
500.62	357.18
500.98	362.18
501.34	367.31
501.71	372.68
502.07	378.15
502.43	383.76
502.79	389.56
503.16	395.62
503.52	401.88
503.88	408.27
504.24	414.94
504.60	421.85
504.97	429.00
505.33	436.26
505.69	443.99
506.05	451.80
506.41	459.61
506.78	467.78
507.14	476.23
507.50	484.96
507.86	493.99
508.22	503.15
508.59	512.39
508.95	521.97
509.31	531.78
509.67	541.93
510.03	552.25
510.39	562.83
510.75	573.70
511.12	584.65
511.48	595.97
511.84	607.39
512.20	618.91
512.56	630.84
512.92	643.04
513.28	655.40
513.64	667.93
514.00	680.67
514.37	693.64
514.73	706.75
515.09	719.84
515.45	733.13
515.81	746.71
516.17	760.74
516.53	774.85
516.89	789.00
517.25	803.20
517.61	817.53
517.97	831.95
518.33	846.34
518.69	861.17
519.05	876.17
519.41	891.30
519.77	906.83
520.13	922.19
520.49	937.57
520.85	952.93
521.21	968.62
521.57	984.91
521.93	1000.78
522.29	1017.15
522.65	1033.36
523.01	1049.63
523.37	1065.71
523.73	1081.87
524.09	1097.96
524.45	1114.22
524.81	1130.82
525.17	1147.74
525.53	1164.70
525.89	1181.65
526.25	1198.46
526.61	1214.74
526.97	1231.42
527.33	1247.96
527.68	1264.68
528.04	1281.14
528.40	1297.78
528.76	1314.73
529.12	1331.36
529.48	1348.15
529.84	1364.12
530.20	1380.77
530.56	1397.72
530.91	1415.16
531.27	1431.83
531.63	1448.30
531.99	1464.95
532.35	1480.93
532.71	1496.79
533.07	1512.94
533.42	1528.74
533.78	1544.77
534.14	1561.12
534.50	1576.61
534.86	1592.42
535.21	1607.53
535.57	1623.55
535.93	1639.09
536.29	1654.02
536.65	1669.04
537.00	1683.74
537.36	1699.17
537.72	1713.68
538.08	1728.05
538.44	1741.81
538.79	1755.69
539.15	1769.40
539.51	1783.09
539.87	1797.40
540.22	1811.09
540.58	1824.97
540.94	1838.30
541.29	1851.20
541.65	1863.95
542.01	1877.14
542.37	1889.37
542.72	1901.77
543.08	1913.46
543.44	1925.87
543.79	1937.09
544.15	1948.07
544.51	1959.78
544.87	1970.67
545.22	1981.51
545.58	1991.81
545.94	2001.59
546.29	2011.50
546.65	2021.38
547.01	2030.69
547.36	2039.41
547.72	2047.92
548.07	2055.73
548.43	2063.97
548.79	2071.98
549.14	2079.47
549.50	2086.87
549.86	2094.70
550.21	2102.03
550.57	2109.30
550.92	2115.83
551.28	2122.83
551.64	2129.94
551.99	2136.39
552.35	2142.51
552.70	2148.54
553.06	2154.46
553.41	2160.83
553.77	2166.91
554.13	2172.95
554.48	2179.10
554.84	2184.55
555.19	2189.87
555.55	2194.96
555.90	2199.33
556.26	2204.10
556.61	2208.85
556.97	2213.13
557.32	2217.20
557.68	2221.41
558.03	2225.66
558.39	2229.29
558.74	2233.92
559.10	2237.84
559.45	2241.52
559.81	2245.73
560.16	2249.54
560.52	2252.82
560.87	2256.21
561.23	2258.85
561.58	2261.83
561.94	2264.25
562.29	2266.69
562.64	2269.33
563.00	2272.04
563.35	2275.62
563.71	2278.78
564.06	2281.99
564.42	2284.72
564.77	2287.23
565.12	2289.30
565.48	2291.07
565.83	2292.93
566.19	2294.20
566.54	2295.14
566.89	2296.30
567.25	2297.03
567.60	2298.46
567.96	2300.07
568.31	2300.95
568.66	2302.03
569.02	2302.52
569.37	2302.87
569.72	2303.72
570.08	2303.83
570.43	2303.80
570.78	2303.18
571.14	2301.71
571.49	2300.36
571.84	2300.09
572.20	2298.92
572.55	2297.93
572.90	2296.61
573.26	2295.27
573.61	2293.64
573.96	2291.75
574.31	2288.62
574.67	2285.65
575.02	2281.94
575.37	2278.61
575.72	2274.77
576.08	2271.33
576.43	2268.05
576.78	2264.34
577.13	2261.12
577.49	2258.02
577.84	2254.62
578.19	2250.86
578.54	2247.19
578.90	2242.90
579.25	2237.39
579.60	2232.44
579.95	2227.43
580.30	2222.29
580.66	2217.05
581.01	2212.05
581.36	2207.19
581.71	2202.95
582.06	2198.30
582.42	2193.87
582.77	2188.52
583.12	2183.80
583.47	2179.05
583.82	2173.96
584.17	2168.71
584.53	2163.10
584.88	2157.40
585.23	2151.60
585.58	2146.16
585.93	2140.68
586.28	2135.92
586.63	2130.81
586.98	2125.80
587.34	2121.23
587.69	2116.26
588.04	2111.10
588.39	2105.41
588.74	2098.83
589.09	2092.75
589.44	2086.00
589.79	2080.07
590.14	2074.60
590.49	2068.05
590.84	2061.71
591.19	2055.78
591.54	2049.30
591.89	2041.87
592.25	2035.18
592.60	2027.85
592.95	2020.24
593.30	2012.85
593.65	2005.29
594.00	1998.30
594.35	1990.86
594.70	1982.67
595.05	1975.41
595.40	1968.16
595.75	1960.71
596.10	1954.44
596.45	1947.69
596.80	1941.66
597.15	1934.91
597.50	1927.67
597.85	1921.32
598.19	1914.68
598.54	1907.40
598.89	1900.66
599.24	1894.83
599.59	1887.97
599.94	1881.69
600.29	1875.26
600.64	1868.85
600.99	1861.32
601.34	1854.41
601.69	1847.45
602.04	1840.55
602.39	1833.26
602.74	1826.23
603.08	1819.28
603.43	1812.56
603.78	1805.15
604.13	1797.76
604.48	1790.43
604.83	1783.54
605.18	1776.52
605.53	1768.49
605.87	1760.52
606.22	1753.38
606.57	1745.43
606.92	1738.16
607.27	1731.05
607.62	1724.12
607.96	1716.71
608.31	1710.10
608.66	1702.38
609.01	1695.02
609.36	1687.52
609.70	1679.56
610.05	1671.60
610.40	1664.02
610.75	1655.74
611.10	1648.19
611.44	1639.91
611.79	1631.85
612.14	1623.21
612.49	1614.07
612.83	1605.77
613.18	1597.60
613.53	1589.52
613.88	1580.96
614.22	1572.62
614.57	1563.95
614.92	1555.95
615.27	1548.37
615.61	1540.05
615.96	1532.00
616.31	1524.36
616.65	1516.89
617.00	1509.32
617.35	1501.67
617.70	1493.27
618.04	1484.76
618.39	1476.46
618.74	1468.85
619.08	1460.64
619.43	1453.08
619.78	1446.20
620.12	1438.90
620.47	1431.41
620.82	1423.25
621.16	1415.84
621.51	1408.40
621.85	1400.91
622.20	1392.43
622.55	1384.09
622.89	1376.24
623.24	1368.79
623.59	1361.26
623.93	1353.75
624.28	1346.45
624.62	1338.94
624.97	1331.88
625.32	1325.17
625.66	1318.18
626.01	1310.92
626.35	1303.42
626.70	1295.65
627.04	1287.81
627.39	1280.03
627.73	1272.71
628.08	1265.82
628.43	1258.45
628.77	1250.91
629.12	1243.32
629.46	1236.12
629.81	1228.69
630.15	1221.43
630.50	1213.98
630.84	1205.79
631.19	1197.96
631.53	1190.47
631.88	1182.82
632.22	1175.10
632.57	1167.72
632.91	1160.19
633.26	1152.73
633.60	1145.40
633.95	1138.35
634.29	1131.39
634.64	1124.76
634.98	1117.43
635.32	1110.20
635.67	1103.79
636.01	1097.09
636.36	1090.29
636.70	1083.77
637.05	1077.29
637.39	1070.88
637.73	1064.28
638.08	1058.43
638.42	1052.31
638.77	1045.85
639.11	1039.30
639.45	1032.97
639.80	1026.25
640.14	1019.80
640.49	1013.38
640.83	1007.06
641.17	1000.72
641.52	994.32
641.86	987.81
642.20	981.84
642.55	975.57
642.89	968.99
643.23	962.55
643.58	956.67
643.92	950.50
644.26	944.32
644.61	938.19
644.95	932.17
645.29	925.55
645.64	918.87
645.98	912.52
646.32	906.65
646.66	900.59
647.01	894.82
647.35	889.10
647.69	883.24
648.04	877.74
648.38	871.97
648.72	865.94
649.06	859.96
649.41	854.13
649.75	848.18
650.09	842.25
650.43	836.43
650.78	830.31
651.12	824.30
651.46	818.56
651.80	812.87
652.14	807.47
652.49	802.08
652.83	796.91
653.17	791.25
653.51	785.56
653.85	780.16
654.20	774.54
654.54	768.55
654.88	762.80
655.22	756.92
655.56	751.29
655.90	745.87
656.25	740.55
656.59	735.21
656.93	730.10
657.27	724.93
657.61	719.53
657.95	714.44
658.29	709.41
658.64	704.20
658.98	698.89
659.32	693.48
659.66	688.32
660.00	683.00
660.34	678.07
660.68	673.17
661.02	668.14
661.36	663.45
661.70	658.93
662.05	654.61
662.39	650.24
662.73	645.69
663.07	641.34
663.41	636.89
663.75	632.39
664.09	627.82
664.43	623.46
664.77	619.38
665.11	615.17
665.45	611.09
665.79	606.98
666.13	602.86
666.47	598.74
666.81	594.62
667.15	590.54
667.49	586.63
667.83	582.80
668.17	578.87
668.51	574.79
668.85	570.83
669.19	566.93
669.53	563.08
669.87	559.26
670.21	555.59
670.55	552.04
670.89	548.59
671.23	545.14
671.57	541.57
671.91	537.98
672.25	534.48
672.58	530.90
672.92	527.47
673.26	524.25
673.60	521.15
673.94	517.90
674.28	514.98
674.62	512.04
674.96	508.88
675.30	505.93
675.64	502.98
675.97	500.17
676.31	497.26
676.65	494.32
676.99	491.58
677.33	488.71
677.67	485.79
678.01	482.76
678.34	479.77
678.68	476.88
679.02	474.03
679.36	471.23
679.70	468.46
680.04	465.70
680.37	462.89
680.71	460.03
681.05	457.49
681.39	454.73
681.73	452.03
682.06	449.56
682.40	447.03
682.74	444.50
683.08	441.93
683.42	439.39
683.75	436.91
684.09	434.38
684.43	431.86
684.77	429.38
685.10	427.05
685.44	424.74
685.78	422.51
686.12	420.30
686.45	418.05
686.79	415.81
687.13	413.62
687.46	411.42
687.80	409.29
688.14	407.05
688.48	404.97
688.81	402.75
689.15	400.56
689.49	398.44
689.82	396.36
690.16	394.28
690.50	392.32
690.83	390.40
691.17	388.42
691.51	386.52
691.84	384.72
692.18	382.79
692.52	380.84
692.85	378.88
693.19	377.00
693.52	375.16
693.86	373.39
694.20	371.61
694.53	369.82
694.87	367.98
695.21	366.23
695.54	364.46
695.88	362.78
696.21	361.08
696.55	359.43
696.88	357.76
697.22	356.12
697.56	354.50
697.89	352.82
698.23	351.21
698.56	349.64
698.90	348.02
699.23	346.39
699.57	344.83
699.90	343.33
700.24	341.80
700.58	340.27
700.91	338.73
701.25	337.26
701.58	335.90
701.92	334.56
702.25	333.16
702.59	331.80
702.92	330.48
703.26	329.19
703.59	327.90
703.93	326.70
704.26	325.48
704.60	324.17
704.93	322.92
705.26	321.68
705.60	320.50
705.93	319.35
706.27	318.30
706.60	317.24
706.94	316.13
707.27	314.98
707.61	313.91
707.94	312.87
708.27	311.80
708.61	310.72
708.94	309.70
709.28	308.74
709.61	307.79
709.94	306.84
710.28	305.77
710.61	304.77
710.95	303.69
711.28	302.79
711.61	301.84
711.95	300.92
712.28	299.99
712.61	299.03
712.95	298.11
713.28	297.21
713.61	296.31
713.95	295.46
714.28	294.63
714.61	293.75
714.95	292.90
715.28	292.07
715.61	291.20
715.95	290.35
716.28	289.48
716.61	288.62
716.95	287.75
717.28	287.04
717.61	286.30
717.94	285.59
718.28	284.79
718.61	284.07
718.94	283.36
719.27	282.68
719.61	282.00
719.94	281.35
720.27	280.61
720.60	279.95
720.94	279.30
721.27	278.70
721.60	278.15
721.93	277.55
722.27	276.98
722.60	276.42
722.93	275.84
723.26	275.30
723.59	274.72
723.93	274.22
724.26	273.65
724.59	273.07
724.92	272.51
725.25	272.02
725.59	271.49
725.92	270.98
726.25	270.48
726.58	269.99
726.91	269.49
727.24	269.07
727.57	268.63
727.91	268.15
728.24	267.66
728.57	267.17
728.90	266.72
729.23	266.28
729.56	265.85
729.89	265.38
730.22	264.91
730.55	264.46
730.89	263.98
731.22	263.54
731.55	263.12
731.88	262.69
732.21	262.25
732.54	261.79
732.87	261.38
733.20	260.96
733.53	260.57
733.86	260.21
734.19	259.80
734.52	259.43
734.85	259.08
735.18	258.69
735.51	258.36
735.84	257.97
736.17	257.59
736.50	257.18
736.83	256.93
737.16	256.59
737.49	256.28
737.82	255.95
738.15	255.59
738.48	255.26
738.81	254.96
739.14	254.63
739.47	254.35
739.80	254.05
740.13	253.77
740.46	253.44
740.79	253.10
741.12	252.78
741.45	252.42
741.78	252.05
742.11	251.76
742.44	251.38
742.77	251.13
743.10	250.86
743.43	250.55
743.75	250.18
744.08	250.02
744.41	249.74
744.74	249.46
745.07	249.24
745.40	249.00
745.73	248.74
746.06	248.45
746.39	248.20
746.71	247.90
747.04	247.60
747.37	247.35
747.70	247.08
748.03	246.83
748.36	246.63
748.68	246.41
749.01	246.15
749.34	245.94
749.67	245.73
750.00	245.49
750.33	245.38
750.65	245.17
750.98	244.85
751.31	244.62
751.64	244.43
751.97	244.22
752.29	244.01
752.62	243.76
752.95	243.56
753.28	243.34
753.60	243.17
753.93	243.03
754.26	242.85
754.59	242.68
754.91	242.50
755.24	242.27
755.57	242.07
755.90	241.88
756.22	241.69
756.55	241.48
756.88	241.30
757.20	241.05
757.53	240.83
757.86	240.63
758.19	240.50
758.51	240.34
758.84	240.12
759.17	239.92
759.49	239.76
759.82	239.64
760.15	239.47
760.47	239.31
760.80	239.09
761.13	238.94
761.45	238.72
761.78	238.58
762.11	238.45
762.43	238.32
762.76	238.17
763.08	238.05
763.41	237.93
763.74	237.75
764.06	237.62
764.39	237.50
764.71	237.37
765.04	237.20
765.37	237.06
765.69	236.94
766.02	236.80
766.34	236.68
766.67	236.53
767.00	236.42
767.32	236.34
767.65	236.29
767.97	236.15
768.30	236.08
768.62	235.97
768.95	235.84
769.27	235.73
769.60	235.62
769.92	235.47
770.25	235.35
770.57	235.25
770.90	235.12
771.22	234.98
771.55	234.87
771.87	234.79
772.20	234.65
772.52	234.64
772.85	234.66
773.17	234.58
773.50	234.50
773.82	234.37
774.15	234.27
774.47	234.14
774.80	234.05
775.12	233.97
775.45	233.86
775.77	233.82
776.09	233.77
776.42	233.70
776.74	233.68
777.07	233.59
777.39	233.52
777.72	233.49
778.04	233.45
778.36	233.40
778.69	233.32
779.01	233.30
779.33	233.15
779.66	233.01
779.98	232.92
780.31	232.86
780.63	232.88
780.95	232.83
781.28	232.76
781.60	232.72
781.92	232.68
782.25	232.64
782.57	232.58
782.89	232.49
783.22	232.46
783.54	232.35
783.86	232.31
784.19	232.26
784.51	232.20
784.83	232.14
785.16	232.09
785.48	232.07
785.80	232.01
786.12	232.00
786.45	231.94
786.77	231.90
787.09	231.83
