SpectraSuite Data File
++++++++++++++++++++++++++++++++++++
Date: Fri Feb 01 16:59:17 EST 2013
User: group
Dark Spectrum Present: No
Reference Spectrum Present: No
Number of Sampled Component Spectra: 1
Spectrometers: USB2E7196
Integration Time (usec): 35000 (USB2E7196)
Spectra Averaged: 100 (USB2E7196)
Boxcar Smoothing: 10 (USB2E7196)
Correct for Electrical Dark: No (USB2E7196)
Strobe/Lamp Enabled: No (USB2E7196)
Correct for Detector Non-linearity: No (USB2E7196)
Correct for Stray Light: No (USB2E7196)
Number of Pixels in Processed Spectrum: 2048
>>>>>Begin Processed Spectral Data<<<<<
339.09	0.00
339.48	212.96
339.86	214.73
340.24	216.02
340.63	217.37
341.01	220.18
341.39	220.33
341.78	221.20
342.16	223.01
342.54	223.23
342.93	211.73
343.31	222.45
343.69	223.02
344.07	223.52
344.46	223.94
344.84	224.35
345.22	224.59
345.60	224.83
345.99	225.04
346.37	225.17
346.75	225.28
347.13	225.33
347.52	225.40
347.90	225.44
348.28	225.45
348.66	225.49
349.05	225.47
349.43	225.52
349.81	225.56
350.19	225.63
350.57	225.66
350.96	225.74
351.34	225.82
351.72	225.88
352.10	225.92
352.48	225.98
352.87	226.05
353.25	226.13
353.63	226.21
354.01	226.29
354.39	226.37
354.77	226.46
355.15	226.58
355.54	226.65
355.92	226.70
356.30	226.80
356.68	226.96
357.06	227.04
357.44	227.10
357.82	227.16
358.20	227.23
358.58	227.27
358.97	227.36
359.35	227.44
359.73	227.54
360.11	227.63
360.49	227.70
360.87	227.72
361.25	227.78
361.63	227.88
362.01	227.92
362.39	227.93
362.77	227.94
363.15	227.97
363.53	227.98
363.91	228.03
364.29	228.03
364.67	227.96
365.05	227.96
365.43	228.01
365.81	228.04
366.19	228.09
366.57	228.15
366.95	228.14
367.33	228.10
367.71	228.09
368.09	228.09
368.47	228.10
368.85	228.07
369.23	228.07
369.61	227.97
369.99	227.97
370.37	227.97
370.75	228.00
371.13	227.93
371.51	227.89
371.89	227.85
372.27	227.79
372.65	227.74
373.03	227.69
373.41	227.62
373.78	227.57
374.16	227.46
374.54	227.36
374.92	227.29
375.30	227.24
375.68	227.15
376.06	227.09
376.44	227.00
376.82	226.96
377.19	226.90
377.57	226.84
377.95	226.75
378.33	226.66
378.71	226.54
379.09	226.48
379.47	226.40
379.84	226.31
380.22	226.26
380.60	226.15
380.98	226.11
381.36	226.05
381.73	225.96
382.11	225.93
382.49	225.87
382.87	225.80
383.25	225.73
383.62	225.81
384.00	225.74
384.38	225.71
384.76	225.69
385.13	225.66
385.51	225.64
385.89	225.59
386.27	225.54
386.64	225.52
387.02	225.48
387.40	225.44
387.78	225.43
388.15	225.41
388.53	225.41
388.91	225.37
389.29	225.32
389.66	225.31
390.04	225.28
390.42	225.30
390.79	225.26
391.17	225.26
391.55	225.13
391.92	225.09
392.30	225.06
392.68	225.02
393.05	225.02
393.43	224.98
393.81	224.98
394.18	224.97
394.56	224.97
394.94	225.01
395.31	225.03
395.69	225.06
396.06	225.11
396.44	225.11
396.82	225.16
397.19	225.20
397.57	225.21
397.95	225.26
398.32	225.26
398.70	225.34
399.07	225.41
399.45	225.46
399.82	225.56
400.20	225.62
400.58	225.66
400.95	225.68
401.33	225.75
401.70	225.90
402.08	225.97
402.45	226.02
402.83	226.11
403.20	226.22
403.58	226.31
403.95	226.40
404.33	226.53
404.71	226.62
405.08	226.76
405.46	226.90
405.83	227.04
406.21	227.15
406.58	227.29
406.96	227.40
407.33	227.55
407.70	227.74
408.08	228.00
408.45	228.19
408.83	228.42
409.20	228.63
409.58	228.79
409.95	229.06
410.33	229.35
410.70	229.57
411.08	229.83
411.45	230.11
411.82	230.41
412.20	230.76
412.57	231.15
412.95	231.50
413.32	231.88
413.69	232.30
414.07	232.77
414.44	233.21
414.82	233.71
415.19	234.27
415.56	234.79
415.94	235.31
416.31	235.97
416.68	236.57
417.06	237.27
417.43	237.97
417.81	238.70
418.18	239.45
418.55	240.29
418.93	241.18
419.30	242.09
419.67	242.99
420.04	243.92
420.42	244.89
420.79	246.04
421.16	247.18
421.54	248.34
421.91	249.51
422.28	250.79
422.66	252.12
423.03	253.40
423.40	254.72
423.77	256.11
424.15	257.51
424.52	259.03
424.89	260.65
425.26	262.19
425.64	263.65
426.01	265.26
426.38	266.86
426.75	268.50
427.13	270.20
427.50	272.04
427.87	273.94
428.24	275.82
428.61	277.57
428.99	279.51
429.36	281.59
429.73	283.64
430.10	285.60
430.47	287.64
430.85	289.76
431.22	291.98
431.59	294.35
431.96	296.62
432.33	299.04
432.70	301.41
433.08	304.21
433.45	306.84
433.82	309.43
434.19	312.33
434.56	315.14
434.93	317.75
435.30	320.37
435.68	323.21
436.05	325.97
436.42	328.68
436.79	331.21
437.16	333.90
437.53	336.75
437.90	339.53
438.27	342.25
438.64	345.03
439.01	347.62
439.38	349.86
439.75	351.97
440.13	354.45
440.50	356.75
440.87	358.60
441.24	360.51
441.61	362.62
441.98	364.11
442.35	365.86
442.72	367.75
443.09	369.50
443.46	370.49
443.83	371.10
444.20	371.66
444.57	372.45
444.94	372.74
445.31	373.06
445.68	373.46
446.05	373.52
446.42	373.18
446.79	372.78
447.16	372.35
447.53	372.07
447.90	370.94
448.27	369.78
448.64	368.21
449.01	367.10
449.37	365.16
449.74	363.30
450.11	361.17
450.48	358.71
450.85	356.19
451.22	354.08
451.59	352.13
451.96	350.21
452.33	347.66
452.70	345.36
453.07	342.55
453.43	339.67
453.80	336.95
454.17	334.26
454.54	331.74
454.91	329.00
455.28	326.35
455.65	323.92
456.02	321.51
456.38	319.35
456.75	316.69
457.12	314.47
457.49	312.24
457.86	310.04
458.23	308.21
458.59	306.22
458.96	304.16
459.33	302.29
459.70	300.43
460.07	298.94
460.43	297.23
460.80	295.61
461.17	294.16
461.54	292.72
461.91	291.32
462.27	289.86
462.64	288.68
463.01	287.35
463.38	286.06
463.74	284.72
464.11	283.55
464.48	282.57
464.85	281.50
465.21	280.63
465.58	279.74
465.95	278.66
466.32	277.77
466.68	276.87
467.05	276.02
467.42	275.15
467.78	274.21
468.15	273.34
468.52	272.72
468.88	271.90
469.25	271.10
469.62	270.51
469.98	269.86
470.35	269.22
470.72	268.62
471.08	267.95
471.45	267.43
471.82	266.95
472.18	266.38
472.55	265.94
472.92	265.45
473.28	265.01
473.65	264.56
474.02	264.16
474.38	263.77
474.75	263.44
475.11	263.10
475.48	262.82
475.85	262.59
476.21	262.35
476.58	262.16
476.94	262.04
477.31	261.87
477.67	261.74
478.04	261.62
478.41	261.56
478.77	261.62
479.14	261.55
479.50	261.53
479.87	261.56
480.23	261.64
480.60	261.72
480.96	261.79
481.33	262.02
481.69	262.20
482.06	262.46
482.42	262.68
482.79	262.95
483.15	263.28
483.52	263.69
483.88	264.09
484.25	264.47
484.61	264.88
484.98	265.33
485.34	265.87
485.71	266.48
486.07	267.12
486.44	267.70
486.80	268.37
487.17	269.13
487.53	269.96
487.90	270.84
488.26	271.77
488.62	272.76
488.99	273.73
489.35	274.76
489.72	275.82
490.08	277.00
490.44	278.21
490.81	279.57
491.17	280.90
491.54	282.35
491.90	283.88
492.26	285.54
492.63	287.28
492.99	289.05
493.36	290.91
493.72	292.89
494.08	294.96
494.45	297.24
494.81	299.57
495.17	301.96
495.54	304.51
495.90	307.13
496.26	309.91
496.63	312.85
496.99	315.99
497.35	319.27
497.72	322.69
498.08	326.18
498.44	329.81
498.80	333.73
499.17	337.74
499.53	341.91
499.89	346.30
500.26	350.74
500.62	355.38
500.98	360.39
501.34	365.48
501.71	370.77
502.07	376.20
502.43	381.74
502.79	387.52
503.16	393.52
503.52	399.81
503.88	406.20
504.24	412.77
504.60	419.59
504.97	426.66
505.33	433.85
505.69	441.56
506.05	449.28
506.41	457.14
506.78	465.17
507.14	473.53
507.50	482.13
507.86	491.07
508.22	500.19
508.59	509.30
508.95	518.74
509.31	528.50
509.67	538.44
510.03	548.70
510.39	559.10
510.75	569.83
511.12	580.57
511.48	591.67
511.84	602.99
512.20	614.28
512.56	626.05
512.92	638.14
513.28	650.35
513.64	662.66
514.00	675.16
514.37	687.95
514.73	700.89
515.09	713.68
515.45	726.74
515.81	740.09
516.17	753.84
516.53	767.80
516.89	781.73
517.25	795.73
517.61	809.92
517.97	824.20
518.33	838.42
518.69	852.98
519.05	867.78
519.41	882.73
519.77	898.08
520.13	913.28
520.49	928.41
520.85	943.53
521.21	959.05
521.57	975.00
521.93	990.52
522.29	1006.45
522.65	1022.51
523.01	1038.48
523.37	1054.29
523.73	1070.18
524.09	1086.01
524.45	1102.04
524.81	1118.28
525.17	1134.65
525.53	1151.26
525.89	1167.83
526.25	1184.31
526.61	1200.34
526.97	1216.70
527.33	1232.79
527.68	1249.01
528.04	1265.13
528.40	1281.29
528.76	1297.81
529.12	1314.05
529.48	1330.55
529.84	1346.29
530.20	1362.46
530.56	1379.15
530.91	1396.23
531.27	1412.74
531.63	1428.83
531.99	1444.95
532.35	1460.70
532.71	1476.31
533.07	1492.12
533.42	1507.69
533.78	1523.41
534.14	1539.34
534.50	1554.47
534.86	1570.05
535.21	1584.98
535.57	1600.61
535.93	1615.74
536.29	1630.29
536.65	1644.97
537.00	1659.38
537.36	1674.39
537.72	1688.72
538.08	1702.81
538.44	1716.31
538.79	1729.78
539.15	1743.16
539.51	1756.67
539.87	1770.69
540.22	1784.10
540.58	1797.58
540.94	1810.47
541.29	1823.17
541.65	1835.61
542.01	1848.45
542.37	1860.65
542.72	1872.78
543.08	1884.26
543.44	1896.55
543.79	1907.71
544.15	1918.43
544.51	1929.91
544.87	1940.59
545.22	1951.11
545.58	1961.06
545.94	1970.62
546.29	1980.29
546.65	1989.99
547.01	1999.17
547.36	2007.66
547.72	2015.94
548.07	2023.80
548.43	2031.88
548.79	2039.66
549.14	2047.07
549.50	2054.28
549.86	2061.71
550.21	2068.97
550.57	2076.09
550.92	2082.56
551.28	2089.40
551.64	2096.50
551.99	2102.89
552.35	2109.14
552.70	2115.29
553.06	2121.42
553.41	2127.73
553.77	2133.73
554.13	2139.78
554.48	2145.85
554.84	2151.42
555.19	2156.67
555.55	2161.89
555.90	2166.42
556.26	2171.44
556.61	2176.24
556.97	2180.64
557.32	2184.75
557.68	2188.81
558.03	2193.15
558.39	2196.82
558.74	2201.39
559.10	2205.34
559.45	2208.96
559.81	2213.25
560.16	2217.17
560.52	2220.40
560.87	2223.79
561.23	2226.62
561.58	2229.48
561.94	2232.08
562.29	2234.39
562.64	2237.34
563.00	2239.89
563.35	2243.41
563.71	2246.56
564.06	2249.83
564.42	2252.76
564.77	2255.52
565.12	2258.06
565.48	2260.13
565.83	2262.19
566.19	2263.79
566.54	2264.70
566.89	2266.11
567.25	2266.85
567.60	2268.25
567.96	2270.06
568.31	2271.01
568.66	2272.14
569.02	2273.08
569.37	2273.53
569.72	2274.75
570.08	2275.06
570.43	2275.30
570.78	2274.98
571.14	2273.63
571.49	2272.34
571.84	2272.22
572.20	2271.22
572.55	2270.32
572.90	2268.78
573.26	2267.69
573.61	2266.07
573.96	2264.62
574.31	2261.81
574.67	2259.17
575.02	2255.75
575.37	2252.60
575.72	2249.20
576.08	2245.99
576.43	2242.70
576.78	2239.29
577.13	2236.16
577.49	2233.11
577.84	2229.77
578.19	2226.20
578.54	2222.81
578.90	2219.00
579.25	2213.69
579.60	2209.01
579.95	2204.13
580.30	2199.46
580.66	2194.41
581.01	2189.75
581.36	2185.09
581.71	2181.22
582.06	2176.86
582.42	2172.72
582.77	2167.70
583.12	2163.40
583.47	2159.03
583.82	2154.35
584.17	2149.27
584.53	2143.95
584.88	2138.66
585.23	2133.17
585.58	2128.01
585.93	2122.72
586.28	2117.95
586.63	2113.05
586.98	2108.13
587.34	2103.74
587.69	2098.97
588.04	2093.89
588.39	2088.44
588.74	2082.03
589.09	2076.08
589.44	2069.62
589.79	2063.66
590.14	2058.12
590.49	2051.63
590.84	2045.38
591.19	2039.47
591.54	2033.24
591.89	2026.29
592.25	2019.74
592.60	2012.80
592.95	2005.49
593.30	1998.37
593.65	1990.99
594.00	1984.09
594.35	1976.98
594.70	1969.07
595.05	1962.12
595.40	1955.07
595.75	1947.66
596.10	1941.73
596.45	1935.15
596.80	1928.96
597.15	1922.56
597.50	1915.83
597.85	1909.40
598.19	1902.93
598.54	1896.13
598.89	1889.63
599.24	1883.71
599.59	1877.20
599.94	1871.05
600.29	1864.73
600.64	1858.18
600.99	1850.96
601.34	1844.33
601.69	1837.50
602.04	1830.90
602.39	1823.63
602.74	1816.88
603.08	1810.34
603.43	1803.65
603.78	1796.43
604.13	1789.43
604.48	1782.29
604.83	1775.35
605.18	1768.73
605.53	1760.88
605.87	1752.95
606.22	1745.71
606.57	1737.80
606.92	1730.52
607.27	1723.43
607.62	1716.58
607.96	1709.58
608.31	1703.20
608.66	1695.66
609.01	1688.14
609.36	1680.61
609.70	1672.67
610.05	1664.82
610.40	1657.20
610.75	1649.05
611.10	1641.48
611.44	1633.07
611.79	1625.13
612.14	1616.68
612.49	1607.48
612.83	1599.23
613.18	1591.00
613.53	1583.11
613.88	1574.68
614.22	1566.38
614.57	1557.82
614.92	1549.88
615.27	1542.18
615.61	1533.89
615.96	1525.83
616.31	1518.33
616.65	1510.89
617.00	1503.41
617.35	1495.63
617.70	1487.39
618.04	1478.93
618.39	1470.63
618.74	1463.19
619.08	1454.89
619.43	1447.13
619.78	1440.13
620.12	1432.99
620.47	1425.59
620.82	1417.48
621.16	1410.02
621.51	1402.41
621.85	1394.79
622.20	1386.34
622.55	1378.15
622.89	1370.26
623.24	1362.74
623.59	1355.31
623.93	1347.83
624.28	1340.54
624.62	1333.05
624.97	1325.89
625.32	1319.10
625.66	1312.22
626.01	1305.04
626.35	1297.62
626.70	1289.97
627.04	1282.34
627.39	1274.51
627.73	1267.17
628.08	1260.16
628.43	1253.11
628.77	1245.92
629.12	1238.43
629.46	1231.30
629.81	1223.83
630.15	1216.62
630.50	1209.31
630.84	1201.26
631.19	1193.36
631.53	1185.94
631.88	1178.43
632.22	1170.88
632.57	1163.54
632.91	1156.04
633.26	1148.58
633.60	1141.18
633.95	1134.08
634.29	1127.11
634.64	1120.48
634.98	1113.11
635.32	1106.00
635.67	1099.32
636.01	1092.65
636.36	1085.88
636.70	1079.35
637.05	1072.77
637.39	1066.29
637.73	1059.80
638.08	1053.94
638.42	1047.92
638.77	1041.56
639.11	1035.08
639.45	1028.67
639.80	1022.12
640.14	1015.69
640.49	1009.29
640.83	1003.05
641.17	996.94
641.52	990.62
641.86	984.15
642.20	978.31
642.55	972.01
642.89	965.61
643.23	959.01
643.58	953.26
643.92	947.09
644.26	941.15
644.61	935.17
644.95	929.09
645.29	922.55
645.64	915.84
645.98	909.52
646.32	903.70
646.66	897.68
647.01	891.87
647.35	886.19
647.69	880.28
648.04	874.81
648.38	869.03
648.72	863.08
649.06	857.07
649.41	851.22
649.75	845.26
650.09	839.34
650.43	833.64
650.78	827.53
651.12	821.58
651.46	815.90
651.80	810.20
652.14	804.78
652.49	799.41
652.83	794.31
653.17	788.65
653.51	782.96
653.85	777.62
654.20	772.06
654.54	766.07
654.88	760.33
655.22	754.34
655.56	748.67
655.90	743.20
656.25	737.99
656.59	732.60
656.93	727.59
657.27	722.43
657.61	716.98
657.95	711.92
658.29	706.88
658.64	701.61
658.98	696.32
659.32	690.90
659.66	685.66
660.00	680.40
660.34	675.48
660.68	670.54
661.02	665.55
661.36	660.89
661.70	656.39
662.05	652.10
662.39	647.88
662.73	643.43
663.07	639.13
663.41	634.67
663.75	630.24
664.09	625.71
664.43	621.43
664.77	617.36
665.11	613.11
665.45	608.96
665.79	604.90
666.13	600.76
666.47	596.78
666.81	592.72
667.15	588.66
667.49	584.74
667.83	580.92
668.17	576.98
668.51	572.88
668.85	568.89
669.19	565.06
669.53	561.26
669.87	557.40
670.21	553.68
670.55	550.11
670.89	546.69
671.23	543.21
671.57	539.59
671.91	536.06
672.25	532.58
672.58	529.06
672.92	525.62
673.26	522.43
673.60	519.28
673.94	516.10
674.28	513.11
674.62	510.21
674.96	507.11
675.30	504.20
675.64	501.32
675.97	498.58
676.31	495.68
676.65	492.76
676.99	490.12
677.33	487.31
677.67	484.46
678.01	481.42
678.34	478.47
678.68	475.66
679.02	472.82
679.36	470.04
679.70	467.36
680.04	464.63
680.37	461.82
680.71	458.98
681.05	456.36
681.39	453.62
681.73	450.90
682.06	448.39
682.40	445.82
682.74	443.26
683.08	440.67
683.42	438.11
683.75	435.59
684.09	432.99
684.43	430.43
684.77	427.98
685.10	425.64
685.44	423.35
685.78	421.06
686.12	418.83
686.45	416.56
686.79	414.24
687.13	412.09
687.46	409.88
687.80	407.76
688.14	405.57
688.48	403.57
688.81	401.38
689.15	399.24
689.49	397.07
689.82	394.97
690.16	392.92
690.50	390.97
690.83	389.01
691.17	387.02
691.51	385.15
691.84	383.32
692.18	381.42
692.52	379.47
692.85	377.50
693.19	375.62
693.52	373.78
693.86	371.96
694.20	370.19
694.53	368.43
694.87	366.56
695.21	364.81
695.54	362.97
695.88	361.22
696.21	359.46
696.55	357.78
696.88	356.13
697.22	354.49
697.56	352.83
697.89	351.19
698.23	349.58
698.56	347.97
698.90	346.36
699.23	344.74
699.57	343.16
699.90	341.65
700.24	340.14
700.58	338.63
700.91	337.16
701.25	335.67
701.58	334.33
701.92	332.96
702.25	331.62
702.59	330.25
702.92	328.92
703.26	327.65
703.59	326.39
703.93	325.21
704.26	323.94
704.60	322.65
704.93	321.42
705.26	320.20
705.60	319.00
705.93	317.88
706.27	316.80
706.60	315.75
706.94	314.70
707.27	313.51
707.61	312.47
707.94	311.45
708.27	310.42
708.61	309.30
708.94	308.28
709.28	307.28
709.61	306.34
709.94	305.40
710.28	304.39
710.61	303.42
710.95	302.35
711.28	301.45
711.61	300.56
711.95	299.62
712.28	298.68
712.61	297.75
712.95	296.81
713.28	295.99
713.61	295.08
713.95	294.21
714.28	293.44
714.61	292.58
714.95	291.73
715.28	290.84
715.61	289.97
715.95	289.14
716.28	288.28
716.61	287.44
716.95	286.62
717.28	285.88
717.61	285.10
717.94	284.35
718.28	283.54
718.61	282.78
718.94	282.09
719.27	281.45
719.61	280.79
719.94	280.09
720.27	279.32
720.60	278.69
720.94	278.00
721.27	277.37
721.60	276.78
721.93	276.16
722.27	275.62
722.60	275.08
722.93	274.49
723.26	273.93
723.59	273.36
723.93	272.82
724.26	272.26
724.59	271.69
724.92	271.17
725.25	270.65
725.59	270.10
725.92	269.57
726.25	269.03
726.58	268.53
726.91	268.04
727.24	267.58
727.57	267.10
727.91	266.58
728.24	266.11
728.57	265.61
728.90	265.14
729.23	264.64
729.56	264.18
729.89	263.72
730.22	263.26
730.55	262.79
730.89	262.34
731.22	261.86
731.55	261.45
731.88	261.00
732.21	260.56
732.54	260.15
732.87	259.72
733.20	259.32
733.53	258.91
733.86	258.53
734.19	258.12
734.52	257.71
734.85	257.42
735.18	256.98
735.51	256.63
735.84	256.25
736.17	255.89
736.50	255.51
736.83	255.28
737.16	254.93
737.49	254.60
737.82	254.25
738.15	253.92
738.48	253.54
738.81	253.20
739.14	252.89
739.47	252.60
739.80	252.29
740.13	252.00
740.46	251.67
740.79	251.36
741.12	251.06
741.45	250.77
741.78	250.46
742.11	250.20
742.44	249.85
742.77	249.55
743.10	249.25
743.43	248.93
743.75	248.55
744.08	248.40
744.41	248.13
744.74	247.85
745.07	247.57
745.40	247.38
745.73	247.19
746.06	246.94
746.39	246.66
746.71	246.41
747.04	246.16
747.37	245.90
747.70	245.65
748.03	245.38
748.36	245.19
748.68	244.90
749.01	244.62
749.34	244.46
749.67	244.25
750.00	244.02
750.33	243.88
750.65	243.67
750.98	243.34
751.31	243.10
751.64	242.91
751.97	242.79
752.29	242.54
752.62	242.28
752.95	242.05
753.28	241.86
753.60	241.63
753.93	241.46
754.26	241.28
754.59	241.08
754.91	240.89
755.24	240.66
755.57	240.50
755.90	240.33
756.22	240.12
756.55	239.92
756.88	239.75
757.20	239.51
757.53	239.31
757.86	239.13
758.19	238.95
758.51	238.80
758.84	238.55
759.17	238.38
759.49	238.23
759.82	238.12
760.15	237.94
760.47	237.80
760.80	237.58
761.13	237.44
761.45	237.29
761.78	237.14
762.11	237.00
762.43	236.86
762.76	236.72
763.08	236.58
763.41	236.48
763.74	236.33
764.06	236.21
764.39	236.09
764.71	235.94
765.04	235.83
765.37	235.66
765.69	235.56
766.02	235.44
766.34	235.28
766.67	235.13
767.00	235.04
767.32	234.95
767.65	234.90
767.97	234.76
768.30	234.64
768.62	234.51
768.95	234.38
769.27	234.27
769.60	234.17
769.92	234.06
770.25	233.92
770.57	233.78
770.90	233.66
771.22	233.52
771.55	233.45
771.87	233.34
772.20	233.27
772.52	233.23
772.85	233.25
773.17	233.15
773.50	233.02
773.82	232.91
774.15	232.79
774.47	232.65
774.80	232.57
775.12	232.45
775.45	232.39
775.77	232.31
776.09	232.24
776.42	232.11
776.74	232.05
777.07	231.95
777.39	231.90
777.72	231.80
778.04	231.75
778.36	231.64
778.69	231.59
779.01	231.48
779.33	231.33
779.66	231.14
779.98	231.07
780.31	231.01
780.63	230.97
780.95	230.90
781.28	230.83
781.60	230.75
781.92	230.74
782.25	230.65
782.57	230.59
782.89	230.51
783.22	230.49
783.54	230.40
783.86	230.34
784.19	230.30
784.51	230.29
784.83	230.24
785.16	230.20
785.48	230.13
785.80	230.13
786.12	230.09
786.45	230.03
786.77	229.99
787.09	229.98
