SpectraSuite Data File
++++++++++++++++++++++++++++++++++++
Date: Fri Feb 01 15:10:29 EST 2013
User: group
Dark Spectrum Present: No
Reference Spectrum Present: No
Number of Sampled Component Spectra: 1
Spectrometers: USB2E7196
Integration Time (usec): 35000 (USB2E7196)
Spectra Averaged: 100 (USB2E7196)
Boxcar Smoothing: 10 (USB2E7196)
Correct for Electrical Dark: No (USB2E7196)
Strobe/Lamp Enabled: No (USB2E7196)
Correct for Detector Non-linearity: No (USB2E7196)
Correct for Stray Light: No (USB2E7196)
Number of Pixels in Processed Spectrum: 2048
>>>>>Begin Processed Spectral Data<<<<<
339.09	0.00
339.48	215.34
339.86	216.87
340.24	218.78
340.63	219.19
341.01	222.57
341.39	222.65
341.78	223.48
342.16	224.70
342.54	225.44
342.93	213.67
343.31	224.47
343.69	225.00
344.07	225.50
344.46	225.92
344.84	226.32
345.22	226.53
345.60	226.73
345.99	226.91
346.37	226.98
346.75	227.07
347.13	227.13
347.52	227.17
347.90	227.24
348.28	227.27
348.66	227.29
349.05	227.27
349.43	227.34
349.81	227.36
350.19	227.38
350.57	227.43
350.96	227.48
351.34	227.55
351.72	227.64
352.10	227.69
352.48	227.72
352.87	227.76
353.25	227.86
353.63	227.96
354.01	228.06
354.39	228.17
354.77	228.25
355.15	228.41
355.54	228.47
355.92	228.52
356.30	228.57
356.68	228.73
357.06	228.81
357.44	228.84
357.82	228.93
358.20	229.02
358.58	229.07
358.97	229.11
359.35	229.21
359.73	229.29
360.11	229.34
360.49	229.39
360.87	229.40
361.25	229.43
361.63	229.48
362.01	229.51
362.39	229.56
362.77	229.58
363.15	229.54
363.53	229.55
363.91	229.58
364.29	229.60
364.67	229.52
365.05	229.54
365.43	229.55
365.81	229.56
366.19	229.60
366.57	229.64
366.95	229.67
367.33	229.60
367.71	229.55
368.09	229.53
368.47	229.56
368.85	229.59
369.23	229.57
369.61	229.50
369.99	229.48
370.37	229.47
370.75	229.48
371.13	229.41
371.51	229.41
371.89	229.33
372.27	229.30
372.65	229.24
373.03	229.16
373.41	229.09
373.78	229.00
374.16	228.88
374.54	228.78
374.92	228.66
375.30	228.60
375.68	228.54
376.06	228.50
376.44	228.37
376.82	228.30
377.19	228.24
377.57	228.15
377.95	228.01
378.33	227.90
378.71	227.78
379.09	227.71
379.47	227.62
379.84	227.54
380.22	227.44
380.60	227.36
380.98	227.32
381.36	227.27
381.73	227.19
382.11	227.12
382.49	227.05
382.87	226.99
383.25	226.91
383.62	226.96
384.00	226.87
384.38	226.84
384.76	226.79
385.13	226.74
385.51	226.70
385.89	226.67
386.27	226.62
386.64	226.57
387.02	226.51
387.40	226.46
387.78	226.44
388.15	226.40
388.53	226.35
388.91	226.30
389.29	226.29
389.66	226.29
390.04	226.28
390.42	226.27
390.79	226.29
391.17	226.30
391.55	226.18
391.92	226.17
392.30	226.15
392.68	226.14
393.05	226.16
393.43	226.21
393.81	226.24
394.18	226.24
394.56	226.23
394.94	226.27
395.31	226.31
395.69	226.37
396.06	226.45
396.44	226.49
396.82	226.53
397.19	226.59
397.57	226.63
397.95	226.68
398.32	226.73
398.70	226.76
399.07	226.83
399.45	226.90
399.82	226.94
400.20	227.03
400.58	227.09
400.95	227.13
401.33	227.23
401.70	227.37
402.08	227.47
402.45	227.62
402.83	227.77
403.20	227.87
403.58	227.95
403.95	228.07
404.33	228.24
404.71	228.37
405.08	228.55
405.46	228.70
405.83	228.87
406.21	228.99
406.58	229.16
406.96	229.36
407.33	229.53
407.70	229.74
408.08	230.01
408.45	230.26
408.83	230.49
409.20	230.71
409.58	230.91
409.95	231.18
410.33	231.44
410.70	231.69
411.08	231.99
411.45	232.33
411.82	232.60
412.20	232.94
412.57	233.36
412.95	233.67
413.32	234.07
413.69	234.48
414.07	234.95
414.44	235.47
414.82	235.90
415.19	236.46
415.56	237.01
415.94	237.57
416.31	238.20
416.68	238.84
417.06	239.56
417.43	240.24
417.81	241.02
418.18	241.80
418.55	242.64
418.93	243.53
419.30	244.45
419.67	245.42
420.04	246.38
420.42	247.38
420.79	248.59
421.16	249.77
421.54	250.98
421.91	252.18
422.28	253.42
422.66	254.76
423.03	256.07
423.40	257.45
423.77	258.86
424.15	260.26
424.52	261.72
424.89	263.33
425.26	264.88
425.64	266.30
426.01	267.89
426.38	269.52
426.75	271.21
427.13	272.93
427.50	274.75
427.87	276.64
428.24	278.51
428.61	280.22
428.99	282.16
429.36	284.26
429.73	286.34
430.10	288.34
430.47	290.44
430.85	292.52
431.22	294.74
431.59	297.17
431.96	299.46
432.33	301.98
432.70	304.36
433.08	307.21
433.45	309.83
433.82	312.44
434.19	315.39
434.56	318.18
434.93	320.83
435.30	323.44
435.68	326.33
436.05	329.14
436.42	331.94
436.79	334.41
437.16	337.12
437.53	339.93
437.90	342.75
438.27	345.48
438.64	348.37
439.01	350.96
439.38	353.16
439.75	355.28
440.13	357.78
440.50	360.11
440.87	361.95
441.24	363.93
441.61	366.09
441.98	367.55
442.35	369.35
442.72	371.23
443.09	373.03
443.46	373.99
443.83	374.59
444.20	375.11
444.57	375.98
444.94	376.25
445.31	376.62
445.68	377.01
446.05	377.09
446.42	376.69
446.79	376.26
447.16	375.81
447.53	375.52
447.90	374.33
448.27	373.17
448.64	371.55
449.01	370.40
449.37	368.44
449.74	366.55
450.11	364.33
450.48	361.80
450.85	359.25
451.22	357.16
451.59	355.13
451.96	353.16
452.33	350.55
452.70	348.16
453.07	345.29
453.43	342.35
453.80	339.57
454.17	336.91
454.54	334.36
454.91	331.64
455.28	328.95
455.65	326.45
456.02	323.98
456.38	321.82
456.75	319.15
457.12	316.89
457.49	314.66
457.86	312.50
458.23	310.69
458.59	308.67
458.96	306.59
459.33	304.73
459.70	302.89
460.07	301.41
460.43	299.70
460.80	298.08
461.17	296.66
461.54	295.16
461.91	293.72
462.27	292.27
462.64	291.04
463.01	289.70
463.38	288.40
463.74	287.05
464.11	285.91
464.48	284.90
464.85	283.82
465.21	282.92
465.58	281.96
465.95	280.84
466.32	279.91
466.68	278.96
467.05	278.08
467.42	277.17
467.78	276.22
468.15	275.36
468.52	274.72
468.88	273.84
469.25	273.09
469.62	272.44
469.98	271.79
470.35	271.14
470.72	270.57
471.08	269.91
471.45	269.37
471.82	268.81
472.18	268.18
472.55	267.69
472.92	267.18
473.28	266.75
473.65	266.30
474.02	265.84
474.38	265.43
474.75	265.10
475.11	264.77
475.48	264.47
475.85	264.23
476.21	263.97
476.58	263.80
476.94	263.65
477.31	263.47
477.67	263.29
478.04	263.11
478.41	263.03
478.77	263.07
479.14	262.97
479.50	262.97
479.87	263.03
480.23	263.12
480.60	263.18
480.96	263.23
481.33	263.43
481.69	263.64
482.06	263.86
482.42	264.01
482.79	264.25
483.15	264.57
483.52	264.97
483.88	265.33
484.25	265.68
484.61	266.10
484.98	266.57
485.34	267.09
485.71	267.71
486.07	268.29
486.44	268.83
486.80	269.54
487.17	270.24
487.53	271.07
487.90	271.89
488.26	272.82
488.62	273.85
488.99	274.82
489.35	275.87
489.72	276.99
490.08	278.19
490.44	279.40
490.81	280.72
491.17	282.00
491.54	283.47
491.90	285.02
492.26	286.63
492.63	288.33
492.99	290.15
493.36	292.03
493.72	294.06
494.08	296.20
494.45	298.45
494.81	300.84
495.17	303.28
495.54	305.81
495.90	308.49
496.26	311.23
496.63	314.19
496.99	317.27
497.35	320.54
497.72	323.97
498.08	327.49
498.44	331.14
498.80	335.07
499.17	339.13
499.53	343.28
499.89	347.71
500.26	352.25
500.62	356.88
500.98	361.84
501.34	366.91
501.71	372.18
502.07	377.59
502.43	383.17
502.79	388.97
503.16	395.06
503.52	401.36
503.88	407.80
504.24	414.43
504.60	421.29
504.97	428.40
505.33	435.73
505.69	443.43
506.05	451.23
506.41	459.14
506.78	467.28
507.14	475.67
507.50	484.34
507.86	493.38
508.22	502.60
508.59	511.79
508.95	521.37
509.31	531.22
509.67	541.33
510.03	551.58
510.39	562.18
510.75	573.04
511.12	583.89
511.48	595.15
511.84	606.58
512.20	618.17
512.56	630.16
512.92	642.34
513.28	654.72
513.64	667.24
514.00	679.98
514.37	692.92
514.73	706.05
515.09	719.05
515.45	732.39
515.81	745.91
516.17	759.90
516.53	774.05
516.89	788.21
517.25	802.41
517.61	816.94
517.97	831.35
518.33	845.81
518.69	860.64
519.05	875.60
519.41	890.86
519.77	906.42
520.13	921.90
520.49	937.29
520.85	952.71
521.21	968.42
521.57	984.67
521.93	1000.52
522.29	1016.93
522.65	1033.34
523.01	1049.58
523.37	1065.77
523.73	1082.01
524.09	1098.12
524.45	1114.63
524.81	1131.37
525.17	1148.18
525.53	1165.16
525.89	1182.03
526.25	1199.00
526.61	1215.54
526.97	1232.27
527.33	1248.74
527.68	1265.40
528.04	1281.93
528.40	1298.64
528.76	1315.70
529.12	1332.36
529.48	1349.31
529.84	1365.43
530.20	1381.99
530.56	1399.03
530.91	1416.42
531.27	1433.21
531.63	1449.81
531.99	1466.32
532.35	1482.30
532.71	1498.32
533.07	1514.61
533.42	1530.68
533.78	1546.73
534.14	1563.08
534.50	1578.65
534.86	1594.71
535.21	1609.96
535.57	1625.99
535.93	1641.59
536.29	1656.50
536.65	1671.70
537.00	1686.54
537.36	1702.01
537.72	1716.66
538.08	1731.10
538.44	1745.03
538.79	1759.09
539.15	1772.88
539.51	1786.65
539.87	1801.05
540.22	1814.84
540.58	1828.83
540.94	1842.15
541.29	1855.12
541.65	1867.91
542.01	1881.17
542.37	1893.46
542.72	1905.96
543.08	1917.65
543.44	1930.07
543.79	1941.39
544.15	1952.47
544.51	1963.99
544.87	1974.98
545.22	1985.79
545.58	1996.03
545.94	2005.80
546.29	2015.69
546.65	2025.54
547.01	2034.88
547.36	2043.67
547.72	2052.24
548.07	2060.09
548.43	2068.29
548.79	2076.31
549.14	2083.89
549.50	2091.21
549.86	2099.08
550.21	2106.28
550.57	2113.66
550.92	2120.22
551.28	2127.34
551.64	2134.33
551.99	2140.89
552.35	2146.92
552.70	2153.17
553.06	2159.16
553.41	2165.58
553.77	2171.66
554.13	2177.77
554.48	2183.90
554.84	2189.21
555.19	2194.56
555.55	2199.55
555.90	2203.98
556.26	2208.76
556.61	2213.38
556.97	2217.56
557.32	2221.56
557.68	2225.79
558.03	2230.05
558.39	2233.82
558.74	2238.40
559.10	2242.11
559.45	2245.91
559.81	2250.28
560.16	2254.01
560.52	2257.26
560.87	2260.72
561.23	2263.19
561.58	2266.15
561.94	2268.70
562.29	2271.09
562.64	2273.63
563.00	2276.21
563.35	2279.75
563.71	2282.89
564.06	2286.09
564.42	2288.99
564.77	2291.31
565.12	2293.41
565.48	2295.13
565.83	2296.84
566.19	2297.98
566.54	2299.08
566.89	2299.96
567.25	2300.49
567.60	2301.81
567.96	2303.34
568.31	2304.03
568.66	2305.00
569.02	2305.36
569.37	2305.46
569.72	2306.15
570.08	2306.14
570.43	2306.09
570.78	2305.34
571.14	2303.68
571.49	2302.29
571.84	2301.84
572.20	2300.59
572.55	2299.44
572.90	2297.89
573.26	2296.37
573.61	2294.63
573.96	2292.52
574.31	2289.33
574.67	2286.20
575.02	2282.41
575.37	2278.87
575.72	2274.94
576.08	2271.70
576.43	2268.35
576.78	2264.76
577.13	2261.65
577.49	2258.56
577.84	2255.04
578.19	2251.24
578.54	2247.43
578.90	2243.04
579.25	2237.44
579.60	2232.47
579.95	2227.51
580.30	2222.37
580.66	2217.24
581.01	2212.20
581.36	2207.20
581.71	2203.10
582.06	2198.51
582.42	2194.01
582.77	2188.64
583.12	2183.89
583.47	2178.90
583.82	2173.70
584.17	2168.26
584.53	2162.67
584.88	2156.73
585.23	2150.71
585.58	2145.24
585.93	2139.89
586.28	2134.96
586.63	2129.66
586.98	2124.50
587.34	2119.57
587.69	2114.49
588.04	2109.03
588.39	2103.30
588.74	2096.83
589.09	2090.67
589.44	2083.86
589.79	2077.76
590.14	2072.14
590.49	2065.40
590.84	2058.98
591.19	2052.88
591.54	2046.35
591.89	2038.79
592.25	2032.01
592.60	2024.74
592.95	2016.98
593.30	2009.46
593.65	2001.88
594.00	1994.86
594.35	1987.54
594.70	1979.43
595.05	1972.13
595.40	1964.81
595.75	1957.27
596.10	1950.77
596.45	1943.77
596.80	1937.38
597.15	1930.59
597.50	1923.33
597.85	1916.95
598.19	1910.20
598.54	1903.10
598.89	1896.37
599.24	1890.49
599.59	1883.61
599.94	1877.39
600.29	1870.98
600.64	1864.44
600.99	1856.87
601.34	1849.87
601.69	1842.93
602.04	1836.00
602.39	1828.65
602.74	1821.82
603.08	1814.99
603.43	1808.32
603.78	1800.99
604.13	1793.75
604.48	1786.41
604.83	1779.65
605.18	1772.62
605.53	1764.56
605.87	1756.45
606.22	1749.31
606.57	1741.26
606.92	1734.10
607.27	1726.94
607.62	1719.94
607.96	1712.56
608.31	1705.81
608.66	1698.20
609.01	1690.63
609.36	1683.00
609.70	1674.98
610.05	1666.77
610.40	1659.02
610.75	1650.62
611.10	1642.98
611.44	1634.62
611.79	1626.55
612.14	1617.92
612.49	1608.87
612.83	1600.61
613.18	1592.48
613.53	1584.27
613.88	1575.81
614.22	1567.51
614.57	1558.99
614.92	1550.94
615.27	1543.34
615.61	1535.08
615.96	1527.13
616.31	1519.42
616.65	1512.11
617.00	1504.57
617.35	1496.92
617.70	1488.58
618.04	1480.16
618.39	1471.99
618.74	1464.48
619.08	1456.24
619.43	1448.59
619.78	1441.62
620.12	1434.44
620.47	1426.99
620.82	1418.90
621.16	1411.59
621.51	1404.01
621.85	1396.40
622.20	1387.94
622.55	1379.73
622.89	1371.96
623.24	1364.35
623.59	1357.02
623.93	1349.52
624.28	1342.34
624.62	1334.86
624.97	1327.65
625.32	1321.02
625.66	1313.96
626.01	1306.70
626.35	1299.33
626.70	1291.69
627.04	1284.04
627.39	1276.20
627.73	1268.76
628.08	1261.76
628.43	1254.35
628.77	1246.99
629.12	1239.34
629.46	1232.13
629.81	1224.71
630.15	1217.54
630.50	1210.14
630.84	1201.93
631.19	1194.16
631.53	1186.75
631.88	1179.22
632.22	1171.71
632.57	1164.39
632.91	1156.91
633.26	1149.47
633.60	1142.14
633.95	1135.06
634.29	1128.05
634.64	1121.44
634.98	1114.06
635.32	1107.00
635.67	1100.53
636.01	1093.93
636.36	1087.13
636.70	1080.76
637.05	1074.25
637.39	1067.74
637.73	1061.21
638.08	1055.45
638.42	1049.40
638.77	1042.90
639.11	1036.32
639.45	1030.00
639.80	1023.40
640.14	1016.98
640.49	1010.62
640.83	1004.39
641.17	998.17
641.52	991.79
641.86	985.47
642.20	979.72
642.55	973.47
642.89	966.94
643.23	960.47
643.58	954.78
643.92	948.54
644.26	942.33
644.61	936.38
644.95	930.45
645.29	923.79
645.64	917.01
645.98	910.73
646.32	905.00
646.66	898.95
647.01	893.16
647.35	887.46
647.69	881.58
648.04	876.09
648.38	870.25
648.72	864.24
649.06	858.19
649.41	852.33
649.75	846.26
650.09	840.28
650.43	834.45
650.78	828.24
651.12	822.31
651.46	816.62
651.80	810.84
652.14	805.43
652.49	800.11
652.83	795.03
653.17	789.26
653.51	783.46
653.85	778.04
654.20	772.39
654.54	766.40
654.88	760.66
655.22	754.71
655.56	749.03
655.90	743.59
656.25	738.27
656.59	732.93
656.93	727.91
657.27	722.78
657.61	717.36
657.95	712.32
658.29	707.22
658.64	702.07
658.98	696.83
659.32	691.28
659.66	686.05
660.00	680.63
660.34	675.76
660.68	670.84
661.02	665.82
661.36	661.15
661.70	656.73
662.05	652.41
662.39	648.14
662.73	643.71
663.07	639.38
663.41	634.96
663.75	630.46
664.09	625.91
664.43	621.55
664.77	617.44
665.11	613.10
665.45	609.02
665.79	604.88
666.13	600.73
666.47	596.77
666.81	592.64
667.15	588.54
667.49	584.69
667.83	580.96
668.17	577.06
668.51	572.98
668.85	568.99
669.19	565.17
669.53	561.26
669.87	557.41
670.21	553.72
670.55	550.12
670.89	546.72
671.23	543.31
671.57	539.79
671.91	536.27
672.25	532.88
672.58	529.41
672.92	526.13
673.26	523.03
673.60	519.87
673.94	516.78
674.28	513.98
674.62	511.00
674.96	507.89
675.30	505.00
675.64	502.12
675.97	499.30
676.31	496.42
676.65	493.53
676.99	490.82
677.33	487.96
677.67	485.10
678.01	482.10
678.34	479.11
678.68	476.26
679.02	473.50
679.36	470.76
679.70	468.09
680.04	465.25
680.37	462.35
680.71	459.56
681.05	456.92
681.39	454.20
681.73	451.61
682.06	449.09
682.40	446.57
682.74	444.04
683.08	441.53
683.42	439.01
683.75	436.50
684.09	434.00
684.43	431.56
684.77	429.14
685.10	426.86
685.44	424.62
685.78	422.35
686.12	420.08
686.45	417.83
686.79	415.49
687.13	413.36
687.46	411.20
687.80	409.08
688.14	406.94
688.48	404.91
688.81	402.66
689.15	400.54
689.49	398.39
689.82	396.34
690.16	394.30
690.50	392.34
690.83	390.44
691.17	388.41
691.51	386.51
691.84	384.66
692.18	382.68
692.52	380.65
692.85	378.79
693.19	376.92
693.52	375.06
693.86	373.25
694.20	371.46
694.53	369.70
694.87	367.85
695.21	366.07
695.54	364.28
695.88	362.53
696.21	360.82
696.55	359.11
696.88	357.40
697.22	355.75
697.56	354.14
697.89	352.50
698.23	350.93
698.56	349.31
698.90	347.71
699.23	346.09
699.57	344.58
699.90	343.03
700.24	341.52
700.58	340.03
700.91	338.56
701.25	337.13
701.58	335.75
701.92	334.39
702.25	333.00
702.59	331.58
702.92	330.26
703.26	328.96
703.59	327.74
703.93	326.58
704.26	325.33
704.60	323.98
704.93	322.72
705.26	321.47
705.60	320.32
705.93	319.18
706.27	318.18
706.60	317.13
706.94	316.05
707.27	314.89
707.61	313.83
707.94	312.82
708.27	311.71
708.61	310.68
708.94	309.68
709.28	308.70
709.61	307.76
709.94	306.85
710.28	305.86
710.61	304.86
710.95	303.78
711.28	302.86
711.61	301.97
711.95	301.04
712.28	300.09
712.61	299.12
712.95	298.14
713.28	297.25
713.61	296.33
713.95	295.41
714.28	294.59
714.61	293.71
714.95	292.87
715.28	292.01
715.61	291.15
715.95	290.30
716.28	289.44
716.61	288.63
716.95	287.81
717.28	287.09
717.61	286.37
717.94	285.63
718.28	284.81
718.61	284.07
718.94	283.37
719.27	282.72
719.61	282.07
719.94	281.47
720.27	280.73
720.60	280.11
720.94	279.50
721.27	278.91
721.60	278.33
721.93	277.74
722.27	277.23
722.60	276.63
722.93	276.07
723.26	275.56
723.59	274.96
723.93	274.42
724.26	273.82
724.59	273.25
724.92	272.73
725.25	272.30
725.59	271.80
725.92	271.33
726.25	270.82
726.58	270.34
726.91	269.85
727.24	269.43
727.57	268.92
727.91	268.42
728.24	267.93
728.57	267.47
728.90	267.04
729.23	266.53
729.56	266.14
729.89	265.68
730.22	265.18
730.55	264.73
730.89	264.30
731.22	263.85
731.55	263.42
731.88	263.02
732.21	262.53
732.54	262.09
732.87	261.65
733.20	261.32
733.53	260.94
733.86	260.53
734.19	260.11
734.52	259.74
734.85	259.41
735.18	259.03
735.51	258.64
735.84	258.25
736.17	257.90
736.50	257.47
736.83	257.23
737.16	256.94
737.49	256.62
737.82	256.25
738.15	255.95
738.48	255.60
738.81	255.26
739.14	254.96
739.47	254.62
739.80	254.28
740.13	253.93
740.46	253.60
740.79	253.28
741.12	252.95
741.45	252.64
741.78	252.30
742.11	251.99
742.44	251.68
742.77	251.38
743.10	251.07
743.43	250.77
743.75	250.38
744.08	250.21
744.41	249.93
744.74	249.67
745.07	249.37
745.40	249.12
745.73	248.84
746.06	248.57
746.39	248.33
746.71	248.08
747.04	247.82
747.37	247.53
747.70	247.31
748.03	247.07
748.36	246.88
748.68	246.67
749.01	246.42
749.34	246.21
749.67	245.99
750.00	245.80
750.33	245.63
750.65	245.41
750.98	245.07
751.31	244.84
751.64	244.64
751.97	244.48
752.29	244.26
752.62	244.01
752.95	243.79
753.28	243.57
753.60	243.38
753.93	243.20
754.26	243.00
754.59	242.78
754.91	242.57
755.24	242.34
755.57	242.16
755.90	242.00
756.22	241.81
756.55	241.59
756.88	241.36
757.20	241.13
757.53	240.95
757.86	240.76
758.19	240.60
758.51	240.41
758.84	240.20
759.17	240.05
759.49	239.93
759.82	239.80
760.15	239.67
760.47	239.54
760.80	239.36
761.13	239.24
761.45	239.06
761.78	238.90
762.11	238.78
762.43	238.61
762.76	238.45
763.08	238.32
763.41	238.19
763.74	238.10
764.06	237.99
764.39	237.85
764.71	237.73
765.04	237.61
765.37	237.47
765.69	237.34
766.02	237.20
766.34	237.07
766.67	236.90
767.00	236.78
767.32	236.66
767.65	236.61
767.97	236.51
768.30	236.38
768.62	236.29
768.95	236.15
769.27	236.02
769.60	235.95
769.92	235.81
770.25	235.67
770.57	235.55
770.90	235.43
771.22	235.33
771.55	235.26
771.87	235.16
772.20	235.07
772.52	235.08
772.85	235.10
773.17	235.00
773.50	234.92
773.82	234.80
774.15	234.70
774.47	234.55
774.80	234.43
775.12	234.39
775.45	234.27
775.77	234.20
776.09	234.12
776.42	234.04
776.74	234.00
777.07	233.95
777.39	233.89
777.72	233.82
778.04	233.77
778.36	233.67
778.69	233.62
779.01	233.59
779.33	233.44
779.66	233.29
779.98	233.24
780.31	233.19
780.63	233.17
780.95	233.14
781.28	233.09
781.60	233.04
781.92	232.98
782.25	232.95
782.57	232.90
782.89	232.84
783.22	232.80
783.54	232.71
783.86	232.68
784.19	232.62
784.51	232.60
784.83	232.54
785.16	232.49
785.48	232.46
785.80	232.38
786.12	232.31
786.45	232.26
786.77	232.22
787.09	232.18
