SpectraSuite Data File
++++++++++++++++++++++++++++++++++++
Date: Fri Feb 01 15:42:54 EST 2013
User: group
Dark Spectrum Present: No
Reference Spectrum Present: No
Number of Sampled Component Spectra: 1
Spectrometers: USB2E7196
Integration Time (usec): 35000 (USB2E7196)
Spectra Averaged: 100 (USB2E7196)
Boxcar Smoothing: 10 (USB2E7196)
Correct for Electrical Dark: No (USB2E7196)
Strobe/Lamp Enabled: No (USB2E7196)
Correct for Detector Non-linearity: No (USB2E7196)
Correct for Stray Light: No (USB2E7196)
Number of Pixels in Processed Spectrum: 2048
>>>>>Begin Processed Spectral Data<<<<<
339.09	0.00
339.48	215.08
339.86	216.20
340.24	217.82
340.63	218.91
341.01	221.76
341.39	221.77
341.78	223.03
342.16	224.40
342.54	225.22
342.93	213.25
343.31	224.02
343.69	224.55
344.07	225.02
344.46	225.46
344.84	225.84
345.22	226.04
345.60	226.29
345.99	226.49
346.37	226.61
346.75	226.71
347.13	226.78
347.52	226.85
347.90	226.89
348.28	226.92
348.66	226.95
349.05	226.95
349.43	226.95
349.81	226.98
350.19	227.00
350.57	227.08
350.96	227.14
351.34	227.24
351.72	227.33
352.10	227.42
352.48	227.47
352.87	227.55
353.25	227.65
353.63	227.71
354.01	227.78
354.39	227.86
354.77	227.90
355.15	228.04
355.54	228.08
355.92	228.13
356.30	228.22
356.68	228.36
357.06	228.42
357.44	228.49
357.82	228.56
358.20	228.63
358.58	228.67
358.97	228.74
359.35	228.79
359.73	228.83
360.11	228.90
360.49	228.98
360.87	229.03
361.25	229.14
361.63	229.20
362.01	229.24
362.39	229.27
362.77	229.34
363.15	229.35
363.53	229.39
363.91	229.44
364.29	229.45
364.67	229.35
365.05	229.40
365.43	229.40
365.81	229.44
366.19	229.47
366.57	229.52
366.95	229.49
367.33	229.49
367.71	229.51
368.09	229.50
368.47	229.46
368.85	229.43
369.23	229.39
369.61	229.34
369.99	229.36
370.37	229.33
370.75	229.36
371.13	229.33
371.51	229.27
371.89	229.24
372.27	229.22
372.65	229.21
373.03	229.13
373.41	229.10
373.78	229.03
374.16	228.99
374.54	228.88
374.92	228.84
375.30	228.77
375.68	228.68
376.06	228.62
376.44	228.57
376.82	228.51
377.19	228.43
377.57	228.38
377.95	228.23
378.33	228.16
378.71	228.01
379.09	227.93
379.47	227.88
379.84	227.78
380.22	227.69
380.60	227.61
380.98	227.56
381.36	227.51
381.73	227.38
382.11	227.30
382.49	227.24
382.87	227.15
383.25	227.12
383.62	227.16
384.00	227.07
384.38	227.00
384.76	226.95
385.13	226.92
385.51	226.89
385.89	226.86
386.27	226.79
386.64	226.73
387.02	226.74
387.40	226.68
387.78	226.65
388.15	226.63
388.53	226.59
388.91	226.55
389.29	226.48
389.66	226.51
390.04	226.50
390.42	226.49
390.79	226.46
391.17	226.41
391.55	226.30
391.92	226.30
392.30	226.28
392.68	226.24
393.05	226.22
393.43	226.19
393.81	226.20
394.18	226.21
394.56	226.25
394.94	226.22
395.31	226.23
395.69	226.26
396.06	226.27
396.44	226.33
396.82	226.33
397.19	226.44
397.57	226.44
397.95	226.49
398.32	226.50
398.70	226.57
399.07	226.65
399.45	226.68
399.82	226.76
400.20	226.82
400.58	226.89
400.95	226.89
401.33	226.99
401.70	227.15
402.08	227.23
402.45	227.31
402.83	227.43
403.20	227.54
403.58	227.64
403.95	227.80
404.33	227.90
404.71	228.03
405.08	228.19
405.46	228.32
405.83	228.45
406.21	228.65
406.58	228.79
406.96	228.93
407.33	229.12
407.70	229.31
408.08	229.59
408.45	229.82
408.83	230.08
409.20	230.31
409.58	230.48
409.95	230.75
410.33	231.03
410.70	231.27
411.08	231.57
411.45	231.90
411.82	232.19
412.20	232.55
412.57	232.99
412.95	233.30
413.32	233.77
413.69	234.20
414.07	234.60
414.44	235.09
414.82	235.56
415.19	236.14
415.56	236.69
415.94	237.25
416.31	237.88
416.68	238.53
417.06	239.28
417.43	239.98
417.81	240.75
418.18	241.51
418.55	242.38
418.93	243.26
419.30	244.16
419.67	245.08
420.04	246.03
420.42	247.02
420.79	248.24
421.16	249.36
421.54	250.55
421.91	251.77
422.28	253.01
422.66	254.38
423.03	255.69
423.40	257.04
423.77	258.46
424.15	259.91
424.52	261.41
424.89	263.00
425.26	264.57
425.64	266.03
426.01	267.65
426.38	269.29
426.75	270.95
427.13	272.66
427.50	274.49
427.87	276.38
428.24	278.23
428.61	279.94
428.99	281.89
429.36	283.98
429.73	286.05
430.10	288.10
430.47	290.16
430.85	292.26
431.22	294.50
431.59	296.88
431.96	299.11
432.33	301.61
432.70	303.97
433.08	306.75
433.45	309.37
433.82	312.00
434.19	314.89
434.56	317.72
434.93	320.39
435.30	322.98
435.68	325.88
436.05	328.73
436.42	331.53
436.79	334.05
437.16	336.74
437.53	339.57
437.90	342.37
438.27	345.12
438.64	347.93
439.01	350.49
439.38	352.70
439.75	354.86
440.13	357.35
440.50	359.66
440.87	361.50
441.24	363.44
441.61	365.58
441.98	367.05
442.35	368.83
442.72	370.68
443.09	372.50
443.46	373.47
443.83	374.05
444.20	374.57
444.57	375.39
444.94	375.67
445.31	375.98
445.68	376.30
446.05	376.34
446.42	375.96
446.79	375.51
447.16	375.06
447.53	374.74
447.90	373.58
448.27	372.45
448.64	370.84
449.01	369.69
449.37	367.69
449.74	365.79
450.11	363.51
450.48	361.00
450.85	358.45
451.22	356.32
451.59	354.28
451.96	352.31
452.33	349.73
452.70	347.40
453.07	344.61
453.43	341.73
453.80	338.97
454.17	336.29
454.54	333.79
454.91	331.11
455.28	328.42
455.65	325.87
456.02	323.39
456.38	321.27
456.75	318.62
457.12	316.36
457.49	314.14
457.86	312.00
458.23	310.18
458.59	308.18
458.96	306.11
459.33	304.28
459.70	302.41
460.07	300.90
460.43	299.16
460.80	297.52
461.17	296.09
461.54	294.60
461.91	293.20
462.27	291.76
462.64	290.48
463.01	289.15
463.38	287.90
463.74	286.55
464.11	285.39
464.48	284.37
464.85	283.30
465.21	282.47
465.58	281.57
465.95	280.49
466.32	279.55
466.68	278.66
467.05	277.71
467.42	276.81
467.78	275.88
468.15	275.00
468.52	274.35
468.88	273.53
469.25	272.81
469.62	272.21
469.98	271.53
470.35	270.93
470.72	270.31
471.08	269.66
471.45	269.13
471.82	268.59
472.18	268.01
472.55	267.58
472.92	267.07
473.28	266.58
473.65	266.13
474.02	265.72
474.38	265.37
474.75	265.10
475.11	264.77
475.48	264.51
475.85	264.30
476.21	264.06
476.58	263.86
476.94	263.69
477.31	263.50
477.67	263.35
478.04	263.23
478.41	263.21
478.77	263.24
479.14	263.17
479.50	263.20
479.87	263.28
480.23	263.35
480.60	263.39
480.96	263.49
481.33	263.70
481.69	263.88
482.06	264.04
482.42	264.24
482.79	264.46
483.15	264.77
483.52	265.16
483.88	265.54
484.25	265.93
484.61	266.32
484.98	266.77
485.34	267.34
485.71	267.90
486.07	268.49
486.44	269.04
486.80	269.73
487.17	270.43
487.53	271.24
487.90	272.06
488.26	273.02
488.62	274.00
488.99	274.95
489.35	275.99
489.72	277.12
490.08	278.29
490.44	279.57
490.81	280.89
491.17	282.18
491.54	283.63
491.90	285.16
492.26	286.82
492.63	288.53
492.99	290.27
493.36	292.17
493.72	294.21
494.08	296.35
494.45	298.59
494.81	301.00
495.17	303.40
495.54	305.99
495.90	308.69
496.26	311.48
496.63	314.49
496.99	317.61
497.35	320.87
497.72	324.24
498.08	327.75
498.44	331.46
498.80	335.40
499.17	339.43
499.53	343.60
499.89	348.04
500.26	352.54
500.62	357.22
500.98	362.22
501.34	367.26
501.71	372.57
502.07	378.04
502.43	383.62
502.79	389.45
503.16	395.56
503.52	401.86
503.88	408.33
504.24	414.98
504.60	421.89
504.97	428.98
505.33	436.33
505.69	444.07
506.05	451.84
506.41	459.77
506.78	467.96
507.14	476.43
507.50	485.09
507.86	494.12
508.22	503.29
508.59	512.45
508.95	522.08
509.31	531.91
509.67	541.94
510.03	552.24
510.39	562.80
510.75	573.56
511.12	584.48
511.48	595.75
511.84	607.08
512.20	618.62
512.56	630.59
512.92	642.77
513.28	655.09
513.64	667.56
514.00	680.23
514.37	693.18
514.73	706.26
515.09	719.38
515.45	732.61
515.81	746.28
516.17	760.37
516.53	774.51
516.89	788.72
517.25	802.95
517.61	817.34
517.97	831.86
518.33	846.31
518.69	861.06
519.05	876.08
519.41	891.38
519.77	906.92
520.13	922.44
520.49	937.81
520.85	953.23
521.21	969.06
521.57	985.30
521.93	1001.01
522.29	1017.42
522.65	1033.63
523.01	1049.94
523.37	1065.89
523.73	1082.01
524.09	1098.06
524.45	1114.36
524.81	1131.12
525.17	1148.08
525.53	1164.94
525.89	1181.79
526.25	1198.51
526.61	1214.91
526.97	1231.62
527.33	1248.07
527.68	1264.64
528.04	1281.24
528.40	1297.92
528.76	1314.88
529.12	1331.46
529.48	1348.29
529.84	1364.30
530.20	1380.95
530.56	1398.02
530.91	1415.57
531.27	1432.35
531.63	1448.86
531.99	1465.45
532.35	1481.24
532.71	1497.12
533.07	1513.38
533.42	1529.26
533.78	1545.43
534.14	1561.63
534.50	1576.87
534.86	1592.73
535.21	1607.94
535.57	1623.74
535.93	1639.14
536.29	1653.90
536.65	1669.04
537.00	1683.94
537.36	1699.27
537.72	1713.75
538.08	1728.11
538.44	1741.81
538.79	1755.69
539.15	1769.40
539.51	1783.11
539.87	1797.52
540.22	1811.17
540.58	1824.98
540.94	1838.45
541.29	1851.28
541.65	1864.00
542.01	1877.41
542.37	1889.78
542.72	1902.24
543.08	1913.99
543.44	1926.32
543.79	1937.63
544.15	1948.58
544.51	1960.21
544.87	1971.07
545.22	1982.03
545.58	1992.23
545.94	2002.05
546.29	2011.80
546.65	2021.59
547.01	2030.88
547.36	2039.55
547.72	2048.09
548.07	2055.79
548.43	2063.93
548.79	2071.97
549.14	2079.51
549.50	2086.79
549.86	2094.51
550.21	2101.79
550.57	2109.04
550.92	2115.60
551.28	2122.54
551.64	2129.54
551.99	2135.96
552.35	2142.17
552.70	2148.19
553.06	2154.21
553.41	2160.53
553.77	2166.62
554.13	2172.67
554.48	2178.71
554.84	2184.20
555.19	2189.51
555.55	2194.76
555.90	2199.07
556.26	2203.95
556.61	2208.73
556.97	2213.02
557.32	2217.04
557.68	2221.10
558.03	2225.35
558.39	2229.20
558.74	2233.84
559.10	2237.71
559.45	2241.36
559.81	2245.63
560.16	2249.44
560.52	2252.75
560.87	2256.21
561.23	2258.97
561.58	2261.85
561.94	2264.54
562.29	2266.90
562.64	2269.35
563.00	2271.89
563.35	2275.52
563.71	2278.68
564.06	2281.88
564.42	2284.55
564.77	2287.06
565.12	2289.47
565.48	2291.31
565.83	2293.16
566.19	2294.50
566.54	2295.56
566.89	2296.70
567.25	2297.33
567.60	2298.66
567.96	2300.21
568.31	2301.03
568.66	2301.97
569.02	2302.66
569.37	2302.97
569.72	2303.79
570.08	2304.08
570.43	2304.18
570.78	2303.52
571.14	2302.05
571.49	2300.70
571.84	2300.58
572.20	2299.39
572.55	2298.27
572.90	2296.78
573.26	2295.22
573.61	2293.47
573.96	2291.60
574.31	2288.62
574.67	2285.57
575.02	2281.91
575.37	2278.54
575.72	2274.58
576.08	2271.38
576.43	2268.10
576.78	2264.31
577.13	2261.13
577.49	2257.99
577.84	2254.53
578.19	2250.84
578.54	2246.98
578.90	2242.56
579.25	2236.83
579.60	2231.84
579.95	2226.62
580.30	2221.57
580.66	2216.48
581.01	2211.63
581.36	2206.69
581.71	2202.46
582.06	2197.98
582.42	2193.51
582.77	2188.17
583.12	2183.71
583.47	2178.80
583.82	2173.69
584.17	2168.39
584.53	2162.85
584.88	2157.20
585.23	2151.35
585.58	2145.85
585.93	2140.53
586.28	2135.79
586.63	2130.78
586.98	2125.76
587.34	2121.13
587.69	2116.29
588.04	2111.08
588.39	2105.31
588.74	2098.89
589.09	2092.74
589.44	2085.79
589.79	2079.80
590.14	2074.33
590.49	2067.74
590.84	2061.44
591.19	2055.43
591.54	2049.00
591.89	2041.59
592.25	2034.70
592.60	2027.43
592.95	2019.67
593.30	2012.23
593.65	2004.80
594.00	1997.76
594.35	1990.46
594.70	1982.39
595.05	1974.97
595.40	1967.58
595.75	1960.03
596.10	1953.71
596.45	1946.86
596.80	1940.80
597.15	1933.99
597.50	1926.63
597.85	1920.18
598.19	1913.54
598.54	1906.28
598.89	1899.56
599.24	1893.75
599.59	1887.01
599.94	1880.79
600.29	1874.55
600.64	1867.91
600.99	1860.35
601.34	1853.48
601.69	1846.52
602.04	1839.66
602.39	1832.34
602.74	1825.44
603.08	1818.70
603.43	1811.98
603.78	1804.66
604.13	1797.47
604.48	1790.26
604.83	1783.53
605.18	1776.48
605.53	1768.29
605.87	1760.32
606.22	1753.05
606.57	1745.14
606.92	1737.83
607.27	1730.57
607.62	1723.63
607.96	1716.40
608.31	1709.81
608.66	1702.12
609.01	1694.50
609.36	1687.03
609.70	1679.19
610.05	1671.23
610.40	1663.57
610.75	1655.15
611.10	1647.53
611.44	1639.06
611.79	1631.08
612.14	1622.36
612.49	1613.23
612.83	1605.04
613.18	1596.94
613.53	1588.90
613.88	1580.31
614.22	1572.10
614.57	1563.52
614.92	1555.49
615.27	1547.95
615.61	1539.66
615.96	1531.62
616.31	1524.19
616.65	1516.70
617.00	1509.09
617.35	1501.44
617.70	1493.15
618.04	1484.80
618.39	1476.63
618.74	1469.05
619.08	1460.74
619.43	1453.19
619.78	1446.23
620.12	1438.93
620.47	1431.50
620.82	1423.32
621.16	1415.99
621.51	1408.47
621.85	1400.96
622.20	1392.48
622.55	1384.06
622.89	1376.07
623.24	1368.52
623.59	1361.00
623.93	1353.46
624.28	1346.15
624.62	1338.69
624.97	1331.41
625.32	1324.59
625.66	1317.60
626.01	1310.39
626.35	1303.00
626.70	1295.28
627.04	1287.57
627.39	1279.77
627.73	1272.24
628.08	1265.34
628.43	1257.81
628.77	1250.22
629.12	1242.65
629.46	1235.46
629.81	1228.05
630.15	1220.95
630.50	1213.53
630.84	1205.35
631.19	1197.44
631.53	1189.91
631.88	1182.27
632.22	1174.65
632.57	1167.39
632.91	1159.84
633.26	1152.41
633.60	1144.98
633.95	1137.80
634.29	1130.76
634.64	1124.19
634.98	1116.88
635.32	1109.74
635.67	1103.24
636.01	1096.70
636.36	1089.90
636.70	1083.35
637.05	1076.81
637.39	1070.29
637.73	1063.72
638.08	1057.84
638.42	1051.87
638.77	1045.52
639.11	1038.97
639.45	1032.63
639.80	1025.83
640.14	1019.34
640.49	1012.76
640.83	1006.48
641.17	1000.22
641.52	993.85
641.86	987.35
642.20	981.52
642.55	975.20
642.89	968.73
643.23	962.24
643.58	956.43
643.92	950.33
644.26	944.21
644.61	938.16
644.95	932.22
645.29	925.62
645.64	918.89
645.98	912.41
646.32	906.54
646.66	900.50
647.01	894.77
647.35	889.04
647.69	883.28
648.04	877.72
648.38	871.99
648.72	866.06
649.06	860.08
649.41	854.20
649.75	848.22
650.09	842.35
650.43	836.54
650.78	830.39
651.12	824.40
651.46	818.74
651.80	813.00
652.14	807.57
652.49	802.15
652.83	797.06
653.17	791.46
653.51	785.68
653.85	780.39
654.20	774.68
654.54	768.71
654.88	763.07
655.22	757.27
655.56	751.60
655.90	746.12
656.25	740.85
656.59	735.47
656.93	730.40
657.27	725.15
657.61	719.69
657.95	714.58
658.29	709.44
658.64	704.20
658.98	698.95
659.32	693.51
659.66	688.33
660.00	682.94
660.34	677.94
660.68	673.09
661.02	667.96
661.36	663.30
661.70	658.83
662.05	654.36
662.39	650.05
662.73	645.55
663.07	641.14
663.41	636.65
663.75	632.17
664.09	627.57
664.43	623.24
664.77	619.11
665.11	614.84
665.45	610.79
665.79	606.69
666.13	602.54
666.47	598.46
666.81	594.31
667.15	590.17
667.49	586.33
667.83	582.47
668.17	578.52
668.51	574.42
668.85	570.40
669.19	566.59
669.53	562.68
669.87	558.79
670.21	555.11
670.55	551.44
670.89	547.99
671.23	544.60
671.57	541.02
671.91	537.52
672.25	534.06
672.58	530.46
672.92	527.06
673.26	523.90
673.60	520.75
673.94	517.65
674.28	514.79
674.62	511.82
674.96	508.73
675.30	505.84
675.64	502.93
675.97	500.10
676.31	497.24
676.65	494.31
676.99	491.59
677.33	488.76
677.67	485.95
678.01	482.90
678.34	479.89
678.68	477.05
679.02	474.24
679.36	471.49
679.70	468.83
680.04	466.03
680.37	463.06
680.71	460.25
681.05	457.64
681.39	454.96
681.73	452.32
682.06	449.81
682.40	447.25
682.74	444.76
683.08	442.22
683.42	439.62
683.75	437.08
684.09	434.58
684.43	432.10
684.77	429.65
685.10	427.36
685.44	425.07
685.78	422.81
686.12	420.59
686.45	418.27
686.79	415.98
687.13	413.85
687.46	411.75
687.80	409.61
688.14	407.40
688.48	405.33
688.81	403.06
689.15	400.97
689.49	398.89
689.82	396.80
690.16	394.77
690.50	392.84
690.83	390.94
691.17	388.96
691.51	387.06
691.84	385.24
692.18	383.25
692.52	381.25
692.85	379.29
693.19	377.35
693.52	375.57
693.86	373.76
694.20	371.94
694.53	370.14
694.87	368.29
695.21	366.51
695.54	364.66
695.88	362.94
696.21	361.20
696.55	359.49
696.88	357.79
697.22	356.09
697.56	354.47
697.89	352.80
698.23	351.24
698.56	349.64
698.90	348.00
699.23	346.40
699.57	344.88
699.90	343.38
700.24	341.88
700.58	340.34
700.91	338.81
701.25	337.39
701.58	336.03
701.92	334.67
702.25	333.32
702.59	331.95
702.92	330.65
703.26	329.33
703.59	328.04
703.93	326.85
704.26	325.64
704.60	324.35
704.93	323.10
705.26	321.82
705.60	320.62
705.93	319.50
706.27	318.45
706.60	317.38
706.94	316.22
707.27	315.07
707.61	314.05
707.94	313.03
708.27	311.93
708.61	310.83
708.94	309.85
709.28	308.85
709.61	307.91
709.94	306.95
710.28	305.94
710.61	304.97
710.95	303.89
711.28	302.96
711.61	301.98
711.95	301.06
712.28	300.06
712.61	299.08
712.95	298.12
713.28	297.26
713.61	296.33
713.95	295.47
714.28	294.65
714.61	293.74
714.95	292.91
715.28	292.02
715.61	291.18
715.95	290.28
716.28	289.42
716.61	288.56
716.95	287.69
717.28	286.93
717.61	286.17
717.94	285.44
718.28	284.63
718.61	283.91
718.94	283.19
719.27	282.55
719.61	281.92
719.94	281.27
720.27	280.53
720.60	279.91
720.94	279.29
721.27	278.68
721.60	278.08
721.93	277.46
722.27	276.92
722.60	276.34
722.93	275.76
723.26	275.24
723.59	274.68
723.93	274.17
724.26	273.58
724.59	273.01
724.92	272.47
725.25	271.95
725.59	271.47
725.92	270.97
726.25	270.45
726.58	269.96
726.91	269.44
727.24	268.98
727.57	268.48
727.91	267.96
728.24	267.50
728.57	266.99
728.90	266.54
729.23	266.06
729.56	265.66
729.89	265.24
730.22	264.72
730.55	264.29
730.89	263.86
731.22	263.44
731.55	263.02
731.88	262.61
732.21	262.15
732.54	261.68
732.87	261.28
733.20	260.92
733.53	260.52
733.86	260.19
734.19	259.75
734.52	259.39
734.85	259.14
735.18	258.75
735.51	258.40
735.84	258.03
736.17	257.68
736.50	257.24
736.83	257.01
737.16	256.71
737.49	256.33
737.82	255.98
738.15	255.65
738.48	255.33
738.81	254.99
739.14	254.74
739.47	254.46
739.80	254.14
740.13	253.85
740.46	253.54
740.79	253.16
741.12	252.87
741.45	252.54
741.78	252.18
742.11	251.87
742.44	251.55
742.77	251.31
743.10	251.02
743.43	250.73
743.75	250.33
744.08	250.16
744.41	249.91
744.74	249.64
745.07	249.35
745.40	249.12
745.73	248.89
746.06	248.61
746.39	248.34
746.71	248.08
747.04	247.80
747.37	247.51
747.70	247.30
748.03	247.07
748.36	246.85
748.68	246.60
749.01	246.32
749.34	246.12
749.67	245.87
750.00	245.65
750.33	245.52
750.65	245.30
750.98	244.99
751.31	244.73
751.64	244.52
751.97	244.35
752.29	244.11
752.62	243.89
752.95	243.70
753.28	243.46
753.60	243.23
753.93	243.06
754.26	242.90
754.59	242.66
754.91	242.45
755.24	242.25
755.57	242.04
755.90	241.89
756.22	241.67
756.55	241.44
756.88	241.25
757.20	241.02
757.53	240.82
757.86	240.62
758.19	240.53
758.51	240.34
758.84	240.14
759.17	239.95
759.49	239.78
759.82	239.64
760.15	239.52
760.47	239.34
760.80	239.12
761.13	238.98
761.45	238.82
761.78	238.69
762.11	238.53
762.43	238.42
762.76	238.27
763.08	238.17
763.41	238.08
763.74	237.94
764.06	237.80
764.39	237.67
764.71	237.54
765.04	237.35
765.37	237.23
765.69	237.09
766.02	236.98
766.34	236.84
766.67	236.67
767.00	236.57
767.32	236.53
767.65	236.50
767.97	236.37
768.30	236.27
768.62	236.14
768.95	236.05
769.27	235.93
769.60	235.85
769.92	235.72
770.25	235.59
770.57	235.46
770.90	235.35
771.22	235.23
771.55	235.14
771.87	235.07
772.20	234.98
772.52	234.97
772.85	234.98
773.17	234.91
773.50	234.81
773.82	234.69
774.15	234.56
774.47	234.42
774.80	234.33
775.12	234.23
775.45	234.15
775.77	234.07
776.09	233.99
776.42	233.90
776.74	233.87
777.07	233.78
777.39	233.72
777.72	233.61
778.04	233.56
778.36	233.49
778.69	233.39
779.01	233.32
779.33	233.18
779.66	233.00
779.98	232.92
780.31	232.86
780.63	232.85
780.95	232.81
781.28	232.74
781.60	232.65
781.92	232.61
782.25	232.54
782.57	232.45
782.89	232.38
783.22	232.33
783.54	232.24
783.86	232.23
784.19	232.13
784.51	232.12
784.83	232.05
785.16	231.95
785.48	231.94
785.80	231.93
786.12	231.89
786.45	231.83
786.77	231.82
787.09	231.79
