SpectraSuite Data File
++++++++++++++++++++++++++++++++++++
Date: Fri Feb 01 17:28:37 EST 2013
User: group
Dark Spectrum Present: No
Reference Spectrum Present: No
Number of Sampled Component Spectra: 1
Spectrometers: USB2E7196
Integration Time (usec): 35000 (USB2E7196)
Spectra Averaged: 100 (USB2E7196)
Boxcar Smoothing: 10 (USB2E7196)
Correct for Electrical Dark: No (USB2E7196)
Strobe/Lamp Enabled: No (USB2E7196)
Correct for Detector Non-linearity: No (USB2E7196)
Correct for Stray Light: No (USB2E7196)
Number of Pixels in Processed Spectrum: 2048
>>>>>Begin Processed Spectral Data<<<<<
339.09	0.00
339.48	213.73
339.86	214.72
340.24	215.72
340.63	217.28
341.01	220.32
341.39	219.53
341.78	221.03
342.16	222.41
342.54	223.17
342.93	211.37
343.31	222.03
343.69	222.54
344.07	222.99
344.46	223.45
344.84	223.82
345.22	224.03
345.60	224.30
345.99	224.49
346.37	224.63
346.75	224.69
347.13	224.79
347.52	224.87
347.90	224.97
348.28	225.00
348.66	225.04
349.05	225.03
349.43	225.12
349.81	225.15
350.19	225.18
350.57	225.22
350.96	225.32
351.34	225.42
351.72	225.50
352.10	225.56
352.48	225.59
352.87	225.66
353.25	225.73
353.63	225.77
354.01	225.84
354.39	225.93
354.77	226.03
355.15	226.13
355.54	226.20
355.92	226.25
356.30	226.36
356.68	226.52
357.06	226.61
357.44	226.65
357.82	226.72
358.20	226.82
358.58	226.93
358.97	227.00
359.35	227.09
359.73	227.17
360.11	227.24
360.49	227.29
360.87	227.33
361.25	227.41
361.63	227.52
362.01	227.58
362.39	227.63
362.77	227.67
363.15	227.69
363.53	227.70
363.91	227.72
364.29	227.72
364.67	227.66
365.05	227.67
365.43	227.70
365.81	227.72
366.19	227.75
366.57	227.75
366.95	227.76
367.33	227.76
367.71	227.76
368.09	227.79
368.47	227.81
368.85	227.79
369.23	227.80
369.61	227.74
369.99	227.73
370.37	227.72
370.75	227.72
371.13	227.67
371.51	227.63
371.89	227.58
372.27	227.56
372.65	227.53
373.03	227.51
373.41	227.45
373.78	227.39
374.16	227.29
374.54	227.24
374.92	227.19
375.30	227.10
375.68	227.02
376.06	226.96
376.44	226.90
376.82	226.87
377.19	226.79
377.57	226.70
377.95	226.59
378.33	226.50
378.71	226.37
379.09	226.32
379.47	226.26
379.84	226.19
380.22	226.10
380.60	226.01
380.98	225.97
381.36	225.88
381.73	225.78
382.11	225.72
382.49	225.61
382.87	225.52
383.25	225.48
383.62	225.51
384.00	225.40
384.38	225.31
384.76	225.25
385.13	225.21
385.51	225.16
385.89	225.13
386.27	225.09
386.64	225.07
387.02	225.02
387.40	224.97
387.78	224.93
388.15	224.88
388.53	224.84
388.91	224.74
389.29	224.69
389.66	224.69
390.04	224.68
390.42	224.69
390.79	224.68
391.17	224.65
391.55	224.53
391.92	224.53
392.30	224.50
392.68	224.46
393.05	224.45
393.43	224.47
393.81	224.48
394.18	224.46
394.56	224.47
394.94	224.50
395.31	224.51
395.69	224.56
396.06	224.61
396.44	224.59
396.82	224.63
397.19	224.77
397.57	224.78
397.95	224.82
398.32	224.84
398.70	224.85
399.07	224.92
399.45	224.99
399.82	225.03
400.20	225.14
400.58	225.22
400.95	225.25
401.33	225.35
401.70	225.49
402.08	225.56
402.45	225.62
402.83	225.73
403.20	225.81
403.58	225.88
403.95	225.99
404.33	226.14
404.71	226.27
405.08	226.39
405.46	226.51
405.83	226.64
406.21	226.75
406.58	226.92
406.96	227.06
407.33	227.22
407.70	227.43
408.08	227.68
408.45	227.88
408.83	228.11
409.20	228.31
409.58	228.47
409.95	228.73
410.33	229.02
410.70	229.26
411.08	229.58
411.45	229.91
411.82	230.21
412.20	230.55
412.57	230.99
412.95	231.27
413.32	231.71
413.69	232.12
414.07	232.59
414.44	233.12
414.82	233.64
415.19	234.22
415.56	234.79
415.94	235.32
416.31	236.02
416.68	236.67
417.06	237.43
417.43	238.13
417.81	238.93
418.18	239.74
418.55	240.60
418.93	241.49
419.30	242.41
419.67	243.39
420.04	244.42
420.42	245.44
420.79	246.69
421.16	247.87
421.54	249.13
421.91	250.41
422.28	251.68
422.66	253.09
423.03	254.38
423.40	255.77
423.77	257.29
424.15	258.74
424.52	260.32
424.89	261.98
425.26	263.63
425.64	265.15
426.01	266.81
426.38	268.56
426.75	270.33
427.13	272.21
427.50	274.08
427.87	276.09
428.24	278.00
428.61	279.83
428.99	281.82
429.36	284.01
429.73	286.15
430.10	288.24
430.47	290.36
430.85	292.60
431.22	294.96
431.59	297.44
431.96	299.82
432.33	302.38
432.70	304.85
433.08	307.79
433.45	310.55
433.82	313.20
434.19	316.20
434.56	319.08
434.93	321.76
435.30	324.47
435.68	327.42
436.05	330.42
436.42	333.31
436.79	335.95
437.16	338.73
437.53	341.65
437.90	344.60
438.27	347.44
438.64	350.37
439.01	353.03
439.38	355.32
439.75	357.53
440.13	360.15
440.50	362.52
440.87	364.41
441.24	366.42
441.61	368.74
441.98	370.30
442.35	372.24
442.72	374.19
443.09	376.12
443.46	377.14
443.83	377.74
444.20	378.28
444.57	379.18
444.94	379.54
445.31	379.93
445.68	380.31
446.05	380.44
446.42	380.04
446.79	379.62
447.16	379.17
447.53	378.87
447.90	377.64
448.27	376.48
448.64	374.86
449.01	373.68
449.37	371.65
449.74	369.71
450.11	367.40
450.48	364.83
450.85	362.18
451.22	359.98
451.59	357.90
451.96	355.91
452.33	353.24
452.70	350.78
453.07	347.83
453.43	344.81
453.80	341.95
454.17	339.19
454.54	336.53
454.91	333.72
455.28	330.95
455.65	328.43
456.02	325.90
456.38	323.72
456.75	320.98
457.12	318.63
457.49	316.30
457.86	314.00
458.23	312.09
458.59	309.96
458.96	307.78
459.33	305.84
459.70	303.94
460.07	302.34
460.43	300.56
460.80	298.88
461.17	297.38
461.54	295.79
461.91	294.35
462.27	292.85
462.64	291.55
463.01	290.12
463.38	288.75
463.74	287.33
464.11	286.07
464.48	284.99
464.85	283.84
465.21	282.94
465.58	281.98
465.95	280.83
466.32	279.92
466.68	279.02
467.05	278.09
467.42	277.13
467.78	276.16
468.15	275.25
468.52	274.58
468.88	273.70
469.25	272.93
469.62	272.24
469.98	271.58
470.35	270.95
470.72	270.34
471.08	269.63
471.45	269.07
471.82	268.50
472.18	267.88
472.55	267.43
472.92	266.87
473.28	266.43
473.65	265.98
474.02	265.54
474.38	265.15
474.75	264.81
475.11	264.44
475.48	264.19
475.85	263.95
476.21	263.70
476.58	263.52
476.94	263.33
477.31	263.16
477.67	263.01
478.04	262.87
478.41	262.81
478.77	262.90
479.14	262.82
479.50	262.86
479.87	262.93
480.23	263.00
480.60	263.05
480.96	263.09
481.33	263.30
481.69	263.46
482.06	263.63
482.42	263.83
482.79	264.09
483.15	264.38
483.52	264.78
483.88	265.12
484.25	265.52
484.61	265.97
484.98	266.45
485.34	267.01
485.71	267.62
486.07	268.23
486.44	268.76
486.80	269.45
487.17	270.17
487.53	271.00
487.90	271.86
488.26	272.83
488.62	273.84
488.99	274.79
489.35	275.85
489.72	276.97
490.08	278.19
490.44	279.43
490.81	280.76
491.17	282.10
491.54	283.57
491.90	285.07
492.26	286.67
492.63	288.37
492.99	290.09
493.36	291.94
493.72	293.98
494.08	296.09
494.45	298.32
494.81	300.68
495.17	303.07
495.54	305.60
495.90	308.23
496.26	311.02
496.63	313.95
496.99	317.10
497.35	320.38
497.72	323.72
498.08	327.17
498.44	330.82
498.80	334.69
499.17	338.70
499.53	342.86
499.89	347.18
500.26	351.60
500.62	356.19
500.98	361.12
501.34	366.12
501.71	371.40
502.07	376.74
502.43	382.30
502.79	388.02
503.16	394.03
503.52	400.26
503.88	406.51
504.24	413.01
504.60	419.66
504.97	426.66
505.33	433.87
505.69	441.47
506.05	449.14
506.41	456.91
506.78	464.90
507.14	473.20
507.50	481.78
507.86	490.71
508.22	499.79
508.59	508.81
508.95	518.22
509.31	527.82
509.67	537.78
510.03	547.83
510.39	558.18
510.75	568.68
511.12	579.31
511.48	590.44
511.84	601.73
512.20	612.96
512.56	624.60
512.92	636.53
513.28	648.57
513.64	660.73
514.00	673.07
514.37	685.71
514.73	698.46
515.09	711.19
515.45	724.07
515.81	737.36
516.17	750.92
516.53	764.63
516.89	778.45
517.25	792.27
517.61	806.29
517.97	820.37
518.33	834.49
518.69	848.94
519.05	863.38
519.41	878.05
519.77	893.16
520.13	908.26
520.49	923.15
520.85	938.01
521.21	953.27
521.57	969.07
521.93	984.39
522.29	1000.15
522.65	1015.97
523.01	1031.68
523.37	1047.27
523.73	1063.10
524.09	1078.75
524.45	1094.50
524.81	1110.65
525.17	1126.98
525.53	1143.38
525.89	1159.67
526.25	1175.95
526.61	1191.87
526.97	1208.04
527.33	1224.18
527.68	1240.18
528.04	1256.28
528.40	1272.45
528.76	1289.03
529.12	1305.11
529.48	1321.54
529.84	1337.13
530.20	1353.28
530.56	1369.95
530.91	1386.80
531.27	1403.05
531.63	1419.14
531.99	1435.35
532.35	1450.96
532.71	1466.42
533.07	1482.21
533.42	1497.74
533.78	1513.44
534.14	1529.25
534.50	1544.24
534.86	1559.68
535.21	1574.57
535.57	1589.95
535.93	1605.02
536.29	1619.43
536.65	1634.22
537.00	1648.55
537.36	1663.61
537.72	1677.89
538.08	1692.04
538.44	1705.63
538.79	1719.35
539.15	1732.63
539.51	1746.13
539.87	1760.14
540.22	1773.45
540.58	1786.97
540.94	1800.08
541.29	1812.66
541.65	1825.25
542.01	1838.37
542.37	1850.62
542.72	1862.90
543.08	1874.73
543.44	1887.22
543.79	1898.53
544.15	1909.44
544.51	1921.06
544.87	1931.85
545.22	1942.69
545.58	1952.76
545.94	1962.44
546.29	1972.27
546.65	1982.34
547.01	1991.70
547.36	2000.61
547.72	2009.54
548.07	2017.56
548.43	2025.90
548.79	2034.03
549.14	2041.82
549.50	2049.29
549.86	2056.98
550.21	2064.46
550.57	2071.88
550.92	2078.64
551.28	2085.98
551.64	2093.14
551.99	2099.86
552.35	2106.51
552.70	2112.78
553.06	2119.19
553.41	2125.93
553.77	2132.10
554.13	2138.30
554.48	2144.69
554.84	2150.48
555.19	2155.73
555.55	2161.20
555.90	2165.97
556.26	2171.34
556.61	2176.34
556.97	2181.22
557.32	2185.76
557.68	2190.28
558.03	2194.73
558.39	2198.70
558.74	2203.51
559.10	2207.78
559.45	2211.71
559.81	2216.22
560.16	2220.43
560.52	2223.94
560.87	2227.54
561.23	2230.68
561.58	2233.91
561.94	2236.79
562.29	2239.35
562.64	2242.59
563.00	2245.57
563.35	2249.50
563.71	2252.92
564.06	2256.28
564.42	2259.41
564.77	2262.43
565.12	2265.28
565.48	2267.80
565.83	2270.19
566.19	2271.92
566.54	2273.23
566.89	2274.93
567.25	2276.06
567.60	2277.71
567.96	2279.93
568.31	2281.28
568.66	2282.83
569.02	2283.83
569.37	2284.55
569.72	2285.93
570.08	2286.66
570.43	2287.14
570.78	2287.04
571.14	2285.89
571.49	2285.14
571.84	2285.19
572.20	2284.41
572.55	2283.53
572.90	2282.18
573.26	2281.16
573.61	2279.73
573.96	2278.47
574.31	2275.94
574.67	2273.28
575.02	2269.96
575.37	2266.86
575.72	2263.57
576.08	2260.58
576.43	2257.54
576.78	2254.38
577.13	2251.42
577.49	2248.34
577.84	2245.18
578.19	2241.59
578.54	2238.48
578.90	2234.74
579.25	2229.45
579.60	2225.00
579.95	2220.46
580.30	2215.82
580.66	2210.98
581.01	2206.42
581.36	2201.76
581.71	2197.91
582.06	2193.86
582.42	2189.84
582.77	2184.99
583.12	2180.63
583.47	2176.33
583.82	2171.84
584.17	2166.82
584.53	2161.58
584.88	2156.29
585.23	2150.92
585.58	2145.84
585.93	2140.68
586.28	2135.96
586.63	2131.30
586.98	2126.42
587.34	2121.86
587.69	2117.09
588.04	2112.24
588.39	2106.88
588.74	2100.67
589.09	2094.67
589.44	2088.17
589.79	2082.18
590.14	2076.59
590.49	2070.11
590.84	2063.72
591.19	2057.83
591.54	2051.56
591.89	2044.79
592.25	2038.44
592.60	2031.39
592.95	2024.03
593.30	2016.84
593.65	2009.51
594.00	2002.67
594.35	1995.58
594.70	1987.52
595.05	1980.90
595.40	1973.54
595.75	1966.15
596.10	1960.22
596.45	1953.70
596.80	1947.68
597.15	1941.36
597.50	1934.79
597.85	1928.61
598.19	1922.30
598.54	1915.62
598.89	1909.14
599.24	1903.20
599.59	1896.80
599.94	1890.69
600.29	1884.53
600.64	1877.86
600.99	1870.66
601.34	1864.02
601.69	1856.93
602.04	1850.42
602.39	1843.01
602.74	1836.45
603.08	1829.88
603.43	1823.08
603.78	1815.86
604.13	1808.70
604.48	1801.68
604.83	1794.74
605.18	1788.02
605.53	1779.91
605.87	1771.75
606.22	1764.57
606.57	1756.63
606.92	1749.02
607.27	1742.02
607.62	1735.25
607.96	1728.24
608.31	1721.72
608.66	1714.05
609.01	1706.75
609.36	1699.31
609.70	1691.34
610.05	1683.29
610.40	1675.65
610.75	1667.42
611.10	1659.74
611.44	1651.22
611.79	1642.95
612.14	1634.32
612.49	1624.89
612.83	1616.57
613.18	1608.34
613.53	1600.15
613.88	1591.62
614.22	1583.41
614.57	1574.61
614.92	1566.46
615.27	1558.92
615.61	1550.53
615.96	1542.41
616.31	1534.65
616.65	1527.08
617.00	1519.40
617.35	1511.54
617.70	1503.07
618.04	1494.51
618.39	1486.21
618.74	1478.61
619.08	1470.35
619.43	1462.64
619.78	1455.67
620.12	1448.41
620.47	1440.83
620.82	1432.60
621.16	1424.96
621.51	1417.19
621.85	1409.45
622.20	1400.82
622.55	1392.25
622.89	1384.21
623.24	1376.47
623.59	1368.96
623.93	1361.39
624.28	1354.02
624.62	1346.56
624.97	1339.38
625.32	1332.47
625.66	1325.31
626.01	1318.09
626.35	1310.71
626.70	1302.75
627.04	1295.00
627.39	1287.11
627.73	1279.66
628.08	1272.62
628.43	1265.41
628.77	1258.05
629.12	1250.51
629.46	1243.26
629.81	1235.66
630.15	1228.35
630.50	1220.90
630.84	1212.63
631.19	1204.56
631.53	1196.93
631.88	1189.09
632.22	1181.28
632.57	1173.82
632.91	1166.23
633.26	1158.74
633.60	1151.16
633.95	1143.90
634.29	1136.63
634.64	1129.93
634.98	1122.57
635.32	1115.45
635.67	1108.68
636.01	1101.92
636.36	1095.13
636.70	1088.39
637.05	1081.82
637.39	1075.31
637.73	1068.74
638.08	1062.74
638.42	1056.71
638.77	1050.25
639.11	1043.79
639.45	1037.39
639.80	1030.83
640.14	1024.43
640.49	1017.79
640.83	1011.43
641.17	1005.30
641.52	999.12
641.86	992.43
642.20	986.53
642.55	980.00
642.89	973.46
643.23	966.86
643.58	960.92
643.92	954.79
644.26	948.77
644.61	942.69
644.95	936.72
645.29	930.19
645.64	923.42
645.98	917.02
646.32	911.02
646.66	904.99
647.01	899.09
647.35	893.25
647.69	887.34
648.04	881.75
648.38	875.90
648.72	869.91
649.06	863.97
649.41	858.03
649.75	852.12
650.09	846.22
650.43	840.42
650.78	834.22
651.12	828.23
651.46	822.39
651.80	816.68
652.14	811.10
652.49	805.75
652.83	800.60
653.17	794.99
653.51	789.33
653.85	783.85
654.20	778.22
654.54	772.21
654.88	766.43
655.22	760.44
655.56	754.65
655.90	749.08
656.25	743.89
656.59	738.48
656.93	733.37
657.27	728.25
657.61	722.76
657.95	717.68
658.29	712.59
658.64	707.25
658.98	701.85
659.32	696.38
659.66	691.05
660.00	685.75
660.34	680.75
660.68	675.77
661.02	670.79
661.36	666.07
661.70	661.56
662.05	657.28
662.39	653.01
662.73	648.61
663.07	644.21
663.41	639.72
663.75	635.32
664.09	630.80
664.43	626.38
664.77	622.33
665.11	618.10
665.45	613.97
665.79	609.96
666.13	605.88
666.47	601.80
666.81	597.69
667.15	593.47
667.49	589.50
667.83	585.62
668.17	581.62
668.51	577.54
668.85	573.49
669.19	569.54
669.53	565.71
669.87	561.87
670.21	558.13
670.55	554.44
670.89	550.94
671.23	547.49
671.57	543.90
671.91	540.36
672.25	536.77
672.58	533.27
672.92	529.81
673.26	526.56
673.60	523.38
673.94	520.22
674.28	517.31
674.62	514.33
674.96	511.30
675.30	508.45
675.64	505.50
675.97	502.71
676.31	499.87
676.65	496.87
676.99	494.09
677.33	491.24
677.67	488.41
678.01	485.39
678.34	482.34
678.68	479.45
679.02	476.60
679.36	473.78
679.70	470.97
680.04	468.21
680.37	465.40
680.71	462.59
681.05	459.95
681.39	457.17
681.73	454.54
682.06	451.94
682.40	449.31
682.74	446.78
683.08	444.19
683.42	441.55
683.75	439.09
684.09	436.50
684.43	433.98
684.77	431.45
685.10	429.02
685.44	426.68
685.78	424.36
686.12	422.04
686.45	419.78
686.79	417.47
687.13	415.21
687.46	413.00
687.80	410.82
688.14	408.51
688.48	406.48
688.81	404.24
689.15	402.04
689.49	399.85
689.82	397.70
690.16	395.55
690.50	393.58
690.83	391.59
691.17	389.55
691.51	387.63
691.84	385.78
692.18	383.89
692.52	381.92
692.85	379.96
693.19	378.07
693.52	376.19
693.86	374.34
694.20	372.57
694.53	370.78
694.87	368.93
695.21	367.16
695.54	365.25
695.88	363.46
696.21	361.74
696.55	360.05
696.88	358.39
697.22	356.78
697.56	355.06
697.89	353.42
698.23	351.84
698.56	350.22
698.90	348.66
699.23	347.00
699.57	345.43
699.90	343.84
700.24	342.28
700.58	340.74
700.91	339.24
701.25	337.75
701.58	336.33
701.92	334.94
702.25	333.57
702.59	332.21
702.92	330.92
703.26	329.60
703.59	328.29
703.93	327.04
704.26	325.80
704.60	324.52
704.93	323.22
705.26	321.92
705.60	320.73
705.93	319.50
706.27	318.45
706.60	317.36
706.94	316.25
707.27	315.12
707.61	314.05
707.94	313.02
708.27	311.91
708.61	310.80
708.94	309.79
709.28	308.76
709.61	307.78
709.94	306.79
710.28	305.77
710.61	304.79
710.95	303.74
711.28	302.79
711.61	301.84
711.95	300.90
712.28	299.96
712.61	298.95
712.95	297.99
713.28	297.06
713.61	296.16
713.95	295.31
714.28	294.46
714.61	293.57
714.95	292.68
715.28	291.83
715.61	290.94
715.95	290.05
716.28	289.15
716.61	288.30
716.95	287.46
717.28	286.66
717.61	285.85
717.94	285.09
718.28	284.27
718.61	283.51
718.94	282.76
719.27	282.12
719.61	281.48
719.94	280.82
720.27	280.07
720.60	279.35
720.94	278.71
721.27	278.07
721.60	277.48
721.93	276.84
722.27	276.26
722.60	275.71
722.93	275.10
723.26	274.58
723.59	274.01
723.93	273.46
724.26	272.90
724.59	272.32
724.92	271.77
725.25	271.25
725.59	270.70
725.92	270.20
726.25	269.66
726.58	269.14
726.91	268.66
727.24	268.17
727.57	267.71
727.91	267.19
728.24	266.73
728.57	266.22
728.90	265.78
729.23	265.26
729.56	264.82
729.89	264.33
730.22	263.83
730.55	263.33
730.89	262.85
731.22	262.40
731.55	261.97
731.88	261.51
732.21	261.07
732.54	260.68
732.87	260.23
733.20	259.77
733.53	259.38
733.86	259.01
734.19	258.63
734.52	258.26
734.85	257.91
735.18	257.48
735.51	257.08
735.84	256.72
736.17	256.38
736.50	255.98
736.83	255.75
737.16	255.43
737.49	255.11
737.82	254.74
738.15	254.43
738.48	254.10
738.81	253.81
739.14	253.46
739.47	253.13
739.80	252.85
740.13	252.56
740.46	252.21
740.79	251.87
741.12	251.54
741.45	251.16
741.78	250.81
742.11	250.53
742.44	250.21
742.77	249.90
743.10	249.59
743.43	249.28
743.75	248.89
744.08	248.72
744.41	248.44
744.74	248.19
745.07	247.88
745.40	247.63
745.73	247.36
746.06	247.08
746.39	246.81
746.71	246.51
747.04	246.21
747.37	245.95
747.70	245.68
748.03	245.45
748.36	245.25
748.68	245.02
749.01	244.76
749.34	244.54
749.67	244.33
750.00	244.14
750.33	243.98
750.65	243.76
750.98	243.40
751.31	243.19
751.64	242.98
751.97	242.83
752.29	242.57
752.62	242.31
752.95	242.14
753.28	241.94
753.60	241.77
753.93	241.61
754.26	241.38
754.59	241.14
754.91	240.90
755.24	240.71
755.57	240.52
755.90	240.34
756.22	240.14
756.55	239.93
756.88	239.73
757.20	239.50
757.53	239.28
757.86	239.16
758.19	238.98
758.51	238.77
758.84	238.55
759.17	238.39
759.49	238.26
759.82	238.10
760.15	237.94
760.47	237.75
760.80	237.58
761.13	237.49
761.45	237.34
761.78	237.20
762.11	237.06
762.43	236.90
762.76	236.74
763.08	236.63
763.41	236.46
763.74	236.29
764.06	236.12
764.39	235.97
764.71	235.81
765.04	235.67
765.37	235.54
765.69	235.41
766.02	235.27
766.34	235.11
766.67	234.95
767.00	234.83
767.32	234.75
767.65	234.66
767.97	234.56
768.30	234.46
768.62	234.37
768.95	234.24
769.27	234.15
769.60	234.03
769.92	233.88
770.25	233.76
770.57	233.63
770.90	233.57
771.22	233.47
771.55	233.39
771.87	233.30
772.20	233.19
772.52	233.20
772.85	233.21
773.17	233.10
773.50	232.98
773.82	232.85
774.15	232.71
774.47	232.59
774.80	232.45
775.12	232.36
775.45	232.27
775.77	232.17
776.09	232.08
776.42	232.00
776.74	231.98
777.07	231.92
777.39	231.87
777.72	231.75
778.04	231.71
778.36	231.62
778.69	231.56
779.01	231.51
779.33	231.35
779.66	231.18
779.98	231.17
780.31	231.14
780.63	231.16
780.95	231.14
781.28	231.07
781.60	231.00
781.92	230.92
782.25	230.84
782.57	230.80
782.89	230.72
783.22	230.65
783.54	230.54
783.86	230.50
784.19	230.46
784.51	230.48
784.83	230.42
785.16	230.35
785.48	230.28
785.80	230.24
786.12	230.21
786.45	230.17
786.77	230.11
787.09	230.09
