SpectraSuite Data File
++++++++++++++++++++++++++++++++++++
Date: Fri Feb 01 17:13:20 EST 2013
User: group
Dark Spectrum Present: No
Reference Spectrum Present: No
Number of Sampled Component Spectra: 1
Spectrometers: USB2E7196
Integration Time (usec): 35000 (USB2E7196)
Spectra Averaged: 100 (USB2E7196)
Boxcar Smoothing: 10 (USB2E7196)
Correct for Electrical Dark: No (USB2E7196)
Strobe/Lamp Enabled: No (USB2E7196)
Correct for Detector Non-linearity: No (USB2E7196)
Correct for Stray Light: No (USB2E7196)
Number of Pixels in Processed Spectrum: 2048
>>>>>Begin Processed Spectral Data<<<<<
339.09	0.00
339.48	213.13
339.86	214.90
340.24	216.36
340.63	217.56
341.01	220.41
341.39	219.88
341.78	221.91
342.16	222.17
342.54	223.68
342.93	211.75
343.31	222.45
343.69	222.98
344.07	223.43
344.46	223.84
344.84	224.23
345.22	224.45
345.60	224.70
345.99	224.87
346.37	225.00
346.75	225.08
347.13	225.10
347.52	225.17
347.90	225.25
348.28	225.30
348.66	225.33
349.05	225.33
349.43	225.37
349.81	225.39
350.19	225.42
350.57	225.45
350.96	225.49
351.34	225.56
351.72	225.66
352.10	225.75
352.48	225.82
352.87	225.88
353.25	225.93
353.63	226.00
354.01	226.03
354.39	226.10
354.77	226.19
355.15	226.33
355.54	226.38
355.92	226.41
356.30	226.46
356.68	226.59
357.06	226.67
357.44	226.71
357.82	226.77
358.20	226.83
358.58	226.88
358.97	226.92
359.35	226.98
359.73	227.06
360.11	227.05
360.49	227.09
360.87	227.10
361.25	227.17
361.63	227.25
362.01	227.31
362.39	227.37
362.77	227.37
363.15	227.38
363.53	227.41
363.91	227.46
364.29	227.49
364.67	227.40
365.05	227.39
365.43	227.41
365.81	227.44
366.19	227.45
366.57	227.48
366.95	227.51
367.33	227.53
367.71	227.50
368.09	227.59
368.47	227.58
368.85	227.58
369.23	227.60
369.61	227.55
369.99	227.57
370.37	227.56
370.75	227.59
371.13	227.53
371.51	227.48
371.89	227.43
372.27	227.39
372.65	227.36
373.03	227.31
373.41	227.27
373.78	227.19
374.16	227.14
374.54	227.05
374.92	226.99
375.30	226.91
375.68	226.85
376.06	226.78
376.44	226.71
376.82	226.65
377.19	226.55
377.57	226.48
377.95	226.39
378.33	226.29
378.71	226.16
379.09	226.13
379.47	226.07
379.84	225.99
380.22	225.91
380.60	225.80
380.98	225.76
381.36	225.70
381.73	225.67
382.11	225.62
382.49	225.61
382.87	225.52
383.25	225.47
383.62	225.55
384.00	225.47
384.38	225.43
384.76	225.43
385.13	225.44
385.51	225.39
385.89	225.33
386.27	225.29
386.64	225.25
387.02	225.20
387.40	225.17
387.78	225.15
388.15	225.11
388.53	225.11
388.91	225.09
389.29	225.07
389.66	225.05
390.04	225.03
390.42	225.00
390.79	225.00
391.17	224.98
391.55	224.84
391.92	224.83
392.30	224.83
392.68	224.77
393.05	224.77
393.43	224.79
393.81	224.80
394.18	224.83
394.56	224.82
394.94	224.87
395.31	224.86
395.69	224.93
396.06	224.98
396.44	225.00
396.82	225.01
397.19	225.07
397.57	225.08
397.95	225.10
398.32	225.11
398.70	225.16
399.07	225.21
399.45	225.20
399.82	225.22
400.20	225.26
400.58	225.32
400.95	225.31
401.33	225.40
401.70	225.50
402.08	225.54
402.45	225.64
402.83	225.71
403.20	225.84
403.58	225.89
403.95	225.99
404.33	226.08
404.71	226.21
405.08	226.38
405.46	226.53
405.83	226.68
406.21	226.79
406.58	226.94
406.96	227.13
407.33	227.34
407.70	227.55
408.08	227.82
408.45	228.04
408.83	228.28
409.20	228.47
409.58	228.66
409.95	228.95
410.33	229.25
410.70	229.50
411.08	229.79
411.45	230.09
411.82	230.38
412.20	230.76
412.57	231.18
412.95	231.45
413.32	231.85
413.69	232.28
414.07	232.74
414.44	233.22
414.82	233.69
415.19	234.29
415.56	234.84
415.94	235.40
416.31	236.04
416.68	236.67
417.06	237.38
417.43	238.07
417.81	238.85
418.18	239.61
418.55	240.48
418.93	241.37
419.30	242.31
419.67	243.28
420.04	244.27
420.42	245.28
420.79	246.51
421.16	247.69
421.54	248.89
421.91	250.14
422.28	251.45
422.66	252.80
423.03	254.11
423.40	255.50
423.77	256.93
424.15	258.42
424.52	259.96
424.89	261.62
425.26	263.23
425.64	264.69
426.01	266.34
426.38	268.03
426.75	269.75
427.13	271.50
427.50	273.34
427.87	275.26
428.24	277.13
428.61	278.89
428.99	280.89
429.36	283.03
429.73	285.14
430.10	287.14
430.47	289.24
430.85	291.40
431.22	293.63
431.59	296.03
431.96	298.27
432.33	300.78
432.70	303.20
433.08	306.03
433.45	308.70
433.82	311.29
434.19	314.22
434.56	317.05
434.93	319.74
435.30	322.41
435.68	325.32
436.05	328.24
436.42	331.09
436.79	333.63
437.16	336.35
437.53	339.23
437.90	342.12
438.27	344.92
438.64	347.75
439.01	350.42
439.38	352.71
439.75	354.87
440.13	357.43
440.50	359.83
440.87	361.72
441.24	363.72
441.61	365.97
441.98	367.52
442.35	369.37
442.72	371.30
443.09	373.14
443.46	374.18
443.83	374.76
444.20	375.21
444.57	376.10
444.94	376.40
445.31	376.75
445.68	377.14
446.05	377.22
446.42	376.87
446.79	376.46
447.16	376.01
447.53	375.72
447.90	374.53
448.27	373.33
448.64	371.74
449.01	370.58
449.37	368.58
449.74	366.62
450.11	364.31
450.48	361.79
450.85	359.19
451.22	356.97
451.59	354.90
451.96	352.98
452.33	350.31
452.70	347.90
453.07	345.00
453.43	342.06
453.80	339.27
454.17	336.53
454.54	333.93
454.91	331.17
455.28	328.41
455.65	325.88
456.02	323.39
456.38	321.19
456.75	318.54
457.12	316.27
457.49	313.99
457.86	311.79
458.23	309.92
458.59	307.87
458.96	305.76
459.33	303.87
459.70	301.99
460.07	300.47
460.43	298.69
460.80	297.03
461.17	295.57
461.54	294.01
461.91	292.58
462.27	291.11
462.64	289.81
463.01	288.49
463.38	287.19
463.74	285.81
464.11	284.59
464.48	283.49
464.85	282.32
465.21	281.45
465.58	280.51
465.95	279.38
466.32	278.44
466.68	277.57
467.05	276.68
467.42	275.77
467.78	274.82
468.15	274.00
468.52	273.32
468.88	272.45
469.25	271.68
469.62	271.05
469.98	270.36
470.35	269.75
470.72	269.17
471.08	268.53
471.45	267.97
471.82	267.41
472.18	266.83
472.55	266.45
472.92	265.93
473.28	265.48
473.65	265.04
474.02	264.60
474.38	264.25
474.75	263.91
475.11	263.60
475.48	263.35
475.85	263.16
476.21	262.96
476.58	262.76
476.94	262.66
477.31	262.47
477.67	262.35
478.04	262.24
478.41	262.16
478.77	262.18
479.14	262.15
479.50	262.18
479.87	262.29
480.23	262.34
480.60	262.42
480.96	262.48
481.33	262.69
481.69	262.92
482.06	263.10
482.42	263.31
482.79	263.54
483.15	263.84
483.52	264.17
483.88	264.54
484.25	264.94
484.61	265.32
484.98	265.80
485.34	266.36
485.71	266.98
486.07	267.58
486.44	268.16
486.80	268.82
487.17	269.58
487.53	270.33
487.90	271.15
488.26	272.08
488.62	273.08
488.99	274.02
489.35	275.08
489.72	276.23
490.08	277.45
490.44	278.68
490.81	280.01
491.17	281.37
491.54	282.83
491.90	284.35
492.26	285.97
492.63	287.70
492.99	289.48
493.36	291.35
493.72	293.43
494.08	295.57
494.45	297.84
494.81	300.22
495.17	302.64
495.54	305.24
495.90	307.93
496.26	310.72
496.63	313.69
496.99	316.76
497.35	319.96
497.72	323.36
498.08	326.93
498.44	330.61
498.80	334.50
499.17	338.54
499.53	342.71
499.89	347.12
500.26	351.63
500.62	356.25
500.98	361.19
501.34	366.23
501.71	371.54
502.07	376.95
502.43	382.52
502.79	388.36
503.16	394.36
503.52	400.58
503.88	406.95
504.24	413.52
504.60	420.27
504.97	427.39
505.33	434.60
505.69	442.18
506.05	449.89
506.41	457.72
506.78	465.79
507.14	474.19
507.50	482.84
507.86	491.79
508.22	500.89
508.59	510.08
508.95	519.49
509.31	529.17
509.67	539.17
510.03	549.33
510.39	559.75
510.75	570.37
511.12	581.16
511.48	592.37
511.84	603.71
512.20	615.10
512.56	626.81
512.92	638.81
513.28	651.01
513.64	663.25
514.00	675.78
514.37	688.57
514.73	701.40
515.09	714.16
515.45	727.14
515.81	740.55
516.17	754.20
516.53	768.11
516.89	782.05
517.25	795.97
517.61	810.16
517.97	824.45
518.33	838.67
518.69	853.20
519.05	867.88
519.41	882.63
519.77	897.92
520.13	913.20
520.49	928.40
520.85	943.45
521.21	958.95
521.57	974.89
521.93	990.34
522.29	1006.36
522.65	1022.43
523.01	1038.33
523.37	1054.02
523.73	1069.85
524.09	1085.73
524.45	1101.67
524.81	1117.96
525.17	1134.35
525.53	1150.80
525.89	1167.30
526.25	1183.84
526.61	1199.99
526.97	1216.57
527.33	1232.71
527.68	1248.94
528.04	1265.05
528.40	1281.34
528.76	1298.16
529.12	1314.42
529.48	1331.02
529.84	1346.80
530.20	1362.98
530.56	1379.61
530.91	1396.67
531.27	1413.31
531.63	1429.40
531.99	1445.67
532.35	1461.50
532.71	1477.13
533.07	1493.21
533.42	1509.02
533.78	1524.93
534.14	1540.88
534.50	1555.90
534.86	1571.52
535.21	1586.48
535.57	1601.98
535.93	1617.28
536.29	1631.71
536.65	1646.56
537.00	1660.92
537.36	1675.94
537.72	1690.27
538.08	1704.52
538.44	1718.06
538.79	1731.66
539.15	1744.98
539.51	1758.37
539.87	1772.34
540.22	1785.79
540.58	1799.02
540.94	1811.94
541.29	1824.24
541.65	1836.58
542.01	1849.55
542.37	1861.65
542.72	1873.78
543.08	1885.50
543.44	1897.71
543.79	1908.76
544.15	1919.61
544.51	1931.18
544.87	1942.07
545.22	1952.82
545.58	1963.05
545.94	1972.95
546.29	1982.76
546.65	1992.64
547.01	2002.18
547.36	2010.95
547.72	2019.67
548.07	2027.98
548.43	2036.18
548.79	2044.21
549.14	2052.07
549.50	2059.43
549.86	2067.14
550.21	2074.46
550.57	2081.78
550.92	2088.42
551.28	2095.71
551.64	2102.78
551.99	2109.24
552.35	2115.45
552.70	2121.72
553.06	2127.75
553.41	2134.19
553.77	2140.11
554.13	2146.33
554.48	2152.40
554.84	2158.19
555.19	2163.40
555.55	2168.58
555.90	2173.31
556.26	2178.61
556.61	2183.28
556.97	2188.03
557.32	2192.54
557.68	2197.08
558.03	2201.51
558.39	2205.47
558.74	2210.28
559.10	2214.43
559.45	2218.46
559.81	2222.87
560.16	2226.88
560.52	2230.48
560.87	2234.05
561.23	2237.10
561.58	2240.07
561.94	2242.96
562.29	2245.26
562.64	2248.51
563.00	2251.28
563.35	2255.09
563.71	2258.36
564.06	2261.68
564.42	2264.80
564.77	2267.50
565.12	2270.25
565.48	2272.66
565.83	2274.76
566.19	2276.41
566.54	2277.42
566.89	2278.86
567.25	2279.90
567.60	2281.38
567.96	2283.39
568.31	2284.48
568.66	2285.85
569.02	2286.92
569.37	2287.55
569.72	2288.74
570.08	2289.01
570.43	2289.27
570.78	2288.92
571.14	2287.79
571.49	2286.80
571.84	2286.45
572.20	2285.66
572.55	2284.62
572.90	2282.94
573.26	2281.91
573.61	2280.32
573.96	2279.20
574.31	2276.53
574.67	2273.86
575.02	2270.50
575.37	2267.23
575.72	2263.74
576.08	2260.45
576.43	2257.26
576.78	2253.88
577.13	2250.89
577.49	2247.78
577.84	2244.61
578.19	2241.10
578.54	2237.85
578.90	2234.12
579.25	2228.89
579.60	2224.21
579.95	2219.52
580.30	2214.83
580.66	2209.79
581.01	2204.94
581.36	2199.96
581.71	2196.15
582.06	2191.88
582.42	2187.84
582.77	2182.89
583.12	2178.56
583.47	2174.47
583.82	2169.81
584.17	2164.71
584.53	2159.47
584.88	2154.15
585.23	2148.72
585.58	2143.34
585.93	2137.91
586.28	2132.99
586.63	2128.32
586.98	2123.39
587.34	2118.82
587.69	2114.09
588.04	2109.28
588.39	2103.83
588.74	2097.56
589.09	2091.35
589.44	2084.74
589.79	2078.56
590.14	2072.95
590.49	2066.47
590.84	2060.04
591.19	2054.27
591.54	2048.02
591.89	2041.05
592.25	2034.73
592.60	2027.63
592.95	2020.32
593.30	2013.11
593.65	2005.78
594.00	1998.64
594.35	1991.55
594.70	1983.52
595.05	1976.61
595.40	1969.27
595.75	1962.09
596.10	1956.17
596.45	1949.76
596.80	1943.80
597.15	1937.52
597.50	1930.95
597.85	1924.63
598.19	1918.10
598.54	1911.27
598.89	1904.83
599.24	1898.93
599.59	1892.38
599.94	1886.14
600.29	1879.88
600.64	1873.39
600.99	1866.09
601.34	1859.58
601.69	1852.52
602.04	1845.89
602.39	1838.74
602.74	1832.10
603.08	1825.47
603.43	1818.66
603.78	1811.27
604.13	1804.13
604.48	1797.08
604.83	1790.09
605.18	1783.41
605.53	1775.48
605.87	1767.34
606.22	1759.90
606.57	1751.91
606.92	1744.24
607.27	1737.18
607.62	1730.21
607.96	1723.08
608.31	1716.63
608.66	1709.05
609.01	1701.67
609.36	1694.14
609.70	1685.97
610.05	1677.80
610.40	1670.07
610.75	1661.84
611.10	1654.28
611.44	1645.79
611.79	1637.62
612.14	1628.98
612.49	1619.67
612.83	1611.17
613.18	1603.04
613.53	1594.89
613.88	1586.31
614.22	1578.13
614.57	1569.36
614.92	1561.51
615.27	1554.01
615.61	1545.77
615.96	1537.68
616.31	1529.83
616.65	1522.43
617.00	1514.87
617.35	1507.09
617.70	1498.74
618.04	1490.27
618.39	1481.87
618.74	1474.29
619.08	1465.91
619.43	1458.18
619.78	1451.18
620.12	1444.18
620.47	1436.60
620.82	1428.46
621.16	1421.00
621.51	1413.31
621.85	1405.64
622.20	1397.00
622.55	1388.35
622.89	1380.33
623.24	1372.55
623.59	1365.15
623.93	1357.57
624.28	1350.31
624.62	1342.83
624.97	1335.50
625.32	1328.57
625.66	1321.53
626.01	1314.42
626.35	1307.07
626.70	1299.30
627.04	1291.61
627.39	1283.70
627.73	1276.24
628.08	1269.33
628.43	1262.17
628.77	1254.89
629.12	1247.51
629.46	1240.35
629.81	1232.87
630.15	1225.43
630.50	1218.08
630.84	1209.82
631.19	1201.66
631.53	1194.05
631.88	1186.42
632.22	1178.78
632.57	1171.42
632.91	1163.82
633.26	1156.25
633.60	1148.75
633.95	1141.45
634.29	1134.20
634.64	1127.49
634.98	1120.14
635.32	1112.91
635.67	1106.15
636.01	1099.47
636.36	1092.68
636.70	1086.06
637.05	1079.52
637.39	1073.18
637.73	1066.62
638.08	1060.77
638.42	1054.88
638.77	1048.46
639.11	1041.97
639.45	1035.60
639.80	1028.92
640.14	1022.53
640.49	1016.03
640.83	1009.68
641.17	1003.51
641.52	997.23
641.86	990.67
642.20	984.77
642.55	978.35
642.89	971.88
643.23	965.19
643.58	959.40
643.92	953.28
644.26	947.37
644.61	941.21
644.95	935.19
645.29	928.69
645.64	921.98
645.98	915.59
646.32	909.55
646.66	903.56
647.01	897.68
647.35	892.06
647.69	886.10
648.04	880.56
648.38	874.80
648.72	868.90
649.06	862.89
649.41	857.00
649.75	851.19
650.09	845.20
650.43	839.44
650.78	833.24
651.12	827.21
651.46	821.34
651.80	815.73
652.14	810.31
652.49	804.93
652.83	799.69
653.17	794.09
653.51	788.57
653.85	783.12
654.20	777.55
654.54	771.41
654.88	765.62
655.22	759.64
655.56	753.88
655.90	748.31
656.25	743.10
656.59	737.69
656.93	732.48
657.27	727.31
657.61	721.83
657.95	716.60
658.29	711.50
658.64	706.19
658.98	700.72
659.32	695.18
659.66	689.91
660.00	684.66
660.34	679.66
660.68	674.63
661.02	669.55
661.36	664.80
661.70	660.34
662.05	656.04
662.39	651.78
662.73	647.31
663.07	642.94
663.41	638.43
663.75	633.95
664.09	629.40
664.43	625.01
664.77	620.90
665.11	616.71
665.45	612.50
665.79	608.41
666.13	604.33
666.47	600.24
666.81	596.12
667.15	591.89
667.49	587.94
667.83	584.02
668.17	580.06
668.51	576.00
668.85	571.93
669.19	567.99
669.53	564.16
669.87	560.28
670.21	556.58
670.55	552.95
670.89	549.46
671.23	546.04
671.57	542.52
671.91	539.01
672.25	535.50
672.58	531.95
672.92	528.51
673.26	525.28
673.60	522.08
673.94	518.94
674.28	516.02
674.62	513.09
674.96	510.06
675.30	507.14
675.64	504.21
675.97	501.37
676.31	498.50
676.65	495.53
676.99	492.81
677.33	489.84
677.67	486.94
678.01	483.91
678.34	480.90
678.68	477.95
679.02	475.12
679.36	472.26
679.70	469.50
680.04	466.75
680.37	463.92
680.71	461.13
681.05	458.47
681.39	455.72
681.73	453.05
682.06	450.52
682.40	448.00
682.74	445.40
683.08	442.87
683.42	440.25
683.75	437.71
684.09	435.12
684.43	432.63
684.77	430.20
685.10	427.82
685.44	425.48
685.78	423.18
686.12	420.87
686.45	418.61
686.79	416.37
687.13	414.17
687.46	412.00
687.80	409.81
688.14	407.54
688.48	405.51
688.81	403.24
689.15	401.02
689.49	398.81
689.82	396.70
690.16	394.55
690.50	392.59
690.83	390.67
691.17	388.69
691.51	386.80
691.84	384.92
692.18	383.01
692.52	381.02
692.85	379.10
693.19	377.22
693.52	375.35
693.86	373.44
694.20	371.67
694.53	369.86
694.87	368.01
695.21	366.25
695.54	364.37
695.88	362.63
696.21	360.86
696.55	359.17
696.88	357.48
697.22	355.83
697.56	354.20
697.89	352.47
698.23	350.87
698.56	349.27
698.90	347.75
699.23	346.14
699.57	344.65
699.90	343.12
700.24	341.54
700.58	340.03
700.91	338.58
701.25	337.10
701.58	335.69
701.92	334.37
702.25	332.98
702.59	331.64
702.92	330.30
703.26	328.99
703.59	327.69
703.93	326.53
704.26	325.31
704.60	324.01
704.93	322.77
705.26	321.53
705.60	320.32
705.93	319.07
706.27	317.97
706.60	316.86
706.94	315.79
707.27	314.67
707.61	313.58
707.94	312.53
708.27	311.43
708.61	310.31
708.94	309.20
709.28	308.21
709.61	307.25
709.94	306.25
710.28	305.25
710.61	304.24
710.95	303.15
711.28	302.21
711.61	301.27
711.95	300.35
712.28	299.39
712.61	298.40
712.95	297.46
713.28	296.53
713.61	295.63
713.95	294.72
714.28	293.86
714.61	293.00
714.95	292.17
715.28	291.29
715.61	290.49
715.95	289.68
716.28	288.80
716.61	287.91
716.95	287.07
717.28	286.29
717.61	285.51
717.94	284.75
718.28	283.93
718.61	283.18
718.94	282.45
719.27	281.80
719.61	281.13
719.94	280.43
720.27	279.72
720.60	278.99
720.94	278.34
721.27	277.73
721.60	277.12
721.93	276.49
722.27	275.89
722.60	275.29
722.93	274.69
723.26	274.11
723.59	273.56
723.93	273.03
724.26	272.47
724.59	271.94
724.92	271.42
725.25	270.90
725.59	270.36
725.92	269.84
726.25	269.25
726.58	268.75
726.91	268.27
727.24	267.79
727.57	267.33
727.91	266.78
728.24	266.29
728.57	265.79
728.90	265.32
729.23	264.85
729.56	264.42
729.89	263.91
730.22	263.46
730.55	262.95
730.89	262.51
731.22	262.11
731.55	261.65
731.88	261.20
732.21	260.79
732.54	260.34
732.87	259.91
733.20	259.52
733.53	259.13
733.86	258.75
734.19	258.35
734.52	257.96
734.85	257.68
735.18	257.26
735.51	256.93
735.84	256.58
736.17	256.25
736.50	255.87
736.83	255.66
737.16	255.33
737.49	255.03
737.82	254.69
738.15	254.32
738.48	253.98
738.81	253.63
739.14	253.31
739.47	253.03
739.80	252.69
740.13	252.44
740.46	252.09
740.79	251.79
741.12	251.50
741.45	251.20
741.78	250.84
742.11	250.60
742.44	250.23
742.77	249.96
743.10	249.62
743.43	249.32
743.75	248.95
744.08	248.78
744.41	248.52
744.74	248.21
745.07	247.94
745.40	247.67
745.73	247.45
746.06	247.18
746.39	246.92
746.71	246.66
747.04	246.37
747.37	246.12
747.70	245.83
748.03	245.57
748.36	245.34
748.68	245.10
749.01	244.83
749.34	244.63
749.67	244.38
750.00	244.18
750.33	244.01
750.65	243.77
750.98	243.43
751.31	243.19
751.64	242.99
751.97	242.84
752.29	242.65
752.62	242.39
752.95	242.18
753.28	241.93
753.60	241.73
753.93	241.55
754.26	241.37
754.59	241.16
754.91	240.96
755.24	240.77
755.57	240.54
755.90	240.38
756.22	240.21
756.55	240.01
756.88	239.79
757.20	239.56
757.53	239.36
757.86	239.17
758.19	239.02
758.51	238.84
758.84	238.59
759.17	238.41
759.49	238.22
759.82	238.09
760.15	237.95
760.47	237.80
760.80	237.61
761.13	237.47
761.45	237.33
761.78	237.19
762.11	237.04
762.43	236.93
762.76	236.73
763.08	236.57
763.41	236.42
763.74	236.29
764.06	236.10
764.39	236.01
764.71	235.85
765.04	235.70
765.37	235.57
765.69	235.44
766.02	235.30
766.34	235.17
766.67	235.00
767.00	234.92
767.32	234.86
767.65	234.80
767.97	234.66
768.30	234.53
768.62	234.40
768.95	234.25
769.27	234.08
769.60	234.00
769.92	233.89
770.25	233.77
770.57	233.64
770.90	233.57
771.22	233.42
771.55	233.36
771.87	233.25
772.20	233.13
772.52	233.15
772.85	233.15
773.17	233.08
773.50	232.98
773.82	232.83
774.15	232.67
774.47	232.52
774.80	232.39
775.12	232.29
775.45	232.22
775.77	232.15
776.09	232.10
776.42	232.05
776.74	231.98
777.07	231.93
777.39	231.87
777.72	231.80
778.04	231.75
778.36	231.66
778.69	231.60
779.01	231.57
779.33	231.40
779.66	231.25
779.98	231.17
780.31	231.10
780.63	231.12
780.95	231.08
781.28	231.02
781.60	231.01
781.92	230.99
782.25	230.91
782.57	230.86
782.89	230.78
783.22	230.70
783.54	230.66
783.86	230.58
784.19	230.51
784.51	230.49
784.83	230.41
785.16	230.37
785.48	230.35
785.80	230.31
786.12	230.30
786.45	230.26
786.77	230.24
787.09	230.22
