SpectraSuite Data File
++++++++++++++++++++++++++++++++++++
Date: Fri Feb 01 17:45:31 EST 2013
User: group
Dark Spectrum Present: No
Reference Spectrum Present: No
Number of Sampled Component Spectra: 1
Spectrometers: USB2E7196
Integration Time (usec): 35000 (USB2E7196)
Spectra Averaged: 100 (USB2E7196)
Boxcar Smoothing: 10 (USB2E7196)
Correct for Electrical Dark: No (USB2E7196)
Strobe/Lamp Enabled: No (USB2E7196)
Correct for Detector Non-linearity: No (USB2E7196)
Correct for Stray Light: No (USB2E7196)
Number of Pixels in Processed Spectrum: 2048
>>>>>Begin Processed Spectral Data<<<<<
339.09	0.00
339.48	212.85
339.86	213.95
340.24	215.94
340.63	217.33
341.01	219.67
341.39	219.02
341.78	221.59
342.16	222.48
342.54	222.27
342.93	211.23
343.31	221.87
343.69	222.40
344.07	222.85
344.46	223.22
344.84	223.58
345.22	223.83
345.60	224.10
345.99	224.25
346.37	224.34
346.75	224.49
347.13	224.58
347.52	224.67
347.90	224.72
348.28	224.75
348.66	224.77
349.05	224.77
349.43	224.83
349.81	224.85
350.19	224.92
350.57	224.97
350.96	225.02
351.34	225.14
351.72	225.22
352.10	225.35
352.48	225.46
352.87	225.51
353.25	225.58
353.63	225.64
354.01	225.70
354.39	225.82
354.77	225.89
355.15	225.96
355.54	226.03
355.92	226.05
356.30	226.14
356.68	226.32
357.06	226.39
357.44	226.45
357.82	226.51
358.20	226.56
358.58	226.65
358.97	226.72
359.35	226.78
359.73	226.88
360.11	226.92
360.49	226.98
360.87	227.03
361.25	227.07
361.63	227.16
362.01	227.22
362.39	227.24
362.77	227.26
363.15	227.28
363.53	227.27
363.91	227.32
364.29	227.32
364.67	227.22
365.05	227.22
365.43	227.24
365.81	227.25
366.19	227.28
366.57	227.30
366.95	227.30
367.33	227.29
367.71	227.28
368.09	227.31
368.47	227.30
368.85	227.30
369.23	227.31
369.61	227.22
369.99	227.25
370.37	227.25
370.75	227.26
371.13	227.22
371.51	227.19
371.89	227.17
372.27	227.11
372.65	227.07
373.03	226.99
373.41	226.96
373.78	226.89
374.16	226.79
374.54	226.71
374.92	226.64
375.30	226.59
375.68	226.49
376.06	226.41
376.44	226.32
376.82	226.25
377.19	226.18
377.57	226.15
377.95	226.03
378.33	225.94
378.71	225.82
379.09	225.76
379.47	225.70
379.84	225.61
380.22	225.56
380.60	225.49
380.98	225.48
381.36	225.38
381.73	225.33
382.11	225.30
382.49	225.24
382.87	225.14
383.25	225.09
383.62	225.16
384.00	225.12
384.38	225.07
384.76	225.04
385.13	225.01
385.51	224.94
385.89	224.88
386.27	224.83
386.64	224.83
387.02	224.82
387.40	224.76
387.78	224.73
388.15	224.70
388.53	224.64
388.91	224.59
389.29	224.60
389.66	224.61
390.04	224.57
390.42	224.58
390.79	224.60
391.17	224.57
391.55	224.45
391.92	224.44
392.30	224.43
392.68	224.43
393.05	224.43
393.43	224.41
393.81	224.42
394.18	224.43
394.56	224.39
394.94	224.42
395.31	224.43
395.69	224.46
396.06	224.53
396.44	224.58
396.82	224.60
397.19	224.64
397.57	224.67
397.95	224.71
398.32	224.71
398.70	224.79
399.07	224.90
399.45	224.95
399.82	224.98
400.20	225.04
400.58	225.10
400.95	225.11
401.33	225.21
401.70	225.36
402.08	225.44
402.45	225.55
402.83	225.62
403.20	225.72
403.58	225.80
403.95	225.87
404.33	225.98
404.71	226.14
405.08	226.33
405.46	226.42
405.83	226.61
406.21	226.78
406.58	226.91
406.96	227.04
407.33	227.22
407.70	227.46
408.08	227.75
408.45	227.99
408.83	228.30
409.20	228.56
409.58	228.81
409.95	229.14
410.33	229.44
410.70	229.77
411.08	230.12
411.45	230.50
411.82	230.87
412.20	231.28
412.57	231.75
412.95	232.15
413.32	232.68
413.69	233.16
414.07	233.71
414.44	234.33
414.82	234.92
415.19	235.62
415.56	236.28
415.94	236.98
416.31	237.78
416.68	238.56
417.06	239.47
417.43	240.29
417.81	241.24
418.18	242.24
418.55	243.30
418.93	244.41
419.30	245.52
419.67	246.71
420.04	247.93
420.42	249.17
420.79	250.60
421.16	252.04
421.54	253.51
421.91	255.03
422.28	256.58
422.66	258.28
423.03	259.84
423.40	261.56
423.77	263.31
424.15	265.11
424.52	266.92
424.89	268.95
425.26	270.94
425.64	272.74
426.01	274.76
426.38	276.86
426.75	278.95
427.13	281.15
427.50	283.46
427.87	285.83
428.24	288.21
428.61	290.46
428.99	292.90
429.36	295.62
429.73	298.20
430.10	300.78
430.47	303.34
430.85	306.05
431.22	308.87
431.59	311.87
431.96	314.65
432.33	317.82
432.70	320.80
433.08	324.29
433.45	327.62
433.82	330.85
434.19	334.46
434.56	338.03
434.93	341.38
435.30	344.65
435.68	348.26
436.05	351.84
436.42	355.39
436.79	358.52
437.16	361.91
437.53	365.50
437.90	369.00
438.27	372.45
438.64	376.04
439.01	379.27
439.38	382.11
439.75	384.84
440.13	387.94
440.50	390.86
440.87	393.17
441.24	395.63
441.61	398.36
441.98	400.21
442.35	402.44
442.72	404.73
443.09	407.03
443.46	408.27
443.83	409.03
444.20	409.63
444.57	410.76
444.94	411.13
445.31	411.52
445.68	411.97
446.05	412.14
446.42	411.67
446.79	411.17
447.16	410.59
447.53	410.27
447.90	408.89
448.27	407.42
448.64	405.46
449.01	404.05
449.37	401.62
449.74	399.23
450.11	396.43
450.48	393.41
450.85	390.20
451.22	387.57
451.59	385.02
451.96	382.61
452.33	379.29
452.70	376.30
453.07	372.78
453.43	369.17
453.80	365.68
454.17	362.33
454.54	359.12
454.91	355.68
455.28	352.30
455.65	349.17
456.02	346.07
456.38	343.37
456.75	339.99
457.12	337.14
457.49	334.35
457.86	331.62
458.23	329.22
458.59	326.68
458.96	324.00
459.33	321.63
459.70	319.27
460.07	317.38
460.43	315.17
460.80	313.09
461.17	311.25
461.54	309.35
461.91	307.53
462.27	305.68
462.64	304.10
463.01	302.37
463.38	300.68
463.74	298.99
464.11	297.51
464.48	296.20
464.85	294.77
465.21	293.64
465.58	292.48
465.95	291.12
466.32	289.93
466.68	288.80
467.05	287.67
467.42	286.52
467.78	285.32
468.15	284.24
468.52	283.38
468.88	282.23
469.25	281.23
469.62	280.41
469.98	279.55
470.35	278.73
470.72	277.95
471.08	277.14
471.45	276.48
471.82	275.76
472.18	275.02
472.55	274.48
472.92	273.83
473.28	273.26
473.65	272.69
474.02	272.11
474.38	271.63
474.75	271.20
475.11	270.74
475.48	270.39
475.85	270.06
476.21	269.77
476.58	269.57
476.94	269.36
477.31	269.14
477.67	268.95
478.04	268.75
478.41	268.66
478.77	268.64
479.14	268.49
479.50	268.43
479.87	268.44
480.23	268.45
480.60	268.45
480.96	268.46
481.33	268.64
481.69	268.83
482.06	268.98
482.42	269.13
482.79	269.36
483.15	269.66
483.52	270.06
483.88	270.37
484.25	270.70
484.61	271.13
484.98	271.55
485.34	272.09
485.71	272.69
486.07	273.32
486.44	273.85
486.80	274.57
487.17	275.33
487.53	276.16
487.90	277.04
488.26	277.97
488.62	278.93
488.99	279.89
489.35	280.96
489.72	282.10
490.08	283.34
490.44	284.61
490.81	285.99
491.17	287.35
491.54	288.90
491.90	290.49
492.26	292.17
492.63	293.92
492.99	295.76
493.36	297.74
493.72	299.83
494.08	302.00
494.45	304.32
494.81	306.75
495.17	309.23
495.54	311.88
495.90	314.68
496.26	317.61
496.63	320.70
496.99	323.91
497.35	327.27
497.72	330.81
498.08	334.46
498.44	338.30
498.80	342.40
499.17	346.56
499.53	350.92
499.89	355.46
500.26	360.17
500.62	364.98
500.98	370.14
501.34	375.37
501.71	380.94
502.07	386.58
502.43	392.41
502.79	398.51
503.16	404.80
503.52	411.27
503.88	417.91
504.24	424.78
504.60	431.96
504.97	439.47
505.33	447.03
505.69	455.05
506.05	463.11
506.41	471.26
506.78	479.76
507.14	488.56
507.50	497.61
507.86	507.02
508.22	516.63
508.59	526.25
508.95	536.29
509.31	546.51
509.67	557.05
510.03	567.80
510.39	578.76
510.75	590.08
511.12	601.52
511.48	613.37
511.84	625.43
512.20	637.41
512.56	649.84
512.92	662.60
513.28	675.52
513.64	688.62
514.00	701.97
514.37	715.57
514.73	729.19
515.09	742.84
515.45	756.79
515.81	771.03
516.17	785.65
516.53	800.47
516.89	815.39
517.25	830.39
517.61	845.63
517.97	860.91
518.33	876.06
518.69	891.57
519.05	907.29
519.41	923.14
519.77	939.53
520.13	955.89
520.49	972.16
520.85	988.35
521.21	1004.83
521.57	1022.00
521.93	1038.68
522.29	1056.05
522.65	1073.29
523.01	1090.35
523.37	1107.41
523.73	1124.60
524.09	1141.64
524.45	1158.97
524.81	1176.61
525.17	1194.27
525.53	1212.26
525.89	1230.16
526.25	1248.24
526.61	1265.66
526.97	1283.55
527.33	1301.31
527.68	1318.99
528.04	1336.64
528.40	1354.52
528.76	1372.95
529.12	1390.78
529.48	1408.96
529.84	1426.18
530.20	1444.09
530.56	1462.34
530.91	1481.01
531.27	1499.16
531.63	1517.07
531.99	1534.88
532.35	1552.38
532.71	1569.72
533.07	1587.30
533.42	1604.73
533.78	1622.24
534.14	1640.07
534.50	1656.95
534.86	1674.14
535.21	1690.81
535.57	1708.27
535.93	1725.31
536.29	1741.39
536.65	1757.82
537.00	1774.01
537.36	1790.99
537.72	1806.98
538.08	1823.17
538.44	1838.56
538.79	1853.90
539.15	1868.92
539.51	1884.14
539.87	1899.84
540.22	1915.09
540.58	1930.47
540.94	1945.18
541.29	1959.42
541.65	1973.62
542.01	1988.36
542.37	2002.29
542.72	2016.28
543.08	2029.63
543.44	2043.52
543.79	2056.61
544.15	2069.22
544.51	2082.34
544.87	2094.69
545.22	2107.19
545.58	2118.99
545.94	2130.35
546.29	2141.87
546.65	2153.36
547.01	2164.36
547.36	2174.70
547.72	2184.78
548.07	2194.31
548.43	2204.05
548.79	2213.40
549.14	2222.61
549.50	2231.42
549.86	2240.54
550.21	2249.27
550.57	2257.92
550.92	2266.06
551.28	2274.50
551.64	2282.96
551.99	2290.99
552.35	2298.78
552.70	2306.42
553.06	2313.67
553.41	2321.46
553.77	2328.64
554.13	2336.18
554.48	2343.60
554.84	2350.58
555.19	2357.06
555.55	2363.57
555.90	2369.51
556.26	2376.17
556.61	2382.16
556.97	2387.97
557.32	2393.39
557.68	2398.72
558.03	2404.15
558.39	2409.10
558.74	2414.94
559.10	2420.20
559.45	2425.03
559.81	2430.44
560.16	2435.30
560.52	2439.75
560.87	2444.17
561.23	2448.05
561.58	2452.14
561.94	2455.85
562.29	2458.93
562.64	2463.06
563.00	2466.64
563.35	2471.27
563.71	2475.38
564.06	2479.46
564.42	2483.37
564.77	2487.04
565.12	2490.65
565.48	2493.78
565.83	2496.42
566.19	2498.82
566.54	2500.52
566.89	2502.64
567.25	2504.12
567.60	2506.23
567.96	2508.89
568.31	2510.58
568.66	2512.64
569.02	2513.95
569.37	2514.90
569.72	2516.68
570.08	2517.53
570.43	2518.01
570.78	2518.13
571.14	2517.10
571.49	2516.17
571.84	2516.18
572.20	2515.55
572.55	2514.88
572.90	2513.48
573.26	2512.67
573.61	2511.19
573.96	2510.05
574.31	2507.33
574.67	2504.65
575.02	2501.26
575.37	2497.96
575.72	2494.47
576.08	2491.05
576.43	2487.78
576.78	2484.48
577.13	2481.40
577.49	2478.13
577.84	2475.10
578.19	2471.33
578.54	2467.79
578.90	2463.87
579.25	2458.31
579.60	2453.46
579.95	2448.40
580.30	2443.34
580.66	2437.94
581.01	2432.83
581.36	2427.45
581.71	2423.36
582.06	2418.87
582.42	2414.34
582.77	2408.94
583.12	2404.04
583.47	2399.45
583.82	2394.34
584.17	2388.93
584.53	2383.23
584.88	2377.36
585.23	2371.14
585.58	2365.22
585.93	2359.41
586.28	2354.16
586.63	2348.99
586.98	2343.39
587.34	2338.25
587.69	2333.09
588.04	2327.77
588.39	2321.69
588.74	2314.85
589.09	2308.10
589.44	2300.79
589.79	2294.14
590.14	2287.99
590.49	2280.97
590.84	2273.87
591.19	2267.29
591.54	2260.24
591.89	2252.43
592.25	2245.34
592.60	2237.57
592.95	2229.61
593.30	2221.63
593.65	2213.41
594.00	2205.55
594.35	2197.77
594.70	2188.88
595.05	2181.17
595.40	2172.98
595.75	2164.86
596.10	2158.12
596.45	2150.80
596.80	2143.98
597.15	2136.84
597.50	2129.39
597.85	2122.16
598.19	2114.96
598.54	2107.44
598.89	2100.07
599.24	2093.36
599.59	2086.10
599.94	2079.14
600.29	2072.08
600.64	2064.72
600.99	2056.71
601.34	2049.27
601.69	2041.30
602.04	2033.91
602.39	2025.62
602.74	2018.20
603.08	2010.71
603.43	2003.10
603.78	1995.00
604.13	1986.94
604.48	1978.99
604.83	1971.22
605.18	1963.77
605.53	1955.01
605.87	1946.10
606.22	1938.01
606.57	1929.15
606.92	1920.56
607.27	1912.60
607.62	1904.88
607.96	1896.90
608.31	1889.55
608.66	1881.03
609.01	1872.72
609.36	1864.40
609.70	1855.57
610.05	1846.57
610.40	1838.03
610.75	1828.91
611.10	1820.40
611.44	1810.91
611.79	1801.74
612.14	1791.98
612.49	1781.56
612.83	1772.02
613.18	1762.67
613.53	1753.64
613.88	1744.08
614.22	1734.88
614.57	1725.10
614.92	1715.99
615.27	1707.76
615.61	1698.39
615.96	1689.24
616.31	1680.51
616.65	1672.10
617.00	1663.59
617.35	1654.83
617.70	1645.53
618.04	1635.93
618.39	1626.45
618.74	1617.95
619.08	1608.73
619.43	1600.15
619.78	1592.29
620.12	1584.21
620.47	1575.79
620.82	1566.51
621.16	1557.95
621.51	1549.31
621.85	1540.62
622.20	1531.04
622.55	1521.23
622.89	1512.23
623.24	1503.57
623.59	1495.14
623.93	1486.55
624.28	1478.23
624.62	1469.86
624.97	1461.65
625.32	1453.78
625.66	1445.83
626.01	1437.75
626.35	1429.46
626.70	1420.65
627.04	1412.05
627.39	1403.20
627.73	1394.79
628.08	1386.96
628.43	1378.91
628.77	1370.76
629.12	1362.39
629.46	1354.27
629.81	1345.85
630.15	1337.63
630.50	1329.31
630.84	1320.20
631.19	1311.19
631.53	1302.63
631.88	1293.98
632.22	1285.32
632.57	1277.16
632.91	1268.68
633.26	1260.24
633.60	1251.76
633.95	1243.66
634.29	1235.56
634.64	1227.95
634.98	1219.66
635.32	1211.51
635.67	1203.98
636.01	1196.40
636.36	1188.70
636.70	1181.27
637.05	1173.98
637.39	1166.76
637.73	1159.45
638.08	1152.86
638.42	1146.14
638.77	1138.93
639.11	1131.66
639.45	1124.51
639.80	1117.12
640.14	1109.97
640.49	1102.79
640.83	1095.73
641.17	1088.83
641.52	1081.80
641.86	1074.56
642.20	1068.05
642.55	1060.95
642.89	1053.77
643.23	1046.36
643.58	1039.96
643.92	1033.10
644.26	1026.38
644.61	1019.55
644.95	1012.86
645.29	1005.50
645.64	997.97
645.98	990.90
646.32	984.09
646.66	977.39
647.01	970.88
647.35	964.49
647.69	957.88
648.04	951.69
648.38	945.25
648.72	938.66
649.06	932.04
649.41	925.36
649.75	918.78
650.09	912.16
650.43	905.70
650.78	898.71
651.12	892.03
651.46	885.60
651.80	879.30
652.14	873.18
652.49	867.24
652.83	861.52
653.17	855.21
653.51	848.99
653.85	842.95
654.20	836.66
654.54	829.98
654.88	823.54
655.22	816.91
655.56	810.51
655.90	804.24
656.25	798.39
656.59	792.43
656.93	786.78
657.27	781.04
657.61	775.05
657.95	769.46
658.29	763.80
658.64	757.89
658.98	751.88
659.32	745.83
659.66	739.98
660.00	734.10
660.34	728.63
660.68	723.17
661.02	717.49
661.36	712.31
661.70	707.31
662.05	702.44
662.39	697.64
662.73	692.68
663.07	687.93
663.41	682.94
663.75	677.96
664.09	672.86
664.43	668.02
664.77	663.45
665.11	658.74
665.45	654.15
665.79	649.67
666.13	645.18
666.47	640.63
666.81	635.99
667.15	631.35
667.49	626.95
667.83	622.62
668.17	618.23
668.51	613.70
668.85	609.20
669.19	604.88
669.53	600.69
669.87	596.46
670.21	592.34
670.55	588.30
670.89	584.49
671.23	580.66
671.57	576.74
671.91	572.82
672.25	568.81
672.58	564.91
672.92	561.09
673.26	557.54
673.60	554.01
673.94	550.60
674.28	547.37
674.62	544.15
674.96	540.68
675.30	537.49
675.64	534.15
675.97	531.08
676.31	527.96
676.65	524.72
676.99	521.61
677.33	518.35
677.67	515.23
678.01	511.83
678.34	508.53
678.68	505.26
679.02	502.13
679.36	499.11
679.70	496.05
680.04	492.96
680.37	489.82
680.71	486.67
681.05	483.70
681.39	480.68
681.73	477.74
682.06	474.97
682.40	472.16
682.74	469.33
683.08	466.43
683.42	463.47
683.75	460.67
684.09	457.79
684.43	455.15
684.77	452.39
685.10	449.79
685.44	447.20
685.78	444.64
686.12	442.07
686.45	439.49
686.79	436.91
687.13	434.49
687.46	431.99
687.80	429.61
688.14	427.08
688.48	424.77
688.81	422.26
689.15	419.88
689.49	417.42
689.82	415.11
690.16	412.71
690.50	410.51
690.83	408.36
691.17	406.16
691.51	403.98
691.84	401.92
692.18	399.73
692.52	397.54
692.85	395.32
693.19	393.22
693.52	391.19
693.86	389.15
694.20	387.13
694.53	385.15
694.87	383.08
695.21	381.11
695.54	379.06
695.88	377.06
696.21	375.10
696.55	373.24
696.88	371.26
697.22	369.43
697.56	367.61
697.89	365.73
698.23	363.94
698.56	362.13
698.90	360.39
699.23	358.57
699.57	356.81
699.90	355.14
700.24	353.37
700.58	351.67
700.91	350.03
701.25	348.42
701.58	346.88
701.92	345.39
702.25	343.85
702.59	342.32
702.92	340.89
703.26	339.41
703.59	338.03
703.93	336.77
704.26	335.40
704.60	333.96
704.93	332.52
705.26	331.12
705.60	329.75
705.93	328.38
706.27	327.24
706.60	326.09
706.94	324.86
707.27	323.66
707.61	322.43
707.94	321.23
708.27	319.96
708.61	318.73
708.94	317.55
709.28	316.46
709.61	315.37
709.94	314.28
710.28	313.11
710.61	311.97
710.95	310.76
711.28	309.71
711.61	308.66
711.95	307.66
712.28	306.54
712.61	305.46
712.95	304.40
713.28	303.35
713.61	302.33
713.95	301.35
714.28	300.39
714.61	299.45
714.95	298.51
715.28	297.60
715.61	296.62
715.95	295.70
716.28	294.73
716.61	293.80
716.95	292.87
717.28	292.02
717.61	291.17
717.94	290.36
718.28	289.46
718.61	288.67
718.94	287.88
719.27	287.21
719.61	286.48
719.94	285.79
720.27	284.98
720.60	284.22
720.94	283.52
721.27	282.86
721.60	282.17
721.93	281.50
722.27	280.86
722.60	280.23
722.93	279.62
723.26	279.02
723.59	278.37
723.93	277.74
724.26	277.14
724.59	276.51
724.92	275.92
725.25	275.36
725.59	274.74
725.92	274.17
726.25	273.56
726.58	273.03
726.91	272.47
727.24	271.96
727.57	271.44
727.91	270.86
728.24	270.29
728.57	269.74
728.90	269.21
729.23	268.66
729.56	268.21
729.89	267.62
730.22	267.02
730.55	266.50
730.89	266.03
731.22	265.56
731.55	265.09
731.88	264.57
732.21	264.09
732.54	263.64
732.87	263.16
733.20	262.74
733.53	262.28
733.86	261.82
734.19	261.39
734.52	260.94
734.85	260.59
735.18	260.14
735.51	259.73
735.84	259.29
736.17	258.89
736.50	258.42
736.83	258.19
737.16	257.86
737.49	257.51
737.82	257.09
738.15	256.67
738.48	256.28
738.81	255.94
739.14	255.57
739.47	255.20
739.80	254.87
740.13	254.52
740.46	254.15
740.79	253.81
741.12	253.43
741.45	253.09
741.78	252.69
742.11	252.36
742.44	251.99
742.77	251.73
743.10	251.36
743.43	251.03
743.75	250.57
744.08	250.35
744.41	250.04
744.74	249.75
745.07	249.46
745.40	249.16
745.73	248.90
746.06	248.60
746.39	248.33
746.71	248.01
747.04	247.70
747.37	247.39
747.70	247.12
748.03	246.88
748.36	246.62
748.68	246.38
749.01	246.10
749.34	245.87
749.67	245.59
750.00	245.38
750.33	245.19
750.65	244.95
750.98	244.60
751.31	244.35
751.64	244.10
751.97	243.89
752.29	243.65
752.62	243.39
752.95	243.15
753.28	242.88
753.60	242.65
753.93	242.45
754.26	242.24
754.59	241.95
754.91	241.70
755.24	241.49
755.57	241.27
755.90	241.10
756.22	240.89
756.55	240.65
756.88	240.43
757.20	240.18
757.53	239.97
757.86	239.80
758.19	239.62
758.51	239.45
758.84	239.23
759.17	239.01
759.49	238.81
759.82	238.67
760.15	238.52
760.47	238.35
760.80	238.15
761.13	238.03
761.45	237.90
761.78	237.75
762.11	237.56
762.43	237.41
762.76	237.23
763.08	237.09
763.41	236.94
763.74	236.82
764.06	236.67
764.39	236.55
764.71	236.37
765.04	236.23
765.37	236.06
765.69	235.95
766.02	235.86
766.34	235.74
766.67	235.58
767.00	235.43
767.32	235.37
767.65	235.29
767.97	235.14
768.30	235.00
768.62	234.87
768.95	234.76
769.27	234.61
769.60	234.53
769.92	234.36
770.25	234.24
770.57	234.06
770.90	233.95
771.22	233.84
771.55	233.74
771.87	233.61
772.20	233.50
772.52	233.47
772.85	233.49
773.17	233.39
773.50	233.31
773.82	233.18
774.15	233.02
774.47	232.87
774.80	232.77
775.12	232.69
775.45	232.59
775.77	232.52
776.09	232.40
776.42	232.27
776.74	232.27
777.07	232.19
777.39	232.12
777.72	232.00
778.04	231.94
778.36	231.84
778.69	231.80
779.01	231.74
779.33	231.60
779.66	231.39
779.98	231.27
780.31	231.18
780.63	231.18
780.95	231.16
781.28	231.11
781.60	231.04
781.92	230.97
782.25	230.90
782.57	230.83
782.89	230.78
783.22	230.73
783.54	230.61
783.86	230.58
784.19	230.53
784.51	230.53
784.83	230.47
785.16	230.44
785.48	230.40
785.80	230.34
786.12	230.27
786.45	230.19
786.77	230.19
