SpectraSuite Data File
++++++++++++++++++++++++++++++++++++
Date: Fri Feb 01 17:51:00 EST 2013
User: group
Dark Spectrum Present: No
Reference Spectrum Present: No
Number of Sampled Component Spectra: 1
Spectrometers: USB2E7196
Integration Time (usec): 35000 (USB2E7196)
Spectra Averaged: 100 (USB2E7196)
Boxcar Smoothing: 10 (USB2E7196)
Correct for Electrical Dark: No (USB2E7196)
Strobe/Lamp Enabled: No (USB2E7196)
Correct for Detector Non-linearity: No (USB2E7196)
Correct for Stray Light: No (USB2E7196)
Number of Pixels in Processed Spectrum: 2048
>>>>>Begin Processed Spectral Data<<<<<
339.09	0.00
339.48	212.87
339.86	214.22
340.24	215.30
340.63	216.87
341.01	219.76
341.39	219.42
341.78	220.63
342.16	222.25
342.54	222.55
342.93	211.10
343.31	221.78
343.69	222.30
344.07	222.80
344.46	223.26
344.84	223.65
345.22	223.85
345.60	224.12
345.99	224.33
346.37	224.43
346.75	224.54
347.13	224.63
347.52	224.69
347.90	224.74
348.28	224.77
348.66	224.82
349.05	224.83
349.43	224.88
349.81	224.93
350.19	224.96
350.57	224.99
350.96	225.08
351.34	225.14
351.72	225.21
352.10	225.27
352.48	225.31
352.87	225.40
353.25	225.52
353.63	225.55
354.01	225.60
354.39	225.70
354.77	225.76
355.15	225.88
355.54	225.90
355.92	225.97
356.30	226.05
356.68	226.16
357.06	226.25
357.44	226.33
357.82	226.37
358.20	226.45
358.58	226.50
358.97	226.54
359.35	226.62
359.73	226.72
360.11	226.78
360.49	226.86
360.87	226.87
361.25	226.90
361.63	227.02
362.01	227.09
362.39	227.10
362.77	227.14
363.15	227.18
363.53	227.26
363.91	227.29
364.29	227.33
364.67	227.28
365.05	227.33
365.43	227.36
365.81	227.36
366.19	227.42
366.57	227.47
366.95	227.51
367.33	227.49
367.71	227.47
368.09	227.48
368.47	227.46
368.85	227.47
369.23	227.50
369.61	227.42
369.99	227.44
370.37	227.44
370.75	227.50
371.13	227.42
371.51	227.35
371.89	227.34
372.27	227.30
372.65	227.25
373.03	227.18
373.41	227.10
373.78	227.06
374.16	226.96
374.54	226.86
374.92	226.80
375.30	226.76
375.68	226.71
376.06	226.65
376.44	226.58
376.82	226.51
377.19	226.42
377.57	226.34
377.95	226.25
378.33	226.17
378.71	226.04
379.09	226.01
379.47	226.00
379.84	225.89
380.22	225.79
380.60	225.74
380.98	225.69
381.36	225.62
381.73	225.54
382.11	225.49
382.49	225.49
382.87	225.41
383.25	225.35
383.62	225.40
384.00	225.33
384.38	225.29
384.76	225.26
385.13	225.24
385.51	225.20
385.89	225.13
386.27	225.08
386.64	225.05
387.02	224.98
387.40	224.91
387.78	224.90
388.15	224.89
388.53	224.84
388.91	224.79
389.29	224.76
389.66	224.76
390.04	224.73
390.42	224.70
390.79	224.68
391.17	224.66
391.55	224.51
391.92	224.50
392.30	224.50
392.68	224.47
393.05	224.46
393.43	224.45
393.81	224.47
394.18	224.45
394.56	224.41
394.94	224.46
395.31	224.48
395.69	224.52
396.06	224.55
396.44	224.54
396.82	224.57
397.19	224.65
397.57	224.66
397.95	224.71
398.32	224.71
398.70	224.77
399.07	224.88
399.45	224.96
399.82	225.01
400.20	225.07
400.58	225.14
400.95	225.18
401.33	225.29
401.70	225.43
402.08	225.56
402.45	225.67
402.83	225.78
403.20	225.86
403.58	225.94
403.95	226.06
404.33	226.22
404.71	226.34
405.08	226.49
405.46	226.65
405.83	226.76
406.21	226.94
406.58	227.11
406.96	227.22
407.33	227.42
407.70	227.65
408.08	227.95
408.45	228.17
408.83	228.45
409.20	228.72
409.58	228.94
409.95	229.25
410.33	229.61
410.70	229.92
411.08	230.34
411.45	230.73
411.82	231.13
412.20	231.54
412.57	232.05
412.95	232.46
413.32	233.00
413.69	233.56
414.07	234.10
414.44	234.73
414.82	235.38
415.19	236.09
415.56	236.79
415.94	237.48
416.31	238.34
416.68	239.17
417.06	240.07
417.43	240.97
417.81	241.98
418.18	242.98
418.55	244.07
418.93	245.15
419.30	246.30
419.67	247.53
420.04	248.80
420.42	250.11
420.79	251.65
421.16	253.15
421.54	254.72
421.91	256.38
422.28	258.01
422.66	259.77
423.03	261.46
423.40	263.22
423.77	265.11
424.15	267.02
424.52	268.98
424.89	271.08
425.26	273.09
425.64	274.97
426.01	277.05
426.38	279.28
426.75	281.49
427.13	283.77
427.50	286.15
427.87	288.62
428.24	291.10
428.61	293.43
428.99	296.00
429.36	298.76
429.73	301.44
430.10	304.11
430.47	306.81
430.85	309.59
431.22	312.52
431.59	315.60
431.96	318.51
432.33	321.75
432.70	324.89
433.08	328.62
433.45	332.08
433.82	335.51
434.19	339.29
434.56	342.97
434.93	346.43
435.30	349.92
435.68	353.72
436.05	357.40
436.42	361.12
436.79	364.37
437.16	367.92
437.53	371.65
437.90	375.33
438.27	378.93
438.64	382.67
439.01	386.11
439.38	389.06
439.75	391.95
440.13	395.22
440.50	398.30
440.87	400.75
441.24	403.34
441.61	406.19
441.98	408.08
442.35	410.48
442.72	412.96
443.09	415.34
443.46	416.67
443.83	417.47
444.20	418.11
444.57	419.27
444.94	419.67
445.31	420.11
445.68	420.52
446.05	420.65
446.42	420.18
446.79	419.65
447.16	419.10
447.53	418.70
447.90	417.21
448.27	415.66
448.64	413.57
449.01	412.05
449.37	409.43
449.74	407.00
450.11	404.01
450.48	400.76
450.85	397.41
451.22	394.56
451.59	391.86
451.96	389.28
452.33	385.86
452.70	382.76
453.07	379.04
453.43	375.26
453.80	371.62
454.17	368.08
454.54	364.71
454.91	361.13
455.28	357.58
455.65	354.29
456.02	351.07
456.38	348.24
456.75	344.72
457.12	341.77
457.49	338.84
457.86	336.01
458.23	333.56
458.59	330.86
458.96	328.13
459.33	325.73
459.70	323.27
460.07	321.28
460.43	319.00
460.80	316.84
461.17	314.94
461.54	312.94
461.91	311.01
462.27	309.06
462.64	307.39
463.01	305.57
463.38	303.85
463.74	302.03
464.11	300.51
464.48	299.19
464.85	297.78
465.21	296.57
465.58	295.34
465.95	293.86
466.32	292.67
466.68	291.46
467.05	290.26
467.42	289.12
467.78	287.87
468.15	286.66
468.52	285.79
468.88	284.62
469.25	283.58
469.62	282.74
469.98	281.86
470.35	281.05
470.72	280.25
471.08	279.38
471.45	278.68
471.82	277.92
472.18	277.10
472.55	276.47
472.92	275.82
473.28	275.22
473.65	274.65
474.02	274.04
474.38	273.55
474.75	273.11
475.11	272.60
475.48	272.23
475.85	271.94
476.21	271.61
476.58	271.38
476.94	271.16
477.31	270.93
477.67	270.69
478.04	270.48
478.41	270.36
478.77	270.36
479.14	270.21
479.50	270.16
479.87	270.20
480.23	270.23
480.60	270.20
480.96	270.22
481.33	270.40
481.69	270.52
482.06	270.67
482.42	270.82
482.79	271.04
483.15	271.34
483.52	271.68
483.88	271.99
484.25	272.35
484.61	272.76
484.98	273.18
485.34	273.74
485.71	274.31
486.07	274.89
486.44	275.45
486.80	276.17
487.17	276.92
487.53	277.75
487.90	278.61
488.26	279.58
488.62	280.61
488.99	281.62
489.35	282.74
489.72	283.91
490.08	285.16
490.44	286.44
490.81	287.80
491.17	289.23
491.54	290.77
491.90	292.37
492.26	294.10
492.63	295.93
492.99	297.82
493.36	299.83
493.72	302.00
494.08	304.19
494.45	306.57
494.81	308.99
495.17	311.54
495.54	314.25
495.90	317.07
496.26	319.98
496.63	323.01
496.99	326.28
497.35	329.69
497.72	333.21
498.08	336.91
498.44	340.79
498.80	344.90
499.17	349.14
499.53	353.50
499.89	358.08
500.26	362.80
500.62	367.69
500.98	372.89
501.34	378.22
501.71	383.83
502.07	389.54
502.43	395.55
502.79	401.66
503.16	408.07
503.52	414.67
503.88	421.47
504.24	428.50
504.60	435.73
504.97	443.23
505.33	450.96
505.69	459.12
506.05	467.31
506.41	475.66
506.78	484.26
507.14	493.23
507.50	502.48
507.86	512.02
508.22	521.79
508.59	531.56
508.95	541.71
509.31	552.12
509.67	562.78
510.03	573.61
510.39	584.80
510.75	596.22
511.12	607.80
511.48	619.80
511.84	631.96
512.20	644.20
512.56	656.96
512.92	669.99
513.28	683.11
513.64	696.40
514.00	709.97
514.37	723.80
514.73	737.70
515.09	751.60
515.45	765.77
515.81	780.16
516.17	795.05
516.53	810.14
516.89	825.35
517.25	840.60
517.61	856.05
517.97	871.58
518.33	887.04
518.69	902.97
519.05	918.99
519.41	935.36
519.77	952.05
520.13	968.68
520.49	985.22
520.85	1001.82
521.21	1018.69
521.57	1036.20
521.93	1053.29
522.29	1070.99
522.65	1088.58
523.01	1106.09
523.37	1123.56
523.73	1141.09
524.09	1158.56
524.45	1176.17
524.81	1194.18
525.17	1212.46
525.53	1230.83
525.89	1249.25
526.25	1267.61
526.61	1285.48
526.97	1303.79
527.33	1321.92
527.68	1339.96
528.04	1357.99
528.40	1376.13
528.76	1394.88
529.12	1413.10
529.48	1431.69
529.84	1449.30
530.20	1467.65
530.56	1486.49
530.91	1505.74
531.27	1524.38
531.63	1542.62
531.99	1560.99
532.35	1578.81
532.71	1596.59
533.07	1614.58
533.42	1632.26
533.78	1650.17
534.14	1668.48
534.50	1685.73
534.86	1703.45
535.21	1720.58
535.57	1738.42
535.93	1755.90
536.29	1772.63
536.65	1789.58
537.00	1806.12
537.36	1823.42
537.72	1839.85
538.08	1856.35
538.44	1872.00
538.79	1887.77
539.15	1903.31
539.51	1918.91
539.87	1935.17
540.22	1950.80
540.58	1966.60
540.94	1981.96
541.29	1996.77
541.65	2011.40
542.01	2026.54
542.37	2040.91
542.72	2055.28
543.08	2069.17
543.44	2083.55
543.79	2096.70
544.15	2109.58
544.51	2123.30
544.87	2136.23
545.22	2148.97
545.58	2161.10
545.94	2172.85
546.29	2184.67
546.65	2196.67
547.01	2208.04
547.36	2218.81
547.72	2229.26
548.07	2239.03
548.43	2249.08
548.79	2258.90
549.14	2268.32
549.50	2277.23
549.86	2286.56
550.21	2295.75
550.57	2304.74
550.92	2313.12
551.28	2322.09
551.64	2331.05
551.99	2339.23
552.35	2347.12
552.70	2355.02
553.06	2362.57
553.41	2370.68
553.77	2378.38
554.13	2386.02
554.48	2393.94
554.84	2401.14
555.19	2407.89
555.55	2414.85
555.90	2420.93
556.26	2427.52
556.61	2433.70
556.97	2439.86
557.32	2445.59
557.68	2451.17
558.03	2456.94
558.39	2461.97
558.74	2468.09
559.10	2473.43
559.45	2478.70
559.81	2484.34
560.16	2489.68
560.52	2494.35
560.87	2498.97
561.23	2502.80
561.58	2506.93
561.94	2510.55
562.29	2513.95
562.64	2517.97
563.00	2521.55
563.35	2526.32
563.71	2530.62
564.06	2534.99
564.42	2538.99
564.77	2542.66
565.12	2546.31
565.48	2549.34
565.83	2552.38
566.19	2554.88
566.54	2556.64
566.89	2558.64
567.25	2560.37
567.60	2562.50
567.96	2565.13
568.31	2567.00
568.66	2569.27
569.02	2570.71
569.37	2571.80
569.72	2573.63
570.08	2574.47
570.43	2575.50
570.78	2575.61
571.14	2574.70
571.49	2574.03
571.84	2574.28
572.20	2573.77
572.55	2573.11
572.90	2571.80
573.26	2571.02
573.61	2569.48
573.96	2568.39
574.31	2565.70
574.67	2562.99
575.02	2559.62
575.37	2556.50
575.72	2552.89
576.08	2549.52
576.43	2546.28
576.78	2542.99
577.13	2539.75
577.49	2536.80
577.84	2533.27
578.19	2529.55
578.54	2525.99
578.90	2521.68
579.25	2515.91
579.60	2510.65
579.95	2505.44
580.30	2500.30
580.66	2494.80
581.01	2489.51
581.36	2484.28
581.71	2479.91
582.06	2475.33
582.42	2470.77
582.77	2465.11
583.12	2460.21
583.47	2455.30
583.82	2450.16
584.17	2444.31
584.53	2438.49
584.88	2432.38
585.23	2426.19
585.58	2420.13
585.93	2414.09
586.28	2408.91
586.63	2403.43
586.98	2397.99
587.34	2392.90
587.69	2387.55
588.04	2381.99
588.39	2376.03
588.74	2368.89
589.09	2362.17
589.44	2354.63
589.79	2347.78
590.14	2341.58
590.49	2334.29
590.84	2327.13
591.19	2320.41
591.54	2313.32
591.89	2305.26
592.25	2297.86
592.60	2289.71
592.95	2281.41
593.30	2273.19
593.65	2264.72
594.00	2256.87
594.35	2248.70
594.70	2239.55
595.05	2231.64
595.40	2223.38
595.75	2214.81
596.10	2207.85
596.45	2200.22
596.80	2193.32
597.15	2186.00
597.50	2178.27
597.85	2170.98
598.19	2163.42
598.54	2155.54
598.89	2148.04
599.24	2141.29
599.59	2133.97
599.94	2126.87
600.29	2119.61
600.64	2112.15
600.99	2103.83
601.34	2096.17
601.69	2088.36
602.04	2080.64
602.39	2072.24
602.74	2064.45
603.08	2056.86
603.43	2048.92
603.78	2040.61
604.13	2032.21
604.48	2023.86
604.83	2015.84
605.18	2008.09
605.53	1999.08
605.87	1989.76
606.22	1981.41
606.57	1972.21
606.92	1963.35
607.27	1955.38
607.62	1947.46
607.96	1939.22
608.31	1931.64
608.66	1922.86
609.01	1914.14
609.36	1905.42
609.70	1896.17
610.05	1886.81
610.40	1877.92
610.75	1868.48
611.10	1859.69
611.44	1849.91
611.79	1840.60
612.14	1830.60
612.49	1819.87
612.83	1810.08
613.18	1800.66
613.53	1791.38
613.88	1781.53
614.22	1771.98
614.57	1761.81
614.92	1752.44
615.27	1743.74
615.61	1734.09
615.96	1724.75
616.31	1715.88
616.65	1707.35
617.00	1698.56
617.35	1689.73
617.70	1680.14
618.04	1670.27
618.39	1660.70
618.74	1651.91
619.08	1642.41
619.43	1633.52
619.78	1625.47
620.12	1617.26
620.47	1608.68
620.82	1599.10
621.16	1590.42
621.51	1581.55
621.85	1572.75
622.20	1562.97
622.55	1553.10
622.89	1543.91
623.24	1534.96
623.59	1526.17
623.93	1517.38
624.28	1509.01
624.62	1500.27
624.97	1491.82
625.32	1483.85
625.66	1475.66
626.01	1467.43
626.35	1458.84
626.70	1449.86
627.04	1440.86
627.39	1431.78
627.73	1423.11
628.08	1415.20
628.43	1406.87
628.77	1398.55
629.12	1389.77
629.46	1381.49
629.81	1372.84
630.15	1364.49
630.50	1355.91
630.84	1346.59
631.19	1337.47
631.53	1328.70
631.88	1319.88
632.22	1311.17
632.57	1302.74
632.91	1294.00
633.26	1285.49
633.60	1276.67
633.95	1268.35
634.29	1260.23
634.64	1252.47
634.98	1243.96
635.32	1235.61
635.67	1227.90
636.01	1220.11
636.36	1212.33
636.70	1204.57
637.05	1197.04
637.39	1189.49
637.73	1182.03
638.08	1175.20
638.42	1168.25
638.77	1160.92
639.11	1153.51
639.45	1146.04
639.80	1138.51
640.14	1131.14
640.49	1123.67
640.83	1116.54
641.17	1109.50
641.52	1102.09
641.86	1094.60
642.20	1087.95
642.55	1080.58
642.89	1073.11
643.23	1065.53
643.58	1058.79
643.92	1051.82
644.26	1044.97
644.61	1038.00
644.95	1031.18
645.29	1023.67
645.64	1015.95
645.98	1008.56
646.32	1001.71
646.66	994.87
647.01	988.21
647.35	981.70
647.69	974.80
648.04	968.45
648.38	961.80
648.72	955.05
649.06	948.28
649.41	941.45
649.75	934.66
650.09	927.91
650.43	921.34
650.78	914.37
651.12	907.54
651.46	900.87
651.80	894.41
652.14	888.23
652.49	882.08
652.83	876.17
653.17	869.75
653.51	863.19
653.85	857.03
654.20	850.54
654.54	843.58
654.88	837.10
655.22	830.30
655.56	823.82
655.90	817.60
656.25	811.59
656.59	805.56
656.93	799.83
657.27	793.97
657.61	787.75
657.95	781.96
658.29	776.15
658.64	770.10
658.98	764.06
659.32	757.75
659.66	751.83
660.00	745.81
660.34	740.14
660.68	734.54
661.02	728.79
661.36	723.44
661.70	718.31
662.05	713.31
662.39	708.45
662.73	703.30
663.07	698.36
663.41	693.28
663.75	688.07
664.09	682.83
664.43	677.82
664.77	673.11
665.11	668.30
665.45	663.59
665.79	659.07
666.13	654.35
666.47	649.73
666.81	645.01
667.15	640.27
667.49	635.79
667.83	631.50
668.17	627.03
668.51	622.47
668.85	617.94
669.19	613.54
669.53	609.18
669.87	604.81
670.21	600.50
670.55	596.29
670.89	592.41
671.23	588.51
671.57	584.53
671.91	580.56
672.25	576.43
672.58	572.47
672.92	568.47
673.26	564.86
673.60	561.21
673.94	557.68
674.28	554.35
674.62	551.09
674.96	547.45
675.30	544.15
675.64	540.76
675.97	537.56
676.31	534.33
676.65	531.01
676.99	527.94
677.33	524.66
677.67	521.40
678.01	518.00
678.34	514.65
678.68	511.27
679.02	508.07
679.36	505.01
679.70	501.90
680.04	498.85
680.37	495.57
680.71	492.45
681.05	489.46
681.39	486.37
681.73	483.29
682.06	480.51
682.40	477.60
682.74	474.73
683.08	471.84
683.42	468.88
683.75	466.08
684.09	463.16
684.43	460.35
684.77	457.61
685.10	454.88
685.44	452.21
685.78	449.68
686.12	447.09
686.45	444.46
686.79	441.85
687.13	439.27
687.46	436.79
687.80	434.29
688.14	431.73
688.48	429.41
688.81	426.87
689.15	424.38
689.49	421.89
689.82	419.49
690.16	417.05
690.50	414.80
690.83	412.54
691.17	410.23
691.51	408.03
691.84	405.94
692.18	403.74
692.52	401.49
692.85	399.24
693.19	397.05
693.52	394.96
693.86	392.81
694.20	390.78
694.53	388.75
694.87	386.62
695.21	384.59
695.54	382.46
695.88	380.44
696.21	378.40
696.55	376.52
696.88	374.66
697.22	372.81
697.56	370.95
697.89	369.04
698.23	367.21
698.56	365.40
698.90	363.56
699.23	361.69
699.57	359.90
699.90	358.17
700.24	356.44
700.58	354.72
700.91	353.08
701.25	351.40
701.58	349.81
701.92	348.27
702.25	346.70
702.59	345.17
702.92	343.69
703.26	342.26
703.59	340.77
703.93	339.34
704.26	337.91
704.60	336.41
704.93	334.94
705.26	333.56
705.60	332.21
705.93	330.89
706.27	329.66
706.60	328.42
706.94	327.17
707.27	325.85
707.61	324.58
707.94	323.37
708.27	322.12
708.61	320.88
708.94	319.74
709.28	318.59
709.61	317.41
709.94	316.27
710.28	315.06
710.61	313.94
710.95	312.74
711.28	311.66
711.61	310.56
711.95	309.54
712.28	308.44
712.61	307.28
712.95	306.16
713.28	305.17
713.61	304.19
713.95	303.20
714.28	302.25
714.61	301.25
714.95	300.27
715.28	299.29
715.61	298.27
715.95	297.27
716.28	296.29
716.61	295.38
716.95	294.42
717.28	293.59
717.61	292.71
717.94	291.83
718.28	290.93
718.61	290.15
718.94	289.35
719.27	288.57
719.61	287.87
719.94	287.12
720.27	286.28
720.60	285.54
720.94	284.80
721.27	284.11
721.60	283.47
721.93	282.80
722.27	282.20
722.60	281.58
722.93	280.93
723.26	280.33
723.59	279.71
723.93	279.07
724.26	278.45
724.59	277.80
724.92	277.21
725.25	276.65
725.59	276.04
725.92	275.43
726.25	274.81
726.58	274.21
726.91	273.66
727.24	273.09
727.57	272.51
727.91	271.95
728.24	271.41
728.57	270.84
728.90	270.29
729.23	269.70
729.56	269.17
729.89	268.64
730.22	268.06
730.55	267.54
730.89	267.06
731.22	266.54
731.55	266.05
731.88	265.53
732.21	264.98
732.54	264.47
732.87	264.01
733.20	263.56
733.53	263.15
733.86	262.72
734.19	262.32
734.52	261.88
734.85	261.50
735.18	261.04
735.51	260.62
735.84	260.19
736.17	259.82
736.50	259.38
736.83	259.08
737.16	258.69
737.49	258.29
737.82	257.87
738.15	257.49
738.48	257.10
738.81	256.73
739.14	256.42
739.47	256.08
739.80	255.72
740.13	255.39
740.46	255.00
740.79	254.60
741.12	254.20
741.45	253.83
741.78	253.41
742.11	253.08
742.44	252.72
742.77	252.38
743.10	252.03
743.43	251.69
743.75	251.26
744.08	251.10
744.41	250.77
744.74	250.51
745.07	250.19
745.40	249.90
745.73	249.64
746.06	249.28
746.39	248.97
746.71	248.68
747.04	248.39
747.37	248.07
747.70	247.81
748.03	247.53
748.36	247.28
748.68	247.01
749.01	246.69
749.34	246.43
749.67	246.16
750.00	245.92
750.33	245.76
750.65	245.50
750.98	245.12
751.31	244.90
751.64	244.62
751.97	244.44
752.29	244.18
752.62	243.89
752.95	243.65
753.28	243.40
753.60	243.16
753.93	242.92
754.26	242.68
754.59	242.43
754.91	242.21
755.24	242.00
755.57	241.76
755.90	241.54
756.22	241.29
756.55	241.09
756.88	240.83
757.20	240.55
757.53	240.34
757.86	240.17
758.19	239.96
758.51	239.80
758.84	239.54
759.17	239.37
759.49	239.19
759.82	239.07
760.15	238.89
760.47	238.73
760.80	238.54
761.13	238.40
761.45	238.23
761.78	238.08
762.11	237.89
762.43	237.72
762.76	237.60
763.08	237.48
763.41	237.32
763.74	237.19
764.06	237.03
764.39	236.85
764.71	236.70
765.04	236.52
765.37	236.35
765.69	236.21
766.02	236.04
766.34	235.90
766.67	235.73
767.00	235.62
767.32	235.57
767.65	235.50
767.97	235.34
768.30	235.20
768.62	235.08
768.95	234.96
769.27	234.84
769.60	234.71
769.92	234.56
770.25	234.42
770.57	234.29
770.90	234.20
771.22	234.09
771.55	233.99
771.87	233.92
772.20	233.80
772.52	233.78
772.85	233.82
773.17	233.75
773.50	233.62
773.82	233.50
774.15	233.29
774.47	233.13
774.80	233.05
775.12	233.01
775.45	232.91
775.77	232.85
776.09	232.79
776.42	232.72
776.74	232.68
777.07	232.59
777.39	232.51
777.72	232.38
778.04	232.30
778.36	232.18
778.69	232.08
779.01	232.02
779.33	231.89
779.66	231.66
779.98	231.51
780.31	231.48
780.63	231.42
780.95	231.39
781.28	231.35
781.60	231.26
781.92	231.16
782.25	231.04
782.57	230.93
782.89	230.83
783.22	230.76
783.54	230.66
783.86	230.60
784.19	230.54
784.51	230.51
784.83	230.44
785.16	230.39
785.48	230.32
785.80	230.25
786.12	230.21
786.45	230.16
