SpectraSuite Data File
++++++++++++++++++++++++++++++++++++
Date: Fri Feb 01 14:57:20 EST 2013
User: group
Dark Spectrum Present: No
Reference Spectrum Present: No
Number of Sampled Component Spectra: 1
Spectrometers: USB2E7196
Integration Time (usec): 35000 (USB2E7196)
Spectra Averaged: 100 (USB2E7196)
Boxcar Smoothing: 10 (USB2E7196)
Correct for Electrical Dark: No (USB2E7196)
Strobe/Lamp Enabled: No (USB2E7196)
Correct for Detector Non-linearity: No (USB2E7196)
Correct for Stray Light: No (USB2E7196)
Number of Pixels in Processed Spectrum: 2048
>>>>>Begin Processed Spectral Data<<<<<
339.09	0.00
339.48	215.54
339.86	216.71
340.24	217.99
340.63	219.17
341.01	222.98
341.39	222.39
341.78	223.94
342.16	224.40
342.54	224.68
342.93	213.53
343.31	224.37
343.69	224.91
344.07	225.41
344.46	225.86
344.84	226.27
345.22	226.48
345.60	226.69
345.99	226.91
346.37	227.04
346.75	227.19
347.13	227.28
347.52	227.34
347.90	227.46
348.28	227.51
348.66	227.56
349.05	227.58
349.43	227.64
349.81	227.71
350.19	227.76
350.57	227.82
350.96	227.89
351.34	227.94
351.72	227.99
352.10	228.08
352.48	228.16
352.87	228.23
353.25	228.28
353.63	228.39
354.01	228.41
354.39	228.50
354.77	228.56
355.15	228.64
355.54	228.69
355.92	228.70
356.30	228.78
356.68	228.90
357.06	228.95
357.44	228.98
357.82	229.02
358.20	229.10
358.58	229.17
358.97	229.27
359.35	229.33
359.73	229.42
360.11	229.45
360.49	229.48
360.87	229.52
361.25	229.59
361.63	229.62
362.01	229.66
362.39	229.70
362.77	229.75
363.15	229.76
363.53	229.80
363.91	229.82
364.29	229.83
364.67	229.74
365.05	229.74
365.43	229.75
365.81	229.75
366.19	229.75
366.57	229.78
366.95	229.74
367.33	229.68
367.71	229.66
368.09	229.63
368.47	229.62
368.85	229.57
369.23	229.54
369.61	229.47
369.99	229.47
370.37	229.40
370.75	229.37
371.13	229.31
371.51	229.23
371.89	229.15
372.27	229.07
372.65	229.05
373.03	228.99
373.41	228.91
373.78	228.83
374.16	228.70
374.54	228.59
374.92	228.49
375.30	228.43
375.68	228.34
376.06	228.25
376.44	228.16
376.82	228.10
377.19	227.99
377.57	227.91
377.95	227.78
378.33	227.71
378.71	227.59
379.09	227.58
379.47	227.52
379.84	227.45
380.22	227.35
380.60	227.25
380.98	227.15
381.36	227.10
381.73	227.00
382.11	226.95
382.49	226.90
382.87	226.83
383.25	226.77
383.62	226.79
384.00	226.71
384.38	226.65
384.76	226.59
385.13	226.60
385.51	226.55
385.89	226.49
386.27	226.44
386.64	226.39
387.02	226.31
387.40	226.26
387.78	226.26
388.15	226.25
388.53	226.22
388.91	226.21
389.29	226.15
389.66	226.16
390.04	226.13
390.42	226.13
390.79	226.11
391.17	226.12
391.55	226.04
391.92	226.05
392.30	226.04
392.68	226.02
393.05	226.03
393.43	226.08
393.81	226.14
394.18	226.13
394.56	226.16
394.94	226.20
395.31	226.25
395.69	226.29
396.06	226.39
396.44	226.43
396.82	226.49
397.19	226.65
397.57	226.72
397.95	226.80
398.32	226.86
398.70	226.97
399.07	227.05
399.45	227.13
399.82	227.19
400.20	227.32
400.58	227.41
400.95	227.47
401.33	227.57
401.70	227.75
402.08	227.88
402.45	228.02
402.83	228.14
403.20	228.27
403.58	228.42
403.95	228.55
404.33	228.71
404.71	228.86
405.08	229.02
405.46	229.18
405.83	229.35
406.21	229.51
406.58	229.71
406.96	229.89
407.33	230.04
407.70	230.27
408.08	230.57
408.45	230.79
408.83	231.02
409.20	231.23
409.58	231.41
409.95	231.67
410.33	231.96
410.70	232.26
411.08	232.56
411.45	232.82
411.82	233.11
412.20	233.46
412.57	233.87
412.95	234.19
413.32	234.56
413.69	234.92
414.07	235.36
414.44	235.81
414.82	236.25
415.19	236.84
415.56	237.37
415.94	237.86
416.31	238.49
416.68	239.10
417.06	239.83
417.43	240.51
417.81	241.28
418.18	242.05
418.55	242.83
418.93	243.67
419.30	244.58
419.67	245.50
420.04	246.40
420.42	247.38
420.79	248.53
421.16	249.67
421.54	250.88
421.91	252.06
422.28	253.30
422.66	254.67
423.03	255.91
423.40	257.25
423.77	258.67
424.15	260.10
424.52	261.59
424.89	263.16
425.26	264.65
425.64	266.07
426.01	267.68
426.38	269.32
426.75	271.00
427.13	272.73
427.50	274.53
427.87	276.43
428.24	278.30
428.61	280.05
428.99	281.97
429.36	284.07
429.73	286.11
430.10	288.13
430.47	290.18
430.85	292.32
431.22	294.58
431.59	296.93
431.96	299.21
432.33	301.70
432.70	304.07
433.08	306.90
433.45	309.57
433.82	312.17
434.19	315.05
434.56	317.88
434.93	320.58
435.30	323.21
435.68	326.14
436.05	329.01
436.42	331.82
436.79	334.38
437.16	337.12
437.53	340.01
437.90	342.85
438.27	345.62
438.64	348.52
439.01	351.14
439.38	353.41
439.75	355.52
440.13	358.05
440.50	360.42
440.87	362.30
441.24	364.28
441.61	366.45
441.98	367.93
442.35	369.74
442.72	371.56
443.09	373.34
443.46	374.31
443.83	374.88
444.20	375.38
444.57	376.21
444.94	376.48
445.31	376.79
445.68	377.12
446.05	377.23
446.42	376.80
446.79	376.35
447.16	375.89
447.53	375.62
447.90	374.40
448.27	373.23
448.64	371.61
449.01	370.39
449.37	368.42
449.74	366.58
450.11	364.32
450.48	361.84
450.85	359.35
451.22	357.20
451.59	355.16
451.96	353.25
452.33	350.65
452.70	348.29
453.07	345.50
453.43	342.60
453.80	339.80
454.17	337.14
454.54	334.58
454.91	331.85
455.28	329.17
455.65	326.69
456.02	324.25
456.38	322.11
456.75	319.48
457.12	317.23
457.49	314.97
457.86	312.82
458.23	310.96
458.59	308.89
458.96	306.81
459.33	304.92
459.70	303.04
460.07	301.52
460.43	299.79
460.80	298.14
461.17	296.70
461.54	295.22
461.91	293.75
462.27	292.32
462.64	291.03
463.01	289.67
463.38	288.35
463.74	286.97
464.11	285.80
464.48	284.76
464.85	283.61
465.21	282.72
465.58	281.76
465.95	280.67
466.32	279.80
466.68	278.91
467.05	278.00
467.42	277.09
467.78	276.14
468.15	275.23
468.52	274.55
468.88	273.65
469.25	272.82
469.62	272.20
469.98	271.51
470.35	270.87
470.72	270.25
471.08	269.63
471.45	269.05
471.82	268.49
472.18	267.89
472.55	267.45
472.92	266.92
473.28	266.41
473.65	265.93
474.02	265.44
474.38	265.04
474.75	264.72
475.11	264.32
475.48	264.04
475.85	263.82
476.21	263.56
476.58	263.38
476.94	263.21
477.31	263.01
477.67	262.83
478.04	262.74
478.41	262.65
478.77	262.68
479.14	262.64
479.50	262.64
479.87	262.72
480.23	262.82
480.60	262.88
480.96	263.00
481.33	263.23
481.69	263.44
482.06	263.63
482.42	263.84
482.79	264.11
483.15	264.43
483.52	264.78
483.88	265.15
484.25	265.53
484.61	265.98
484.98	266.42
485.34	266.98
485.71	267.55
486.07	268.16
486.44	268.71
486.80	269.38
487.17	270.12
487.53	270.92
487.90	271.71
488.26	272.64
488.62	273.63
488.99	274.59
489.35	275.62
489.72	276.71
490.08	277.88
490.44	279.11
490.81	280.43
491.17	281.75
491.54	283.22
491.90	284.73
492.26	286.36
492.63	288.07
492.99	289.86
493.36	291.71
493.72	293.76
494.08	295.91
494.45	298.15
494.81	300.52
495.17	302.92
495.54	305.48
495.90	308.14
496.26	310.88
496.63	313.83
496.99	316.90
497.35	320.16
497.72	323.53
498.08	327.09
498.44	330.76
498.80	334.70
499.17	338.73
499.53	342.88
499.89	347.22
500.26	351.75
500.62	356.44
500.98	361.41
501.34	366.40
501.71	371.65
502.07	377.04
502.43	382.63
502.79	388.44
503.16	394.50
503.52	400.73
503.88	407.21
504.24	413.80
504.60	420.68
504.97	427.70
505.33	434.98
505.69	442.61
506.05	450.34
506.41	458.18
506.78	466.28
507.14	474.71
507.50	483.47
507.86	492.45
508.22	501.54
508.59	510.68
508.95	520.31
509.31	530.06
509.67	540.16
510.03	550.41
510.39	560.93
510.75	571.75
511.12	582.72
511.48	593.94
511.84	605.42
512.20	616.97
512.56	628.99
512.92	641.28
513.28	653.60
513.64	666.09
514.00	678.92
514.37	691.91
514.73	704.98
515.09	717.97
515.45	731.30
515.81	744.91
516.17	758.95
516.53	773.08
516.89	787.29
517.25	801.48
517.61	815.96
517.97	830.46
518.33	844.85
518.69	859.65
519.05	874.68
519.41	889.89
519.77	905.44
520.13	920.89
520.49	936.20
520.85	951.69
521.21	967.36
521.57	983.52
521.93	999.29
522.29	1015.85
522.65	1032.15
523.01	1048.33
523.37	1064.48
523.73	1080.73
524.09	1096.82
524.45	1113.17
524.81	1129.73
525.17	1146.55
525.53	1163.44
525.89	1180.48
526.25	1197.31
526.61	1213.68
526.97	1230.57
527.33	1247.06
527.68	1263.76
528.04	1280.33
528.40	1297.11
528.76	1314.33
529.12	1330.95
529.48	1347.98
529.84	1363.94
530.20	1380.63
530.56	1397.76
530.91	1415.15
531.27	1432.01
531.63	1448.62
531.99	1465.17
532.35	1481.31
532.71	1497.21
533.07	1513.61
533.42	1529.33
533.78	1545.39
534.14	1561.72
534.50	1577.09
534.86	1593.02
535.21	1608.27
535.57	1624.34
535.93	1639.86
536.29	1654.68
536.65	1669.97
537.00	1684.77
537.36	1700.18
537.72	1714.97
538.08	1729.47
538.44	1743.39
538.79	1757.31
539.15	1771.19
539.51	1785.18
539.87	1799.80
540.22	1813.68
540.58	1827.58
540.94	1841.37
541.29	1854.54
541.65	1867.38
542.01	1880.72
542.37	1893.18
542.72	1905.67
543.08	1917.46
543.44	1929.87
543.79	1941.25
544.15	1952.18
544.51	1963.82
544.87	1974.90
545.22	1985.59
545.58	1995.82
545.94	2005.80
546.29	2015.78
546.65	2025.50
547.01	2034.70
547.36	2043.33
547.72	2051.85
548.07	2059.61
548.43	2067.74
548.79	2075.84
549.14	2083.47
549.50	2090.75
549.86	2098.49
550.21	2105.88
550.57	2113.03
550.92	2119.60
551.28	2126.63
551.64	2133.79
551.99	2140.42
552.35	2146.50
552.70	2152.57
553.06	2158.61
553.41	2164.75
553.77	2170.70
554.13	2176.79
554.48	2182.87
554.84	2188.27
555.19	2193.58
555.55	2198.71
555.90	2203.17
556.26	2207.78
556.61	2212.41
556.97	2216.48
557.32	2220.72
557.68	2224.68
558.03	2228.94
558.39	2232.66
558.74	2237.33
559.10	2241.03
559.45	2244.46
559.81	2248.77
560.16	2252.57
560.52	2255.68
560.87	2259.17
561.23	2261.73
561.58	2264.63
561.94	2267.15
562.29	2269.47
562.64	2271.95
563.00	2274.58
563.35	2277.81
563.71	2280.91
564.06	2283.91
564.42	2286.79
564.77	2288.94
565.12	2291.12
565.48	2292.88
565.83	2294.55
566.19	2295.52
566.54	2296.40
566.89	2297.42
567.25	2297.79
567.60	2299.12
567.96	2300.59
568.31	2301.22
568.66	2302.17
569.02	2302.69
569.37	2302.77
569.72	2303.42
570.08	2303.43
570.43	2303.19
570.78	2302.30
571.14	2300.57
571.49	2299.10
571.84	2298.55
572.20	2297.16
572.55	2295.92
572.90	2294.27
573.26	2292.73
573.61	2290.93
573.96	2288.96
574.31	2285.76
574.67	2282.55
575.02	2278.64
575.37	2275.07
575.72	2271.01
576.08	2267.71
576.43	2264.15
576.78	2260.40
577.13	2257.12
577.49	2253.96
577.84	2250.44
578.19	2246.74
578.54	2242.92
578.90	2238.54
579.25	2233.02
579.60	2227.87
579.95	2222.79
580.30	2217.56
580.66	2212.21
581.01	2207.22
581.36	2202.08
581.71	2197.75
582.06	2193.13
582.42	2188.52
582.77	2183.24
583.12	2178.54
583.47	2173.48
583.82	2168.23
584.17	2162.87
584.53	2157.24
584.88	2151.46
585.23	2145.34
585.58	2139.79
585.93	2134.21
586.28	2129.39
586.63	2124.18
586.98	2119.25
587.34	2114.48
587.69	2109.54
588.04	2104.09
588.39	2098.18
588.74	2091.74
589.09	2085.55
589.44	2078.69
589.79	2072.50
590.14	2066.88
590.49	2060.19
590.84	2053.56
591.19	2047.51
591.54	2040.95
591.89	2033.48
592.25	2026.60
592.60	2019.42
592.95	2011.64
593.30	2004.35
593.65	1996.76
594.00	1989.37
594.35	1982.05
594.70	1973.86
595.05	1966.51
595.40	1959.33
595.75	1951.67
596.10	1945.26
596.45	1938.34
596.80	1931.98
597.15	1925.29
597.50	1918.04
597.85	1911.66
598.19	1905.04
598.54	1897.90
598.89	1891.26
599.24	1885.20
599.59	1878.33
599.94	1872.08
600.29	1865.78
600.64	1859.04
600.99	1851.25
601.34	1844.45
601.69	1837.29
602.04	1830.35
602.39	1822.95
602.74	1816.01
603.08	1809.43
603.43	1802.61
603.78	1795.32
604.13	1788.14
604.48	1780.78
604.83	1773.92
605.18	1766.70
605.53	1758.67
605.87	1750.62
606.22	1743.28
606.57	1735.50
606.92	1728.18
607.27	1720.93
607.62	1713.87
607.96	1706.61
608.31	1700.20
608.66	1692.55
609.01	1685.09
609.36	1677.50
609.70	1669.46
610.05	1661.43
610.40	1653.69
610.75	1645.48
611.10	1637.89
611.44	1629.59
611.79	1621.71
612.14	1612.96
612.49	1604.05
612.83	1595.79
613.18	1587.74
613.53	1579.70
613.88	1571.12
614.22	1562.89
614.57	1554.45
614.92	1546.53
615.27	1539.01
615.61	1530.66
615.96	1522.79
616.31	1515.26
616.65	1507.96
617.00	1500.53
617.35	1492.95
617.70	1484.56
618.04	1476.10
618.39	1467.95
618.74	1460.38
619.08	1452.18
619.43	1444.81
619.78	1437.81
620.12	1430.66
620.47	1423.06
620.82	1414.88
621.16	1407.51
621.51	1400.00
621.85	1392.41
622.20	1383.98
622.55	1375.60
622.89	1367.82
623.24	1360.28
623.59	1352.82
623.93	1345.30
624.28	1338.11
624.62	1330.55
624.97	1323.50
625.32	1316.82
625.66	1309.83
626.01	1302.72
626.35	1295.24
626.70	1287.46
627.04	1279.76
627.39	1271.97
627.73	1264.67
628.08	1257.82
628.43	1250.47
628.77	1243.09
629.12	1235.50
629.46	1228.39
629.81	1221.10
630.15	1214.08
630.50	1206.70
630.84	1198.56
631.19	1190.80
631.53	1183.33
631.88	1175.83
632.22	1168.22
632.57	1160.90
632.91	1153.33
633.26	1145.94
633.60	1138.72
633.95	1131.71
634.29	1124.72
634.64	1118.17
634.98	1110.78
635.32	1103.77
635.67	1097.32
636.01	1090.79
636.36	1084.11
636.70	1077.59
637.05	1071.11
637.39	1064.56
637.73	1058.11
638.08	1052.27
638.42	1046.29
638.77	1039.94
639.11	1033.32
639.45	1027.02
639.80	1020.45
640.14	1014.10
640.49	1007.63
640.83	1001.43
641.17	995.20
641.52	988.99
641.86	982.65
642.20	976.95
642.55	970.74
642.89	964.27
643.23	957.75
643.58	951.95
643.92	945.77
644.26	939.68
644.61	933.70
644.95	927.69
645.29	921.11
645.64	914.35
645.98	907.96
646.32	902.24
646.66	896.27
647.01	890.49
647.35	884.84
647.69	879.12
648.04	873.54
648.38	867.75
648.72	861.72
649.06	855.66
649.41	849.83
649.75	843.77
650.09	837.84
650.43	832.06
650.78	825.97
651.12	819.99
651.46	814.29
651.80	808.55
652.14	803.18
652.49	797.85
652.83	792.70
653.17	787.07
653.51	781.34
653.85	775.99
654.20	770.31
654.54	764.32
654.88	758.52
655.22	752.58
655.56	746.90
655.90	741.47
656.25	736.19
656.59	730.88
656.93	725.88
657.27	720.70
657.61	715.32
657.95	710.28
658.29	705.30
658.64	700.13
658.98	694.88
659.32	689.39
659.66	684.23
660.00	678.97
660.34	674.04
660.68	669.21
661.02	664.18
661.36	659.58
661.70	655.13
662.05	650.81
662.39	646.64
662.73	642.30
663.07	637.96
663.41	633.55
663.75	629.06
664.09	624.52
664.43	620.27
664.77	616.15
665.11	611.94
665.45	607.82
665.79	603.75
666.13	599.69
666.47	595.72
666.81	591.62
667.15	587.57
667.49	583.74
667.83	579.97
668.17	576.09
668.51	572.00
668.85	568.03
669.19	564.22
669.53	560.37
669.87	556.41
670.21	552.78
670.55	549.22
670.89	545.83
671.23	542.43
671.57	538.94
671.91	535.54
672.25	532.01
672.58	528.54
672.92	525.22
673.26	522.08
673.60	518.93
673.94	515.86
674.28	512.96
674.62	510.05
674.96	506.94
675.30	504.06
675.64	501.20
675.97	498.48
676.31	495.65
676.65	492.73
676.99	490.09
677.33	487.27
677.67	484.43
678.01	481.40
678.34	478.42
678.68	475.57
679.02	472.73
679.36	470.03
679.70	467.39
680.04	464.61
680.37	461.73
680.71	458.97
681.05	456.34
681.39	453.69
681.73	451.11
682.06	448.60
682.40	446.05
682.74	443.60
683.08	441.03
683.42	438.44
683.75	436.00
684.09	433.49
684.43	431.06
684.77	428.67
685.10	426.36
685.44	424.11
685.78	421.81
686.12	419.59
686.45	417.33
686.79	415.03
687.13	412.88
687.46	410.80
687.80	408.63
688.14	406.47
688.48	404.44
688.81	402.17
689.15	400.06
689.49	397.98
689.82	395.86
690.16	393.82
690.50	391.93
690.83	389.95
691.17	387.98
691.51	386.08
691.84	384.23
692.18	382.28
692.52	380.25
692.85	378.37
693.19	376.52
693.52	374.73
693.86	372.93
694.20	371.15
694.53	369.32
694.87	367.54
695.21	365.76
695.54	363.96
695.88	362.26
696.21	360.51
696.55	358.80
696.88	357.10
697.22	355.50
697.56	353.86
697.89	352.26
698.23	350.64
698.56	349.01
698.90	347.42
699.23	345.77
699.57	344.25
699.90	342.71
700.24	341.11
700.58	339.56
700.91	338.08
701.25	336.63
701.58	335.25
701.92	333.85
702.25	332.49
702.59	331.08
702.92	329.71
703.26	328.42
703.59	327.17
703.93	326.06
704.26	324.80
704.60	323.50
704.93	322.23
705.26	320.99
705.60	319.84
705.93	318.67
706.27	317.65
706.60	316.64
706.94	315.56
707.27	314.45
707.61	313.39
707.94	312.38
708.27	311.31
708.61	310.27
708.94	309.33
709.28	308.34
709.61	307.42
709.94	306.50
710.28	305.44
710.61	304.46
710.95	303.39
711.28	302.50
711.61	301.58
711.95	300.66
712.28	299.72
712.61	298.73
712.95	297.83
713.28	296.96
713.61	296.05
713.95	295.11
714.28	294.33
714.61	293.50
714.95	292.62
715.28	291.76
715.61	290.89
715.95	290.01
716.28	289.19
716.61	288.37
716.95	287.56
717.28	286.91
717.61	286.17
717.94	285.40
718.28	284.57
718.61	283.86
718.94	283.20
719.27	282.61
719.61	282.01
719.94	281.38
720.27	280.71
720.60	280.07
720.94	279.48
721.27	278.88
721.60	278.29
721.93	277.75
722.27	277.22
722.60	276.67
722.93	276.11
723.26	275.54
723.59	274.99
723.93	274.43
724.26	273.83
724.59	273.28
724.92	272.79
725.25	272.29
725.59	271.78
725.92	271.24
726.25	270.70
726.58	270.18
726.91	269.66
727.24	269.16
727.57	268.71
727.91	268.23
728.24	267.75
728.57	267.27
728.90	266.83
729.23	266.32
729.56	265.90
729.89	265.43
730.22	265.00
730.55	264.54
730.89	264.07
731.22	263.67
731.55	263.28
731.88	262.83
732.21	262.41
732.54	262.01
732.87	261.59
733.20	261.20
733.53	260.85
733.86	260.51
734.19	260.14
734.52	259.74
734.85	259.45
735.18	259.05
735.51	258.69
735.84	258.28
736.17	257.94
736.50	257.55
736.83	257.33
737.16	256.96
737.49	256.64
737.82	256.32
738.15	255.99
738.48	255.61
738.81	255.27
739.14	254.97
739.47	254.65
739.80	254.36
740.13	254.07
740.46	253.68
740.79	253.37
741.12	253.03
741.45	252.70
741.78	252.35
742.11	252.10
742.44	251.78
742.77	251.52
743.10	251.22
743.43	250.92
743.75	250.53
744.08	250.37
744.41	250.08
744.74	249.82
745.07	249.56
745.40	249.33
745.73	249.14
746.06	248.86
746.39	248.58
746.71	248.30
747.04	248.04
747.37	247.80
747.70	247.55
748.03	247.33
748.36	247.12
748.68	246.88
749.01	246.58
749.34	246.34
749.67	246.09
750.00	245.86
750.33	245.72
750.65	245.49
750.98	245.18
751.31	244.97
751.64	244.75
751.97	244.57
752.29	244.35
752.62	244.09
752.95	243.88
753.28	243.68
753.60	243.47
753.93	243.30
754.26	243.15
754.59	242.88
754.91	242.64
755.24	242.43
755.57	242.23
755.90	242.08
756.22	241.88
756.55	241.72
756.88	241.50
757.20	241.21
757.53	241.07
757.86	240.90
758.19	240.75
758.51	240.61
758.84	240.40
759.17	240.25
759.49	240.10
759.82	239.96
760.15	239.79
760.47	239.66
760.80	239.47
761.13	239.32
761.45	239.21
761.78	239.08
762.11	238.95
762.43	238.80
762.76	238.66
763.08	238.54
763.41	238.39
763.74	238.29
764.06	238.20
764.39	238.03
764.71	237.89
765.04	237.76
765.37	237.63
765.69	237.52
766.02	237.38
766.34	237.25
766.67	237.09
767.00	237.00
767.32	236.92
767.65	236.86
767.97	236.73
768.30	236.64
768.62	236.53
768.95	236.41
769.27	236.34
769.60	236.24
769.92	236.14
770.25	236.04
770.57	235.93
770.90	235.78
771.22	235.68
771.55	235.59
771.87	235.47
772.20	235.36
772.52	235.31
772.85	235.34
773.17	235.26
773.50	235.20
773.82	235.08
774.15	234.94
774.47	234.80
774.80	234.71
775.12	234.61
775.45	234.51
775.77	234.43
776.09	234.32
776.42	234.22
776.74	234.11
777.07	234.03
777.39	233.95
777.72	233.89
778.04	233.84
778.36	233.72
778.69	233.67
779.01	233.61
779.33	233.49
779.66	233.28
779.98	233.21
780.31	233.11
780.63	233.09
780.95	233.05
781.28	232.96
781.60	232.86
781.92	232.82
782.25	232.76
782.57	232.71
782.89	232.67
783.22	232.59
783.54	232.54
783.86	232.49
784.19	232.42
784.51	232.39
784.83	232.30
785.16	232.28
785.48	232.23
785.80	232.14
786.12	232.10
786.45	232.10
786.77	232.04
787.09	232.02
