SpectraSuite Data File
++++++++++++++++++++++++++++++++++++
Date: Fri Feb 01 17:33:31 EST 2013
User: group
Dark Spectrum Present: No
Reference Spectrum Present: No
Number of Sampled Component Spectra: 1
Spectrometers: USB2E7196
Integration Time (usec): 35000 (USB2E7196)
Spectra Averaged: 100 (USB2E7196)
Boxcar Smoothing: 10 (USB2E7196)
Correct for Electrical Dark: No (USB2E7196)
Strobe/Lamp Enabled: No (USB2E7196)
Correct for Detector Non-linearity: No (USB2E7196)
Correct for Stray Light: No (USB2E7196)
Number of Pixels in Processed Spectrum: 2048
>>>>>Begin Processed Spectral Data<<<<<
339.09	0.00
339.48	212.76
339.86	214.78
340.24	215.80
340.63	216.84
341.01	219.64
341.39	219.85
341.78	221.63
342.16	222.79
342.54	223.62
342.93	211.56
343.31	222.25
343.69	222.80
344.07	223.26
344.46	223.70
344.84	224.07
345.22	224.32
345.60	224.59
345.99	224.76
346.37	224.85
346.75	224.90
347.13	224.91
347.52	224.93
347.90	224.99
348.28	225.02
348.66	225.04
349.05	225.02
349.43	225.03
349.81	225.06
350.19	225.09
350.57	225.12
350.96	225.21
351.34	225.28
351.72	225.36
352.10	225.44
352.48	225.50
352.87	225.55
353.25	225.61
353.63	225.66
354.01	225.70
354.39	225.81
354.77	225.90
355.15	226.02
355.54	226.11
355.92	226.15
356.30	226.23
356.68	226.37
357.06	226.41
357.44	226.46
357.82	226.52
358.20	226.60
358.58	226.65
358.97	226.68
359.35	226.77
359.73	226.85
360.11	226.90
360.49	226.94
360.87	227.03
361.25	227.07
361.63	227.14
362.01	227.20
362.39	227.21
362.77	227.28
363.15	227.31
363.53	227.31
363.91	227.33
364.29	227.37
364.67	227.30
365.05	227.33
365.43	227.34
365.81	227.36
366.19	227.40
366.57	227.44
366.95	227.43
367.33	227.40
367.71	227.38
368.09	227.40
368.47	227.38
368.85	227.34
369.23	227.34
369.61	227.30
369.99	227.29
370.37	227.28
370.75	227.28
371.13	227.24
371.51	227.21
371.89	227.21
372.27	227.16
372.65	227.12
373.03	227.09
373.41	227.07
373.78	227.04
374.16	226.94
374.54	226.85
374.92	226.79
375.30	226.74
375.68	226.69
376.06	226.62
376.44	226.56
376.82	226.52
377.19	226.47
377.57	226.38
377.95	226.30
378.33	226.19
378.71	226.06
379.09	226.01
379.47	225.99
379.84	225.92
380.22	225.86
380.60	225.81
380.98	225.76
381.36	225.70
381.73	225.64
382.11	225.59
382.49	225.57
382.87	225.52
383.25	225.48
383.62	225.50
384.00	225.43
384.38	225.36
384.76	225.33
385.13	225.28
385.51	225.28
385.89	225.24
386.27	225.25
386.64	225.25
387.02	225.19
387.40	225.11
387.78	225.05
388.15	225.00
388.53	224.97
388.91	224.92
389.29	224.91
389.66	224.88
390.04	224.87
390.42	224.82
390.79	224.82
391.17	224.77
391.55	224.68
391.92	224.66
392.30	224.70
392.68	224.64
393.05	224.65
393.43	224.64
393.81	224.68
394.18	224.64
394.56	224.63
394.94	224.63
395.31	224.66
395.69	224.72
396.06	224.78
396.44	224.80
396.82	224.86
397.19	224.91
397.57	224.93
397.95	224.98
398.32	224.99
398.70	225.01
399.07	225.08
399.45	225.12
399.82	225.20
400.20	225.21
400.58	225.31
400.95	225.33
401.33	225.38
401.70	225.47
402.08	225.56
402.45	225.61
402.83	225.72
403.20	225.77
403.58	225.86
403.95	225.95
404.33	226.03
404.71	226.12
405.08	226.27
405.46	226.40
405.83	226.54
406.21	226.70
406.58	226.86
406.96	227.03
407.33	227.19
407.70	227.35
408.08	227.66
408.45	227.87
408.83	228.12
409.20	228.33
409.58	228.53
409.95	228.81
410.33	229.12
410.70	229.38
411.08	229.74
411.45	230.04
411.82	230.32
412.20	230.71
412.57	231.15
412.95	231.45
413.32	231.86
413.69	232.29
414.07	232.76
414.44	233.26
414.82	233.75
415.19	234.32
415.56	234.92
415.94	235.50
416.31	236.18
416.68	236.81
417.06	237.55
417.43	238.26
417.81	239.04
418.18	239.87
418.55	240.74
418.93	241.60
419.30	242.56
419.67	243.60
420.04	244.62
420.42	245.64
420.79	246.90
421.16	248.10
421.54	249.36
421.91	250.63
422.28	251.95
422.66	253.36
423.03	254.76
423.40	256.13
423.77	257.58
424.15	259.08
424.52	260.70
424.89	262.42
425.26	264.05
425.64	265.58
426.01	267.25
426.38	268.98
426.75	270.73
427.13	272.50
427.50	274.37
427.87	276.32
428.24	278.26
428.61	280.08
428.99	282.11
429.36	284.33
429.73	286.45
430.10	288.58
430.47	290.72
430.85	292.92
431.22	295.26
431.59	297.75
431.96	300.08
432.33	302.61
432.70	305.10
433.08	308.04
433.45	310.77
433.82	313.48
434.19	316.51
434.56	319.48
434.93	322.28
435.30	325.01
435.68	328.01
436.05	330.99
436.42	333.87
436.79	336.51
437.16	339.31
437.53	342.30
437.90	345.18
438.27	348.04
438.64	351.00
439.01	353.70
439.38	356.02
439.75	358.31
440.13	360.94
440.50	363.38
440.87	365.27
441.24	367.32
441.61	369.56
441.98	371.15
442.35	373.02
442.72	374.98
443.09	376.87
443.46	378.00
443.83	378.60
444.20	379.17
444.57	380.05
444.94	380.36
445.31	380.71
445.68	381.11
446.05	381.22
446.42	380.79
446.79	380.36
447.16	379.91
447.53	379.53
447.90	378.31
448.27	377.04
448.64	375.45
449.01	374.29
449.37	372.26
449.74	370.23
450.11	367.89
450.48	365.31
450.85	362.68
451.22	360.38
451.59	358.25
451.96	356.27
452.33	353.57
452.70	351.14
453.07	348.21
453.43	345.14
453.80	342.20
454.17	339.46
454.54	336.82
454.91	333.99
455.28	331.21
455.65	328.62
456.02	326.10
456.38	323.83
456.75	321.02
457.12	318.62
457.49	316.35
457.86	314.11
458.23	312.17
458.59	310.00
458.96	307.83
459.33	305.90
459.70	303.89
460.07	302.31
460.43	300.46
460.80	298.76
461.17	297.30
461.54	295.74
461.91	294.22
462.27	292.71
462.64	291.36
463.01	289.97
463.38	288.62
463.74	287.16
464.11	285.91
464.48	284.83
464.85	283.69
465.21	282.75
465.58	281.72
465.95	280.58
466.32	279.67
466.68	278.76
467.05	277.84
467.42	276.94
467.78	275.94
468.15	275.07
468.52	274.42
468.88	273.50
469.25	272.73
469.62	272.09
469.98	271.39
470.35	270.74
470.72	270.13
471.08	269.45
471.45	268.90
471.82	268.40
472.18	267.79
472.55	267.36
472.92	266.83
473.28	266.41
473.65	265.95
474.02	265.46
474.38	265.08
474.75	264.74
475.11	264.38
475.48	264.15
475.85	263.90
476.21	263.61
476.58	263.44
476.94	263.26
477.31	263.08
477.67	262.93
478.04	262.85
478.41	262.78
478.77	262.86
479.14	262.82
479.50	262.82
479.87	262.93
480.23	262.98
480.60	263.07
480.96	263.16
481.33	263.39
481.69	263.62
482.06	263.84
482.42	264.04
482.79	264.35
483.15	264.61
483.52	265.00
483.88	265.36
484.25	265.75
484.61	266.22
484.98	266.70
485.34	267.28
485.71	267.85
486.07	268.45
486.44	268.98
486.80	269.65
487.17	270.36
487.53	271.14
487.90	272.04
488.26	272.96
488.62	273.92
488.99	274.85
489.35	275.89
489.72	276.98
490.08	278.18
490.44	279.35
490.81	280.70
491.17	282.01
491.54	283.47
491.90	285.00
492.26	286.62
492.63	288.33
492.99	290.07
493.36	291.95
493.72	293.96
494.08	296.02
494.45	298.24
494.81	300.59
495.17	302.97
495.54	305.48
495.90	308.12
496.26	310.89
496.63	313.85
496.99	316.88
497.35	320.09
497.72	323.44
498.08	326.93
498.44	330.49
498.80	334.36
499.17	338.34
499.53	342.44
499.89	346.77
500.26	351.19
500.62	355.78
500.98	360.70
501.34	365.69
501.71	371.00
502.07	376.39
502.43	381.87
502.79	387.62
503.16	393.58
503.52	399.73
503.88	406.02
504.24	412.53
504.60	419.29
504.97	426.32
505.33	433.50
505.69	441.07
506.05	448.76
506.41	456.50
506.78	464.49
507.14	472.80
507.50	481.32
507.86	490.21
508.22	499.18
508.59	508.15
508.95	517.53
509.31	527.05
509.67	536.89
510.03	547.01
510.39	557.37
510.75	567.90
511.12	578.63
511.48	589.68
511.84	600.84
512.20	612.06
512.56	623.63
512.92	635.52
513.28	647.63
513.64	659.81
514.00	672.24
514.37	684.90
514.73	697.58
515.09	710.22
515.45	723.14
515.81	736.41
516.17	750.01
516.53	763.77
516.89	777.67
517.25	791.42
517.61	805.45
517.97	819.55
518.33	833.63
518.69	848.00
519.05	862.48
519.41	877.19
519.77	892.30
520.13	907.35
520.49	922.32
520.85	937.24
521.21	952.40
521.57	968.07
521.93	983.34
522.29	999.14
522.65	1015.03
523.01	1030.66
523.37	1046.31
523.73	1062.02
524.09	1077.59
524.45	1093.32
524.81	1109.60
525.17	1125.82
525.53	1142.03
525.89	1158.40
526.25	1174.69
526.61	1190.75
526.97	1207.10
527.33	1223.08
527.68	1239.21
528.04	1255.17
528.40	1271.25
528.76	1287.90
529.12	1304.07
529.48	1320.51
529.84	1336.14
530.20	1352.25
530.56	1368.74
530.91	1385.60
531.27	1402.02
531.63	1418.05
531.99	1434.25
532.35	1449.90
532.71	1465.53
533.07	1481.40
533.42	1496.98
533.78	1512.76
534.14	1528.52
534.50	1543.48
534.86	1558.99
535.21	1573.85
535.57	1589.41
535.93	1604.49
536.29	1618.96
536.65	1633.71
537.00	1648.18
537.36	1663.13
537.72	1677.36
538.08	1691.61
538.44	1705.09
538.79	1718.61
539.15	1731.83
539.51	1745.27
539.87	1759.16
540.22	1772.51
540.58	1786.08
540.94	1799.00
541.29	1811.51
541.65	1824.14
542.01	1837.08
542.37	1849.43
542.72	1861.69
543.08	1873.39
543.44	1885.67
543.79	1897.01
544.15	1907.83
544.51	1919.40
544.87	1930.28
545.22	1941.13
545.58	1951.42
545.94	1961.21
546.29	1971.17
546.65	1981.39
547.01	1990.72
547.36	1999.52
547.72	2008.15
548.07	2016.28
548.43	2024.69
548.79	2032.70
549.14	2040.30
549.50	2047.82
549.86	2055.44
550.21	2062.93
550.57	2070.29
550.92	2077.12
551.28	2084.24
551.64	2091.58
551.99	2098.17
552.35	2104.70
552.70	2111.01
553.06	2117.21
553.41	2123.81
553.77	2130.01
554.13	2136.17
554.48	2142.55
554.84	2148.51
555.19	2154.00
555.55	2159.34
555.90	2164.11
556.26	2169.52
556.61	2174.52
556.97	2179.27
557.32	2183.90
557.68	2188.28
558.03	2192.91
558.39	2196.90
558.74	2201.76
559.10	2206.04
559.45	2210.04
559.81	2214.61
560.16	2218.82
560.52	2222.39
560.87	2226.20
561.23	2229.27
561.58	2232.52
561.94	2235.46
562.29	2238.07
562.64	2241.35
563.00	2244.25
563.35	2248.11
563.71	2251.69
564.06	2255.23
564.42	2258.50
564.77	2261.43
565.12	2264.50
565.48	2266.89
565.83	2269.30
566.19	2271.19
566.54	2272.38
566.89	2274.12
567.25	2275.30
567.60	2276.94
567.96	2279.25
568.31	2280.55
568.66	2282.12
569.02	2283.13
569.37	2283.93
569.72	2285.16
570.08	2285.76
570.43	2286.33
570.78	2286.33
571.14	2285.07
571.49	2284.18
571.84	2284.12
572.20	2283.42
572.55	2282.50
572.90	2281.28
573.26	2280.31
573.61	2278.92
573.96	2277.75
574.31	2275.16
574.67	2272.67
575.02	2269.58
575.37	2266.49
575.72	2263.13
576.08	2260.15
576.43	2257.24
576.78	2254.04
577.13	2251.16
577.49	2248.24
577.84	2245.06
578.19	2241.59
578.54	2238.59
578.90	2234.96
579.25	2229.89
579.60	2225.35
579.95	2220.82
580.30	2216.05
580.66	2211.17
581.01	2206.56
581.36	2202.00
581.71	2198.19
582.06	2194.08
582.42	2189.98
582.77	2185.00
583.12	2180.82
583.47	2176.67
583.82	2172.08
584.17	2167.13
584.53	2162.11
584.88	2156.85
585.23	2151.57
585.58	2146.35
585.93	2140.98
586.28	2136.31
586.63	2131.60
586.98	2126.80
587.34	2122.32
587.69	2117.70
588.04	2112.91
588.39	2107.55
588.74	2101.21
589.09	2095.31
589.44	2088.78
589.79	2082.79
590.14	2077.42
590.49	2070.99
590.84	2064.59
591.19	2058.86
591.54	2052.60
591.89	2045.62
592.25	2039.17
592.60	2032.19
592.95	2024.94
593.30	2017.86
593.65	2010.49
594.00	2003.55
594.35	1996.37
594.70	1988.43
595.05	1981.57
595.40	1974.30
595.75	1966.89
596.10	1960.83
596.45	1954.33
596.80	1948.35
597.15	1941.99
597.50	1935.38
597.85	1928.98
598.19	1922.53
598.54	1915.74
598.89	1909.16
599.24	1903.25
599.59	1896.87
599.94	1890.61
600.29	1884.35
600.64	1877.72
600.99	1870.52
601.34	1863.86
601.69	1856.96
602.04	1850.34
602.39	1843.06
602.74	1836.49
603.08	1829.91
603.43	1823.33
603.78	1816.11
604.13	1808.90
604.48	1801.86
604.83	1794.79
605.18	1788.23
605.53	1780.45
605.87	1772.26
606.22	1765.21
606.57	1757.15
606.92	1749.53
607.27	1742.58
607.62	1735.88
607.96	1728.87
608.31	1722.35
608.66	1714.78
609.01	1707.37
609.36	1699.71
609.70	1691.81
610.05	1683.60
610.40	1676.01
610.75	1667.68
611.10	1659.91
611.44	1651.31
611.79	1643.17
612.14	1634.49
612.49	1625.13
612.83	1616.46
613.18	1608.36
613.53	1600.21
613.88	1591.73
614.22	1583.54
614.57	1574.80
614.92	1566.62
615.27	1559.16
615.61	1550.63
615.96	1542.54
616.31	1534.73
616.65	1527.39
617.00	1519.68
617.35	1511.95
617.70	1503.55
618.04	1495.03
618.39	1486.67
618.74	1479.12
619.08	1470.76
619.43	1463.08
619.78	1456.04
620.12	1448.98
620.47	1441.40
620.82	1433.05
621.16	1425.46
621.51	1417.61
621.85	1409.84
622.20	1401.14
622.55	1392.43
622.89	1384.45
623.24	1376.71
623.59	1369.23
623.93	1361.51
624.28	1354.22
624.62	1346.65
624.97	1339.34
625.32	1332.38
625.66	1325.20
626.01	1318.00
626.35	1310.57
626.70	1302.78
627.04	1295.02
627.39	1286.96
627.73	1279.40
628.08	1272.45
628.43	1265.31
628.77	1258.12
629.12	1250.54
629.46	1243.45
629.81	1235.86
630.15	1228.61
630.50	1221.09
630.84	1212.83
631.19	1204.75
631.53	1197.05
631.88	1189.32
632.22	1181.63
632.57	1174.28
632.91	1166.74
633.26	1159.17
633.60	1151.51
633.95	1144.19
634.29	1136.98
634.64	1130.23
634.98	1122.84
635.32	1115.62
635.67	1108.85
636.01	1102.05
636.36	1095.16
636.70	1088.45
637.05	1081.95
637.39	1075.42
637.73	1068.91
638.08	1062.91
638.42	1056.92
638.77	1050.43
639.11	1043.96
639.45	1037.56
639.80	1030.84
640.14	1024.41
640.49	1017.85
640.83	1011.57
641.17	1005.40
641.52	999.11
641.86	992.59
642.20	986.65
642.55	980.14
642.89	973.62
643.23	966.93
643.58	961.22
643.92	954.99
644.26	948.99
644.61	942.81
644.95	936.77
645.29	930.28
645.64	923.55
645.98	917.13
646.32	911.10
646.66	904.98
647.01	899.20
647.35	893.48
647.69	887.66
648.04	882.09
648.38	876.26
648.72	870.26
649.06	864.26
649.41	858.32
649.75	852.41
650.09	846.45
650.43	840.68
650.78	834.42
651.12	828.47
651.46	822.60
651.80	816.99
652.14	811.50
652.49	806.17
652.83	800.96
653.17	795.39
653.51	789.79
653.85	784.32
654.20	778.70
654.54	772.68
654.88	766.85
655.22	760.95
655.56	755.17
655.90	749.56
656.25	744.26
656.59	739.00
656.93	733.89
657.27	728.77
657.61	723.28
657.95	718.17
658.29	713.01
658.64	707.66
658.98	702.27
659.32	696.75
659.66	691.47
660.00	686.25
660.34	681.22
660.68	676.20
661.02	671.16
661.36	666.44
661.70	661.89
662.05	657.57
662.39	653.26
662.73	648.86
663.07	644.59
663.41	640.21
663.75	635.69
664.09	631.16
664.43	626.70
664.77	622.70
665.11	618.44
665.45	614.26
665.79	610.30
666.13	606.17
666.47	602.05
666.81	597.88
667.15	593.60
667.49	589.69
667.83	585.83
668.17	581.85
668.51	577.77
668.85	573.71
669.19	569.79
669.53	565.95
669.87	562.06
670.21	558.29
670.55	554.55
670.89	551.09
671.23	547.68
671.57	544.09
671.91	540.44
672.25	536.88
672.58	533.38
672.92	529.89
673.26	526.69
673.60	523.56
673.94	520.44
674.28	517.50
674.62	514.49
674.96	511.40
675.30	508.53
675.64	505.56
675.97	502.76
676.31	499.89
676.65	496.91
676.99	494.15
677.33	491.24
677.67	488.45
678.01	485.42
678.34	482.42
678.68	479.55
679.02	476.75
679.36	473.96
679.70	471.21
680.04	468.41
680.37	465.53
680.71	462.76
681.05	460.03
681.39	457.35
681.73	454.69
682.06	452.17
682.40	449.57
682.74	447.00
683.08	444.45
683.42	441.79
683.75	439.23
684.09	436.57
684.43	434.08
684.77	431.54
685.10	429.12
685.44	426.70
685.78	424.33
686.12	421.95
686.45	419.67
686.79	417.35
687.13	415.17
687.46	412.93
687.80	410.64
688.14	408.43
688.48	406.30
688.81	404.10
689.15	401.83
689.49	399.62
689.82	397.50
690.16	395.34
690.50	393.34
690.83	391.39
691.17	389.44
691.51	387.50
691.84	385.65
692.18	383.70
692.52	381.70
692.85	379.76
693.19	377.88
693.52	375.96
693.86	374.10
694.20	372.31
694.53	370.53
694.87	368.67
695.21	366.83
695.54	364.96
695.88	363.16
696.21	361.44
696.55	359.78
696.88	358.05
697.22	356.40
697.56	354.76
697.89	353.11
698.23	351.54
698.56	349.92
698.90	348.32
699.23	346.62
699.57	345.10
699.90	343.54
700.24	341.98
700.58	340.48
700.91	339.00
701.25	337.53
701.58	336.15
701.92	334.79
702.25	333.43
702.59	332.10
702.92	330.80
703.26	329.50
703.59	328.19
703.93	327.00
704.26	325.77
704.60	324.50
704.93	323.23
705.26	321.89
705.60	320.66
705.93	319.50
706.27	318.50
706.60	317.47
706.94	316.38
707.27	315.23
707.61	314.16
707.94	313.10
708.27	311.93
708.61	310.80
708.94	309.78
709.28	308.79
709.61	307.82
709.94	306.83
710.28	305.80
710.61	304.81
710.95	303.72
711.28	302.78
711.61	301.80
711.95	300.87
712.28	299.95
712.61	299.00
712.95	298.05
713.28	297.12
713.61	296.19
713.95	295.32
714.28	294.49
714.61	293.60
714.95	292.76
715.28	291.92
715.61	291.09
715.95	290.20
716.28	289.35
716.61	288.50
716.95	287.68
717.28	286.92
717.61	286.17
717.94	285.45
718.28	284.59
718.61	283.84
718.94	283.08
719.27	282.42
719.61	281.76
719.94	281.07
720.27	280.39
720.60	279.70
720.94	279.04
721.27	278.47
721.60	277.88
721.93	277.26
722.27	276.73
722.60	276.12
722.93	275.57
723.26	275.01
723.59	274.41
723.93	273.81
724.26	273.20
724.59	272.62
724.92	272.02
725.25	271.54
725.59	271.00
725.92	270.53
726.25	269.99
726.58	269.44
726.91	268.96
727.24	268.45
727.57	267.98
727.91	267.46
728.24	266.99
728.57	266.50
728.90	265.97
729.23	265.45
729.56	265.00
729.89	264.49
730.22	263.99
730.55	263.50
730.89	263.05
731.22	262.61
731.55	262.14
731.88	261.74
732.21	261.29
732.54	260.84
732.87	260.40
733.20	259.95
733.53	259.56
733.86	259.15
734.19	258.74
734.52	258.33
734.85	258.01
735.18	257.55
735.51	257.17
735.84	256.82
736.17	256.44
736.50	256.03
736.83	255.82
737.16	255.46
737.49	255.12
737.82	254.79
738.15	254.44
738.48	254.11
738.81	253.75
739.14	253.40
739.47	253.10
739.80	252.76
740.13	252.46
740.46	252.13
740.79	251.75
741.12	251.43
741.45	251.09
741.78	250.75
742.11	250.46
742.44	250.08
742.77	249.83
743.10	249.53
743.43	249.26
743.75	248.84
744.08	248.73
744.41	248.44
744.74	248.15
745.07	247.86
745.40	247.62
745.73	247.41
746.06	247.13
746.39	246.88
746.71	246.62
747.04	246.36
747.37	246.11
747.70	245.89
748.03	245.66
748.36	245.44
748.68	245.18
749.01	244.88
749.34	244.71
749.67	244.45
750.00	244.22
750.33	244.06
750.65	243.83
750.98	243.46
751.31	243.28
751.64	243.05
751.97	242.89
752.29	242.64
752.62	242.33
752.95	242.11
753.28	241.88
753.60	241.67
753.93	241.53
754.26	241.30
754.59	241.05
754.91	240.83
755.24	240.63
755.57	240.43
755.90	240.23
756.22	240.02
756.55	239.82
756.88	239.62
757.20	239.39
757.53	239.21
757.86	239.02
758.19	238.81
758.51	238.66
758.84	238.44
759.17	238.28
759.49	238.15
759.82	238.06
760.15	237.92
760.47	237.76
760.80	237.57
761.13	237.46
761.45	237.32
761.78	237.19
762.11	237.08
762.43	236.92
762.76	236.78
763.08	236.64
763.41	236.49
763.74	236.36
764.06	236.22
764.39	236.07
764.71	235.92
765.04	235.79
765.37	235.65
765.69	235.47
766.02	235.36
766.34	235.22
766.67	235.02
767.00	234.92
767.32	234.84
767.65	234.72
767.97	234.58
768.30	234.46
768.62	234.35
768.95	234.18
769.27	234.06
769.60	233.98
769.92	233.86
770.25	233.75
770.57	233.60
770.90	233.47
771.22	233.38
771.55	233.28
771.87	233.22
772.20	233.12
772.52	233.14
772.85	233.16
773.17	233.08
773.50	233.01
773.82	232.88
774.15	232.75
774.47	232.60
774.80	232.53
775.12	232.49
775.45	232.38
775.77	232.30
776.09	232.23
776.42	232.16
776.74	232.12
777.07	232.03
777.39	231.96
777.72	231.88
778.04	231.81
778.36	231.75
778.69	231.64
779.01	231.56
779.33	231.43
779.66	231.25
779.98	231.17
780.31	231.08
780.63	231.07
780.95	231.02
781.28	230.97
781.60	230.88
781.92	230.77
782.25	230.73
782.57	230.65
782.89	230.57
783.22	230.51
783.54	230.42
783.86	230.37
784.19	230.35
784.51	230.34
784.83	230.26
785.16	230.18
785.48	230.13
785.80	230.10
786.12	230.04
786.45	229.99
786.77	229.94
787.09	229.89
