SpectraSuite Data File
++++++++++++++++++++++++++++++++++++
Date: Fri Feb 01 17:04:37 EST 2013
User: group
Dark Spectrum Present: No
Reference Spectrum Present: No
Number of Sampled Component Spectra: 1
Spectrometers: USB2E7196
Integration Time (usec): 35000 (USB2E7196)
Spectra Averaged: 100 (USB2E7196)
Boxcar Smoothing: 10 (USB2E7196)
Correct for Electrical Dark: No (USB2E7196)
Strobe/Lamp Enabled: No (USB2E7196)
Correct for Detector Non-linearity: No (USB2E7196)
Correct for Stray Light: No (USB2E7196)
Number of Pixels in Processed Spectrum: 2048
>>>>>Begin Processed Spectral Data<<<<<
339.09	0.00
339.48	213.66
339.86	215.03
340.24	216.62
340.63	218.09
341.01	220.57
341.39	220.40
341.78	222.25
342.16	223.10
342.54	223.57
342.93	211.92
343.31	222.63
343.69	223.16
344.07	223.64
344.46	224.04
344.84	224.42
345.22	224.62
345.60	224.87
345.99	225.00
346.37	225.11
346.75	225.21
347.13	225.25
347.52	225.31
347.90	225.36
348.28	225.38
348.66	225.37
349.05	225.38
349.43	225.41
349.81	225.47
350.19	225.47
350.57	225.55
350.96	225.58
351.34	225.63
351.72	225.67
352.10	225.72
352.48	225.77
352.87	225.78
353.25	225.86
353.63	225.90
354.01	225.95
354.39	226.00
354.77	226.05
355.15	226.14
355.54	226.16
355.92	226.19
356.30	226.22
356.68	226.37
357.06	226.43
357.44	226.50
357.82	226.51
358.20	226.58
358.58	226.62
358.97	226.69
359.35	226.81
359.73	226.92
360.11	226.97
360.49	227.02
360.87	227.07
361.25	227.11
361.63	227.19
362.01	227.24
362.39	227.28
362.77	227.32
363.15	227.33
363.53	227.38
363.91	227.42
364.29	227.48
364.67	227.42
365.05	227.42
365.43	227.41
365.81	227.44
366.19	227.52
366.57	227.56
366.95	227.57
367.33	227.56
367.71	227.54
368.09	227.56
368.47	227.57
368.85	227.54
369.23	227.54
369.61	227.50
369.99	227.56
370.37	227.57
370.75	227.61
371.13	227.59
371.51	227.53
371.89	227.51
372.27	227.50
372.65	227.46
373.03	227.44
373.41	227.45
373.78	227.40
374.16	227.29
374.54	227.21
374.92	227.15
375.30	227.09
375.68	227.01
376.06	226.95
376.44	226.91
376.82	226.90
377.19	226.86
377.57	226.81
377.95	226.72
378.33	226.64
378.71	226.54
379.09	226.48
379.47	226.51
379.84	226.46
380.22	226.36
380.60	226.28
380.98	226.24
381.36	226.17
381.73	226.13
382.11	226.08
382.49	226.05
382.87	226.03
383.25	225.95
383.62	226.04
384.00	225.98
384.38	225.93
384.76	225.92
385.13	225.93
385.51	225.83
385.89	225.78
386.27	225.71
386.64	225.67
387.02	225.63
387.40	225.54
387.78	225.48
388.15	225.46
388.53	225.45
388.91	225.40
389.29	225.35
389.66	225.31
390.04	225.30
390.42	225.27
390.79	225.24
391.17	225.24
391.55	225.10
391.92	225.07
392.30	225.04
392.68	224.98
393.05	224.97
393.43	225.00
393.81	224.99
394.18	225.03
394.56	225.01
394.94	225.04
395.31	225.03
395.69	225.08
396.06	225.11
396.44	225.10
396.82	225.13
397.19	225.19
397.57	225.23
397.95	225.26
398.32	225.29
398.70	225.35
399.07	225.38
399.45	225.42
399.82	225.48
400.20	225.53
400.58	225.56
400.95	225.55
401.33	225.60
401.70	225.71
402.08	225.77
402.45	225.82
402.83	225.90
403.20	225.97
403.58	226.04
403.95	226.15
404.33	226.29
404.71	226.38
405.08	226.53
405.46	226.66
405.83	226.78
406.21	226.92
406.58	227.02
406.96	227.19
407.33	227.32
407.70	227.49
408.08	227.74
408.45	227.96
408.83	228.17
409.20	228.39
409.58	228.57
409.95	228.82
410.33	229.10
410.70	229.33
411.08	229.64
411.45	229.93
411.82	230.20
412.20	230.55
412.57	230.96
412.95	231.23
413.32	231.64
413.69	232.07
414.07	232.50
414.44	232.96
414.82	233.44
415.19	234.00
415.56	234.56
415.94	235.07
416.31	235.72
416.68	236.33
417.06	237.05
417.43	237.74
417.81	238.52
418.18	239.27
418.55	240.12
418.93	241.00
419.30	241.91
419.67	242.85
420.04	243.78
420.42	244.75
420.79	245.96
421.16	247.09
421.54	248.23
421.91	249.46
422.28	250.71
422.66	252.04
423.03	253.35
423.40	254.68
423.77	256.10
424.15	257.51
424.52	259.02
424.89	260.60
425.26	262.13
425.64	263.57
426.01	265.23
426.38	266.89
426.75	268.56
427.13	270.26
427.50	272.04
427.87	273.95
428.24	275.82
428.61	277.53
428.99	279.49
429.36	281.60
429.73	283.67
430.10	285.74
430.47	287.80
430.85	289.91
431.22	292.15
431.59	294.50
431.96	296.76
432.33	299.24
432.70	301.64
433.08	304.45
433.45	307.09
433.82	309.68
434.19	312.50
434.56	315.28
434.93	317.90
435.30	320.55
435.68	323.39
436.05	326.18
436.42	328.93
436.79	331.42
437.16	334.09
437.53	336.87
437.90	339.59
438.27	342.28
438.64	345.05
439.01	347.62
439.38	349.84
439.75	351.96
440.13	354.40
440.50	356.69
440.87	358.52
441.24	360.36
441.61	362.45
441.98	363.97
442.35	365.77
442.72	367.64
443.09	369.40
443.46	370.36
443.83	370.94
444.20	371.50
444.57	372.32
444.94	372.62
445.31	372.94
445.68	373.36
446.05	373.44
446.42	373.10
446.79	372.66
447.16	372.23
447.53	371.96
447.90	370.81
448.27	369.66
448.64	368.15
449.01	367.10
449.37	365.17
449.74	363.30
450.11	361.12
450.48	358.67
450.85	356.19
451.22	354.10
451.59	352.12
451.96	350.16
452.33	347.56
452.70	345.27
453.07	342.46
453.43	339.56
453.80	336.87
454.17	334.21
454.54	331.75
454.91	329.07
455.28	326.36
455.65	323.93
456.02	321.52
456.38	319.35
456.75	316.69
457.12	314.46
457.49	312.24
457.86	310.04
458.23	308.21
458.59	306.15
458.96	304.09
459.33	302.25
459.70	300.42
460.07	298.97
460.43	297.23
460.80	295.63
461.17	294.19
461.54	292.71
461.91	291.32
462.27	289.86
462.64	288.60
463.01	287.32
463.38	286.02
463.74	284.69
464.11	283.51
464.48	282.50
464.85	281.39
465.21	280.56
465.58	279.64
465.95	278.55
466.32	277.70
466.68	276.83
467.05	275.95
467.42	275.09
467.78	274.16
468.15	273.30
468.52	272.68
468.88	271.84
469.25	271.05
469.62	270.44
469.98	269.80
470.35	269.20
470.72	268.59
471.08	267.96
471.45	267.43
471.82	266.92
472.18	266.35
472.55	265.93
472.92	265.41
473.28	264.99
473.65	264.54
474.02	264.10
474.38	263.74
474.75	263.45
475.11	263.12
475.48	262.88
475.85	262.69
476.21	262.45
476.58	262.28
476.94	262.15
477.31	261.99
477.67	261.83
478.04	261.72
478.41	261.67
478.77	261.74
479.14	261.68
479.50	261.68
479.87	261.76
480.23	261.83
480.60	261.93
480.96	262.05
481.33	262.26
481.69	262.46
482.06	262.64
482.42	262.84
482.79	263.07
483.15	263.39
483.52	263.75
483.88	264.14
484.25	264.53
484.61	264.96
484.98	265.39
485.34	265.97
485.71	266.58
486.07	267.22
486.44	267.73
486.80	268.45
487.17	269.16
487.53	269.95
487.90	270.85
488.26	271.79
488.62	272.75
488.99	273.72
489.35	274.77
489.72	275.90
490.08	277.09
490.44	278.33
490.81	279.67
491.17	281.01
491.54	282.47
491.90	284.02
492.26	285.67
492.63	287.37
492.99	289.14
493.36	291.04
493.72	293.05
494.08	295.19
494.45	297.41
494.81	299.79
495.17	302.24
495.54	304.79
495.90	307.42
496.26	310.19
496.63	313.11
496.99	316.21
497.35	319.45
497.72	322.83
498.08	326.35
498.44	329.97
498.80	333.85
499.17	337.84
499.53	341.99
499.89	346.34
500.26	350.83
500.62	355.46
500.98	360.40
501.34	365.42
501.71	370.69
502.07	376.04
502.43	381.62
502.79	387.35
503.16	393.37
503.52	399.58
503.88	405.90
504.24	412.49
504.60	419.29
504.97	426.32
505.33	433.57
505.69	441.26
506.05	449.01
506.41	456.80
506.78	464.87
507.14	473.21
507.50	481.82
507.86	490.72
508.22	499.83
508.59	508.83
508.95	518.33
509.31	528.02
509.67	538.02
510.03	548.17
510.39	558.62
510.75	569.16
511.12	579.95
511.48	591.11
511.84	602.42
512.20	613.76
512.56	625.64
512.92	637.56
513.28	649.72
513.64	661.96
514.00	674.54
514.37	687.27
514.73	700.11
515.09	712.90
515.45	725.96
515.81	739.25
516.17	753.06
516.53	766.89
516.89	780.88
517.25	794.82
517.61	808.99
517.97	823.15
518.33	837.35
518.69	851.79
519.05	866.47
519.41	881.29
519.77	896.56
520.13	911.57
520.49	926.62
520.85	941.67
521.21	957.04
521.57	972.94
521.93	988.33
522.29	1004.28
522.65	1020.32
523.01	1036.17
523.37	1051.86
523.73	1067.60
524.09	1083.35
524.45	1099.22
524.81	1115.52
525.17	1131.88
525.53	1148.44
525.89	1164.98
526.25	1181.48
526.61	1197.58
526.97	1214.01
527.33	1230.11
527.68	1246.40
528.04	1262.60
528.40	1278.71
528.76	1295.40
529.12	1311.58
529.48	1328.11
529.84	1343.80
530.20	1360.00
530.56	1376.56
530.91	1393.56
531.27	1410.01
531.63	1426.13
531.99	1442.37
532.35	1457.85
532.71	1473.41
533.07	1489.29
533.42	1504.81
533.78	1520.56
534.14	1536.38
534.50	1551.35
534.86	1566.93
535.21	1581.77
535.57	1597.38
535.93	1612.53
536.29	1626.98
536.65	1641.56
537.00	1655.93
537.36	1670.95
537.72	1685.03
538.08	1699.16
538.44	1712.74
538.79	1726.32
539.15	1739.70
539.51	1752.92
539.87	1767.16
540.22	1780.58
540.58	1793.92
540.94	1806.82
541.29	1819.25
541.65	1831.68
542.01	1844.61
542.37	1856.58
542.72	1868.74
543.08	1880.19
543.44	1892.43
543.79	1903.42
544.15	1914.21
544.51	1925.56
544.87	1936.15
545.22	1946.85
545.58	1956.90
545.94	1966.39
546.29	1975.98
546.65	1985.75
547.01	1995.06
547.36	2003.51
547.72	2011.85
548.07	2019.68
548.43	2027.68
548.79	2035.54
549.14	2042.96
549.50	2050.12
549.86	2057.64
550.21	2064.81
550.57	2071.89
550.92	2078.43
551.28	2085.45
551.64	2092.38
551.99	2098.89
552.35	2105.04
552.70	2111.15
553.06	2117.16
553.41	2123.43
553.77	2129.51
554.13	2135.27
554.48	2141.29
554.84	2146.91
555.19	2152.17
555.55	2157.32
555.90	2161.89
556.26	2167.01
556.61	2171.71
556.97	2176.09
557.32	2180.25
557.68	2184.46
558.03	2188.80
558.39	2192.44
558.74	2197.01
559.10	2201.02
559.45	2204.73
559.81	2209.08
560.16	2212.93
560.52	2216.23
560.87	2219.69
561.23	2222.41
561.58	2225.46
561.94	2228.26
562.29	2230.50
562.64	2233.42
563.00	2236.01
563.35	2239.70
563.71	2242.88
564.06	2246.12
564.42	2249.04
564.77	2251.82
565.12	2254.34
565.48	2256.41
565.83	2258.47
566.19	2260.03
566.54	2261.12
566.89	2262.55
567.25	2263.42
567.60	2264.82
567.96	2266.64
568.31	2267.62
568.66	2268.90
569.02	2269.80
569.37	2270.21
569.72	2271.31
570.08	2271.53
570.43	2271.89
570.78	2271.56
571.14	2270.21
571.49	2269.09
571.84	2268.98
572.20	2268.03
572.55	2267.07
572.90	2265.54
573.26	2264.35
573.61	2262.71
573.96	2261.35
574.31	2258.56
574.67	2255.74
575.02	2252.40
575.37	2249.08
575.72	2245.56
576.08	2242.32
576.43	2239.04
576.78	2235.52
577.13	2232.51
577.49	2229.51
577.84	2226.19
578.19	2222.61
578.54	2219.37
578.90	2215.45
579.25	2210.09
579.60	2205.35
579.95	2200.50
580.30	2195.86
580.66	2191.01
581.01	2186.26
581.36	2181.37
581.71	2177.40
582.06	2173.23
582.42	2168.97
582.77	2164.09
583.12	2159.78
583.47	2155.51
583.82	2150.94
584.17	2146.02
584.53	2140.64
584.88	2135.35
585.23	2129.94
585.58	2124.60
585.93	2119.20
586.28	2114.49
586.63	2109.78
586.98	2104.80
587.34	2100.32
587.69	2095.59
588.04	2090.50
588.39	2085.25
588.74	2079.00
589.09	2073.05
589.44	2066.49
589.79	2060.50
590.14	2055.00
590.49	2048.60
590.84	2042.13
591.19	2036.13
591.54	2029.76
591.89	2022.88
592.25	2016.31
592.60	2009.29
592.95	2001.97
593.30	1994.76
593.65	1987.55
594.00	1980.64
594.35	1973.67
594.70	1965.73
595.05	1958.84
595.40	1951.70
595.75	1944.29
596.10	1938.34
596.45	1931.70
596.80	1925.79
597.15	1919.43
597.50	1912.75
597.85	1906.46
598.19	1900.10
598.54	1893.30
598.89	1886.90
599.24	1881.01
599.59	1874.66
599.94	1868.42
600.29	1862.21
600.64	1855.71
600.99	1848.48
601.34	1841.80
601.69	1834.95
602.04	1828.41
602.39	1821.16
602.74	1814.43
603.08	1807.94
603.43	1801.25
603.78	1794.07
604.13	1786.88
604.48	1779.82
604.83	1772.95
605.18	1766.33
605.53	1758.51
605.87	1750.61
606.22	1743.38
606.57	1735.52
606.92	1728.04
607.27	1721.14
607.62	1714.40
607.96	1707.46
608.31	1700.91
608.66	1693.41
609.01	1686.12
609.36	1678.75
609.70	1670.89
610.05	1663.12
610.40	1655.47
610.75	1647.34
611.10	1639.81
611.44	1631.42
611.79	1623.47
612.14	1614.99
612.49	1605.79
612.83	1597.52
613.18	1589.43
613.53	1581.52
613.88	1573.21
614.22	1564.95
614.57	1556.33
614.92	1548.42
615.27	1540.99
615.61	1532.70
615.96	1524.85
616.31	1517.05
616.65	1509.62
617.00	1502.07
617.35	1494.31
617.70	1486.00
618.04	1477.52
618.39	1469.31
618.74	1461.86
619.08	1453.54
619.43	1445.93
619.78	1439.04
620.12	1431.92
620.47	1424.47
620.82	1416.31
621.16	1408.74
621.51	1401.25
621.85	1393.71
622.20	1385.21
622.55	1376.81
622.89	1369.08
623.24	1361.42
623.59	1354.06
623.93	1346.52
624.28	1339.34
624.62	1331.95
624.97	1324.83
625.32	1318.05
625.66	1311.09
626.01	1303.95
626.35	1296.67
626.70	1288.98
627.04	1281.30
627.39	1273.48
627.73	1266.15
628.08	1259.25
628.43	1252.25
628.77	1245.06
629.12	1237.45
629.46	1230.34
629.81	1222.80
630.15	1215.57
630.50	1208.23
630.84	1200.08
631.19	1192.12
631.53	1184.60
631.88	1177.02
632.22	1169.43
632.57	1162.17
632.91	1154.66
633.26	1147.25
633.60	1139.76
633.95	1132.60
634.29	1125.59
634.64	1118.91
634.98	1111.51
635.32	1104.44
635.67	1097.71
636.01	1090.98
636.36	1084.40
636.70	1077.86
637.05	1071.34
637.39	1064.89
637.73	1058.39
638.08	1052.66
638.42	1046.72
638.77	1040.31
639.11	1033.77
639.45	1027.41
639.80	1020.72
640.14	1014.46
640.49	1008.00
640.83	1001.84
641.17	995.68
641.52	989.39
641.86	983.01
642.20	977.27
642.55	970.94
642.89	964.56
643.23	958.01
643.58	952.18
643.92	946.09
644.26	940.17
644.61	934.10
644.95	928.06
645.29	921.50
645.64	914.86
645.98	908.55
646.32	902.75
646.66	896.78
647.01	891.10
647.35	885.34
647.69	879.50
648.04	874.07
648.38	868.33
648.72	862.46
649.06	856.47
649.41	850.54
649.75	844.64
650.09	838.68
650.43	832.96
650.78	826.85
651.12	820.85
651.46	815.14
651.80	809.54
652.14	804.19
652.49	798.85
652.83	793.73
653.17	788.22
653.51	782.61
653.85	777.20
654.20	771.62
654.54	765.69
654.88	759.99
655.22	754.12
655.56	748.47
655.90	742.99
656.25	737.81
656.59	732.51
656.93	727.51
657.27	722.37
657.61	717.00
657.95	711.92
658.29	706.84
658.64	701.54
658.98	696.22
659.32	690.75
659.66	685.55
660.00	680.28
660.34	675.28
660.68	670.31
661.02	665.26
661.36	660.53
661.70	656.05
662.05	651.71
662.39	647.40
662.73	642.91
663.07	638.51
663.41	634.05
663.75	629.57
664.09	625.00
664.43	620.68
664.77	616.58
665.11	612.35
665.45	608.23
665.79	604.19
666.13	600.08
666.47	595.99
666.81	591.88
667.15	587.73
667.49	583.84
667.83	579.99
668.17	576.13
668.51	572.12
668.85	568.15
669.19	564.34
669.53	560.49
669.87	556.68
670.21	552.98
670.55	549.36
670.89	545.93
671.23	542.44
671.57	538.88
671.91	535.36
672.25	531.88
672.58	528.42
672.92	525.09
673.26	521.93
673.60	518.82
673.94	515.71
674.28	512.82
674.62	509.85
674.96	506.77
675.30	503.88
675.64	500.97
675.97	498.14
676.31	495.27
676.65	492.32
676.99	489.61
677.33	486.75
677.67	483.94
678.01	480.94
678.34	478.04
678.68	475.18
679.02	472.37
679.36	469.58
679.70	466.84
680.04	464.07
680.37	461.24
680.71	458.49
681.05	455.83
681.39	453.16
681.73	450.49
682.06	448.02
682.40	445.52
682.74	442.97
683.08	440.40
683.42	437.76
683.75	435.23
684.09	432.66
684.43	430.21
684.77	427.81
685.10	425.45
685.44	423.13
685.78	420.89
686.12	418.63
686.45	416.36
686.79	414.08
687.13	411.93
687.46	409.77
687.80	407.62
688.14	405.39
688.48	403.37
688.81	401.16
689.15	398.95
689.49	396.79
689.82	394.74
690.16	392.74
690.50	390.85
690.83	388.96
691.17	387.01
691.51	385.13
691.84	383.26
692.18	381.42
692.52	379.50
692.85	377.58
693.19	375.72
693.52	373.93
693.86	372.13
694.20	370.33
694.53	368.55
694.87	366.68
695.21	364.95
695.54	363.06
695.88	361.34
696.21	359.61
696.55	357.92
696.88	356.21
697.22	354.49
697.56	352.84
697.89	351.21
698.23	349.62
698.56	348.01
698.90	346.41
699.23	344.70
699.57	343.12
699.90	341.58
700.24	340.03
700.58	338.51
700.91	337.05
701.25	335.61
701.58	334.24
701.92	332.89
702.25	331.54
702.59	330.25
702.92	328.92
703.26	327.68
703.59	326.41
703.93	325.24
704.26	324.03
704.60	322.76
704.93	321.51
705.26	320.28
705.60	319.08
705.93	317.92
706.27	316.93
706.60	315.91
706.94	314.81
707.27	313.68
707.61	312.57
707.94	311.51
708.27	310.38
708.61	309.30
708.94	308.29
709.28	307.29
709.61	306.28
709.94	305.32
710.28	304.27
710.61	303.32
710.95	302.20
711.28	301.27
711.61	300.33
711.95	299.43
712.28	298.48
712.61	297.52
712.95	296.59
713.28	295.65
713.61	294.72
713.95	293.85
714.28	293.04
714.61	292.20
714.95	291.34
715.28	290.49
715.61	289.62
715.95	288.76
716.28	287.86
716.61	287.02
716.95	286.19
717.28	285.44
717.61	284.62
717.94	283.92
718.28	283.10
718.61	282.35
718.94	281.61
719.27	280.91
719.61	280.30
719.94	279.67
720.27	278.98
720.60	278.34
720.94	277.69
721.27	277.06
721.60	276.47
721.93	275.87
722.27	275.31
722.60	274.72
722.93	274.15
723.26	273.65
723.59	273.09
723.93	272.53
724.26	271.95
724.59	271.41
724.92	270.88
725.25	270.42
725.59	269.85
725.92	269.37
726.25	268.86
726.58	268.32
726.91	267.78
727.24	267.29
727.57	266.77
727.91	266.23
728.24	265.80
728.57	265.31
728.90	264.85
729.23	264.38
729.56	264.00
729.89	263.55
730.22	263.02
730.55	262.56
730.89	262.13
731.22	261.71
731.55	261.29
731.88	260.81
732.21	260.35
732.54	259.95
732.87	259.52
733.20	259.11
733.53	258.74
733.86	258.40
734.19	258.04
734.52	257.67
734.85	257.40
735.18	256.99
735.51	256.64
735.84	256.27
736.17	255.90
736.50	255.47
736.83	255.22
737.16	254.94
737.49	254.58
737.82	254.24
738.15	253.93
738.48	253.58
738.81	253.27
739.14	252.96
739.47	252.63
739.80	252.33
740.13	252.07
740.46	251.75
740.79	251.40
741.12	251.05
741.45	250.77
741.78	250.43
742.11	250.11
742.44	249.80
742.77	249.51
743.10	249.25
743.43	248.94
743.75	248.57
744.08	248.37
744.41	248.12
744.74	247.86
745.07	247.55
745.40	247.32
745.73	247.10
746.06	246.82
746.39	246.60
746.71	246.28
747.04	245.95
747.37	245.66
747.70	245.41
748.03	245.17
748.36	244.94
748.68	244.69
749.01	244.44
749.34	244.21
749.67	243.97
750.00	243.71
750.33	243.57
750.65	243.36
750.98	243.04
751.31	242.84
751.64	242.63
751.97	242.47
752.29	242.22
752.62	241.96
752.95	241.75
753.28	241.53
753.60	241.35
753.93	241.21
754.26	241.06
754.59	240.86
754.91	240.66
755.24	240.42
755.57	240.25
755.90	240.06
756.22	239.85
756.55	239.67
756.88	239.50
757.20	239.25
757.53	239.03
757.86	238.87
758.19	238.66
758.51	238.47
758.84	238.25
759.17	238.11
759.49	237.99
759.82	237.87
760.15	237.71
760.47	237.54
760.80	237.36
761.13	237.19
761.45	237.02
761.78	236.86
762.11	236.76
762.43	236.60
762.76	236.46
763.08	236.33
763.41	236.22
763.74	236.08
764.06	235.94
764.39	235.75
764.71	235.58
765.04	235.48
765.37	235.37
765.69	235.24
766.02	235.08
766.34	234.90
766.67	234.78
767.00	234.69
767.32	234.66
767.65	234.59
767.97	234.46
768.30	234.39
768.62	234.29
768.95	234.16
769.27	234.08
769.60	234.00
769.92	233.86
770.25	233.71
770.57	233.66
770.90	233.57
771.22	233.51
771.55	233.45
771.87	233.37
772.20	233.26
772.52	233.25
772.85	233.30
773.17	233.25
773.50	233.13
773.82	233.04
774.15	232.88
774.47	232.73
774.80	232.67
775.12	232.54
775.45	232.44
775.77	232.39
776.09	232.30
776.42	232.20
776.74	232.15
777.07	232.09
777.39	231.99
777.72	231.91
778.04	231.85
778.36	231.81
778.69	231.76
779.01	231.71
779.33	231.59
779.66	231.41
779.98	231.34
780.31	231.26
780.63	231.27
780.95	231.21
781.28	231.15
781.60	231.11
781.92	231.07
782.25	231.03
782.57	230.99
782.89	230.93
783.22	230.89
783.54	230.83
783.86	230.82
784.19	230.76
784.51	230.72
784.83	230.69
785.16	230.62
785.48	230.57
785.80	230.52
786.12	230.50
786.45	230.46
786.77	230.42
787.09	230.39
