SpectraSuite Data File
++++++++++++++++++++++++++++++++++++
Date: Fri Feb 01 15:54:31 EST 2013
User: group
Dark Spectrum Present: No
Reference Spectrum Present: No
Number of Sampled Component Spectra: 1
Spectrometers: USB2E7196
Integration Time (usec): 35000 (USB2E7196)
Spectra Averaged: 100 (USB2E7196)
Boxcar Smoothing: 10 (USB2E7196)
Correct for Electrical Dark: No (USB2E7196)
Strobe/Lamp Enabled: No (USB2E7196)
Correct for Detector Non-linearity: No (USB2E7196)
Correct for Stray Light: No (USB2E7196)
Number of Pixels in Processed Spectrum: 2048
>>>>>Begin Processed Spectral Data<<<<<
339.09	0.00
339.48	214.93
339.86	216.29
340.24	217.38
340.63	219.52
341.01	222.43
341.39	221.97
341.78	223.02
342.16	224.18
342.54	224.82
342.93	213.27
343.31	224.04
343.69	224.57
344.07	225.02
344.46	225.44
344.84	225.78
345.22	225.98
345.60	226.23
345.99	226.43
346.37	226.58
346.75	226.67
347.13	226.71
347.52	226.78
347.90	226.87
348.28	226.86
348.66	226.89
349.05	226.85
349.43	226.89
349.81	226.90
350.19	226.97
350.57	227.00
350.96	227.06
351.34	227.10
351.72	227.21
352.10	227.29
352.48	227.37
352.87	227.41
353.25	227.50
353.63	227.55
354.01	227.63
354.39	227.68
354.77	227.79
355.15	227.89
355.54	227.91
355.92	227.93
356.30	228.03
356.68	228.17
357.06	228.27
357.44	228.30
357.82	228.36
358.20	228.41
358.58	228.49
358.97	228.57
359.35	228.68
359.73	228.75
360.11	228.81
360.49	228.90
360.87	228.98
361.25	229.02
361.63	229.08
362.01	229.08
362.39	229.10
362.77	229.10
363.15	229.14
363.53	229.17
363.91	229.20
364.29	229.22
364.67	229.17
365.05	229.14
365.43	229.19
365.81	229.22
366.19	229.29
366.57	229.33
366.95	229.31
367.33	229.29
367.71	229.26
368.09	229.25
368.47	229.20
368.85	229.16
369.23	229.16
369.61	229.09
369.99	229.12
370.37	229.12
370.75	229.11
371.13	229.05
371.51	228.98
371.89	228.94
372.27	228.89
372.65	228.85
373.03	228.85
373.41	228.79
373.78	228.74
374.16	228.62
374.54	228.56
374.92	228.54
375.30	228.46
375.68	228.39
376.06	228.37
376.44	228.33
376.82	228.29
377.19	228.20
377.57	228.17
377.95	228.03
378.33	227.95
378.71	227.87
379.09	227.82
379.47	227.75
379.84	227.67
380.22	227.60
380.60	227.49
380.98	227.41
381.36	227.33
381.73	227.25
382.11	227.19
382.49	227.11
382.87	226.99
383.25	226.92
383.62	226.97
384.00	226.90
384.38	226.85
384.76	226.81
385.13	226.81
385.51	226.74
385.89	226.70
386.27	226.66
386.64	226.62
387.02	226.58
387.40	226.57
387.78	226.55
388.15	226.53
388.53	226.49
388.91	226.45
389.29	226.43
389.66	226.41
390.04	226.36
390.42	226.38
390.79	226.38
391.17	226.37
391.55	226.25
391.92	226.24
392.30	226.22
392.68	226.17
393.05	226.17
393.43	226.21
393.81	226.22
394.18	226.20
394.56	226.20
394.94	226.23
395.31	226.23
395.69	226.26
396.06	226.29
396.44	226.32
396.82	226.34
397.19	226.44
397.57	226.48
397.95	226.56
398.32	226.58
398.70	226.63
399.07	226.71
399.45	226.74
399.82	226.81
400.20	226.86
400.58	226.93
400.95	226.98
401.33	227.02
401.70	227.18
402.08	227.29
402.45	227.38
402.83	227.47
403.20	227.58
403.58	227.68
403.95	227.84
404.33	227.99
404.71	228.15
405.08	228.31
405.46	228.43
405.83	228.55
406.21	228.71
406.58	228.87
406.96	229.01
407.33	229.19
407.70	229.38
408.08	229.70
408.45	229.93
408.83	230.18
409.20	230.42
409.58	230.61
409.95	230.86
410.33	231.16
410.70	231.41
411.08	231.73
411.45	232.04
411.82	232.33
412.20	232.65
412.57	233.07
412.95	233.39
413.32	233.80
413.69	234.24
414.07	234.69
414.44	235.14
414.82	235.64
415.19	236.20
415.56	236.74
415.94	237.28
416.31	237.88
416.68	238.50
417.06	239.22
417.43	239.92
417.81	240.71
418.18	241.48
418.55	242.33
418.93	243.20
419.30	244.12
419.67	245.07
420.04	246.05
420.42	247.04
420.79	248.20
421.16	249.37
421.54	250.55
421.91	251.75
422.28	253.03
422.66	254.33
423.03	255.70
423.40	257.02
423.77	258.40
424.15	259.84
424.52	261.33
424.89	262.94
425.26	264.44
425.64	265.86
426.01	267.45
426.38	269.12
426.75	270.79
427.13	272.46
427.50	274.26
427.87	276.16
428.24	277.99
428.61	279.73
428.99	281.69
429.36	283.81
429.73	285.88
430.10	287.91
430.47	289.99
430.85	292.06
431.22	294.29
431.59	296.70
431.96	298.94
432.33	301.46
432.70	303.84
433.08	306.68
433.45	309.36
433.82	311.98
434.19	314.87
434.56	317.70
434.93	320.38
435.30	322.98
435.68	325.82
436.05	328.70
436.42	331.47
436.79	333.95
437.16	336.60
437.53	339.45
437.90	342.29
438.27	345.05
438.64	347.88
439.01	350.49
439.38	352.70
439.75	354.88
440.13	357.31
440.50	359.64
440.87	361.48
441.24	363.40
441.61	365.56
441.98	367.03
442.35	368.78
442.72	370.68
443.09	372.47
443.46	373.44
443.83	373.99
444.20	374.49
444.57	375.30
444.94	375.60
445.31	375.88
445.68	376.14
446.05	376.22
446.42	375.81
446.79	375.36
447.16	374.88
447.53	374.55
447.90	373.38
448.27	372.16
448.64	370.53
449.01	369.38
449.37	367.37
449.74	365.45
450.11	363.21
450.48	360.69
450.85	358.17
451.22	356.05
451.59	353.99
451.96	352.06
452.33	349.49
452.70	347.16
453.07	344.30
453.43	341.43
453.80	338.69
454.17	336.04
454.54	333.50
454.91	330.80
455.28	328.10
455.65	325.60
456.02	323.18
456.38	321.04
456.75	318.39
457.12	316.15
457.49	313.94
457.86	311.79
458.23	309.94
458.59	307.89
458.96	305.85
459.33	304.05
459.70	302.21
460.07	300.74
460.43	298.96
460.80	297.39
461.17	295.98
461.54	294.45
461.91	293.04
462.27	291.60
462.64	290.33
463.01	288.98
463.38	287.72
463.74	286.38
464.11	285.26
464.48	284.24
464.85	283.13
465.21	282.24
465.58	281.33
465.95	280.23
466.32	279.34
466.68	278.41
467.05	277.48
467.42	276.59
467.78	275.64
468.15	274.82
468.52	274.16
468.88	273.28
469.25	272.52
469.62	271.91
469.98	271.21
470.35	270.63
470.72	270.07
471.08	269.42
471.45	268.87
471.82	268.33
472.18	267.70
472.55	267.30
472.92	266.82
473.28	266.32
473.65	265.88
474.02	265.44
474.38	265.04
474.75	264.73
475.11	264.38
475.48	264.11
475.85	263.89
476.21	263.64
476.58	263.49
476.94	263.34
477.31	263.14
477.67	263.00
478.04	262.88
478.41	262.79
478.77	262.79
479.14	262.74
479.50	262.74
479.87	262.83
480.23	262.86
480.60	262.90
480.96	263.02
481.33	263.18
481.69	263.41
482.06	263.60
482.42	263.80
482.79	264.05
483.15	264.36
483.52	264.71
483.88	265.07
484.25	265.44
484.61	265.85
484.98	266.33
485.34	266.93
485.71	267.49
486.07	268.09
486.44	268.70
486.80	269.39
487.17	270.11
487.53	270.94
487.90	271.80
488.26	272.78
488.62	273.77
488.99	274.76
489.35	275.78
489.72	276.97
490.08	278.19
490.44	279.43
490.81	280.76
491.17	282.06
491.54	283.54
491.90	285.06
492.26	286.70
492.63	288.41
492.99	290.17
493.36	292.08
493.72	294.15
494.08	296.26
494.45	298.53
494.81	300.90
495.17	303.35
495.54	305.95
495.90	308.62
496.26	311.42
496.63	314.39
496.99	317.50
497.35	320.71
497.72	324.07
498.08	327.58
498.44	331.25
498.80	335.23
499.17	339.30
499.53	343.47
499.89	347.88
500.26	352.39
500.62	357.07
500.98	362.07
501.34	367.14
501.71	372.48
502.07	377.95
502.43	383.59
502.79	389.41
503.16	395.45
503.52	401.71
503.88	408.12
504.24	414.78
504.60	421.72
504.97	428.84
505.33	436.20
505.69	443.95
506.05	451.76
506.41	459.67
506.78	467.84
507.14	476.36
507.50	485.05
507.86	494.06
508.22	503.29
508.59	512.43
508.95	522.00
509.31	531.75
509.67	541.85
510.03	552.16
510.39	562.70
510.75	573.55
511.12	584.47
511.48	595.81
511.84	607.30
512.20	618.77
512.56	630.76
512.92	642.98
513.28	655.36
513.64	667.82
514.00	680.52
514.37	693.41
514.73	706.47
515.09	719.53
515.45	732.88
515.81	746.37
516.17	760.37
516.53	774.54
516.89	788.74
517.25	802.98
517.61	817.39
517.97	831.82
518.33	846.18
518.69	860.96
519.05	875.92
519.41	891.01
519.77	906.58
520.13	921.94
520.49	937.35
520.85	952.70
521.21	968.49
521.57	984.68
521.93	1000.50
522.29	1016.77
522.65	1032.98
523.01	1049.14
523.37	1065.26
523.73	1081.47
524.09	1097.49
524.45	1113.75
524.81	1130.26
525.17	1147.10
525.53	1163.97
525.89	1180.77
526.25	1197.56
526.61	1213.90
526.97	1230.63
527.33	1247.06
527.68	1263.71
528.04	1280.25
528.40	1296.75
528.76	1313.70
529.12	1330.36
529.48	1347.19
529.84	1363.20
530.20	1379.81
530.56	1396.86
530.91	1414.19
531.27	1430.98
531.63	1447.38
531.99	1463.96
532.35	1479.92
532.71	1495.73
533.07	1511.93
533.42	1527.92
533.78	1543.99
534.14	1560.25
534.50	1575.54
534.86	1591.32
535.21	1606.46
535.57	1622.29
535.93	1637.98
536.29	1652.70
536.65	1667.65
537.00	1682.33
537.36	1697.66
537.72	1712.18
538.08	1726.56
538.44	1740.31
538.79	1754.14
539.15	1767.96
539.51	1781.70
539.87	1796.06
540.22	1809.77
540.58	1823.47
540.94	1836.82
541.29	1849.66
541.65	1862.36
542.01	1875.64
542.37	1888.02
542.72	1900.44
543.08	1912.29
543.44	1924.62
543.79	1935.96
544.15	1946.85
544.51	1958.50
544.87	1969.48
545.22	1980.17
545.58	1990.30
545.94	2000.13
546.29	2009.90
546.65	2019.67
547.01	2029.08
547.36	2037.70
547.72	2046.15
548.07	2054.18
548.43	2062.38
548.79	2070.42
549.14	2077.87
549.50	2085.01
549.86	2092.78
550.21	2100.02
550.57	2107.05
550.92	2113.60
551.28	2120.58
551.64	2127.70
551.99	2134.27
552.35	2140.48
552.70	2146.78
553.06	2152.77
553.41	2159.15
553.77	2165.18
554.13	2171.25
554.48	2177.14
554.84	2182.66
555.19	2188.00
555.55	2192.93
555.90	2197.22
556.26	2202.01
556.61	2206.82
556.97	2211.26
557.32	2215.29
557.68	2219.63
558.03	2223.83
558.39	2227.37
558.74	2232.00
559.10	2235.89
559.45	2239.48
559.81	2243.74
560.16	2247.62
560.52	2250.99
560.87	2254.31
561.23	2256.97
561.58	2259.91
561.94	2262.36
562.29	2264.66
562.64	2267.31
563.00	2270.15
563.35	2273.62
563.71	2276.89
564.06	2280.15
564.42	2282.93
564.77	2285.41
565.12	2287.53
565.48	2289.42
565.83	2291.41
566.19	2292.61
566.54	2293.53
566.89	2294.56
567.25	2295.16
567.60	2296.35
567.96	2297.88
568.31	2298.74
568.66	2299.84
569.02	2300.39
569.37	2300.86
569.72	2301.79
570.08	2301.90
570.43	2301.89
570.78	2301.48
571.14	2299.82
571.49	2298.39
571.84	2298.11
572.20	2297.07
572.55	2296.00
572.90	2294.45
573.26	2293.08
573.61	2291.51
573.96	2289.67
574.31	2286.70
574.67	2283.66
575.02	2280.13
575.37	2276.75
575.72	2272.88
576.08	2269.56
576.43	2266.32
576.78	2262.50
577.13	2259.25
577.49	2256.28
577.84	2252.63
578.19	2248.88
578.54	2245.34
578.90	2241.25
579.25	2235.79
579.60	2230.74
579.95	2225.64
580.30	2220.65
580.66	2215.54
581.01	2210.52
581.36	2205.60
581.71	2201.45
582.06	2196.93
582.42	2192.54
582.77	2187.36
583.12	2182.86
583.47	2178.16
583.82	2173.13
584.17	2168.03
584.53	2162.50
584.88	2156.80
585.23	2150.96
585.58	2145.39
585.93	2139.82
586.28	2135.11
586.63	2130.00
586.98	2124.94
587.34	2120.35
587.69	2115.46
588.04	2110.04
588.39	2104.39
588.74	2098.11
589.09	2092.05
589.44	2085.24
589.79	2079.15
590.14	2073.52
590.49	2066.96
590.84	2060.56
591.19	2054.51
591.54	2048.14
591.89	2040.74
592.25	2033.99
592.60	2026.92
592.95	2019.40
593.30	2012.09
593.65	2004.42
594.00	1997.38
594.35	1990.15
594.70	1982.07
595.05	1974.86
595.40	1967.67
595.75	1960.23
596.10	1953.91
596.45	1947.02
596.80	1940.93
597.15	1934.25
597.50	1927.12
597.85	1920.79
598.19	1914.04
598.54	1906.84
598.89	1900.10
599.24	1894.27
599.59	1887.55
599.94	1881.36
600.29	1875.05
600.64	1868.54
600.99	1861.08
601.34	1854.27
601.69	1847.31
602.04	1840.31
602.39	1832.83
602.74	1825.91
603.08	1819.09
603.43	1812.39
603.78	1805.12
604.13	1797.90
604.48	1790.65
604.83	1783.79
605.18	1776.65
605.53	1768.67
605.87	1760.87
606.22	1753.66
606.57	1745.81
606.92	1738.47
607.27	1731.23
607.62	1724.30
607.96	1716.97
608.31	1710.28
608.66	1702.63
609.01	1695.12
609.36	1687.75
609.70	1679.89
610.05	1671.85
610.40	1664.17
610.75	1655.75
611.10	1648.05
611.44	1639.54
611.79	1631.47
612.14	1622.87
612.49	1613.77
612.83	1605.54
613.18	1597.29
613.53	1589.12
613.88	1580.57
614.22	1572.32
614.57	1563.76
614.92	1555.67
615.27	1548.11
615.61	1539.71
615.96	1531.60
616.31	1523.86
616.65	1516.46
617.00	1508.94
617.35	1501.27
617.70	1492.91
618.04	1484.34
618.39	1476.14
618.74	1468.62
619.08	1460.33
619.43	1452.66
619.78	1445.83
620.12	1438.54
620.47	1430.96
620.82	1422.81
621.16	1415.36
621.51	1407.81
621.85	1400.15
622.20	1391.70
622.55	1383.34
622.89	1375.56
623.24	1367.93
623.59	1360.62
623.93	1353.03
624.28	1345.82
624.62	1338.30
624.97	1331.16
625.32	1324.54
625.66	1317.69
626.01	1310.51
626.35	1303.10
626.70	1295.34
627.04	1287.47
627.39	1279.75
627.73	1272.34
628.08	1265.45
628.43	1258.12
628.77	1250.62
629.12	1243.03
629.46	1235.76
629.81	1228.32
630.15	1221.07
630.50	1213.73
630.84	1205.52
631.19	1197.68
631.53	1190.13
631.88	1182.66
632.22	1175.04
632.57	1167.78
632.91	1160.15
633.26	1152.73
633.60	1145.41
633.95	1138.40
634.29	1131.44
634.64	1124.74
634.98	1117.40
635.32	1110.30
635.67	1103.78
636.01	1097.26
636.36	1090.44
636.70	1084.02
637.05	1077.57
637.39	1071.08
637.73	1064.54
638.08	1058.63
638.42	1052.61
638.77	1046.21
639.11	1039.51
639.45	1033.10
639.80	1026.36
640.14	1019.97
640.49	1013.39
640.83	1006.94
641.17	1000.59
641.52	994.16
641.86	987.72
642.20	981.85
642.55	975.57
642.89	969.01
643.23	962.38
643.58	956.69
643.92	950.48
644.26	944.34
644.61	938.31
644.95	932.34
645.29	925.78
645.64	918.98
645.98	912.57
646.32	906.81
646.66	900.83
647.01	894.94
647.35	889.16
647.69	883.37
648.04	877.89
648.38	872.09
648.72	866.12
649.06	860.00
649.41	854.19
649.75	848.11
650.09	842.24
650.43	836.46
650.78	830.25
651.12	824.29
651.46	818.54
651.80	812.77
652.14	807.28
652.49	801.97
652.83	796.84
653.17	791.18
653.51	785.43
653.85	780.00
654.20	774.48
654.54	768.46
654.88	762.71
655.22	756.83
655.56	751.18
655.90	745.74
656.25	740.53
656.59	735.14
656.93	730.14
657.27	724.91
657.61	719.44
657.95	714.39
658.29	709.35
658.64	704.11
658.98	698.90
659.32	693.45
659.66	688.17
660.00	682.84
660.34	677.87
660.68	672.96
661.02	667.95
661.36	663.20
661.70	658.75
662.05	654.33
662.39	650.01
662.73	645.52
663.07	641.13
663.41	636.69
663.75	632.17
664.09	627.56
664.43	623.12
664.77	619.06
665.11	614.78
665.45	610.58
665.79	606.47
666.13	602.31
666.47	598.23
666.81	594.06
667.15	589.94
667.49	586.02
667.83	582.20
668.17	578.30
668.51	574.16
668.85	570.14
669.19	566.35
669.53	562.49
669.87	558.68
670.21	554.96
670.55	551.34
670.89	547.89
671.23	544.48
671.57	541.03
671.91	537.49
672.25	533.99
672.58	530.52
672.92	527.10
673.26	523.90
673.60	520.76
673.94	517.68
674.28	514.76
674.62	511.86
674.96	508.79
675.30	505.81
675.64	502.99
675.97	500.23
676.31	497.30
676.65	494.39
676.99	491.64
677.33	488.81
677.67	486.01
678.01	483.01
678.34	480.02
678.68	477.19
679.02	474.36
679.36	471.61
679.70	468.86
680.04	466.11
680.37	463.25
680.71	460.43
681.05	457.84
681.39	455.12
681.73	452.48
682.06	449.96
682.40	447.46
682.74	444.88
683.08	442.34
683.42	439.82
683.75	437.32
684.09	434.81
684.43	432.40
684.77	429.91
685.10	427.59
685.44	425.28
685.78	422.91
686.12	420.62
686.45	418.32
686.79	416.03
687.13	413.85
687.46	411.67
687.80	409.55
688.14	407.31
688.48	405.30
688.81	403.04
689.15	400.84
689.49	398.67
689.82	396.61
690.16	394.46
690.50	392.52
690.83	390.62
691.17	388.63
691.51	386.69
691.84	384.83
692.18	382.82
692.52	380.84
692.85	378.94
693.19	377.10
693.52	375.26
693.86	373.44
694.20	371.71
694.53	369.90
694.87	368.02
695.21	366.25
695.54	364.41
695.88	362.71
696.21	361.00
696.55	359.29
696.88	357.57
697.22	355.98
697.56	354.35
697.89	352.63
698.23	351.04
698.56	349.42
698.90	347.81
699.23	346.20
699.57	344.64
699.90	343.09
700.24	341.55
700.58	340.04
700.91	338.59
701.25	337.09
701.58	335.76
701.92	334.40
702.25	333.00
702.59	331.62
702.92	330.29
703.26	328.96
703.59	327.71
703.93	326.56
704.26	325.30
704.60	323.97
704.93	322.69
705.26	321.41
705.60	320.22
705.93	319.14
706.27	318.10
706.60	317.06
706.94	316.00
707.27	314.84
707.61	313.75
707.94	312.71
708.27	311.63
708.61	310.54
708.94	309.51
709.28	308.51
709.61	307.55
709.94	306.54
710.28	305.51
710.61	304.51
710.95	303.45
711.28	302.56
711.61	301.66
711.95	300.75
712.28	299.79
712.61	298.79
712.95	297.81
713.28	296.93
713.61	296.05
713.95	295.16
714.28	294.31
714.61	293.45
714.95	292.63
715.28	291.80
715.61	290.95
715.95	290.13
716.28	289.33
716.61	288.50
716.95	287.72
717.28	286.99
717.61	286.22
717.94	285.49
718.28	284.66
718.61	283.91
718.94	283.24
719.27	282.58
719.61	281.96
719.94	281.29
720.27	280.57
720.60	279.90
720.94	279.27
721.27	278.73
721.60	278.12
721.93	277.48
722.27	276.91
722.60	276.32
722.93	275.76
723.26	275.21
723.59	274.67
723.93	274.14
724.26	273.58
724.59	273.04
724.92	272.52
725.25	272.02
725.59	271.48
725.92	270.96
726.25	270.46
726.58	269.98
726.91	269.46
727.24	268.99
727.57	268.54
727.91	268.02
728.24	267.56
728.57	267.07
728.90	266.66
729.23	266.14
729.56	265.73
729.89	265.25
730.22	264.77
730.55	264.29
730.89	263.85
731.22	263.46
731.55	263.04
731.88	262.63
732.21	262.19
732.54	261.80
732.87	261.39
733.20	261.05
733.53	260.66
733.86	260.30
734.19	259.92
734.52	259.54
734.85	259.27
735.18	258.84
735.51	258.51
735.84	258.08
736.17	257.79
736.50	257.39
736.83	257.15
737.16	256.83
737.49	256.47
737.82	256.09
738.15	255.74
738.48	255.40
738.81	255.03
739.14	254.73
739.47	254.41
739.80	254.11
740.13	253.79
740.46	253.48
740.79	253.16
741.12	252.84
741.45	252.52
741.78	252.13
742.11	251.84
742.44	251.51
742.77	251.26
743.10	250.91
743.43	250.62
743.75	250.24
744.08	250.09
744.41	249.84
744.74	249.60
745.07	249.31
745.40	249.06
745.73	248.83
746.06	248.54
746.39	248.25
746.71	247.97
747.04	247.69
747.37	247.38
747.70	247.14
748.03	246.88
748.36	246.68
748.68	246.45
749.01	246.21
749.34	246.03
749.67	245.76
750.00	245.59
750.33	245.43
750.65	245.20
750.98	244.82
751.31	244.62
751.64	244.39
751.97	244.25
752.29	244.03
752.62	243.79
752.95	243.57
753.28	243.39
753.60	243.16
753.93	242.98
754.26	242.80
754.59	242.57
754.91	242.36
755.24	242.13
755.57	241.94
755.90	241.73
756.22	241.49
756.55	241.30
756.88	241.10
757.20	240.89
757.53	240.71
757.86	240.58
758.19	240.40
758.51	240.21
758.84	239.97
759.17	239.81
759.49	239.67
759.82	239.55
760.15	239.40
760.47	239.28
760.80	239.09
761.13	238.95
761.45	238.79
761.78	238.65
762.11	238.51
762.43	238.37
762.76	238.24
763.08	238.16
763.41	238.04
763.74	237.89
764.06	237.74
764.39	237.61
764.71	237.44
765.04	237.34
765.37	237.23
765.69	237.12
766.02	237.01
766.34	236.86
766.67	236.71
767.00	236.62
767.32	236.54
767.65	236.48
767.97	236.37
768.30	236.29
768.62	236.17
768.95	236.07
769.27	235.94
769.60	235.86
769.92	235.68
770.25	235.59
770.57	235.48
770.90	235.37
771.22	235.27
771.55	235.18
771.87	235.08
772.20	235.00
772.52	234.98
772.85	234.98
773.17	234.90
773.50	234.82
773.82	234.70
774.15	234.59
774.47	234.45
774.80	234.35
775.12	234.28
775.45	234.16
775.77	234.08
776.09	234.00
776.42	233.89
776.74	233.88
777.07	233.76
777.39	233.66
777.72	233.62
778.04	233.55
778.36	233.47
778.69	233.40
779.01	233.35
779.33	233.16
779.66	232.98
779.98	232.88
780.31	232.84
780.63	232.80
780.95	232.70
781.28	232.62
781.60	232.56
781.92	232.49
782.25	232.44
782.57	232.39
782.89	232.33
783.22	232.26
783.54	232.19
783.86	232.18
784.19	232.17
784.51	232.11
784.83	232.03
785.16	231.97
785.48	231.91
785.80	231.83
786.12	231.83
786.45	231.78
786.77	231.78
787.09	231.72
