SpectraSuite Data File
++++++++++++++++++++++++++++++++++++
Date: Fri Feb 01 16:52:33 EST 2013
User: group
Dark Spectrum Present: No
Reference Spectrum Present: No
Number of Sampled Component Spectra: 1
Spectrometers: USB2E7196
Integration Time (usec): 35000 (USB2E7196)
Spectra Averaged: 100 (USB2E7196)
Boxcar Smoothing: 10 (USB2E7196)
Correct for Electrical Dark: No (USB2E7196)
Strobe/Lamp Enabled: No (USB2E7196)
Correct for Detector Non-linearity: No (USB2E7196)
Correct for Stray Light: No (USB2E7196)
Number of Pixels in Processed Spectrum: 2048
>>>>>Begin Processed Spectral Data<<<<<
339.09	0.00
339.48	213.92
339.86	215.32
340.24	215.92
340.63	217.85
341.01	220.04
341.39	220.57
341.78	221.12
342.16	222.70
342.54	222.94
342.93	211.74
343.31	222.45
343.69	222.95
344.07	223.35
344.46	223.79
344.84	224.14
345.22	224.37
345.60	224.57
345.99	224.79
346.37	224.91
346.75	225.04
347.13	225.11
347.52	225.15
347.90	225.24
348.28	225.26
348.66	225.29
349.05	225.29
349.43	225.34
349.81	225.39
350.19	225.44
350.57	225.48
350.96	225.57
351.34	225.64
351.72	225.72
352.10	225.85
352.48	225.94
352.87	225.98
353.25	226.08
353.63	226.17
354.01	226.23
354.39	226.29
354.77	226.34
355.15	226.45
355.54	226.52
355.92	226.53
356.30	226.58
356.68	226.72
357.06	226.77
357.44	226.82
357.82	226.87
358.20	226.95
358.58	227.00
358.97	227.07
359.35	227.16
359.73	227.23
360.11	227.28
360.49	227.31
360.87	227.38
361.25	227.43
361.63	227.47
362.01	227.51
362.39	227.56
362.77	227.62
363.15	227.62
363.53	227.62
363.91	227.68
364.29	227.69
364.67	227.58
365.05	227.62
365.43	227.66
365.81	227.68
366.19	227.71
366.57	227.77
366.95	227.73
367.33	227.70
367.71	227.68
368.09	227.67
368.47	227.67
368.85	227.65
369.23	227.65
369.61	227.63
369.99	227.63
370.37	227.60
370.75	227.61
371.13	227.58
371.51	227.52
371.89	227.48
372.27	227.47
372.65	227.44
373.03	227.38
373.41	227.32
373.78	227.25
374.16	227.14
374.54	227.05
374.92	226.97
375.30	226.91
375.68	226.85
376.06	226.79
376.44	226.71
376.82	226.65
377.19	226.56
377.57	226.51
377.95	226.39
378.33	226.32
378.71	226.21
379.09	226.17
379.47	226.15
379.84	226.10
380.22	226.02
380.60	225.96
380.98	225.89
381.36	225.81
381.73	225.78
382.11	225.73
382.49	225.66
382.87	225.59
383.25	225.55
383.62	225.61
384.00	225.55
384.38	225.49
384.76	225.45
385.13	225.46
385.51	225.40
385.89	225.35
386.27	225.31
386.64	225.27
387.02	225.19
387.40	225.12
387.78	225.08
388.15	225.08
388.53	225.04
388.91	225.01
389.29	224.96
389.66	224.93
390.04	224.96
390.42	224.98
390.79	224.97
391.17	224.97
391.55	224.85
391.92	224.84
392.30	224.87
392.68	224.86
393.05	224.83
393.43	224.85
393.81	224.86
394.18	224.88
394.56	224.90
394.94	224.96
395.31	225.00
395.69	225.05
396.06	225.06
396.44	225.09
396.82	225.14
397.19	225.27
397.57	225.30
397.95	225.29
398.32	225.30
398.70	225.37
399.07	225.42
399.45	225.46
399.82	225.54
400.20	225.57
400.58	225.63
400.95	225.65
401.33	225.71
401.70	225.84
402.08	225.93
402.45	225.99
402.83	226.08
403.20	226.16
403.58	226.21
403.95	226.36
404.33	226.49
404.71	226.60
405.08	226.73
405.46	226.87
405.83	227.03
406.21	227.12
406.58	227.24
406.96	227.39
407.33	227.56
407.70	227.73
408.08	228.02
408.45	228.23
408.83	228.49
409.20	228.69
409.58	228.89
409.95	229.14
410.33	229.40
410.70	229.65
411.08	229.94
411.45	230.22
411.82	230.47
412.20	230.83
412.57	231.27
412.95	231.51
413.32	231.91
413.69	232.30
414.07	232.76
414.44	233.27
414.82	233.72
415.19	234.28
415.56	234.81
415.94	235.31
416.31	235.93
416.68	236.54
417.06	237.27
417.43	237.95
417.81	238.72
418.18	239.48
418.55	240.31
418.93	241.17
419.30	242.07
419.67	243.02
420.04	243.96
420.42	244.87
420.79	246.10
421.16	247.23
421.54	248.40
421.91	249.62
422.28	250.83
422.66	252.18
423.03	253.44
423.40	254.76
423.77	256.18
424.15	257.59
424.52	259.06
424.89	260.69
425.26	262.21
425.64	263.64
426.01	265.23
426.38	266.85
426.75	268.54
427.13	270.25
427.50	272.04
427.87	273.89
428.24	275.79
428.61	277.51
428.99	279.41
429.36	281.54
429.73	283.60
430.10	285.61
430.47	287.67
430.85	289.79
431.22	292.02
431.59	294.37
431.96	296.63
432.33	299.10
432.70	301.43
433.08	304.25
433.45	306.91
433.82	309.50
434.19	312.39
434.56	315.14
434.93	317.80
435.30	320.40
435.68	323.29
436.05	326.08
436.42	328.85
436.79	331.38
437.16	334.03
437.53	336.83
437.90	339.62
438.27	342.34
438.64	345.16
439.01	347.71
439.38	349.96
439.75	352.05
440.13	354.52
440.50	356.81
440.87	358.59
441.24	360.47
441.61	362.62
441.98	364.13
442.35	365.93
442.72	367.78
443.09	369.63
443.46	370.63
443.83	371.23
444.20	371.75
444.57	372.56
444.94	372.86
445.31	373.20
445.68	373.62
446.05	373.68
446.42	373.30
446.79	372.95
447.16	372.48
447.53	372.23
447.90	371.11
448.27	369.98
448.64	368.48
449.01	367.36
449.37	365.41
449.74	363.53
450.11	361.33
450.48	358.89
450.85	356.33
451.22	354.19
451.59	352.18
451.96	350.31
452.33	347.76
452.70	345.40
453.07	342.62
453.43	339.71
453.80	336.98
454.17	334.32
454.54	331.78
454.91	329.10
455.28	326.43
455.65	323.97
456.02	321.54
456.38	319.39
456.75	316.81
457.12	314.59
457.49	312.38
457.86	310.24
458.23	308.37
458.59	306.35
458.96	304.30
459.33	302.48
459.70	300.61
460.07	299.12
460.43	297.44
460.80	295.81
461.17	294.40
461.54	292.93
461.91	291.54
462.27	290.12
462.64	288.87
463.01	287.52
463.38	286.24
463.74	284.90
464.11	283.76
464.48	282.68
464.85	281.55
465.21	280.68
465.58	279.74
465.95	278.68
466.32	277.77
466.68	276.89
467.05	276.00
467.42	275.10
467.78	274.17
468.15	273.33
468.52	272.68
468.88	271.83
469.25	271.07
469.62	270.44
469.98	269.75
470.35	269.15
470.72	268.58
471.08	267.91
471.45	267.38
471.82	266.82
472.18	266.26
472.55	265.87
472.92	265.36
473.28	264.93
473.65	264.49
474.02	264.08
474.38	263.69
474.75	263.36
475.11	263.03
475.48	262.77
475.85	262.54
476.21	262.32
476.58	262.11
476.94	261.97
477.31	261.81
477.67	261.69
478.04	261.57
478.41	261.55
478.77	261.62
479.14	261.56
479.50	261.59
479.87	261.68
480.23	261.76
480.60	261.84
480.96	261.90
481.33	262.12
481.69	262.31
482.06	262.53
482.42	262.73
482.79	263.00
483.15	263.33
483.52	263.71
483.88	264.03
484.25	264.44
484.61	264.84
484.98	265.30
485.34	265.84
485.71	266.46
486.07	267.03
486.44	267.61
486.80	268.30
487.17	269.01
487.53	269.86
487.90	270.72
488.26	271.65
488.62	272.66
488.99	273.63
489.35	274.67
489.72	275.80
490.08	277.01
490.44	278.24
490.81	279.54
491.17	280.92
491.54	282.41
491.90	283.93
492.26	285.59
492.63	287.32
492.99	289.06
493.36	290.95
493.72	292.99
494.08	295.07
494.45	297.33
494.81	299.69
495.17	302.09
495.54	304.63
495.90	307.30
496.26	310.10
496.63	313.04
496.99	316.17
497.35	319.40
497.72	322.77
498.08	326.28
498.44	329.98
498.80	333.85
499.17	337.86
499.53	342.02
499.89	346.39
500.26	350.87
500.62	355.56
500.98	360.46
501.34	365.49
501.71	370.77
502.07	376.18
502.43	381.79
502.79	387.57
503.16	393.57
503.52	399.82
503.88	406.19
504.24	412.83
504.60	419.64
504.97	426.78
505.33	434.06
505.69	441.72
506.05	449.46
506.41	457.27
506.78	465.37
507.14	473.77
507.50	482.43
507.86	491.40
508.22	500.52
508.59	509.72
508.95	519.22
509.31	529.04
509.67	539.03
510.03	549.27
510.39	559.72
510.75	570.52
511.12	581.38
511.48	592.61
511.84	603.99
512.20	615.40
512.56	627.16
512.92	639.23
513.28	651.50
513.64	663.84
514.00	676.44
514.37	689.27
514.73	702.23
515.09	715.07
515.45	728.19
515.81	741.70
516.17	755.57
516.53	769.54
516.89	783.55
517.25	797.63
517.61	811.90
517.97	826.17
518.33	840.38
518.69	855.00
519.05	869.71
519.41	884.63
519.77	899.95
520.13	915.25
520.49	930.34
520.85	945.52
521.21	961.08
521.57	977.11
521.93	992.67
522.29	1008.78
522.65	1024.81
523.01	1040.83
523.37	1056.57
523.73	1072.47
524.09	1088.39
524.45	1104.41
524.81	1120.88
525.17	1137.41
525.53	1154.14
525.89	1170.78
526.25	1187.35
526.61	1203.58
526.97	1220.09
527.33	1236.35
527.68	1252.71
528.04	1269.10
528.40	1285.40
528.76	1302.22
529.12	1318.57
529.48	1335.30
529.84	1351.15
530.20	1367.53
530.56	1384.27
530.91	1401.43
531.27	1417.99
531.63	1434.18
531.99	1450.54
532.35	1466.12
532.71	1481.66
533.07	1497.61
533.42	1513.33
533.78	1529.18
534.14	1545.20
534.50	1560.33
534.86	1575.94
535.21	1590.90
535.57	1606.56
535.93	1621.84
536.29	1636.36
536.65	1651.23
537.00	1665.57
537.36	1680.64
537.72	1695.03
538.08	1709.31
538.44	1722.89
538.79	1736.57
539.15	1749.97
539.51	1763.45
539.87	1777.66
540.22	1791.31
540.58	1804.84
540.94	1817.92
541.29	1830.42
541.65	1842.88
542.01	1855.79
542.37	1867.90
542.72	1880.13
543.08	1891.82
543.44	1904.03
543.79	1915.11
544.15	1925.81
544.51	1937.39
544.87	1948.21
545.22	1958.82
545.58	1968.84
545.94	1978.41
546.29	1987.92
546.65	1997.69
547.01	2006.76
547.36	2015.33
547.72	2023.70
548.07	2031.42
548.43	2039.51
548.79	2047.40
549.14	2054.89
549.50	2062.16
549.86	2069.72
550.21	2076.95
550.57	2084.00
550.92	2090.48
551.28	2097.34
551.64	2104.40
551.99	2110.81
552.35	2116.75
552.70	2122.97
553.06	2128.98
553.41	2135.40
553.77	2141.53
554.13	2147.48
554.48	2153.68
554.84	2159.23
555.19	2164.36
555.55	2169.54
555.90	2174.17
556.26	2179.25
556.61	2183.96
556.97	2188.44
557.32	2192.60
557.68	2196.77
558.03	2201.03
558.39	2204.80
558.74	2209.55
559.10	2213.42
559.45	2217.13
559.81	2221.52
560.16	2225.39
560.52	2228.57
560.87	2232.00
561.23	2234.65
561.58	2237.73
561.94	2240.20
562.29	2242.58
562.64	2245.51
563.00	2248.13
563.35	2251.51
563.71	2254.56
564.06	2257.83
564.42	2260.75
564.77	2263.41
565.12	2265.84
565.48	2267.85
565.83	2269.98
566.19	2271.42
566.54	2272.37
566.89	2273.66
567.25	2274.43
567.60	2275.77
567.96	2277.65
568.31	2278.56
568.66	2279.96
569.02	2280.76
569.37	2281.49
569.72	2282.41
570.08	2282.72
570.43	2282.98
570.78	2282.53
571.14	2281.29
571.49	2280.24
571.84	2279.96
572.20	2279.13
572.55	2278.28
572.90	2276.84
573.26	2275.57
573.61	2274.01
573.96	2272.63
574.31	2269.75
574.67	2266.99
575.02	2263.44
575.37	2260.11
575.72	2256.52
576.08	2253.17
576.43	2249.91
576.78	2246.32
577.13	2243.28
577.49	2240.19
577.84	2236.97
578.19	2233.50
578.54	2230.14
578.90	2225.95
579.25	2220.60
579.60	2215.73
579.95	2210.80
580.30	2205.94
580.66	2200.83
581.01	2196.03
581.36	2191.29
581.71	2187.31
582.06	2182.95
582.42	2178.64
582.77	2173.78
583.12	2169.46
583.47	2164.96
583.82	2160.20
584.17	2155.13
584.53	2149.85
584.88	2144.45
585.23	2138.90
585.58	2133.51
585.93	2128.04
586.28	2123.35
586.63	2118.39
586.98	2113.53
587.34	2109.01
587.69	2104.25
588.04	2099.17
588.39	2093.65
588.74	2087.31
589.09	2081.30
589.44	2074.74
589.79	2068.93
590.14	2063.35
590.49	2056.79
590.84	2050.60
591.19	2044.63
591.54	2038.22
591.89	2031.11
592.25	2024.41
592.60	2017.30
592.95	2009.97
593.30	2002.79
593.65	1995.31
594.00	1988.35
594.35	1981.21
594.70	1973.28
595.05	1966.22
595.40	1959.12
595.75	1951.79
596.10	1945.62
596.45	1939.12
596.80	1933.06
597.15	1926.59
597.50	1919.63
597.85	1913.39
598.19	1906.81
598.54	1899.89
598.89	1893.43
599.24	1887.47
599.59	1880.95
599.94	1874.67
600.29	1868.41
600.64	1861.90
600.99	1854.76
601.34	1848.11
601.69	1841.24
602.04	1834.47
602.39	1827.21
602.74	1820.52
603.08	1813.74
603.43	1807.02
603.78	1799.76
604.13	1792.61
604.48	1785.35
604.83	1778.47
605.18	1771.59
605.53	1763.73
605.87	1755.72
606.22	1748.52
606.57	1740.68
606.92	1733.32
607.27	1726.44
607.62	1719.49
607.96	1712.38
608.31	1705.75
608.66	1698.23
609.01	1690.73
609.36	1683.24
609.70	1675.26
610.05	1667.25
610.40	1659.75
610.75	1651.52
611.10	1643.78
611.44	1635.25
611.79	1627.40
612.14	1618.86
612.49	1609.74
612.83	1601.44
613.18	1593.41
613.53	1585.36
613.88	1576.96
614.22	1568.90
614.57	1560.14
614.92	1552.21
615.27	1544.70
615.61	1536.40
615.96	1528.37
616.31	1520.72
616.65	1513.34
617.00	1505.98
617.35	1498.17
617.70	1489.89
618.04	1481.51
618.39	1473.38
618.74	1466.02
619.08	1457.66
619.43	1450.16
619.78	1443.23
620.12	1436.07
620.47	1428.58
620.82	1420.47
621.16	1413.02
621.51	1405.33
621.85	1397.76
622.20	1389.24
622.55	1380.74
622.89	1372.92
623.24	1365.25
623.59	1357.80
623.93	1350.25
624.28	1342.96
624.62	1335.54
624.97	1328.36
625.32	1321.56
625.66	1314.55
626.01	1307.23
626.35	1299.89
626.70	1292.20
627.04	1284.58
627.39	1276.74
627.73	1269.27
628.08	1262.34
628.43	1255.18
628.77	1247.87
629.12	1240.41
629.46	1233.29
629.81	1225.99
630.15	1218.80
630.50	1211.52
630.84	1203.41
631.19	1195.53
631.53	1187.96
631.88	1180.35
632.22	1172.86
632.57	1165.61
632.91	1158.13
633.26	1150.90
633.60	1143.42
633.95	1136.19
634.29	1129.00
634.64	1122.31
634.98	1115.02
635.32	1107.91
635.67	1101.11
636.01	1094.48
636.36	1087.69
636.70	1081.17
637.05	1074.63
637.39	1068.19
637.73	1061.63
638.08	1055.74
638.42	1049.76
638.77	1043.33
639.11	1036.83
639.45	1030.29
639.80	1023.54
640.14	1017.13
640.49	1010.56
640.83	1004.34
641.17	998.13
641.52	991.77
641.86	985.30
642.20	979.44
642.55	973.09
642.89	966.71
643.23	960.10
643.58	954.31
643.92	948.13
644.26	942.00
644.61	935.91
644.95	929.99
645.29	923.39
645.64	916.64
645.98	910.30
646.32	904.41
646.66	898.41
647.01	892.67
647.35	886.93
647.69	881.05
648.04	875.50
648.38	869.77
648.72	863.86
649.06	857.86
649.41	852.02
649.75	846.07
650.09	840.20
650.43	834.49
650.78	828.35
651.12	822.46
651.46	816.77
651.80	811.09
652.14	805.64
652.49	800.37
652.83	795.20
653.17	789.58
653.51	783.94
653.85	778.55
654.20	772.92
654.54	766.91
654.88	761.20
655.22	755.25
655.56	749.59
655.90	744.17
656.25	739.03
656.59	733.69
656.93	728.70
657.27	723.50
657.61	718.00
657.95	712.92
658.29	707.83
658.64	702.61
658.98	697.36
659.32	691.96
659.66	686.77
660.00	681.54
660.34	676.63
660.68	671.68
661.02	666.70
661.36	662.02
661.70	657.55
662.05	653.21
662.39	649.04
662.73	644.54
663.07	640.20
663.41	635.68
663.75	631.19
664.09	626.55
664.43	622.17
664.77	618.15
665.11	613.90
665.45	609.72
665.79	605.64
666.13	601.45
666.47	597.33
666.81	593.16
667.15	589.02
667.49	585.10
667.83	581.31
668.17	577.36
668.51	573.24
668.85	569.24
669.19	565.38
669.53	561.45
669.87	557.61
670.21	553.89
670.55	550.25
670.89	546.86
671.23	543.52
671.57	540.00
671.91	536.53
672.25	533.00
672.58	529.51
672.92	526.10
673.26	522.91
673.60	519.74
673.94	516.66
674.28	513.76
674.62	510.78
674.96	507.70
675.30	504.82
675.64	501.93
675.97	499.09
676.31	496.24
676.65	493.35
676.99	490.67
677.33	487.81
677.67	484.97
678.01	481.89
678.34	478.91
678.68	476.03
679.02	473.12
679.36	470.35
679.70	467.65
680.04	464.89
680.37	462.07
680.71	459.32
681.05	456.66
681.39	453.96
681.73	451.32
682.06	448.83
682.40	446.25
682.74	443.67
683.08	441.20
683.42	438.58
683.75	436.06
684.09	433.46
684.43	430.97
684.77	428.55
685.10	426.23
685.44	423.89
685.78	421.61
686.12	419.43
686.45	417.15
686.79	414.82
687.13	412.65
687.46	410.51
687.80	408.24
688.14	406.03
688.48	403.97
688.81	401.73
689.15	399.54
689.49	397.40
689.82	395.36
690.16	393.25
690.50	391.30
690.83	389.40
691.17	387.40
691.51	385.52
691.84	383.64
692.18	381.69
692.52	379.69
692.85	377.72
693.19	375.80
693.52	373.99
693.86	372.17
694.20	370.38
694.53	368.57
694.87	366.76
695.21	364.95
695.54	363.12
695.88	361.40
696.21	359.66
696.55	358.00
696.88	356.33
697.22	354.64
697.56	353.03
697.89	351.36
698.23	349.77
698.56	348.17
698.90	346.62
699.23	344.97
699.57	343.45
699.90	341.94
700.24	340.42
700.58	338.85
700.91	337.35
701.25	335.88
701.58	334.50
701.92	333.17
702.25	331.84
702.59	330.49
702.92	329.15
703.26	327.87
703.59	326.60
703.93	325.41
704.26	324.21
704.60	322.96
704.93	321.71
705.26	320.45
705.60	319.25
705.93	318.06
706.27	317.04
706.60	315.97
706.94	314.90
707.27	313.80
707.61	312.77
707.94	311.74
708.27	310.67
708.61	309.61
708.94	308.58
709.28	307.61
709.61	306.62
709.94	305.70
710.28	304.69
710.61	303.72
710.95	302.60
711.28	301.70
711.61	300.71
711.95	299.78
712.28	298.84
712.61	297.87
712.95	296.95
713.28	296.03
713.61	295.13
713.95	294.21
714.28	293.32
714.61	292.45
714.95	291.61
715.28	290.73
715.61	289.85
715.95	288.98
716.28	288.08
716.61	287.27
716.95	286.42
717.28	285.62
717.61	284.80
717.94	284.09
718.28	283.25
718.61	282.52
718.94	281.81
719.27	281.18
719.61	280.56
719.94	279.91
720.27	279.23
720.60	278.56
720.94	277.93
721.27	277.33
721.60	276.74
721.93	276.12
722.27	275.57
722.60	275.01
722.93	274.43
723.26	273.92
723.59	273.33
723.93	272.80
724.26	272.25
724.59	271.70
724.92	271.19
725.25	270.73
725.59	270.20
725.92	269.70
726.25	269.15
726.58	268.63
726.91	268.12
727.24	267.64
727.57	267.17
727.91	266.69
728.24	266.22
728.57	265.74
728.90	265.30
729.23	264.83
729.56	264.40
729.89	263.94
730.22	263.47
730.55	263.02
730.89	262.54
731.22	262.09
731.55	261.64
731.88	261.19
732.21	260.78
732.54	260.38
732.87	259.95
733.20	259.60
733.53	259.23
733.86	258.86
734.19	258.47
734.52	258.11
734.85	257.77
735.18	257.32
735.51	256.97
735.84	256.61
736.17	256.23
736.50	255.83
736.83	255.61
737.16	255.25
737.49	254.92
737.82	254.61
738.15	254.31
738.48	254.02
738.81	253.70
739.14	253.33
739.47	253.01
739.80	252.72
740.13	252.37
740.46	252.03
740.79	251.71
741.12	251.42
741.45	251.08
741.78	250.75
742.11	250.47
742.44	250.12
742.77	249.84
743.10	249.53
743.43	249.24
743.75	248.86
744.08	248.71
744.41	248.42
744.74	248.17
745.07	247.90
745.40	247.66
745.73	247.40
746.06	247.16
746.39	246.89
746.71	246.63
747.04	246.33
747.37	246.09
747.70	245.83
748.03	245.56
748.36	245.38
748.68	245.14
749.01	244.93
749.34	244.71
749.67	244.48
750.00	244.27
750.33	244.12
750.65	243.93
750.98	243.57
751.31	243.34
751.64	243.13
751.97	242.92
752.29	242.68
752.62	242.43
752.95	242.19
753.28	241.99
753.60	241.76
753.93	241.65
754.26	241.45
754.59	241.23
754.91	241.00
755.24	240.75
755.57	240.55
755.90	240.32
756.22	240.14
756.55	239.94
756.88	239.77
757.20	239.50
757.53	239.27
757.86	239.12
758.19	238.98
758.51	238.80
758.84	238.61
759.17	238.41
759.49	238.28
759.82	238.18
760.15	238.01
760.47	237.87
760.80	237.64
761.13	237.48
761.45	237.33
761.78	237.20
762.11	237.08
762.43	236.91
762.76	236.77
763.08	236.63
763.41	236.49
763.74	236.33
764.06	236.23
764.39	236.09
764.71	235.91
765.04	235.73
765.37	235.60
765.69	235.42
766.02	235.31
766.34	235.18
766.67	234.98
767.00	234.87
767.32	234.82
767.65	234.80
767.97	234.67
768.30	234.57
768.62	234.46
768.95	234.30
769.27	234.22
769.60	234.15
769.92	234.00
770.25	233.85
770.57	233.74
770.90	233.63
771.22	233.50
771.55	233.43
771.87	233.38
772.20	233.24
772.52	233.26
772.85	233.29
773.17	233.18
773.50	233.09
773.82	233.01
774.15	232.87
774.47	232.69
774.80	232.55
775.12	232.46
775.45	232.38
775.77	232.30
776.09	232.23
776.42	232.14
776.74	232.13
777.07	232.08
777.39	232.00
777.72	231.92
778.04	231.86
778.36	231.79
778.69	231.69
779.01	231.66
779.33	231.49
779.66	231.29
779.98	231.21
780.31	231.17
780.63	231.11
780.95	231.05
781.28	231.02
781.60	230.96
781.92	230.93
782.25	230.86
782.57	230.83
782.89	230.74
783.22	230.68
783.54	230.61
783.86	230.55
784.19	230.50
784.51	230.45
784.83	230.41
785.16	230.32
785.48	230.26
785.80	230.22
786.12	230.15
786.45	230.12
786.77	230.09
787.09	230.03
