SpectraSuite Data File
++++++++++++++++++++++++++++++++++++
Date: Fri Feb 01 15:04:18 EST 2013
User: group
Dark Spectrum Present: No
Reference Spectrum Present: No
Number of Sampled Component Spectra: 1
Spectrometers: USB2E7196
Integration Time (usec): 35000 (USB2E7196)
Spectra Averaged: 100 (USB2E7196)
Boxcar Smoothing: 10 (USB2E7196)
Correct for Electrical Dark: No (USB2E7196)
Strobe/Lamp Enabled: No (USB2E7196)
Correct for Detector Non-linearity: No (USB2E7196)
Correct for Stray Light: No (USB2E7196)
Number of Pixels in Processed Spectrum: 2048
>>>>>Begin Processed Spectral Data<<<<<
339.09	0.00
339.48	215.21
339.86	216.84
340.24	218.23
340.63	219.24
341.01	222.09
341.39	221.28
341.78	223.14
342.16	224.48
342.54	225.34
342.93	213.42
343.31	224.23
343.69	224.79
344.07	225.25
344.46	225.65
344.84	226.05
345.22	226.31
345.60	226.59
345.99	226.79
346.37	226.96
346.75	227.03
347.13	227.11
347.52	227.17
347.90	227.26
348.28	227.29
348.66	227.33
349.05	227.34
349.43	227.37
349.81	227.42
350.19	227.48
350.57	227.55
350.96	227.61
351.34	227.69
351.72	227.75
352.10	227.83
352.48	227.93
352.87	227.98
353.25	228.02
353.63	228.09
354.01	228.15
354.39	228.19
354.77	228.28
355.15	228.37
355.54	228.44
355.92	228.47
356.30	228.55
356.68	228.66
357.06	228.73
357.44	228.81
357.82	228.89
358.20	228.96
358.58	228.99
358.97	229.06
359.35	229.11
359.73	229.18
360.11	229.25
360.49	229.27
360.87	229.29
361.25	229.35
361.63	229.41
362.01	229.44
362.39	229.46
362.77	229.51
363.15	229.53
363.53	229.53
363.91	229.56
364.29	229.54
364.67	229.47
365.05	229.47
365.43	229.49
365.81	229.48
366.19	229.51
366.57	229.56
366.95	229.53
367.33	229.49
367.71	229.50
368.09	229.46
368.47	229.44
368.85	229.43
369.23	229.43
369.61	229.34
369.99	229.35
370.37	229.34
370.75	229.32
371.13	229.22
371.51	229.16
371.89	229.08
372.27	229.05
372.65	229.03
373.03	228.96
373.41	228.87
373.78	228.76
374.16	228.67
374.54	228.54
374.92	228.49
375.30	228.42
375.68	228.29
376.06	228.24
376.44	228.17
376.82	228.09
377.19	227.97
377.57	227.93
377.95	227.77
378.33	227.65
378.71	227.52
379.09	227.47
379.47	227.42
379.84	227.37
380.22	227.30
380.60	227.19
380.98	227.12
381.36	227.07
381.73	227.00
382.11	226.95
382.49	226.90
382.87	226.82
383.25	226.77
383.62	226.84
384.00	226.74
384.38	226.72
384.76	226.70
385.13	226.71
385.51	226.63
385.89	226.63
386.27	226.61
386.64	226.61
387.02	226.56
387.40	226.52
387.78	226.46
388.15	226.43
388.53	226.42
388.91	226.40
389.29	226.34
389.66	226.33
390.04	226.28
390.42	226.30
390.79	226.28
391.17	226.25
391.55	226.15
391.92	226.16
392.30	226.13
392.68	226.13
393.05	226.15
393.43	226.16
393.81	226.18
394.18	226.17
394.56	226.20
394.94	226.25
395.31	226.27
395.69	226.33
396.06	226.36
396.44	226.36
396.82	226.40
397.19	226.49
397.57	226.56
397.95	226.63
398.32	226.62
398.70	226.68
399.07	226.75
399.45	226.80
399.82	226.88
400.20	226.99
400.58	227.06
400.95	227.10
401.33	227.23
401.70	227.40
402.08	227.56
402.45	227.62
402.83	227.75
403.20	227.88
403.58	228.00
403.95	228.14
404.33	228.34
404.71	228.48
405.08	228.69
405.46	228.85
405.83	229.02
406.21	229.18
406.58	229.36
406.96	229.57
407.33	229.80
407.70	230.00
408.08	230.26
408.45	230.51
408.83	230.75
409.20	230.99
409.58	231.18
409.95	231.41
410.33	231.73
410.70	231.97
411.08	232.28
411.45	232.59
411.82	232.94
412.20	233.30
412.57	233.72
412.95	234.00
413.32	234.40
413.69	234.80
414.07	235.26
414.44	235.74
414.82	236.25
415.19	236.77
415.56	237.35
415.94	237.87
416.31	238.49
416.68	239.14
417.06	239.81
417.43	240.49
417.81	241.28
418.18	242.04
418.55	242.90
418.93	243.80
419.30	244.68
419.67	245.60
420.04	246.55
420.42	247.52
420.79	248.73
421.16	249.88
421.54	251.07
421.91	252.27
422.28	253.55
422.66	254.87
423.03	256.16
423.40	257.48
423.77	258.90
424.15	260.34
424.52	261.83
424.89	263.46
425.26	265.01
425.64	266.43
426.01	268.02
426.38	269.67
426.75	271.28
427.13	273.02
427.50	274.83
427.87	276.72
428.24	278.59
428.61	280.30
428.99	282.25
429.36	284.34
429.73	286.43
430.10	288.41
430.47	290.46
430.85	292.57
431.22	294.77
431.59	297.14
431.96	299.37
432.33	301.83
432.70	304.20
433.08	307.01
433.45	309.64
433.82	312.25
434.19	315.14
434.56	317.96
434.93	320.57
435.30	323.16
435.68	326.06
436.05	328.87
436.42	331.70
436.79	334.21
437.16	336.94
437.53	339.78
437.90	342.61
438.27	345.33
438.64	348.18
439.01	350.80
439.38	353.02
439.75	355.20
440.13	357.70
440.50	360.01
440.87	361.86
441.24	363.81
441.61	366.00
441.98	367.49
442.35	369.28
442.72	371.13
443.09	372.92
443.46	373.93
443.83	374.52
444.20	375.00
444.57	375.82
444.94	376.12
445.31	376.46
445.68	376.79
446.05	376.91
446.42	376.56
446.79	376.20
447.16	375.78
447.53	375.45
447.90	374.32
448.27	373.23
448.64	371.68
449.01	370.55
449.37	368.61
449.74	366.70
450.11	364.46
450.48	362.02
450.85	359.53
451.22	357.42
451.59	355.43
451.96	353.56
452.33	350.99
452.70	348.57
453.07	345.78
453.43	342.91
453.80	340.11
454.17	337.41
454.54	334.82
454.91	332.14
455.28	329.49
455.65	326.97
456.02	324.47
456.38	322.30
456.75	319.61
457.12	317.32
457.49	315.11
457.86	312.95
458.23	311.14
458.59	309.11
458.96	306.96
459.33	305.05
459.70	303.12
460.07	301.59
460.43	299.94
460.80	298.28
461.17	296.83
461.54	295.33
461.91	293.90
462.27	292.48
462.64	291.21
463.01	289.81
463.38	288.53
463.74	287.17
464.11	285.97
464.48	284.96
464.85	283.86
465.21	282.99
465.58	282.01
465.95	280.90
466.32	279.99
466.68	279.07
467.05	278.20
467.42	277.32
467.78	276.37
468.15	275.42
468.52	274.76
468.88	273.87
469.25	273.07
469.62	272.44
469.98	271.74
470.35	271.09
470.72	270.50
471.08	269.81
471.45	269.27
471.82	268.75
472.18	268.13
472.55	267.65
472.92	267.10
473.28	266.63
473.65	266.12
474.02	265.67
474.38	265.31
474.75	264.93
475.11	264.55
475.48	264.30
475.85	264.07
476.21	263.81
476.58	263.60
476.94	263.45
477.31	263.22
477.67	263.04
478.04	262.88
478.41	262.81
478.77	262.81
479.14	262.71
479.50	262.68
479.87	262.71
480.23	262.82
480.60	262.90
480.96	263.02
481.33	263.26
481.69	263.42
482.06	263.59
482.42	263.77
482.79	264.02
483.15	264.27
483.52	264.62
483.88	264.94
484.25	265.34
484.61	265.78
484.98	266.23
485.34	266.80
485.71	267.38
486.07	267.94
486.44	268.53
486.80	269.21
487.17	269.96
487.53	270.78
487.90	271.61
488.26	272.54
488.62	273.46
488.99	274.41
489.35	275.42
489.72	276.57
490.08	277.83
490.44	279.04
490.81	280.41
491.17	281.77
491.54	283.26
491.90	284.82
492.26	286.44
492.63	288.18
492.99	289.93
493.36	291.81
493.72	293.85
494.08	295.96
494.45	298.20
494.81	300.58
495.17	302.98
495.54	305.51
495.90	308.17
496.26	310.99
496.63	313.94
496.99	317.09
497.35	320.34
497.72	323.71
498.08	327.23
498.44	330.88
498.80	334.84
499.17	338.84
499.53	342.99
499.89	347.37
500.26	351.86
500.62	356.52
500.98	361.46
501.34	366.55
501.71	371.81
502.07	377.24
502.43	382.78
502.79	388.58
503.16	394.65
503.52	400.89
503.88	407.24
504.24	413.87
504.60	420.77
504.97	427.88
505.33	435.15
505.69	442.86
506.05	450.63
506.41	458.47
506.78	466.61
507.14	475.09
507.50	483.75
507.86	492.72
508.22	501.91
508.59	511.09
508.95	520.71
509.31	530.61
509.67	540.70
510.03	551.03
510.39	561.62
510.75	572.34
511.12	583.28
511.48	594.59
511.84	606.07
512.20	617.61
512.56	629.57
512.92	641.78
513.28	654.04
513.64	666.54
514.00	679.20
514.37	692.13
514.73	705.08
515.09	718.13
515.45	731.38
515.81	744.91
516.17	758.89
516.53	772.96
516.89	787.03
517.25	801.23
517.61	815.75
517.97	830.24
518.33	844.70
518.69	859.54
519.05	874.52
519.41	889.66
519.77	905.13
520.13	920.58
520.49	936.00
520.85	951.46
521.21	967.21
521.57	983.50
521.93	999.29
522.29	1015.76
522.65	1032.10
523.01	1048.43
523.37	1064.56
523.73	1080.85
524.09	1096.94
524.45	1113.43
524.81	1130.06
525.17	1146.92
525.53	1163.90
525.89	1180.77
526.25	1197.70
526.61	1214.25
526.97	1231.03
527.33	1247.61
527.68	1264.34
528.04	1280.89
528.40	1297.66
528.76	1314.83
529.12	1331.51
529.48	1348.47
529.84	1364.65
530.20	1381.27
530.56	1398.40
530.91	1415.81
531.27	1432.62
531.63	1449.22
531.99	1465.83
532.35	1481.98
532.71	1497.83
533.07	1514.15
533.42	1530.15
533.78	1546.27
534.14	1562.59
534.50	1578.00
534.86	1594.02
535.21	1609.11
535.57	1625.04
535.93	1640.59
536.29	1655.42
536.65	1670.68
537.00	1685.60
537.36	1701.02
537.72	1715.72
538.08	1730.12
538.44	1744.08
538.79	1758.16
539.15	1771.85
539.51	1785.59
539.87	1799.98
540.22	1813.83
540.58	1827.72
540.94	1841.16
541.29	1854.08
541.65	1866.81
542.01	1880.09
542.37	1892.36
542.72	1904.97
543.08	1916.90
543.44	1929.42
543.79	1940.79
544.15	1951.76
544.51	1963.29
544.87	1974.28
545.22	1985.15
545.58	1995.47
545.94	2005.32
546.29	2015.12
546.65	2025.01
547.01	2034.42
547.36	2043.17
547.72	2051.64
548.07	2059.50
548.43	2067.82
548.79	2075.93
549.14	2083.49
549.50	2090.94
549.86	2098.77
550.21	2106.08
550.57	2113.23
550.92	2119.74
551.28	2126.76
551.64	2133.77
551.99	2140.35
552.35	2146.37
552.70	2152.44
553.06	2158.40
553.41	2164.63
553.77	2170.68
554.13	2176.86
554.48	2182.89
554.84	2188.16
555.19	2193.50
555.55	2198.58
555.90	2203.00
556.26	2207.80
556.61	2212.54
556.97	2216.66
557.32	2220.84
557.68	2224.95
558.03	2229.35
558.39	2233.18
558.74	2237.81
559.10	2241.72
559.45	2245.30
559.81	2249.67
560.16	2253.41
560.52	2256.53
560.87	2260.11
561.23	2262.57
561.58	2265.49
561.94	2267.91
562.29	2270.49
562.64	2273.16
563.00	2275.62
563.35	2278.97
563.71	2282.02
564.06	2285.18
564.42	2287.99
564.77	2290.25
565.12	2292.36
565.48	2294.04
565.83	2295.63
566.19	2296.77
566.54	2297.64
566.89	2298.67
567.25	2299.12
567.60	2300.42
567.96	2302.03
568.31	2302.55
568.66	2303.69
569.02	2304.10
569.37	2304.42
569.72	2305.01
570.08	2304.94
570.43	2304.77
570.78	2303.98
571.14	2302.23
571.49	2300.75
571.84	2300.30
572.20	2298.96
572.55	2297.83
572.90	2296.13
573.26	2294.54
573.61	2292.62
573.96	2290.55
574.31	2287.49
574.67	2284.38
575.02	2280.58
575.37	2277.07
575.72	2273.14
576.08	2269.68
576.43	2266.10
576.78	2262.25
577.13	2258.96
577.49	2255.73
577.84	2252.20
578.19	2248.46
578.54	2244.51
578.90	2240.07
579.25	2234.51
579.60	2229.48
579.95	2224.35
580.30	2219.33
580.66	2214.11
581.01	2209.13
581.36	2204.16
581.71	2199.84
582.06	2195.14
582.42	2190.48
582.77	2185.15
583.12	2180.48
583.47	2175.44
583.82	2170.44
584.17	2165.00
584.53	2159.46
584.88	2153.71
585.23	2147.73
585.58	2142.23
585.93	2136.90
586.28	2132.06
586.63	2126.85
586.98	2121.74
587.34	2116.97
587.69	2111.74
588.04	2106.34
588.39	2100.59
588.74	2093.94
589.09	2087.71
589.44	2080.86
589.79	2074.80
590.14	2069.07
590.49	2062.47
590.84	2056.16
591.19	2050.01
591.54	2043.58
591.89	2036.12
592.25	2029.23
592.60	2021.99
592.95	2014.23
593.30	2006.79
593.65	1998.95
594.00	1991.89
594.35	1984.44
594.70	1976.28
595.05	1969.13
595.40	1961.86
595.75	1954.24
596.10	1947.96
596.45	1941.03
596.80	1934.75
597.15	1928.13
597.50	1920.88
597.85	1914.43
598.19	1907.68
598.54	1900.51
598.89	1893.80
599.24	1887.69
599.59	1880.84
599.94	1874.69
600.29	1868.26
600.64	1861.70
600.99	1854.30
601.34	1847.37
601.69	1840.34
602.04	1833.43
602.39	1826.00
602.74	1819.08
603.08	1812.36
603.43	1805.58
603.78	1798.35
604.13	1791.14
604.48	1783.70
604.83	1776.92
605.18	1769.81
605.53	1761.62
605.87	1753.66
606.22	1746.42
606.57	1738.59
606.92	1731.36
607.27	1724.15
607.62	1717.25
607.96	1709.88
608.31	1703.27
608.66	1695.60
609.01	1688.13
609.36	1680.51
609.70	1672.47
610.05	1664.52
610.40	1656.74
610.75	1648.46
611.10	1640.75
611.44	1632.54
611.79	1624.58
612.14	1615.80
612.49	1606.76
612.83	1598.56
613.18	1590.39
613.53	1582.23
613.88	1573.73
614.22	1565.49
614.57	1556.91
614.92	1548.86
615.27	1541.23
615.61	1532.93
615.96	1524.98
616.31	1517.36
616.65	1510.15
617.00	1502.70
617.35	1495.07
617.70	1486.80
618.04	1478.31
618.39	1470.14
618.74	1462.42
619.08	1454.26
619.43	1446.91
619.78	1440.05
620.12	1433.04
620.47	1425.54
620.82	1417.45
621.16	1410.06
621.51	1402.52
621.85	1394.94
622.20	1386.43
622.55	1378.22
622.89	1370.46
623.24	1362.77
623.59	1355.46
623.93	1347.85
624.28	1340.61
624.62	1332.98
624.97	1325.77
625.32	1319.06
625.66	1312.05
626.01	1304.87
626.35	1297.22
626.70	1289.49
627.04	1281.69
627.39	1273.77
627.73	1266.42
628.08	1259.46
628.43	1252.15
628.77	1244.69
629.12	1237.07
629.46	1229.94
629.81	1222.60
630.15	1215.31
630.50	1208.04
630.84	1199.90
631.19	1191.95
631.53	1184.49
631.88	1176.94
632.22	1169.43
632.57	1162.14
632.91	1154.64
633.26	1147.16
633.60	1140.00
633.95	1132.89
634.29	1125.91
634.64	1119.31
634.98	1112.06
635.32	1104.99
635.67	1098.46
636.01	1091.95
636.36	1085.27
636.70	1078.83
637.05	1072.29
637.39	1065.94
637.73	1059.40
638.08	1053.59
638.42	1047.74
638.77	1041.32
639.11	1034.79
639.45	1028.44
639.80	1021.84
640.14	1015.46
640.49	1009.08
640.83	1002.93
641.17	996.71
641.52	990.44
641.86	984.06
642.20	978.14
642.55	971.94
642.89	965.51
643.23	958.96
643.58	953.21
643.92	947.02
644.26	940.97
644.61	934.96
644.95	928.95
645.29	922.35
645.64	915.62
645.98	909.42
646.32	903.64
646.66	897.63
647.01	891.90
647.35	886.30
647.69	880.56
648.04	875.02
648.38	869.22
648.72	863.24
649.06	857.18
649.41	851.39
649.75	845.38
650.09	839.44
650.43	833.69
650.78	827.56
651.12	821.66
651.46	815.94
651.80	810.17
652.14	804.89
652.49	799.50
652.83	794.35
653.17	788.57
653.51	782.86
653.85	777.46
654.20	771.82
654.54	765.79
654.88	760.06
655.22	754.11
655.56	748.45
655.90	742.99
656.25	737.74
656.59	732.40
656.93	727.29
657.27	722.16
657.61	716.79
657.95	711.64
658.29	706.57
658.64	701.39
658.98	696.19
659.32	690.69
659.66	685.52
660.00	680.14
660.34	675.24
660.68	670.38
661.02	665.34
661.36	660.59
661.70	656.07
662.05	651.68
662.39	647.40
662.73	642.96
663.07	638.65
663.41	634.23
663.75	629.70
664.09	625.17
664.43	620.82
664.77	616.68
665.11	612.46
665.45	608.36
665.79	604.24
666.13	600.09
666.47	595.96
666.81	591.81
667.15	587.74
667.49	583.89
667.83	580.09
668.17	576.23
668.51	572.20
668.85	568.17
669.19	564.38
669.53	560.51
669.87	556.69
670.21	553.00
670.55	549.37
670.89	545.97
671.23	542.57
671.57	539.08
671.91	535.56
672.25	532.13
672.58	528.66
672.92	525.35
673.26	522.25
673.60	519.16
673.94	516.12
674.28	513.29
674.62	510.35
674.96	507.24
675.30	504.33
675.64	501.48
675.97	498.83
676.31	495.99
676.65	493.12
676.99	490.42
677.33	487.57
677.67	484.75
678.01	481.73
678.34	478.74
678.68	475.84
679.02	473.07
679.36	470.40
679.70	467.67
680.04	464.92
680.37	462.04
680.71	459.31
681.05	456.68
681.39	453.97
681.73	451.34
682.06	448.83
682.40	446.27
682.74	443.75
683.08	441.22
683.42	438.63
683.75	436.11
684.09	433.59
684.43	431.13
684.77	428.72
685.10	426.48
685.44	424.23
685.78	421.95
686.12	419.71
686.45	417.34
686.79	415.07
687.13	412.87
687.46	410.76
687.80	408.61
688.14	406.44
688.48	404.41
688.81	402.19
689.15	400.08
689.49	397.98
689.82	395.87
690.16	393.81
690.50	391.86
690.83	389.92
691.17	387.97
691.51	386.10
691.84	384.28
692.18	382.31
692.52	380.37
692.85	378.47
693.19	376.56
693.52	374.82
693.86	373.04
694.20	371.26
694.53	369.49
694.87	367.65
695.21	365.89
695.54	364.05
695.88	362.33
696.21	360.60
696.55	358.96
696.88	357.32
697.22	355.69
697.56	354.06
697.89	352.45
698.23	350.87
698.56	349.26
698.90	347.66
699.23	345.99
699.57	344.46
699.90	342.92
700.24	341.45
700.58	339.88
700.91	338.38
701.25	336.95
701.58	335.54
701.92	334.18
702.25	332.76
702.59	331.43
702.92	330.14
703.26	328.81
703.59	327.50
703.93	326.32
704.26	325.04
704.60	323.78
704.93	322.50
705.26	321.24
705.60	320.08
705.93	318.92
706.27	317.90
706.60	316.84
706.94	315.77
707.27	314.63
707.61	313.60
707.94	312.57
708.27	311.45
708.61	310.38
708.94	309.36
709.28	308.39
709.61	307.44
709.94	306.49
710.28	305.50
710.61	304.54
710.95	303.47
711.28	302.57
711.61	301.65
711.95	300.74
712.28	299.77
712.61	298.80
712.95	297.87
713.28	297.01
713.61	296.11
713.95	295.23
714.28	294.38
714.61	293.50
714.95	292.66
715.28	291.82
715.61	290.94
715.95	290.11
716.28	289.29
716.61	288.48
716.95	287.67
717.28	286.91
717.61	286.12
717.94	285.42
718.28	284.66
718.61	283.91
718.94	283.24
719.27	282.59
719.61	281.97
719.94	281.27
720.27	280.57
720.60	279.91
720.94	279.29
721.27	278.68
721.60	278.13
721.93	277.53
722.27	277.02
722.60	276.49
722.93	275.91
723.26	275.36
723.59	274.76
723.93	274.20
724.26	273.66
724.59	273.18
724.92	272.68
725.25	272.15
725.59	271.64
725.92	271.15
726.25	270.67
726.58	270.18
726.91	269.74
727.24	269.28
727.57	268.86
727.91	268.36
728.24	267.92
728.57	267.40
728.90	266.96
729.23	266.47
729.56	266.05
729.89	265.59
730.22	265.13
730.55	264.72
730.89	264.32
731.22	263.90
731.55	263.43
731.88	263.00
732.21	262.57
732.54	262.14
732.87	261.71
733.20	261.33
733.53	260.93
733.86	260.54
734.19	260.10
734.52	259.68
734.85	259.35
735.18	258.92
735.51	258.61
735.84	258.26
736.17	257.90
736.50	257.50
736.83	257.30
737.16	256.92
737.49	256.57
737.82	256.19
738.15	255.85
738.48	255.53
738.81	255.15
739.14	254.83
739.47	254.53
739.80	254.21
740.13	253.86
740.46	253.52
740.79	253.17
741.12	252.90
741.45	252.61
741.78	252.27
742.11	251.97
742.44	251.61
742.77	251.29
743.10	250.97
743.43	250.64
743.75	250.24
744.08	250.11
744.41	249.80
744.74	249.52
745.07	249.23
745.40	248.95
745.73	248.75
746.06	248.47
746.39	248.18
746.71	247.86
747.04	247.58
747.37	247.30
747.70	247.08
748.03	246.83
748.36	246.59
748.68	246.38
749.01	246.13
749.34	245.91
749.67	245.66
750.00	245.47
750.33	245.34
750.65	245.14
750.98	244.77
751.31	244.57
751.64	244.38
751.97	244.20
752.29	243.97
752.62	243.70
752.95	243.49
753.28	243.26
753.60	243.09
753.93	242.94
754.26	242.76
754.59	242.52
754.91	242.32
755.24	242.10
755.57	241.86
755.90	241.68
756.22	241.47
756.55	241.28
756.88	241.06
757.20	240.82
757.53	240.63
757.86	240.51
758.19	240.36
758.51	240.18
758.84	239.99
759.17	239.85
759.49	239.68
759.82	239.56
760.15	239.45
760.47	239.31
760.80	239.13
761.13	239.02
761.45	238.90
761.78	238.75
762.11	238.63
762.43	238.53
762.76	238.38
763.08	238.27
763.41	238.18
763.74	238.05
764.06	237.93
764.39	237.78
764.71	237.62
765.04	237.48
765.37	237.36
765.69	237.26
766.02	237.14
766.34	237.03
766.67	236.88
767.00	236.79
767.32	236.72
767.65	236.69
767.97	236.57
768.30	236.44
768.62	236.35
768.95	236.24
769.27	236.14
769.60	236.07
769.92	235.94
770.25	235.83
770.57	235.71
770.90	235.64
771.22	235.56
771.55	235.50
771.87	235.41
772.20	235.29
772.52	235.26
772.85	235.31
773.17	235.21
773.50	235.12
773.82	234.99
774.15	234.85
774.47	234.70
774.80	234.60
775.12	234.55
775.45	234.45
775.77	234.33
776.09	234.24
776.42	234.13
776.74	234.09
777.07	234.01
777.39	233.93
777.72	233.79
778.04	233.72
778.36	233.58
778.69	233.52
779.01	233.47
779.33	233.32
779.66	233.11
779.98	233.03
780.31	232.95
780.63	232.94
780.95	232.86
781.28	232.76
781.60	232.68
781.92	232.59
782.25	232.49
782.57	232.43
782.89	232.35
783.22	232.29
783.54	232.22
783.86	232.18
784.19	232.12
784.51	232.07
784.83	232.03
785.16	232.00
785.48	231.93
785.80	231.85
786.12	231.79
786.45	231.71
786.77	231.67
787.09	231.61
