SpectraSuite Data File
++++++++++++++++++++++++++++++++++++
Date: Fri Feb 01 16:42:16 EST 2013
User: group
Dark Spectrum Present: No
Reference Spectrum Present: No
Number of Sampled Component Spectra: 1
Spectrometers: USB2E7196
Integration Time (usec): 35000 (USB2E7196)
Spectra Averaged: 100 (USB2E7196)
Boxcar Smoothing: 10 (USB2E7196)
Correct for Electrical Dark: No (USB2E7196)
Strobe/Lamp Enabled: No (USB2E7196)
Correct for Detector Non-linearity: No (USB2E7196)
Correct for Stray Light: No (USB2E7196)
Number of Pixels in Processed Spectrum: 2048
>>>>>Begin Processed Spectral Data<<<<<
339.09	0.00
339.48	213.09
339.86	214.87
340.24	215.92
340.63	217.76
341.01	220.43
341.39	220.77
341.78	221.79
342.16	222.35
342.54	223.82
342.93	211.78
343.31	222.48
343.69	223.04
344.07	223.51
344.46	223.95
344.84	224.32
345.22	224.57
345.60	224.79
345.99	224.96
346.37	225.11
346.75	225.17
347.13	225.26
347.52	225.33
347.90	225.43
348.28	225.45
348.66	225.53
349.05	225.53
349.43	225.56
349.81	225.59
350.19	225.65
350.57	225.70
350.96	225.82
351.34	225.90
351.72	225.97
352.10	226.07
352.48	226.14
352.87	226.20
353.25	226.25
353.63	226.32
354.01	226.41
354.39	226.50
354.77	226.61
355.15	226.73
355.54	226.79
355.92	226.78
356.30	226.88
356.68	227.01
357.06	227.11
357.44	227.20
357.82	227.26
358.20	227.36
358.58	227.44
358.97	227.47
359.35	227.58
359.73	227.68
360.11	227.76
360.49	227.83
360.87	227.91
361.25	227.98
361.63	228.10
362.01	228.15
362.39	228.18
362.77	228.21
363.15	228.24
363.53	228.27
363.91	228.36
364.29	228.35
364.67	228.26
365.05	228.26
365.43	228.28
365.81	228.34
366.19	228.36
366.57	228.39
366.95	228.41
367.33	228.37
367.71	228.34
368.09	228.32
368.47	228.34
368.85	228.28
369.23	228.28
369.61	228.18
369.99	228.17
370.37	228.15
370.75	228.17
371.13	228.13
371.51	228.11
371.89	228.03
372.27	228.04
372.65	228.01
373.03	227.99
373.41	227.92
373.78	227.82
374.16	227.73
374.54	227.63
374.92	227.58
375.30	227.53
375.68	227.47
376.06	227.42
376.44	227.34
376.82	227.32
377.19	227.25
377.57	227.20
377.95	227.08
378.33	227.03
378.71	226.89
379.09	226.83
379.47	226.76
379.84	226.66
380.22	226.53
380.60	226.44
380.98	226.35
381.36	226.28
381.73	226.19
382.11	226.13
382.49	226.05
382.87	225.96
383.25	225.87
383.62	225.90
384.00	225.83
384.38	225.76
384.76	225.71
385.13	225.68
385.51	225.63
385.89	225.60
386.27	225.53
386.64	225.50
387.02	225.45
387.40	225.43
387.78	225.45
388.15	225.40
388.53	225.37
388.91	225.33
389.29	225.29
389.66	225.28
390.04	225.24
390.42	225.26
390.79	225.25
391.17	225.23
391.55	225.11
391.92	225.07
392.30	225.03
392.68	224.99
393.05	224.98
393.43	224.98
393.81	224.98
394.18	224.94
394.56	224.95
394.94	224.99
395.31	224.97
395.69	224.98
396.06	225.06
396.44	225.12
396.82	225.14
397.19	225.25
397.57	225.27
397.95	225.32
398.32	225.32
398.70	225.36
399.07	225.43
399.45	225.47
399.82	225.53
400.20	225.60
400.58	225.69
400.95	225.72
401.33	225.81
401.70	225.94
402.08	226.06
402.45	226.14
402.83	226.25
403.20	226.38
403.58	226.47
403.95	226.60
404.33	226.74
404.71	226.88
405.08	227.03
405.46	227.18
405.83	227.32
406.21	227.48
406.58	227.65
406.96	227.83
407.33	228.01
407.70	228.25
408.08	228.53
408.45	228.72
408.83	228.94
409.20	229.16
409.58	229.36
409.95	229.62
410.33	229.90
410.70	230.12
411.08	230.38
411.45	230.68
411.82	230.97
412.20	231.26
412.57	231.65
412.95	231.93
413.32	232.37
413.69	232.79
414.07	233.21
414.44	233.66
414.82	234.12
415.19	234.69
415.56	235.21
415.94	235.75
416.31	236.39
416.68	237.03
417.06	237.73
417.43	238.37
417.81	239.14
418.18	239.92
418.55	240.76
418.93	241.63
419.30	242.55
419.67	243.47
420.04	244.47
420.42	245.47
420.79	246.64
421.16	247.74
421.54	248.94
421.91	250.13
422.28	251.39
422.66	252.71
423.03	253.98
423.40	255.30
423.77	256.68
424.15	258.08
424.52	259.56
424.89	261.15
425.26	262.73
425.64	264.15
426.01	265.71
426.38	267.37
426.75	269.04
427.13	270.75
427.50	272.55
427.87	274.39
428.24	276.20
428.61	277.95
428.99	279.85
429.36	281.90
429.73	283.95
430.10	285.96
430.47	287.97
430.85	290.05
431.22	292.23
431.59	294.58
431.96	296.79
432.33	299.25
432.70	301.56
433.08	304.30
433.45	306.89
433.82	309.50
434.19	312.35
434.56	315.12
434.93	317.76
435.30	320.34
435.68	323.16
436.05	325.96
436.42	328.70
436.79	331.21
437.16	333.88
437.53	336.68
437.90	339.48
438.27	342.22
438.64	345.00
439.01	347.61
439.38	349.84
439.75	352.03
440.13	354.47
440.50	356.77
440.87	358.63
441.24	360.56
441.61	362.66
441.98	364.11
442.35	365.91
442.72	367.72
443.09	369.53
443.46	370.55
443.83	371.16
444.20	371.65
444.57	372.53
444.94	372.84
445.31	373.21
445.68	373.53
446.05	373.65
446.42	373.26
446.79	372.86
447.16	372.44
447.53	372.13
447.90	371.01
448.27	369.93
448.64	368.40
449.01	367.28
449.37	365.36
449.74	363.53
450.11	361.31
450.48	358.89
450.85	356.43
451.22	354.35
451.59	352.37
451.96	350.46
452.33	347.85
452.70	345.54
453.07	342.71
453.43	339.85
453.80	337.10
454.17	334.52
454.54	332.01
454.91	329.32
455.28	326.66
455.65	324.21
456.02	321.79
456.38	319.64
456.75	317.05
457.12	314.81
457.49	312.61
457.86	310.50
458.23	308.67
458.59	306.60
458.96	304.50
459.33	302.64
459.70	300.84
460.07	299.37
460.43	297.68
460.80	296.07
461.17	294.68
461.54	293.21
461.91	291.77
462.27	290.31
462.64	289.06
463.01	287.73
463.38	286.46
463.74	285.09
464.11	283.93
464.48	282.91
464.85	281.80
465.21	280.96
465.58	280.02
465.95	278.94
466.32	278.04
466.68	277.15
467.05	276.27
467.42	275.40
467.78	274.44
468.15	273.56
468.52	272.91
468.88	272.05
469.25	271.29
469.62	270.70
469.98	270.06
470.35	269.46
470.72	268.89
471.08	268.22
471.45	267.69
471.82	267.15
472.18	266.55
472.55	266.14
472.92	265.58
473.28	265.10
473.65	264.63
474.02	264.20
474.38	263.83
474.75	263.50
475.11	263.17
475.48	262.94
475.85	262.71
476.21	262.47
476.58	262.30
476.94	262.14
477.31	261.96
477.67	261.80
478.04	261.71
478.41	261.62
478.77	261.66
479.14	261.62
479.50	261.64
479.87	261.72
480.23	261.77
480.60	261.85
480.96	261.95
481.33	262.20
481.69	262.36
482.06	262.59
482.42	262.80
482.79	263.01
483.15	263.33
483.52	263.72
483.88	264.05
484.25	264.43
484.61	264.85
484.98	265.28
485.34	265.87
485.71	266.42
486.07	267.00
486.44	267.57
486.80	268.29
487.17	269.00
487.53	269.82
487.90	270.68
488.26	271.63
488.62	272.59
488.99	273.51
489.35	274.60
489.72	275.70
490.08	276.91
490.44	278.15
490.81	279.43
491.17	280.78
491.54	282.32
491.90	283.84
492.26	285.48
492.63	287.23
492.99	289.02
493.36	290.93
493.72	293.03
494.08	295.14
494.45	297.38
494.81	299.78
495.17	302.24
495.54	304.82
495.90	307.51
496.26	310.33
496.63	313.32
496.99	316.46
497.35	319.76
497.72	323.20
498.08	326.76
498.44	330.50
498.80	334.47
499.17	338.51
499.53	342.74
499.89	347.13
500.26	351.62
500.62	356.27
500.98	361.25
501.34	366.34
501.71	371.68
502.07	377.12
502.43	382.71
502.79	388.55
503.16	394.61
503.52	400.87
503.88	407.26
504.24	413.88
504.60	420.71
504.97	427.83
505.33	435.17
505.69	442.84
506.05	450.56
506.41	458.40
506.78	466.52
507.14	474.93
507.50	483.63
507.86	492.63
508.22	501.79
508.59	510.97
508.95	520.43
509.31	530.27
509.67	540.35
510.03	550.57
510.39	561.07
510.75	571.83
511.12	582.71
511.48	593.97
511.84	605.38
512.20	616.91
512.56	628.77
512.92	640.78
513.28	653.06
513.64	665.52
514.00	678.18
514.37	691.03
514.73	704.06
515.09	717.04
515.45	730.21
515.81	743.73
516.17	757.60
516.53	771.77
516.89	785.87
517.25	799.92
517.61	814.29
517.97	828.65
518.33	843.07
518.69	857.78
519.05	872.69
519.41	887.71
519.77	903.16
520.13	918.54
520.49	933.93
520.85	949.16
521.21	964.75
521.57	980.89
521.93	996.60
522.29	1012.70
522.65	1028.95
523.01	1045.07
523.37	1061.04
523.73	1077.10
524.09	1092.97
524.45	1109.03
524.81	1125.55
525.17	1142.21
525.53	1158.89
525.89	1175.53
526.25	1192.21
526.61	1208.47
526.97	1225.17
527.33	1241.39
527.68	1257.81
528.04	1274.09
528.40	1290.53
528.76	1307.59
529.12	1324.02
529.48	1340.74
529.84	1356.66
530.20	1372.94
530.56	1389.78
530.91	1407.02
531.27	1423.73
531.63	1440.12
531.99	1456.59
532.35	1472.49
532.71	1488.11
533.07	1504.35
533.42	1520.22
533.78	1536.15
534.14	1552.24
534.50	1567.41
534.86	1583.07
535.21	1598.17
535.57	1613.99
535.93	1629.32
536.29	1643.77
536.65	1658.47
537.00	1672.92
537.36	1688.06
537.72	1702.38
538.08	1716.63
538.44	1730.17
538.79	1743.73
539.15	1757.07
539.51	1770.63
539.87	1784.69
540.22	1798.30
540.58	1811.65
540.94	1824.50
541.29	1836.98
541.65	1849.43
542.01	1862.39
542.37	1874.61
542.72	1886.79
543.08	1898.38
543.44	1910.60
543.79	1921.66
544.15	1932.57
544.51	1944.10
544.87	1954.86
545.22	1965.68
545.58	1975.84
545.94	1985.42
546.29	1995.31
546.65	2005.25
547.01	2014.62
547.36	2023.26
547.72	2031.91
548.07	2039.84
548.43	2048.11
548.79	2056.13
549.14	2063.79
549.50	2070.97
549.86	2078.52
550.21	2085.68
550.57	2092.86
550.92	2099.61
551.28	2106.81
551.64	2113.86
551.99	2120.30
552.35	2126.55
552.70	2132.63
553.06	2138.59
553.41	2145.07
553.77	2150.94
554.13	2156.74
554.48	2162.55
554.84	2168.14
555.19	2173.07
555.55	2178.24
555.90	2182.77
556.26	2187.83
556.61	2192.36
556.97	2196.97
557.32	2201.21
557.68	2205.46
558.03	2209.68
558.39	2213.08
558.74	2217.49
559.10	2221.36
559.45	2225.06
559.81	2229.22
560.16	2233.01
560.52	2236.20
560.87	2239.59
561.23	2242.28
561.58	2245.23
561.94	2247.82
562.29	2249.92
562.64	2252.81
563.00	2255.29
563.35	2258.72
563.71	2261.67
564.06	2264.82
564.42	2267.66
564.77	2270.22
565.12	2272.75
565.48	2274.78
565.83	2276.84
566.19	2278.28
566.54	2279.25
566.89	2280.58
567.25	2281.37
567.60	2282.57
567.96	2284.48
568.31	2285.35
568.66	2286.51
569.02	2287.33
569.37	2287.88
569.72	2288.97
570.08	2289.25
570.43	2289.38
570.78	2288.99
571.14	2287.79
571.49	2286.52
571.84	2286.21
572.20	2285.23
572.55	2284.13
572.90	2282.55
573.26	2281.31
573.61	2279.51
573.96	2277.95
574.31	2275.05
574.67	2272.17
575.02	2268.83
575.37	2265.33
575.72	2261.67
576.08	2258.30
576.43	2254.83
576.78	2251.14
577.13	2247.95
577.49	2244.65
577.84	2241.45
578.19	2237.60
578.54	2234.00
578.90	2230.05
579.25	2224.58
579.60	2219.74
579.95	2214.92
580.30	2209.92
580.66	2204.83
581.01	2199.96
581.36	2195.03
581.71	2190.89
582.06	2186.65
582.42	2182.26
582.77	2177.29
583.12	2172.78
583.47	2168.46
583.82	2163.86
584.17	2158.77
584.53	2153.35
584.88	2147.91
585.23	2142.20
585.58	2136.93
585.93	2131.50
586.28	2126.53
586.63	2121.58
586.98	2116.66
587.34	2111.90
587.69	2107.13
588.04	2102.09
588.39	2096.80
588.74	2090.48
589.09	2084.42
589.44	2077.68
589.79	2071.59
590.14	2065.92
590.49	2059.33
590.84	2052.84
591.19	2046.71
591.54	2040.34
591.89	2033.32
592.25	2026.79
592.60	2019.61
592.95	2012.15
593.30	2004.97
593.65	1997.60
594.00	1990.51
594.35	1983.22
594.70	1975.12
595.05	1968.14
595.40	1960.85
595.75	1953.32
596.10	1947.29
596.45	1940.84
596.80	1934.74
597.15	1928.19
597.50	1921.44
597.85	1915.15
598.19	1908.84
598.54	1902.06
598.89	1895.54
599.24	1889.61
599.59	1883.12
599.94	1876.94
600.29	1870.74
600.64	1864.13
600.99	1856.92
601.34	1850.29
601.69	1843.28
602.04	1836.60
602.39	1829.23
602.74	1822.44
603.08	1815.75
603.43	1808.94
603.78	1801.62
604.13	1794.33
604.48	1787.33
604.83	1780.36
605.18	1773.63
605.53	1765.49
605.87	1757.36
606.22	1750.01
606.57	1741.94
606.92	1734.29
607.27	1727.23
607.62	1720.32
607.96	1713.11
608.31	1706.68
608.66	1699.13
609.01	1691.70
609.36	1684.23
609.70	1676.18
610.05	1668.15
610.40	1660.55
610.75	1652.27
611.10	1644.59
611.44	1636.19
611.79	1628.02
612.14	1619.47
612.49	1610.18
612.83	1601.70
613.18	1593.62
613.53	1585.60
613.88	1577.17
614.22	1569.07
614.57	1560.40
614.92	1552.42
615.27	1545.04
615.61	1536.59
615.96	1528.44
616.31	1520.74
616.65	1513.30
617.00	1505.87
617.35	1498.26
617.70	1489.88
618.04	1481.45
618.39	1473.21
618.74	1465.81
619.08	1457.66
619.43	1450.06
619.78	1443.18
620.12	1436.26
620.47	1428.78
620.82	1420.64
621.16	1413.14
621.51	1405.51
621.85	1397.90
622.20	1389.41
622.55	1380.91
622.89	1373.10
623.24	1365.62
623.59	1358.24
623.93	1350.85
624.28	1343.63
624.62	1336.12
624.97	1329.11
625.32	1322.26
625.66	1315.25
626.01	1308.08
626.35	1300.74
626.70	1292.90
627.04	1285.29
627.39	1277.41
627.73	1269.96
628.08	1263.04
628.43	1255.98
628.77	1248.81
629.12	1241.35
629.46	1234.15
629.81	1226.73
630.15	1219.45
630.50	1212.12
630.84	1204.01
631.19	1196.01
631.53	1188.47
631.88	1180.91
632.22	1173.23
632.57	1165.96
632.91	1158.37
633.26	1150.94
633.60	1143.41
633.95	1136.30
634.29	1129.13
634.64	1122.41
634.98	1115.13
635.32	1107.94
635.67	1101.35
636.01	1094.61
636.36	1087.85
636.70	1081.43
637.05	1074.89
637.39	1068.49
637.73	1061.96
638.08	1056.12
638.42	1050.19
638.77	1043.79
639.11	1037.25
639.45	1030.94
639.80	1024.31
640.14	1018.02
640.49	1011.54
640.83	1005.30
641.17	999.13
641.52	992.86
641.86	986.46
642.20	980.65
642.55	974.31
642.89	967.79
643.23	961.16
643.58	955.40
643.92	949.22
644.26	943.33
644.61	937.23
644.95	931.17
645.29	924.58
645.64	917.84
645.98	911.52
646.32	905.58
646.66	899.47
647.01	893.72
647.35	887.98
647.69	882.15
648.04	876.61
648.38	870.78
648.72	864.87
649.06	858.86
649.41	852.86
649.75	847.11
650.09	841.17
650.43	835.49
650.78	829.34
651.12	823.30
651.46	817.46
651.80	811.85
652.14	806.54
652.49	801.20
652.83	796.00
653.17	790.43
653.51	784.84
653.85	779.44
654.20	773.76
654.54	767.77
654.88	761.99
655.22	756.09
655.56	750.43
655.90	744.88
656.25	739.64
656.59	734.36
656.93	729.21
657.27	724.08
657.61	718.65
657.95	713.52
658.29	708.43
658.64	703.13
658.98	697.71
659.32	692.16
659.66	686.97
660.00	681.69
660.34	676.70
660.68	671.76
661.02	666.72
661.36	662.01
661.70	657.53
662.05	653.21
662.39	648.91
662.73	644.50
663.07	640.12
663.41	635.72
663.75	631.21
664.09	626.57
664.43	622.15
664.77	618.06
665.11	613.89
665.45	609.73
665.79	605.77
666.13	601.71
666.47	597.61
666.81	593.47
667.15	589.34
667.49	585.41
667.83	581.50
668.17	577.55
668.51	573.59
668.85	569.51
669.19	565.62
669.53	561.83
669.87	557.91
670.21	554.26
670.55	550.58
670.89	547.20
671.23	543.85
671.57	540.32
671.91	536.82
672.25	533.26
672.58	529.81
672.92	526.32
673.26	523.14
673.60	520.00
673.94	516.87
674.28	513.96
674.62	511.05
674.96	507.98
675.30	505.11
675.64	502.20
675.97	499.41
676.31	496.62
676.65	493.71
676.99	491.02
677.33	488.10
677.67	485.24
678.01	482.23
678.34	479.25
678.68	476.42
679.02	473.59
679.36	470.84
679.70	468.11
680.04	465.35
680.37	462.55
680.71	459.74
681.05	457.11
681.39	454.38
681.73	451.66
682.06	449.14
682.40	446.59
682.74	444.02
683.08	441.47
683.42	438.77
683.75	436.24
684.09	433.66
684.43	431.22
684.77	428.79
685.10	426.39
685.44	424.10
685.78	421.78
686.12	419.50
686.45	417.14
686.79	414.90
687.13	412.68
687.46	410.46
687.80	408.36
688.14	406.18
688.48	404.12
688.81	401.95
689.15	399.87
689.49	397.74
689.82	395.68
690.16	393.60
690.50	391.68
690.83	389.75
691.17	387.78
691.51	385.91
691.84	384.08
692.18	382.19
692.52	380.19
692.85	378.25
693.19	376.33
693.52	374.49
693.86	372.64
694.20	370.86
694.53	369.07
694.87	367.18
695.21	365.33
695.54	363.46
695.88	361.75
696.21	360.00
696.55	358.31
696.88	356.60
697.22	354.87
697.56	353.21
697.89	351.54
698.23	349.99
698.56	348.34
698.90	346.75
699.23	345.15
699.57	343.62
699.90	342.07
700.24	340.54
700.58	339.06
700.91	337.55
701.25	336.13
701.58	334.77
701.92	333.42
702.25	332.03
702.59	330.71
702.92	329.33
703.26	327.99
703.59	326.72
703.93	325.50
704.26	324.31
704.60	323.04
704.93	321.74
705.26	320.45
705.60	319.23
705.93	318.03
706.27	316.94
706.60	315.87
706.94	314.82
707.27	313.70
707.61	312.62
707.94	311.59
708.27	310.48
708.61	309.36
708.94	308.30
709.28	307.34
709.61	306.40
709.94	305.42
710.28	304.42
710.61	303.40
710.95	302.32
711.28	301.42
711.61	300.50
711.95	299.64
712.28	298.72
712.61	297.79
712.95	296.86
713.28	295.97
713.61	295.09
713.95	294.22
714.28	293.39
714.61	292.57
714.95	291.73
715.28	290.89
715.61	290.02
715.95	289.21
716.28	288.38
716.61	287.48
716.95	286.68
717.28	285.91
717.61	285.17
717.94	284.48
718.28	283.67
718.61	282.91
718.94	282.23
719.27	281.57
719.61	280.92
719.94	280.25
720.27	279.54
720.60	278.89
720.94	278.24
721.27	277.64
721.60	277.01
721.93	276.39
722.27	275.86
722.60	275.28
722.93	274.69
723.26	274.17
723.59	273.63
723.93	273.07
724.26	272.53
724.59	271.95
724.92	271.38
725.25	270.89
725.59	270.37
725.92	269.84
726.25	269.31
726.58	268.81
726.91	268.35
727.24	267.88
727.57	267.37
727.91	266.84
728.24	266.36
728.57	265.90
728.90	265.45
729.23	264.93
729.56	264.56
729.89	264.11
730.22	263.55
730.55	263.08
730.89	262.65
731.22	262.23
731.55	261.76
731.88	261.33
732.21	260.89
732.54	260.47
732.87	260.02
733.20	259.61
733.53	259.19
733.86	258.79
734.19	258.37
734.52	258.01
734.85	257.73
735.18	257.32
735.51	256.97
735.84	256.61
736.17	256.28
736.50	255.82
736.83	255.57
737.16	255.31
737.49	254.96
737.82	254.60
738.15	254.24
738.48	253.90
738.81	253.59
739.14	253.26
739.47	252.93
739.80	252.65
740.13	252.31
740.46	251.99
740.79	251.65
741.12	251.36
741.45	251.04
741.78	250.69
742.11	250.42
742.44	250.10
742.77	249.83
743.10	249.54
743.43	249.29
743.75	248.92
744.08	248.78
744.41	248.51
744.74	248.26
745.07	248.00
745.40	247.79
745.73	247.57
746.06	247.31
746.39	247.05
746.71	246.76
747.04	246.50
747.37	246.25
747.70	246.04
748.03	245.79
748.36	245.58
748.68	245.35
749.01	245.07
749.34	244.83
749.67	244.57
750.00	244.33
750.33	244.18
750.65	243.97
750.98	243.58
751.31	243.38
751.64	243.17
751.97	243.03
752.29	242.81
752.62	242.54
752.95	242.32
753.28	242.11
753.60	241.96
753.93	241.78
754.26	241.60
754.59	241.37
754.91	241.15
755.24	240.93
755.57	240.75
755.90	240.62
756.22	240.40
756.55	240.23
756.88	240.04
757.20	239.76
757.53	239.55
757.86	239.41
758.19	239.27
758.51	239.10
758.84	238.88
759.17	238.70
759.49	238.54
759.82	238.42
760.15	238.29
760.47	238.09
760.80	237.95
761.13	237.85
761.45	237.71
761.78	237.59
762.11	237.45
762.43	237.29
762.76	237.12
763.08	237.02
763.41	236.89
763.74	236.75
764.06	236.64
764.39	236.53
764.71	236.39
765.04	236.24
765.37	236.10
765.69	235.95
766.02	235.84
766.34	235.71
766.67	235.58
767.00	235.49
767.32	235.46
767.65	235.42
767.97	235.28
768.30	235.19
768.62	235.08
768.95	234.95
769.27	234.81
769.60	234.71
769.92	234.59
770.25	234.42
770.57	234.30
770.90	234.18
771.22	234.06
771.55	233.93
771.87	233.85
772.20	233.74
772.52	233.74
772.85	233.75
773.17	233.67
773.50	233.56
773.82	233.43
774.15	233.26
774.47	233.11
774.80	233.00
775.12	232.89
775.45	232.80
775.77	232.72
776.09	232.64
776.42	232.55
776.74	232.53
777.07	232.52
777.39	232.45
777.72	232.35
778.04	232.29
778.36	232.25
778.69	232.14
779.01	232.08
779.33	231.93
779.66	231.74
779.98	231.64
780.31	231.56
780.63	231.53
780.95	231.43
781.28	231.38
781.60	231.28
781.92	231.22
782.25	231.18
782.57	231.13
782.89	231.07
783.22	231.01
783.54	230.92
783.86	230.83
784.19	230.77
784.51	230.78
784.83	230.71
785.16	230.65
785.48	230.63
785.80	230.58
786.12	230.50
786.45	230.45
786.77	230.49
787.09	230.46
