SpectraSuite Data File
++++++++++++++++++++++++++++++++++++
Date: Fri Feb 01 15:44:06 EST 2013
User: group
Dark Spectrum Present: No
Reference Spectrum Present: No
Number of Sampled Component Spectra: 1
Spectrometers: USB2E7196
Integration Time (usec): 35000 (USB2E7196)
Spectra Averaged: 100 (USB2E7196)
Boxcar Smoothing: 10 (USB2E7196)
Correct for Electrical Dark: No (USB2E7196)
Strobe/Lamp Enabled: No (USB2E7196)
Correct for Detector Non-linearity: No (USB2E7196)
Correct for Stray Light: No (USB2E7196)
Number of Pixels in Processed Spectrum: 2048
>>>>>Begin Processed Spectral Data<<<<<
339.09	0.00
339.48	215.04
339.86	216.72
340.24	218.31
340.63	219.18
341.01	221.73
341.39	221.82
341.78	223.35
342.16	224.98
342.54	224.60
342.93	213.44
343.31	224.24
343.69	224.78
344.07	225.21
344.46	225.65
344.84	226.01
345.22	226.26
345.60	226.51
345.99	226.68
346.37	226.78
346.75	226.89
347.13	226.96
347.52	227.01
347.90	227.08
348.28	227.12
348.66	227.18
349.05	227.19
349.43	227.22
349.81	227.28
350.19	227.31
350.57	227.34
350.96	227.39
351.34	227.45
351.72	227.51
352.10	227.62
352.48	227.65
352.87	227.70
353.25	227.77
353.63	227.84
354.01	227.90
354.39	227.98
354.77	228.05
355.15	228.17
355.54	228.22
355.92	228.24
356.30	228.27
356.68	228.37
357.06	228.38
357.44	228.42
357.82	228.47
358.20	228.55
358.58	228.60
358.97	228.64
359.35	228.73
359.73	228.79
360.11	228.82
360.49	228.85
360.87	228.90
361.25	228.93
361.63	229.00
362.01	229.05
362.39	229.05
362.77	229.08
363.15	229.08
363.53	229.08
363.91	229.12
364.29	229.13
364.67	229.02
365.05	229.08
365.43	229.11
365.81	229.10
366.19	229.11
366.57	229.14
366.95	229.15
367.33	229.12
367.71	229.13
368.09	229.13
368.47	229.10
368.85	229.04
369.23	229.05
369.61	228.96
369.99	228.93
370.37	228.92
370.75	228.92
371.13	228.86
371.51	228.82
371.89	228.78
372.27	228.74
372.65	228.74
373.03	228.65
373.41	228.58
373.78	228.49
374.16	228.41
374.54	228.32
374.92	228.24
375.30	228.18
375.68	228.11
376.06	228.04
376.44	227.99
376.82	227.95
377.19	227.87
377.57	227.85
377.95	227.77
378.33	227.69
378.71	227.59
379.09	227.53
379.47	227.45
379.84	227.40
380.22	227.32
380.60	227.22
380.98	227.18
381.36	227.09
381.73	227.03
382.11	226.97
382.49	226.91
382.87	226.82
383.25	226.74
383.62	226.76
384.00	226.70
384.38	226.68
384.76	226.67
385.13	226.67
385.51	226.61
385.89	226.54
386.27	226.49
386.64	226.45
387.02	226.40
387.40	226.38
387.78	226.34
388.15	226.32
388.53	226.29
388.91	226.26
389.29	226.27
389.66	226.26
390.04	226.22
390.42	226.20
390.79	226.21
391.17	226.20
391.55	226.11
391.92	226.08
392.30	226.05
392.68	226.01
393.05	225.98
393.43	225.97
393.81	225.98
394.18	226.00
394.56	226.01
394.94	226.06
395.31	226.05
395.69	226.10
396.06	226.13
396.44	226.18
396.82	226.21
397.19	226.30
397.57	226.36
397.95	226.39
398.32	226.41
398.70	226.46
399.07	226.55
399.45	226.61
399.82	226.70
400.20	226.77
400.58	226.85
400.95	226.85
401.33	226.95
401.70	227.11
402.08	227.20
402.45	227.28
402.83	227.39
403.20	227.53
403.58	227.64
403.95	227.76
404.33	227.91
404.71	228.04
405.08	228.20
405.46	228.35
405.83	228.52
406.21	228.66
406.58	228.86
406.96	229.00
407.33	229.20
407.70	229.39
408.08	229.69
408.45	229.91
408.83	230.21
409.20	230.41
409.58	230.61
409.95	230.88
410.33	231.17
410.70	231.43
411.08	231.75
411.45	232.04
411.82	232.32
412.20	232.65
412.57	233.04
412.95	233.32
413.32	233.75
413.69	234.18
414.07	234.63
414.44	235.08
414.82	235.57
415.19	236.09
415.56	236.61
415.94	237.09
416.31	237.73
416.68	238.34
417.06	239.08
417.43	239.74
417.81	240.51
418.18	241.25
418.55	242.11
418.93	242.95
419.30	243.84
419.67	244.80
420.04	245.76
420.42	246.76
420.79	247.93
421.16	249.07
421.54	250.25
421.91	251.50
422.28	252.76
422.66	254.10
423.03	255.40
423.40	256.80
423.77	258.24
424.15	259.65
424.52	261.14
424.89	262.73
425.26	264.28
425.64	265.72
426.01	267.32
426.38	268.94
426.75	270.60
427.13	272.31
427.50	274.11
427.87	276.04
428.24	277.89
428.61	279.67
428.99	281.62
429.36	283.70
429.73	285.74
430.10	287.74
430.47	289.80
430.85	291.91
431.22	294.14
431.59	296.54
431.96	298.82
432.33	301.28
432.70	303.65
433.08	306.49
433.45	309.16
433.82	311.77
434.19	314.70
434.56	317.55
434.93	320.25
435.30	322.92
435.68	325.80
436.05	328.64
436.42	331.44
436.79	333.93
437.16	336.62
437.53	339.48
437.90	342.31
438.27	345.02
438.64	347.85
439.01	350.41
439.38	352.60
439.75	354.76
440.13	357.23
440.50	359.58
440.87	361.36
441.24	363.29
441.61	365.45
441.98	366.93
442.35	368.75
442.72	370.56
443.09	372.35
443.46	373.38
443.83	373.96
444.20	374.46
444.57	375.27
444.94	375.61
445.31	375.92
445.68	376.29
446.05	376.39
446.42	376.03
446.79	375.61
447.16	375.22
447.53	374.91
447.90	373.80
448.27	372.67
448.64	371.16
449.01	370.03
449.37	368.05
449.74	366.12
450.11	363.84
450.48	361.41
450.85	358.87
451.22	356.68
451.59	354.66
451.96	352.74
452.33	350.20
452.70	347.80
453.07	344.96
453.43	342.09
453.80	339.35
454.17	336.66
454.54	334.12
454.91	331.36
455.28	328.71
455.65	326.20
456.02	323.75
456.38	321.57
456.75	318.93
457.12	316.71
457.49	314.51
457.86	312.33
458.23	310.46
458.59	308.39
458.96	306.32
459.33	304.47
459.70	302.59
460.07	301.04
460.43	299.33
460.80	297.68
461.17	296.24
461.54	294.72
461.91	293.31
462.27	291.86
462.64	290.62
463.01	289.24
463.38	287.91
463.74	286.54
464.11	285.39
464.48	284.32
464.85	283.20
465.21	282.30
465.58	281.37
465.95	280.26
466.32	279.33
466.68	278.38
467.05	277.50
467.42	276.63
467.78	275.71
468.15	274.83
468.52	274.19
468.88	273.31
469.25	272.54
469.62	271.91
469.98	271.26
470.35	270.63
470.72	269.99
471.08	269.38
471.45	268.84
471.82	268.30
472.18	267.71
472.55	267.25
472.92	266.75
473.28	266.32
473.65	265.89
474.02	265.48
474.38	265.13
474.75	264.78
475.11	264.39
475.48	264.13
475.85	263.92
476.21	263.70
476.58	263.50
476.94	263.35
477.31	263.21
477.67	263.06
478.04	262.95
478.41	262.93
478.77	262.97
479.14	262.90
479.50	262.91
479.87	262.98
480.23	263.07
480.60	263.12
480.96	263.23
481.33	263.43
481.69	263.61
482.06	263.83
482.42	264.06
482.79	264.35
483.15	264.66
483.52	265.03
483.88	265.38
484.25	265.80
484.61	266.22
484.98	266.67
485.34	267.24
485.71	267.81
486.07	268.41
486.44	268.96
486.80	269.64
487.17	270.42
487.53	271.23
487.90	272.15
488.26	273.08
488.62	274.04
488.99	275.00
489.35	276.10
489.72	277.21
490.08	278.37
490.44	279.62
490.81	280.97
491.17	282.35
491.54	283.83
491.90	285.35
492.26	287.02
492.63	288.76
492.99	290.52
493.36	292.42
493.72	294.45
494.08	296.52
494.45	298.77
494.81	301.10
495.17	303.53
495.54	306.06
495.90	308.76
496.26	311.59
496.63	314.54
496.99	317.63
497.35	320.83
497.72	324.25
498.08	327.76
498.44	331.43
498.80	335.31
499.17	339.33
499.53	343.49
499.89	347.85
500.26	352.34
500.62	357.03
500.98	362.02
501.34	367.12
501.71	372.46
502.07	377.90
502.43	383.52
502.79	389.33
503.16	395.36
503.52	401.62
503.88	407.99
504.24	414.64
504.60	421.52
504.97	428.70
505.33	436.05
505.69	443.74
506.05	451.49
506.41	459.39
506.78	467.50
507.14	475.93
507.50	484.62
507.86	493.63
508.22	502.83
508.59	512.00
508.95	521.55
509.31	531.38
509.67	541.44
510.03	551.69
510.39	562.31
510.75	573.16
511.12	584.10
511.48	595.35
511.84	606.74
512.20	618.22
512.56	630.14
512.92	642.25
513.28	654.58
513.64	667.09
514.00	679.83
514.37	692.81
514.73	705.92
515.09	718.93
515.45	732.28
515.81	745.87
516.17	759.86
516.53	774.01
516.89	788.23
517.25	802.36
517.61	816.82
517.97	831.17
518.33	845.54
518.69	860.30
519.05	875.28
519.41	890.53
519.77	906.11
520.13	921.63
520.49	937.06
520.85	952.50
521.21	968.28
521.57	984.45
521.93	1000.31
522.29	1016.76
522.65	1033.02
523.01	1049.19
523.37	1065.25
523.73	1081.41
524.09	1097.49
524.45	1113.77
524.81	1130.49
525.17	1147.32
525.53	1164.26
525.89	1181.26
526.25	1198.16
526.61	1214.68
526.97	1231.42
527.33	1247.89
527.68	1264.55
528.04	1281.04
528.40	1297.63
528.76	1314.64
529.12	1331.23
529.48	1348.00
529.84	1363.93
530.20	1380.67
530.56	1397.87
530.91	1415.24
531.27	1432.04
531.63	1448.60
531.99	1465.25
532.35	1481.32
532.71	1497.12
533.07	1513.32
533.42	1529.21
533.78	1545.11
534.14	1561.34
534.50	1576.62
534.86	1592.57
535.21	1607.70
535.57	1623.65
535.93	1639.23
536.29	1654.05
536.65	1669.17
537.00	1684.05
537.36	1699.36
537.72	1713.71
538.08	1727.86
538.44	1741.73
538.79	1755.62
539.15	1769.28
539.51	1782.97
539.87	1797.29
540.22	1811.11
540.58	1824.98
540.94	1838.22
541.29	1851.23
541.65	1863.99
542.01	1877.32
542.37	1889.63
542.72	1902.05
543.08	1913.84
543.44	1926.18
543.79	1937.44
544.15	1948.53
544.51	1960.08
544.87	1971.08
545.22	1982.10
545.58	1992.40
545.94	2002.11
546.29	2011.92
546.65	2021.65
547.01	2030.93
547.36	2039.70
547.72	2048.10
548.07	2055.96
548.43	2064.14
548.79	2072.11
549.14	2079.58
549.50	2086.92
549.86	2094.55
550.21	2101.78
550.57	2108.92
550.92	2115.55
551.28	2122.58
551.64	2129.58
551.99	2136.10
552.35	2142.09
552.70	2148.14
553.06	2154.07
553.41	2160.36
553.77	2166.33
554.13	2172.43
554.48	2178.57
554.84	2183.89
555.19	2189.29
555.55	2194.42
555.90	2198.89
556.26	2203.76
556.61	2208.48
556.97	2212.79
557.32	2216.87
557.68	2221.16
558.03	2225.43
558.39	2229.08
558.74	2233.58
559.10	2237.45
559.45	2241.05
559.81	2245.48
560.16	2249.32
560.52	2252.56
560.87	2256.05
561.23	2258.66
561.58	2261.60
561.94	2264.05
562.29	2266.55
562.64	2269.18
563.00	2271.76
563.35	2275.32
563.71	2278.42
564.06	2281.63
564.42	2284.29
564.77	2286.79
565.12	2288.86
565.48	2290.70
565.83	2292.65
566.19	2293.96
566.54	2294.78
566.89	2295.90
567.25	2296.48
567.60	2297.85
567.96	2299.67
568.31	2300.46
568.66	2301.69
569.02	2302.31
569.37	2302.60
569.72	2303.36
570.08	2303.37
570.43	2303.21
570.78	2302.49
571.14	2300.95
571.49	2299.58
571.84	2299.37
572.20	2298.25
572.55	2297.11
572.90	2295.67
573.26	2294.22
573.61	2292.66
573.96	2290.96
574.31	2288.09
574.67	2285.05
575.02	2281.45
575.37	2278.07
575.72	2274.24
576.08	2270.93
576.43	2267.65
576.78	2263.89
577.13	2260.72
577.49	2257.79
577.84	2254.45
578.19	2250.78
578.54	2247.17
578.90	2242.84
579.25	2237.36
579.60	2232.50
579.95	2227.59
580.30	2222.54
580.66	2217.35
581.01	2212.39
581.36	2207.31
581.71	2203.02
582.06	2198.73
582.42	2194.10
582.77	2188.77
583.12	2184.19
583.47	2179.36
583.82	2174.35
584.17	2169.16
584.53	2163.59
584.88	2157.86
585.23	2152.21
585.58	2146.66
585.93	2141.15
586.28	2136.58
586.63	2131.41
586.98	2126.23
587.34	2121.57
587.69	2116.67
588.04	2111.30
588.39	2105.59
588.74	2099.22
589.09	2093.02
589.44	2085.97
589.79	2079.74
590.14	2074.19
590.49	2067.58
590.84	2061.13
591.19	2055.05
591.54	2048.59
591.89	2041.25
592.25	2034.50
592.60	2027.15
592.95	2019.54
593.30	2012.19
593.65	2004.41
594.00	1997.36
594.35	1990.08
594.70	1982.17
595.05	1974.84
595.40	1967.63
595.75	1959.99
596.10	1953.79
596.45	1947.04
596.80	1941.06
597.15	1934.64
597.50	1927.35
597.85	1920.92
598.19	1914.28
598.54	1907.04
598.89	1900.38
599.24	1894.45
599.59	1887.68
599.94	1881.58
600.29	1875.35
600.64	1868.83
600.99	1861.37
601.34	1854.51
601.69	1847.64
602.04	1840.51
602.39	1833.20
602.74	1826.33
603.08	1819.65
603.43	1812.88
603.78	1805.51
604.13	1798.04
604.48	1790.68
604.83	1783.82
605.18	1776.75
605.53	1768.72
605.87	1760.74
606.22	1753.41
606.57	1745.41
606.92	1738.11
607.27	1730.81
607.62	1723.80
607.96	1716.46
608.31	1709.90
608.66	1702.26
609.01	1694.58
609.36	1686.94
609.70	1678.92
610.05	1670.89
610.40	1663.18
610.75	1654.82
611.10	1647.17
611.44	1638.97
611.79	1630.98
612.14	1622.28
612.49	1613.15
612.83	1604.82
613.18	1596.77
613.53	1588.78
613.88	1580.27
614.22	1571.85
614.57	1563.22
614.92	1555.19
615.27	1547.68
615.61	1539.33
615.96	1531.34
616.31	1523.86
616.65	1516.61
617.00	1509.02
617.35	1501.33
617.70	1492.99
618.04	1484.47
618.39	1476.31
618.74	1468.54
619.08	1460.15
619.43	1452.65
619.78	1445.86
620.12	1438.64
620.47	1431.23
620.82	1423.05
621.16	1415.60
621.51	1408.14
621.85	1400.42
622.20	1391.88
622.55	1383.45
622.89	1375.57
623.24	1367.91
623.59	1360.37
623.93	1352.85
624.28	1345.70
624.62	1338.06
624.97	1330.89
625.32	1324.15
625.66	1317.13
626.01	1310.02
626.35	1302.68
626.70	1294.98
627.04	1287.19
627.39	1279.39
627.73	1271.88
628.08	1265.00
628.43	1257.59
628.77	1250.11
629.12	1242.65
629.46	1235.43
629.81	1228.05
630.15	1220.81
630.50	1213.42
630.84	1205.19
631.19	1197.28
631.53	1189.69
631.88	1182.30
632.22	1174.64
632.57	1167.35
632.91	1159.72
633.26	1152.32
633.60	1144.91
633.95	1137.80
634.29	1130.73
634.64	1124.10
634.98	1116.70
635.32	1109.50
635.67	1103.10
636.01	1096.50
636.36	1089.69
636.70	1083.28
637.05	1076.67
637.39	1070.22
637.73	1063.66
638.08	1057.81
638.42	1051.87
638.77	1045.46
639.11	1038.82
639.45	1032.45
639.80	1025.81
640.14	1019.41
640.49	1012.86
640.83	1006.60
641.17	1000.28
641.52	993.98
641.86	987.52
642.20	981.68
642.55	975.39
642.89	968.89
643.23	962.35
643.58	956.64
643.92	950.41
644.26	944.36
644.61	938.35
644.95	932.34
645.29	925.75
645.64	918.83
645.98	912.46
646.32	906.61
646.66	900.58
647.01	894.75
647.35	889.06
647.69	883.23
648.04	877.70
648.38	871.88
648.72	865.77
649.06	859.67
649.41	853.78
649.75	847.81
650.09	841.77
650.43	836.03
650.78	829.72
651.12	823.69
651.46	817.99
651.80	812.23
652.14	806.87
652.49	801.57
652.83	796.50
653.17	790.77
653.51	785.03
653.85	779.60
654.20	773.90
654.54	767.85
654.88	762.10
655.22	756.28
655.56	750.66
655.90	745.37
656.25	740.14
656.59	734.76
656.93	729.67
657.27	724.50
657.61	719.02
657.95	714.06
658.29	709.05
658.64	703.77
658.98	698.45
659.32	692.96
659.66	687.72
660.00	682.36
660.34	677.53
660.68	672.57
661.02	667.51
661.36	662.86
661.70	658.37
662.05	654.03
662.39	649.62
662.73	645.13
663.07	640.66
663.41	636.20
663.75	631.75
664.09	627.19
664.43	622.89
664.77	618.81
665.11	614.51
665.45	610.34
665.79	606.29
666.13	602.16
666.47	598.11
666.81	593.94
667.15	589.93
667.49	585.91
667.83	582.13
668.17	578.27
668.51	574.23
668.85	570.29
669.19	566.46
669.53	562.59
669.87	558.69
670.21	554.99
670.55	551.41
670.89	547.97
671.23	544.51
671.57	540.95
671.91	537.39
672.25	533.95
672.58	530.40
672.92	526.98
673.26	523.81
673.60	520.61
673.94	517.51
674.28	514.54
674.62	511.63
674.96	508.54
675.30	505.59
675.64	502.59
675.97	499.78
676.31	496.88
676.65	493.93
676.99	491.25
677.33	488.42
677.67	485.59
678.01	482.55
678.34	479.61
678.68	476.72
679.02	473.96
679.36	471.17
679.70	468.53
680.04	465.77
680.37	462.93
680.71	460.17
681.05	457.57
681.39	454.86
681.73	452.20
682.06	449.68
682.40	447.12
682.74	444.63
683.08	442.06
683.42	439.46
683.75	437.02
684.09	434.44
684.43	431.96
684.77	429.49
685.10	427.14
685.44	424.82
685.78	422.54
686.12	420.30
686.45	417.99
686.79	415.70
687.13	413.51
687.46	411.31
687.80	409.16
688.14	406.93
688.48	404.87
688.81	402.67
689.15	400.52
689.49	398.39
689.82	396.34
690.16	394.31
690.50	392.38
690.83	390.41
691.17	388.49
691.51	386.57
691.84	384.74
692.18	382.83
692.52	380.86
692.85	378.97
693.19	377.04
693.52	375.25
693.86	373.45
694.20	371.71
694.53	369.93
694.87	368.05
695.21	366.28
695.54	364.45
695.88	362.70
696.21	360.96
696.55	359.28
696.88	357.57
697.22	355.94
697.56	354.32
697.89	352.70
698.23	351.09
698.56	349.51
698.90	347.93
699.23	346.24
699.57	344.71
699.90	343.18
700.24	341.67
700.58	340.12
700.91	338.58
701.25	337.11
701.58	335.76
701.92	334.47
702.25	333.08
702.59	331.73
702.92	330.43
703.26	329.16
703.59	327.91
703.93	326.79
704.26	325.58
704.60	324.30
704.93	323.02
705.26	321.76
705.60	320.60
705.93	319.42
706.27	318.40
706.60	317.35
706.94	316.28
707.27	315.13
707.61	314.10
707.94	313.12
708.27	312.02
708.61	310.93
708.94	309.88
709.28	308.90
709.61	307.98
709.94	307.01
710.28	305.97
710.61	305.04
710.95	303.92
711.28	302.92
711.61	301.96
711.95	301.04
712.28	300.11
712.61	299.11
712.95	298.21
713.28	297.37
713.61	296.46
713.95	295.57
714.28	294.73
714.61	293.85
714.95	292.99
715.28	292.17
715.61	291.36
715.95	290.50
716.28	289.65
716.61	288.75
716.95	287.96
717.28	287.19
717.61	286.35
717.94	285.62
718.28	284.84
718.61	284.10
718.94	283.43
719.27	282.74
719.61	282.10
719.94	281.39
720.27	280.64
720.60	279.96
720.94	279.28
721.27	278.69
721.60	278.10
721.93	277.48
722.27	276.90
722.60	276.29
722.93	275.72
723.26	275.19
723.59	274.67
723.93	274.09
724.26	273.53
724.59	273.00
724.92	272.50
725.25	271.98
725.59	271.47
725.92	270.93
726.25	270.43
726.58	269.95
726.91	269.45
727.24	268.98
727.57	268.52
727.91	268.04
728.24	267.55
728.57	267.02
728.90	266.59
729.23	266.10
729.56	265.66
729.89	265.20
730.22	264.70
730.55	264.23
730.89	263.82
731.22	263.35
731.55	262.91
731.88	262.48
732.21	262.04
732.54	261.63
732.87	261.21
733.20	260.81
733.53	260.40
733.86	260.03
734.19	259.61
734.52	259.20
734.85	258.87
735.18	258.48
735.51	258.16
735.84	257.77
736.17	257.45
736.50	257.06
736.83	256.82
737.16	256.50
737.49	256.17
737.82	255.77
738.15	255.46
738.48	255.09
738.81	254.72
739.14	254.41
739.47	254.07
739.80	253.73
740.13	253.43
740.46	253.10
740.79	252.76
741.12	252.50
741.45	252.24
741.78	251.89
742.11	251.60
742.44	251.27
742.77	251.01
743.10	250.67
743.43	250.38
743.75	250.00
744.08	249.84
744.41	249.56
744.74	249.31
745.07	249.05
745.40	248.84
745.73	248.64
746.06	248.37
746.39	248.11
746.71	247.88
747.04	247.59
747.37	247.35
747.70	247.13
748.03	246.84
748.36	246.58
748.68	246.37
749.01	246.12
749.34	245.91
749.67	245.65
750.00	245.43
750.33	245.30
750.65	245.09
750.98	244.75
751.31	244.55
751.64	244.34
751.97	244.18
752.29	243.93
752.62	243.68
752.95	243.46
753.28	243.27
753.60	243.04
753.93	242.88
754.26	242.70
754.59	242.49
754.91	242.29
755.24	242.11
755.57	241.93
755.90	241.78
756.22	241.57
756.55	241.40
756.88	241.23
757.20	240.97
757.53	240.77
757.86	240.64
758.19	240.47
758.51	240.28
758.84	240.07
759.17	239.92
759.49	239.73
759.82	239.59
760.15	239.42
760.47	239.27
760.80	239.10
761.13	238.97
761.45	238.82
761.78	238.69
762.11	238.57
762.43	238.41
762.76	238.22
763.08	238.09
763.41	237.93
763.74	237.78
764.06	237.64
764.39	237.47
764.71	237.33
765.04	237.19
765.37	237.03
765.69	236.91
766.02	236.80
766.34	236.66
766.67	236.52
767.00	236.45
767.32	236.37
767.65	236.31
767.97	236.22
768.30	236.12
768.62	235.98
768.95	235.81
769.27	235.72
769.60	235.66
769.92	235.53
770.25	235.40
770.57	235.29
770.90	235.16
771.22	235.07
771.55	234.94
771.87	234.85
772.20	234.81
772.52	234.77
772.85	234.79
773.17	234.72
773.50	234.63
773.82	234.50
774.15	234.38
774.47	234.24
774.80	234.09
775.12	233.99
775.45	233.92
775.77	233.85
776.09	233.79
776.42	233.67
776.74	233.62
777.07	233.56
777.39	233.48
777.72	233.40
778.04	233.34
778.36	233.26
778.69	233.18
779.01	233.10
779.33	232.95
779.66	232.75
779.98	232.67
780.31	232.62
780.63	232.58
780.95	232.55
781.28	232.47
781.60	232.42
781.92	232.35
782.25	232.30
782.57	232.23
782.89	232.14
783.22	232.08
783.54	231.99
783.86	231.95
784.19	231.90
784.51	231.88
784.83	231.83
785.16	231.77
785.48	231.70
785.80	231.62
786.12	231.61
786.45	231.54
786.77	231.52
787.09	231.47
