SpectraSuite Data File
++++++++++++++++++++++++++++++++++++
Date: Fri Feb 01 15:24:38 EST 2013
User: group
Dark Spectrum Present: No
Reference Spectrum Present: No
Number of Sampled Component Spectra: 1
Spectrometers: USB2E7196
Integration Time (usec): 35000 (USB2E7196)
Spectra Averaged: 100 (USB2E7196)
Boxcar Smoothing: 10 (USB2E7196)
Correct for Electrical Dark: No (USB2E7196)
Strobe/Lamp Enabled: No (USB2E7196)
Correct for Detector Non-linearity: No (USB2E7196)
Correct for Stray Light: No (USB2E7196)
Number of Pixels in Processed Spectrum: 2048
>>>>>Begin Processed Spectral Data<<<<<
339.09	0.00
339.48	214.92
339.86	216.59
340.24	218.16
340.63	219.42
341.01	222.34
341.39	222.04
341.78	222.58
342.16	225.02
342.54	224.66
342.93	213.33
343.31	224.13
343.69	224.67
344.07	225.11
344.46	225.54
344.84	225.92
345.22	226.16
345.60	226.40
345.99	226.61
346.37	226.72
346.75	226.83
347.13	226.93
347.52	227.02
347.90	227.07
348.28	227.12
348.66	227.15
349.05	227.17
349.43	227.21
349.81	227.24
350.19	227.30
350.57	227.39
350.96	227.47
351.34	227.55
351.72	227.64
352.10	227.77
352.48	227.82
352.87	227.90
353.25	227.93
353.63	227.99
354.01	228.09
354.39	228.20
354.77	228.28
355.15	228.37
355.54	228.41
355.92	228.48
356.30	228.55
356.68	228.66
357.06	228.75
357.44	228.84
357.82	228.91
358.20	228.99
358.58	229.03
358.97	229.10
359.35	229.17
359.73	229.26
360.11	229.32
360.49	229.39
360.87	229.42
361.25	229.51
361.63	229.62
362.01	229.65
362.39	229.66
362.77	229.69
363.15	229.70
363.53	229.73
363.91	229.77
364.29	229.78
364.67	229.72
365.05	229.71
365.43	229.73
365.81	229.77
366.19	229.79
366.57	229.84
366.95	229.82
367.33	229.81
367.71	229.78
368.09	229.76
368.47	229.74
368.85	229.73
369.23	229.70
369.61	229.61
369.99	229.60
370.37	229.60
370.75	229.60
371.13	229.56
371.51	229.53
371.89	229.50
372.27	229.45
372.65	229.40
373.03	229.35
373.41	229.26
373.78	229.16
374.16	229.07
374.54	228.99
374.92	228.94
375.30	228.89
375.68	228.79
376.06	228.73
376.44	228.66
376.82	228.54
377.19	228.48
377.57	228.43
377.95	228.32
378.33	228.21
378.71	228.12
379.09	228.06
379.47	227.98
379.84	227.87
380.22	227.77
380.60	227.68
380.98	227.64
381.36	227.56
381.73	227.51
382.11	227.46
382.49	227.38
382.87	227.27
383.25	227.19
383.62	227.27
384.00	227.18
384.38	227.12
384.76	227.12
385.13	227.07
385.51	226.98
385.89	226.94
386.27	226.92
386.64	226.87
387.02	226.82
387.40	226.78
387.78	226.76
388.15	226.76
388.53	226.73
388.91	226.66
389.29	226.64
389.66	226.59
390.04	226.55
390.42	226.55
390.79	226.55
391.17	226.54
391.55	226.40
391.92	226.40
392.30	226.39
392.68	226.35
393.05	226.38
393.43	226.42
393.81	226.42
394.18	226.39
394.56	226.37
394.94	226.41
395.31	226.44
395.69	226.50
396.06	226.54
396.44	226.57
396.82	226.60
397.19	226.69
397.57	226.73
397.95	226.81
398.32	226.85
398.70	226.88
399.07	226.98
399.45	227.06
399.82	227.13
400.20	227.19
400.58	227.28
400.95	227.30
401.33	227.41
401.70	227.57
402.08	227.69
402.45	227.81
402.83	227.95
403.20	228.05
403.58	228.15
403.95	228.28
404.33	228.43
404.71	228.59
405.08	228.77
405.46	228.92
405.83	229.04
406.21	229.18
406.58	229.38
406.96	229.54
407.33	229.74
407.70	229.94
408.08	230.20
408.45	230.43
408.83	230.69
409.20	230.91
409.58	231.09
409.95	231.33
410.33	231.61
410.70	231.87
411.08	232.15
411.45	232.43
411.82	232.72
412.20	233.07
412.57	233.49
412.95	233.78
413.32	234.22
413.69	234.65
414.07	235.12
414.44	235.59
414.82	236.04
415.19	236.59
415.56	237.13
415.94	237.71
416.31	238.36
416.68	239.00
417.06	239.70
417.43	240.37
417.81	241.13
418.18	241.88
418.55	242.70
418.93	243.58
419.30	244.49
419.67	245.47
420.04	246.40
420.42	247.40
420.79	248.61
421.16	249.76
421.54	250.91
421.91	252.11
422.28	253.37
422.66	254.72
423.03	255.99
423.40	257.34
423.77	258.75
424.15	260.13
424.52	261.60
424.89	263.20
425.26	264.74
425.64	266.20
426.01	267.83
426.38	269.46
426.75	271.09
427.13	272.81
427.50	274.61
427.87	276.51
428.24	278.35
428.61	280.05
428.99	281.96
429.36	284.10
429.73	286.17
430.10	288.19
430.47	290.22
430.85	292.35
431.22	294.59
431.59	296.95
431.96	299.21
432.33	301.75
432.70	304.13
433.08	306.98
433.45	309.61
433.82	312.22
434.19	315.14
434.56	318.00
434.93	320.64
435.30	323.25
435.68	326.10
436.05	328.95
436.42	331.75
436.79	334.30
437.16	336.99
437.53	339.80
437.90	342.64
438.27	345.41
438.64	348.18
439.01	350.74
439.38	352.98
439.75	355.17
440.13	357.64
440.50	359.99
440.87	361.83
441.24	363.80
441.61	365.99
441.98	367.48
442.35	369.29
442.72	371.18
443.09	372.99
443.46	374.04
443.83	374.67
444.20	375.22
444.57	376.06
444.94	376.29
445.31	376.66
445.68	376.99
446.05	377.07
446.42	376.77
446.79	376.38
447.16	375.95
447.53	375.64
447.90	374.47
448.27	373.31
448.64	371.71
449.01	370.56
449.37	368.58
449.74	366.67
450.11	364.43
450.48	361.96
450.85	359.42
451.22	357.24
451.59	355.17
451.96	353.20
452.33	350.58
452.70	348.32
453.07	345.51
453.43	342.60
453.80	339.82
454.17	337.11
454.54	334.55
454.91	331.80
455.28	329.09
455.65	326.62
456.02	324.19
456.38	322.02
456.75	319.33
457.12	317.05
457.49	314.83
457.86	312.65
458.23	310.80
458.59	308.75
458.96	306.68
459.33	304.82
459.70	302.94
460.07	301.45
460.43	299.66
460.80	298.01
461.17	296.55
461.54	295.07
461.91	293.64
462.27	292.18
462.64	290.93
463.01	289.59
463.38	288.28
463.74	286.88
464.11	285.74
464.48	284.77
464.85	283.65
465.21	282.76
465.58	281.84
465.95	280.76
466.32	279.86
466.68	278.96
467.05	278.06
467.42	277.19
467.78	276.23
468.15	275.39
468.52	274.72
468.88	273.85
469.25	273.09
469.62	272.49
469.98	271.82
470.35	271.19
470.72	270.58
471.08	269.90
471.45	269.37
471.82	268.80
472.18	268.15
472.55	267.70
472.92	267.20
473.28	266.73
473.65	266.23
474.02	265.77
474.38	265.39
474.75	265.04
475.11	264.69
475.48	264.44
475.85	264.17
476.21	263.90
476.58	263.72
476.94	263.55
477.31	263.37
477.67	263.23
478.04	263.13
478.41	263.08
478.77	263.10
479.14	263.04
479.50	263.05
479.87	263.11
480.23	263.21
480.60	263.24
480.96	263.34
481.33	263.53
481.69	263.72
482.06	263.90
482.42	264.11
482.79	264.34
483.15	264.66
483.52	265.08
483.88	265.47
484.25	265.85
484.61	266.25
484.98	266.69
485.34	267.25
485.71	267.82
486.07	268.41
486.44	268.98
486.80	269.67
487.17	270.41
487.53	271.20
487.90	272.06
488.26	273.03
488.62	273.98
488.99	274.96
489.35	276.00
489.72	277.13
490.08	278.31
490.44	279.57
490.81	280.87
491.17	282.18
491.54	283.62
491.90	285.12
492.26	286.78
492.63	288.49
492.99	290.26
493.36	292.13
493.72	294.16
494.08	296.26
494.45	298.47
494.81	300.83
495.17	303.33
495.54	305.83
495.90	308.47
496.26	311.34
496.63	314.29
496.99	317.43
497.35	320.68
497.72	324.03
498.08	327.50
498.44	331.19
498.80	335.10
499.17	339.14
499.53	343.34
499.89	347.70
500.26	352.22
500.62	356.94
500.98	361.92
501.34	367.01
501.71	372.39
502.07	377.87
502.43	383.45
502.79	389.15
503.16	395.27
503.52	401.59
503.88	407.92
504.24	414.54
504.60	421.39
504.97	428.53
505.33	435.92
505.69	443.65
506.05	451.38
506.41	459.30
506.78	467.50
507.14	475.92
507.50	484.63
507.86	493.72
508.22	502.81
508.59	512.01
508.95	521.59
509.31	531.32
509.67	541.39
510.03	551.76
510.39	562.39
510.75	573.16
511.12	584.07
511.48	595.41
511.84	606.89
512.20	618.42
512.56	630.35
512.92	642.46
513.28	654.79
513.64	667.22
514.00	679.89
514.37	692.77
514.73	705.94
515.09	719.06
515.45	732.26
515.81	745.99
516.17	759.94
516.53	774.04
516.89	788.23
517.25	802.45
517.61	816.96
517.97	831.42
518.33	845.92
518.69	860.69
519.05	875.64
519.41	890.88
519.77	906.43
520.13	921.90
520.49	937.40
520.85	952.81
521.21	968.69
521.57	985.03
521.93	1000.97
522.29	1017.34
522.65	1033.60
523.01	1049.91
523.37	1065.92
523.73	1082.20
524.09	1098.33
524.45	1114.68
524.81	1131.38
525.17	1148.12
525.53	1165.11
525.89	1181.95
526.25	1198.89
526.61	1215.35
526.97	1232.07
527.33	1248.70
527.68	1265.39
528.04	1281.92
528.40	1298.67
528.76	1315.68
529.12	1332.24
529.48	1349.08
529.84	1365.25
530.20	1382.00
530.56	1399.09
530.91	1416.58
531.27	1433.42
531.63	1449.97
531.99	1466.74
532.35	1482.85
532.71	1498.82
533.07	1515.24
533.42	1531.19
533.78	1547.30
534.14	1563.69
534.50	1579.07
534.86	1594.86
535.21	1610.06
535.57	1626.05
535.93	1641.59
536.29	1656.59
536.65	1671.86
537.00	1686.81
537.36	1702.14
537.72	1716.69
538.08	1731.11
538.44	1744.86
538.79	1758.80
539.15	1772.61
539.51	1786.31
539.87	1800.61
540.22	1814.50
540.58	1828.30
540.94	1841.90
541.29	1854.88
541.65	1867.70
542.01	1880.96
542.37	1893.42
542.72	1905.94
543.08	1917.70
543.44	1930.24
543.79	1941.54
544.15	1952.65
544.51	1964.12
544.87	1975.14
545.22	1985.95
545.58	1996.15
545.94	2006.09
546.29	2016.04
546.65	2025.87
547.01	2035.18
547.36	2043.94
547.72	2052.42
548.07	2060.21
548.43	2068.43
548.79	2076.49
549.14	2083.95
549.50	2091.45
549.86	2099.24
550.21	2106.54
550.57	2113.87
550.92	2120.34
551.28	2127.42
551.64	2134.35
551.99	2141.00
552.35	2147.11
552.70	2153.29
553.06	2159.27
553.41	2165.58
553.77	2171.65
554.13	2177.70
554.48	2183.70
554.84	2189.09
555.19	2194.28
555.55	2199.37
555.90	2203.70
556.26	2208.44
556.61	2213.14
556.97	2217.36
557.32	2221.36
557.68	2225.61
558.03	2229.92
558.39	2233.83
558.74	2238.38
559.10	2242.32
559.45	2245.93
559.81	2250.28
560.16	2254.16
560.52	2257.52
560.87	2260.95
561.23	2263.59
561.58	2266.56
561.94	2269.35
562.29	2271.79
562.64	2274.50
563.00	2277.26
563.35	2280.75
563.71	2283.96
564.06	2287.19
564.42	2289.98
564.77	2292.59
565.12	2294.69
565.48	2296.52
565.83	2298.22
566.19	2299.48
566.54	2300.35
566.89	2301.51
567.25	2302.01
567.60	2303.24
567.96	2304.72
568.31	2305.54
568.66	2306.49
569.02	2307.02
569.37	2307.26
569.72	2307.99
570.08	2308.10
570.43	2307.87
570.78	2307.23
571.14	2305.61
571.49	2304.22
571.84	2303.82
572.20	2302.51
572.55	2301.43
572.90	2299.76
573.26	2298.35
573.61	2296.60
573.96	2294.76
574.31	2291.65
574.67	2288.48
575.02	2284.80
575.37	2281.45
575.72	2277.53
576.08	2274.17
576.43	2270.94
576.78	2267.03
577.13	2263.91
577.49	2260.77
577.84	2257.35
578.19	2253.47
578.54	2249.82
578.90	2245.46
579.25	2239.94
579.60	2234.85
579.95	2229.83
580.30	2224.72
580.66	2219.35
581.01	2214.43
581.36	2209.45
581.71	2205.26
582.06	2200.70
582.42	2196.18
582.77	2190.84
583.12	2186.14
583.47	2181.21
583.82	2175.89
584.17	2170.55
584.53	2164.97
584.88	2159.17
585.23	2153.24
585.58	2147.80
585.93	2142.17
586.28	2137.33
586.63	2132.19
586.98	2127.07
587.34	2122.30
587.69	2117.27
588.04	2111.99
588.39	2106.07
588.74	2099.51
589.09	2093.25
589.44	2086.43
589.79	2080.28
590.14	2074.64
590.49	2068.01
590.84	2061.68
591.19	2055.61
591.54	2049.12
591.89	2041.45
592.25	2034.67
592.60	2027.42
592.95	2019.73
593.30	2012.43
593.65	2004.76
594.00	1997.71
594.35	1990.51
594.70	1982.48
595.05	1975.27
595.40	1967.92
595.75	1960.40
596.10	1954.01
596.45	1947.06
596.80	1940.85
597.15	1934.12
597.50	1926.81
597.85	1920.38
598.19	1913.60
598.54	1906.51
598.89	1899.89
599.24	1894.12
599.59	1887.44
599.94	1881.21
600.29	1874.90
600.64	1868.37
600.99	1860.94
601.34	1853.98
601.69	1846.77
602.04	1839.77
602.39	1832.38
602.74	1825.53
603.08	1818.82
603.43	1812.04
603.78	1804.81
604.13	1797.59
604.48	1790.32
604.83	1783.49
605.18	1776.44
605.53	1768.38
605.87	1760.32
606.22	1753.05
606.57	1744.96
606.92	1737.51
607.27	1730.31
607.62	1723.23
607.96	1715.75
608.31	1709.10
608.66	1701.49
609.01	1694.02
609.36	1686.42
609.70	1678.41
610.05	1670.19
610.40	1662.45
610.75	1654.08
611.10	1646.39
611.44	1638.00
611.79	1629.93
612.14	1621.27
612.49	1612.17
612.83	1603.87
613.18	1595.81
613.53	1587.69
613.88	1579.19
614.22	1570.97
614.57	1562.44
614.92	1554.43
615.27	1546.89
615.61	1538.51
615.96	1530.46
616.31	1522.84
616.65	1515.37
617.00	1507.80
617.35	1500.33
617.70	1491.97
618.04	1483.42
618.39	1475.11
618.74	1467.53
619.08	1459.31
619.43	1451.83
619.78	1445.00
620.12	1437.89
620.47	1430.41
620.82	1422.23
621.16	1414.87
621.51	1407.22
621.85	1399.55
622.20	1391.06
622.55	1382.66
622.89	1374.92
623.24	1367.27
623.59	1359.90
623.93	1352.47
624.28	1345.17
624.62	1337.60
624.97	1330.40
625.32	1323.73
625.66	1316.84
626.01	1309.60
626.35	1302.02
626.70	1294.25
627.04	1286.42
627.39	1278.57
627.73	1271.07
628.08	1264.10
628.43	1256.77
628.77	1249.33
629.12	1241.76
629.46	1234.56
629.81	1227.16
630.15	1219.87
630.50	1212.44
630.84	1204.26
631.19	1196.41
631.53	1188.91
631.88	1181.30
632.22	1173.80
632.57	1166.54
632.91	1159.01
633.26	1151.65
633.60	1144.40
633.95	1137.28
634.29	1130.26
634.64	1123.58
634.98	1116.22
635.32	1109.15
635.67	1102.67
636.01	1096.01
636.36	1089.22
636.70	1082.69
637.05	1076.18
637.39	1069.77
637.73	1063.34
638.08	1057.49
638.42	1051.42
638.77	1045.02
639.11	1038.44
639.45	1031.95
639.80	1025.24
640.14	1018.71
640.49	1012.17
640.83	1005.87
641.17	999.57
641.52	993.25
641.86	986.84
642.20	981.07
642.55	974.81
642.89	968.29
643.23	961.76
643.58	955.94
643.92	949.72
644.26	943.65
644.61	937.54
644.95	931.54
645.29	924.86
645.64	918.01
645.98	911.69
646.32	905.87
646.66	899.85
647.01	894.04
647.35	888.40
647.69	882.55
648.04	877.02
648.38	871.32
648.72	865.32
649.06	859.25
649.41	853.30
649.75	847.22
650.09	841.21
650.43	835.43
650.78	829.29
651.12	823.36
651.46	817.62
651.80	811.89
652.14	806.41
652.49	801.02
652.83	795.97
653.17	790.27
653.51	784.55
653.85	779.18
654.20	773.53
654.54	767.48
654.88	761.77
655.22	755.89
655.56	750.14
655.90	744.68
656.25	739.45
656.59	734.14
656.93	729.06
657.27	723.93
657.61	718.55
657.95	713.48
658.29	708.42
658.64	703.20
658.98	697.93
659.32	692.48
659.66	687.30
660.00	681.97
660.34	677.03
660.68	672.13
661.02	667.12
661.36	662.44
661.70	658.01
662.05	653.65
662.39	649.34
662.73	644.89
663.07	640.47
663.41	635.99
663.75	631.43
664.09	626.92
664.43	622.60
664.77	618.52
665.11	614.18
665.45	610.08
665.79	605.97
666.13	601.83
666.47	597.77
666.81	593.67
667.15	589.61
667.49	585.74
667.83	581.96
668.17	578.02
668.51	574.01
668.85	569.98
669.19	566.15
669.53	562.32
669.87	558.43
670.21	554.79
670.55	551.19
670.89	547.77
671.23	544.34
671.57	540.84
671.91	537.32
672.25	533.92
672.58	530.45
672.92	527.05
673.26	523.93
673.60	520.78
673.94	517.61
674.28	514.73
674.62	511.80
674.96	508.68
675.30	505.77
675.64	502.86
675.97	500.14
676.31	497.28
676.65	494.34
676.99	491.68
677.33	488.77
677.67	485.96
678.01	482.95
678.34	479.94
678.68	477.03
679.02	474.14
679.36	471.42
679.70	468.69
680.04	465.99
680.37	463.09
680.71	460.29
681.05	457.74
681.39	454.97
681.73	452.31
682.06	449.75
682.40	447.22
682.74	444.67
683.08	442.07
683.42	439.45
683.75	436.95
684.09	434.36
684.43	431.88
684.77	429.43
685.10	427.14
685.44	424.87
685.78	422.55
686.12	420.34
686.45	418.02
686.79	415.69
687.13	413.46
687.46	411.34
687.80	409.20
688.14	406.97
688.48	404.91
688.81	402.69
689.15	400.58
689.49	398.38
689.82	396.32
690.16	394.24
690.50	392.27
690.83	390.34
691.17	388.42
691.51	386.54
691.84	384.70
692.18	382.75
692.52	380.78
692.85	378.89
693.19	377.06
693.52	375.22
693.86	373.41
694.20	371.66
694.53	369.86
694.87	368.01
695.21	366.21
695.54	364.40
695.88	362.69
696.21	360.95
696.55	359.28
696.88	357.59
697.22	355.95
697.56	354.38
697.89	352.69
698.23	351.07
698.56	349.42
698.90	347.80
699.23	346.15
699.57	344.60
699.90	343.04
700.24	341.47
700.58	339.94
700.91	338.47
701.25	337.05
701.58	335.69
701.92	334.36
702.25	332.99
702.59	331.61
702.92	330.26
703.26	329.00
703.59	327.76
703.93	326.57
704.26	325.36
704.60	324.10
704.93	322.83
705.26	321.60
705.60	320.48
705.93	319.32
706.27	318.30
706.60	317.27
706.94	316.22
707.27	315.12
707.61	314.06
707.94	313.04
708.27	311.93
708.61	310.86
708.94	309.87
709.28	308.91
709.61	307.97
709.94	307.00
710.28	305.96
710.61	304.96
710.95	303.92
711.28	302.97
711.61	302.01
711.95	301.14
712.28	300.21
712.61	299.21
712.95	298.34
713.28	297.43
713.61	296.52
713.95	295.62
714.28	294.74
714.61	293.86
714.95	293.03
715.28	292.16
715.61	291.28
715.95	290.40
716.28	289.53
716.61	288.70
716.95	287.94
717.28	287.20
717.61	286.42
717.94	285.68
718.28	284.89
718.61	284.15
718.94	283.46
719.27	282.82
719.61	282.22
719.94	281.50
720.27	280.78
720.60	280.11
720.94	279.47
721.27	278.86
721.60	278.31
721.93	277.68
722.27	277.16
722.60	276.60
722.93	276.03
723.26	275.48
723.59	274.89
723.93	274.30
724.26	273.75
724.59	273.22
724.92	272.68
725.25	272.19
725.59	271.67
725.92	271.15
726.25	270.58
726.58	270.04
726.91	269.54
727.24	269.05
727.57	268.54
727.91	268.05
728.24	267.60
728.57	267.10
728.90	266.62
729.23	266.09
729.56	265.67
729.89	265.19
730.22	264.72
730.55	264.30
730.89	263.85
731.22	263.40
731.55	262.98
731.88	262.54
732.21	262.09
732.54	261.65
732.87	261.22
733.20	260.84
733.53	260.45
733.86	260.09
734.19	259.71
734.52	259.35
734.85	259.06
735.18	258.64
735.51	258.28
735.84	257.93
736.17	257.63
736.50	257.22
736.83	257.01
737.16	256.70
737.49	256.38
737.82	256.04
738.15	255.71
738.48	255.40
738.81	255.11
739.14	254.83
739.47	254.54
739.80	254.23
740.13	253.93
740.46	253.64
740.79	253.30
741.12	253.01
741.45	252.72
741.78	252.37
742.11	252.15
742.44	251.87
742.77	251.63
743.10	251.30
743.43	251.02
743.75	250.63
744.08	250.49
744.41	250.21
744.74	249.98
745.07	249.71
745.40	249.47
745.73	249.27
746.06	248.97
746.39	248.71
746.71	248.48
747.04	248.23
747.37	247.95
747.70	247.72
748.03	247.50
748.36	247.28
748.68	247.02
749.01	246.74
749.34	246.50
749.67	246.24
750.00	246.04
750.33	245.90
750.65	245.68
750.98	245.33
751.31	245.14
751.64	244.91
751.97	244.75
752.29	244.52
752.62	244.24
752.95	244.02
753.28	243.82
753.60	243.58
753.93	243.39
754.26	243.21
754.59	242.98
754.91	242.73
755.24	242.55
755.57	242.38
755.90	242.19
756.22	241.99
756.55	241.77
756.88	241.55
757.20	241.34
757.53	241.15
757.86	240.98
758.19	240.80
758.51	240.63
758.84	240.41
759.17	240.22
759.49	240.07
759.82	239.93
760.15	239.75
760.47	239.60
760.80	239.39
761.13	239.25
761.45	239.08
761.78	238.94
762.11	238.76
762.43	238.59
762.76	238.44
763.08	238.31
763.41	238.19
763.74	238.06
764.06	237.86
764.39	237.73
764.71	237.56
765.04	237.41
765.37	237.24
765.69	237.09
766.02	236.93
766.34	236.78
766.67	236.66
767.00	236.54
767.32	236.46
767.65	236.42
767.97	236.30
768.30	236.19
768.62	236.08
768.95	235.95
769.27	235.82
769.60	235.73
769.92	235.58
770.25	235.46
770.57	235.36
770.90	235.27
771.22	235.15
771.55	235.05
771.87	234.95
772.20	234.84
772.52	234.84
772.85	234.87
773.17	234.78
773.50	234.68
773.82	234.60
774.15	234.48
774.47	234.33
774.80	234.24
775.12	234.16
775.45	234.08
775.77	233.99
776.09	233.94
776.42	233.86
776.74	233.81
777.07	233.74
777.39	233.68
777.72	233.63
778.04	233.57
778.36	233.53
778.69	233.47
779.01	233.41
779.33	233.28
779.66	233.13
779.98	233.07
780.31	233.03
780.63	233.05
780.95	233.04
781.28	232.98
781.60	232.94
781.92	232.88
782.25	232.83
782.57	232.82
782.89	232.73
783.22	232.65
783.54	232.58
783.86	232.53
784.19	232.48
784.51	232.45
784.83	232.40
785.16	232.35
785.48	232.30
785.80	232.29
786.12	232.27
786.45	232.24
786.77	232.20
787.09	232.13
