SpectraSuite Data File
++++++++++++++++++++++++++++++++++++
Date: Fri Feb 01 18:05:31 EST 2013
User: group
Dark Spectrum Present: No
Reference Spectrum Present: No
Number of Sampled Component Spectra: 1
Spectrometers: USB2E7196
Integration Time (usec): 35000 (USB2E7196)
Spectra Averaged: 100 (USB2E7196)
Boxcar Smoothing: 10 (USB2E7196)
Correct for Electrical Dark: No (USB2E7196)
Strobe/Lamp Enabled: No (USB2E7196)
Correct for Detector Non-linearity: No (USB2E7196)
Correct for Stray Light: No (USB2E7196)
Number of Pixels in Processed Spectrum: 2048
>>>>>Begin Processed Spectral Data<<<<<
339.09	0.00
339.48	212.61
339.86	214.33
340.24	215.21
340.63	217.19
341.01	220.02
341.39	219.48
341.78	221.20
342.16	222.25
342.54	222.58
342.93	211.28
343.31	221.96
343.69	222.50
344.07	222.98
344.46	223.42
344.84	223.82
345.22	224.09
345.60	224.35
345.99	224.58
346.37	224.75
346.75	224.87
347.13	224.96
347.52	225.03
347.90	225.07
348.28	225.11
348.66	225.17
349.05	225.18
349.43	225.24
349.81	225.30
350.19	225.32
350.57	225.39
350.96	225.50
351.34	225.63
351.72	225.78
352.10	225.88
352.48	226.00
352.87	226.03
353.25	226.09
353.63	226.18
354.01	226.22
354.39	226.28
354.77	226.40
355.15	226.52
355.54	226.60
355.92	226.64
356.30	226.73
356.68	226.86
357.06	226.96
357.44	227.00
357.82	227.07
358.20	227.17
358.58	227.24
358.97	227.33
359.35	227.40
359.73	227.44
360.11	227.46
360.49	227.50
360.87	227.60
361.25	227.65
361.63	227.69
362.01	227.73
362.39	227.71
362.77	227.74
363.15	227.73
363.53	227.74
363.91	227.80
364.29	227.79
364.67	227.70
365.05	227.71
365.43	227.76
365.81	227.78
366.19	227.81
366.57	227.84
366.95	227.81
367.33	227.75
367.71	227.75
368.09	227.75
368.47	227.72
368.85	227.64
369.23	227.62
369.61	227.59
369.99	227.61
370.37	227.60
370.75	227.58
371.13	227.53
371.51	227.48
371.89	227.42
372.27	227.40
372.65	227.36
373.03	227.29
373.41	227.23
373.78	227.12
374.16	227.02
374.54	226.90
374.92	226.82
375.30	226.77
375.68	226.68
376.06	226.64
376.44	226.53
376.82	226.50
377.19	226.44
377.57	226.36
377.95	226.23
378.33	226.19
378.71	226.08
379.09	226.04
379.47	226.00
379.84	225.92
380.22	225.80
380.60	225.72
380.98	225.66
381.36	225.58
381.73	225.52
382.11	225.47
382.49	225.43
382.87	225.38
383.25	225.34
383.62	225.37
384.00	225.27
384.38	225.23
384.76	225.19
385.13	225.19
385.51	225.16
385.89	225.09
386.27	225.03
386.64	225.00
387.02	224.94
387.40	224.88
387.78	224.87
388.15	224.90
388.53	224.87
388.91	224.82
389.29	224.82
389.66	224.81
390.04	224.77
390.42	224.79
390.79	224.76
391.17	224.73
391.55	224.66
391.92	224.64
392.30	224.66
392.68	224.63
393.05	224.62
393.43	224.64
393.81	224.68
394.18	224.67
394.56	224.70
394.94	224.77
395.31	224.78
395.69	224.83
396.06	224.84
396.44	224.90
396.82	224.94
397.19	224.99
397.57	225.02
397.95	225.07
398.32	225.05
398.70	225.13
399.07	225.20
399.45	225.24
399.82	225.34
400.20	225.39
400.58	225.47
400.95	225.51
401.33	225.58
401.70	225.76
402.08	225.88
402.45	225.93
402.83	226.00
403.20	226.12
403.58	226.23
403.95	226.37
404.33	226.50
404.71	226.66
405.08	226.86
405.46	227.04
405.83	227.22
406.21	227.39
406.58	227.58
406.96	227.77
407.33	227.97
407.70	228.21
408.08	228.54
408.45	228.81
408.83	229.09
409.20	229.37
409.58	229.58
409.95	229.89
410.33	230.30
410.70	230.62
411.08	231.01
411.45	231.41
411.82	231.77
412.20	232.22
412.57	232.72
412.95	233.10
413.32	233.63
413.69	234.18
414.07	234.77
414.44	235.40
414.82	236.04
415.19	236.77
415.56	237.48
415.94	238.23
416.31	239.04
416.68	239.85
417.06	240.82
417.43	241.70
417.81	242.71
418.18	243.70
418.55	244.85
418.93	246.04
419.30	247.25
419.67	248.53
420.04	249.80
420.42	251.17
420.79	252.76
421.16	254.31
421.54	255.89
421.91	257.54
422.28	259.24
422.66	261.03
423.03	262.83
423.40	264.63
423.77	266.56
424.15	268.52
424.52	270.54
424.89	272.68
425.26	274.81
425.64	276.80
426.01	279.00
426.38	281.27
426.75	283.53
427.13	285.83
427.50	288.31
427.87	290.90
428.24	293.42
428.61	295.82
428.99	298.45
429.36	301.35
429.73	304.15
430.10	306.89
430.47	309.66
430.85	312.54
431.22	315.58
431.59	318.78
431.96	321.87
432.33	325.28
432.70	328.53
433.08	332.36
433.45	335.96
433.82	339.49
434.19	343.39
434.56	347.20
434.93	350.82
435.30	354.40
435.68	358.29
436.05	362.18
436.42	366.01
436.79	369.44
437.16	373.10
437.53	376.96
437.90	380.77
438.27	384.48
438.64	388.32
439.01	391.88
439.38	394.97
439.75	397.89
440.13	401.31
440.50	404.54
440.87	407.06
441.24	409.69
441.61	412.64
441.98	414.72
442.35	417.16
442.72	419.75
443.09	422.23
443.46	423.63
443.83	424.43
444.20	425.11
444.57	426.32
444.94	426.75
445.31	427.24
445.68	427.74
446.05	427.91
446.42	427.35
446.79	426.76
447.16	426.16
447.53	425.76
447.90	424.14
448.27	422.55
448.64	420.38
449.01	418.86
449.37	416.19
449.74	413.60
450.11	410.54
450.48	407.15
450.85	403.72
451.22	400.83
451.59	398.07
451.96	395.47
452.33	391.90
452.70	388.66
453.07	384.79
453.43	380.87
453.80	377.12
454.17	373.54
454.54	370.10
454.91	366.39
455.28	362.77
455.65	359.45
456.02	356.03
456.38	353.12
456.75	349.43
457.12	346.36
457.49	343.30
457.86	340.36
458.23	337.78
458.59	334.94
458.96	332.07
459.33	329.52
459.70	326.94
460.07	324.84
460.43	322.45
460.80	320.24
461.17	318.25
461.54	316.19
461.91	314.22
462.27	312.20
462.64	310.48
463.01	308.59
463.38	306.71
463.74	304.92
464.11	303.34
464.48	301.96
464.85	300.42
465.21	299.23
465.58	297.97
465.95	296.50
466.32	295.26
466.68	293.98
467.05	292.75
467.42	291.55
467.78	290.23
468.15	289.04
468.52	288.11
468.88	286.92
469.25	285.85
469.62	284.97
469.98	284.05
470.35	283.17
470.72	282.32
471.08	281.45
471.45	280.66
471.82	279.90
472.18	279.04
472.55	278.43
472.92	277.68
473.28	277.02
473.65	276.32
474.02	275.70
474.38	275.17
474.75	274.68
475.11	274.16
475.48	273.81
475.85	273.47
476.21	273.09
476.58	272.81
476.94	272.55
477.31	272.29
477.67	272.04
478.04	271.84
478.41	271.71
478.77	271.67
479.14	271.53
479.50	271.44
479.87	271.47
480.23	271.51
480.60	271.56
480.96	271.60
481.33	271.82
481.69	272.00
482.06	272.15
482.42	272.31
482.79	272.52
483.15	272.79
483.52	273.15
483.88	273.49
484.25	273.84
484.61	274.23
484.98	274.66
485.34	275.22
485.71	275.79
486.07	276.39
486.44	276.94
486.80	277.67
487.17	278.44
487.53	279.27
487.90	280.11
488.26	281.02
488.62	282.06
488.99	283.08
489.35	284.15
489.72	285.30
490.08	286.60
490.44	287.88
490.81	289.28
491.17	290.68
491.54	292.24
491.90	293.86
492.26	295.59
492.63	297.38
492.99	299.22
493.36	301.21
493.72	303.34
494.08	305.53
494.45	307.86
494.81	310.36
495.17	312.95
495.54	315.68
495.90	318.53
496.26	321.49
496.63	324.59
496.99	327.89
497.35	331.38
497.72	334.96
498.08	338.73
498.44	342.63
498.80	346.80
499.17	351.10
499.53	355.49
499.89	360.13
500.26	364.94
500.62	369.92
500.98	375.13
501.34	380.56
501.71	386.27
502.07	392.12
502.43	398.06
502.79	404.24
503.16	410.69
503.52	417.37
503.88	424.17
504.24	431.18
504.60	438.54
504.97	446.12
505.33	453.95
505.69	462.14
506.05	470.42
506.41	478.80
506.78	487.51
507.14	496.64
507.50	505.97
507.86	515.55
508.22	525.40
508.59	535.31
508.95	545.52
509.31	556.01
509.67	566.80
510.03	577.84
510.39	589.16
510.75	600.77
511.12	612.54
511.48	624.69
511.84	637.03
512.20	649.37
512.56	662.17
512.92	675.27
513.28	688.53
513.64	702.02
514.00	715.76
514.37	729.76
514.73	743.80
515.09	757.83
515.45	772.15
515.81	786.90
516.17	802.03
516.53	817.30
516.89	832.61
517.25	847.89
517.61	863.54
517.97	879.16
518.33	894.77
518.69	910.73
519.05	926.93
519.41	943.50
519.77	960.40
520.13	977.24
520.49	993.99
520.85	1010.85
521.21	1027.95
521.57	1045.69
521.93	1062.87
522.29	1080.84
522.65	1098.65
523.01	1116.52
523.37	1134.08
523.73	1151.82
524.09	1169.59
524.45	1187.60
524.81	1205.99
525.17	1224.43
525.53	1243.15
525.89	1261.88
526.25	1280.48
526.61	1298.70
526.97	1317.11
527.33	1335.42
527.68	1353.87
528.04	1372.21
528.40	1390.65
528.76	1409.66
529.12	1428.19
529.48	1447.06
529.84	1464.88
530.20	1483.58
530.56	1502.64
530.91	1522.18
531.27	1541.04
531.63	1559.43
531.99	1578.11
532.35	1596.18
532.71	1614.27
533.07	1632.70
533.42	1650.72
533.78	1668.99
534.14	1687.48
534.50	1705.09
534.86	1723.12
535.21	1740.40
535.57	1758.61
535.93	1776.42
536.29	1793.44
536.65	1810.73
537.00	1827.49
537.36	1845.07
537.72	1861.72
538.08	1878.37
538.44	1894.33
538.79	1910.45
539.15	1926.43
539.51	1942.38
539.87	1959.01
540.22	1975.05
540.58	1991.12
540.94	2006.73
541.29	2021.84
541.65	2036.72
542.01	2052.44
542.37	2067.00
542.72	2081.78
543.08	2095.80
543.44	2110.56
543.79	2124.02
544.15	2137.23
544.51	2151.39
544.87	2164.65
545.22	2177.79
545.58	2190.29
545.94	2202.39
546.29	2214.53
546.65	2226.63
547.01	2238.04
547.36	2249.03
547.72	2259.51
548.07	2269.37
548.43	2279.65
548.79	2289.95
549.14	2299.62
549.50	2308.80
549.86	2318.57
550.21	2327.97
550.57	2337.28
550.92	2345.72
551.28	2354.82
551.64	2363.96
551.99	2372.42
552.35	2380.60
552.70	2388.73
553.06	2396.66
553.41	2404.80
553.77	2412.62
554.13	2420.57
554.48	2428.75
554.84	2436.07
555.19	2443.26
555.55	2450.33
555.90	2456.68
556.26	2463.47
556.61	2470.09
556.97	2476.06
557.32	2482.00
557.68	2487.85
558.03	2493.88
558.39	2499.16
558.74	2505.48
559.10	2511.03
559.45	2516.20
559.81	2522.00
560.16	2527.47
560.52	2532.21
560.87	2537.09
561.23	2541.19
561.58	2545.55
561.94	2549.44
562.29	2553.08
562.64	2557.14
563.00	2561.09
563.35	2565.92
563.71	2570.18
564.06	2574.67
564.42	2578.97
564.77	2582.94
565.12	2586.61
565.48	2589.66
565.83	2592.85
566.19	2595.44
566.54	2597.20
566.89	2599.63
567.25	2601.39
567.60	2603.62
567.96	2606.46
568.31	2608.35
568.66	2610.67
569.02	2612.23
569.37	2613.27
569.72	2615.13
570.08	2616.10
570.43	2616.93
570.78	2617.15
571.14	2616.10
571.49	2615.22
571.84	2615.57
572.20	2615.00
572.55	2614.36
572.90	2613.14
573.26	2612.32
573.61	2610.82
573.96	2609.67
574.31	2607.02
574.67	2604.28
575.02	2600.80
575.37	2597.47
575.72	2593.92
576.08	2590.61
576.43	2587.35
576.78	2583.94
577.13	2580.80
577.49	2577.81
577.84	2574.37
578.19	2570.46
578.54	2567.05
578.90	2562.90
579.25	2557.03
579.60	2551.76
579.95	2546.47
580.30	2541.29
580.66	2535.79
581.01	2530.59
581.36	2525.33
581.71	2520.79
582.06	2515.98
582.42	2511.24
582.77	2505.66
583.12	2500.71
583.47	2495.78
583.82	2490.56
584.17	2484.92
584.53	2479.08
584.88	2472.86
585.23	2466.55
585.58	2460.61
585.93	2454.63
586.28	2449.36
586.63	2443.79
586.98	2438.19
587.34	2433.10
587.69	2427.67
588.04	2421.95
588.39	2415.76
588.74	2408.53
589.09	2401.77
589.44	2394.31
589.79	2387.64
590.14	2381.42
590.49	2373.98
590.84	2366.55
591.19	2359.83
591.54	2352.49
591.89	2344.14
592.25	2336.66
592.60	2328.52
592.95	2320.02
593.30	2311.60
593.65	2303.04
594.00	2295.09
594.35	2286.74
594.70	2277.60
595.05	2269.49
595.40	2261.02
595.75	2252.33
596.10	2245.32
596.45	2237.48
596.80	2230.39
597.15	2222.86
597.50	2214.74
597.85	2207.35
598.19	2199.66
598.54	2191.43
598.89	2183.94
599.24	2177.15
599.59	2169.43
599.94	2162.20
600.29	2154.78
600.64	2147.13
600.99	2138.51
601.34	2130.60
601.69	2122.56
602.04	2114.60
602.39	2106.02
602.74	2098.21
603.08	2090.48
603.43	2082.57
603.78	2073.98
604.13	2065.65
604.48	2057.11
604.83	2049.05
605.18	2041.09
605.53	2032.01
605.87	2022.65
606.22	2014.13
606.57	2004.76
606.92	1996.00
607.27	1987.62
607.62	1979.46
607.96	1970.98
608.31	1963.14
608.66	1954.21
609.01	1945.48
609.36	1936.61
609.70	1927.13
610.05	1917.64
610.40	1908.61
610.75	1898.80
611.10	1889.90
611.44	1879.79
611.79	1870.35
612.14	1860.21
612.49	1849.27
612.83	1839.26
613.18	1829.59
613.53	1820.02
613.88	1809.97
614.22	1800.31
614.57	1790.19
614.92	1780.74
615.27	1771.84
615.61	1762.09
615.96	1752.69
616.31	1743.51
616.65	1734.65
617.00	1725.82
617.35	1716.67
617.70	1706.83
618.04	1696.84
618.39	1687.11
618.74	1678.30
619.08	1668.45
619.43	1659.45
619.78	1651.27
620.12	1642.87
620.47	1634.02
620.82	1624.33
621.16	1615.43
621.51	1606.32
621.85	1597.34
622.20	1587.32
622.55	1577.46
622.89	1568.17
623.24	1559.01
623.59	1550.31
623.93	1541.42
624.28	1532.87
624.62	1524.00
624.97	1515.42
625.32	1507.45
625.66	1499.09
626.01	1490.60
626.35	1481.98
626.70	1472.73
627.04	1463.59
627.39	1454.24
627.73	1445.46
628.08	1437.22
628.43	1428.73
628.77	1420.12
629.12	1411.11
629.46	1402.68
629.81	1393.85
630.15	1385.22
630.50	1376.40
630.84	1366.76
631.19	1357.45
631.53	1348.47
631.88	1339.58
632.22	1330.69
632.57	1321.90
632.91	1312.92
633.26	1304.10
633.60	1295.22
633.95	1286.82
634.29	1278.55
634.64	1270.71
634.98	1262.01
635.32	1253.58
635.67	1245.79
636.01	1237.99
636.36	1230.05
636.70	1222.29
637.05	1214.62
637.39	1207.08
637.73	1199.49
638.08	1192.47
638.42	1185.44
638.77	1177.97
639.11	1170.21
639.45	1162.64
639.80	1154.90
640.14	1147.54
640.49	1139.89
640.83	1132.53
641.17	1125.24
641.52	1117.73
641.86	1110.18
642.20	1103.40
642.55	1095.94
642.89	1088.34
643.23	1080.62
643.58	1073.80
643.92	1066.62
644.26	1059.56
644.61	1052.40
644.95	1045.44
645.29	1037.86
645.64	1030.08
645.98	1022.60
646.32	1015.73
646.66	1008.69
647.01	1001.96
647.35	995.23
647.69	988.37
648.04	981.90
648.38	975.21
648.72	968.26
649.06	961.25
649.41	954.41
649.75	947.59
650.09	940.78
650.43	934.14
650.78	927.04
651.12	920.04
651.46	913.31
651.80	906.77
652.14	900.46
652.49	894.17
652.83	888.11
653.17	881.46
653.51	874.83
653.85	868.59
654.20	862.05
654.54	855.03
654.88	848.46
655.22	841.61
655.56	834.93
655.90	828.63
656.25	822.57
656.59	816.28
656.93	810.40
657.27	804.29
657.61	797.96
657.95	792.02
658.29	786.19
658.64	780.07
658.98	773.86
659.32	767.52
659.66	761.54
660.00	755.38
660.34	749.67
660.68	743.90
661.02	738.03
661.36	732.52
661.70	727.31
662.05	722.18
662.39	717.19
662.73	712.01
663.07	706.92
663.41	701.77
663.75	696.57
664.09	691.20
664.43	686.08
664.77	681.29
665.11	676.37
665.45	671.49
665.79	666.76
666.13	661.96
666.47	657.23
666.81	652.37
667.15	647.56
667.49	643.02
667.83	638.62
668.17	634.07
668.51	629.37
668.85	624.74
669.19	620.33
669.53	615.97
669.87	611.47
670.21	607.18
670.55	602.92
670.89	598.93
671.23	594.90
671.57	590.89
671.91	586.77
672.25	582.66
672.58	578.60
672.92	574.64
673.26	570.99
673.60	567.30
673.94	563.69
674.28	560.29
674.62	556.90
674.96	553.33
675.30	549.94
675.64	546.57
675.97	543.27
676.31	539.94
676.65	536.49
676.99	533.42
677.33	530.10
677.67	526.85
678.01	523.33
678.34	519.95
678.68	516.59
679.02	513.29
679.36	510.19
679.70	507.12
680.04	503.97
680.37	500.67
680.71	497.44
681.05	494.42
681.39	491.28
681.73	488.21
682.06	485.34
682.40	482.44
682.74	479.53
683.08	476.59
683.42	473.56
683.75	470.68
684.09	467.66
684.43	464.81
684.77	461.95
685.10	459.25
685.44	456.58
685.78	453.96
686.12	451.37
686.45	448.66
686.79	445.92
687.13	443.34
687.46	440.78
687.80	438.27
688.14	435.67
688.48	433.27
688.81	430.68
689.15	428.14
689.49	425.59
689.82	423.09
690.16	420.64
690.50	418.35
690.83	416.08
691.17	413.83
691.51	411.59
691.84	409.41
692.18	407.15
692.52	404.88
692.85	402.55
693.19	400.33
693.52	398.16
693.86	396.08
694.20	394.04
694.53	391.90
694.87	389.69
695.21	387.63
695.54	385.51
695.88	383.45
696.21	381.40
696.55	379.45
696.88	377.49
697.22	375.61
697.56	373.74
697.89	371.84
698.23	369.94
698.56	368.04
698.90	366.19
699.23	364.28
699.57	362.42
699.90	360.67
700.24	358.90
700.58	357.15
700.91	355.36
701.25	353.60
701.58	352.05
701.92	350.50
702.25	348.89
702.59	347.33
702.92	345.75
703.26	344.28
703.59	342.80
703.93	341.41
704.26	339.95
704.60	338.44
704.93	336.97
705.26	335.49
705.60	334.13
705.93	332.77
706.27	331.54
706.60	330.32
706.94	329.05
707.27	327.69
707.61	326.44
707.94	325.24
708.27	323.99
708.61	322.71
708.94	321.52
709.28	320.37
709.61	319.24
709.94	318.18
710.28	316.94
710.61	315.78
710.95	314.51
711.28	313.42
711.61	312.34
711.95	311.24
712.28	310.13
712.61	308.98
712.95	307.89
713.28	306.85
713.61	305.81
713.95	304.74
714.28	303.78
714.61	302.80
714.95	301.80
715.28	300.82
715.61	299.81
715.95	298.80
716.28	297.79
716.61	296.77
716.95	295.80
717.28	294.99
717.61	294.10
717.94	293.25
718.28	292.33
718.61	291.42
718.94	290.62
719.27	289.82
719.61	289.10
719.94	288.34
720.27	287.52
720.60	286.75
720.94	286.06
721.27	285.38
721.60	284.69
721.93	284.02
722.27	283.35
722.60	282.73
722.93	282.07
723.26	281.44
723.59	280.79
723.93	280.17
724.26	279.49
724.59	278.86
724.92	278.23
725.25	277.68
725.59	277.07
725.92	276.45
726.25	275.88
726.58	275.28
726.91	274.72
727.24	274.19
727.57	273.62
727.91	273.04
728.24	272.49
728.57	271.93
728.90	271.41
729.23	270.86
729.56	270.36
729.89	269.88
730.22	269.30
730.55	268.77
730.89	268.25
731.22	267.77
731.55	267.26
731.88	266.80
732.21	266.26
732.54	265.79
732.87	265.32
733.20	264.88
733.53	264.46
733.86	264.01
734.19	263.53
734.52	263.08
734.85	262.69
735.18	262.24
735.51	261.82
735.84	261.36
736.17	260.97
736.50	260.50
736.83	260.18
737.16	259.80
737.49	259.42
737.82	259.00
738.15	258.59
738.48	258.18
738.81	257.79
739.14	257.41
739.47	257.05
739.80	256.71
740.13	256.30
740.46	255.89
740.79	255.50
741.12	255.15
741.45	254.78
741.78	254.36
742.11	254.01
742.44	253.58
742.77	253.29
743.10	252.94
743.43	252.56
743.75	252.13
744.08	251.94
744.41	251.61
744.74	251.30
745.07	250.96
745.40	250.67
745.73	250.37
746.06	250.05
746.39	249.70
746.71	249.36
747.04	249.06
747.37	248.74
747.70	248.45
748.03	248.16
748.36	247.89
748.68	247.63
749.01	247.31
749.34	247.06
749.67	246.76
750.00	246.49
750.33	246.32
750.65	246.09
750.98	245.67
751.31	245.42
751.64	245.14
751.97	244.98
752.29	244.70
752.62	244.45
752.95	244.22
753.28	244.01
753.60	243.76
753.93	243.55
754.26	243.35
754.59	243.09
754.91	242.82
755.24	242.59
755.57	242.38
755.90	242.19
756.22	241.97
756.55	241.74
756.88	241.48
757.20	241.19
757.53	240.92
757.86	240.74
758.19	240.57
758.51	240.38
758.84	240.13
759.17	239.95
759.49	239.77
759.82	239.61
760.15	239.44
760.47	239.29
760.80	239.10
761.13	238.95
761.45	238.79
761.78	238.64
762.11	238.48
762.43	238.29
762.76	238.11
763.08	237.96
763.41	237.77
763.74	237.62
764.06	237.45
764.39	237.29
764.71	237.16
765.04	237.01
765.37	236.88
765.69	236.74
766.02	236.61
766.34	236.45
766.67	236.30
767.00	236.18
767.32	236.07
767.65	236.01
767.97	235.84
768.30	235.70
768.62	235.61
768.95	235.46
769.27	235.33
769.60	235.26
769.92	235.13
770.25	235.03
770.57	234.90
770.90	234.79
771.22	234.71
771.55	234.60
771.87	234.47
772.20	234.32
772.52	234.32
772.85	234.32
773.17	234.20
773.50	234.08
773.82	233.96
774.15	233.82
774.47	233.63
774.80	233.56
775.12	233.43
775.45	233.35
775.77	233.28
776.09	233.20
776.42	233.09
776.74	233.05
777.07	232.96
777.39	232.89
777.72	232.84
778.04	232.76
778.36	232.66
778.69	232.61
779.01	232.57
779.33	232.37
779.66	232.17
779.98	232.08
780.31	232.03
780.63	232.02
780.95	231.96
781.28	231.90
781.60	231.81
781.92	231.79
782.25	231.71
782.57	231.66
782.89	231.62
783.22	231.53
783.54	231.42
783.86	231.37
784.19	231.30
784.51	231.25
784.83	231.15
785.16	231.09
785.48	231.00
785.80	230.95
786.12	230.89
786.45	230.80
