SpectraSuite Data File
++++++++++++++++++++++++++++++++++++
Date: Fri Feb 01 17:00:18 EST 2013
User: group
Dark Spectrum Present: No
Reference Spectrum Present: No
Number of Sampled Component Spectra: 1
Spectrometers: USB2E7196
Integration Time (usec): 35000 (USB2E7196)
Spectra Averaged: 100 (USB2E7196)
Boxcar Smoothing: 10 (USB2E7196)
Correct for Electrical Dark: No (USB2E7196)
Strobe/Lamp Enabled: No (USB2E7196)
Correct for Detector Non-linearity: No (USB2E7196)
Correct for Stray Light: No (USB2E7196)
Number of Pixels in Processed Spectrum: 2048
>>>>>Begin Processed Spectral Data<<<<<
339.09	0.00
339.48	212.94
339.86	214.36
340.24	215.80
340.63	217.13
341.01	219.76
341.39	220.61
341.78	221.56
342.16	223.09
342.54	223.19
342.93	211.61
343.31	222.31
343.69	222.87
344.07	223.35
344.46	223.78
344.84	224.17
345.22	224.41
345.60	224.64
345.99	224.84
346.37	224.96
346.75	225.10
347.13	225.18
347.52	225.23
347.90	225.32
348.28	225.37
348.66	225.38
349.05	225.45
349.43	225.50
349.81	225.55
350.19	225.61
350.57	225.68
350.96	225.76
351.34	225.84
351.72	225.92
352.10	226.02
352.48	226.10
352.87	226.17
353.25	226.26
353.63	226.35
354.01	226.39
354.39	226.48
354.77	226.51
355.15	226.62
355.54	226.67
355.92	226.71
356.30	226.76
356.68	226.89
357.06	226.95
357.44	226.99
357.82	227.04
358.20	227.13
358.58	227.17
358.97	227.23
359.35	227.32
359.73	227.40
360.11	227.46
360.49	227.52
360.87	227.57
361.25	227.64
361.63	227.65
362.01	227.73
362.39	227.75
362.77	227.80
363.15	227.80
363.53	227.84
363.91	227.85
364.29	227.89
364.67	227.84
365.05	227.88
365.43	227.92
365.81	227.92
366.19	227.95
366.57	228.00
366.95	228.01
367.33	227.97
367.71	227.96
368.09	227.94
368.47	227.93
368.85	227.92
369.23	227.91
369.61	227.89
369.99	227.88
370.37	227.84
370.75	227.86
371.13	227.81
371.51	227.79
371.89	227.75
372.27	227.68
372.65	227.61
373.03	227.54
373.41	227.48
373.78	227.46
374.16	227.35
374.54	227.27
374.92	227.21
375.30	227.16
375.68	227.10
376.06	227.06
376.44	227.02
376.82	226.94
377.19	226.86
377.57	226.79
377.95	226.69
378.33	226.62
378.71	226.50
379.09	226.44
379.47	226.41
379.84	226.33
380.22	226.27
380.60	226.19
380.98	226.10
381.36	226.03
381.73	225.92
382.11	225.86
382.49	225.81
382.87	225.70
383.25	225.62
383.62	225.65
384.00	225.57
384.38	225.50
384.76	225.49
385.13	225.50
385.51	225.44
385.89	225.38
386.27	225.34
386.64	225.31
387.02	225.29
387.40	225.21
387.78	225.20
388.15	225.18
388.53	225.16
388.91	225.14
389.29	225.11
389.66	225.09
390.04	225.05
390.42	225.04
390.79	225.08
391.17	225.07
391.55	224.96
391.92	224.94
392.30	224.94
392.68	224.89
393.05	224.87
393.43	224.87
393.81	224.89
394.18	224.92
394.56	224.91
394.94	224.94
395.31	224.94
395.69	224.98
396.06	225.00
396.44	225.01
396.82	225.01
397.19	225.10
397.57	225.13
397.95	225.20
398.32	225.22
398.70	225.23
399.07	225.29
399.45	225.32
399.82	225.36
400.20	225.37
400.58	225.43
400.95	225.47
401.33	225.55
401.70	225.68
402.08	225.74
402.45	225.83
402.83	225.93
403.20	226.01
403.58	226.11
403.95	226.21
404.33	226.35
404.71	226.47
405.08	226.61
405.46	226.73
405.83	226.88
406.21	227.00
406.58	227.16
406.96	227.33
407.33	227.53
407.70	227.73
408.08	228.02
408.45	228.24
408.83	228.42
409.20	228.65
409.58	228.81
409.95	229.03
410.33	229.28
410.70	229.53
411.08	229.87
411.45	230.15
411.82	230.45
412.20	230.81
412.57	231.25
412.95	231.54
413.32	231.95
413.69	232.35
414.07	232.77
414.44	233.26
414.82	233.73
415.19	234.28
415.56	234.83
415.94	235.35
416.31	235.98
416.68	236.61
417.06	237.32
417.43	238.02
417.81	238.83
418.18	239.64
418.55	240.44
418.93	241.29
419.30	242.15
419.67	243.11
420.04	244.06
420.42	245.04
420.79	246.23
421.16	247.38
421.54	248.58
421.91	249.82
422.28	251.05
422.66	252.39
423.03	253.70
423.40	255.05
423.77	256.44
424.15	257.87
424.52	259.37
424.89	260.97
425.26	262.48
425.64	263.90
426.01	265.47
426.38	267.13
426.75	268.80
427.13	270.54
427.50	272.32
427.87	274.18
428.24	276.00
428.61	277.73
428.99	279.64
429.36	281.71
429.73	283.77
430.10	285.76
430.47	287.77
430.85	289.85
431.22	292.03
431.59	294.39
431.96	296.60
432.33	299.07
432.70	301.41
433.08	304.19
433.45	306.81
433.82	309.38
434.19	312.20
434.56	314.96
434.93	317.55
435.30	320.12
435.68	322.99
436.05	325.84
436.42	328.59
436.79	331.04
437.16	333.74
437.53	336.48
437.90	339.27
438.27	341.96
438.64	344.78
439.01	347.37
439.38	349.57
439.75	351.72
440.13	354.22
440.50	356.50
440.87	358.37
441.24	360.33
441.61	362.49
441.98	364.00
442.35	365.84
442.72	367.74
443.09	369.53
443.46	370.52
443.83	371.11
444.20	371.62
444.57	372.49
444.94	372.74
445.31	373.14
445.68	373.47
446.05	373.59
446.42	373.21
446.79	372.83
447.16	372.40
447.53	372.12
447.90	370.95
448.27	369.87
448.64	368.29
449.01	367.15
449.37	365.19
449.74	363.30
450.11	361.06
450.48	358.62
450.85	356.13
451.22	353.99
451.59	351.97
451.96	350.05
452.33	347.49
452.70	345.17
453.07	342.31
453.43	339.48
453.80	336.76
454.17	334.13
454.54	331.59
454.91	328.93
455.28	326.28
455.65	323.80
456.02	321.38
456.38	319.26
456.75	316.65
457.12	314.43
457.49	312.24
457.86	310.08
458.23	308.24
458.59	306.26
458.96	304.24
459.33	302.39
459.70	300.57
460.07	299.09
460.43	297.41
460.80	295.80
461.17	294.38
461.54	292.88
461.91	291.48
462.27	290.06
462.64	288.79
463.01	287.45
463.38	286.18
463.74	284.85
464.11	283.66
464.48	282.65
464.85	281.55
465.21	280.69
465.58	279.76
465.95	278.66
466.32	277.74
466.68	276.83
467.05	275.96
467.42	275.09
467.78	274.14
468.15	273.29
468.52	272.66
468.88	271.80
469.25	271.07
469.62	270.41
469.98	269.77
470.35	269.18
470.72	268.58
471.08	267.93
471.45	267.40
471.82	266.90
472.18	266.31
472.55	265.85
472.92	265.35
473.28	264.91
473.65	264.47
474.02	264.03
474.38	263.69
474.75	263.38
475.11	263.05
475.48	262.84
475.85	262.58
476.21	262.39
476.58	262.28
476.94	262.14
477.31	262.00
477.67	261.83
478.04	261.77
478.41	261.74
478.77	261.82
479.14	261.73
479.50	261.75
479.87	261.82
480.23	261.93
480.60	262.03
480.96	262.13
481.33	262.35
481.69	262.58
482.06	262.81
482.42	263.01
482.79	263.25
483.15	263.55
483.52	263.95
483.88	264.29
484.25	264.65
484.61	265.05
484.98	265.52
485.34	266.10
485.71	266.64
486.07	267.20
486.44	267.75
486.80	268.46
487.17	269.17
487.53	269.98
487.90	270.83
488.26	271.74
488.62	272.72
488.99	273.72
489.35	274.75
489.72	275.84
490.08	277.04
490.44	278.26
490.81	279.52
491.17	280.86
491.54	282.32
491.90	283.83
492.26	285.48
492.63	287.19
492.99	288.96
493.36	290.81
493.72	292.85
494.08	294.95
494.45	297.18
494.81	299.53
495.17	301.98
495.54	304.56
495.90	307.24
496.26	310.04
496.63	312.96
496.99	316.00
497.35	319.24
497.72	322.61
498.08	326.17
498.44	329.91
498.80	333.83
499.17	337.86
499.53	341.96
499.89	346.34
500.26	350.80
500.62	355.44
500.98	360.38
501.34	365.45
501.71	370.72
502.07	376.15
502.43	381.72
502.79	387.42
503.16	393.41
503.52	399.69
503.88	406.00
504.24	412.56
504.60	419.40
504.97	426.50
505.33	433.77
505.69	441.39
506.05	449.10
506.41	456.88
506.78	464.98
507.14	473.43
507.50	482.01
507.86	490.99
508.22	500.06
508.59	509.17
508.95	518.66
509.31	528.37
509.67	538.36
510.03	548.54
510.39	559.00
510.75	569.65
511.12	580.35
511.48	591.61
511.84	602.99
512.20	614.43
512.56	626.15
512.92	638.14
513.28	650.31
513.64	662.53
514.00	675.06
514.37	687.86
514.73	700.69
515.09	713.57
515.45	726.60
515.81	739.97
516.17	753.73
516.53	767.58
516.89	781.50
517.25	795.34
517.61	809.58
517.97	823.82
518.33	838.07
518.69	852.67
519.05	867.37
519.41	882.23
519.77	897.44
520.13	912.66
520.49	927.78
520.85	942.86
521.21	958.41
521.57	974.39
521.93	989.77
522.29	1005.87
522.65	1021.82
523.01	1037.70
523.37	1053.50
523.73	1069.41
524.09	1085.23
524.45	1101.28
524.81	1117.67
525.17	1134.09
525.53	1150.70
525.89	1167.25
526.25	1183.70
526.61	1199.71
526.97	1216.20
527.33	1232.38
527.68	1248.56
528.04	1264.78
528.40	1281.14
528.76	1297.77
529.12	1314.03
529.48	1330.60
529.84	1346.25
530.20	1362.50
530.56	1379.20
530.91	1396.20
531.27	1412.67
531.63	1428.76
531.99	1444.95
532.35	1460.61
532.71	1476.21
533.07	1492.07
533.42	1507.74
533.78	1523.57
534.14	1539.57
534.50	1554.54
534.86	1570.05
535.21	1585.03
535.57	1600.51
535.93	1615.73
536.29	1630.22
536.65	1644.87
537.00	1659.29
537.36	1674.41
537.72	1688.61
538.08	1702.72
538.44	1716.27
538.79	1729.77
539.15	1743.14
539.51	1756.54
539.87	1770.60
540.22	1783.92
540.58	1797.40
540.94	1810.26
541.29	1822.79
541.65	1835.16
542.01	1848.08
542.37	1860.21
542.72	1872.33
543.08	1884.02
543.44	1896.13
543.79	1907.14
544.15	1917.95
544.51	1929.47
544.87	1940.18
545.22	1950.88
545.58	1961.01
545.94	1970.62
546.29	1980.33
546.65	1990.17
547.01	1999.36
547.36	2007.81
547.72	2016.27
548.07	2023.92
548.43	2032.05
548.79	2039.88
549.14	2047.26
549.50	2054.44
549.86	2061.96
550.21	2069.14
550.57	2076.11
550.92	2082.54
551.28	2089.64
551.64	2096.62
551.99	2102.91
552.35	2108.96
552.70	2114.98
553.06	2120.95
553.41	2127.30
553.77	2133.30
554.13	2139.23
554.48	2145.31
554.84	2151.09
555.19	2156.25
555.55	2161.61
555.90	2165.96
556.26	2171.11
556.61	2175.86
556.97	2180.31
557.32	2184.52
557.68	2188.82
558.03	2193.20
558.39	2196.99
558.74	2201.42
559.10	2205.36
559.45	2209.13
559.81	2213.46
560.16	2217.40
560.52	2220.69
560.87	2223.87
561.23	2226.66
561.58	2229.64
561.94	2232.38
562.29	2234.61
562.64	2237.56
563.00	2240.11
563.35	2243.76
563.71	2246.77
564.06	2250.13
564.42	2253.10
564.77	2255.75
565.12	2258.16
565.48	2260.36
565.83	2262.48
566.19	2264.14
566.54	2265.13
566.89	2266.43
567.25	2267.12
567.60	2268.51
567.96	2270.36
568.31	2271.50
568.66	2272.76
569.02	2273.53
569.37	2274.01
569.72	2275.02
570.08	2275.25
570.43	2275.48
570.78	2275.26
571.14	2273.89
571.49	2272.72
571.84	2272.48
572.20	2271.62
572.55	2270.70
572.90	2269.04
573.26	2267.58
573.61	2265.93
573.96	2264.49
574.31	2261.70
574.67	2258.97
575.02	2255.64
575.37	2252.32
575.72	2248.83
576.08	2245.54
576.43	2242.43
576.78	2238.84
577.13	2235.88
577.49	2232.99
577.84	2229.80
578.19	2226.14
578.54	2222.88
578.90	2218.79
579.25	2213.43
579.60	2208.66
579.95	2203.78
580.30	2199.02
580.66	2194.20
581.01	2189.53
581.36	2184.83
581.71	2180.98
582.06	2176.85
582.42	2172.53
582.77	2167.65
583.12	2163.31
583.47	2158.89
583.82	2154.20
584.17	2149.25
584.53	2143.88
584.88	2138.42
585.23	2132.90
585.58	2127.58
585.93	2122.29
586.28	2117.72
586.63	2112.96
586.98	2108.01
587.34	2103.55
587.69	2098.81
588.04	2093.71
588.39	2088.18
588.74	2081.82
589.09	2075.79
589.44	2069.14
589.79	2063.30
590.14	2057.77
590.49	2051.33
590.84	2045.09
591.19	2039.21
591.54	2032.91
591.89	2025.98
592.25	2019.45
592.60	2012.36
592.95	2005.02
593.30	1997.73
593.65	1990.48
594.00	1983.54
594.35	1976.47
594.70	1968.59
595.05	1961.74
595.40	1954.71
595.75	1947.38
596.10	1941.36
596.45	1934.79
596.80	1928.83
597.15	1922.48
597.50	1915.69
597.85	1909.30
598.19	1902.84
598.54	1895.98
598.89	1889.43
599.24	1883.57
599.59	1877.11
599.94	1871.08
600.29	1864.88
600.64	1858.47
600.99	1851.15
601.34	1844.59
601.69	1837.63
602.04	1831.06
602.39	1823.77
602.74	1817.07
603.08	1810.56
603.43	1803.97
603.78	1796.71
604.13	1789.66
604.48	1782.47
604.83	1775.61
605.18	1768.87
605.53	1761.02
605.87	1753.05
606.22	1746.00
606.57	1738.19
606.92	1730.82
607.27	1723.76
607.62	1716.87
607.96	1709.71
608.31	1703.21
608.66	1695.59
609.01	1688.22
609.36	1680.64
609.70	1672.69
610.05	1664.73
610.40	1657.10
610.75	1648.86
611.10	1641.34
611.44	1632.96
611.79	1625.03
612.14	1616.42
612.49	1607.30
612.83	1598.91
613.18	1590.81
613.53	1582.77
613.88	1574.27
614.22	1566.09
614.57	1557.32
614.92	1549.49
615.27	1542.09
615.61	1533.84
615.96	1525.84
616.31	1518.26
616.65	1510.88
617.00	1503.29
617.35	1495.56
617.70	1487.25
618.04	1478.93
618.39	1470.66
618.74	1463.08
619.08	1454.69
619.43	1447.09
619.78	1440.22
620.12	1433.24
620.47	1425.82
620.82	1417.64
621.16	1410.13
621.51	1402.52
621.85	1395.11
622.20	1386.57
622.55	1378.03
622.89	1370.25
623.24	1362.60
623.59	1355.13
623.93	1347.64
624.28	1340.53
624.62	1333.16
624.97	1326.04
625.32	1319.07
625.66	1312.08
626.01	1304.98
626.35	1297.61
626.70	1289.93
627.04	1282.21
627.39	1274.32
627.73	1266.85
628.08	1260.03
628.43	1252.84
628.77	1245.62
629.12	1238.09
629.46	1230.99
629.81	1223.68
630.15	1216.38
630.50	1209.10
630.84	1201.04
631.19	1193.20
631.53	1185.73
631.88	1178.07
632.22	1170.47
632.57	1163.36
632.91	1155.93
633.26	1148.51
633.60	1141.21
633.95	1133.98
634.29	1127.03
634.64	1120.48
634.98	1113.23
635.32	1106.04
635.67	1099.44
636.01	1092.75
636.36	1085.98
636.70	1079.40
637.05	1072.89
637.39	1066.41
637.73	1059.96
638.08	1054.15
638.42	1048.14
638.77	1041.72
639.11	1035.27
639.45	1028.95
639.80	1022.11
640.14	1015.71
640.49	1009.16
640.83	1002.87
641.17	996.81
641.52	990.50
641.86	984.00
642.20	978.11
642.55	971.80
642.89	965.41
643.23	958.92
643.58	953.10
643.92	947.00
644.26	940.97
644.61	934.94
644.95	928.96
645.29	922.43
645.64	915.76
645.98	909.33
646.32	903.47
646.66	897.40
647.01	891.69
647.35	886.02
647.69	880.21
648.04	874.66
648.38	868.93
648.72	862.94
649.06	856.95
649.41	851.07
649.75	845.14
650.09	839.23
650.43	833.51
650.78	827.33
651.12	821.36
651.46	815.67
651.80	810.04
652.14	804.63
652.49	799.21
652.83	794.06
653.17	788.55
653.51	782.87
653.85	777.51
654.20	771.92
654.54	765.94
654.88	760.18
655.22	754.36
655.56	748.70
655.90	743.20
656.25	737.96
656.59	732.65
656.93	727.58
657.27	722.39
657.61	716.91
657.95	711.91
658.29	706.91
658.64	701.66
658.98	696.35
659.32	690.89
659.66	685.77
660.00	680.51
660.34	675.62
660.68	670.70
661.02	665.67
661.36	661.02
661.70	656.59
662.05	652.30
662.39	648.01
662.73	643.58
663.07	639.28
663.41	634.83
663.75	630.39
664.09	625.86
664.43	621.51
664.77	617.50
665.11	613.24
665.45	609.17
665.79	605.13
666.13	601.01
666.47	596.96
666.81	592.73
667.15	588.59
667.49	584.65
667.83	580.87
668.17	576.96
668.51	572.94
668.85	568.86
669.19	565.06
669.53	561.22
669.87	557.31
670.21	553.69
670.55	550.03
670.89	546.61
671.23	543.23
671.57	539.72
671.91	536.15
672.25	532.64
672.58	529.01
672.92	525.60
673.26	522.47
673.60	519.29
673.94	516.23
674.28	513.32
674.62	510.35
674.96	507.28
675.30	504.36
675.64	501.43
675.97	498.60
676.31	495.69
676.65	492.79
676.99	490.15
677.33	487.23
677.67	484.46
678.01	481.42
678.34	478.49
678.68	475.63
679.02	472.84
679.36	470.15
679.70	467.47
680.04	464.71
680.37	461.81
680.71	459.02
681.05	456.44
681.39	453.76
681.73	451.13
682.06	448.63
682.40	446.15
682.74	443.60
683.08	441.08
683.42	438.51
683.75	436.00
684.09	433.40
684.43	430.93
684.77	428.49
685.10	426.12
685.44	423.75
685.78	421.48
686.12	419.15
686.45	416.86
686.79	414.57
687.13	412.43
687.46	410.23
687.80	408.11
688.14	405.85
688.48	403.76
688.81	401.53
689.15	399.35
689.49	397.22
689.82	395.13
690.16	393.07
690.50	391.13
690.83	389.18
691.17	387.21
691.51	385.30
691.84	383.45
692.18	381.54
692.52	379.61
692.85	377.64
693.19	375.81
693.52	373.94
693.86	372.11
694.20	370.28
694.53	368.49
694.87	366.61
695.21	364.80
695.54	362.96
695.88	361.18
696.21	359.44
696.55	357.71
696.88	356.01
697.22	354.33
697.56	352.69
697.89	351.01
698.23	349.39
698.56	347.79
698.90	346.21
699.23	344.60
699.57	343.03
699.90	341.51
700.24	339.94
700.58	338.44
700.91	336.97
701.25	335.53
701.58	334.18
701.92	332.80
702.25	331.44
702.59	330.15
702.92	328.85
703.26	327.56
703.59	326.28
703.93	325.11
704.26	323.92
704.60	322.63
704.93	321.38
705.26	320.13
705.60	318.99
705.93	317.81
706.27	316.73
706.60	315.71
706.94	314.60
707.27	313.45
707.61	312.36
707.94	311.35
708.27	310.29
708.61	309.18
708.94	308.20
709.28	307.25
709.61	306.25
709.94	305.32
710.28	304.33
710.61	303.35
710.95	302.28
711.28	301.34
711.61	300.39
711.95	299.51
712.28	298.57
712.61	297.56
712.95	296.59
713.28	295.74
713.61	294.78
713.95	293.93
714.28	293.11
714.61	292.27
714.95	291.41
715.28	290.54
715.61	289.67
715.95	288.83
716.28	287.92
716.61	287.09
716.95	286.21
717.28	285.44
717.61	284.69
717.94	283.93
718.28	283.13
718.61	282.40
718.94	281.69
719.27	281.05
719.61	280.42
719.94	279.77
720.27	279.01
720.60	278.41
720.94	277.76
721.27	277.19
721.60	276.64
721.93	276.03
722.27	275.48
722.60	274.94
722.93	274.37
723.26	273.87
723.59	273.29
723.93	272.77
724.26	272.21
724.59	271.65
724.92	271.14
725.25	270.65
725.59	270.14
725.92	269.59
726.25	269.06
726.58	268.58
726.91	268.10
727.24	267.70
727.57	267.22
727.91	266.72
728.24	266.20
728.57	265.67
728.90	265.21
729.23	264.72
729.56	264.27
729.89	263.78
730.22	263.27
730.55	262.82
730.89	262.43
731.22	262.01
731.55	261.58
731.88	261.14
732.21	260.70
732.54	260.29
732.87	259.87
733.20	259.44
733.53	259.07
733.86	258.68
734.19	258.24
734.52	257.87
734.85	257.57
735.18	257.19
735.51	256.86
735.84	256.48
736.17	256.10
736.50	255.72
736.83	255.49
737.16	255.21
737.49	254.89
737.82	254.49
738.15	254.13
738.48	253.82
738.81	253.51
739.14	253.16
739.47	252.86
739.80	252.59
740.13	252.29
740.46	251.92
740.79	251.59
741.12	251.28
741.45	250.91
741.78	250.55
742.11	250.28
742.44	249.92
742.77	249.60
743.10	249.32
743.43	249.04
743.75	248.64
744.08	248.50
744.41	248.22
744.74	247.95
745.07	247.67
745.40	247.43
745.73	247.20
746.06	246.91
746.39	246.61
746.71	246.32
747.04	246.08
747.37	245.86
747.70	245.62
748.03	245.36
748.36	245.20
748.68	244.95
749.01	244.67
749.34	244.46
749.67	244.27
750.00	244.07
750.33	243.89
750.65	243.72
750.98	243.33
751.31	243.10
751.64	242.89
751.97	242.72
752.29	242.49
752.62	242.23
752.95	242.03
753.28	241.82
753.60	241.62
753.93	241.42
754.26	241.20
754.59	241.01
754.91	240.80
755.24	240.58
755.57	240.41
755.90	240.26
756.22	240.07
756.55	239.87
756.88	239.66
757.20	239.45
757.53	239.22
757.86	239.07
758.19	238.90
758.51	238.76
758.84	238.55
759.17	238.38
759.49	238.19
759.82	238.09
760.15	237.95
760.47	237.77
760.80	237.61
761.13	237.48
761.45	237.30
761.78	237.18
762.11	237.02
762.43	236.85
762.76	236.69
763.08	236.58
763.41	236.44
763.74	236.31
764.06	236.17
764.39	236.05
764.71	235.90
765.04	235.76
765.37	235.59
765.69	235.48
766.02	235.34
766.34	235.23
766.67	235.08
767.00	234.92
767.32	234.90
767.65	234.82
767.97	234.70
768.30	234.61
768.62	234.51
768.95	234.42
769.27	234.31
769.60	234.21
769.92	234.09
770.25	233.97
770.57	233.82
770.90	233.74
771.22	233.63
771.55	233.54
771.87	233.43
772.20	233.36
772.52	233.34
772.85	233.38
773.17	233.28
773.50	233.17
773.82	233.10
774.15	232.95
774.47	232.81
774.80	232.70
775.12	232.62
775.45	232.52
775.77	232.43
776.09	232.38
776.42	232.28
776.74	232.24
777.07	232.15
777.39	232.10
777.72	232.01
778.04	231.96
778.36	231.91
778.69	231.86
779.01	231.80
779.33	231.65
779.66	231.48
779.98	231.42
780.31	231.35
780.63	231.33
780.95	231.28
781.28	231.22
781.60	231.18
781.92	231.10
782.25	231.05
782.57	230.97
782.89	230.90
783.22	230.81
783.54	230.70
783.86	230.66
784.19	230.61
784.51	230.58
784.83	230.50
785.16	230.43
785.48	230.38
785.80	230.32
786.12	230.29
786.45	230.23
786.77	230.17
787.09	230.14
