SpectraSuite Data File
++++++++++++++++++++++++++++++++++++
Date: Fri Feb 01 14:49:51 EST 2013
User: group
Dark Spectrum Present: No
Reference Spectrum Present: No
Number of Sampled Component Spectra: 1
Spectrometers: USB2E7196
Integration Time (usec): 35000 (USB2E7196)
Spectra Averaged: 100 (USB2E7196)
Boxcar Smoothing: 10 (USB2E7196)
Correct for Electrical Dark: No (USB2E7196)
Strobe/Lamp Enabled: No (USB2E7196)
Correct for Detector Non-linearity: No (USB2E7196)
Correct for Stray Light: No (USB2E7196)
Number of Pixels in Processed Spectrum: 2048
>>>>>Begin Processed Spectral Data<<<<<
339.09	0.00
339.48	215.78
339.86	217.34
340.24	218.91
340.63	220.03
341.01	223.02
341.39	222.96
341.78	223.81
342.16	225.04
342.54	225.77
342.93	214.04
343.31	224.86
343.69	225.39
344.07	225.84
344.46	226.23
344.84	226.59
345.22	226.81
345.60	227.04
345.99	227.23
346.37	227.35
346.75	227.40
347.13	227.43
347.52	227.46
347.90	227.51
348.28	227.53
348.66	227.58
349.05	227.56
349.43	227.60
349.81	227.64
350.19	227.67
350.57	227.71
350.96	227.79
351.34	227.88
351.72	227.96
352.10	228.07
352.48	228.16
352.87	228.23
353.25	228.29
353.63	228.35
354.01	228.43
354.39	228.56
354.77	228.68
355.15	228.80
355.54	228.88
355.92	228.93
356.30	228.97
356.68	229.11
357.06	229.18
357.44	229.20
357.82	229.28
358.20	229.36
358.58	229.45
358.97	229.51
359.35	229.57
359.73	229.63
360.11	229.65
360.49	229.67
360.87	229.70
361.25	229.76
361.63	229.84
362.01	229.82
362.39	229.82
362.77	229.83
363.15	229.87
363.53	229.88
363.91	229.90
364.29	229.94
364.67	229.86
365.05	229.88
365.43	229.94
365.81	229.97
366.19	230.02
366.57	230.04
366.95	230.02
367.33	229.99
367.71	230.04
368.09	230.08
368.47	230.08
368.85	230.09
369.23	230.04
369.61	229.97
369.99	229.98
370.37	229.94
370.75	229.97
371.13	229.87
371.51	229.81
371.89	229.78
372.27	229.70
372.65	229.63
373.03	229.56
373.41	229.46
373.78	229.37
374.16	229.23
374.54	229.14
374.92	229.06
375.30	229.01
375.68	228.88
376.06	228.78
376.44	228.67
376.82	228.62
377.19	228.53
377.57	228.45
377.95	228.34
378.33	228.26
378.71	228.14
379.09	228.08
379.47	228.01
379.84	227.93
380.22	227.86
380.60	227.78
380.98	227.72
381.36	227.67
381.73	227.60
382.11	227.56
382.49	227.49
382.87	227.41
383.25	227.34
383.62	227.36
384.00	227.29
384.38	227.23
384.76	227.15
385.13	227.15
385.51	227.11
385.89	227.06
386.27	227.03
386.64	226.98
387.02	226.94
387.40	226.88
387.78	226.85
388.15	226.83
388.53	226.80
388.91	226.78
389.29	226.74
389.66	226.71
390.04	226.68
390.42	226.69
390.79	226.67
391.17	226.64
391.55	226.53
391.92	226.53
392.30	226.55
392.68	226.54
393.05	226.55
393.43	226.56
393.81	226.60
394.18	226.60
394.56	226.60
394.94	226.68
395.31	226.67
395.69	226.72
396.06	226.76
396.44	226.84
396.82	226.86
397.19	226.97
397.57	227.01
397.95	227.07
398.32	227.10
398.70	227.20
399.07	227.29
399.45	227.35
399.82	227.43
400.20	227.53
400.58	227.62
400.95	227.68
401.33	227.78
401.70	227.93
402.08	228.06
402.45	228.18
402.83	228.28
403.20	228.46
403.58	228.57
403.95	228.73
404.33	228.85
404.71	228.99
405.08	229.19
405.46	229.32
405.83	229.50
406.21	229.70
406.58	229.87
406.96	230.04
407.33	230.24
407.70	230.43
408.08	230.71
408.45	230.95
408.83	231.20
409.20	231.44
409.58	231.60
409.95	231.82
410.33	232.09
410.70	232.34
411.08	232.62
411.45	232.93
411.82	233.22
412.20	233.56
412.57	234.00
412.95	234.27
413.32	234.74
413.69	235.13
414.07	235.54
414.44	236.04
414.82	236.52
415.19	237.07
415.56	237.61
415.94	238.13
416.31	238.77
416.68	239.38
417.06	240.08
417.43	240.78
417.81	241.57
418.18	242.35
418.55	243.19
418.93	244.09
419.30	244.97
419.67	245.90
420.04	246.86
420.42	247.83
420.79	249.00
421.16	250.12
421.54	251.29
421.91	252.49
422.28	253.69
422.66	255.06
423.03	256.36
423.40	257.68
423.77	259.10
424.15	260.49
424.52	261.96
424.89	263.57
425.26	265.10
425.64	266.52
426.01	268.13
426.38	269.75
426.75	271.40
427.13	273.13
427.50	274.94
427.87	276.82
428.24	278.69
428.61	280.47
428.99	282.41
429.36	284.55
429.73	286.62
430.10	288.66
430.47	290.68
430.85	292.78
431.22	295.00
431.59	297.34
431.96	299.59
432.33	302.06
432.70	304.43
433.08	307.27
433.45	309.92
433.82	312.52
434.19	315.43
434.56	318.27
434.93	320.92
435.30	323.53
435.68	326.41
436.05	329.24
436.42	332.01
436.79	334.52
437.16	337.18
437.53	340.01
437.90	342.80
438.27	345.54
438.64	348.40
439.01	351.00
439.38	353.25
439.75	355.41
440.13	357.86
440.50	360.18
440.87	362.01
441.24	363.99
441.61	366.13
441.98	367.60
442.35	369.37
442.72	371.21
443.09	373.04
443.46	374.02
443.83	374.59
444.20	375.11
444.57	375.94
444.94	376.25
445.31	376.58
445.68	376.94
446.05	376.98
446.42	376.53
446.79	376.14
447.16	375.70
447.53	375.35
447.90	374.24
448.27	373.09
448.64	371.52
449.01	370.35
449.37	368.36
449.74	366.46
450.11	364.24
450.48	361.79
450.85	359.24
451.22	357.13
451.59	355.15
451.96	353.21
452.33	350.61
452.70	348.23
453.07	345.42
453.43	342.51
453.80	339.76
454.17	337.15
454.54	334.63
454.91	331.93
455.28	329.31
455.65	326.83
456.02	324.40
456.38	322.24
456.75	319.58
457.12	317.36
457.49	315.16
457.86	313.00
458.23	311.11
458.59	309.09
458.96	306.95
459.33	305.08
459.70	303.25
460.07	301.76
460.43	300.07
460.80	298.44
461.17	297.02
461.54	295.56
461.91	294.16
462.27	292.70
462.64	291.45
463.01	290.08
463.38	288.79
463.74	287.40
464.11	286.25
464.48	285.21
464.85	284.10
465.21	283.21
465.58	282.28
465.95	281.20
466.32	280.29
466.68	279.41
467.05	278.53
467.42	277.62
467.78	276.65
468.15	275.76
468.52	275.07
468.88	274.21
469.25	273.47
469.62	272.82
469.98	272.11
470.35	271.49
470.72	270.91
471.08	270.20
471.45	269.69
471.82	269.15
472.18	268.53
472.55	268.04
472.92	267.51
473.28	267.02
473.65	266.58
474.02	266.09
474.38	265.74
474.75	265.36
475.11	264.97
475.48	264.72
475.85	264.46
476.21	264.23
476.58	264.03
476.94	263.84
477.31	263.62
477.67	263.44
478.04	263.31
478.41	263.21
478.77	263.26
479.14	263.18
479.50	263.18
479.87	263.28
480.23	263.39
480.60	263.45
480.96	263.54
481.33	263.72
481.69	263.93
482.06	264.08
482.42	264.28
482.79	264.51
483.15	264.82
483.52	265.21
483.88	265.55
484.25	265.94
484.61	266.30
484.98	266.76
485.34	267.31
485.71	267.84
486.07	268.46
486.44	269.01
486.80	269.66
487.17	270.37
487.53	271.17
487.90	271.99
488.26	272.91
488.62	273.87
488.99	274.79
489.35	275.80
489.72	276.90
490.08	278.11
490.44	279.36
490.81	280.69
491.17	282.00
491.54	283.48
491.90	284.98
492.26	286.63
492.63	288.35
492.99	290.10
493.36	292.01
493.72	294.01
494.08	296.11
494.45	298.39
494.81	300.74
495.17	303.14
495.54	305.68
495.90	308.33
496.26	311.12
496.63	314.09
496.99	317.15
497.35	320.39
497.72	323.77
498.08	327.28
498.44	330.93
498.80	334.78
499.17	338.72
499.53	342.89
499.89	347.24
500.26	351.68
500.62	356.36
500.98	361.28
501.34	366.31
501.71	371.57
502.07	376.90
502.43	382.44
502.79	388.25
503.16	394.24
503.52	400.50
503.88	406.83
504.24	413.40
504.60	420.29
504.97	427.37
505.33	434.60
505.69	442.22
506.05	449.91
506.41	457.73
506.78	465.90
507.14	474.24
507.50	482.88
507.86	491.86
508.22	500.98
508.59	510.15
508.95	519.70
509.31	529.41
509.67	539.50
510.03	549.74
510.39	560.23
510.75	571.02
511.12	581.85
511.48	593.12
511.84	604.55
512.20	615.97
512.56	627.95
512.92	640.14
513.28	652.42
513.64	664.89
514.00	677.66
514.37	690.53
514.73	703.52
515.09	716.54
515.45	729.84
515.81	743.42
516.17	757.35
516.53	771.39
516.89	785.58
517.25	799.76
517.61	814.12
517.97	828.59
518.33	842.95
518.69	857.78
519.05	872.80
519.41	887.91
519.77	903.42
520.13	918.86
520.49	934.18
520.85	949.58
521.21	965.22
521.57	981.57
521.93	997.36
522.29	1013.86
522.65	1030.22
523.01	1046.54
523.37	1062.59
523.73	1078.79
524.09	1095.02
524.45	1111.33
524.81	1127.96
525.17	1144.99
525.53	1161.95
525.89	1178.87
526.25	1195.69
526.61	1212.07
526.97	1228.95
527.33	1245.57
527.68	1262.20
528.04	1278.86
528.40	1295.64
528.76	1312.80
529.12	1329.32
529.48	1346.24
529.84	1362.32
530.20	1379.01
530.56	1395.95
530.91	1413.40
531.27	1430.30
531.63	1446.80
531.99	1463.53
532.35	1479.65
532.71	1495.40
533.07	1511.78
533.42	1527.79
533.78	1543.86
534.14	1560.16
534.50	1575.47
534.86	1591.34
535.21	1606.52
535.57	1622.50
535.93	1638.05
536.29	1652.86
536.65	1668.04
537.00	1682.96
537.36	1698.25
537.72	1712.77
538.08	1727.22
538.44	1741.14
538.79	1754.97
539.15	1768.76
539.51	1782.59
539.87	1796.91
540.22	1810.76
540.58	1824.25
540.94	1837.59
541.29	1850.53
541.65	1863.33
542.01	1876.63
542.37	1888.87
542.72	1901.44
543.08	1913.22
543.44	1925.55
543.79	1936.82
544.15	1947.73
544.51	1959.22
544.87	1970.19
545.22	1980.94
545.58	1991.18
545.94	2001.01
546.29	2010.94
546.65	2020.75
547.01	2029.80
547.36	2038.55
547.72	2047.05
548.07	2055.17
548.43	2063.41
548.79	2071.46
549.14	2078.98
549.50	2086.26
549.86	2094.01
550.21	2101.29
550.57	2108.38
550.92	2114.95
551.28	2122.05
551.64	2129.04
551.99	2135.48
552.35	2141.63
552.70	2147.72
553.06	2153.65
553.41	2159.74
553.77	2165.60
554.13	2171.52
554.48	2177.61
554.84	2182.77
555.19	2187.98
555.55	2192.88
555.90	2197.25
556.26	2202.00
556.61	2206.56
556.97	2210.66
557.32	2214.71
557.68	2218.70
558.03	2222.89
558.39	2226.36
558.74	2230.70
559.10	2234.47
559.45	2238.03
559.81	2242.21
560.16	2245.97
560.52	2249.00
560.87	2252.42
561.23	2254.87
561.58	2257.60
561.94	2260.02
562.29	2262.37
562.64	2264.84
563.00	2267.43
563.35	2270.91
563.71	2273.89
564.06	2276.78
564.42	2279.59
564.77	2282.01
565.12	2284.06
565.48	2285.81
565.83	2287.52
566.19	2288.72
566.54	2289.44
566.89	2290.51
567.25	2290.76
567.60	2291.88
567.96	2293.35
568.31	2293.69
568.66	2294.73
569.02	2295.13
569.37	2295.22
569.72	2295.93
570.08	2295.92
570.43	2295.67
570.78	2294.53
571.14	2292.67
571.49	2291.16
571.84	2290.55
572.20	2289.00
572.55	2287.54
572.90	2285.53
573.26	2283.91
573.61	2281.96
573.96	2279.93
574.31	2276.68
574.67	2273.48
575.02	2269.44
575.37	2265.87
575.72	2261.86
576.08	2258.21
576.43	2254.79
576.78	2251.00
577.13	2247.44
577.49	2244.13
577.84	2240.43
578.19	2236.56
578.54	2232.77
578.90	2228.40
579.25	2222.70
579.60	2217.60
579.95	2212.49
580.30	2207.25
580.66	2201.67
581.01	2196.42
581.36	2191.25
581.71	2186.75
582.06	2182.15
582.42	2177.59
582.77	2172.12
583.12	2167.54
583.47	2162.57
583.82	2157.24
584.17	2151.81
584.53	2146.23
584.88	2140.30
585.23	2134.31
585.58	2128.71
585.93	2123.04
586.28	2118.06
586.63	2112.72
586.98	2107.59
587.34	2102.92
587.69	2097.91
588.04	2092.72
588.39	2087.08
588.74	2080.51
589.09	2074.32
589.44	2067.33
589.79	2061.03
590.14	2055.19
590.49	2048.43
590.84	2041.82
591.19	2035.56
591.54	2028.87
591.89	2021.20
592.25	2014.27
592.60	2006.92
592.95	1999.11
593.30	1991.62
593.65	1983.86
594.00	1976.65
594.35	1969.13
594.70	1960.72
595.05	1953.65
595.40	1946.33
595.75	1938.74
596.10	1932.39
596.45	1925.33
596.80	1919.04
597.15	1912.43
597.50	1905.37
597.85	1898.85
598.19	1892.44
598.54	1885.52
598.89	1878.87
599.24	1873.10
599.59	1866.35
599.94	1860.07
600.29	1853.67
600.64	1847.05
600.99	1839.71
601.34	1833.02
601.69	1825.98
602.04	1819.19
602.39	1811.75
602.74	1804.94
603.08	1798.18
603.43	1791.53
603.78	1784.52
604.13	1777.36
604.48	1770.06
604.83	1763.19
605.18	1756.22
605.53	1748.09
605.87	1740.11
606.22	1733.01
606.57	1725.16
606.92	1717.77
607.27	1710.64
607.62	1703.88
607.96	1696.64
608.31	1690.05
608.66	1682.33
609.01	1674.96
609.36	1667.44
609.70	1659.42
610.05	1651.45
610.40	1643.84
610.75	1635.61
611.10	1627.92
611.44	1619.66
611.79	1611.88
612.14	1603.30
612.49	1594.32
612.83	1586.09
613.18	1578.11
613.53	1569.98
613.88	1561.43
614.22	1553.38
614.57	1544.92
614.92	1537.03
615.27	1529.73
615.61	1521.58
615.96	1513.76
616.31	1506.21
616.65	1498.93
617.00	1491.48
617.35	1483.78
617.70	1475.48
618.04	1466.93
618.39	1458.75
618.74	1451.17
619.08	1442.97
619.43	1435.63
619.78	1428.80
620.12	1421.70
620.47	1414.17
620.82	1406.14
621.16	1398.86
621.51	1391.32
621.85	1383.86
622.20	1375.44
622.55	1367.22
622.89	1359.39
623.24	1351.85
623.59	1344.70
623.93	1337.35
624.28	1330.24
624.62	1322.94
624.97	1315.87
625.32	1309.28
625.66	1302.41
626.01	1295.51
626.35	1288.14
626.70	1280.36
627.04	1272.83
627.39	1265.26
627.73	1258.02
628.08	1251.26
628.43	1244.12
628.77	1236.89
629.12	1229.32
629.46	1222.31
629.81	1214.93
630.15	1207.98
630.50	1200.76
630.84	1192.70
631.19	1184.83
631.53	1177.42
631.88	1169.98
632.22	1162.37
632.57	1155.29
632.91	1147.87
633.26	1140.45
633.60	1133.29
633.95	1126.42
634.29	1119.36
634.64	1112.71
634.98	1105.40
635.32	1098.29
635.67	1091.79
636.01	1085.26
636.36	1078.72
636.70	1072.25
637.05	1065.76
637.39	1059.35
637.73	1052.92
638.08	1047.01
638.42	1041.13
638.77	1034.85
639.11	1028.38
639.45	1022.26
639.80	1015.64
640.14	1009.29
640.49	1002.85
640.83	996.63
641.17	990.46
641.52	984.37
641.86	978.04
642.20	972.27
642.55	966.15
642.89	959.77
643.23	953.36
643.58	947.62
643.92	941.55
644.26	935.66
644.61	929.66
644.95	923.75
645.29	917.24
645.64	910.60
645.98	904.30
646.32	898.45
646.66	892.49
647.01	886.80
647.35	881.27
647.69	875.53
648.04	870.02
648.38	864.32
648.72	858.28
649.06	852.19
649.41	846.36
649.75	840.35
650.09	834.43
650.43	828.67
650.78	822.52
651.12	816.63
651.46	810.88
651.80	805.16
652.14	799.72
652.49	794.44
652.83	789.34
653.17	783.67
653.51	778.03
653.85	772.66
654.20	767.05
654.54	761.05
654.88	755.36
655.22	749.55
655.56	743.86
655.90	738.47
656.25	733.42
656.59	728.16
656.93	723.19
657.27	718.15
657.61	712.78
657.95	707.77
658.29	702.70
658.64	697.59
658.98	692.43
659.32	687.07
659.66	681.95
660.00	676.72
660.34	671.93
660.68	667.13
661.02	662.22
661.36	657.56
661.70	653.17
662.05	648.85
662.39	644.54
662.73	640.12
663.07	635.82
663.41	631.43
663.75	627.01
664.09	622.47
664.43	618.15
664.77	614.10
665.11	609.97
665.45	605.98
665.79	601.94
666.13	597.85
666.47	593.83
666.81	589.69
667.15	585.64
667.49	581.79
667.83	577.96
668.17	574.07
668.51	570.10
668.85	566.06
669.19	562.31
669.53	558.61
669.87	554.82
670.21	551.15
670.55	547.54
670.89	544.18
671.23	540.85
671.57	537.40
671.91	533.94
672.25	530.49
672.58	527.03
672.92	523.68
673.26	520.59
673.60	517.53
673.94	514.48
674.28	511.59
674.62	508.74
674.96	505.78
675.30	502.95
675.64	500.09
675.97	497.44
676.31	494.63
676.65	491.67
676.99	489.03
677.33	486.25
677.67	483.44
678.01	480.45
678.34	477.49
678.68	474.68
679.02	471.97
679.36	469.25
679.70	466.52
680.04	463.85
680.37	461.03
680.71	458.22
681.05	455.66
681.39	452.98
681.73	450.33
682.06	447.81
682.40	445.27
682.74	442.78
683.08	440.23
683.42	437.66
683.75	435.23
684.09	432.69
684.43	430.26
684.77	427.91
685.10	425.59
685.44	423.34
685.78	421.07
686.12	418.79
686.45	416.50
686.79	414.22
687.13	412.05
687.46	409.90
687.80	407.80
688.14	405.63
688.48	403.64
688.81	401.41
689.15	399.25
689.49	397.12
689.82	395.07
690.16	393.01
690.50	391.07
690.83	389.14
691.17	387.19
691.51	385.32
691.84	383.49
692.18	381.59
692.52	379.61
692.85	377.69
693.19	375.86
693.52	374.08
693.86	372.33
694.20	370.56
694.53	368.79
694.87	366.99
695.21	365.20
695.54	363.43
695.88	361.76
696.21	360.06
696.55	358.41
696.88	356.75
697.22	355.13
697.56	353.55
697.89	351.93
698.23	350.40
698.56	348.82
698.90	347.25
699.23	345.61
699.57	344.10
699.90	342.61
700.24	341.09
700.58	339.57
700.91	338.10
701.25	336.69
701.58	335.39
701.92	334.02
702.25	332.70
702.59	331.35
702.92	330.02
703.26	328.77
703.59	327.50
703.93	326.29
704.26	325.11
704.60	323.86
704.93	322.66
705.26	321.45
705.60	320.29
705.93	319.13
706.27	318.17
706.60	317.15
706.94	316.09
707.27	314.97
707.61	313.91
707.94	312.89
708.27	311.78
708.61	310.69
708.94	309.68
709.28	308.70
709.61	307.75
709.94	306.83
710.28	305.77
710.61	304.86
710.95	303.84
711.28	302.93
711.61	302.02
711.95	301.09
712.28	300.11
712.61	299.16
712.95	298.25
713.28	297.34
713.61	296.42
713.95	295.53
714.28	294.70
714.61	293.92
714.95	293.09
715.28	292.28
715.61	291.41
715.95	290.56
716.28	289.73
716.61	288.89
716.95	288.09
717.28	287.38
717.61	286.58
717.94	285.82
718.28	285.04
718.61	284.29
718.94	283.65
719.27	283.02
719.61	282.38
719.94	281.76
720.27	281.04
720.60	280.42
720.94	279.81
721.27	279.23
721.60	278.61
721.93	278.03
722.27	277.49
722.60	276.96
722.93	276.42
723.26	275.92
723.59	275.39
723.93	274.85
724.26	274.31
724.59	273.78
724.92	273.26
725.25	272.75
725.59	272.26
725.92	271.72
726.25	271.19
726.58	270.67
726.91	270.18
727.24	269.71
727.57	269.23
727.91	268.71
728.24	268.22
728.57	267.70
728.90	267.25
729.23	266.75
729.56	266.35
729.89	265.88
730.22	265.37
730.55	264.91
730.89	264.44
731.22	263.98
731.55	263.58
731.88	263.18
732.21	262.75
732.54	262.30
732.87	261.86
733.20	261.44
733.53	261.05
733.86	260.63
734.19	260.24
734.52	259.87
734.85	259.58
735.18	259.17
735.51	258.79
735.84	258.40
736.17	258.02
736.50	257.59
736.83	257.36
737.16	257.04
737.49	256.72
737.82	256.39
738.15	256.11
738.48	255.76
738.81	255.43
739.14	255.11
739.47	254.82
739.80	254.50
740.13	254.22
740.46	253.92
740.79	253.64
741.12	253.35
741.45	253.01
741.78	252.66
742.11	252.39
742.44	252.12
742.77	251.84
743.10	251.57
743.43	251.29
743.75	250.85
744.08	250.73
744.41	250.45
744.74	250.19
745.07	249.83
745.40	249.63
745.73	249.37
746.06	249.12
746.39	248.84
746.71	248.60
747.04	248.34
747.37	248.11
747.70	247.84
748.03	247.60
748.36	247.38
748.68	247.18
749.01	246.96
749.34	246.71
749.67	246.50
750.00	246.31
750.33	246.16
750.65	246.00
750.98	245.61
751.31	245.38
751.64	245.17
751.97	245.04
752.29	244.79
752.62	244.56
752.95	244.33
753.28	244.14
753.60	243.94
753.93	243.75
754.26	243.57
754.59	243.34
754.91	243.09
755.24	242.89
755.57	242.69
755.90	242.50
756.22	242.31
756.55	242.13
756.88	241.91
757.20	241.67
757.53	241.48
757.86	241.33
758.19	241.19
758.51	241.02
758.84	240.81
759.17	240.62
759.49	240.50
759.82	240.38
760.15	240.23
760.47	240.09
760.80	239.97
761.13	239.79
761.45	239.67
761.78	239.55
762.11	239.45
762.43	239.29
762.76	239.15
763.08	239.07
763.41	238.95
763.74	238.81
764.06	238.66
764.39	238.54
764.71	238.42
765.04	238.28
765.37	238.13
765.69	238.02
766.02	237.91
766.34	237.75
766.67	237.60
767.00	237.48
767.32	237.40
767.65	237.32
767.97	237.22
768.30	237.10
768.62	236.99
768.95	236.83
769.27	236.75
769.60	236.64
769.92	236.51
770.25	236.36
770.57	236.25
770.90	236.17
771.22	236.04
771.55	235.94
771.87	235.85
772.20	235.79
772.52	235.78
772.85	235.77
773.17	235.65
773.50	235.56
773.82	235.48
774.15	235.32
774.47	235.18
774.80	235.07
775.12	235.01
775.45	234.93
775.77	234.88
776.09	234.77
776.42	234.70
776.74	234.63
777.07	234.53
777.39	234.44
777.72	234.34
778.04	234.30
778.36	234.21
778.69	234.14
779.01	234.04
779.33	233.89
779.66	233.73
779.98	233.70
780.31	233.63
780.63	233.58
780.95	233.55
781.28	233.46
781.60	233.39
781.92	233.30
782.25	233.23
782.57	233.14
782.89	233.08
783.22	232.98
783.54	232.88
783.86	232.86
784.19	232.80
784.51	232.76
784.83	232.67
785.16	232.61
785.48	232.56
785.80	232.52
786.12	232.47
786.45	232.42
786.77	232.35
787.09	232.31
