SpectraSuite Data File
++++++++++++++++++++++++++++++++++++
Date: Fri Feb 01 15:34:32 EST 2013
User: group
Dark Spectrum Present: No
Reference Spectrum Present: No
Number of Sampled Component Spectra: 1
Spectrometers: USB2E7196
Integration Time (usec): 35000 (USB2E7196)
Spectra Averaged: 100 (USB2E7196)
Boxcar Smoothing: 10 (USB2E7196)
Correct for Electrical Dark: No (USB2E7196)
Strobe/Lamp Enabled: No (USB2E7196)
Correct for Detector Non-linearity: No (USB2E7196)
Correct for Stray Light: No (USB2E7196)
Number of Pixels in Processed Spectrum: 2048
>>>>>Begin Processed Spectral Data<<<<<
339.09	0.00
339.48	214.82
339.86	216.59
340.24	218.54
340.63	219.46
341.01	222.13
341.39	222.35
341.78	223.20
342.16	224.50
342.54	225.05
342.93	213.41
343.31	224.19
343.69	224.77
344.07	225.24
344.46	225.65
344.84	226.05
345.22	226.30
345.60	226.52
345.99	226.70
346.37	226.83
346.75	226.92
347.13	226.97
347.52	227.05
347.90	227.14
348.28	227.18
348.66	227.19
349.05	227.20
349.43	227.20
349.81	227.24
350.19	227.28
350.57	227.34
350.96	227.43
351.34	227.53
351.72	227.57
352.10	227.65
352.48	227.71
352.87	227.74
353.25	227.79
353.63	227.88
354.01	227.95
354.39	228.02
354.77	228.13
355.15	228.26
355.54	228.34
355.92	228.36
356.30	228.40
356.68	228.53
357.06	228.59
357.44	228.66
357.82	228.71
358.20	228.75
358.58	228.82
358.97	228.86
359.35	228.92
359.73	229.00
360.11	229.04
360.49	229.08
360.87	229.12
361.25	229.16
361.63	229.23
362.01	229.25
362.39	229.30
362.77	229.32
363.15	229.31
363.53	229.31
363.91	229.35
364.29	229.37
364.67	229.31
365.05	229.31
365.43	229.32
365.81	229.34
366.19	229.41
366.57	229.43
366.95	229.39
367.33	229.34
367.71	229.35
368.09	229.35
368.47	229.32
368.85	229.27
369.23	229.26
369.61	229.19
369.99	229.21
370.37	229.14
370.75	229.13
371.13	229.09
371.51	229.04
371.89	229.02
372.27	228.97
372.65	228.92
373.03	228.89
373.41	228.81
373.78	228.75
374.16	228.64
374.54	228.54
374.92	228.48
375.30	228.40
375.68	228.29
376.06	228.24
376.44	228.15
376.82	228.11
377.19	228.01
377.57	227.89
377.95	227.79
378.33	227.70
378.71	227.59
379.09	227.50
379.47	227.41
379.84	227.32
380.22	227.27
380.60	227.21
380.98	227.13
381.36	227.06
381.73	227.00
382.11	226.95
382.49	226.89
382.87	226.83
383.25	226.79
383.62	226.83
384.00	226.76
384.38	226.73
384.76	226.65
385.13	226.66
385.51	226.67
385.89	226.58
386.27	226.53
386.64	226.50
387.02	226.47
387.40	226.43
387.78	226.38
388.15	226.32
388.53	226.29
388.91	226.26
389.29	226.22
389.66	226.20
390.04	226.18
390.42	226.19
390.79	226.18
391.17	226.16
391.55	226.09
391.92	226.10
392.30	226.10
392.68	226.09
393.05	226.12
393.43	226.09
393.81	226.15
394.18	226.17
394.56	226.18
394.94	226.19
395.31	226.20
395.69	226.24
396.06	226.30
396.44	226.32
396.82	226.33
397.19	226.43
397.57	226.46
397.95	226.55
398.32	226.60
398.70	226.69
399.07	226.80
399.45	226.84
399.82	226.90
400.20	226.98
400.58	227.07
400.95	227.10
401.33	227.24
401.70	227.38
402.08	227.50
402.45	227.62
402.83	227.76
403.20	227.91
403.58	228.03
403.95	228.16
404.33	228.32
404.71	228.45
405.08	228.67
405.46	228.82
405.83	228.93
406.21	229.07
406.58	229.23
406.96	229.38
407.33	229.57
407.70	229.78
408.08	230.06
408.45	230.28
408.83	230.52
409.20	230.71
409.58	230.86
409.95	231.14
410.33	231.37
410.70	231.63
411.08	231.92
411.45	232.21
411.82	232.54
412.20	232.89
412.57	233.29
412.95	233.55
413.32	233.95
413.69	234.35
414.07	234.76
414.44	235.21
414.82	235.66
415.19	236.18
415.56	236.72
415.94	237.25
416.31	237.87
416.68	238.45
417.06	239.14
417.43	239.85
417.81	240.59
418.18	241.38
418.55	242.18
418.93	243.04
419.30	243.94
419.67	244.84
420.04	245.77
420.42	246.79
420.79	247.94
421.16	249.10
421.54	250.30
421.91	251.51
422.28	252.79
422.66	254.09
423.03	255.42
423.40	256.75
423.77	258.10
424.15	259.54
424.52	261.05
424.89	262.68
425.26	264.25
425.64	265.66
426.01	267.25
426.38	268.95
426.75	270.63
427.13	272.34
427.50	274.14
427.87	276.04
428.24	277.89
428.61	279.68
428.99	281.59
429.36	283.66
429.73	285.76
430.10	287.78
430.47	289.88
430.85	292.00
431.22	294.22
431.59	296.62
431.96	298.84
432.33	301.31
432.70	303.72
433.08	306.49
433.45	309.18
433.82	311.82
434.19	314.73
434.56	317.57
434.93	320.31
435.30	322.95
435.68	325.85
436.05	328.72
436.42	331.53
436.79	334.11
437.16	336.85
437.53	339.65
437.90	342.49
438.27	345.29
438.64	348.10
439.01	350.70
439.38	352.98
439.75	355.14
440.13	357.65
440.50	359.97
440.87	361.85
441.24	363.77
441.61	365.95
441.98	367.43
442.35	369.22
442.72	371.03
443.09	372.88
443.46	373.83
443.83	374.41
444.20	374.96
444.57	375.78
444.94	376.11
445.31	376.46
445.68	376.75
446.05	376.80
446.42	376.43
446.79	376.04
447.16	375.59
447.53	375.29
447.90	374.14
448.27	373.01
448.64	371.47
449.01	370.35
449.37	368.34
449.74	366.43
450.11	364.20
450.48	361.71
450.85	359.15
451.22	357.04
451.59	355.03
451.96	353.05
452.33	350.41
452.70	348.01
453.07	345.19
453.43	342.29
453.80	339.55
454.17	336.89
454.54	334.33
454.91	331.62
455.28	328.96
455.65	326.43
456.02	323.96
456.38	321.75
456.75	319.07
457.12	316.81
457.49	314.62
457.86	312.43
458.23	310.61
458.59	308.55
458.96	306.44
459.33	304.55
459.70	302.65
460.07	301.17
460.43	299.46
460.80	297.82
461.17	296.40
461.54	294.84
461.91	293.40
462.27	291.98
462.64	290.74
463.01	289.40
463.38	288.13
463.74	286.76
464.11	285.64
464.48	284.62
464.85	283.50
465.21	282.60
465.58	281.68
465.95	280.57
466.32	279.66
466.68	278.76
467.05	277.85
467.42	276.94
467.78	276.00
468.15	275.09
468.52	274.45
468.88	273.58
469.25	272.87
469.62	272.23
469.98	271.52
470.35	270.87
470.72	270.25
471.08	269.60
471.45	269.04
471.82	268.44
472.18	267.82
472.55	267.38
472.92	266.82
473.28	266.33
473.65	265.88
474.02	265.43
474.38	265.03
474.75	264.73
475.11	264.40
475.48	264.11
475.85	263.90
476.21	263.65
476.58	263.44
476.94	263.26
477.31	263.04
477.67	262.90
478.04	262.77
478.41	262.72
478.77	262.73
479.14	262.67
479.50	262.70
479.87	262.79
480.23	262.88
480.60	262.95
480.96	263.04
481.33	263.24
481.69	263.46
482.06	263.69
482.42	263.88
482.79	264.15
483.15	264.50
483.52	264.88
483.88	265.22
484.25	265.62
484.61	266.04
484.98	266.52
485.34	267.11
485.71	267.69
486.07	268.30
486.44	268.89
486.80	269.62
487.17	270.32
487.53	271.17
487.90	272.03
488.26	272.98
488.62	273.98
488.99	274.98
489.35	276.03
489.72	277.15
490.08	278.35
490.44	279.59
490.81	280.95
491.17	282.30
491.54	283.82
491.90	285.39
492.26	287.04
492.63	288.79
492.99	290.55
493.36	292.46
493.72	294.45
494.08	296.56
494.45	298.81
494.81	301.21
495.17	303.62
495.54	306.21
495.90	308.87
496.26	311.70
496.63	314.63
496.99	317.72
497.35	320.95
497.72	324.34
498.08	327.82
498.44	331.46
498.80	335.42
499.17	339.43
499.53	343.59
499.89	347.97
500.26	352.49
500.62	357.18
500.98	362.14
501.34	367.26
501.71	372.61
502.07	378.09
502.43	383.61
502.79	389.46
503.16	395.46
503.52	401.78
503.88	408.17
504.24	414.79
504.60	421.69
504.97	428.87
505.33	436.18
505.69	443.93
506.05	451.71
506.41	459.54
506.78	467.65
507.14	476.12
507.50	484.87
507.86	493.84
508.22	503.03
508.59	512.26
508.95	521.86
509.31	531.57
509.67	541.59
510.03	552.00
510.39	562.51
510.75	573.34
511.12	584.28
511.48	595.52
511.84	606.98
512.20	618.50
512.56	630.45
512.92	642.68
513.28	654.94
513.64	667.40
514.00	680.18
514.37	693.17
514.73	706.19
515.09	719.22
515.45	732.57
515.81	746.20
516.17	760.22
516.53	774.42
516.89	788.67
517.25	802.88
517.61	817.29
517.97	831.78
518.33	846.28
518.69	861.05
519.05	876.11
519.41	891.39
519.77	906.96
520.13	922.45
520.49	937.82
520.85	953.42
521.21	969.13
521.57	985.32
521.93	1001.25
522.29	1017.72
522.65	1034.02
523.01	1050.22
523.37	1066.21
523.73	1082.42
524.09	1098.43
524.45	1114.78
524.81	1131.47
525.17	1148.37
525.53	1165.30
525.89	1182.20
526.25	1199.10
526.61	1215.45
526.97	1232.12
527.33	1248.56
527.68	1265.17
528.04	1281.78
528.40	1298.44
528.76	1315.54
529.12	1332.16
529.48	1348.93
529.84	1365.04
530.20	1381.70
530.56	1398.72
530.91	1416.16
531.27	1433.02
531.63	1449.52
531.99	1466.22
532.35	1482.22
532.71	1498.01
533.07	1514.24
533.42	1530.08
533.78	1546.10
534.14	1562.46
534.50	1577.89
534.86	1593.93
535.21	1609.19
535.57	1625.10
535.93	1640.55
536.29	1655.46
536.65	1670.60
537.00	1685.42
537.36	1700.61
537.72	1715.10
538.08	1729.61
538.44	1743.47
538.79	1757.22
539.15	1770.94
539.51	1784.73
539.87	1799.03
540.22	1812.93
540.58	1826.85
540.94	1840.32
541.29	1853.32
541.65	1866.00
542.01	1879.26
542.37	1891.54
542.72	1903.95
543.08	1915.78
543.44	1928.11
543.79	1939.31
544.15	1950.27
544.51	1961.88
544.87	1972.98
545.22	1983.85
545.58	1994.07
545.94	2003.88
546.29	2013.81
546.65	2023.64
547.01	2032.76
547.36	2041.43
547.72	2049.82
548.07	2057.77
548.43	2066.02
548.79	2074.11
549.14	2081.65
549.50	2089.11
549.86	2096.90
550.21	2104.29
550.57	2111.38
550.92	2118.08
551.28	2125.21
551.64	2132.48
551.99	2139.08
552.35	2145.19
552.70	2151.35
553.06	2157.37
553.41	2163.72
553.77	2169.78
554.13	2175.80
554.48	2181.93
554.84	2187.49
555.19	2192.97
555.55	2197.96
555.90	2202.33
556.26	2206.93
556.61	2211.69
556.97	2215.80
557.32	2219.82
557.68	2223.88
558.03	2228.25
558.39	2231.95
558.74	2236.54
559.10	2240.18
559.45	2243.69
559.81	2248.00
560.16	2251.79
560.52	2255.00
560.87	2258.41
561.23	2261.02
561.58	2264.14
561.94	2266.69
562.29	2269.05
562.64	2271.49
563.00	2274.16
563.35	2277.73
563.71	2281.14
564.06	2284.31
564.42	2287.06
564.77	2289.58
565.12	2291.77
565.48	2293.61
565.83	2295.37
566.19	2296.67
566.54	2297.70
566.89	2298.93
567.25	2299.49
567.60	2300.90
567.96	2302.63
568.31	2303.51
568.66	2304.66
569.02	2305.19
569.37	2305.46
569.72	2306.35
570.08	2306.50
570.43	2306.48
570.78	2305.88
571.14	2304.24
571.49	2302.92
571.84	2302.71
572.20	2301.44
572.55	2300.31
572.90	2298.79
573.26	2297.46
573.61	2295.75
573.96	2293.85
574.31	2290.80
574.67	2287.73
575.02	2283.93
575.37	2280.38
575.72	2276.43
576.08	2272.95
576.43	2269.49
576.78	2265.93
577.13	2262.76
577.49	2259.70
577.84	2256.11
578.19	2252.40
578.54	2248.63
578.90	2244.40
579.25	2238.82
579.60	2233.87
579.95	2228.94
580.30	2223.81
580.66	2218.57
581.01	2213.53
581.36	2208.61
581.71	2204.43
582.06	2200.01
582.42	2195.53
582.77	2190.23
583.12	2185.45
583.47	2180.71
583.82	2175.79
584.17	2170.40
584.53	2164.80
584.88	2159.13
585.23	2153.30
585.58	2147.63
585.93	2142.02
586.28	2137.32
586.63	2132.25
586.98	2127.15
587.34	2122.37
587.69	2117.47
588.04	2112.16
588.39	2106.40
588.74	2099.89
589.09	2093.75
589.44	2086.98
589.79	2080.99
590.14	2075.45
590.49	2068.92
590.84	2062.62
591.19	2056.40
591.54	2050.01
591.89	2042.49
592.25	2035.60
592.60	2028.32
592.95	2020.68
593.30	2013.38
593.65	2005.70
594.00	1998.51
594.35	1991.22
594.70	1983.12
595.05	1975.75
595.40	1968.37
595.75	1960.79
596.10	1954.47
596.45	1947.55
596.80	1941.35
597.15	1934.66
597.50	1927.44
597.85	1921.09
598.19	1914.27
598.54	1907.16
598.89	1900.38
599.24	1894.54
599.59	1887.79
599.94	1881.58
600.29	1875.11
600.64	1868.60
600.99	1861.06
601.34	1854.12
601.69	1847.07
602.04	1840.19
602.39	1833.01
602.74	1826.13
603.08	1819.49
603.43	1812.87
603.78	1805.69
604.13	1798.31
604.48	1790.94
604.83	1784.09
605.18	1777.00
605.53	1769.07
605.87	1761.04
606.22	1753.84
606.57	1745.84
606.92	1738.45
607.27	1731.14
607.62	1724.38
607.96	1717.03
608.31	1710.28
608.66	1702.72
609.01	1695.20
609.36	1687.57
609.70	1679.49
610.05	1671.51
610.40	1663.73
610.75	1655.25
611.10	1647.48
611.44	1639.10
611.79	1631.16
612.14	1622.34
612.49	1613.17
612.83	1604.72
613.18	1596.71
613.53	1588.57
613.88	1580.08
614.22	1571.89
614.57	1563.38
614.92	1555.25
615.27	1547.56
615.61	1539.34
615.96	1531.32
616.31	1523.69
616.65	1516.27
617.00	1508.72
617.35	1501.07
617.70	1492.55
618.04	1484.02
618.39	1475.75
618.74	1468.03
619.08	1459.65
619.43	1452.15
619.78	1445.19
620.12	1438.01
620.47	1430.46
620.82	1422.22
621.16	1414.74
621.51	1407.03
621.85	1399.45
622.20	1390.96
622.55	1382.64
622.89	1374.73
623.24	1367.12
623.59	1359.70
623.93	1352.33
624.28	1345.10
624.62	1337.48
624.97	1330.53
625.32	1323.82
625.66	1316.91
626.01	1309.76
626.35	1302.28
626.70	1294.49
627.04	1286.77
627.39	1279.05
627.73	1271.50
628.08	1264.65
628.43	1257.34
628.77	1250.02
629.12	1242.35
629.46	1235.20
629.81	1227.87
630.15	1220.68
630.50	1213.17
630.84	1205.08
631.19	1197.11
631.53	1189.54
631.88	1181.99
632.22	1174.32
632.57	1167.04
632.91	1159.36
633.26	1151.97
633.60	1144.66
633.95	1137.66
634.29	1130.64
634.64	1123.92
634.98	1116.57
635.32	1109.36
635.67	1102.89
636.01	1096.22
636.36	1089.55
636.70	1082.91
637.05	1076.36
637.39	1069.84
637.73	1063.46
638.08	1057.61
638.42	1051.68
638.77	1045.17
639.11	1038.57
639.45	1032.15
639.80	1025.44
640.14	1019.03
640.49	1012.45
640.83	1006.07
641.17	999.81
641.52	993.52
641.86	987.13
642.20	981.39
642.55	975.24
642.89	968.61
643.23	962.14
643.58	956.28
643.92	950.14
644.26	943.99
644.61	937.96
644.95	931.88
645.29	925.22
645.64	918.40
645.98	912.08
646.32	906.31
646.66	900.33
647.01	894.60
647.35	888.87
647.69	883.05
648.04	877.54
648.38	871.67
648.72	865.64
649.06	859.52
649.41	853.50
649.75	847.43
650.09	841.48
650.43	835.63
650.78	829.50
651.12	823.52
651.46	817.84
651.80	812.12
652.14	806.65
652.49	801.21
652.83	796.04
653.17	790.35
653.51	784.60
653.85	779.16
654.20	773.54
654.54	767.65
654.88	761.95
655.22	756.18
655.56	750.52
655.90	745.11
656.25	739.85
656.59	734.57
656.93	729.47
657.27	724.37
657.61	718.99
657.95	713.91
658.29	708.88
658.64	703.60
658.98	698.24
659.32	692.82
659.66	687.64
660.00	682.30
660.34	677.36
660.68	672.36
661.02	667.35
661.36	662.57
661.70	658.01
662.05	653.69
662.39	649.27
662.73	644.83
663.07	640.42
663.41	635.97
663.75	631.44
664.09	626.92
664.43	622.50
664.77	618.31
665.11	614.00
665.45	609.87
665.79	605.79
666.13	601.67
666.47	597.62
666.81	593.49
667.15	589.38
667.49	585.55
667.83	581.77
668.17	577.85
668.51	573.80
668.85	569.83
669.19	565.97
669.53	562.15
669.87	558.32
670.21	554.64
670.55	551.01
670.89	547.65
671.23	544.20
671.57	540.69
671.91	537.25
672.25	533.79
672.58	530.32
672.92	526.98
673.26	523.89
673.60	520.79
673.94	517.67
674.28	514.78
674.62	511.78
674.96	508.70
675.30	505.75
675.64	502.86
675.97	500.08
676.31	497.20
676.65	494.30
676.99	491.58
677.33	488.69
677.67	485.95
678.01	482.87
678.34	479.89
678.68	477.04
679.02	474.19
679.36	471.46
679.70	468.73
680.04	465.97
680.37	463.09
680.71	460.28
681.05	457.71
681.39	455.03
681.73	452.40
682.06	449.90
682.40	447.38
682.74	444.86
683.08	442.29
683.42	439.69
683.75	437.17
684.09	434.64
684.43	432.22
684.77	429.71
685.10	427.38
685.44	425.07
685.78	422.79
686.12	420.51
686.45	418.21
686.79	415.90
687.13	413.70
687.46	411.55
687.80	409.42
688.14	407.17
688.48	405.08
688.81	402.79
689.15	400.65
689.49	398.52
689.82	396.42
690.16	394.32
690.50	392.37
690.83	390.43
691.17	388.42
691.51	386.49
691.84	384.66
692.18	382.73
692.52	380.74
692.85	378.78
693.19	376.93
693.52	375.13
693.86	373.34
694.20	371.56
694.53	369.77
694.87	367.89
695.21	366.11
695.54	364.30
695.88	362.63
696.21	360.90
696.55	359.22
696.88	357.54
697.22	355.91
697.56	354.31
697.89	352.66
698.23	351.07
698.56	349.46
698.90	347.86
699.23	346.23
699.57	344.69
699.90	343.19
700.24	341.70
700.58	340.15
700.91	338.60
701.25	337.18
701.58	335.80
701.92	334.45
702.25	333.10
702.59	331.71
702.92	330.40
703.26	329.08
703.59	327.78
703.93	326.55
704.26	325.30
704.60	324.01
704.93	322.75
705.26	321.53
705.60	320.38
705.93	319.23
706.27	318.21
706.60	317.20
706.94	316.12
707.27	314.97
707.61	313.95
707.94	312.94
708.27	311.81
708.61	310.68
708.94	309.69
709.28	308.72
709.61	307.78
709.94	306.83
710.28	305.83
710.61	304.90
710.95	303.88
711.28	302.97
711.61	302.02
711.95	301.12
712.28	300.14
712.61	299.15
712.95	298.24
713.28	297.35
713.61	296.45
713.95	295.53
714.28	294.68
714.61	293.80
714.95	292.98
715.28	292.18
715.61	291.34
715.95	290.47
716.28	289.60
716.61	288.77
716.95	287.95
717.28	287.22
717.61	286.43
717.94	285.68
718.28	284.87
718.61	284.19
718.94	283.51
719.27	282.84
719.61	282.20
719.94	281.56
720.27	280.86
720.60	280.17
720.94	279.56
721.27	278.96
721.60	278.36
721.93	277.75
722.27	277.21
722.60	276.65
722.93	276.08
723.26	275.51
723.59	274.93
723.93	274.35
724.26	273.79
724.59	273.20
724.92	272.68
725.25	272.18
725.59	271.62
725.92	271.09
726.25	270.60
726.58	270.10
726.91	269.55
727.24	269.07
727.57	268.63
727.91	268.13
728.24	267.68
728.57	267.20
728.90	266.77
729.23	266.22
729.56	265.82
729.89	265.36
730.22	264.86
730.55	264.38
730.89	263.96
731.22	263.51
731.55	263.07
731.88	262.62
732.21	262.18
732.54	261.73
732.87	261.31
733.20	260.91
733.53	260.50
733.86	260.12
734.19	259.68
734.52	259.24
734.85	258.90
735.18	258.45
735.51	258.13
735.84	257.72
736.17	257.40
736.50	256.99
736.83	256.75
737.16	256.39
737.49	256.07
737.82	255.69
738.15	255.36
738.48	255.07
738.81	254.78
739.14	254.48
739.47	254.18
739.80	253.85
740.13	253.52
740.46	253.20
740.79	252.87
741.12	252.59
741.45	252.31
741.78	251.93
742.11	251.67
742.44	251.33
742.77	251.06
743.10	250.75
743.43	250.44
743.75	250.05
744.08	249.88
744.41	249.63
744.74	249.39
745.07	249.07
745.40	248.82
745.73	248.55
746.06	248.26
746.39	247.98
746.71	247.73
747.04	247.48
747.37	247.21
747.70	246.97
748.03	246.72
748.36	246.51
748.68	246.30
749.01	246.09
749.34	245.85
749.67	245.61
750.00	245.39
750.33	245.23
750.65	245.02
750.98	244.71
751.31	244.48
751.64	244.26
751.97	244.12
752.29	243.89
752.62	243.62
752.95	243.40
753.28	243.21
753.60	243.00
753.93	242.81
754.26	242.65
754.59	242.45
754.91	242.28
755.24	242.06
755.57	241.89
755.90	241.66
756.22	241.47
756.55	241.29
756.88	241.09
757.20	240.88
757.53	240.69
757.86	240.55
758.19	240.41
758.51	240.26
758.84	240.05
759.17	239.91
759.49	239.78
759.82	239.67
760.15	239.51
760.47	239.37
760.80	239.24
761.13	239.11
761.45	238.96
761.78	238.79
762.11	238.68
762.43	238.53
762.76	238.43
763.08	238.31
763.41	238.19
763.74	238.09
764.06	237.95
764.39	237.85
764.71	237.70
765.04	237.54
765.37	237.42
765.69	237.31
766.02	237.16
766.34	237.03
766.67	236.90
767.00	236.82
767.32	236.75
767.65	236.69
767.97	236.58
768.30	236.47
768.62	236.37
768.95	236.22
769.27	236.10
769.60	235.98
769.92	235.86
770.25	235.76
770.57	235.63
770.90	235.52
771.22	235.40
771.55	235.28
771.87	235.20
772.20	235.08
772.52	235.07
772.85	235.11
773.17	235.03
773.50	234.94
773.82	234.84
774.15	234.70
774.47	234.49
774.80	234.37
775.12	234.25
775.45	234.15
775.77	234.10
776.09	234.04
776.42	233.94
776.74	233.88
777.07	233.75
777.39	233.64
777.72	233.54
778.04	233.43
778.36	233.35
778.69	233.28
779.01	233.23
779.33	233.05
779.66	232.88
779.98	232.79
780.31	232.71
780.63	232.67
780.95	232.63
781.28	232.57
781.60	232.51
781.92	232.43
782.25	232.33
782.57	232.23
782.89	232.13
783.22	232.05
783.54	231.97
783.86	231.94
784.19	231.91
784.51	231.91
784.83	231.85
785.16	231.77
785.48	231.69
785.80	231.63
786.12	231.61
786.45	231.54
786.77	231.47
787.09	231.42
