SpectraSuite Data File
++++++++++++++++++++++++++++++++++++
Date: Fri Feb 01 17:52:09 EST 2013
User: group
Dark Spectrum Present: No
Reference Spectrum Present: No
Number of Sampled Component Spectra: 1
Spectrometers: USB2E7196
Integration Time (usec): 35000 (USB2E7196)
Spectra Averaged: 100 (USB2E7196)
Boxcar Smoothing: 10 (USB2E7196)
Correct for Electrical Dark: No (USB2E7196)
Strobe/Lamp Enabled: No (USB2E7196)
Correct for Detector Non-linearity: No (USB2E7196)
Correct for Stray Light: No (USB2E7196)
Number of Pixels in Processed Spectrum: 2048
>>>>>Begin Processed Spectral Data<<<<<
339.09	0.00
339.48	212.39
339.86	213.91
340.24	215.38
340.63	216.64
341.01	220.07
341.39	218.43
341.78	220.76
342.16	221.76
342.54	222.04
342.93	210.88
343.31	221.53
343.69	222.09
344.07	222.56
344.46	222.98
344.84	223.37
345.22	223.59
345.60	223.88
345.99	224.06
346.37	224.23
346.75	224.36
347.13	224.46
347.52	224.51
347.90	224.60
348.28	224.62
348.66	224.68
349.05	224.67
349.43	224.69
349.81	224.74
350.19	224.79
350.57	224.85
350.96	224.93
351.34	225.05
351.72	225.12
352.10	225.22
352.48	225.30
352.87	225.35
353.25	225.40
353.63	225.48
354.01	225.60
354.39	225.65
354.77	225.71
355.15	225.81
355.54	225.85
355.92	225.90
356.30	226.02
356.68	226.19
357.06	226.30
357.44	226.36
357.82	226.41
358.20	226.51
358.58	226.56
358.97	226.61
359.35	226.66
359.73	226.78
360.11	226.85
360.49	226.93
360.87	226.98
361.25	227.10
361.63	227.17
362.01	227.19
362.39	227.23
362.77	227.30
363.15	227.33
363.53	227.39
363.91	227.42
364.29	227.44
364.67	227.34
365.05	227.35
365.43	227.40
365.81	227.45
366.19	227.47
366.57	227.50
366.95	227.52
367.33	227.50
367.71	227.49
368.09	227.51
368.47	227.46
368.85	227.44
369.23	227.40
369.61	227.32
369.99	227.34
370.37	227.33
370.75	227.33
371.13	227.27
371.51	227.22
371.89	227.21
372.27	227.15
372.65	227.11
373.03	227.05
373.41	226.97
373.78	226.92
374.16	226.83
374.54	226.77
374.92	226.70
375.30	226.66
375.68	226.55
376.06	226.47
376.44	226.42
376.82	226.38
377.19	226.34
377.57	226.30
377.95	226.19
378.33	226.13
378.71	225.99
379.09	225.95
379.47	225.93
379.84	225.83
380.22	225.75
380.60	225.68
380.98	225.62
381.36	225.55
381.73	225.46
382.11	225.41
382.49	225.35
382.87	225.28
383.25	225.22
383.62	225.26
384.00	225.19
384.38	225.16
384.76	225.14
385.13	225.09
385.51	225.03
385.89	224.94
386.27	224.88
386.64	224.88
387.02	224.81
387.40	224.74
387.78	224.69
388.15	224.69
388.53	224.65
388.91	224.63
389.29	224.60
389.66	224.60
390.04	224.57
390.42	224.57
390.79	224.55
391.17	224.52
391.55	224.41
391.92	224.42
392.30	224.40
392.68	224.35
393.05	224.30
393.43	224.32
393.81	224.35
394.18	224.33
394.56	224.36
394.94	224.40
395.31	224.39
395.69	224.47
396.06	224.51
396.44	224.55
396.82	224.55
397.19	224.65
397.57	224.69
397.95	224.73
398.32	224.75
398.70	224.83
399.07	224.92
399.45	224.97
399.82	225.00
400.20	225.08
400.58	225.13
400.95	225.24
401.33	225.34
401.70	225.49
402.08	225.61
402.45	225.71
402.83	225.79
403.20	225.96
403.58	226.04
403.95	226.14
404.33	226.29
404.71	226.46
405.08	226.63
405.46	226.77
405.83	226.97
406.21	227.14
406.58	227.30
406.96	227.47
407.33	227.66
407.70	227.91
408.08	228.21
408.45	228.48
408.83	228.72
409.20	229.02
409.58	229.25
409.95	229.54
410.33	229.84
410.70	230.18
411.08	230.49
411.45	230.87
411.82	231.28
412.20	231.70
412.57	232.20
412.95	232.58
413.32	233.10
413.69	233.62
414.07	234.18
414.44	234.79
414.82	235.42
415.19	236.15
415.56	236.87
415.94	237.59
416.31	238.43
416.68	239.25
417.06	240.15
417.43	241.03
417.81	242.08
418.18	243.10
418.55	244.18
418.93	245.36
419.30	246.54
419.67	247.76
420.04	249.06
420.42	250.38
420.79	251.93
421.16	253.46
421.54	254.95
421.91	256.56
422.28	258.20
422.66	259.93
423.03	261.65
423.40	263.39
423.77	265.26
424.15	267.13
424.52	269.10
424.89	271.24
425.26	273.31
425.64	275.22
426.01	277.34
426.38	279.54
426.75	281.73
427.13	283.99
427.50	286.40
427.87	288.83
428.24	291.26
428.61	293.56
428.99	296.13
429.36	298.98
429.73	301.71
430.10	304.39
430.47	307.09
430.85	309.88
431.22	312.85
431.59	315.95
431.96	318.90
432.33	322.19
432.70	325.34
433.08	329.01
433.45	332.48
433.82	335.91
434.19	339.68
434.56	343.37
434.93	346.87
435.30	350.30
435.68	354.17
436.05	357.93
436.42	361.67
436.79	364.95
437.16	368.51
437.53	372.23
437.90	375.92
438.27	379.56
438.64	383.34
439.01	386.74
439.38	389.73
439.75	392.60
440.13	395.90
440.50	398.99
440.87	401.47
441.24	404.06
441.61	406.89
441.98	408.94
442.35	411.30
442.72	413.80
443.09	416.18
443.46	417.51
443.83	418.29
444.20	418.94
444.57	420.08
444.94	420.50
445.31	420.96
445.68	421.44
446.05	421.56
446.42	421.00
446.79	420.50
447.16	419.95
447.53	419.55
447.90	418.02
448.27	416.51
448.64	414.42
449.01	412.94
449.37	410.39
449.74	407.89
450.11	404.96
450.48	401.72
450.85	398.44
451.22	395.60
451.59	392.94
451.96	390.37
452.33	386.95
452.70	383.86
453.07	380.12
453.43	376.29
453.80	372.68
454.17	369.18
454.54	365.82
454.91	362.18
455.28	358.67
455.65	355.37
456.02	352.07
456.38	349.22
456.75	345.68
457.12	342.67
457.49	339.67
457.86	336.82
458.23	334.34
458.59	331.58
458.96	328.80
459.33	326.33
459.70	323.85
460.07	321.83
460.43	319.51
460.80	317.34
461.17	315.42
461.54	313.40
461.91	311.50
462.27	309.58
462.64	307.91
463.01	306.07
463.38	304.31
463.74	302.54
464.11	300.96
464.48	299.59
464.85	298.15
465.21	297.04
465.58	295.79
465.95	294.35
466.32	293.15
466.68	291.96
467.05	290.75
467.42	289.59
467.78	288.36
468.15	287.18
468.52	286.30
468.88	285.17
469.25	284.17
469.62	283.34
469.98	282.42
470.35	281.60
470.72	280.82
471.08	279.98
471.45	279.21
471.82	278.46
472.18	277.63
472.55	277.04
472.92	276.31
473.28	275.68
473.65	275.07
474.02	274.48
474.38	273.94
474.75	273.51
475.11	273.03
475.48	272.64
475.85	272.29
476.21	271.96
476.58	271.71
476.94	271.44
477.31	271.19
477.67	270.93
478.04	270.66
478.41	270.49
478.77	270.46
479.14	270.30
479.50	270.30
479.87	270.35
480.23	270.33
480.60	270.35
480.96	270.36
481.33	270.50
481.69	270.60
482.06	270.77
482.42	270.86
482.79	271.06
483.15	271.36
483.52	271.72
483.88	272.05
484.25	272.40
484.61	272.82
484.98	273.20
485.34	273.78
485.71	274.42
486.07	275.04
486.44	275.61
486.80	276.34
487.17	277.09
487.53	277.89
487.90	278.76
488.26	279.72
488.62	280.76
488.99	281.79
489.35	282.88
489.72	284.00
490.08	285.29
490.44	286.57
490.81	287.94
491.17	289.33
491.54	290.85
491.90	292.44
492.26	294.15
492.63	295.96
492.99	297.76
493.36	299.70
493.72	301.88
494.08	304.07
494.45	306.43
494.81	308.89
495.17	311.47
495.54	314.17
495.90	316.98
496.26	319.89
496.63	323.01
496.99	326.30
497.35	329.79
497.72	333.41
498.08	337.12
498.44	340.98
498.80	345.09
499.17	349.33
499.53	353.75
499.89	358.38
500.26	363.15
500.62	368.12
500.98	373.37
501.34	378.68
501.71	384.31
502.07	390.07
502.43	395.97
502.79	402.11
503.16	408.54
503.52	415.14
503.88	421.90
504.24	428.87
504.60	436.12
504.97	443.61
505.33	451.35
505.69	459.53
506.05	467.79
506.41	476.16
506.78	484.84
507.14	493.74
507.50	502.96
507.86	512.54
508.22	522.28
508.59	532.07
508.95	542.31
509.31	552.67
509.67	563.37
510.03	574.29
510.39	585.50
510.75	596.96
511.12	608.58
511.48	620.62
511.84	632.81
512.20	645.02
512.56	657.75
512.92	670.69
513.28	683.88
513.64	697.13
514.00	710.75
514.37	724.55
514.73	738.57
515.09	752.49
515.45	766.66
515.81	781.21
516.17	796.13
516.53	811.13
516.89	826.38
517.25	841.52
517.61	856.93
517.97	872.48
518.33	887.98
518.69	903.88
519.05	919.95
519.41	936.28
519.77	953.06
520.13	969.76
520.49	986.39
520.85	1002.88
521.21	1019.73
521.57	1037.32
521.93	1054.40
522.29	1072.12
522.65	1089.79
523.01	1107.32
523.37	1124.74
523.73	1142.34
524.09	1160.03
524.45	1177.82
524.81	1196.14
525.17	1214.49
525.53	1232.90
525.89	1251.29
526.25	1269.69
526.61	1287.70
526.97	1306.14
527.33	1324.25
527.68	1342.44
528.04	1360.54
528.40	1378.93
528.76	1397.96
529.12	1416.16
529.48	1434.76
529.84	1452.32
530.20	1470.58
530.56	1489.45
530.91	1508.67
531.27	1527.38
531.63	1545.59
531.99	1563.91
532.35	1581.70
532.71	1599.46
533.07	1617.58
533.42	1635.43
533.78	1653.38
534.14	1671.55
534.50	1688.74
534.86	1706.55
535.21	1723.67
535.57	1741.52
535.93	1758.93
536.29	1775.52
536.65	1792.55
537.00	1809.12
537.36	1826.71
537.72	1843.18
538.08	1859.70
538.44	1875.60
538.79	1891.44
539.15	1906.91
539.51	1922.59
539.87	1938.84
540.22	1954.51
540.58	1970.30
540.94	1985.65
541.29	2000.57
541.65	2015.27
542.01	2030.62
542.37	2045.00
542.72	2059.44
543.08	2073.33
543.44	2087.88
543.79	2101.17
544.15	2114.20
544.51	2127.97
544.87	2140.72
545.22	2153.69
545.58	2165.81
545.94	2177.39
546.29	2189.16
546.65	2201.23
547.01	2212.68
547.36	2223.38
547.72	2233.98
548.07	2243.93
548.43	2253.96
548.79	2263.80
549.14	2273.19
549.50	2282.16
549.86	2291.63
550.21	2300.88
550.57	2309.94
550.92	2318.28
551.28	2327.22
551.64	2336.14
551.99	2344.46
552.35	2352.49
552.70	2360.38
553.06	2368.06
553.41	2376.21
553.77	2383.98
554.13	2391.67
554.48	2399.51
554.84	2406.82
555.19	2413.57
555.55	2420.38
555.90	2426.42
556.26	2433.16
556.61	2439.46
556.97	2445.64
557.32	2451.36
557.68	2456.96
558.03	2462.68
558.39	2467.88
558.74	2473.98
559.10	2479.30
559.45	2484.33
559.81	2490.03
560.16	2495.24
560.52	2499.96
560.87	2504.67
561.23	2508.52
561.58	2512.58
561.94	2516.28
562.29	2519.63
562.64	2523.84
563.00	2527.54
563.35	2532.38
563.71	2536.66
564.06	2541.25
564.42	2545.34
564.77	2549.20
565.12	2552.80
565.48	2555.93
565.83	2558.86
566.19	2561.36
566.54	2562.98
566.89	2565.28
567.25	2566.86
567.60	2569.04
567.96	2571.83
568.31	2573.60
568.66	2575.84
569.02	2577.43
569.37	2578.69
569.72	2580.69
570.08	2581.53
570.43	2582.25
570.78	2582.46
571.14	2581.47
571.49	2580.63
571.84	2580.81
572.20	2580.16
572.55	2579.49
572.90	2578.13
573.26	2577.25
573.61	2575.70
573.96	2574.80
574.31	2572.04
574.67	2569.40
575.02	2565.94
575.37	2562.61
575.72	2559.06
576.08	2555.53
576.43	2552.15
576.78	2548.61
577.13	2545.14
577.49	2541.93
577.84	2538.60
578.19	2534.82
578.54	2531.25
578.90	2527.00
579.25	2521.12
579.60	2515.83
579.95	2510.53
580.30	2505.29
580.66	2499.78
581.01	2494.52
581.36	2489.06
581.71	2484.91
582.06	2480.20
582.42	2475.62
582.77	2470.10
583.12	2465.30
583.47	2460.48
583.82	2455.40
584.17	2449.84
584.53	2444.11
584.88	2438.20
585.23	2432.02
585.58	2425.95
585.93	2419.81
586.28	2414.42
586.63	2409.04
586.98	2403.56
587.34	2398.43
587.69	2393.25
588.04	2387.64
588.39	2381.48
588.74	2374.27
589.09	2367.33
589.44	2360.02
589.79	2353.16
590.14	2346.92
590.49	2339.47
590.84	2332.28
591.19	2325.55
591.54	2318.17
591.89	2310.07
592.25	2302.62
592.60	2294.55
592.95	2286.28
593.30	2278.15
593.65	2269.81
594.00	2261.76
594.35	2253.67
594.70	2244.56
595.05	2236.67
595.40	2228.39
595.75	2220.08
596.10	2213.17
596.45	2205.63
596.80	2198.57
597.15	2191.31
597.50	2183.39
597.85	2176.08
598.19	2168.64
598.54	2160.92
598.89	2153.46
599.24	2146.69
599.59	2139.20
599.94	2132.00
600.29	2124.76
600.64	2117.32
600.99	2108.89
601.34	2101.20
601.69	2093.09
602.04	2085.49
602.39	2076.92
602.74	2069.05
603.08	2061.40
603.43	2053.71
603.78	2045.16
604.13	2036.93
604.48	2028.59
604.83	2020.63
605.18	2012.86
605.53	2003.90
605.87	1994.50
606.22	1986.02
606.57	1976.80
606.92	1968.08
607.27	1959.88
607.62	1951.90
607.96	1943.51
608.31	1935.96
608.66	1927.30
609.01	1918.89
609.36	1910.22
609.70	1901.00
610.05	1891.71
610.40	1882.74
610.75	1873.08
611.10	1864.29
611.44	1854.32
611.79	1845.01
612.14	1834.96
612.49	1824.20
612.83	1814.30
613.18	1804.73
613.53	1795.48
613.88	1785.65
614.22	1776.05
614.57	1765.91
614.92	1756.65
615.27	1748.03
615.61	1738.40
615.96	1728.98
616.31	1719.91
616.65	1711.16
617.00	1702.34
617.35	1693.43
617.70	1683.95
618.04	1674.18
618.39	1664.64
618.74	1655.98
619.08	1646.38
619.43	1637.51
619.78	1629.50
620.12	1621.26
620.47	1612.56
620.82	1602.93
621.16	1594.25
621.51	1585.43
621.85	1576.60
622.20	1566.45
622.55	1556.55
622.89	1547.36
623.24	1538.40
623.59	1529.73
623.93	1521.02
624.28	1512.55
624.62	1503.88
624.97	1495.31
625.32	1487.23
625.66	1479.04
626.01	1470.64
626.35	1462.18
626.70	1453.21
627.04	1444.18
627.39	1434.95
627.73	1426.36
628.08	1418.38
628.43	1410.07
628.77	1401.63
629.12	1392.91
629.46	1384.70
629.81	1375.97
630.15	1367.49
630.50	1358.97
630.84	1349.51
631.19	1340.19
631.53	1331.50
631.88	1322.71
632.22	1313.93
632.57	1305.53
632.91	1296.70
633.26	1288.13
633.60	1279.35
633.95	1270.94
634.29	1262.70
634.64	1255.01
634.98	1246.53
635.32	1238.27
635.67	1230.55
636.01	1222.73
636.36	1214.85
636.70	1207.22
637.05	1199.70
637.39	1192.14
637.73	1184.58
638.08	1177.65
638.42	1170.76
638.77	1163.32
639.11	1155.78
639.45	1148.34
639.80	1140.66
640.14	1133.42
640.49	1125.87
640.83	1118.57
641.17	1111.55
641.52	1104.39
641.86	1096.85
642.20	1090.00
642.55	1082.60
642.89	1075.03
643.23	1067.37
643.58	1060.73
643.92	1053.66
644.26	1046.75
644.61	1039.77
644.95	1032.87
645.29	1025.40
645.64	1017.56
645.98	1010.20
646.32	1003.29
646.66	996.38
647.01	989.76
647.35	983.13
647.69	976.37
648.04	970.02
648.38	963.35
648.72	956.57
649.06	949.78
649.41	943.04
649.75	936.29
650.09	929.52
650.43	922.97
650.78	915.95
651.12	909.12
651.46	902.48
651.80	896.02
652.14	889.83
652.49	883.63
652.83	877.78
653.17	871.39
653.51	865.00
653.85	858.77
654.20	852.42
654.54	845.52
654.88	838.95
655.22	832.22
655.56	825.66
655.90	819.30
656.25	813.23
656.59	807.10
656.93	801.24
657.27	795.43
657.61	789.17
657.95	783.34
658.29	777.58
658.64	771.53
658.98	765.42
659.32	759.16
659.66	753.32
660.00	747.34
660.34	741.67
660.68	735.97
661.02	730.28
661.36	724.82
661.70	719.67
662.05	714.82
662.39	709.88
662.73	704.82
663.07	699.82
663.41	694.75
663.75	689.66
664.09	684.45
664.43	679.39
664.77	674.83
665.11	669.94
665.45	665.14
665.79	660.59
666.13	655.87
666.47	651.22
666.81	646.46
667.15	641.72
667.49	637.26
667.83	632.86
668.17	628.36
668.51	623.72
668.85	619.15
669.19	614.59
669.53	610.19
669.87	605.78
670.21	601.50
670.55	597.29
670.89	593.36
671.23	589.43
671.57	585.37
671.91	581.27
672.25	577.24
672.58	573.22
672.92	569.30
673.26	565.62
673.60	561.99
673.94	558.47
674.28	555.12
674.62	551.73
674.96	548.31
675.30	545.00
675.64	541.67
675.97	538.45
676.31	535.22
676.65	531.91
676.99	528.80
677.33	525.51
677.67	522.32
678.01	518.93
678.34	515.56
678.68	512.27
679.02	509.12
679.36	505.99
679.70	502.94
680.04	499.80
680.37	496.65
680.71	493.48
681.05	490.46
681.39	487.39
681.73	484.33
682.06	481.35
682.40	478.46
682.74	475.52
683.08	472.56
683.42	469.55
683.75	466.69
684.09	463.72
684.43	460.88
684.77	458.07
685.10	455.33
685.44	452.68
685.78	450.05
686.12	447.38
686.45	444.71
686.79	442.10
687.13	439.55
687.46	436.98
687.80	434.43
688.14	431.82
688.48	429.43
688.81	426.91
689.15	424.46
689.49	421.96
689.82	419.55
690.16	417.18
690.50	415.00
690.83	412.81
691.17	410.52
691.51	408.36
691.84	406.28
692.18	404.07
692.52	401.87
692.85	399.68
693.19	397.57
693.52	395.49
693.86	393.34
694.20	391.32
694.53	389.28
694.87	387.22
695.21	385.20
695.54	383.07
695.88	381.04
696.21	379.11
696.55	377.18
696.88	375.28
697.22	373.34
697.56	371.38
697.89	369.47
698.23	367.66
698.56	365.85
698.90	364.03
699.23	362.17
699.57	360.36
699.90	358.56
700.24	356.78
700.58	355.03
700.91	353.31
701.25	351.65
701.58	350.06
701.92	348.51
702.25	346.95
702.59	345.46
702.92	343.98
703.26	342.45
703.59	340.99
703.93	339.62
704.26	338.25
704.60	336.81
704.93	335.35
705.26	333.94
705.60	332.54
705.93	331.18
706.27	329.99
706.60	328.75
706.94	327.52
707.27	326.18
707.61	324.93
707.94	323.77
708.27	322.48
708.61	321.22
708.94	320.03
709.28	318.87
709.61	317.73
709.94	316.61
710.28	315.45
710.61	314.31
710.95	313.06
711.28	312.01
711.61	310.89
711.95	309.85
712.28	308.77
712.61	307.68
712.95	306.61
713.28	305.57
713.61	304.55
713.95	303.52
714.28	302.56
714.61	301.60
714.95	300.65
715.28	299.70
715.61	298.72
715.95	297.71
716.28	296.74
716.61	295.74
716.95	294.79
717.28	293.91
717.61	293.02
717.94	292.19
718.28	291.25
718.61	290.40
718.94	289.55
719.27	288.77
719.61	288.01
719.94	287.24
720.27	286.39
720.60	285.62
720.94	284.90
721.27	284.20
721.60	283.51
721.93	282.79
722.27	282.12
722.60	281.48
722.93	280.85
723.26	280.22
723.59	279.60
723.93	278.97
724.26	278.35
724.59	277.71
724.92	277.07
725.25	276.48
725.59	275.86
725.92	275.28
726.25	274.67
726.58	274.08
726.91	273.48
727.24	272.90
727.57	272.35
727.91	271.78
728.24	271.26
728.57	270.71
728.90	270.17
729.23	269.62
729.56	269.14
729.89	268.61
730.22	268.06
730.55	267.52
730.89	266.99
731.22	266.47
731.55	265.97
731.88	265.50
732.21	265.00
732.54	264.53
732.87	264.08
733.20	263.62
733.53	263.19
733.86	262.79
734.19	262.37
734.52	261.93
734.85	261.54
735.18	261.08
735.51	260.70
735.84	260.29
736.17	259.85
736.50	259.38
736.83	259.10
737.16	258.74
737.49	258.36
737.82	257.96
738.15	257.55
738.48	257.17
738.81	256.78
739.14	256.44
739.47	256.08
739.80	255.70
740.13	255.35
740.46	254.96
740.79	254.57
741.12	254.20
741.45	253.85
741.78	253.47
742.11	253.15
742.44	252.72
742.77	252.40
743.10	252.11
743.43	251.76
743.75	251.32
744.08	251.11
744.41	250.84
744.74	250.52
745.07	250.24
745.40	249.93
745.73	249.69
746.06	249.41
746.39	249.14
746.71	248.84
747.04	248.54
747.37	248.27
747.70	247.98
748.03	247.72
748.36	247.48
748.68	247.18
749.01	246.85
749.34	246.60
749.67	246.30
750.00	246.05
750.33	245.91
750.65	245.65
750.98	245.33
751.31	245.06
751.64	244.87
751.97	244.68
752.29	244.45
752.62	244.16
752.95	243.90
753.28	243.66
753.60	243.42
753.93	243.25
754.26	243.00
754.59	242.77
754.91	242.53
755.24	242.28
755.57	242.07
755.90	241.91
756.22	241.69
756.55	241.45
756.88	241.19
757.20	240.88
757.53	240.66
757.86	240.42
758.19	240.23
758.51	240.02
758.84	239.75
759.17	239.57
759.49	239.38
759.82	239.21
760.15	239.01
760.47	238.84
760.80	238.62
761.13	238.49
761.45	238.33
761.78	238.19
762.11	238.03
762.43	237.87
762.76	237.73
763.08	237.60
763.41	237.52
763.74	237.38
764.06	237.25
764.39	237.10
764.71	236.96
765.04	236.80
765.37	236.63
765.69	236.51
766.02	236.36
766.34	236.19
766.67	236.04
767.00	235.91
767.32	235.83
767.65	235.77
767.97	235.63
768.30	235.52
768.62	235.33
768.95	235.19
769.27	235.11
769.60	234.94
769.92	234.80
770.25	234.64
770.57	234.49
770.90	234.36
771.22	234.24
771.55	234.10
771.87	233.96
772.20	233.84
772.52	233.81
772.85	233.79
773.17	233.68
773.50	233.57
773.82	233.46
774.15	233.31
774.47	233.15
774.80	233.00
775.12	232.91
775.45	232.84
775.77	232.75
776.09	232.62
776.42	232.53
776.74	232.46
777.07	232.35
777.39	232.27
777.72	232.18
778.04	232.12
778.36	232.02
778.69	231.97
779.01	231.90
779.33	231.73
779.66	231.54
779.98	231.49
780.31	231.41
780.63	231.40
780.95	231.33
781.28	231.23
781.60	231.17
781.92	231.07
782.25	231.00
782.57	230.94
782.89	230.86
783.22	230.81
783.54	230.71
783.86	230.67
784.19	230.58
784.51	230.53
784.83	230.45
785.16	230.40
785.48	230.34
785.80	230.28
786.12	230.23
786.45	230.20
