SpectraSuite Data File
++++++++++++++++++++++++++++++++++++
Date: Fri Feb 01 16:59:02 EST 2013
User: group
Dark Spectrum Present: No
Reference Spectrum Present: No
Number of Sampled Component Spectra: 1
Spectrometers: USB2E7196
Integration Time (usec): 35000 (USB2E7196)
Spectra Averaged: 100 (USB2E7196)
Boxcar Smoothing: 10 (USB2E7196)
Correct for Electrical Dark: No (USB2E7196)
Strobe/Lamp Enabled: No (USB2E7196)
Correct for Detector Non-linearity: No (USB2E7196)
Correct for Stray Light: No (USB2E7196)
Number of Pixels in Processed Spectrum: 2048
>>>>>Begin Processed Spectral Data<<<<<
339.09	0.00
339.48	213.43
339.86	215.07
340.24	215.92
340.63	217.46
341.01	220.63
341.39	219.56
341.78	221.50
342.16	222.99
342.54	223.48
342.93	211.74
343.31	222.43
343.69	222.95
344.07	223.39
344.46	223.83
344.84	224.23
345.22	224.45
345.60	224.74
345.99	224.94
346.37	225.07
346.75	225.17
347.13	225.25
347.52	225.30
347.90	225.38
348.28	225.39
348.66	225.45
349.05	225.44
349.43	225.49
349.81	225.53
350.19	225.55
350.57	225.61
350.96	225.67
351.34	225.75
351.72	225.83
352.10	225.95
352.48	226.01
352.87	226.03
353.25	226.11
353.63	226.13
354.01	226.17
354.39	226.26
354.77	226.29
355.15	226.40
355.54	226.48
355.92	226.49
356.30	226.55
356.68	226.67
357.06	226.77
357.44	226.80
357.82	226.86
358.20	226.93
358.58	226.98
358.97	227.04
359.35	227.13
359.73	227.22
360.11	227.25
360.49	227.32
360.87	227.38
361.25	227.43
361.63	227.55
362.01	227.61
362.39	227.63
362.77	227.68
363.15	227.66
363.53	227.69
363.91	227.73
364.29	227.77
364.67	227.72
365.05	227.73
365.43	227.78
365.81	227.78
366.19	227.83
366.57	227.86
366.95	227.89
367.33	227.85
367.71	227.81
368.09	227.83
368.47	227.80
368.85	227.77
369.23	227.76
369.61	227.69
369.99	227.66
370.37	227.63
370.75	227.66
371.13	227.62
371.51	227.56
371.89	227.54
372.27	227.50
372.65	227.46
373.03	227.42
373.41	227.34
373.78	227.31
374.16	227.22
374.54	227.16
374.92	227.06
375.30	227.01
375.68	226.98
376.06	226.93
376.44	226.86
376.82	226.84
377.19	226.77
377.57	226.73
377.95	226.63
378.33	226.56
378.71	226.44
379.09	226.41
379.47	226.35
379.84	226.27
380.22	226.20
380.60	226.09
380.98	226.03
381.36	225.97
381.73	225.89
382.11	225.85
382.49	225.76
382.87	225.72
383.25	225.67
383.62	225.72
384.00	225.62
384.38	225.60
384.76	225.55
385.13	225.54
385.51	225.48
385.89	225.45
386.27	225.40
386.64	225.38
387.02	225.29
387.40	225.25
387.78	225.23
388.15	225.19
388.53	225.16
388.91	225.12
389.29	225.06
389.66	225.03
390.04	224.99
390.42	225.01
390.79	225.02
391.17	225.00
391.55	224.87
391.92	224.86
392.30	224.83
392.68	224.80
393.05	224.79
393.43	224.79
393.81	224.81
394.18	224.81
394.56	224.82
394.94	224.85
395.31	224.88
395.69	224.91
396.06	224.97
396.44	225.00
396.82	225.02
397.19	225.15
397.57	225.20
397.95	225.22
398.32	225.22
398.70	225.26
399.07	225.35
399.45	225.39
399.82	225.46
400.20	225.49
400.58	225.58
400.95	225.62
401.33	225.69
401.70	225.82
402.08	225.91
402.45	225.99
402.83	226.10
403.20	226.21
403.58	226.28
403.95	226.38
404.33	226.53
404.71	226.64
405.08	226.80
405.46	226.90
405.83	227.07
406.21	227.18
406.58	227.34
406.96	227.47
407.33	227.65
407.70	227.82
408.08	228.13
408.45	228.32
408.83	228.52
409.20	228.73
409.58	228.91
409.95	229.16
410.33	229.43
410.70	229.69
411.08	229.96
411.45	230.25
411.82	230.53
412.20	230.90
412.57	231.34
412.95	231.61
413.32	232.04
413.69	232.45
414.07	232.95
414.44	233.40
414.82	233.86
415.19	234.40
415.56	234.97
415.94	235.53
416.31	236.19
416.68	236.81
417.06	237.53
417.43	238.20
417.81	238.94
418.18	239.71
418.55	240.55
418.93	241.40
419.30	242.32
419.67	243.30
420.04	244.24
420.42	245.19
420.79	246.38
421.16	247.52
421.54	248.69
421.91	249.87
422.28	251.13
422.66	252.45
423.03	253.75
423.40	255.08
423.77	256.46
424.15	257.86
424.52	259.33
424.89	260.90
425.26	262.45
425.64	263.93
426.01	265.53
426.38	267.19
426.75	268.85
427.13	270.57
427.50	272.35
427.87	274.22
428.24	276.06
428.61	277.75
428.99	279.70
429.36	281.81
429.73	283.90
430.10	285.88
430.47	287.92
430.85	290.03
431.22	292.25
431.59	294.62
431.96	296.84
432.33	299.29
432.70	301.65
433.08	304.45
433.45	307.02
433.82	309.60
434.19	312.43
434.56	315.26
434.93	317.84
435.30	320.41
435.68	323.27
436.05	326.09
436.42	328.89
436.79	331.35
437.16	334.02
437.53	336.78
437.90	339.55
438.27	342.28
438.64	345.05
439.01	347.61
439.38	349.79
439.75	351.94
440.13	354.42
440.50	356.75
440.87	358.57
441.24	360.52
441.61	362.62
441.98	364.13
442.35	365.87
442.72	367.74
443.09	369.54
443.46	370.49
443.83	371.05
444.20	371.56
444.57	372.38
444.94	372.68
445.31	373.00
445.68	373.36
446.05	373.49
446.42	373.13
446.79	372.70
447.16	372.27
447.53	371.98
447.90	370.82
448.27	369.66
448.64	368.08
449.01	366.95
449.37	365.04
449.74	363.15
450.11	360.98
450.48	358.50
450.85	356.01
451.22	353.94
451.59	351.93
451.96	350.02
452.33	347.43
452.70	345.02
453.07	342.28
453.43	339.42
453.80	336.61
454.17	333.94
454.54	331.44
454.91	328.76
455.28	326.04
455.65	323.59
456.02	321.18
456.38	319.08
456.75	316.45
457.12	314.19
457.49	311.99
457.86	309.79
458.23	307.96
458.59	305.96
458.96	303.86
459.33	302.06
459.70	300.22
460.07	298.73
460.43	297.07
460.80	295.42
461.17	294.02
461.54	292.58
461.91	291.19
462.27	289.76
462.64	288.52
463.01	287.20
463.38	285.96
463.74	284.62
464.11	283.45
464.48	282.44
464.85	281.37
465.21	280.50
465.58	279.59
465.95	278.52
466.32	277.59
466.68	276.71
467.05	275.88
467.42	275.00
467.78	274.10
468.15	273.27
468.52	272.66
468.88	271.84
469.25	271.11
469.62	270.51
469.98	269.87
470.35	269.25
470.72	268.69
471.08	268.05
471.45	267.53
471.82	267.03
472.18	266.45
472.55	266.03
472.92	265.54
473.28	265.12
473.65	264.75
474.02	264.31
474.38	263.99
474.75	263.60
475.11	263.29
475.48	263.06
475.85	262.86
476.21	262.62
476.58	262.40
476.94	262.25
477.31	262.10
477.67	261.95
478.04	261.84
478.41	261.80
478.77	261.83
479.14	261.80
479.50	261.82
479.87	261.93
480.23	261.98
480.60	262.05
480.96	262.15
481.33	262.36
481.69	262.60
482.06	262.76
482.42	262.97
482.79	263.24
483.15	263.54
483.52	263.87
483.88	264.22
484.25	264.62
484.61	265.07
484.98	265.52
485.34	266.07
485.71	266.70
486.07	267.31
486.44	267.87
486.80	268.58
487.17	269.28
487.53	270.09
487.90	270.95
488.26	271.90
488.62	272.86
488.99	273.81
489.35	274.81
489.72	275.94
490.08	277.15
490.44	278.38
490.81	279.69
491.17	281.03
491.54	282.55
491.90	284.05
492.26	285.64
492.63	287.35
492.99	289.11
493.36	290.95
493.72	292.97
494.08	295.08
494.45	297.31
494.81	299.71
495.17	302.12
495.54	304.65
495.90	307.27
496.26	310.08
496.63	313.05
496.99	316.17
497.35	319.40
497.72	322.78
498.08	326.21
498.44	329.91
498.80	333.78
499.17	337.72
499.53	341.83
499.89	346.16
500.26	350.64
500.62	355.28
500.98	360.24
501.34	365.32
501.71	370.61
502.07	375.96
502.43	381.48
502.79	387.22
503.16	393.25
503.52	399.51
503.88	405.87
504.24	412.42
504.60	419.23
504.97	426.30
505.33	433.53
505.69	441.22
506.05	448.85
506.41	456.70
506.78	464.85
507.14	473.27
507.50	482.00
507.86	490.96
508.22	500.13
508.59	509.21
508.95	518.67
509.31	528.36
509.67	538.38
510.03	548.57
510.39	559.07
510.75	569.71
511.12	580.47
511.48	591.61
511.84	602.94
512.20	614.29
512.56	626.11
512.92	638.06
513.28	650.26
513.64	662.64
514.00	675.13
514.37	687.86
514.73	700.76
515.09	713.55
515.45	726.66
515.81	740.08
516.17	753.86
516.53	767.84
516.89	781.86
517.25	795.78
517.61	810.00
517.97	824.25
518.33	838.49
518.69	853.05
519.05	867.82
519.41	882.73
519.77	898.07
520.13	913.30
520.49	928.49
520.85	943.51
521.21	958.94
521.57	974.98
521.93	990.39
522.29	1006.47
522.65	1022.54
523.01	1038.41
523.37	1054.03
523.73	1069.92
524.09	1085.70
524.45	1101.61
524.81	1117.99
525.17	1134.42
525.53	1150.93
525.89	1167.57
526.25	1184.08
526.61	1200.22
526.97	1216.63
527.33	1232.82
527.68	1249.10
528.04	1265.31
528.40	1281.62
528.76	1298.32
529.12	1314.55
529.48	1331.25
529.84	1346.95
530.20	1363.20
530.56	1379.90
530.91	1397.03
531.27	1413.48
531.63	1429.59
531.99	1445.84
532.35	1461.48
532.71	1477.11
533.07	1493.01
533.42	1508.55
533.78	1524.35
534.14	1540.19
534.50	1555.25
534.86	1570.77
535.21	1585.54
535.57	1601.08
535.93	1616.43
536.29	1631.00
536.65	1645.72
537.00	1660.03
537.36	1675.09
537.72	1689.29
538.08	1703.47
538.44	1716.99
538.79	1730.54
539.15	1743.87
539.51	1757.49
539.87	1771.51
540.22	1784.90
540.58	1798.36
540.94	1811.31
541.29	1823.80
541.65	1836.13
542.01	1848.99
542.37	1861.05
542.72	1873.32
543.08	1885.02
543.44	1897.12
543.79	1908.21
544.15	1919.04
544.51	1930.58
544.87	1941.24
545.22	1951.85
545.58	1961.91
545.94	1971.53
546.29	1981.18
546.65	1990.95
547.01	1999.95
547.36	2008.53
547.72	2016.94
548.07	2024.79
548.43	2032.83
548.79	2040.77
549.14	2048.34
549.50	2055.58
549.86	2063.01
550.21	2070.22
550.57	2077.16
550.92	2083.62
551.28	2090.45
551.64	2097.46
551.99	2103.74
552.35	2109.80
552.70	2115.89
553.06	2121.81
553.41	2128.07
553.77	2134.04
554.13	2140.05
554.48	2146.23
554.84	2151.82
555.19	2157.08
555.55	2162.36
555.90	2166.95
556.26	2171.97
556.61	2176.69
556.97	2181.03
557.32	2185.40
557.68	2189.59
558.03	2194.05
558.39	2197.80
558.74	2202.39
559.10	2206.30
559.45	2210.19
559.81	2214.45
560.16	2218.44
560.52	2221.78
560.87	2225.24
561.23	2228.02
561.58	2230.96
561.94	2233.54
562.29	2235.84
562.64	2238.68
563.00	2241.25
563.35	2244.75
563.71	2247.78
564.06	2251.09
564.42	2254.12
564.77	2256.81
565.12	2259.17
565.48	2261.14
565.83	2263.21
566.19	2264.90
566.54	2265.81
566.89	2266.87
567.25	2267.71
567.60	2269.07
567.96	2270.90
568.31	2271.79
568.66	2273.17
569.02	2273.75
569.37	2274.29
569.72	2275.40
570.08	2275.68
570.43	2275.78
570.78	2275.61
571.14	2274.43
571.49	2273.21
571.84	2272.97
572.20	2271.99
572.55	2271.14
572.90	2269.69
573.26	2268.55
573.61	2266.86
573.96	2265.38
574.31	2262.76
574.67	2260.08
575.02	2256.69
575.37	2253.44
575.72	2249.98
576.08	2246.73
576.43	2243.71
576.78	2240.21
577.13	2237.14
577.49	2234.14
577.84	2230.93
578.19	2227.23
578.54	2223.78
578.90	2219.84
579.25	2214.60
579.60	2209.93
579.95	2205.13
580.30	2200.37
580.66	2195.35
581.01	2190.67
581.36	2185.96
581.71	2181.95
582.06	2177.71
582.42	2173.33
582.77	2168.42
583.12	2164.10
583.47	2159.70
583.82	2155.04
584.17	2149.94
584.53	2144.69
584.88	2139.28
585.23	2133.69
585.58	2128.43
585.93	2123.16
586.28	2118.62
586.63	2113.78
586.98	2108.76
587.34	2104.20
587.69	2099.40
588.04	2094.32
588.39	2088.72
588.74	2082.47
589.09	2076.55
589.44	2069.76
589.79	2063.82
590.14	2058.24
590.49	2051.84
590.84	2045.52
591.19	2039.50
591.54	2033.33
591.89	2026.27
592.25	2019.70
592.60	2012.74
592.95	2005.33
593.30	1998.10
593.65	1990.54
594.00	1983.55
594.35	1976.48
594.70	1968.65
595.05	1961.86
595.40	1954.73
595.75	1947.52
596.10	1941.51
596.45	1934.90
596.80	1929.15
597.15	1922.81
597.50	1915.83
597.85	1909.41
598.19	1902.90
598.54	1896.13
598.89	1889.52
599.24	1883.63
599.59	1877.16
599.94	1871.04
600.29	1864.85
600.64	1858.45
600.99	1851.25
601.34	1844.60
601.69	1837.71
602.04	1831.01
602.39	1823.64
602.74	1816.95
603.08	1810.17
603.43	1803.38
603.78	1796.10
604.13	1788.84
604.48	1781.71
604.83	1774.98
605.18	1768.21
605.53	1760.36
605.87	1752.42
606.22	1745.28
606.57	1737.45
606.92	1730.09
607.27	1723.06
607.62	1716.21
607.96	1709.18
608.31	1702.78
608.66	1695.40
609.01	1687.90
609.36	1680.35
609.70	1672.47
610.05	1664.54
610.40	1657.04
610.75	1648.95
611.10	1641.50
611.44	1633.21
611.79	1625.28
612.14	1616.84
612.49	1607.69
612.83	1599.43
613.18	1591.36
613.53	1583.32
613.88	1574.86
614.22	1566.65
614.57	1557.97
614.92	1550.00
615.27	1542.27
615.61	1533.83
615.96	1525.70
616.31	1518.22
616.65	1510.89
617.00	1503.40
617.35	1495.73
617.70	1487.44
618.04	1479.01
618.39	1470.73
618.74	1463.24
619.08	1455.02
619.43	1447.24
619.78	1440.48
620.12	1433.35
620.47	1425.91
620.82	1417.87
621.16	1410.53
621.51	1402.96
621.85	1395.45
622.20	1387.01
622.55	1378.74
622.89	1370.93
623.24	1363.32
623.59	1355.86
623.93	1348.41
624.28	1341.16
624.62	1333.65
624.97	1326.56
625.32	1319.85
625.66	1312.92
626.01	1305.79
626.35	1298.38
626.70	1290.83
627.04	1283.03
627.39	1275.22
627.73	1267.90
628.08	1260.97
628.43	1253.72
628.77	1246.44
629.12	1238.98
629.46	1231.91
629.81	1224.48
630.15	1217.34
630.50	1209.98
630.84	1201.83
631.19	1193.90
631.53	1186.39
631.88	1178.92
632.22	1171.37
632.57	1164.01
632.91	1156.44
633.26	1148.94
633.60	1141.55
633.95	1134.37
634.29	1127.34
634.64	1120.71
634.98	1113.29
635.32	1106.17
635.67	1099.52
636.01	1092.77
636.36	1085.95
636.70	1079.33
637.05	1072.87
637.39	1066.38
637.73	1059.98
638.08	1054.12
638.42	1048.11
638.77	1041.68
639.11	1035.17
639.45	1028.69
639.80	1022.11
640.14	1015.86
640.49	1009.41
640.83	1003.12
641.17	996.93
641.52	990.60
641.86	984.03
642.20	978.23
642.55	971.94
642.89	965.50
643.23	959.05
643.58	953.29
643.92	947.18
644.26	941.17
644.61	935.07
644.95	929.09
645.29	922.59
645.64	915.90
645.98	909.58
646.32	903.57
646.66	897.58
647.01	891.77
647.35	885.97
647.69	880.11
648.04	874.51
648.38	868.80
648.72	862.90
649.06	856.94
649.41	851.04
649.75	845.08
650.09	839.14
650.43	833.41
650.78	827.37
651.12	821.39
651.46	815.66
651.80	810.04
652.14	804.51
652.49	799.14
652.83	794.03
653.17	788.41
653.51	782.76
653.85	777.38
654.20	771.76
654.54	765.82
654.88	760.12
655.22	754.28
655.56	748.53
655.90	743.05
656.25	737.88
656.59	732.54
656.93	727.51
657.27	722.38
657.61	716.97
657.95	711.84
658.29	706.81
658.64	701.59
658.98	696.33
659.32	691.01
659.66	685.87
660.00	680.56
660.34	675.63
660.68	670.72
661.02	665.76
661.36	661.08
661.70	656.56
662.05	652.25
662.39	648.04
662.73	643.70
663.07	639.41
663.41	635.00
663.75	630.57
664.09	625.99
664.43	621.64
664.77	617.58
665.11	613.35
665.45	609.29
665.79	605.19
666.13	601.07
666.47	596.99
666.81	592.84
667.15	588.76
667.49	584.89
667.83	581.09
668.17	577.15
668.51	573.08
668.85	569.08
669.19	565.24
669.53	561.39
669.87	557.50
670.21	553.81
670.55	550.21
670.89	546.79
671.23	543.35
671.57	539.81
671.91	536.28
672.25	532.75
672.58	529.17
672.92	525.73
673.26	522.56
673.60	519.38
673.94	516.28
674.28	513.34
674.62	510.45
674.96	507.37
675.30	504.43
675.64	501.52
675.97	498.76
676.31	495.87
676.65	492.97
676.99	490.26
677.33	487.41
677.67	484.61
678.01	481.60
678.34	478.66
678.68	475.84
679.02	473.02
679.36	470.28
679.70	467.59
680.04	464.89
680.37	462.01
680.71	459.18
681.05	456.61
681.39	453.91
681.73	451.23
682.06	448.72
682.40	446.21
682.74	443.62
683.08	441.08
683.42	438.51
683.75	436.02
684.09	433.44
684.43	430.92
684.77	428.40
685.10	426.01
685.44	423.66
685.78	421.37
686.12	419.12
686.45	416.80
686.79	414.50
687.13	412.30
687.46	410.16
687.80	408.01
688.14	405.76
688.48	403.74
688.81	401.49
689.15	399.29
689.49	397.16
689.82	395.17
690.16	393.09
690.50	391.10
690.83	389.15
691.17	387.16
691.51	385.27
691.84	383.45
692.18	381.55
692.52	379.60
692.85	377.61
693.19	375.76
693.52	373.89
693.86	372.07
694.20	370.28
694.53	368.50
694.87	366.66
695.21	364.86
695.54	362.97
695.88	361.22
696.21	359.49
696.55	357.78
696.88	356.04
697.22	354.32
697.56	352.69
697.89	351.08
698.23	349.49
698.56	347.93
698.90	346.38
699.23	344.75
699.57	343.26
699.90	341.77
700.24	340.17
700.58	338.66
700.91	337.17
701.25	335.73
701.58	334.34
701.92	333.01
702.25	331.63
702.59	330.27
702.92	328.97
703.26	327.69
703.59	326.43
703.93	325.25
704.26	324.06
704.60	322.77
704.93	321.45
705.26	320.23
705.60	319.00
705.93	317.80
706.27	316.74
706.60	315.62
706.94	314.55
707.27	313.42
707.61	312.34
707.94	311.31
708.27	310.20
708.61	309.13
708.94	308.11
709.28	307.17
709.61	306.19
709.94	305.23
710.28	304.24
710.61	303.27
710.95	302.22
711.28	301.33
711.61	300.40
711.95	299.50
712.28	298.51
712.61	297.56
712.95	296.61
713.28	295.71
713.61	294.81
713.95	293.90
714.28	293.06
714.61	292.24
714.95	291.38
715.28	290.58
715.61	289.74
715.95	288.86
716.28	287.97
716.61	287.19
716.95	286.35
717.28	285.63
717.61	284.88
717.94	284.12
718.28	283.29
718.61	282.57
718.94	281.84
719.27	281.26
719.61	280.60
719.94	279.94
720.27	279.24
720.60	278.57
720.94	277.95
721.27	277.34
721.60	276.78
721.93	276.22
722.27	275.64
722.60	275.02
722.93	274.47
723.26	273.97
723.59	273.41
723.93	272.88
724.26	272.31
724.59	271.73
724.92	271.19
725.25	270.70
725.59	270.15
725.92	269.68
726.25	269.12
726.58	268.62
726.91	268.10
727.24	267.60
727.57	267.13
727.91	266.64
728.24	266.19
728.57	265.68
728.90	265.20
729.23	264.68
729.56	264.27
729.89	263.78
730.22	263.25
730.55	262.75
730.89	262.31
731.22	261.87
731.55	261.42
731.88	261.04
732.21	260.58
732.54	260.17
732.87	259.74
733.20	259.33
733.53	258.90
733.86	258.53
734.19	258.15
734.52	257.75
734.85	257.43
735.18	257.02
735.51	256.68
735.84	256.34
736.17	256.02
736.50	255.61
736.83	255.39
737.16	255.07
737.49	254.74
737.82	254.37
738.15	254.03
738.48	253.68
738.81	253.33
739.14	252.99
739.47	252.69
739.80	252.39
740.13	252.08
740.46	251.79
740.79	251.46
741.12	251.12
741.45	250.82
741.78	250.47
742.11	250.19
742.44	249.84
742.77	249.53
743.10	249.22
743.43	248.92
743.75	248.55
744.08	248.42
744.41	248.14
744.74	247.87
745.07	247.56
745.40	247.36
745.73	247.13
746.06	246.89
746.39	246.63
746.71	246.38
747.04	246.11
747.37	245.87
747.70	245.65
748.03	245.46
748.36	245.24
748.68	245.03
749.01	244.78
749.34	244.57
749.67	244.34
750.00	244.13
750.33	243.99
750.65	243.78
750.98	243.42
751.31	243.22
751.64	243.03
751.97	242.92
752.29	242.68
752.62	242.41
752.95	242.23
753.28	242.00
753.60	241.75
753.93	241.58
754.26	241.39
754.59	241.19
754.91	240.96
755.24	240.80
755.57	240.57
755.90	240.42
756.22	240.22
756.55	240.01
756.88	239.82
757.20	239.59
757.53	239.41
757.86	239.25
758.19	239.09
758.51	238.93
758.84	238.69
759.17	238.56
759.49	238.43
759.82	238.30
760.15	238.14
760.47	238.01
760.80	237.86
761.13	237.75
761.45	237.60
761.78	237.49
762.11	237.34
762.43	237.20
762.76	237.02
763.08	236.89
763.41	236.77
763.74	236.61
764.06	236.46
764.39	236.29
764.71	236.14
765.04	236.01
765.37	235.86
765.69	235.71
766.02	235.55
766.34	235.41
766.67	235.26
767.00	235.15
767.32	235.07
767.65	235.03
767.97	234.89
768.30	234.77
768.62	234.61
768.95	234.46
769.27	234.36
769.60	234.27
769.92	234.16
770.25	234.01
770.57	233.92
770.90	233.81
771.22	233.72
771.55	233.62
771.87	233.49
772.20	233.42
772.52	233.43
772.85	233.46
773.17	233.34
773.50	233.24
773.82	233.15
774.15	233.01
774.47	232.83
774.80	232.71
775.12	232.62
775.45	232.55
775.77	232.48
776.09	232.39
776.42	232.31
776.74	232.24
777.07	232.19
777.39	232.12
777.72	232.02
778.04	231.95
778.36	231.87
778.69	231.83
779.01	231.73
779.33	231.58
779.66	231.40
779.98	231.35
780.31	231.28
780.63	231.23
780.95	231.18
781.28	231.11
781.60	231.04
781.92	230.96
782.25	230.89
782.57	230.82
782.89	230.79
783.22	230.71
783.54	230.63
783.86	230.56
784.19	230.49
784.51	230.48
784.83	230.43
785.16	230.35
785.48	230.27
785.80	230.24
786.12	230.20
786.45	230.18
786.77	230.11
787.09	230.06
