SpectraSuite Data File
++++++++++++++++++++++++++++++++++++
Date: Fri Feb 01 18:09:21 EST 2013
User: group
Dark Spectrum Present: No
Reference Spectrum Present: No
Number of Sampled Component Spectra: 1
Spectrometers: USB2E7196
Integration Time (usec): 35000 (USB2E7196)
Spectra Averaged: 100 (USB2E7196)
Boxcar Smoothing: 10 (USB2E7196)
Correct for Electrical Dark: No (USB2E7196)
Strobe/Lamp Enabled: No (USB2E7196)
Correct for Detector Non-linearity: No (USB2E7196)
Correct for Stray Light: No (USB2E7196)
Number of Pixels in Processed Spectrum: 2048
>>>>>Begin Processed Spectral Data<<<<<
339.09	0.00
339.48	213.20
339.86	214.16
340.24	216.26
340.63	217.20
341.01	220.34
341.39	220.19
341.78	221.66
342.16	222.37
342.54	222.76
342.93	211.45
343.31	222.12
343.69	222.66
344.07	223.12
344.46	223.56
344.84	223.94
345.22	224.18
345.60	224.42
345.99	224.59
346.37	224.72
346.75	224.83
347.13	224.91
347.52	224.95
347.90	225.02
348.28	225.06
348.66	225.12
349.05	225.13
349.43	225.17
349.81	225.21
350.19	225.27
350.57	225.34
350.96	225.40
351.34	225.51
351.72	225.57
352.10	225.68
352.48	225.72
352.87	225.78
353.25	225.82
353.63	225.87
354.01	225.89
354.39	225.97
354.77	226.05
355.15	226.15
355.54	226.21
355.92	226.23
356.30	226.29
356.68	226.39
357.06	226.45
357.44	226.49
357.82	226.58
358.20	226.63
358.58	226.67
358.97	226.76
359.35	226.84
359.73	226.92
360.11	226.97
360.49	227.07
360.87	227.13
361.25	227.20
361.63	227.31
362.01	227.42
362.39	227.46
362.77	227.50
363.15	227.52
363.53	227.59
363.91	227.64
364.29	227.71
364.67	227.64
365.05	227.70
365.43	227.74
365.81	227.76
366.19	227.84
366.57	227.94
366.95	227.94
367.33	227.93
367.71	227.96
368.09	228.00
368.47	228.01
368.85	227.99
369.23	228.01
369.61	227.95
369.99	227.95
370.37	227.94
370.75	227.99
371.13	227.96
371.51	227.90
371.89	227.90
372.27	227.90
372.65	227.91
373.03	227.84
373.41	227.80
373.78	227.75
374.16	227.65
374.54	227.56
374.92	227.51
375.30	227.47
375.68	227.39
376.06	227.36
376.44	227.29
376.82	227.25
377.19	227.16
377.57	227.14
377.95	227.05
378.33	226.98
378.71	226.85
379.09	226.83
379.47	226.80
379.84	226.70
380.22	226.59
380.60	226.51
380.98	226.49
381.36	226.44
381.73	226.36
382.11	226.36
382.49	226.29
382.87	226.23
383.25	226.18
383.62	226.22
384.00	226.10
384.38	226.05
384.76	226.02
385.13	226.01
385.51	225.91
385.89	225.85
386.27	225.83
386.64	225.79
387.02	225.74
387.40	225.67
387.78	225.66
388.15	225.62
388.53	225.57
388.91	225.50
389.29	225.46
389.66	225.40
390.04	225.31
390.42	225.29
390.79	225.26
391.17	225.21
391.55	225.09
391.92	225.08
392.30	225.06
392.68	225.03
393.05	225.03
393.43	225.03
393.81	225.05
394.18	224.97
394.56	224.99
394.94	225.02
395.31	225.04
395.69	225.08
396.06	225.13
396.44	225.16
396.82	225.19
397.19	225.26
397.57	225.34
397.95	225.41
398.32	225.42
398.70	225.47
399.07	225.57
399.45	225.64
399.82	225.69
400.20	225.74
400.58	225.78
400.95	225.82
401.33	225.94
401.70	226.06
402.08	226.18
402.45	226.29
402.83	226.39
403.20	226.48
403.58	226.57
403.95	226.69
404.33	226.83
404.71	226.96
405.08	227.18
405.46	227.32
405.83	227.49
406.21	227.68
406.58	227.87
406.96	228.05
407.33	228.26
407.70	228.53
408.08	228.86
408.45	229.13
408.83	229.38
409.20	229.61
409.58	229.87
409.95	230.21
410.33	230.51
410.70	230.84
411.08	231.22
411.45	231.63
411.82	232.05
412.20	232.54
412.57	233.08
412.95	233.46
413.32	234.01
413.69	234.56
414.07	235.14
414.44	235.78
414.82	236.44
415.19	237.19
415.56	237.93
415.94	238.68
416.31	239.58
416.68	240.47
417.06	241.49
417.43	242.43
417.81	243.50
418.18	244.59
418.55	245.74
418.93	247.02
419.30	248.27
419.67	249.57
420.04	250.91
420.42	252.29
420.79	253.91
421.16	255.52
421.54	257.17
421.91	258.90
422.28	260.68
422.66	262.52
423.03	264.29
423.40	266.13
423.77	268.10
424.15	270.08
424.52	272.15
424.89	274.41
425.26	276.63
425.64	278.68
426.01	280.91
426.38	283.26
426.75	285.59
427.13	287.98
427.50	290.50
427.87	293.11
428.24	295.76
428.61	298.22
428.99	300.91
429.36	303.86
429.73	306.75
430.10	309.56
430.47	312.47
430.85	315.49
431.22	318.61
431.59	321.89
431.96	325.06
432.33	328.55
432.70	331.92
433.08	335.82
433.45	339.50
433.82	343.17
434.19	347.20
434.56	351.10
434.93	354.82
435.30	358.50
435.68	362.55
436.05	366.53
436.42	370.48
436.79	374.05
437.16	377.85
437.53	381.85
437.90	385.80
438.27	389.62
438.64	393.54
439.01	397.24
439.38	400.48
439.75	403.51
440.13	407.04
440.50	410.24
440.87	412.87
441.24	415.62
441.61	418.67
441.98	420.79
442.35	423.38
442.72	426.03
443.09	428.59
443.46	430.00
443.83	430.78
444.20	431.48
444.57	432.68
444.94	433.05
445.31	433.49
445.68	433.93
446.05	434.06
446.42	433.57
446.79	432.97
447.16	432.30
447.53	431.86
447.90	430.24
448.27	428.60
448.64	426.34
449.01	424.74
449.37	422.00
449.74	419.35
450.11	416.13
450.48	412.62
450.85	409.07
451.22	406.06
451.59	403.22
451.96	400.46
452.33	396.78
452.70	393.49
453.07	389.52
453.43	385.50
453.80	381.57
454.17	377.80
454.54	374.20
454.91	370.37
455.28	366.58
455.65	363.07
456.02	359.61
456.38	356.59
456.75	352.82
457.12	349.60
457.49	346.43
457.86	343.38
458.23	340.76
458.59	337.83
458.96	334.88
459.33	332.26
459.70	329.64
460.07	327.50
460.43	325.07
460.80	322.76
461.17	320.66
461.54	318.60
461.91	316.58
462.27	314.52
462.64	312.73
463.01	310.80
463.38	308.94
463.74	307.04
464.11	305.38
464.48	303.90
464.85	302.34
465.21	301.09
465.58	299.77
465.95	298.21
466.32	296.95
466.68	295.65
467.05	294.38
467.42	293.12
467.78	291.79
468.15	290.54
468.52	289.61
468.88	288.46
469.25	287.34
469.62	286.44
469.98	285.53
470.35	284.65
470.72	283.81
471.08	282.88
471.45	282.12
471.82	281.36
472.18	280.55
472.55	279.90
472.92	279.19
473.28	278.52
473.65	277.91
474.02	277.23
474.38	276.76
474.75	276.30
475.11	275.75
475.48	275.35
475.85	275.03
476.21	274.68
476.58	274.36
476.94	274.08
477.31	273.79
477.67	273.54
478.04	273.34
478.41	273.22
478.77	273.18
479.14	273.04
479.50	272.98
479.87	272.97
480.23	273.00
480.60	273.00
480.96	273.03
481.33	273.24
481.69	273.41
482.06	273.50
482.42	273.62
482.79	273.87
483.15	274.14
483.52	274.48
483.88	274.77
484.25	275.15
484.61	275.58
484.98	276.01
485.34	276.51
485.71	277.08
486.07	277.65
486.44	278.23
486.80	278.94
487.17	279.69
487.53	280.51
487.90	281.39
488.26	282.36
488.62	283.41
488.99	284.35
489.35	285.49
489.72	286.68
490.08	287.98
490.44	289.30
490.81	290.71
491.17	292.12
491.54	293.71
491.90	295.30
492.26	297.05
492.63	298.88
492.99	300.76
493.36	302.79
493.72	304.96
494.08	307.18
494.45	309.54
494.81	312.06
495.17	314.67
495.54	317.38
495.90	320.19
496.26	323.20
496.63	326.40
496.99	329.71
497.35	333.18
497.72	336.81
498.08	340.59
498.44	344.57
498.80	348.78
499.17	353.11
499.53	357.61
499.89	362.31
500.26	367.17
500.62	372.20
500.98	377.54
501.34	382.97
501.71	388.75
502.07	394.68
502.43	400.69
502.79	406.95
503.16	413.52
503.52	420.32
503.88	427.20
504.24	434.32
504.60	441.70
504.97	449.46
505.33	457.34
505.69	465.66
506.05	474.04
506.41	482.49
506.78	491.27
507.14	500.38
507.50	509.78
507.86	519.52
508.22	529.45
508.59	539.37
508.95	549.77
509.31	560.35
509.67	571.27
510.03	582.40
510.39	593.85
510.75	605.56
511.12	617.38
511.48	629.59
511.84	642.01
512.20	654.54
512.56	667.49
512.92	680.75
513.28	694.27
513.64	707.93
514.00	721.83
514.37	736.00
514.73	750.28
515.09	764.55
515.45	779.12
515.81	793.98
516.17	809.30
516.53	824.82
516.89	840.37
517.25	855.87
517.61	871.73
517.97	887.68
518.33	903.52
518.69	919.76
519.05	936.32
519.41	953.06
519.77	970.27
520.13	987.38
520.49	1004.43
520.85	1021.30
521.21	1038.53
521.57	1056.56
521.93	1073.93
522.29	1092.01
522.65	1110.06
523.01	1128.02
523.37	1145.87
523.73	1163.90
524.09	1181.80
524.45	1200.03
524.81	1218.62
525.17	1237.48
525.53	1256.31
525.89	1275.20
526.25	1294.15
526.61	1312.54
526.97	1331.35
527.33	1349.85
527.68	1368.40
528.04	1386.98
528.40	1405.76
528.76	1425.03
529.12	1443.82
529.48	1463.06
529.84	1481.32
530.20	1500.17
530.56	1519.48
530.91	1539.22
531.27	1558.36
531.63	1577.16
531.99	1596.06
532.35	1614.47
532.71	1632.68
533.07	1651.35
533.42	1669.74
533.78	1688.21
534.14	1706.95
534.50	1724.78
534.86	1743.11
535.21	1760.76
535.57	1779.26
535.93	1797.31
536.29	1814.54
536.65	1832.02
537.00	1849.22
537.36	1867.07
537.72	1884.03
538.08	1901.06
538.44	1917.37
538.79	1933.68
539.15	1949.66
539.51	1965.99
539.87	1982.80
540.22	1999.03
540.58	2015.31
540.94	2031.12
541.29	2046.38
541.65	2061.65
542.01	2077.40
542.37	2092.23
542.72	2107.32
543.08	2121.56
543.44	2136.56
543.79	2150.47
544.15	2164.06
544.51	2178.18
544.87	2191.70
545.22	2205.17
545.58	2217.80
545.94	2230.12
546.29	2242.59
546.65	2255.15
547.01	2266.85
547.36	2278.05
547.72	2288.95
548.07	2299.34
548.43	2309.82
548.79	2320.08
549.14	2329.92
549.50	2339.31
549.86	2349.21
550.21	2358.57
550.57	2368.03
550.92	2376.69
551.28	2385.89
551.64	2395.09
551.99	2403.84
552.35	2412.21
552.70	2420.40
553.06	2428.53
553.41	2436.93
553.77	2444.75
554.13	2452.86
554.48	2461.12
554.84	2468.66
555.19	2475.84
555.55	2482.78
555.90	2489.16
556.26	2496.31
556.61	2502.86
556.97	2509.29
557.32	2515.39
557.68	2521.54
558.03	2527.65
558.39	2533.18
558.74	2539.69
559.10	2545.36
559.45	2550.74
559.81	2556.54
560.16	2561.91
560.52	2566.70
560.87	2571.68
561.23	2576.13
561.58	2580.43
561.94	2584.40
562.29	2588.06
562.64	2592.26
563.00	2596.47
563.35	2601.39
563.71	2605.95
564.06	2610.64
564.42	2615.03
564.77	2619.07
565.12	2622.81
565.48	2625.86
565.83	2628.91
566.19	2631.48
566.54	2633.29
566.89	2635.60
567.25	2637.46
567.60	2640.08
567.96	2643.08
568.31	2645.00
568.66	2647.28
569.02	2649.04
569.37	2650.37
569.72	2652.35
570.08	2653.57
570.43	2654.33
570.78	2654.65
571.14	2653.76
571.49	2652.98
571.84	2653.25
572.20	2652.78
572.55	2652.23
572.90	2651.16
573.26	2650.39
573.61	2648.96
573.96	2647.96
574.31	2645.25
574.67	2642.55
575.02	2639.03
575.37	2635.65
575.72	2631.96
576.08	2628.33
576.43	2624.88
576.78	2621.18
577.13	2617.96
577.49	2614.68
577.84	2611.09
578.19	2607.07
578.54	2603.30
578.90	2599.09
579.25	2593.01
579.60	2587.57
579.95	2582.16
580.30	2576.89
580.66	2571.29
581.01	2565.99
581.36	2560.56
581.71	2556.10
582.06	2551.32
582.42	2546.61
582.77	2540.98
583.12	2536.06
583.47	2531.26
583.82	2526.12
584.17	2520.34
584.53	2514.26
584.88	2508.10
585.23	2501.91
585.58	2495.94
585.93	2489.92
586.28	2484.40
586.63	2478.89
586.98	2473.31
587.34	2468.10
587.69	2462.64
588.04	2456.79
588.39	2450.37
588.74	2442.94
589.09	2435.89
589.44	2428.07
589.79	2420.90
590.14	2414.45
590.49	2406.93
590.84	2399.36
591.19	2392.35
591.54	2385.12
591.89	2376.69
592.25	2368.89
592.60	2360.42
592.95	2351.82
593.30	2343.23
593.65	2334.56
594.00	2326.30
594.35	2317.78
594.70	2308.25
595.05	2300.03
595.40	2291.56
595.75	2282.85
596.10	2275.75
596.45	2267.95
596.80	2260.81
597.15	2253.27
597.50	2245.15
597.85	2237.46
598.19	2229.86
598.54	2221.79
598.89	2213.83
599.24	2206.98
599.59	2199.35
599.94	2191.98
600.29	2184.44
600.64	2176.74
600.99	2167.93
601.34	2159.92
601.69	2151.74
602.04	2143.83
602.39	2135.04
602.74	2126.91
603.08	2119.09
603.43	2110.90
603.78	2102.09
604.13	2093.59
604.48	2085.03
604.83	2076.75
605.18	2068.65
605.53	2059.22
605.87	2049.59
606.22	2040.89
606.57	2031.32
606.92	2022.19
607.27	2013.78
607.62	2005.61
607.96	1996.90
608.31	1989.09
608.66	1980.10
609.01	1971.06
609.36	1962.11
609.70	1952.51
610.05	1942.91
610.40	1933.60
610.75	1923.74
611.10	1914.72
611.44	1904.53
611.79	1894.98
612.14	1884.65
612.49	1873.59
612.83	1863.46
613.18	1853.58
613.53	1843.86
613.88	1833.71
614.22	1823.96
614.57	1813.58
614.92	1803.91
615.27	1795.06
615.61	1785.21
615.96	1775.58
616.31	1766.38
616.65	1757.44
617.00	1748.33
617.35	1739.15
617.70	1729.30
618.04	1719.33
618.39	1709.40
618.74	1700.43
619.08	1690.52
619.43	1681.39
619.78	1673.11
620.12	1664.53
620.47	1655.60
620.82	1645.85
621.16	1636.81
621.51	1627.47
621.85	1618.31
622.20	1608.13
622.55	1597.87
622.89	1588.30
623.24	1578.97
623.59	1569.99
623.93	1560.98
624.28	1552.18
624.62	1543.23
624.97	1534.52
625.32	1526.11
625.66	1517.75
626.01	1509.13
626.35	1500.21
626.70	1490.80
627.04	1481.54
627.39	1472.17
627.73	1463.26
628.08	1454.97
628.43	1446.39
628.77	1437.85
629.12	1428.91
629.46	1420.35
629.81	1411.41
630.15	1402.74
630.50	1393.97
630.84	1384.32
631.19	1374.66
631.53	1365.72
631.88	1356.48
632.22	1347.38
632.57	1338.62
632.91	1329.45
633.26	1320.54
633.60	1311.64
633.95	1303.09
634.29	1294.59
634.64	1286.60
634.98	1277.81
635.32	1269.20
635.67	1261.20
636.01	1253.15
636.36	1244.97
636.70	1237.03
637.05	1229.23
637.39	1221.54
637.73	1213.82
638.08	1206.71
638.42	1199.65
638.77	1192.07
639.11	1184.42
639.45	1176.78
639.80	1168.91
640.14	1161.42
640.49	1153.67
640.83	1146.09
641.17	1138.83
641.52	1131.29
641.86	1123.55
642.20	1116.60
642.55	1109.05
642.89	1101.43
643.23	1093.62
643.58	1086.81
643.92	1079.51
644.26	1072.44
644.61	1065.16
644.95	1058.07
645.29	1050.33
645.64	1042.36
645.98	1034.70
646.32	1027.61
646.66	1020.52
647.01	1013.76
647.35	1006.98
647.69	999.95
648.04	993.38
648.38	986.51
648.72	979.59
649.06	972.50
649.41	965.42
649.75	958.45
650.09	951.46
650.43	944.69
650.78	937.40
651.12	930.34
651.46	923.47
651.80	916.80
652.14	910.29
652.49	904.01
652.83	897.88
653.17	891.34
653.51	884.69
653.85	878.23
654.20	871.55
654.54	864.47
654.88	857.70
655.22	850.68
655.56	843.91
655.90	837.36
656.25	831.09
656.59	824.82
656.93	818.85
657.27	812.71
657.61	806.17
657.95	800.14
658.29	794.18
658.64	787.94
658.98	781.65
659.32	775.23
659.66	769.05
660.00	762.88
660.34	757.02
660.68	751.21
661.02	745.30
661.36	739.73
661.70	734.39
662.05	729.29
662.39	724.30
662.73	719.05
663.07	713.88
663.41	708.69
663.75	703.44
664.09	697.96
664.43	692.84
664.77	688.12
665.11	683.13
665.45	678.28
665.79	673.59
666.13	668.85
666.47	664.08
666.81	659.18
667.15	654.26
667.49	649.67
667.83	645.10
668.17	640.47
668.51	635.72
668.85	630.99
669.19	626.44
669.53	621.94
669.87	617.34
670.21	613.03
670.55	608.70
670.89	604.65
671.23	600.61
671.57	596.42
671.91	592.23
672.25	588.03
672.58	583.91
672.92	579.77
673.26	575.92
673.60	572.17
673.94	568.54
674.28	565.11
674.62	561.62
674.96	557.99
675.30	554.63
675.64	551.14
675.97	547.85
676.31	544.48
676.65	541.04
676.99	537.89
677.33	534.52
677.67	531.29
678.01	527.73
678.34	524.31
678.68	520.95
679.02	517.70
679.36	514.43
679.70	511.21
680.04	508.03
680.37	504.77
680.71	501.48
681.05	498.38
681.39	495.19
681.73	492.05
682.06	489.11
682.40	486.14
682.74	483.19
683.08	480.20
683.42	477.16
683.75	474.24
684.09	471.22
684.43	468.34
684.77	465.41
685.10	462.66
685.44	459.93
685.78	457.19
686.12	454.45
686.45	451.79
686.79	449.13
687.13	446.53
687.46	443.93
687.80	441.40
688.14	438.77
688.48	436.34
688.81	433.77
689.15	431.19
689.49	428.64
689.82	426.13
690.16	423.65
690.50	421.27
690.83	418.97
691.17	416.61
691.51	414.32
691.84	412.10
692.18	409.79
692.52	407.50
692.85	405.22
693.19	403.03
693.52	400.88
693.86	398.67
694.20	396.57
694.53	394.45
694.87	392.27
695.21	390.14
695.54	387.93
695.88	385.85
696.21	383.83
696.55	381.84
696.88	379.88
697.22	377.91
697.56	375.97
697.89	373.97
698.23	372.11
698.56	370.22
698.90	368.39
699.23	366.50
699.57	364.64
699.90	362.79
700.24	360.92
700.58	359.07
700.91	357.33
701.25	355.59
701.58	353.97
701.92	352.34
702.25	350.73
702.59	349.18
702.92	347.63
703.26	346.10
703.59	344.54
703.93	343.17
704.26	341.76
704.60	340.30
704.93	338.82
705.26	337.36
705.60	335.92
705.93	334.52
706.27	333.25
706.60	332.02
706.94	330.75
707.27	329.42
707.61	328.14
707.94	326.94
708.27	325.62
708.61	324.32
708.94	323.08
709.28	321.91
709.61	320.74
709.94	319.58
710.28	318.31
710.61	317.12
710.95	315.81
711.28	314.72
711.61	313.58
711.95	312.49
712.28	311.36
712.61	310.22
712.95	309.09
713.28	308.03
713.61	306.98
713.95	305.96
714.28	304.97
714.61	303.98
714.95	302.96
715.28	301.99
715.61	300.99
715.95	300.00
716.28	298.94
716.61	297.93
716.95	296.91
717.28	296.07
717.61	295.17
717.94	294.29
718.28	293.31
718.61	292.45
718.94	291.64
719.27	290.89
719.61	290.16
719.94	289.37
720.27	288.53
720.60	287.72
720.94	286.97
721.27	286.28
721.60	285.60
721.93	284.92
722.27	284.25
722.60	283.56
722.93	282.92
723.26	282.31
723.59	281.66
723.93	281.05
724.26	280.40
724.59	279.75
724.92	279.16
725.25	278.60
725.59	278.00
725.92	277.39
726.25	276.70
726.58	276.08
726.91	275.52
727.24	274.97
727.57	274.40
727.91	273.79
728.24	273.21
728.57	272.61
728.90	272.05
729.23	271.50
729.56	270.99
729.89	270.41
730.22	269.84
730.55	269.31
730.89	268.77
731.22	268.25
731.55	267.75
731.88	267.22
732.21	266.72
732.54	266.17
732.87	265.68
733.20	265.28
733.53	264.83
733.86	264.39
734.19	263.91
734.52	263.47
734.85	263.12
735.18	262.64
735.51	262.19
735.84	261.78
736.17	261.32
736.50	260.88
736.83	260.59
737.16	260.22
737.49	259.83
737.82	259.38
738.15	258.99
738.48	258.52
738.81	258.14
739.14	257.75
739.47	257.40
739.80	257.04
740.13	256.63
740.46	256.24
740.79	255.82
741.12	255.48
741.45	255.10
741.78	254.68
742.11	254.35
742.44	253.99
742.77	253.61
743.10	253.27
743.43	252.90
743.75	252.46
744.08	252.24
744.41	251.93
744.74	251.64
745.07	251.31
745.40	251.06
745.73	250.75
746.06	250.38
746.39	250.08
746.71	249.75
747.04	249.46
747.37	249.15
747.70	248.89
748.03	248.58
748.36	248.29
748.68	247.97
749.01	247.71
749.34	247.50
749.67	247.21
750.00	246.95
750.33	246.74
750.65	246.50
750.98	246.12
751.31	245.85
751.64	245.61
751.97	245.41
752.29	245.12
752.62	244.83
752.95	244.63
753.28	244.37
753.60	244.11
753.93	243.88
754.26	243.65
754.59	243.36
754.91	243.11
755.24	242.90
755.57	242.69
755.90	242.39
756.22	242.13
756.55	241.89
756.88	241.67
757.20	241.42
757.53	241.17
757.86	240.98
758.19	240.79
758.51	240.58
758.84	240.31
759.17	240.12
759.49	239.96
759.82	239.81
760.15	239.63
760.47	239.49
760.80	239.29
761.13	239.12
761.45	238.96
761.78	238.75
762.11	238.57
762.43	238.37
762.76	238.22
763.08	238.07
763.41	237.95
763.74	237.78
764.06	237.61
764.39	237.45
764.71	237.28
765.04	237.10
765.37	236.95
765.69	236.82
766.02	236.68
766.34	236.54
766.67	236.32
767.00	236.20
767.32	236.09
767.65	236.03
767.97	235.89
768.30	235.76
768.62	235.65
768.95	235.49
769.27	235.39
769.60	235.31
769.92	235.17
770.25	235.02
770.57	234.86
770.90	234.74
771.22	234.61
771.55	234.47
771.87	234.37
772.20	234.24
772.52	234.24
772.85	234.24
773.17	234.11
773.50	234.03
773.82	233.90
774.15	233.74
774.47	233.59
774.80	233.45
775.12	233.35
775.45	233.29
775.77	233.22
776.09	233.12
776.42	232.99
776.74	232.90
777.07	232.81
777.39	232.76
777.72	232.65
778.04	232.60
778.36	232.51
778.69	232.40
779.01	232.38
779.33	232.20
779.66	232.00
779.98	231.90
780.31	231.82
780.63	231.81
780.95	231.76
781.28	231.68
781.60	231.60
781.92	231.55
782.25	231.46
782.57	231.39
782.89	231.33
783.22	231.25
783.54	231.18
783.86	231.12
784.19	231.06
784.51	231.09
784.83	231.01
785.16	230.97
785.48	230.94
785.80	230.86
786.12	230.82
786.45	230.76
