SpectraSuite Data File
++++++++++++++++++++++++++++++++++++
Date: Fri Feb 01 18:00:33 EST 2013
User: group
Dark Spectrum Present: No
Reference Spectrum Present: No
Number of Sampled Component Spectra: 1
Spectrometers: USB2E7196
Integration Time (usec): 35000 (USB2E7196)
Spectra Averaged: 100 (USB2E7196)
Boxcar Smoothing: 10 (USB2E7196)
Correct for Electrical Dark: No (USB2E7196)
Strobe/Lamp Enabled: No (USB2E7196)
Correct for Detector Non-linearity: No (USB2E7196)
Correct for Stray Light: No (USB2E7196)
Number of Pixels in Processed Spectrum: 2048
>>>>>Begin Processed Spectral Data<<<<<
339.09	0.00
339.48	212.85
339.86	214.25
340.24	215.59
340.63	216.63
341.01	219.73
341.39	219.46
341.78	220.10
342.16	222.14
342.54	222.61
342.93	211.04
343.31	221.73
343.69	222.25
344.07	222.68
344.46	223.12
344.84	223.52
345.22	223.75
345.60	224.02
345.99	224.28
346.37	224.41
346.75	224.52
347.13	224.60
347.52	224.66
347.90	224.80
348.28	224.86
348.66	224.91
349.05	224.91
349.43	224.97
349.81	225.07
350.19	225.15
350.57	225.21
350.96	225.29
351.34	225.42
351.72	225.53
352.10	225.67
352.48	225.76
352.87	225.84
353.25	225.93
353.63	226.00
354.01	226.07
354.39	226.19
354.77	226.29
355.15	226.41
355.54	226.45
355.92	226.46
356.30	226.56
356.68	226.74
357.06	226.80
357.44	226.85
357.82	226.91
358.20	227.00
358.58	227.07
358.97	227.14
359.35	227.17
359.73	227.25
360.11	227.32
360.49	227.34
360.87	227.40
361.25	227.49
361.63	227.55
362.01	227.59
362.39	227.57
362.77	227.60
363.15	227.60
363.53	227.64
363.91	227.72
364.29	227.74
364.67	227.65
365.05	227.66
365.43	227.69
365.81	227.70
366.19	227.76
366.57	227.77
366.95	227.77
367.33	227.73
367.71	227.73
368.09	227.76
368.47	227.77
368.85	227.71
369.23	227.68
369.61	227.62
369.99	227.62
370.37	227.64
370.75	227.64
371.13	227.59
371.51	227.53
371.89	227.49
372.27	227.44
372.65	227.41
373.03	227.40
373.41	227.33
373.78	227.25
374.16	227.16
374.54	227.09
374.92	227.01
375.30	226.96
375.68	226.88
376.06	226.81
376.44	226.72
376.82	226.69
377.19	226.65
377.57	226.60
377.95	226.50
378.33	226.43
378.71	226.30
379.09	226.25
379.47	226.25
379.84	226.16
380.22	226.09
380.60	226.01
380.98	225.90
381.36	225.85
381.73	225.76
382.11	225.69
382.49	225.66
382.87	225.60
383.25	225.53
383.62	225.59
384.00	225.48
384.38	225.45
384.76	225.42
385.13	225.37
385.51	225.33
385.89	225.26
386.27	225.21
386.64	225.22
387.02	225.15
387.40	225.08
387.78	225.07
388.15	225.02
388.53	224.98
388.91	224.96
389.29	224.92
389.66	224.94
390.04	224.91
390.42	224.86
390.79	224.86
391.17	224.85
391.55	224.74
391.92	224.75
392.30	224.74
392.68	224.68
393.05	224.68
393.43	224.66
393.81	224.67
394.18	224.68
394.56	224.66
394.94	224.70
395.31	224.68
395.69	224.72
396.06	224.75
396.44	224.78
396.82	224.79
397.19	224.88
397.57	224.88
397.95	224.93
398.32	224.96
398.70	225.01
399.07	225.08
399.45	225.13
399.82	225.20
400.20	225.25
400.58	225.34
400.95	225.38
401.33	225.47
401.70	225.59
402.08	225.68
402.45	225.77
402.83	225.93
403.20	226.06
403.58	226.14
403.95	226.28
404.33	226.40
404.71	226.56
405.08	226.78
405.46	226.97
405.83	227.16
406.21	227.35
406.58	227.54
406.96	227.72
407.33	227.90
407.70	228.10
408.08	228.40
408.45	228.66
408.83	228.93
409.20	229.21
409.58	229.46
409.95	229.80
410.33	230.14
410.70	230.42
411.08	230.80
411.45	231.17
411.82	231.55
412.20	232.04
412.57	232.55
412.95	232.92
413.32	233.45
413.69	233.95
414.07	234.51
414.44	235.16
414.82	235.79
415.19	236.51
415.56	237.22
415.94	237.97
416.31	238.81
416.68	239.68
417.06	240.60
417.43	241.49
417.81	242.48
418.18	243.55
418.55	244.68
418.93	245.84
419.30	247.06
419.67	248.33
420.04	249.62
420.42	250.93
420.79	252.50
421.16	254.04
421.54	255.64
421.91	257.27
422.28	258.90
422.66	260.69
423.03	262.42
423.40	264.23
423.77	266.13
424.15	268.04
424.52	270.02
424.89	272.23
425.26	274.36
425.64	276.32
426.01	278.44
426.38	280.69
426.75	282.96
427.13	285.33
427.50	287.78
427.87	290.31
428.24	292.86
428.61	295.22
428.99	297.85
429.36	300.76
429.73	303.57
430.10	306.32
430.47	309.11
430.85	312.01
431.22	315.06
431.59	318.25
431.96	321.31
432.33	324.66
432.70	327.84
433.08	331.65
433.45	335.25
433.82	338.80
434.19	342.70
434.56	346.52
434.93	350.06
435.30	353.58
435.68	357.45
436.05	361.25
436.42	365.07
436.79	368.43
437.16	372.05
437.53	375.87
437.90	379.68
438.27	383.44
438.64	387.29
439.01	390.76
439.38	393.83
439.75	396.77
440.13	400.16
440.50	403.29
440.87	405.79
441.24	408.44
441.61	411.35
441.98	413.37
442.35	415.80
442.72	418.27
443.09	420.78
443.46	422.17
443.83	423.00
444.20	423.67
444.57	424.84
444.94	425.18
445.31	425.64
445.68	426.04
446.05	426.12
446.42	425.56
446.79	425.05
447.16	424.42
447.53	424.00
447.90	422.46
448.27	420.92
448.64	418.74
449.01	417.15
449.37	414.48
449.74	411.95
450.11	408.87
450.48	405.60
450.85	402.15
451.22	399.23
451.59	396.52
451.96	393.87
452.33	390.32
452.70	387.15
453.07	383.31
453.43	379.44
453.80	375.72
454.17	372.13
454.54	368.69
454.91	365.01
455.28	361.38
455.65	357.95
456.02	354.56
456.38	351.71
456.75	348.13
457.12	345.08
457.49	342.01
457.86	339.09
458.23	336.54
458.59	333.77
458.96	330.94
459.33	328.42
459.70	325.86
460.07	323.81
460.43	321.50
460.80	319.32
461.17	317.37
461.54	315.33
461.91	313.40
462.27	311.42
462.64	309.73
463.01	307.90
463.38	306.13
463.74	304.35
464.11	302.73
464.48	301.32
464.85	299.79
465.21	298.60
465.58	297.35
465.95	295.89
466.32	294.65
466.68	293.45
467.05	292.22
467.42	291.04
467.78	289.78
468.15	288.58
468.52	287.67
468.88	286.53
469.25	285.49
469.62	284.62
469.98	283.68
470.35	282.81
470.72	282.00
471.08	281.14
471.45	280.38
471.82	279.66
472.18	278.87
472.55	278.29
472.92	277.59
473.28	276.95
473.65	276.30
474.02	275.68
474.38	275.13
474.75	274.61
475.11	274.14
475.48	273.75
475.85	273.41
476.21	273.09
476.58	272.79
476.94	272.51
477.31	272.19
477.67	271.95
478.04	271.72
478.41	271.57
478.77	271.54
479.14	271.40
479.50	271.33
479.87	271.31
480.23	271.31
480.60	271.30
480.96	271.32
481.33	271.52
481.69	271.64
482.06	271.81
482.42	271.97
482.79	272.16
483.15	272.44
483.52	272.79
483.88	273.06
484.25	273.40
484.61	273.78
484.98	274.24
485.34	274.75
485.71	275.32
486.07	275.94
486.44	276.49
486.80	277.20
487.17	277.94
487.53	278.76
487.90	279.59
488.26	280.52
488.62	281.52
488.99	282.50
489.35	283.63
489.72	284.77
490.08	286.04
490.44	287.36
490.81	288.77
491.17	290.13
491.54	291.65
491.90	293.23
492.26	294.97
492.63	296.79
492.99	298.71
493.36	300.69
493.72	302.80
494.08	305.05
494.45	307.45
494.81	309.93
495.17	312.51
495.54	315.27
495.90	318.11
496.26	321.05
496.63	324.17
496.99	327.43
497.35	330.87
497.72	334.45
498.08	338.15
498.44	341.99
498.80	346.20
499.17	350.51
499.53	354.97
499.89	359.62
500.26	364.37
500.62	369.26
500.98	374.54
501.34	379.97
501.71	385.59
502.07	391.36
502.43	397.37
502.79	403.52
503.16	409.97
503.52	416.64
503.88	423.51
504.24	430.55
504.60	437.88
504.97	445.53
505.33	453.30
505.69	461.45
506.05	469.71
506.41	478.08
506.78	486.82
507.14	495.80
507.50	505.12
507.86	514.73
508.22	524.60
508.59	534.52
508.95	544.71
509.31	555.19
509.67	565.90
510.03	576.81
510.39	588.17
510.75	599.71
511.12	611.44
511.48	623.50
511.84	635.78
512.20	648.09
512.56	660.81
512.92	673.98
513.28	687.32
513.64	700.81
514.00	714.56
514.37	728.50
514.73	742.50
515.09	756.54
515.45	770.91
515.81	785.50
516.17	800.46
516.53	815.76
516.89	831.08
517.25	846.45
517.61	862.10
517.97	877.70
518.33	893.31
518.69	909.31
519.05	925.67
519.41	942.20
519.77	959.14
520.13	975.91
520.49	992.54
520.85	1009.21
521.21	1026.36
521.57	1043.99
521.93	1061.04
522.29	1078.96
522.65	1096.62
523.01	1114.31
523.37	1131.91
523.73	1149.68
524.09	1167.33
524.45	1185.22
524.81	1203.48
525.17	1221.93
525.53	1240.54
525.89	1259.23
526.25	1277.93
526.61	1295.94
526.97	1314.43
527.33	1332.68
527.68	1351.21
528.04	1369.52
528.40	1387.95
528.76	1406.76
529.12	1425.33
529.48	1444.26
529.84	1462.24
530.20	1481.00
530.56	1500.01
530.91	1519.57
531.27	1538.38
531.63	1556.88
531.99	1575.60
532.35	1593.66
532.71	1611.58
533.07	1629.94
533.42	1647.88
533.78	1665.90
534.14	1684.33
534.50	1701.75
534.86	1719.65
535.21	1736.93
535.57	1755.15
535.93	1772.85
536.29	1789.84
536.65	1806.97
537.00	1823.76
537.36	1841.30
537.72	1857.83
538.08	1874.44
538.44	1890.32
538.79	1906.31
539.15	1922.00
539.51	1937.76
539.87	1954.33
540.22	1970.41
540.58	1986.36
540.94	2001.83
541.29	2016.90
541.65	2031.82
542.01	2047.44
542.37	2062.09
542.72	2076.72
543.08	2090.59
543.44	2105.38
543.79	2118.97
544.15	2132.09
544.51	2146.03
544.87	2159.13
545.22	2172.33
545.58	2184.79
545.94	2196.65
546.29	2208.79
546.65	2220.89
547.01	2232.44
547.36	2243.27
547.72	2253.82
548.07	2263.81
548.43	2274.13
548.79	2284.29
549.14	2293.87
549.50	2302.96
549.86	2312.64
550.21	2321.96
550.57	2331.21
550.92	2339.73
551.28	2348.67
551.64	2357.80
551.99	2366.20
552.35	2374.36
552.70	2382.29
553.06	2390.27
553.41	2398.62
553.77	2406.52
554.13	2414.46
554.48	2422.53
554.84	2430.01
555.19	2436.86
555.55	2443.89
555.90	2450.06
556.26	2456.75
556.61	2463.10
556.97	2469.30
557.32	2475.09
557.68	2480.85
558.03	2486.85
558.39	2492.04
558.74	2498.30
559.10	2503.71
559.45	2508.96
559.81	2514.85
560.16	2520.29
560.52	2524.90
560.87	2529.76
561.23	2533.69
561.58	2538.22
561.94	2542.00
562.29	2545.50
562.64	2549.73
563.00	2553.52
563.35	2558.43
563.71	2562.88
564.06	2567.64
564.42	2571.70
564.77	2575.49
565.12	2579.18
565.48	2582.17
565.83	2585.30
566.19	2587.86
566.54	2589.72
566.89	2592.20
567.25	2593.77
567.60	2596.16
567.96	2599.09
568.31	2600.88
568.66	2603.17
569.02	2604.57
569.37	2605.81
569.72	2607.65
570.08	2608.62
570.43	2609.31
570.78	2609.47
571.14	2608.37
571.49	2607.30
571.84	2607.78
572.20	2607.29
572.55	2606.77
572.90	2605.68
573.26	2604.90
573.61	2603.40
573.96	2602.42
574.31	2599.47
574.67	2596.75
575.02	2593.19
575.37	2589.85
575.72	2586.24
576.08	2582.75
576.43	2579.30
576.78	2575.71
577.13	2572.45
577.49	2569.38
577.84	2565.94
578.19	2562.08
578.54	2558.52
578.90	2554.49
579.25	2548.50
579.60	2543.29
579.95	2538.01
580.30	2532.75
580.66	2527.20
581.01	2522.08
581.36	2516.63
581.71	2512.27
582.06	2507.54
582.42	2502.89
582.77	2497.25
583.12	2492.41
583.47	2487.56
583.82	2482.46
584.17	2476.75
584.53	2470.99
584.88	2464.86
585.23	2458.79
585.58	2452.95
585.93	2446.94
586.28	2441.64
586.63	2436.35
586.98	2430.82
587.34	2425.50
587.69	2420.11
588.04	2414.38
588.39	2408.07
588.74	2400.90
589.09	2394.09
589.44	2386.54
589.79	2379.65
590.14	2373.39
590.49	2365.92
590.84	2358.77
591.19	2351.93
591.54	2344.80
591.89	2336.63
592.25	2329.03
592.60	2320.81
592.95	2312.23
593.30	2304.10
593.65	2295.52
594.00	2287.34
594.35	2279.01
594.70	2270.03
595.05	2262.08
595.40	2253.71
595.75	2245.15
596.10	2238.30
596.45	2230.62
596.80	2223.53
597.15	2216.06
597.50	2208.07
597.85	2200.56
598.19	2192.90
598.54	2184.93
598.89	2177.15
599.24	2170.23
599.59	2162.69
599.94	2155.69
600.29	2148.39
600.64	2140.64
600.99	2132.12
601.34	2124.32
601.69	2116.29
602.04	2108.49
602.39	2099.89
602.74	2091.85
603.08	2084.05
603.43	2076.07
603.78	2067.62
604.13	2059.24
604.48	2050.79
604.83	2042.79
605.18	2035.01
605.53	2025.85
605.87	2016.42
606.22	2008.09
606.57	1998.76
606.92	1989.99
607.27	1981.60
607.62	1973.59
607.96	1965.20
608.31	1957.39
608.66	1948.32
609.01	1939.44
609.36	1930.39
609.70	1920.96
610.05	1911.70
610.40	1902.72
610.75	1893.02
611.10	1884.04
611.44	1874.09
611.79	1864.69
612.14	1854.47
612.49	1843.52
612.83	1833.57
613.18	1823.99
613.53	1814.49
613.88	1804.52
614.22	1794.84
614.57	1784.55
614.92	1775.19
615.27	1766.40
615.61	1756.62
615.96	1747.21
616.31	1738.24
616.65	1729.60
617.00	1720.67
617.35	1711.51
617.70	1701.72
618.04	1691.58
618.39	1681.79
618.74	1672.94
619.08	1663.20
619.43	1654.15
619.78	1645.99
620.12	1637.45
620.47	1628.61
620.82	1618.91
621.16	1610.07
621.51	1601.10
621.85	1592.13
622.20	1581.93
622.55	1571.89
622.89	1562.66
623.24	1553.67
623.59	1544.94
623.93	1536.01
624.28	1527.53
624.62	1518.64
624.97	1510.17
625.32	1502.18
625.66	1493.82
626.01	1485.43
626.35	1476.77
626.70	1467.66
627.04	1458.56
627.39	1449.37
627.73	1440.60
628.08	1432.47
628.43	1424.02
628.77	1415.37
629.12	1406.49
629.46	1398.09
629.81	1389.32
630.15	1380.80
630.50	1372.14
630.84	1362.59
631.19	1353.19
631.53	1344.39
631.88	1335.56
632.22	1326.56
632.57	1317.99
632.91	1309.26
633.26	1300.53
633.60	1291.75
633.95	1283.35
634.29	1275.00
634.64	1267.24
634.98	1258.63
635.32	1250.25
635.67	1242.37
636.01	1234.58
636.36	1226.68
636.70	1218.98
637.05	1211.36
637.39	1203.77
637.73	1196.19
638.08	1189.29
638.42	1182.25
638.77	1174.71
639.11	1167.11
639.45	1159.64
639.80	1151.79
640.14	1144.32
640.49	1136.69
640.83	1129.32
641.17	1122.15
641.52	1114.83
641.86	1107.17
642.20	1100.38
642.55	1092.96
642.89	1085.46
643.23	1077.74
643.58	1070.96
643.92	1063.80
644.26	1056.75
644.61	1049.65
644.95	1042.58
645.29	1034.96
645.64	1027.22
645.98	1019.77
646.32	1012.71
646.66	1005.78
647.01	999.07
647.35	992.33
647.69	985.48
648.04	978.97
648.38	972.24
648.72	965.41
649.06	958.54
649.41	951.66
649.75	944.79
650.09	937.89
650.43	931.25
650.78	924.14
651.12	917.29
651.46	910.62
651.80	904.07
652.14	897.83
652.49	891.67
652.83	885.64
653.17	879.09
653.51	872.66
653.85	866.42
654.20	859.98
654.54	853.10
654.88	846.47
655.22	839.68
655.56	833.02
655.90	826.61
656.25	820.56
656.59	814.39
656.93	808.55
657.27	802.59
657.61	796.23
657.95	790.35
658.29	784.42
658.64	778.32
658.98	772.15
659.32	765.84
659.66	759.70
660.00	753.53
660.34	747.65
660.68	741.95
661.02	735.97
661.36	730.48
661.70	725.23
662.05	720.20
662.39	715.20
662.73	710.06
663.07	704.99
663.41	699.76
663.75	694.60
664.09	689.23
664.43	684.19
664.77	679.54
665.11	674.63
665.45	669.78
665.79	665.07
666.13	660.27
666.47	655.57
666.81	650.83
667.15	646.10
667.49	641.75
667.83	637.26
668.17	632.83
668.51	628.17
668.85	623.53
669.19	619.08
669.53	614.73
669.87	610.30
670.21	605.98
670.55	601.85
670.89	597.83
671.23	593.84
671.57	589.72
671.91	585.60
672.25	581.49
672.58	577.46
672.92	573.47
673.26	569.81
673.60	566.16
673.94	562.49
674.28	559.15
674.62	555.70
674.96	552.23
675.30	548.88
675.64	545.50
675.97	542.24
676.31	538.91
676.65	535.51
676.99	532.36
677.33	529.09
677.67	525.86
678.01	522.38
678.34	518.99
678.68	515.70
679.02	512.40
679.36	509.22
679.70	506.14
680.04	503.03
680.37	499.78
680.71	496.50
681.05	493.51
681.39	490.35
681.73	487.27
682.06	484.33
682.40	481.40
682.74	478.45
683.08	475.48
683.42	472.42
683.75	469.53
684.09	466.57
684.43	463.75
684.77	460.78
685.10	458.04
685.44	455.35
685.78	452.64
686.12	450.06
686.45	447.42
686.79	444.69
687.13	442.16
687.46	439.57
687.80	437.09
688.14	434.50
688.48	432.09
688.81	429.44
689.15	426.91
689.49	424.39
689.82	421.98
690.16	419.59
690.50	417.36
690.83	415.11
691.17	412.79
691.51	410.52
691.84	408.42
692.18	406.19
692.52	403.93
692.85	401.68
693.19	399.49
693.52	397.34
693.86	395.24
694.20	393.11
694.53	391.07
694.87	388.90
695.21	386.81
695.54	384.71
695.88	382.73
696.21	380.74
696.55	378.80
696.88	376.82
697.22	374.84
697.56	372.92
697.89	370.98
698.23	369.09
698.56	367.24
698.90	365.40
699.23	363.53
699.57	361.69
699.90	359.92
700.24	358.12
700.58	356.36
700.91	354.65
701.25	352.96
701.58	351.36
701.92	349.78
702.25	348.22
702.59	346.67
702.92	345.16
703.26	343.64
703.59	342.14
703.93	340.79
704.26	339.36
704.60	337.88
704.93	336.39
705.26	334.93
705.60	333.54
705.93	332.18
706.27	330.96
706.60	329.77
706.94	328.50
707.27	327.19
707.61	325.91
707.94	324.72
708.27	323.45
708.61	322.17
708.94	320.98
709.28	319.85
709.61	318.72
709.94	317.54
710.28	316.33
710.61	315.18
710.95	313.90
711.28	312.89
711.61	311.80
711.95	310.76
712.28	309.70
712.61	308.55
712.95	307.42
713.28	306.34
713.61	305.25
713.95	304.21
714.28	303.26
714.61	302.27
714.95	301.23
715.28	300.25
715.61	299.22
715.95	298.27
716.28	297.20
716.61	296.20
716.95	295.26
717.28	294.44
717.61	293.54
717.94	292.71
718.28	291.76
718.61	290.91
718.94	290.13
719.27	289.34
719.61	288.59
719.94	287.88
720.27	287.08
720.60	286.30
720.94	285.62
721.27	284.94
721.60	284.29
721.93	283.62
722.27	282.96
722.60	282.31
722.93	281.64
723.26	281.04
723.59	280.43
723.93	279.80
724.26	279.12
724.59	278.45
724.92	277.82
725.25	277.25
725.59	276.62
725.92	276.01
726.25	275.43
726.58	274.86
726.91	274.27
727.24	273.76
727.57	273.24
727.91	272.61
728.24	272.01
728.57	271.43
728.90	270.93
729.23	270.37
729.56	269.86
729.89	269.28
730.22	268.71
730.55	268.18
730.89	267.68
731.22	267.20
731.55	266.72
731.88	266.22
732.21	265.72
732.54	265.22
732.87	264.75
733.20	264.29
733.53	263.87
733.86	263.43
734.19	262.90
734.52	262.46
734.85	262.11
735.18	261.62
735.51	261.24
735.84	260.79
736.17	260.39
736.50	259.96
736.83	259.70
737.16	259.32
737.49	258.89
737.82	258.47
738.15	258.09
738.48	257.69
738.81	257.33
739.14	256.96
739.47	256.60
739.80	256.21
740.13	255.86
740.46	255.46
740.79	255.08
741.12	254.75
741.45	254.40
741.78	254.02
742.11	253.72
742.44	253.29
742.77	252.96
743.10	252.61
743.43	252.26
743.75	251.82
744.08	251.62
744.41	251.30
744.74	251.00
745.07	250.67
745.40	250.40
745.73	250.12
746.06	249.81
746.39	249.51
746.71	249.18
747.04	248.88
747.37	248.59
747.70	248.29
748.03	247.99
748.36	247.71
748.68	247.42
749.01	247.13
749.34	246.90
749.67	246.63
750.00	246.33
750.33	246.11
750.65	245.88
750.98	245.50
751.31	245.26
751.64	245.01
751.97	244.79
752.29	244.54
752.62	244.24
752.95	243.99
753.28	243.75
753.60	243.53
753.93	243.29
754.26	243.05
754.59	242.81
754.91	242.61
755.24	242.37
755.57	242.15
755.90	241.90
756.22	241.66
756.55	241.44
756.88	241.23
757.20	240.99
757.53	240.75
757.86	240.56
758.19	240.36
758.51	240.16
758.84	239.93
759.17	239.74
759.49	239.57
759.82	239.45
760.15	239.28
760.47	239.10
760.80	238.92
761.13	238.77
761.45	238.60
761.78	238.42
762.11	238.25
762.43	238.07
762.76	237.93
763.08	237.78
763.41	237.62
763.74	237.51
764.06	237.34
764.39	237.20
764.71	237.07
765.04	236.95
765.37	236.79
765.69	236.64
766.02	236.48
766.34	236.34
766.67	236.16
767.00	236.03
767.32	235.97
767.65	235.88
767.97	235.74
768.30	235.63
768.62	235.49
768.95	235.40
769.27	235.26
769.60	235.19
769.92	235.06
770.25	234.93
770.57	234.77
770.90	234.65
771.22	234.48
771.55	234.37
771.87	234.23
772.20	234.14
772.52	234.12
772.85	234.14
773.17	234.02
773.50	233.89
773.82	233.79
774.15	233.64
774.47	233.52
774.80	233.43
775.12	233.31
775.45	233.20
775.77	233.10
776.09	233.03
776.42	232.91
776.74	232.87
777.07	232.78
777.39	232.71
777.72	232.62
778.04	232.58
778.36	232.49
778.69	232.45
779.01	232.39
779.33	232.23
779.66	232.04
779.98	231.97
780.31	231.92
780.63	231.87
780.95	231.78
781.28	231.69
781.60	231.57
781.92	231.52
782.25	231.46
782.57	231.38
782.89	231.31
783.22	231.22
783.54	231.14
783.86	231.08
784.19	231.01
784.51	231.00
784.83	230.93
785.16	230.87
785.48	230.81
785.80	230.73
786.12	230.70
786.45	230.64
