SpectraSuite Data File
++++++++++++++++++++++++++++++++++++
Date: Fri Feb 01 15:44:24 EST 2013
User: group
Dark Spectrum Present: No
Reference Spectrum Present: No
Number of Sampled Component Spectra: 1
Spectrometers: USB2E7196
Integration Time (usec): 35000 (USB2E7196)
Spectra Averaged: 100 (USB2E7196)
Boxcar Smoothing: 10 (USB2E7196)
Correct for Electrical Dark: No (USB2E7196)
Strobe/Lamp Enabled: No (USB2E7196)
Correct for Detector Non-linearity: No (USB2E7196)
Correct for Stray Light: No (USB2E7196)
Number of Pixels in Processed Spectrum: 2048
>>>>>Begin Processed Spectral Data<<<<<
339.09	0.00
339.48	214.74
339.86	216.32
340.24	218.11
340.63	219.48
341.01	221.99
341.39	221.27
341.78	222.98
342.16	223.45
342.54	224.36
342.93	213.11
343.31	223.86
343.69	224.40
344.07	224.87
344.46	225.29
344.84	225.64
345.22	225.87
345.60	226.12
345.99	226.29
346.37	226.43
346.75	226.51
347.13	226.59
347.52	226.64
347.90	226.67
348.28	226.68
348.66	226.74
349.05	226.73
349.43	226.80
349.81	226.84
350.19	226.89
350.57	226.97
350.96	227.08
351.34	227.17
351.72	227.24
352.10	227.33
352.48	227.41
352.87	227.49
353.25	227.55
353.63	227.65
354.01	227.71
354.39	227.81
354.77	227.88
355.15	227.96
355.54	228.01
355.92	228.08
356.30	228.18
356.68	228.26
357.06	228.31
357.44	228.32
357.82	228.39
358.20	228.49
358.58	228.52
358.97	228.56
359.35	228.65
359.73	228.74
360.11	228.80
360.49	228.84
360.87	228.87
361.25	228.92
361.63	228.98
362.01	229.03
362.39	229.05
362.77	229.11
363.15	229.13
363.53	229.16
363.91	229.16
364.29	229.16
364.67	229.12
365.05	229.16
365.43	229.23
365.81	229.26
366.19	229.26
366.57	229.30
366.95	229.31
367.33	229.28
367.71	229.23
368.09	229.25
368.47	229.22
368.85	229.21
369.23	229.20
369.61	229.13
369.99	229.15
370.37	229.15
370.75	229.20
371.13	229.15
371.51	229.13
371.89	229.12
372.27	229.09
372.65	229.04
373.03	228.97
373.41	228.90
373.78	228.82
374.16	228.71
374.54	228.64
374.92	228.57
375.30	228.51
375.68	228.49
376.06	228.39
376.44	228.33
376.82	228.29
377.19	228.26
377.57	228.20
377.95	228.12
378.33	228.07
378.71	227.94
379.09	227.89
379.47	227.83
379.84	227.74
380.22	227.68
380.60	227.61
380.98	227.55
381.36	227.49
381.73	227.37
382.11	227.34
382.49	227.25
382.87	227.19
383.25	227.11
383.62	227.13
384.00	227.06
384.38	227.00
384.76	226.95
385.13	226.90
385.51	226.84
385.89	226.73
386.27	226.65
386.64	226.63
387.02	226.58
387.40	226.54
387.78	226.50
388.15	226.48
388.53	226.44
388.91	226.41
389.29	226.37
389.66	226.38
390.04	226.36
390.42	226.37
390.79	226.36
391.17	226.38
391.55	226.29
391.92	226.25
392.30	226.27
392.68	226.23
393.05	226.22
393.43	226.25
393.81	226.29
394.18	226.33
394.56	226.34
394.94	226.38
395.31	226.38
395.69	226.44
396.06	226.45
396.44	226.47
396.82	226.50
397.19	226.56
397.57	226.58
397.95	226.61
398.32	226.65
398.70	226.69
399.07	226.74
399.45	226.79
399.82	226.88
400.20	226.92
400.58	227.01
400.95	227.04
401.33	227.14
401.70	227.30
402.08	227.36
402.45	227.44
402.83	227.58
403.20	227.69
403.58	227.78
403.95	227.94
404.33	228.12
404.71	228.25
405.08	228.45
405.46	228.59
405.83	228.77
406.21	228.91
406.58	229.06
406.96	229.22
407.33	229.38
407.70	229.61
408.08	229.89
408.45	230.07
408.83	230.32
409.20	230.53
409.58	230.68
409.95	230.95
410.33	231.23
410.70	231.44
411.08	231.75
411.45	232.04
411.82	232.33
412.20	232.69
412.57	233.10
412.95	233.40
413.32	233.83
413.69	234.20
414.07	234.66
414.44	235.14
414.82	235.63
415.19	236.19
415.56	236.73
415.94	237.27
416.31	237.90
416.68	238.52
417.06	239.24
417.43	239.96
417.81	240.71
418.18	241.47
418.55	242.31
418.93	243.19
419.30	244.09
419.67	245.05
420.04	246.00
420.42	247.02
420.79	248.19
421.16	249.34
421.54	250.54
421.91	251.79
422.28	253.02
422.66	254.33
423.03	255.62
423.40	256.98
423.77	258.40
424.15	259.84
424.52	261.35
424.89	262.97
425.26	264.49
425.64	265.95
426.01	267.56
426.38	269.27
426.75	270.93
427.13	272.66
427.50	274.41
427.87	276.24
428.24	278.08
428.61	279.81
428.99	281.77
429.36	283.89
429.73	285.95
430.10	288.03
430.47	290.12
430.85	292.23
431.22	294.47
431.59	296.82
431.96	299.06
432.33	301.52
432.70	303.89
433.08	306.70
433.45	309.36
433.82	311.96
434.19	314.82
434.56	317.67
434.93	320.28
435.30	322.91
435.68	325.80
436.05	328.61
436.42	331.41
436.79	333.83
437.16	336.49
437.53	339.29
437.90	342.13
438.27	344.88
438.64	347.72
439.01	350.31
439.38	352.52
439.75	354.72
440.13	357.23
440.50	359.53
440.87	361.38
441.24	363.26
441.61	365.45
441.98	366.96
442.35	368.72
442.72	370.61
443.09	372.47
443.46	373.48
443.83	374.05
444.20	374.60
444.57	375.51
444.94	375.83
445.31	376.18
445.68	376.47
446.05	376.54
446.42	376.13
446.79	375.68
447.16	375.22
447.53	374.85
447.90	373.65
448.27	372.54
448.64	370.92
449.01	369.83
449.37	367.81
449.74	365.88
450.11	363.63
450.48	361.16
450.85	358.58
451.22	356.45
451.59	354.44
451.96	352.46
452.33	349.83
452.70	347.45
453.07	344.61
453.43	341.72
453.80	338.92
454.17	336.24
454.54	333.72
454.91	331.05
455.28	328.39
455.65	325.92
456.02	323.48
456.38	321.36
456.75	318.68
457.12	316.43
457.49	314.22
457.86	312.08
458.23	310.22
458.59	308.18
458.96	306.08
459.33	304.26
459.70	302.41
460.07	300.92
460.43	299.23
460.80	297.57
461.17	296.12
461.54	294.63
461.91	293.23
462.27	291.80
462.64	290.53
463.01	289.20
463.38	287.89
463.74	286.54
464.11	285.34
464.48	284.29
464.85	283.19
465.21	282.31
465.58	281.36
465.95	280.26
466.32	279.33
466.68	278.43
467.05	277.50
467.42	276.62
467.78	275.68
468.15	274.81
468.52	274.18
468.88	273.34
469.25	272.58
469.62	271.97
469.98	271.25
470.35	270.63
470.72	270.04
471.08	269.39
471.45	268.84
471.82	268.34
472.18	267.77
472.55	267.34
472.92	266.79
473.28	266.35
473.65	265.90
474.02	265.53
474.38	265.15
474.75	264.83
475.11	264.48
475.48	264.22
475.85	263.99
476.21	263.74
476.58	263.57
476.94	263.42
477.31	263.25
477.67	263.12
478.04	263.03
478.41	262.95
478.77	263.00
479.14	262.93
479.50	262.95
479.87	263.01
480.23	263.07
480.60	263.17
480.96	263.23
481.33	263.44
481.69	263.58
482.06	263.75
482.42	263.95
482.79	264.22
483.15	264.52
483.52	264.87
483.88	265.26
484.25	265.62
484.61	266.00
484.98	266.44
485.34	267.00
485.71	267.56
486.07	268.18
486.44	268.74
486.80	269.46
487.17	270.15
487.53	270.97
487.90	271.84
488.26	272.77
488.62	273.76
488.99	274.72
489.35	275.77
489.72	276.92
490.08	278.15
490.44	279.40
490.81	280.79
491.17	282.13
491.54	283.59
491.90	285.13
492.26	286.82
492.63	288.56
492.99	290.33
493.36	292.22
493.72	294.23
494.08	296.34
494.45	298.59
494.81	300.96
495.17	303.42
495.54	305.97
495.90	308.63
496.26	311.46
496.63	314.39
496.99	317.52
497.35	320.77
497.72	324.16
498.08	327.63
498.44	331.28
498.80	335.19
499.17	339.23
499.53	343.45
499.89	347.80
500.26	352.32
500.62	357.02
500.98	361.97
501.34	367.08
501.71	372.39
502.07	377.81
502.43	383.43
502.79	389.24
503.16	395.30
503.52	401.56
503.88	407.92
504.24	414.61
504.60	421.54
504.97	428.74
505.33	436.07
505.69	443.80
506.05	451.57
506.41	459.47
506.78	467.66
507.14	476.12
507.50	484.88
507.86	493.90
508.22	503.07
508.59	512.31
508.95	521.96
509.31	531.85
509.67	542.01
510.03	552.31
510.39	562.85
510.75	573.69
511.12	584.66
511.48	596.01
511.84	607.53
512.20	618.95
512.56	630.87
512.92	643.04
513.28	655.41
513.64	667.91
514.00	680.67
514.37	693.55
514.73	706.59
515.09	719.63
515.45	732.94
515.81	746.59
516.17	760.64
516.53	774.74
516.89	788.84
517.25	803.03
517.61	817.56
517.97	831.99
518.33	846.42
518.69	861.18
519.05	876.18
519.41	891.28
519.77	906.94
520.13	922.41
520.49	937.80
520.85	953.19
521.21	968.94
521.57	985.11
521.93	1000.83
522.29	1017.22
522.65	1033.44
523.01	1049.58
523.37	1065.57
523.73	1081.77
524.09	1097.75
524.45	1114.15
524.81	1130.78
525.17	1147.48
525.53	1164.39
525.89	1181.27
526.25	1198.05
526.61	1214.55
526.97	1231.34
527.33	1247.76
527.68	1264.28
528.04	1280.78
528.40	1297.40
528.76	1314.42
529.12	1331.12
529.48	1348.01
529.84	1364.04
530.20	1380.73
530.56	1397.85
530.91	1415.24
531.27	1431.98
531.63	1448.54
531.99	1465.05
532.35	1480.88
532.71	1496.72
533.07	1512.98
533.42	1528.82
533.78	1544.82
534.14	1560.95
534.50	1576.25
534.86	1592.15
535.21	1607.39
535.57	1623.41
535.93	1638.89
536.29	1653.68
536.65	1668.70
537.00	1683.55
537.36	1698.84
537.72	1713.37
538.08	1727.67
538.44	1741.50
538.79	1755.20
539.15	1768.83
539.51	1782.64
539.87	1797.11
540.22	1810.97
540.58	1824.80
540.94	1838.25
541.29	1851.12
541.65	1863.89
542.01	1877.12
542.37	1889.38
542.72	1901.87
543.08	1913.49
543.44	1925.77
543.79	1937.10
544.15	1948.15
544.51	1959.72
544.87	1970.72
545.22	1981.46
545.58	1991.67
545.94	2001.43
546.29	2011.45
546.65	2021.42
547.01	2030.60
547.36	2039.34
547.72	2047.75
548.07	2055.52
548.43	2063.61
548.79	2071.83
549.14	2079.33
549.50	2086.73
549.86	2094.51
550.21	2101.75
550.57	2108.92
550.92	2115.60
551.28	2122.58
551.64	2129.53
551.99	2135.94
552.35	2142.16
552.70	2148.34
553.06	2154.41
553.41	2160.74
553.77	2166.70
554.13	2172.67
554.48	2178.81
554.84	2184.31
555.19	2189.54
555.55	2194.70
555.90	2199.26
556.26	2204.02
556.61	2208.80
556.97	2212.94
557.32	2216.97
557.68	2221.13
558.03	2225.45
558.39	2229.14
558.74	2233.68
559.10	2237.67
559.45	2241.56
559.81	2245.70
560.16	2249.48
560.52	2252.66
560.87	2256.18
561.23	2258.77
561.58	2261.68
561.94	2264.20
562.29	2266.42
562.64	2269.11
563.00	2271.70
563.35	2275.08
563.71	2278.21
564.06	2281.33
564.42	2284.24
564.77	2286.90
565.12	2289.09
565.48	2291.07
565.83	2292.93
566.19	2294.28
566.54	2295.11
566.89	2296.09
567.25	2296.76
567.60	2298.14
567.96	2299.85
568.31	2300.71
568.66	2301.84
569.02	2302.37
569.37	2302.57
569.72	2303.49
570.08	2303.69
570.43	2303.80
570.78	2303.20
571.14	2301.58
571.49	2300.35
571.84	2300.08
572.20	2298.83
572.55	2297.81
572.90	2296.27
573.26	2294.85
573.61	2293.19
573.96	2291.49
574.31	2288.65
574.67	2285.61
575.02	2282.07
575.37	2278.67
575.72	2274.65
576.08	2271.39
576.43	2268.15
576.78	2264.46
577.13	2261.30
577.49	2258.15
577.84	2254.57
578.19	2250.93
578.54	2247.40
578.90	2242.98
579.25	2237.42
579.60	2232.37
579.95	2227.34
580.30	2222.35
580.66	2217.24
581.01	2212.25
581.36	2207.25
581.71	2202.72
582.06	2198.25
582.42	2193.55
582.77	2188.27
583.12	2183.69
583.47	2178.87
583.82	2173.83
584.17	2168.68
584.53	2163.15
584.88	2157.53
585.23	2151.68
585.58	2146.21
585.93	2140.68
586.28	2135.96
586.63	2130.81
586.98	2125.72
587.34	2120.99
587.69	2115.96
588.04	2110.55
588.39	2104.81
588.74	2098.26
589.09	2092.27
589.44	2085.45
589.79	2079.50
590.14	2073.86
590.49	2067.26
590.84	2060.85
591.19	2054.81
591.54	2048.31
591.89	2040.84
592.25	2033.90
592.60	2026.72
592.95	2018.99
593.30	2011.69
593.65	2004.09
594.00	1997.12
594.35	1989.84
594.70	1981.83
595.05	1974.51
595.40	1967.28
595.75	1959.77
596.10	1953.47
596.45	1946.71
596.80	1940.62
597.15	1933.98
597.50	1926.84
597.85	1920.54
598.19	1913.87
598.54	1906.85
598.89	1900.19
599.24	1894.35
599.59	1887.77
599.94	1881.50
600.29	1875.19
600.64	1868.63
600.99	1861.12
601.34	1854.26
601.69	1847.34
602.04	1840.40
602.39	1833.18
602.74	1826.32
603.08	1819.53
603.43	1812.96
603.78	1805.60
604.13	1798.29
604.48	1790.97
604.83	1784.06
605.18	1777.01
605.53	1768.99
605.87	1760.88
606.22	1753.72
606.57	1745.70
606.92	1738.35
607.27	1731.21
607.62	1724.33
607.96	1716.95
608.31	1710.36
608.66	1702.65
609.01	1695.05
609.36	1687.33
609.70	1679.30
610.05	1671.24
610.40	1663.54
610.75	1655.08
611.10	1647.49
611.44	1639.14
611.79	1631.12
612.14	1622.43
612.49	1613.20
612.83	1604.84
613.18	1596.72
613.53	1588.50
613.88	1579.98
614.22	1571.63
614.57	1563.14
614.92	1555.09
615.27	1547.54
615.61	1539.25
615.96	1531.23
616.31	1523.74
616.65	1516.54
617.00	1508.87
617.35	1501.31
617.70	1492.93
618.04	1484.46
618.39	1476.15
618.74	1468.43
619.08	1460.12
619.43	1452.64
619.78	1445.86
620.12	1438.66
620.47	1431.12
620.82	1423.00
621.16	1415.66
621.51	1408.11
621.85	1400.40
622.20	1391.73
622.55	1383.42
622.89	1375.59
623.24	1367.96
623.59	1360.47
623.93	1352.89
624.28	1345.72
624.62	1338.12
624.97	1331.01
625.32	1324.28
625.66	1317.28
626.01	1310.17
626.35	1302.65
626.70	1294.89
627.04	1287.03
627.39	1279.26
627.73	1271.82
628.08	1264.93
628.43	1257.59
628.77	1250.21
629.12	1242.68
629.46	1235.62
629.81	1228.15
630.15	1220.92
630.50	1213.59
630.84	1205.40
631.19	1197.53
631.53	1190.02
631.88	1182.40
632.22	1174.75
632.57	1167.37
632.91	1159.91
633.26	1152.40
633.60	1145.13
633.95	1138.06
634.29	1131.04
634.64	1124.37
634.98	1117.05
635.32	1109.88
635.67	1103.25
636.01	1096.62
636.36	1089.70
636.70	1083.21
637.05	1076.68
637.39	1070.17
637.73	1063.57
638.08	1057.62
638.42	1051.64
638.77	1045.19
639.11	1038.64
639.45	1032.37
639.80	1025.82
640.14	1019.32
640.49	1012.89
640.83	1006.58
641.17	1000.28
641.52	993.93
641.86	987.52
642.20	981.63
642.55	975.28
642.89	968.86
643.23	962.30
643.58	956.68
643.92	950.46
644.26	944.36
644.61	938.28
644.95	932.26
645.29	925.64
645.64	918.82
645.98	912.61
646.32	906.78
646.66	900.69
647.01	894.86
647.35	889.18
647.69	883.26
648.04	877.76
648.38	871.97
648.72	866.00
649.06	859.90
649.41	854.01
649.75	848.11
650.09	842.09
650.43	836.41
650.78	830.17
651.12	824.19
651.46	818.45
651.80	812.73
652.14	807.33
652.49	802.05
652.83	796.89
653.17	791.11
653.51	785.44
653.85	780.12
654.20	774.40
654.54	768.37
654.88	762.70
655.22	756.78
655.56	751.13
655.90	745.80
656.25	740.58
656.59	735.23
656.93	730.07
657.27	724.96
657.61	719.51
657.95	714.45
658.29	709.35
658.64	704.17
658.98	698.97
659.32	693.47
659.66	688.21
660.00	682.93
660.34	678.06
660.68	673.09
661.02	668.00
661.36	663.32
661.70	658.87
662.05	654.59
662.39	650.24
662.73	645.77
663.07	641.23
663.41	636.75
663.75	632.29
664.09	627.81
664.43	623.40
664.77	619.20
665.11	614.96
665.45	610.85
665.79	606.71
666.13	602.54
666.47	598.54
666.81	594.40
667.15	590.25
667.49	586.23
667.83	582.45
668.17	578.58
668.51	574.50
668.85	570.47
669.19	566.60
669.53	562.81
669.87	558.92
670.21	555.31
670.55	551.68
670.89	548.22
671.23	544.77
671.57	541.25
671.91	537.71
672.25	534.16
672.58	530.64
672.92	527.25
673.26	524.10
673.60	520.93
673.94	517.85
674.28	514.98
674.62	512.07
674.96	508.93
675.30	505.95
675.64	502.97
675.97	500.18
676.31	497.26
676.65	494.28
676.99	491.58
677.33	488.64
677.67	485.84
678.01	482.78
678.34	479.78
678.68	476.91
679.02	474.15
679.36	471.39
679.70	468.69
680.04	465.99
680.37	463.07
680.71	460.22
681.05	457.62
681.39	454.83
681.73	452.21
682.06	449.73
682.40	447.17
682.74	444.67
683.08	442.16
683.42	439.54
683.75	437.10
684.09	434.58
684.43	432.20
684.77	429.72
685.10	427.41
685.44	425.13
685.78	422.89
686.12	420.62
686.45	418.36
686.79	416.07
687.13	413.86
687.46	411.71
687.80	409.56
688.14	407.37
688.48	405.38
688.81	403.09
689.15	400.89
689.49	398.79
689.82	396.77
690.16	394.66
690.50	392.73
690.83	390.76
691.17	388.74
691.51	386.82
691.84	384.98
692.18	383.06
692.52	381.10
692.85	379.19
693.19	377.28
693.52	375.47
693.86	373.65
694.20	371.89
694.53	370.09
694.87	368.28
695.21	366.49
695.54	364.66
695.88	362.98
696.21	361.26
696.55	359.55
696.88	357.86
697.22	356.23
697.56	354.65
697.89	353.03
698.23	351.47
698.56	349.87
698.90	348.28
699.23	346.64
699.57	345.07
699.90	343.49
700.24	341.97
700.58	340.41
700.91	338.91
701.25	337.46
701.58	336.08
701.92	334.72
702.25	333.34
702.59	332.00
702.92	330.65
703.26	329.36
703.59	328.08
703.93	326.87
704.26	325.63
704.60	324.28
704.93	323.00
705.26	321.70
705.60	320.54
705.93	319.40
706.27	318.33
706.60	317.30
706.94	316.24
707.27	315.12
707.61	314.09
707.94	313.05
708.27	311.94
708.61	310.87
708.94	309.86
709.28	308.87
709.61	307.88
709.94	306.94
710.28	305.93
710.61	304.96
710.95	303.90
711.28	302.95
711.61	302.00
711.95	301.07
712.28	300.12
712.61	299.08
712.95	298.11
713.28	297.21
713.61	296.31
713.95	295.36
714.28	294.52
714.61	293.63
714.95	292.76
715.28	291.92
715.61	291.03
715.95	290.16
716.28	289.32
716.61	288.49
716.95	287.68
717.28	286.91
717.61	286.13
717.94	285.41
718.28	284.63
718.61	283.91
718.94	283.21
719.27	282.55
719.61	281.96
719.94	281.33
720.27	280.62
720.60	279.94
720.94	279.32
721.27	278.71
721.60	278.12
721.93	277.55
722.27	276.97
722.60	276.41
722.93	275.83
723.26	275.28
723.59	274.71
723.93	274.15
724.26	273.62
724.59	273.09
724.92	272.52
725.25	272.00
725.59	271.52
725.92	271.03
726.25	270.50
726.58	270.01
726.91	269.51
727.24	269.03
727.57	268.57
727.91	268.08
728.24	267.63
728.57	267.15
728.90	266.70
729.23	266.18
729.56	265.76
729.89	265.28
730.22	264.82
730.55	264.36
730.89	263.93
731.22	263.48
731.55	263.03
731.88	262.63
732.21	262.21
732.54	261.75
732.87	261.33
733.20	260.95
733.53	260.52
733.86	260.13
734.19	259.76
734.52	259.39
734.85	259.09
735.18	258.68
735.51	258.31
735.84	257.90
736.17	257.59
736.50	257.18
736.83	256.98
737.16	256.62
737.49	256.29
737.82	255.93
738.15	255.57
738.48	255.20
738.81	254.87
739.14	254.52
739.47	254.21
739.80	253.89
740.13	253.58
740.46	253.26
740.79	252.91
741.12	252.58
741.45	252.29
741.78	251.93
742.11	251.66
742.44	251.36
742.77	251.11
743.10	250.80
743.43	250.51
743.75	250.15
744.08	250.01
744.41	249.73
744.74	249.44
745.07	249.21
745.40	248.98
745.73	248.76
746.06	248.51
746.39	248.25
746.71	247.99
747.04	247.73
747.37	247.48
747.70	247.27
748.03	247.02
748.36	246.81
748.68	246.59
749.01	246.30
749.34	246.08
749.67	245.83
750.00	245.60
750.33	245.47
750.65	245.21
750.98	244.87
751.31	244.67
751.64	244.49
751.97	244.30
752.29	244.06
752.62	243.77
752.95	243.56
753.28	243.35
753.60	243.12
753.93	242.94
754.26	242.75
754.59	242.50
754.91	242.31
755.24	242.10
755.57	241.90
755.90	241.71
756.22	241.48
756.55	241.29
756.88	241.12
757.20	240.89
757.53	240.73
757.86	240.57
758.19	240.42
758.51	240.22
758.84	240.02
759.17	239.86
759.49	239.73
759.82	239.60
760.15	239.47
760.47	239.31
760.80	239.14
761.13	239.01
761.45	238.88
761.78	238.71
762.11	238.50
762.43	238.34
762.76	238.25
763.08	238.15
763.41	238.03
763.74	237.88
764.06	237.72
764.39	237.56
764.71	237.37
765.04	237.20
765.37	237.06
765.69	236.93
766.02	236.82
766.34	236.69
766.67	236.54
767.00	236.39
767.32	236.33
767.65	236.26
767.97	236.14
768.30	236.02
768.62	235.93
768.95	235.84
769.27	235.73
769.60	235.60
769.92	235.46
770.25	235.32
770.57	235.20
770.90	235.09
771.22	234.94
771.55	234.87
771.87	234.79
772.20	234.68
772.52	234.68
772.85	234.71
773.17	234.59
773.50	234.51
773.82	234.46
774.15	234.35
774.47	234.22
774.80	234.09
775.12	234.01
775.45	233.93
775.77	233.87
776.09	233.79
776.42	233.73
776.74	233.71
777.07	233.64
777.39	233.59
777.72	233.53
778.04	233.51
778.36	233.44
778.69	233.38
779.01	233.34
779.33	233.16
779.66	232.98
779.98	232.94
780.31	232.86
780.63	232.82
780.95	232.75
781.28	232.69
781.60	232.65
781.92	232.58
782.25	232.52
782.57	232.46
782.89	232.39
783.22	232.31
783.54	232.22
783.86	232.18
784.19	232.09
784.51	232.06
784.83	232.01
785.16	231.95
785.48	231.92
785.80	231.87
786.12	231.86
786.45	231.82
786.77	231.79
787.09	231.76
