SpectraSuite Data File
++++++++++++++++++++++++++++++++++++
Date: Fri Feb 01 14:50:43 EST 2013
User: group
Dark Spectrum Present: No
Reference Spectrum Present: No
Number of Sampled Component Spectra: 1
Spectrometers: USB2E7196
Integration Time (usec): 35000 (USB2E7196)
Spectra Averaged: 100 (USB2E7196)
Boxcar Smoothing: 10 (USB2E7196)
Correct for Electrical Dark: No (USB2E7196)
Strobe/Lamp Enabled: No (USB2E7196)
Correct for Detector Non-linearity: No (USB2E7196)
Correct for Stray Light: No (USB2E7196)
Number of Pixels in Processed Spectrum: 2048
>>>>>Begin Processed Spectral Data<<<<<
339.09	0.00
339.48	215.78
339.86	217.08
340.24	218.89
340.63	220.44
341.01	223.21
341.39	222.79
341.78	223.73
342.16	225.18
342.54	226.02
342.93	214.05
343.31	224.86
343.69	225.40
344.07	225.87
344.46	226.24
344.84	226.60
345.22	226.84
345.60	227.07
345.99	227.28
346.37	227.45
346.75	227.53
347.13	227.58
347.52	227.67
347.90	227.76
348.28	227.82
348.66	227.84
349.05	227.87
349.43	227.93
349.81	228.00
350.19	228.07
350.57	228.14
350.96	228.21
351.34	228.32
351.72	228.41
352.10	228.53
352.48	228.63
352.87	228.70
353.25	228.74
353.63	228.83
354.01	228.88
354.39	228.92
354.77	229.00
355.15	229.13
355.54	229.18
355.92	229.24
356.30	229.31
356.68	229.45
357.06	229.52
357.44	229.55
357.82	229.62
358.20	229.69
358.58	229.76
358.97	229.83
359.35	229.86
359.73	229.90
360.11	229.93
360.49	229.99
360.87	230.03
361.25	230.06
361.63	230.09
362.01	230.14
362.39	230.16
362.77	230.18
363.15	230.20
363.53	230.20
363.91	230.19
364.29	230.18
364.67	230.07
365.05	230.07
365.43	230.07
365.81	230.06
366.19	230.06
366.57	230.04
366.95	230.02
367.33	230.00
367.71	229.97
368.09	229.95
368.47	229.89
368.85	229.86
369.23	229.84
369.61	229.78
369.99	229.74
370.37	229.69
370.75	229.69
371.13	229.61
371.51	229.52
371.89	229.46
372.27	229.41
372.65	229.33
373.03	229.25
373.41	229.21
373.78	229.13
374.16	229.01
374.54	228.91
374.92	228.83
375.30	228.76
375.68	228.68
376.06	228.59
376.44	228.51
376.82	228.42
377.19	228.33
377.57	228.22
377.95	228.14
378.33	228.09
378.71	227.94
379.09	227.86
379.47	227.80
379.84	227.70
380.22	227.63
380.60	227.55
380.98	227.47
381.36	227.37
381.73	227.29
382.11	227.26
382.49	227.22
382.87	227.12
383.25	227.04
383.62	227.07
384.00	227.03
384.38	226.99
384.76	226.95
385.13	226.95
385.51	226.93
385.89	226.86
386.27	226.79
386.64	226.77
387.02	226.76
387.40	226.73
387.78	226.71
388.15	226.67
388.53	226.64
388.91	226.65
389.29	226.63
389.66	226.60
390.04	226.56
390.42	226.55
390.79	226.54
391.17	226.50
391.55	226.39
391.92	226.39
392.30	226.41
392.68	226.42
393.05	226.41
393.43	226.43
393.81	226.46
394.18	226.45
394.56	226.48
394.94	226.51
395.31	226.53
395.69	226.61
396.06	226.68
396.44	226.74
396.82	226.76
397.19	226.84
397.57	226.94
397.95	227.01
398.32	227.06
398.70	227.15
399.07	227.27
399.45	227.37
399.82	227.48
400.20	227.57
400.58	227.65
400.95	227.73
401.33	227.83
401.70	228.00
402.08	228.14
402.45	228.28
402.83	228.40
403.20	228.55
403.58	228.66
403.95	228.79
404.33	228.95
404.71	229.07
405.08	229.29
405.46	229.44
405.83	229.58
406.21	229.75
406.58	229.93
406.96	230.13
407.33	230.30
407.70	230.46
408.08	230.72
408.45	230.95
408.83	231.17
409.20	231.41
409.58	231.61
409.95	231.91
410.33	232.15
410.70	232.38
411.08	232.68
411.45	232.98
411.82	233.27
412.20	233.63
412.57	234.08
412.95	234.37
413.32	234.76
413.69	235.19
414.07	235.65
414.44	236.12
414.82	236.59
415.19	237.12
415.56	237.68
415.94	238.26
416.31	238.89
416.68	239.52
417.06	240.21
417.43	240.86
417.81	241.62
418.18	242.40
418.55	243.25
418.93	244.10
419.30	244.99
419.67	245.93
420.04	246.88
420.42	247.81
420.79	248.96
421.16	250.10
421.54	251.26
421.91	252.43
422.28	253.67
422.66	254.97
423.03	256.26
423.40	257.62
423.77	258.96
424.15	260.34
424.52	261.82
424.89	263.41
425.26	264.97
425.64	266.37
426.01	267.94
426.38	269.57
426.75	271.23
427.13	272.89
427.50	274.68
427.87	276.56
428.24	278.46
428.61	280.22
428.99	282.19
429.36	284.25
429.73	286.31
430.10	288.29
430.47	290.37
430.85	292.50
431.22	294.68
431.59	297.07
431.96	299.34
432.33	301.83
432.70	304.22
433.08	307.02
433.45	309.69
433.82	312.30
434.19	315.22
434.56	318.04
434.93	320.75
435.30	323.37
435.68	326.27
436.05	329.02
436.42	331.80
436.79	334.28
437.16	337.02
437.53	339.86
437.90	342.73
438.27	345.45
438.64	348.27
439.01	350.90
439.38	353.17
439.75	355.33
440.13	357.83
440.50	360.14
440.87	362.00
441.24	363.92
441.61	366.11
441.98	367.57
442.35	369.41
442.72	371.27
443.09	373.08
443.46	374.04
443.83	374.71
444.20	375.22
444.57	376.06
444.94	376.35
445.31	376.69
445.68	377.03
446.05	377.17
446.42	376.79
446.79	376.39
447.16	375.93
447.53	375.66
447.90	374.54
448.27	373.42
448.64	371.83
449.01	370.70
449.37	368.69
449.74	366.83
450.11	364.58
450.48	362.09
450.85	359.54
451.22	357.44
451.59	355.43
451.96	353.51
452.33	350.97
452.70	348.64
453.07	345.84
453.43	342.94
453.80	340.16
454.17	337.53
454.54	334.96
454.91	332.21
455.28	329.49
455.65	326.95
456.02	324.49
456.38	322.40
456.75	319.78
457.12	317.57
457.49	315.35
457.86	313.18
458.23	311.37
458.59	309.34
458.96	307.24
459.33	305.41
459.70	303.51
460.07	302.00
460.43	300.25
460.80	298.61
461.17	297.15
461.54	295.65
461.91	294.19
462.27	292.73
462.64	291.52
463.01	290.17
463.38	288.86
463.74	287.46
464.11	286.23
464.48	285.16
464.85	284.04
465.21	283.15
465.58	282.21
465.95	281.09
466.32	280.18
466.68	279.28
467.05	278.37
467.42	277.46
467.78	276.51
468.15	275.66
468.52	274.98
468.88	274.11
469.25	273.29
469.62	272.67
469.98	271.98
470.35	271.32
470.72	270.70
471.08	270.06
471.45	269.51
471.82	268.99
472.18	268.38
472.55	267.94
472.92	267.42
473.28	266.92
473.65	266.46
474.02	265.98
474.38	265.56
474.75	265.20
475.11	264.86
475.48	264.60
475.85	264.31
476.21	264.08
476.58	263.90
476.94	263.78
477.31	263.59
477.67	263.44
478.04	263.29
478.41	263.21
478.77	263.26
479.14	263.18
479.50	263.18
479.87	263.19
480.23	263.24
480.60	263.31
480.96	263.36
481.33	263.54
481.69	263.71
482.06	263.91
482.42	264.10
482.79	264.36
483.15	264.64
483.52	265.03
483.88	265.36
484.25	265.69
484.61	266.12
484.98	266.54
485.34	267.10
485.71	267.69
486.07	268.32
486.44	268.88
486.80	269.55
487.17	270.25
487.53	271.10
487.90	271.95
488.26	272.82
488.62	273.83
488.99	274.78
489.35	275.83
489.72	276.98
490.08	278.15
490.44	279.34
490.81	280.66
491.17	282.03
491.54	283.47
491.90	285.04
492.26	286.62
492.63	288.30
492.99	290.05
493.36	291.94
493.72	293.96
494.08	296.00
494.45	298.29
494.81	300.61
495.17	302.98
495.54	305.49
495.90	308.17
496.26	310.94
496.63	313.88
496.99	316.95
497.35	320.16
497.72	323.52
498.08	327.03
498.44	330.63
498.80	334.45
499.17	338.46
499.53	342.57
499.89	346.95
500.26	351.48
500.62	356.08
500.98	360.99
501.34	366.00
501.71	371.27
502.07	376.61
502.43	382.19
502.79	388.01
503.16	394.09
503.52	400.36
503.88	406.73
504.24	413.34
504.60	420.22
504.97	427.24
505.33	434.51
505.69	442.17
506.05	449.92
506.41	457.77
506.78	465.93
507.14	474.33
507.50	483.03
507.86	491.99
508.22	501.16
508.59	510.31
508.95	519.89
509.31	529.70
509.67	539.77
510.03	550.02
510.39	560.50
510.75	571.26
511.12	582.10
511.48	593.34
511.84	604.80
512.20	616.29
512.56	628.27
512.92	640.41
513.28	652.67
513.64	665.22
514.00	677.91
514.37	690.81
514.73	703.76
515.09	716.76
515.45	730.10
515.81	743.68
516.17	757.65
516.53	771.73
516.89	785.83
517.25	799.98
517.61	814.44
517.97	828.95
518.33	843.35
518.69	858.15
519.05	873.15
519.41	888.34
519.77	903.93
520.13	919.29
520.49	934.77
520.85	950.16
521.21	965.80
521.57	982.05
521.93	997.84
522.29	1014.36
522.65	1030.63
523.01	1046.83
523.37	1062.98
523.73	1079.21
524.09	1095.42
524.45	1111.81
524.81	1128.49
525.17	1145.37
525.53	1162.30
525.89	1179.27
526.25	1196.10
526.61	1212.50
526.97	1229.12
527.33	1245.63
527.68	1262.36
528.04	1278.92
528.40	1295.67
528.76	1312.85
529.12	1329.53
529.48	1346.49
529.84	1362.59
530.20	1379.32
530.56	1396.41
530.91	1413.75
531.27	1430.55
531.63	1446.98
531.99	1463.72
532.35	1479.76
532.71	1495.60
533.07	1511.92
533.42	1527.91
533.78	1544.01
534.14	1560.31
534.50	1575.69
534.86	1591.62
535.21	1606.92
535.57	1622.84
535.93	1638.34
536.29	1653.15
536.65	1668.45
537.00	1683.34
537.36	1698.77
537.72	1713.29
538.08	1727.82
538.44	1741.70
538.79	1755.60
539.15	1769.51
539.51	1783.36
539.87	1797.85
540.22	1811.77
540.58	1825.54
540.94	1838.89
541.29	1851.92
541.65	1864.76
542.01	1878.16
542.37	1890.38
542.72	1902.77
543.08	1914.64
543.44	1927.01
543.79	1938.26
544.15	1949.02
544.51	1960.44
544.87	1971.37
545.22	1982.17
545.58	1992.24
545.94	2002.02
546.29	2012.13
546.65	2021.89
547.01	2030.94
547.36	2039.52
547.72	2047.96
548.07	2055.83
548.43	2063.91
548.79	2071.82
549.14	2079.34
549.50	2086.74
549.86	2094.47
550.21	2101.78
550.57	2108.91
550.92	2115.54
551.28	2122.70
551.64	2129.90
551.99	2136.40
552.35	2142.54
552.70	2148.69
553.06	2154.60
553.41	2160.82
553.77	2166.72
554.13	2172.57
554.48	2178.56
554.84	2183.98
555.19	2189.26
555.55	2194.33
555.90	2198.76
556.26	2203.55
556.61	2208.19
556.97	2212.23
557.32	2216.33
557.68	2220.34
558.03	2224.58
558.39	2228.16
558.74	2232.60
559.10	2236.16
559.45	2239.74
559.81	2243.81
560.16	2247.38
560.52	2250.56
560.87	2253.82
561.23	2256.19
561.58	2259.05
561.94	2261.56
562.29	2263.77
562.64	2266.13
563.00	2268.60
563.35	2271.95
563.71	2274.98
564.06	2277.96
564.42	2280.90
564.77	2283.18
565.12	2285.25
565.48	2286.91
565.83	2288.66
566.19	2289.80
566.54	2290.72
566.89	2291.66
567.25	2291.97
567.60	2293.34
567.96	2294.85
568.31	2295.52
568.66	2296.38
569.02	2296.88
569.37	2296.92
569.72	2297.58
570.08	2297.34
570.43	2296.97
570.78	2296.05
571.14	2294.11
571.49	2292.59
571.84	2291.70
572.20	2290.25
572.55	2288.85
572.90	2287.02
573.26	2285.23
573.61	2283.09
573.96	2280.87
574.31	2277.68
574.67	2274.58
575.02	2270.51
575.37	2266.76
575.72	2262.79
576.08	2259.26
576.43	2255.63
576.78	2251.71
577.13	2248.22
577.49	2245.00
577.84	2241.38
578.19	2237.58
578.54	2233.79
578.90	2229.21
579.25	2223.55
579.60	2218.50
579.95	2213.34
580.30	2207.95
580.66	2202.58
581.01	2197.53
581.36	2192.57
581.71	2188.15
582.06	2183.61
582.42	2179.04
582.77	2173.67
583.12	2168.89
583.47	2163.97
583.82	2158.84
584.17	2153.52
584.53	2148.00
584.88	2142.25
585.23	2136.20
585.58	2130.50
585.93	2124.79
586.28	2120.11
586.63	2114.85
586.98	2109.61
587.34	2104.81
587.69	2100.00
588.04	2094.67
588.39	2088.83
588.74	2082.22
589.09	2075.90
589.44	2068.90
589.79	2062.65
590.14	2056.82
590.49	2050.12
590.84	2043.50
591.19	2037.16
591.54	2030.54
591.89	2022.79
592.25	2015.86
592.60	2008.77
592.95	2001.06
593.30	1993.76
593.65	1985.99
594.00	1978.88
594.35	1971.44
594.70	1963.23
595.05	1955.80
595.40	1948.45
595.75	1940.95
596.10	1934.58
596.45	1927.66
596.80	1921.34
597.15	1914.70
597.50	1907.71
597.85	1901.31
598.19	1894.78
598.54	1887.77
598.89	1881.15
599.24	1875.35
599.59	1868.63
599.94	1862.37
600.29	1856.08
600.64	1849.49
600.99	1841.94
601.34	1835.11
601.69	1828.10
602.04	1821.29
602.39	1814.00
602.74	1807.24
603.08	1800.51
603.43	1793.76
603.78	1786.69
604.13	1779.40
604.48	1772.08
604.83	1765.24
605.18	1758.16
605.53	1750.15
605.87	1742.11
606.22	1734.92
606.57	1727.09
606.92	1719.86
607.27	1712.61
607.62	1705.62
607.96	1698.51
608.31	1691.96
608.66	1684.37
609.01	1676.89
609.36	1669.46
609.70	1661.62
610.05	1653.72
610.40	1646.12
610.75	1637.87
611.10	1630.26
611.44	1622.17
611.79	1614.37
612.14	1605.68
612.49	1596.70
612.83	1588.40
613.18	1580.35
613.53	1572.35
613.88	1563.88
614.22	1555.66
614.57	1547.30
614.92	1539.47
615.27	1531.94
615.61	1523.53
615.96	1515.60
616.31	1508.15
616.65	1500.84
617.00	1493.32
617.35	1485.59
617.70	1477.26
618.04	1468.83
618.39	1460.69
618.74	1453.03
619.08	1444.83
619.43	1437.39
619.78	1430.52
620.12	1423.52
620.47	1416.23
620.82	1408.10
621.16	1400.80
621.51	1393.35
621.85	1385.84
622.20	1377.45
622.55	1369.13
622.89	1361.57
623.24	1354.11
623.59	1346.72
623.93	1339.32
624.28	1332.02
624.62	1324.67
624.97	1317.54
625.32	1310.84
625.66	1303.88
626.01	1296.79
626.35	1289.33
626.70	1281.75
627.04	1274.11
627.39	1266.38
627.73	1258.90
628.08	1252.09
628.43	1244.84
628.77	1237.52
629.12	1229.98
629.46	1222.94
629.81	1215.61
630.15	1208.42
630.50	1201.05
630.84	1193.10
631.19	1185.24
631.53	1177.96
631.88	1170.41
632.22	1163.02
632.57	1155.82
632.91	1148.40
633.26	1141.08
633.60	1133.86
633.95	1126.87
634.29	1119.92
634.64	1113.33
634.98	1106.18
635.32	1099.15
635.67	1092.73
636.01	1086.20
636.36	1079.47
636.70	1072.92
637.05	1066.52
637.39	1060.26
637.73	1053.93
638.08	1048.13
638.42	1042.20
638.77	1035.86
639.11	1029.38
639.45	1023.11
639.80	1016.55
640.14	1010.25
640.49	1003.87
640.83	997.66
641.17	991.50
641.52	985.32
641.86	978.98
642.20	973.22
642.55	966.99
642.89	960.65
643.23	954.17
643.58	948.50
643.92	942.47
644.26	936.41
644.61	930.36
644.95	924.38
645.29	917.86
645.64	911.28
645.98	905.04
646.32	899.25
646.66	893.26
647.01	887.55
647.35	881.86
647.69	876.11
648.04	870.67
648.38	864.99
648.72	859.00
649.06	852.96
649.41	847.16
649.75	841.16
650.09	835.10
650.43	829.36
650.78	823.28
651.12	817.35
651.46	811.67
651.80	806.01
652.14	800.69
652.49	795.37
652.83	790.17
653.17	784.51
653.51	778.91
653.85	773.55
654.20	767.95
654.54	762.07
654.88	756.28
655.22	750.43
655.56	744.65
655.90	739.37
656.25	734.16
656.59	728.85
656.93	723.91
657.27	718.84
657.61	713.53
657.95	708.44
658.29	703.37
658.64	698.28
658.98	693.10
659.32	687.70
659.66	682.59
660.00	677.42
660.34	672.54
660.68	667.69
661.02	662.72
661.36	658.11
661.70	653.68
662.05	649.45
662.39	645.16
662.73	640.82
663.07	636.47
663.41	632.11
663.75	627.63
664.09	623.13
664.43	618.83
664.77	614.74
665.11	610.56
665.45	606.53
665.79	602.46
666.13	598.37
666.47	594.30
666.81	590.19
667.15	586.13
667.49	582.26
667.83	578.49
668.17	574.66
668.51	570.66
668.85	566.65
669.19	562.80
669.53	559.01
669.87	555.19
670.21	551.48
670.55	547.96
670.89	544.62
671.23	541.20
671.57	537.74
671.91	534.26
672.25	530.89
672.58	527.40
672.92	524.06
673.26	520.91
673.60	517.84
673.94	514.76
674.28	511.85
674.62	508.94
674.96	505.87
675.30	502.98
675.64	500.09
675.97	497.39
676.31	494.59
676.65	491.71
676.99	489.03
677.33	486.23
677.67	483.35
678.01	480.32
678.34	477.42
678.68	474.62
679.02	471.82
679.36	469.06
679.70	466.39
680.04	463.72
680.37	460.85
680.71	458.05
681.05	455.49
681.39	452.86
681.73	450.26
682.06	447.78
682.40	445.24
682.74	442.78
683.08	440.25
683.42	437.70
683.75	435.20
684.09	432.66
684.43	430.23
684.77	427.86
685.10	425.59
685.44	423.28
685.78	421.00
686.12	418.79
686.45	416.54
686.79	414.30
687.13	412.03
687.46	409.93
687.80	407.87
688.14	405.64
688.48	403.65
688.81	401.44
689.15	399.32
689.49	397.23
689.82	395.19
690.16	393.16
690.50	391.25
690.83	389.36
691.17	387.46
691.51	385.56
691.84	383.75
692.18	381.82
692.52	379.91
692.85	378.01
693.19	376.19
693.52	374.43
693.86	372.62
694.20	370.96
694.53	369.16
694.87	367.33
695.21	365.62
695.54	363.79
695.88	362.07
696.21	360.35
696.55	358.66
696.88	356.99
697.22	355.33
697.56	353.71
697.89	352.07
698.23	350.47
698.56	348.91
698.90	347.32
699.23	345.71
699.57	344.15
699.90	342.65
700.24	341.08
700.58	339.55
700.91	338.08
701.25	336.59
701.58	335.28
701.92	333.94
702.25	332.55
702.59	331.16
702.92	329.89
703.26	328.62
703.59	327.36
703.93	326.14
704.26	324.95
704.60	323.75
704.93	322.48
705.26	321.28
705.60	320.10
705.93	318.97
706.27	317.94
706.60	316.91
706.94	315.86
707.27	314.79
707.61	313.75
707.94	312.70
708.27	311.65
708.61	310.58
708.94	309.59
709.28	308.65
709.61	307.71
709.94	306.77
710.28	305.78
710.61	304.89
710.95	303.84
711.28	302.93
711.61	301.99
711.95	301.16
712.28	300.19
712.61	299.27
712.95	298.33
713.28	297.49
713.61	296.59
713.95	295.67
714.28	294.83
714.61	293.95
714.95	293.14
715.28	292.29
715.61	291.43
715.95	290.58
716.28	289.73
716.61	288.90
716.95	288.09
717.28	287.35
717.61	286.56
717.94	285.85
718.28	285.01
718.61	284.29
718.94	283.58
719.27	282.97
719.61	282.31
719.94	281.70
720.27	280.98
720.60	280.34
720.94	279.75
721.27	279.16
721.60	278.60
721.93	278.00
722.27	277.47
722.60	276.90
722.93	276.34
723.26	275.83
723.59	275.28
723.93	274.72
724.26	274.14
724.59	273.59
724.92	273.07
725.25	272.64
725.59	272.10
725.92	271.59
726.25	271.05
726.58	270.54
726.91	270.03
727.24	269.56
727.57	269.13
727.91	268.65
728.24	268.17
728.57	267.68
728.90	267.23
729.23	266.73
729.56	266.34
729.89	265.88
730.22	265.38
730.55	264.91
730.89	264.47
731.22	264.03
731.55	263.59
731.88	263.16
732.21	262.71
732.54	262.29
732.87	261.86
733.20	261.45
733.53	261.08
733.86	260.71
734.19	260.30
734.52	259.90
734.85	259.56
735.18	259.14
735.51	258.81
735.84	258.43
736.17	258.09
736.50	257.67
736.83	257.46
737.16	257.12
737.49	256.78
737.82	256.44
738.15	256.12
738.48	255.77
738.81	255.44
739.14	255.12
739.47	254.79
739.80	254.46
740.13	254.19
740.46	253.88
740.79	253.52
741.12	253.24
741.45	252.91
741.78	252.59
742.11	252.34
742.44	251.99
742.77	251.72
743.10	251.39
743.43	251.08
743.75	250.68
744.08	250.55
744.41	250.31
744.74	250.06
745.07	249.80
745.40	249.58
745.73	249.31
746.06	249.02
746.39	248.77
746.71	248.51
747.04	248.24
747.37	247.95
747.70	247.71
748.03	247.45
748.36	247.22
748.68	246.97
749.01	246.70
749.34	246.48
749.67	246.26
750.00	246.06
750.33	245.88
750.65	245.66
750.98	245.35
751.31	245.11
751.64	244.87
751.97	244.70
752.29	244.49
752.62	244.27
752.95	244.08
753.28	243.85
753.60	243.67
753.93	243.49
754.26	243.32
754.59	243.11
754.91	242.90
755.24	242.71
755.57	242.53
755.90	242.38
756.22	242.21
756.55	242.02
756.88	241.87
757.20	241.65
757.53	241.47
757.86	241.26
758.19	241.10
758.51	240.92
758.84	240.71
759.17	240.51
759.49	240.37
759.82	240.24
760.15	240.12
760.47	239.99
760.80	239.82
761.13	239.72
761.45	239.55
761.78	239.45
762.11	239.31
762.43	239.14
762.76	238.95
763.08	238.82
763.41	238.68
763.74	238.53
764.06	238.39
764.39	238.25
764.71	238.10
765.04	237.97
765.37	237.86
765.69	237.74
766.02	237.63
766.34	237.49
766.67	237.36
767.00	237.25
767.32	237.15
767.65	237.06
767.97	236.90
768.30	236.82
768.62	236.69
768.95	236.56
769.27	236.47
769.60	236.38
769.92	236.25
770.25	236.12
770.57	235.99
770.90	235.90
771.22	235.81
771.55	235.74
771.87	235.62
772.20	235.50
772.52	235.47
772.85	235.49
773.17	235.40
773.50	235.29
773.82	235.21
774.15	235.08
774.47	234.92
774.80	234.82
775.12	234.71
775.45	234.67
775.77	234.62
776.09	234.53
776.42	234.45
776.74	234.43
777.07	234.35
777.39	234.28
777.72	234.21
778.04	234.19
778.36	234.10
778.69	234.06
779.01	234.00
779.33	233.86
779.66	233.66
779.98	233.60
780.31	233.55
780.63	233.50
780.95	233.45
781.28	233.41
781.60	233.36
781.92	233.32
782.25	233.22
782.57	233.14
782.89	233.12
783.22	233.06
783.54	232.98
783.86	232.95
784.19	232.89
784.51	232.85
784.83	232.76
785.16	232.71
785.48	232.64
785.80	232.60
786.12	232.59
786.45	232.56
786.77	232.51
787.09	232.45
