SpectraSuite Data File
++++++++++++++++++++++++++++++++++++
Date: Fri Feb 01 16:26:16 EST 2013
User: group
Dark Spectrum Present: No
Reference Spectrum Present: No
Number of Sampled Component Spectra: 1
Spectrometers: USB2E7196
Integration Time (usec): 35000 (USB2E7196)
Spectra Averaged: 100 (USB2E7196)
Boxcar Smoothing: 10 (USB2E7196)
Correct for Electrical Dark: No (USB2E7196)
Strobe/Lamp Enabled: No (USB2E7196)
Correct for Detector Non-linearity: No (USB2E7196)
Correct for Stray Light: No (USB2E7196)
Number of Pixels in Processed Spectrum: 2048
>>>>>Begin Processed Spectral Data<<<<<
339.09	0.00
339.48	214.26
339.86	216.23
340.24	216.83
340.63	218.52
341.01	221.09
341.39	221.16
341.78	222.46
342.16	223.58
342.54	224.14
342.93	212.53
343.31	223.27
343.69	223.79
344.07	224.21
344.46	224.61
344.84	224.98
345.22	225.20
345.60	225.45
345.99	225.63
346.37	225.76
346.75	225.85
347.13	225.93
347.52	225.98
347.90	226.06
348.28	226.09
348.66	226.15
349.05	226.12
349.43	226.14
349.81	226.16
350.19	226.19
350.57	226.22
350.96	226.28
351.34	226.33
351.72	226.40
352.10	226.51
352.48	226.60
352.87	226.64
353.25	226.69
353.63	226.75
354.01	226.81
354.39	226.85
354.77	226.92
355.15	226.99
355.54	227.05
355.92	227.08
356.30	227.16
356.68	227.30
357.06	227.40
357.44	227.42
357.82	227.50
358.20	227.58
358.58	227.63
358.97	227.72
359.35	227.80
359.73	227.91
360.11	227.95
360.49	227.98
360.87	228.03
361.25	228.11
361.63	228.20
362.01	228.24
362.39	228.30
362.77	228.33
363.15	228.38
363.53	228.41
363.91	228.45
364.29	228.45
364.67	228.37
365.05	228.40
365.43	228.45
365.81	228.50
366.19	228.57
366.57	228.62
366.95	228.60
367.33	228.58
367.71	228.55
368.09	228.58
368.47	228.59
368.85	228.59
369.23	228.59
369.61	228.49
369.99	228.49
370.37	228.47
370.75	228.51
371.13	228.45
371.51	228.40
371.89	228.38
372.27	228.35
372.65	228.33
373.03	228.26
373.41	228.23
373.78	228.14
374.16	228.00
374.54	227.91
374.92	227.88
375.30	227.84
375.68	227.78
376.06	227.70
376.44	227.63
376.82	227.60
377.19	227.51
377.57	227.46
377.95	227.41
378.33	227.32
378.71	227.19
379.09	227.14
379.47	227.08
379.84	226.98
380.22	226.90
380.60	226.79
380.98	226.74
381.36	226.65
381.73	226.60
382.11	226.57
382.49	226.48
382.87	226.38
383.25	226.29
383.62	226.36
384.00	226.27
384.38	226.23
384.76	226.17
385.13	226.17
385.51	226.10
385.89	226.01
386.27	225.97
386.64	225.96
387.02	225.90
387.40	225.86
387.78	225.87
388.15	225.84
388.53	225.82
388.91	225.76
389.29	225.73
389.66	225.72
390.04	225.68
390.42	225.68
390.79	225.68
391.17	225.67
391.55	225.54
391.92	225.54
392.30	225.55
392.68	225.52
393.05	225.48
393.43	225.49
393.81	225.51
394.18	225.53
394.56	225.54
394.94	225.59
395.31	225.59
395.69	225.63
396.06	225.68
396.44	225.70
396.82	225.73
397.19	225.84
397.57	225.83
397.95	225.86
398.32	225.89
398.70	225.94
399.07	226.01
399.45	226.05
399.82	226.11
400.20	226.13
400.58	226.22
400.95	226.26
401.33	226.33
401.70	226.47
402.08	226.52
402.45	226.62
402.83	226.70
403.20	226.80
403.58	226.86
403.95	226.94
404.33	227.06
404.71	227.20
405.08	227.34
405.46	227.49
405.83	227.63
406.21	227.79
406.58	227.95
406.96	228.09
407.33	228.28
407.70	228.46
408.08	228.78
408.45	228.97
408.83	229.22
409.20	229.44
409.58	229.56
409.95	229.84
410.33	230.08
410.70	230.38
411.08	230.65
411.45	230.99
411.82	231.31
412.20	231.67
412.57	232.10
412.95	232.38
413.32	232.80
413.69	233.22
414.07	233.62
414.44	234.09
414.82	234.59
415.19	235.13
415.56	235.67
415.94	236.19
416.31	236.79
416.68	237.43
417.06	238.15
417.43	238.91
417.81	239.67
418.18	240.47
418.55	241.29
418.93	242.16
419.30	243.03
419.67	244.00
420.04	244.95
420.42	245.90
420.79	247.13
421.16	248.28
421.54	249.48
421.91	250.73
422.28	252.02
422.66	253.36
423.03	254.68
423.40	256.04
423.77	257.43
424.15	258.88
424.52	260.37
424.89	261.98
425.26	263.51
425.64	264.96
426.01	266.53
426.38	268.17
426.75	269.86
427.13	271.61
427.50	273.40
427.87	275.29
428.24	277.16
428.61	278.85
428.99	280.79
429.36	282.87
429.73	284.92
430.10	286.90
430.47	288.95
430.85	291.04
431.22	293.28
431.59	295.65
431.96	297.87
432.33	300.32
432.70	302.65
433.08	305.45
433.45	308.07
433.82	310.69
434.19	313.58
434.56	316.40
434.93	319.00
435.30	321.63
435.68	324.48
436.05	327.28
436.42	330.08
436.79	332.59
437.16	335.26
437.53	338.07
437.90	340.86
438.27	343.58
438.64	346.39
439.01	348.97
439.38	351.15
439.75	353.34
440.13	355.86
440.50	358.24
440.87	360.08
441.24	362.01
441.61	364.17
441.98	365.61
442.35	367.42
442.72	369.27
443.09	371.06
443.46	372.04
443.83	372.64
444.20	373.11
444.57	373.91
444.94	374.19
445.31	374.56
445.68	374.93
446.05	375.00
446.42	374.63
446.79	374.18
447.16	373.76
447.53	373.43
447.90	372.25
448.27	371.07
448.64	369.48
449.01	368.36
449.37	366.34
449.74	364.49
450.11	362.21
450.48	359.78
450.85	357.22
451.22	355.08
451.59	353.09
451.96	351.18
452.33	348.59
452.70	346.25
453.07	343.42
453.43	340.50
453.80	337.74
454.17	335.05
454.54	332.52
454.91	329.81
455.28	327.16
455.65	324.67
456.02	322.23
456.38	320.10
456.75	317.41
457.12	315.18
457.49	312.94
457.86	310.76
458.23	308.94
458.59	306.91
458.96	304.85
459.33	302.99
459.70	301.13
460.07	299.64
460.43	297.95
460.80	296.30
461.17	294.89
461.54	293.40
461.91	292.02
462.27	290.59
462.64	289.36
463.01	288.00
463.38	286.71
463.74	285.35
464.11	284.16
464.48	283.17
464.85	282.11
465.21	281.25
465.58	280.32
465.95	279.21
466.32	278.35
466.68	277.46
467.05	276.56
467.42	275.67
467.78	274.73
468.15	273.87
468.52	273.23
468.88	272.41
469.25	271.68
469.62	271.08
469.98	270.41
470.35	269.80
470.72	269.18
471.08	268.57
471.45	268.02
471.82	267.52
472.18	266.94
472.55	266.50
472.92	265.98
473.28	265.56
473.65	265.14
474.02	264.69
474.38	264.33
474.75	264.03
475.11	263.71
475.48	263.50
475.85	263.28
476.21	263.07
476.58	262.86
476.94	262.71
477.31	262.50
477.67	262.37
478.04	262.27
478.41	262.25
478.77	262.26
479.14	262.24
479.50	262.23
479.87	262.30
480.23	262.38
480.60	262.43
480.96	262.52
481.33	262.69
481.69	262.85
482.06	263.08
482.42	263.29
482.79	263.54
483.15	263.85
483.52	264.21
483.88	264.55
484.25	264.99
484.61	265.42
484.98	265.90
485.34	266.47
485.71	267.05
486.07	267.62
486.44	268.20
486.80	268.91
487.17	269.65
487.53	270.46
487.90	271.32
488.26	272.31
488.62	273.29
488.99	274.26
489.35	275.37
489.72	276.44
490.08	277.63
490.44	278.88
490.81	280.23
491.17	281.59
491.54	283.10
491.90	284.62
492.26	286.28
492.63	287.99
492.99	289.81
493.36	291.73
493.72	293.84
494.08	295.96
494.45	298.20
494.81	300.61
495.17	303.08
495.54	305.64
495.90	308.32
496.26	311.13
496.63	314.10
496.99	317.19
497.35	320.48
497.72	323.88
498.08	327.42
498.44	331.07
498.80	335.00
499.17	339.04
499.53	343.21
499.89	347.60
500.26	352.13
500.62	356.76
500.98	361.75
501.34	366.82
501.71	372.19
502.07	377.63
502.43	383.26
502.79	389.07
503.16	395.18
503.52	401.47
503.88	407.91
504.24	414.56
504.60	421.46
504.97	428.58
505.33	435.94
505.69	443.65
506.05	451.48
506.41	459.37
506.78	467.50
507.14	475.94
507.50	484.63
507.86	493.61
508.22	502.80
508.59	511.99
508.95	521.57
509.31	531.36
509.67	541.43
510.03	551.71
510.39	562.27
510.75	572.99
511.12	583.96
511.48	595.26
511.84	606.74
512.20	618.29
512.56	630.26
512.92	642.41
513.28	654.73
513.64	667.13
514.00	679.88
514.37	692.88
514.73	705.88
515.09	718.89
515.45	732.22
515.81	745.79
516.17	759.76
516.53	773.85
516.89	788.02
517.25	802.25
517.61	816.68
517.97	831.08
518.33	845.58
518.69	860.25
519.05	875.12
519.41	890.32
519.77	905.74
520.13	921.15
520.49	936.52
520.85	951.95
521.21	967.63
521.57	983.73
521.93	999.42
522.29	1015.74
522.65	1031.95
523.01	1048.07
523.37	1063.94
523.73	1080.01
524.09	1095.90
524.45	1112.03
524.81	1128.57
525.17	1145.29
525.53	1162.08
525.89	1178.80
526.25	1195.60
526.61	1211.95
526.97	1228.52
527.33	1244.91
527.68	1261.37
528.04	1277.68
528.40	1294.15
528.76	1311.06
529.12	1327.58
529.48	1344.27
529.84	1360.25
530.20	1376.83
530.56	1393.76
530.91	1411.23
531.27	1427.94
531.63	1444.47
531.99	1460.96
532.35	1476.77
532.71	1492.58
533.07	1508.85
533.42	1524.69
533.78	1540.62
534.14	1556.80
534.50	1572.11
534.86	1587.95
535.21	1603.00
535.57	1618.95
535.93	1634.40
536.29	1649.21
536.65	1664.12
537.00	1678.86
537.36	1694.04
537.72	1708.41
538.08	1722.79
538.44	1736.47
538.79	1750.20
539.15	1763.80
539.51	1777.62
539.87	1791.87
540.22	1805.43
540.58	1819.04
540.94	1832.29
541.29	1845.15
541.65	1857.76
542.01	1870.86
542.37	1883.06
542.72	1895.43
543.08	1907.18
543.44	1919.47
543.79	1930.71
544.15	1941.70
544.51	1953.26
544.87	1964.20
545.22	1975.06
545.58	1985.17
545.94	1994.89
546.29	2004.74
546.65	2014.48
547.01	2023.60
547.36	2032.31
547.72	2040.83
548.07	2048.63
548.43	2056.67
548.79	2064.66
549.14	2072.03
549.50	2079.31
549.86	2086.98
550.21	2094.32
550.57	2101.34
550.92	2107.88
551.28	2114.73
551.64	2121.64
551.99	2128.19
552.35	2134.30
552.70	2140.38
553.06	2146.46
553.41	2152.79
553.77	2158.81
554.13	2164.84
554.48	2170.90
554.84	2176.35
555.19	2181.49
555.55	2186.70
555.90	2191.25
556.26	2196.11
556.61	2200.94
556.97	2205.17
557.32	2209.23
557.68	2213.34
558.03	2217.57
558.39	2221.15
558.74	2225.79
559.10	2229.78
559.45	2233.30
559.81	2237.69
560.16	2241.47
560.52	2244.63
560.87	2247.97
561.23	2250.59
561.58	2253.63
561.94	2256.20
562.29	2258.60
562.64	2261.34
563.00	2263.90
563.35	2267.37
563.71	2270.54
564.06	2273.87
564.42	2276.83
564.77	2279.44
565.12	2281.79
565.48	2283.79
565.83	2285.84
566.19	2287.20
566.54	2288.03
566.89	2289.13
567.25	2289.65
567.60	2290.98
567.96	2292.70
568.31	2293.52
568.66	2294.65
569.02	2295.27
569.37	2295.64
569.72	2296.48
570.08	2296.68
570.43	2296.73
570.78	2296.19
571.14	2294.77
571.49	2293.37
571.84	2293.02
572.20	2292.07
572.55	2291.07
572.90	2289.52
573.26	2288.04
573.61	2286.49
573.96	2284.79
574.31	2281.99
574.67	2279.14
575.02	2275.63
575.37	2272.18
575.72	2268.55
576.08	2265.29
576.43	2261.96
576.78	2258.27
577.13	2255.18
577.49	2252.08
577.84	2248.61
578.19	2244.94
578.54	2241.14
578.90	2236.97
579.25	2231.49
579.60	2226.48
579.95	2221.52
580.30	2216.68
580.66	2211.70
581.01	2206.74
581.36	2202.05
581.71	2198.03
582.06	2193.62
582.42	2189.22
582.77	2184.07
583.12	2179.45
583.47	2174.70
583.82	2169.80
584.17	2164.74
584.53	2159.28
584.88	2153.80
585.23	2148.16
585.58	2142.76
585.93	2137.55
586.28	2132.81
586.63	2127.80
586.98	2122.81
587.34	2117.99
587.69	2113.05
588.04	2107.81
588.39	2102.41
588.74	2095.92
589.09	2089.74
589.44	2082.96
589.79	2076.92
590.14	2071.45
590.49	2065.02
590.84	2058.83
591.19	2052.79
591.54	2046.38
591.89	2039.16
592.25	2032.40
592.60	2025.31
592.95	2017.80
593.30	2010.30
593.65	2002.80
594.00	1995.85
594.35	1988.67
594.70	1980.86
595.05	1973.69
595.40	1966.39
595.75	1958.76
596.10	1952.62
596.45	1945.97
596.80	1939.90
597.15	1933.46
597.50	1926.37
597.85	1919.92
598.19	1913.24
598.54	1906.14
598.89	1899.44
599.24	1893.55
599.59	1886.91
599.94	1880.78
600.29	1874.45
600.64	1867.92
600.99	1860.48
601.34	1853.66
601.69	1846.65
602.04	1839.89
602.39	1832.68
602.74	1825.97
603.08	1819.17
603.43	1812.47
603.78	1805.05
604.13	1797.82
604.48	1790.45
604.83	1783.64
605.18	1776.75
605.53	1768.85
605.87	1760.99
606.22	1753.93
606.57	1746.07
606.92	1738.76
607.27	1731.50
607.62	1724.73
607.96	1717.67
608.31	1711.14
608.66	1703.56
609.01	1695.97
609.36	1688.16
609.70	1680.07
610.05	1671.95
610.40	1664.30
610.75	1656.01
611.10	1648.48
611.44	1640.04
611.79	1632.09
612.14	1623.36
612.49	1614.23
612.83	1605.84
613.18	1597.70
613.53	1589.50
613.88	1580.92
614.22	1572.68
614.57	1563.98
614.92	1555.82
615.27	1548.19
615.61	1539.90
615.96	1531.88
616.31	1524.20
616.65	1516.93
617.00	1509.27
617.35	1501.62
617.70	1493.33
618.04	1484.71
618.39	1476.49
618.74	1468.94
619.08	1460.58
619.43	1452.93
619.78	1445.92
620.12	1438.75
620.47	1431.18
620.82	1422.96
621.16	1415.58
621.51	1407.82
621.85	1400.26
622.20	1391.70
622.55	1383.22
622.89	1375.33
623.24	1367.69
623.59	1360.44
623.93	1352.91
624.28	1345.83
624.62	1338.29
624.97	1331.08
625.32	1324.39
625.66	1317.37
626.01	1310.33
626.35	1302.91
626.70	1295.27
627.04	1287.55
627.39	1279.73
627.73	1272.35
628.08	1265.46
628.43	1258.09
628.77	1250.78
629.12	1243.30
629.46	1236.21
629.81	1228.86
630.15	1221.57
630.50	1214.13
630.84	1205.84
631.19	1197.94
631.53	1190.29
631.88	1182.72
632.22	1175.18
632.57	1167.82
632.91	1160.19
633.26	1152.62
633.60	1145.26
633.95	1138.11
634.29	1131.14
634.64	1124.52
634.98	1117.13
635.32	1109.92
635.67	1103.30
636.01	1096.70
636.36	1089.88
636.70	1083.42
637.05	1076.79
637.39	1070.33
637.73	1063.77
638.08	1057.92
638.42	1051.92
638.77	1045.53
639.11	1038.87
639.45	1032.40
639.80	1025.73
640.14	1019.36
640.49	1012.82
640.83	1006.46
641.17	1000.23
641.52	993.78
641.86	987.32
642.20	981.46
642.55	975.20
642.89	968.74
643.23	962.14
643.58	956.31
643.92	950.10
644.26	944.02
644.61	938.01
644.95	932.05
645.29	925.57
645.64	918.86
645.98	912.55
646.32	906.83
646.66	900.84
647.01	895.02
647.35	889.28
647.69	883.47
648.04	877.97
648.38	872.17
648.72	866.27
649.06	860.16
649.41	854.29
649.75	848.31
650.09	842.41
650.43	836.74
650.78	830.55
651.12	824.52
651.46	818.84
651.80	813.14
652.14	807.69
652.49	802.22
652.83	797.04
653.17	791.38
653.51	785.60
653.85	780.20
654.20	774.66
654.54	768.66
654.88	762.84
655.22	756.88
655.56	751.17
655.90	745.74
656.25	740.51
656.59	735.14
656.93	730.08
657.27	724.88
657.61	719.36
657.95	714.29
658.29	709.23
658.64	703.93
658.98	698.64
659.32	693.24
659.66	688.12
660.00	682.79
660.34	677.77
660.68	672.86
661.02	667.82
661.36	663.08
661.70	658.62
662.05	654.29
662.39	649.95
662.73	645.51
663.07	641.13
663.41	636.69
663.75	632.20
664.09	627.59
664.43	623.25
664.77	619.15
665.11	614.92
665.45	610.77
665.79	606.72
666.13	602.53
666.47	598.44
666.81	594.25
667.15	590.14
667.49	586.25
667.83	582.43
668.17	578.54
668.51	574.49
668.85	570.44
669.19	566.60
669.53	562.76
669.87	558.85
670.21	555.09
670.55	551.46
670.89	548.03
671.23	544.59
671.57	540.99
671.91	537.41
672.25	533.89
672.58	530.38
672.92	526.99
673.26	523.84
673.60	520.67
673.94	517.53
674.28	514.60
674.62	511.66
674.96	508.63
675.30	505.67
675.64	502.66
675.97	499.87
676.31	497.02
676.65	494.08
676.99	491.36
677.33	488.47
677.67	485.63
678.01	482.56
678.34	479.60
678.68	476.74
679.02	473.93
679.36	471.13
679.70	468.40
680.04	465.65
680.37	462.75
680.71	459.97
681.05	457.33
681.39	454.62
681.73	451.99
682.06	449.40
682.40	446.82
682.74	444.33
683.08	441.78
683.42	439.20
683.75	436.74
684.09	434.19
684.43	431.77
684.77	429.27
685.10	426.88
685.44	424.59
685.78	422.33
686.12	420.06
686.45	417.85
686.79	415.55
687.13	413.31
687.46	411.12
687.80	408.97
688.14	406.72
688.48	404.66
688.81	402.40
689.15	400.23
689.49	398.10
689.82	396.00
690.16	393.93
690.50	391.98
690.83	390.04
691.17	388.11
691.51	386.20
691.84	384.42
692.18	382.54
692.52	380.56
692.85	378.60
693.19	376.69
693.52	374.84
693.86	373.03
694.20	371.26
694.53	369.46
694.87	367.61
695.21	365.83
695.54	363.99
695.88	362.26
696.21	360.56
696.55	358.89
696.88	357.17
697.22	355.45
697.56	353.80
697.89	352.14
698.23	350.49
698.56	348.84
698.90	347.26
699.23	345.66
699.57	344.09
699.90	342.57
700.24	341.09
700.58	339.53
700.91	338.02
701.25	336.59
701.58	335.22
701.92	333.84
702.25	332.46
702.59	331.09
702.92	329.75
703.26	328.41
703.59	327.12
703.93	325.96
704.26	324.74
704.60	323.44
704.93	322.17
705.26	320.95
705.60	319.77
705.93	318.56
706.27	317.46
706.60	316.40
706.94	315.32
707.27	314.16
707.61	313.11
707.94	312.13
708.27	310.99
708.61	309.90
708.94	308.92
709.28	307.94
709.61	306.95
709.94	305.99
710.28	304.98
710.61	304.01
710.95	302.91
711.28	302.00
711.61	301.07
711.95	300.11
712.28	299.12
712.61	298.15
712.95	297.22
713.28	296.36
713.61	295.46
713.95	294.55
714.28	293.75
714.61	292.88
714.95	292.00
715.28	291.14
715.61	290.25
715.95	289.39
716.28	288.55
716.61	287.77
716.95	286.98
717.28	286.21
717.61	285.46
717.94	284.73
718.28	283.93
718.61	283.20
718.94	282.50
719.27	281.87
719.61	281.23
719.94	280.57
720.27	279.83
720.60	279.18
720.94	278.58
721.27	277.96
721.60	277.33
721.93	276.73
722.27	276.21
722.60	275.66
722.93	275.10
723.26	274.55
723.59	273.99
723.93	273.44
724.26	272.91
724.59	272.32
724.92	271.82
725.25	271.32
725.59	270.81
725.92	270.36
726.25	269.85
726.58	269.37
726.91	268.89
727.24	268.41
727.57	267.95
727.91	267.41
728.24	266.96
728.57	266.48
728.90	265.99
729.23	265.48
729.56	265.07
729.89	264.61
730.22	264.15
730.55	263.64
730.89	263.21
731.22	262.78
731.55	262.35
731.88	261.92
732.21	261.50
732.54	261.03
732.87	260.59
733.20	260.19
733.53	259.80
733.86	259.44
734.19	259.06
734.52	258.67
734.85	258.37
735.18	257.94
735.51	257.62
735.84	257.29
736.17	256.94
736.50	256.54
736.83	256.30
737.16	255.93
737.49	255.63
737.82	255.28
738.15	254.91
738.48	254.58
738.81	254.27
739.14	253.93
739.47	253.64
739.80	253.33
740.13	253.05
740.46	252.70
740.79	252.36
741.12	252.06
741.45	251.74
741.78	251.40
742.11	251.13
742.44	250.78
742.77	250.48
743.10	250.19
743.43	249.92
743.75	249.50
744.08	249.35
744.41	249.08
744.74	248.79
745.07	248.53
745.40	248.30
745.73	248.01
746.06	247.74
746.39	247.47
746.71	247.17
747.04	246.85
747.37	246.58
747.70	246.32
748.03	246.09
748.36	245.86
748.68	245.62
749.01	245.36
749.34	245.16
749.67	244.91
750.00	244.67
750.33	244.50
750.65	244.34
750.98	244.03
751.31	243.79
751.64	243.56
751.97	243.41
752.29	243.21
752.62	242.95
752.95	242.78
753.28	242.58
753.60	242.42
753.93	242.26
754.26	242.07
754.59	241.87
754.91	241.64
755.24	241.43
755.57	241.26
755.90	241.08
756.22	240.87
756.55	240.69
756.88	240.51
757.20	240.26
757.53	240.04
757.86	239.87
758.19	239.73
758.51	239.61
758.84	239.39
759.17	239.19
759.49	239.02
759.82	238.86
760.15	238.70
760.47	238.55
760.80	238.38
761.13	238.29
761.45	238.10
761.78	237.97
762.11	237.83
762.43	237.68
762.76	237.52
763.08	237.42
763.41	237.30
763.74	237.19
764.06	237.07
764.39	236.91
764.71	236.76
765.04	236.58
765.37	236.42
765.69	236.29
766.02	236.17
766.34	236.08
766.67	235.93
767.00	235.85
767.32	235.75
767.65	235.67
767.97	235.53
768.30	235.45
768.62	235.32
768.95	235.22
769.27	235.07
769.60	235.01
769.92	234.91
770.25	234.80
770.57	234.65
770.90	234.54
771.22	234.45
771.55	234.34
771.87	234.28
772.20	234.18
772.52	234.16
772.85	234.18
773.17	234.09
773.50	233.99
773.82	233.86
774.15	233.73
774.47	233.62
774.80	233.51
775.12	233.43
775.45	233.35
775.77	233.27
776.09	233.19
776.42	233.05
776.74	232.97
777.07	232.84
777.39	232.70
777.72	232.65
778.04	232.55
778.36	232.49
778.69	232.39
779.01	232.35
779.33	232.19
779.66	232.05
779.98	231.93
780.31	231.84
780.63	231.84
780.95	231.79
781.28	231.72
781.60	231.63
781.92	231.54
782.25	231.50
782.57	231.43
782.89	231.36
783.22	231.27
783.54	231.19
783.86	231.13
784.19	231.10
784.51	231.03
784.83	230.97
785.16	230.90
785.48	230.88
785.80	230.81
786.12	230.77
786.45	230.69
786.77	230.68
787.09	230.64
