SpectraSuite Data File
++++++++++++++++++++++++++++++++++++
Date: Fri Feb 01 16:20:01 EST 2013
User: group
Dark Spectrum Present: No
Reference Spectrum Present: No
Number of Sampled Component Spectra: 1
Spectrometers: USB2E7196
Integration Time (usec): 35000 (USB2E7196)
Spectra Averaged: 100 (USB2E7196)
Boxcar Smoothing: 10 (USB2E7196)
Correct for Electrical Dark: No (USB2E7196)
Strobe/Lamp Enabled: No (USB2E7196)
Correct for Detector Non-linearity: No (USB2E7196)
Correct for Stray Light: No (USB2E7196)
Number of Pixels in Processed Spectrum: 2048
>>>>>Begin Processed Spectral Data<<<<<
339.09	0.00
339.48	214.04
339.86	216.07
340.24	216.72
340.63	218.62
341.01	220.88
341.39	221.03
341.78	222.13
342.16	224.03
342.54	223.65
342.93	212.26
343.31	223.01
343.69	223.53
344.07	223.95
344.46	224.39
344.84	224.71
345.22	224.94
345.60	225.15
345.99	225.34
346.37	225.44
346.75	225.56
347.13	225.62
347.52	225.68
347.90	225.73
348.28	225.76
348.66	225.82
349.05	225.84
349.43	225.88
349.81	225.95
350.19	225.95
350.57	226.00
350.96	226.12
351.34	226.16
351.72	226.26
352.10	226.34
352.48	226.38
352.87	226.48
353.25	226.56
353.63	226.65
354.01	226.73
354.39	226.78
354.77	226.85
355.15	226.95
355.54	227.03
355.92	227.06
356.30	227.14
356.68	227.28
357.06	227.37
357.44	227.42
357.82	227.46
358.20	227.58
358.58	227.66
358.97	227.69
359.35	227.80
359.73	227.88
360.11	227.97
360.49	228.05
360.87	228.07
361.25	228.13
361.63	228.20
362.01	228.23
362.39	228.33
362.77	228.38
363.15	228.41
363.53	228.47
363.91	228.54
364.29	228.58
364.67	228.50
365.05	228.54
365.43	228.60
365.81	228.66
366.19	228.70
366.57	228.73
366.95	228.74
367.33	228.70
367.71	228.70
368.09	228.71
368.47	228.73
368.85	228.74
369.23	228.76
369.61	228.72
369.99	228.74
370.37	228.68
370.75	228.69
371.13	228.63
371.51	228.56
371.89	228.51
372.27	228.47
372.65	228.43
373.03	228.34
373.41	228.26
373.78	228.17
374.16	228.10
374.54	228.03
374.92	227.99
375.30	227.91
375.68	227.83
376.06	227.75
376.44	227.65
376.82	227.59
377.19	227.53
377.57	227.44
377.95	227.34
378.33	227.26
378.71	227.11
379.09	227.06
379.47	227.03
379.84	226.94
380.22	226.87
380.60	226.81
380.98	226.79
381.36	226.73
381.73	226.67
382.11	226.60
382.49	226.53
382.87	226.46
383.25	226.43
383.62	226.49
384.00	226.46
384.38	226.40
384.76	226.39
385.13	226.31
385.51	226.29
385.89	226.23
386.27	226.22
386.64	226.20
387.02	226.15
387.40	226.09
387.78	226.09
388.15	226.07
388.53	226.00
388.91	225.94
389.29	225.91
389.66	225.89
390.04	225.86
390.42	225.84
390.79	225.85
391.17	225.79
391.55	225.68
391.92	225.63
392.30	225.63
392.68	225.57
393.05	225.60
393.43	225.61
393.81	225.60
394.18	225.57
394.56	225.61
394.94	225.64
395.31	225.62
395.69	225.65
396.06	225.64
396.44	225.71
396.82	225.75
397.19	225.83
397.57	225.89
397.95	225.97
398.32	226.02
398.70	226.04
399.07	226.16
399.45	226.21
399.82	226.26
400.20	226.31
400.58	226.38
400.95	226.40
401.33	226.49
401.70	226.66
402.08	226.74
402.45	226.83
402.83	226.96
403.20	227.12
403.58	227.20
403.95	227.38
404.33	227.51
404.71	227.62
405.08	227.78
405.46	227.91
405.83	228.05
406.21	228.17
406.58	228.33
406.96	228.45
407.33	228.61
407.70	228.80
408.08	229.08
408.45	229.31
408.83	229.55
409.20	229.72
409.58	229.89
409.95	230.17
410.33	230.44
410.70	230.66
411.08	230.91
411.45	231.24
411.82	231.53
412.20	231.87
412.57	232.31
412.95	232.63
413.32	233.04
413.69	233.41
414.07	233.86
414.44	234.36
414.82	234.86
415.19	235.43
415.56	235.98
415.94	236.52
416.31	237.19
416.68	237.81
417.06	238.54
417.43	239.22
417.81	239.96
418.18	240.73
418.55	241.58
418.93	242.46
419.30	243.32
419.67	244.22
420.04	245.19
420.42	246.13
420.79	247.29
421.16	248.41
421.54	249.61
421.91	250.82
422.28	252.04
422.66	253.34
423.03	254.67
423.40	256.02
423.77	257.40
424.15	258.79
424.52	260.27
424.89	261.88
425.26	263.45
425.64	264.88
426.01	266.46
426.38	268.11
426.75	269.76
427.13	271.48
427.50	273.32
427.87	275.19
428.24	277.07
428.61	278.77
428.99	280.71
429.36	282.82
429.73	284.90
430.10	286.92
430.47	289.00
430.85	291.07
431.22	293.30
431.59	295.66
431.96	297.87
432.33	300.37
432.70	302.72
433.08	305.51
433.45	308.20
433.82	310.79
434.19	313.66
434.56	316.44
434.93	319.13
435.30	321.69
435.68	324.54
436.05	327.33
436.42	330.16
436.79	332.60
437.16	335.28
437.53	338.07
437.90	340.92
438.27	343.60
438.64	346.41
439.01	348.97
439.38	351.23
439.75	353.43
440.13	355.89
440.50	358.21
440.87	360.03
441.24	361.90
441.61	364.07
441.98	365.54
442.35	367.37
442.72	369.22
443.09	371.05
443.46	372.05
443.83	372.69
444.20	373.19
444.57	374.09
444.94	374.32
445.31	374.65
445.68	374.98
446.05	375.07
446.42	374.70
446.79	374.31
447.16	373.87
447.53	373.54
447.90	372.38
448.27	371.25
448.64	369.71
449.01	368.63
449.37	366.68
449.74	364.83
450.11	362.59
450.48	360.09
450.85	357.55
451.22	355.39
451.59	353.33
451.96	351.37
452.33	348.79
452.70	346.47
453.07	343.62
453.43	340.71
453.80	337.98
454.17	335.30
454.54	332.76
454.91	330.06
455.28	327.39
455.65	324.91
456.02	322.47
456.38	320.32
456.75	317.61
457.12	315.37
457.49	313.11
457.86	310.99
458.23	309.15
458.59	307.14
458.96	305.09
459.33	303.26
459.70	301.40
460.07	299.88
460.43	298.22
460.80	296.64
461.17	295.21
461.54	293.71
461.91	292.28
462.27	290.83
462.64	289.56
463.01	288.20
463.38	286.93
463.74	285.56
464.11	284.40
464.48	283.38
464.85	282.27
465.21	281.44
465.58	280.48
465.95	279.38
466.32	278.47
466.68	277.55
467.05	276.65
467.42	275.77
467.78	274.84
468.15	273.94
468.52	273.26
468.88	272.41
469.25	271.63
469.62	271.02
469.98	270.36
470.35	269.75
470.72	269.17
471.08	268.52
471.45	267.98
471.82	267.42
472.18	266.82
472.55	266.37
472.92	265.86
473.28	265.43
473.65	265.03
474.02	264.58
474.38	264.21
474.75	263.92
475.11	263.59
475.48	263.36
475.85	263.12
476.21	262.93
476.58	262.74
476.94	262.60
477.31	262.42
477.67	262.26
478.04	262.15
478.41	262.09
478.77	262.13
479.14	262.10
479.50	262.10
479.87	262.18
480.23	262.28
480.60	262.35
480.96	262.41
481.33	262.59
481.69	262.77
482.06	263.00
482.42	263.20
482.79	263.46
483.15	263.77
483.52	264.17
483.88	264.52
484.25	264.92
484.61	265.36
484.98	265.82
485.34	266.40
485.71	266.97
486.07	267.57
486.44	268.13
486.80	268.79
487.17	269.59
487.53	270.39
487.90	271.22
488.26	272.13
488.62	273.11
488.99	274.10
489.35	275.14
489.72	276.23
490.08	277.43
490.44	278.63
490.81	279.94
491.17	281.26
491.54	282.75
491.90	284.31
492.26	285.95
492.63	287.67
492.99	289.43
493.36	291.34
493.72	293.37
494.08	295.48
494.45	297.71
494.81	300.06
495.17	302.48
495.54	305.11
495.90	307.84
496.26	310.65
496.63	313.62
496.99	316.76
497.35	320.05
497.72	323.46
498.08	327.02
498.44	330.74
498.80	334.70
499.17	338.75
499.53	342.91
499.89	347.33
500.26	351.90
500.62	356.59
500.98	361.54
501.34	366.64
501.71	372.00
502.07	377.50
502.43	383.12
502.79	388.99
503.16	395.03
503.52	401.33
503.88	407.83
504.24	414.47
504.60	421.40
504.97	428.55
505.33	435.92
505.69	443.69
506.05	451.48
506.41	459.34
506.78	467.52
507.14	476.03
507.50	484.78
507.86	493.79
508.22	503.04
508.59	512.25
508.95	521.83
509.31	531.68
509.67	541.82
510.03	552.18
510.39	562.76
510.75	573.64
511.12	584.58
511.48	595.82
511.84	607.23
512.20	618.70
512.56	630.63
512.92	642.81
513.28	655.16
513.64	667.63
514.00	680.35
514.37	693.31
514.73	706.39
515.09	719.40
515.45	732.72
515.81	746.30
516.17	760.28
516.53	774.37
516.89	788.54
517.25	802.63
517.61	816.96
517.97	831.38
518.33	845.72
518.69	860.42
519.05	875.41
519.41	890.68
519.77	906.17
520.13	921.59
520.49	936.89
520.85	952.30
521.21	967.97
521.57	984.16
521.93	999.81
522.29	1016.12
522.65	1032.24
523.01	1048.36
523.37	1064.40
523.73	1080.61
524.09	1096.75
524.45	1112.93
524.81	1129.51
525.17	1146.28
525.53	1163.16
525.89	1179.98
526.25	1196.77
526.61	1213.03
526.97	1229.58
527.33	1246.10
527.68	1262.63
528.04	1279.06
528.40	1295.53
528.76	1312.52
529.12	1329.06
529.48	1345.93
529.84	1361.88
530.20	1378.62
530.56	1395.59
530.91	1412.78
531.27	1429.38
531.63	1445.62
531.99	1462.22
532.35	1478.09
532.71	1493.96
533.07	1510.13
533.42	1525.97
533.78	1542.01
534.14	1558.27
534.50	1573.57
534.86	1589.25
535.21	1604.45
535.57	1620.35
535.93	1635.79
536.29	1650.49
536.65	1665.46
537.00	1680.13
537.36	1695.34
537.72	1709.65
538.08	1724.02
538.44	1737.80
538.79	1751.65
539.15	1765.35
539.51	1778.97
539.87	1793.39
540.22	1806.96
540.58	1820.64
540.94	1833.87
541.29	1846.61
541.65	1859.23
542.01	1872.37
542.37	1884.74
542.72	1896.91
543.08	1908.68
543.44	1921.00
543.79	1932.22
544.15	1943.25
544.51	1954.86
544.87	1965.77
545.22	1976.57
545.58	1986.59
545.94	1996.28
546.29	2005.98
546.65	2015.82
547.01	2025.09
547.36	2033.61
547.72	2042.01
548.07	2049.82
548.43	2057.93
548.79	2065.98
549.14	2073.51
549.50	2080.81
549.86	2088.37
550.21	2095.71
550.57	2102.73
550.92	2109.17
551.28	2116.19
551.64	2123.13
551.99	2129.54
552.35	2135.69
552.70	2141.81
553.06	2147.94
553.41	2154.33
553.77	2160.39
554.13	2166.31
554.48	2172.50
554.84	2178.14
555.19	2183.58
555.55	2188.64
555.90	2193.16
556.26	2198.00
556.61	2202.63
556.97	2206.89
557.32	2211.05
557.68	2215.24
558.03	2219.57
558.39	2223.36
558.74	2228.00
559.10	2231.87
559.45	2235.62
559.81	2239.89
560.16	2243.70
560.52	2246.85
560.87	2250.27
561.23	2253.07
561.58	2256.18
561.94	2258.64
562.29	2260.84
562.64	2263.41
563.00	2266.09
563.35	2269.70
563.71	2272.82
564.06	2276.22
564.42	2279.12
564.77	2281.57
565.12	2283.83
565.48	2285.90
565.83	2287.75
566.19	2288.96
566.54	2289.84
566.89	2290.89
567.25	2291.58
567.60	2292.96
567.96	2294.69
568.31	2295.52
568.66	2296.61
569.02	2297.22
569.37	2297.44
569.72	2298.37
570.08	2298.44
570.43	2298.53
570.78	2297.93
571.14	2296.46
571.49	2295.06
571.84	2294.80
572.20	2294.11
572.55	2293.14
572.90	2291.52
573.26	2290.27
573.61	2288.66
573.96	2287.07
574.31	2284.05
574.67	2281.03
575.02	2277.41
575.37	2274.14
575.72	2270.48
576.08	2267.09
576.43	2263.67
576.78	2260.14
577.13	2257.02
577.49	2254.15
577.84	2250.64
578.19	2246.77
578.54	2243.17
578.90	2239.06
579.25	2233.58
579.60	2228.29
579.95	2223.29
580.30	2218.28
580.66	2213.10
581.01	2208.33
581.36	2203.48
581.71	2199.53
582.06	2195.13
582.42	2190.67
582.77	2185.55
583.12	2180.99
583.47	2176.37
583.82	2171.50
584.17	2166.28
584.53	2160.83
584.88	2155.21
585.23	2149.54
585.58	2144.33
585.93	2138.94
586.28	2134.10
586.63	2129.15
586.98	2124.20
587.34	2119.64
587.69	2114.79
588.04	2109.61
588.39	2103.84
588.74	2097.34
589.09	2091.20
589.44	2084.39
589.79	2078.46
590.14	2072.96
590.49	2066.32
590.84	2060.07
591.19	2054.15
591.54	2047.73
591.89	2040.47
592.25	2033.73
592.60	2026.48
592.95	2018.93
593.30	2011.63
593.65	2004.17
594.00	1996.99
594.35	1989.75
594.70	1981.67
595.05	1974.58
595.40	1967.35
595.75	1959.93
596.10	1953.88
596.45	1947.27
596.80	1941.21
597.15	1934.72
597.50	1927.40
597.85	1921.10
598.19	1914.40
598.54	1907.25
598.89	1900.68
599.24	1894.83
599.59	1888.17
599.94	1882.22
600.29	1875.93
600.64	1869.37
600.99	1862.00
601.34	1855.21
601.69	1848.30
602.04	1841.51
602.39	1834.12
602.74	1827.33
603.08	1820.73
603.43	1813.93
603.78	1806.48
604.13	1799.36
604.48	1791.87
604.83	1785.04
605.18	1778.06
605.53	1770.13
605.87	1762.14
606.22	1755.05
606.57	1747.15
606.92	1739.90
607.27	1732.57
607.62	1725.65
607.96	1718.43
608.31	1711.75
608.66	1704.26
609.01	1696.76
609.36	1689.18
609.70	1681.23
610.05	1673.18
610.40	1665.45
610.75	1657.18
611.10	1649.65
611.44	1641.19
611.79	1633.32
612.14	1624.78
612.49	1615.56
612.83	1607.09
613.18	1598.95
613.53	1590.82
613.88	1582.19
614.22	1573.79
614.57	1565.17
614.92	1557.12
615.27	1549.49
615.61	1541.08
615.96	1533.12
616.31	1525.38
616.65	1517.97
617.00	1510.38
617.35	1502.70
617.70	1494.32
618.04	1485.80
618.39	1477.46
618.74	1469.88
619.08	1461.61
619.43	1454.04
619.78	1447.12
620.12	1439.96
620.47	1432.34
620.82	1424.13
621.16	1416.78
621.51	1409.31
621.85	1401.68
622.20	1393.13
622.55	1384.74
622.89	1376.99
623.24	1369.29
623.59	1361.83
623.93	1354.33
624.28	1347.10
624.62	1339.57
624.97	1332.41
625.32	1325.60
625.66	1318.60
626.01	1311.41
626.35	1303.85
626.70	1296.04
627.04	1288.41
627.39	1280.63
627.73	1273.40
628.08	1266.45
628.43	1259.07
628.77	1251.62
629.12	1244.16
629.46	1236.90
629.81	1229.48
630.15	1222.15
630.50	1214.77
630.84	1206.65
631.19	1198.62
631.53	1191.12
631.88	1183.48
632.22	1175.82
632.57	1168.53
632.91	1160.99
633.26	1153.48
633.60	1146.20
633.95	1139.02
634.29	1131.98
634.64	1125.29
634.98	1117.89
635.32	1110.57
635.67	1104.05
636.01	1097.35
636.36	1090.56
636.70	1084.07
637.05	1077.46
637.39	1071.02
637.73	1064.48
638.08	1058.52
638.42	1052.57
638.77	1046.06
639.11	1039.49
639.45	1033.06
639.80	1026.30
640.14	1019.97
640.49	1013.48
640.83	1007.15
641.17	1000.90
641.52	994.46
641.86	987.91
642.20	982.01
642.55	975.80
642.89	969.17
643.23	962.66
643.58	956.79
643.92	950.61
644.26	944.57
644.61	938.57
644.95	932.48
645.29	925.96
645.64	919.25
645.98	912.88
646.32	906.98
646.66	900.95
647.01	895.20
647.35	889.38
647.69	883.54
648.04	877.97
648.38	872.18
648.72	866.17
649.06	860.19
649.41	854.30
649.75	848.32
650.09	842.46
650.43	836.60
650.78	830.50
651.12	824.50
651.46	818.82
651.80	813.00
652.14	807.62
652.49	802.25
652.83	797.07
653.17	791.47
653.51	785.81
653.85	780.41
654.20	774.73
654.54	768.73
654.88	762.96
655.22	757.08
655.56	751.41
655.90	746.00
656.25	740.70
656.59	735.28
656.93	730.22
657.27	725.07
657.61	719.66
657.95	714.47
658.29	709.39
658.64	704.14
658.98	698.87
659.32	693.46
659.66	688.25
660.00	682.93
660.34	677.90
660.68	672.95
661.02	667.94
661.36	663.20
661.70	658.68
662.05	654.36
662.39	650.03
662.73	645.55
663.07	641.11
663.41	636.71
663.75	632.26
664.09	627.65
664.43	623.22
664.77	619.14
665.11	614.90
665.45	610.76
665.79	606.61
666.13	602.51
666.47	598.31
666.81	594.09
667.15	589.91
667.49	586.01
667.83	582.21
668.17	578.26
668.51	574.21
668.85	570.22
669.19	566.37
669.53	562.52
669.87	558.56
670.21	554.90
670.55	551.30
670.89	547.91
671.23	544.44
671.57	540.92
671.91	537.35
672.25	533.86
672.58	530.32
672.92	526.95
673.26	523.77
673.60	520.63
673.94	517.51
674.28	514.64
674.62	511.65
674.96	508.47
675.30	505.60
675.64	502.67
675.97	499.92
676.31	497.05
676.65	494.09
676.99	491.45
677.33	488.62
677.67	485.71
678.01	482.64
678.34	479.69
678.68	476.82
679.02	474.01
679.36	471.27
679.70	468.55
680.04	465.76
680.37	462.88
680.71	460.10
681.05	457.54
681.39	454.78
681.73	452.14
682.06	449.66
682.40	447.06
682.74	444.53
683.08	441.94
683.42	439.35
683.75	436.89
684.09	434.36
684.43	431.88
684.77	429.45
685.10	427.08
685.44	424.84
685.78	422.54
686.12	420.26
686.45	417.94
686.79	415.65
687.13	413.44
687.46	411.32
687.80	409.18
688.14	406.97
688.48	404.93
688.81	402.71
689.15	400.57
689.49	398.45
689.82	396.37
690.16	394.24
690.50	392.31
690.83	390.30
691.17	388.30
691.51	386.38
691.84	384.56
692.18	382.62
692.52	380.57
692.85	378.63
693.19	376.75
693.52	374.89
693.86	373.08
694.20	371.32
694.53	369.47
694.87	367.60
695.21	365.76
695.54	363.92
695.88	362.17
696.21	360.42
696.55	358.72
696.88	357.03
697.22	355.38
697.56	353.73
697.89	352.12
698.23	350.51
698.56	348.87
698.90	347.25
699.23	345.60
699.57	344.05
699.90	342.52
700.24	340.98
700.58	339.44
700.91	337.94
701.25	336.48
701.58	335.09
701.92	333.70
702.25	332.36
702.59	330.99
702.92	329.67
703.26	328.36
703.59	327.07
703.93	325.85
704.26	324.61
704.60	323.29
704.93	321.99
705.26	320.72
705.60	319.58
705.93	318.37
706.27	317.32
706.60	316.22
706.94	315.10
707.27	313.96
707.61	312.91
707.94	311.87
708.27	310.74
708.61	309.63
708.94	308.63
709.28	307.62
709.61	306.69
709.94	305.73
710.28	304.71
710.61	303.69
710.95	302.61
711.28	301.69
711.61	300.71
711.95	299.76
712.28	298.84
712.61	297.81
712.95	296.93
713.28	296.06
713.61	295.21
713.95	294.32
714.28	293.48
714.61	292.62
714.95	291.77
715.28	290.94
715.61	290.07
715.95	289.16
716.28	288.28
716.61	287.40
716.95	286.59
717.28	285.83
717.61	285.08
717.94	284.35
718.28	283.55
718.61	282.84
718.94	282.12
719.27	281.45
719.61	280.83
719.94	280.19
720.27	279.47
720.60	278.79
720.94	278.17
721.27	277.57
721.60	277.02
721.93	276.40
722.27	275.83
722.60	275.31
722.93	274.81
723.26	274.32
723.59	273.77
723.93	273.21
724.26	272.66
724.59	272.11
724.92	271.57
725.25	271.11
725.59	270.57
725.92	270.09
726.25	269.56
726.58	269.07
726.91	268.55
727.24	268.11
727.57	267.64
727.91	267.13
728.24	266.66
728.57	266.17
728.90	265.72
729.23	265.27
729.56	264.83
729.89	264.39
730.22	263.89
730.55	263.43
730.89	263.03
731.22	262.59
731.55	262.15
731.88	261.74
732.21	261.32
732.54	260.93
732.87	260.52
733.20	260.13
733.53	259.72
733.86	259.39
734.19	258.96
734.52	258.61
734.85	258.32
735.18	257.93
735.51	257.56
735.84	257.23
736.17	256.86
736.50	256.47
736.83	256.25
737.16	255.93
737.49	255.60
737.82	255.26
738.15	254.97
738.48	254.68
738.81	254.35
739.14	254.02
739.47	253.73
739.80	253.42
740.13	253.13
740.46	252.80
740.79	252.45
741.12	252.16
741.45	251.85
741.78	251.47
742.11	251.19
742.44	250.85
742.77	250.57
743.10	250.28
743.43	249.98
743.75	249.57
744.08	249.42
744.41	249.15
744.74	248.83
745.07	248.53
745.40	248.25
745.73	248.01
746.06	247.69
746.39	247.41
746.71	247.13
747.04	246.85
747.37	246.59
747.70	246.36
748.03	246.09
748.36	245.84
748.68	245.63
749.01	245.36
749.34	245.13
749.67	244.88
750.00	244.68
750.33	244.47
750.65	244.28
750.98	243.88
751.31	243.66
751.64	243.46
751.97	243.29
752.29	243.05
752.62	242.82
752.95	242.63
753.28	242.40
753.60	242.21
753.93	242.02
754.26	241.84
754.59	241.58
754.91	241.40
755.24	241.17
755.57	240.98
755.90	240.77
756.22	240.60
756.55	240.38
756.88	240.18
757.20	239.96
757.53	239.74
757.86	239.59
758.19	239.42
758.51	239.27
758.84	239.06
759.17	238.92
759.49	238.72
759.82	238.59
760.15	238.45
760.47	238.30
760.80	238.13
761.13	238.00
761.45	237.84
761.78	237.69
762.11	237.55
762.43	237.39
762.76	237.27
763.08	237.09
763.41	236.96
763.74	236.84
764.06	236.71
764.39	236.58
764.71	236.48
765.04	236.34
765.37	236.19
765.69	236.04
766.02	235.93
766.34	235.83
766.67	235.70
767.00	235.59
767.32	235.50
767.65	235.45
767.97	235.34
768.30	235.26
768.62	235.17
768.95	235.06
769.27	234.93
769.60	234.83
769.92	234.73
770.25	234.63
770.57	234.47
770.90	234.38
771.22	234.30
771.55	234.18
771.87	234.09
772.20	234.01
772.52	234.03
772.85	234.06
773.17	233.99
773.50	233.91
773.82	233.80
774.15	233.70
774.47	233.59
774.80	233.49
775.12	233.39
775.45	233.27
775.77	233.24
776.09	233.20
776.42	233.12
776.74	233.10
777.07	233.00
777.39	232.94
777.72	232.84
778.04	232.75
778.36	232.70
778.69	232.63
779.01	232.57
779.33	232.41
779.66	232.22
779.98	232.15
780.31	232.08
780.63	232.09
780.95	232.02
781.28	231.92
781.60	231.87
781.92	231.79
782.25	231.77
782.57	231.67
782.89	231.61
783.22	231.58
783.54	231.50
783.86	231.47
784.19	231.43
784.51	231.42
784.83	231.34
785.16	231.29
785.48	231.24
785.80	231.18
786.12	231.13
786.45	231.10
786.77	231.01
787.09	230.95
