SpectraSuite Data File
++++++++++++++++++++++++++++++++++++
Date: Fri Feb 01 15:12:47 EST 2013
User: group
Dark Spectrum Present: No
Reference Spectrum Present: No
Number of Sampled Component Spectra: 1
Spectrometers: USB2E7196
Integration Time (usec): 35000 (USB2E7196)
Spectra Averaged: 100 (USB2E7196)
Boxcar Smoothing: 10 (USB2E7196)
Correct for Electrical Dark: No (USB2E7196)
Strobe/Lamp Enabled: No (USB2E7196)
Correct for Detector Non-linearity: No (USB2E7196)
Correct for Stray Light: No (USB2E7196)
Number of Pixels in Processed Spectrum: 2048
>>>>>Begin Processed Spectral Data<<<<<
339.09	0.00
339.48	215.11
339.86	216.45
340.24	217.57
340.63	219.42
341.01	222.23
341.39	222.47
341.78	223.32
342.16	223.78
342.54	224.98
342.93	213.29
343.31	224.11
343.69	224.65
344.07	225.11
344.46	225.58
344.84	225.97
345.22	226.21
345.60	226.42
345.99	226.62
346.37	226.81
346.75	226.91
347.13	226.97
347.52	227.05
347.90	227.08
348.28	227.12
348.66	227.15
349.05	227.16
349.43	227.18
349.81	227.25
350.19	227.32
350.57	227.41
350.96	227.52
351.34	227.54
351.72	227.62
352.10	227.76
352.48	227.80
352.87	227.87
353.25	227.93
353.63	228.02
354.01	228.06
354.39	228.14
354.77	228.24
355.15	228.38
355.54	228.43
355.92	228.49
356.30	228.57
356.68	228.69
357.06	228.76
357.44	228.81
357.82	228.87
358.20	228.93
358.58	228.98
358.97	229.04
359.35	229.13
359.73	229.19
360.11	229.18
360.49	229.24
360.87	229.25
361.25	229.32
361.63	229.38
362.01	229.45
362.39	229.46
362.77	229.48
363.15	229.47
363.53	229.50
363.91	229.55
364.29	229.59
364.67	229.50
365.05	229.53
365.43	229.55
365.81	229.56
366.19	229.60
366.57	229.62
366.95	229.57
367.33	229.55
367.71	229.52
368.09	229.55
368.47	229.52
368.85	229.49
369.23	229.48
369.61	229.41
369.99	229.41
370.37	229.38
370.75	229.38
371.13	229.32
371.51	229.26
371.89	229.19
372.27	229.10
372.65	229.09
373.03	229.03
373.41	228.94
373.78	228.85
374.16	228.75
374.54	228.65
374.92	228.58
375.30	228.51
375.68	228.43
376.06	228.34
376.44	228.26
376.82	228.19
377.19	228.13
377.57	228.04
377.95	227.93
378.33	227.82
378.71	227.71
379.09	227.68
379.47	227.63
379.84	227.59
380.22	227.50
380.60	227.39
380.98	227.32
381.36	227.28
381.73	227.20
382.11	227.13
382.49	227.08
382.87	227.03
383.25	226.95
383.62	227.03
384.00	226.98
384.38	226.92
384.76	226.90
385.13	226.84
385.51	226.81
385.89	226.71
386.27	226.70
386.64	226.65
387.02	226.58
387.40	226.50
387.78	226.43
388.15	226.41
388.53	226.40
388.91	226.39
389.29	226.34
389.66	226.38
390.04	226.34
390.42	226.33
390.79	226.28
391.17	226.29
391.55	226.16
391.92	226.12
392.30	226.12
392.68	226.09
393.05	226.10
393.43	226.09
393.81	226.17
394.18	226.19
394.56	226.21
394.94	226.27
395.31	226.31
395.69	226.38
396.06	226.46
396.44	226.50
396.82	226.51
397.19	226.62
397.57	226.65
397.95	226.73
398.32	226.79
398.70	226.88
399.07	226.98
399.45	227.08
399.82	227.16
400.20	227.27
400.58	227.34
400.95	227.39
401.33	227.52
401.70	227.65
402.08	227.78
402.45	227.91
402.83	228.01
403.20	228.16
403.58	228.28
403.95	228.40
404.33	228.54
404.71	228.68
405.08	228.83
405.46	228.97
405.83	229.12
406.21	229.26
406.58	229.42
406.96	229.56
407.33	229.77
407.70	229.97
408.08	230.24
408.45	230.49
408.83	230.74
409.20	230.93
409.58	231.12
409.95	231.34
410.33	231.61
410.70	231.88
411.08	232.13
411.45	232.45
411.82	232.74
412.20	233.11
412.57	233.54
412.95	233.83
413.32	234.27
413.69	234.66
414.07	235.08
414.44	235.58
414.82	236.06
415.19	236.59
415.56	237.14
415.94	237.66
416.31	238.29
416.68	238.91
417.06	239.64
417.43	240.32
417.81	241.09
418.18	241.86
418.55	242.72
418.93	243.60
419.30	244.49
419.67	245.44
420.04	246.35
420.42	247.32
420.79	248.49
421.16	249.61
421.54	250.83
421.91	252.05
422.28	253.25
422.66	254.60
423.03	255.86
423.40	257.18
423.77	258.60
424.15	260.02
424.52	261.50
424.89	263.10
425.26	264.64
425.64	266.09
426.01	267.67
426.38	269.28
426.75	270.97
427.13	272.69
427.50	274.51
427.87	276.40
428.24	278.26
428.61	280.05
428.99	281.97
429.36	284.07
429.73	286.21
430.10	288.27
430.47	290.34
430.85	292.46
431.22	294.71
431.59	297.08
431.96	299.34
432.33	301.86
432.70	304.26
433.08	307.06
433.45	309.70
433.82	312.34
434.19	315.22
434.56	318.03
434.93	320.67
435.30	323.30
435.68	326.23
436.05	329.10
436.42	331.88
436.79	334.46
437.16	337.16
437.53	339.97
437.90	342.72
438.27	345.43
438.64	348.29
439.01	350.89
439.38	353.16
439.75	355.31
440.13	357.78
440.50	360.10
440.87	361.93
441.24	363.89
441.61	366.06
441.98	367.62
442.35	369.45
442.72	371.34
443.09	373.18
443.46	374.18
443.83	374.78
444.20	375.31
444.57	376.14
444.94	376.44
445.31	376.76
445.68	377.16
446.05	377.24
446.42	376.86
446.79	376.46
447.16	376.03
447.53	375.73
447.90	374.60
448.27	373.44
448.64	371.88
449.01	370.72
449.37	368.71
449.74	366.78
450.11	364.51
450.48	362.01
450.85	359.42
451.22	357.23
451.59	355.18
451.96	353.24
452.33	350.62
452.70	348.24
453.07	345.41
453.43	342.52
453.80	339.76
454.17	337.04
454.54	334.51
454.91	331.71
455.28	329.04
455.65	326.53
456.02	324.03
456.38	321.88
456.75	319.25
457.12	317.02
457.49	314.80
457.86	312.64
458.23	310.79
458.59	308.73
458.96	306.62
459.33	304.76
459.70	302.86
460.07	301.33
460.43	299.59
460.80	297.94
461.17	296.50
461.54	295.02
461.91	293.61
462.27	292.14
462.64	290.91
463.01	289.51
463.38	288.18
463.74	286.85
464.11	285.67
464.48	284.65
464.85	283.51
465.21	282.60
465.58	281.66
465.95	280.55
466.32	279.67
466.68	278.79
467.05	277.87
467.42	276.96
467.78	276.04
468.15	275.16
468.52	274.51
468.88	273.61
469.25	272.82
469.62	272.18
469.98	271.54
470.35	270.88
470.72	270.29
471.08	269.65
471.45	269.11
471.82	268.57
472.18	267.93
472.55	267.51
472.92	266.99
473.28	266.51
473.65	266.08
474.02	265.60
474.38	265.23
474.75	264.92
475.11	264.60
475.48	264.32
475.85	264.10
476.21	263.84
476.58	263.68
476.94	263.52
477.31	263.37
477.67	263.20
478.04	263.09
478.41	263.06
478.77	263.06
479.14	263.00
479.50	263.00
479.87	263.04
480.23	263.08
480.60	263.13
480.96	263.21
481.33	263.36
481.69	263.55
482.06	263.73
482.42	263.92
482.79	264.20
483.15	264.49
483.52	264.85
483.88	265.20
484.25	265.58
484.61	266.01
484.98	266.47
485.34	267.03
485.71	267.61
486.07	268.20
486.44	268.79
486.80	269.53
487.17	270.28
487.53	271.12
487.90	271.97
488.26	272.93
488.62	273.95
488.99	274.95
489.35	276.04
489.72	277.15
490.08	278.36
490.44	279.60
490.81	280.98
491.17	282.33
491.54	283.83
491.90	285.33
492.26	286.97
492.63	288.69
492.99	290.43
493.36	292.32
493.72	294.39
494.08	296.48
494.45	298.67
494.81	300.99
495.17	303.46
495.54	306.03
495.90	308.72
496.26	311.50
496.63	314.47
496.99	317.55
497.35	320.79
497.72	324.17
498.08	327.68
498.44	331.31
498.80	335.23
499.17	339.27
499.53	343.48
499.89	347.88
500.26	352.35
500.62	357.05
500.98	362.05
501.34	367.10
501.71	372.40
502.07	377.88
502.43	383.50
502.79	389.29
503.16	395.32
503.52	401.58
503.88	407.98
504.24	414.60
504.60	421.48
504.97	428.62
505.33	435.89
505.69	443.57
506.05	451.36
506.41	459.22
506.78	467.43
507.14	475.88
507.50	484.57
507.86	493.64
508.22	502.85
508.59	512.05
508.95	521.60
509.31	531.43
509.67	541.54
510.03	551.80
510.39	562.35
510.75	573.14
511.12	584.11
511.48	595.37
511.84	606.84
512.20	618.33
512.56	630.24
512.92	642.54
513.28	654.87
513.64	667.30
514.00	679.97
514.37	692.87
514.73	705.84
515.09	718.83
515.45	732.09
515.81	745.70
516.17	759.67
516.53	773.75
516.89	787.98
517.25	802.15
517.61	816.63
517.97	831.07
518.33	845.63
518.69	860.39
519.05	875.37
519.41	890.59
519.77	906.23
520.13	921.77
520.49	937.08
520.85	952.51
521.21	968.34
521.57	984.70
521.93	1000.48
522.29	1017.01
522.65	1033.39
523.01	1049.68
523.37	1065.71
523.73	1081.99
524.09	1098.19
524.45	1114.49
524.81	1131.17
525.17	1148.13
525.53	1165.14
525.89	1182.00
526.25	1198.87
526.61	1215.32
526.97	1232.02
527.33	1248.49
527.68	1265.09
528.04	1281.75
528.40	1298.47
528.76	1315.60
529.12	1332.25
529.48	1349.13
529.84	1365.20
530.20	1381.86
530.56	1399.00
530.91	1416.46
531.27	1433.21
531.63	1449.68
531.99	1466.43
532.35	1482.46
532.71	1498.35
533.07	1514.59
533.42	1530.48
533.78	1546.61
534.14	1563.00
534.50	1578.41
534.86	1594.41
535.21	1609.76
535.57	1625.76
535.93	1641.34
536.29	1656.20
536.65	1671.50
537.00	1686.49
537.36	1701.83
537.72	1716.50
538.08	1730.85
538.44	1744.71
538.79	1758.65
539.15	1772.59
539.51	1786.47
539.87	1800.91
540.22	1814.65
540.58	1828.64
540.94	1842.12
541.29	1855.09
541.65	1867.90
542.01	1881.32
542.37	1893.49
542.72	1906.07
543.08	1917.80
543.44	1930.26
543.79	1941.55
544.15	1952.40
544.51	1963.97
544.87	1975.00
545.22	1985.82
545.58	1996.18
545.94	2005.97
546.29	2015.97
546.65	2025.75
547.01	2034.96
547.36	2043.70
547.72	2052.29
548.07	2060.02
548.43	2068.34
548.79	2076.45
549.14	2083.97
549.50	2091.27
549.86	2099.25
550.21	2106.46
550.57	2113.70
550.92	2120.14
551.28	2127.20
551.64	2134.36
551.99	2141.01
552.35	2147.26
552.70	2153.29
553.06	2159.21
553.41	2165.71
553.77	2171.75
554.13	2177.69
554.48	2183.75
554.84	2189.16
555.19	2194.55
555.55	2199.70
555.90	2203.99
556.26	2208.73
556.61	2213.38
556.97	2217.63
557.32	2221.75
557.68	2225.94
558.03	2230.35
558.39	2234.33
558.74	2239.04
559.10	2242.74
559.45	2246.23
559.81	2250.48
560.16	2254.22
560.52	2257.53
560.87	2260.82
561.23	2263.39
561.58	2266.37
561.94	2268.86
562.29	2271.19
562.64	2273.81
563.00	2276.40
563.35	2280.07
563.71	2283.22
564.06	2286.58
564.42	2289.38
564.77	2291.84
565.12	2294.00
565.48	2295.70
565.83	2297.28
566.19	2298.50
566.54	2299.66
566.89	2300.74
567.25	2301.19
567.60	2302.61
567.96	2304.09
568.31	2304.97
568.66	2305.96
569.02	2306.53
569.37	2306.74
569.72	2307.56
570.08	2307.49
570.43	2307.49
570.78	2306.58
571.14	2305.02
571.49	2303.56
571.84	2303.12
572.20	2301.79
572.55	2300.69
572.90	2299.16
573.26	2297.72
573.61	2295.89
573.96	2293.82
574.31	2290.86
574.67	2287.83
575.02	2284.00
575.37	2280.65
575.72	2276.70
576.08	2273.33
576.43	2270.10
576.78	2266.43
577.13	2263.28
577.49	2260.07
577.84	2256.43
578.19	2252.64
578.54	2248.74
578.90	2244.25
579.25	2238.64
579.60	2233.49
579.95	2228.28
580.30	2223.08
580.66	2217.95
581.01	2213.00
581.36	2208.08
581.71	2203.74
582.06	2199.07
582.42	2194.56
582.77	2189.00
583.12	2184.26
583.47	2179.37
583.82	2174.03
584.17	2168.72
584.53	2162.94
584.88	2157.24
585.23	2151.41
585.58	2145.92
585.93	2140.41
586.28	2135.69
586.63	2130.47
586.98	2125.46
587.34	2120.92
587.69	2115.99
588.04	2110.61
588.39	2104.67
588.74	2097.93
589.09	2091.68
589.44	2084.89
589.79	2078.85
590.14	2073.38
590.49	2066.79
590.84	2060.31
591.19	2054.25
591.54	2047.60
591.89	2040.02
592.25	2033.14
592.60	2025.87
592.95	2018.00
593.30	2010.69
593.65	2002.84
594.00	1995.77
594.35	1988.30
594.70	1980.06
595.05	1972.76
595.40	1965.33
595.75	1957.73
596.10	1951.51
596.45	1944.49
596.80	1938.28
597.15	1931.50
597.50	1924.28
597.85	1917.86
598.19	1911.24
598.54	1904.04
598.89	1897.43
599.24	1891.64
599.59	1884.82
599.94	1878.56
600.29	1872.35
600.64	1865.71
600.99	1858.36
601.34	1851.41
601.69	1844.48
602.04	1837.41
602.39	1829.93
602.74	1823.05
603.08	1816.44
603.43	1809.73
603.78	1802.56
604.13	1795.26
604.48	1787.95
604.83	1781.03
605.18	1773.81
605.53	1765.74
605.87	1757.72
606.22	1750.46
606.57	1742.48
606.92	1735.29
607.27	1728.03
607.62	1721.07
607.96	1713.76
608.31	1707.08
608.66	1699.46
609.01	1691.88
609.36	1684.37
609.70	1676.34
610.05	1668.18
610.40	1660.36
610.75	1651.95
611.10	1644.29
611.44	1636.01
611.79	1628.05
612.14	1619.33
612.49	1610.28
612.83	1601.96
613.18	1593.83
613.53	1585.65
613.88	1577.09
614.22	1568.62
614.57	1560.07
614.92	1551.97
615.27	1544.31
615.61	1535.86
615.96	1527.90
616.31	1520.32
616.65	1512.94
617.00	1505.43
617.35	1497.83
617.70	1489.46
618.04	1480.97
618.39	1472.68
618.74	1464.99
619.08	1456.59
619.43	1449.06
619.78	1442.06
620.12	1434.82
620.47	1427.36
620.82	1419.31
621.16	1412.04
621.51	1404.57
621.85	1396.99
622.20	1388.61
622.55	1380.34
622.89	1372.71
623.24	1365.25
623.59	1357.93
623.93	1350.40
624.28	1343.15
624.62	1335.65
624.97	1328.61
625.32	1322.00
625.66	1315.03
626.01	1307.91
626.35	1300.53
626.70	1292.73
627.04	1285.08
627.39	1277.33
627.73	1269.92
628.08	1262.95
628.43	1255.43
628.77	1247.96
629.12	1240.32
629.46	1233.11
629.81	1225.76
630.15	1218.41
630.50	1210.95
630.84	1202.74
631.19	1194.81
631.53	1187.34
631.88	1179.82
632.22	1172.04
632.57	1164.67
632.91	1157.17
633.26	1149.74
633.60	1142.37
633.95	1135.43
634.29	1128.43
634.64	1121.76
634.98	1114.45
635.32	1107.36
635.67	1100.95
636.01	1094.45
636.36	1087.72
636.70	1081.23
637.05	1074.60
637.39	1068.16
637.73	1061.59
638.08	1055.69
638.42	1049.81
638.77	1043.23
639.11	1036.69
639.45	1030.39
639.80	1023.75
640.14	1017.35
640.49	1010.75
640.83	1004.54
641.17	998.22
641.52	991.94
641.86	985.56
642.20	979.75
642.55	973.44
642.89	966.95
643.23	960.43
643.58	954.69
643.92	948.49
644.26	942.44
644.61	936.51
644.95	930.53
645.29	923.94
645.64	917.14
645.98	911.03
646.32	905.11
646.66	899.05
647.01	893.21
647.35	887.53
647.69	881.75
648.04	876.25
648.38	870.51
648.72	864.37
649.06	858.23
649.41	852.37
649.75	846.31
650.09	840.36
650.43	834.56
650.78	828.32
651.12	822.40
651.46	816.69
651.80	810.83
652.14	805.45
652.49	800.12
652.83	794.95
653.17	789.11
653.51	783.39
653.85	778.10
654.20	772.44
654.54	766.38
654.88	760.70
655.22	754.81
655.56	749.10
655.90	743.70
656.25	738.48
656.59	733.07
656.93	728.05
657.27	722.87
657.61	717.39
657.95	712.41
658.29	707.30
658.64	702.10
658.98	696.88
659.32	691.42
659.66	686.17
660.00	680.87
660.34	676.00
660.68	671.15
661.02	666.09
661.36	661.43
661.70	656.92
662.05	652.51
662.39	648.13
662.73	643.70
663.07	639.39
663.41	634.92
663.75	630.45
664.09	625.88
664.43	621.58
664.77	617.50
665.11	613.28
665.45	609.24
665.79	605.18
666.13	601.04
666.47	596.97
666.81	592.87
667.15	588.80
667.49	584.97
667.83	581.16
668.17	577.23
668.51	573.19
668.85	569.21
669.19	565.46
669.53	561.66
669.87	557.78
670.21	554.11
670.55	550.55
670.89	547.13
671.23	543.77
671.57	540.22
671.91	536.72
672.25	533.24
672.58	529.69
672.92	526.30
673.26	523.16
673.60	520.01
673.94	516.94
674.28	514.05
674.62	511.09
674.96	508.00
675.30	505.13
675.64	502.22
675.97	499.53
676.31	496.63
676.65	493.73
676.99	491.07
677.33	488.21
677.67	485.42
678.01	482.38
678.34	479.35
678.68	476.52
679.02	473.71
679.36	470.99
679.70	468.29
680.04	465.50
680.37	462.63
680.71	459.90
681.05	457.24
681.39	454.53
681.73	451.91
682.06	449.41
682.40	446.83
682.74	444.30
683.08	441.75
683.42	439.16
683.75	436.66
684.09	434.12
684.43	431.67
684.77	429.25
685.10	426.97
685.44	424.72
685.78	422.43
686.12	420.24
686.45	417.92
686.79	415.68
687.13	413.58
687.46	411.44
687.80	409.30
688.14	407.12
688.48	405.05
688.81	402.78
689.15	400.63
689.49	398.57
689.82	396.48
690.16	394.40
690.50	392.46
690.83	390.53
691.17	388.56
691.51	386.68
691.84	384.83
692.18	382.88
692.52	380.92
692.85	379.03
693.19	377.14
693.52	375.33
693.86	373.49
694.20	371.62
694.53	369.80
694.87	367.91
695.21	366.13
695.54	364.27
695.88	362.56
696.21	360.88
696.55	359.14
696.88	357.49
697.22	355.82
697.56	354.16
697.89	352.50
698.23	350.90
698.56	349.28
698.90	347.70
699.23	346.03
699.57	344.45
699.90	342.87
700.24	341.29
700.58	339.71
700.91	338.19
701.25	336.77
701.58	335.44
701.92	334.09
702.25	332.71
702.59	331.39
702.92	330.08
703.26	328.73
703.59	327.45
703.93	326.27
704.26	325.09
704.60	323.82
704.93	322.56
705.26	321.29
705.60	320.10
705.93	318.90
706.27	317.89
706.60	316.84
706.94	315.80
707.27	314.70
707.61	313.69
707.94	312.65
708.27	311.56
708.61	310.49
708.94	309.50
709.28	308.57
709.61	307.64
709.94	306.70
710.28	305.69
710.61	304.78
710.95	303.71
711.28	302.74
711.61	301.81
711.95	300.86
712.28	299.94
712.61	298.97
712.95	298.05
713.28	297.16
713.61	296.26
713.95	295.36
714.28	294.53
714.61	293.64
714.95	292.84
715.28	291.99
715.61	291.09
715.95	290.26
716.28	289.37
716.61	288.51
716.95	287.69
717.28	287.00
717.61	286.18
717.94	285.45
718.28	284.70
718.61	283.96
718.94	283.33
719.27	282.67
719.61	282.06
719.94	281.40
720.27	280.70
720.60	280.06
720.94	279.43
721.27	278.87
721.60	278.37
721.93	277.78
722.27	277.26
722.60	276.73
722.93	276.15
723.26	275.66
723.59	275.14
723.93	274.60
724.26	274.04
724.59	273.52
724.92	273.01
725.25	272.48
725.59	272.05
725.92	271.52
726.25	271.03
726.58	270.55
726.91	270.06
727.24	269.59
727.57	269.13
727.91	268.61
728.24	268.14
728.57	267.60
728.90	267.14
729.23	266.66
729.56	266.26
729.89	265.78
730.22	265.28
730.55	264.83
730.89	264.37
731.22	263.92
731.55	263.46
731.88	263.02
732.21	262.61
732.54	262.12
732.87	261.68
733.20	261.27
733.53	260.85
733.86	260.48
734.19	260.10
734.52	259.70
734.85	259.41
735.18	258.97
735.51	258.61
735.84	258.23
736.17	257.85
736.50	257.43
736.83	257.18
737.16	256.82
737.49	256.48
737.82	256.10
738.15	255.75
738.48	255.42
738.81	255.09
739.14	254.75
739.47	254.42
739.80	254.14
740.13	253.81
740.46	253.46
740.79	253.12
741.12	252.80
741.45	252.50
741.78	252.14
742.11	251.86
742.44	251.51
742.77	251.24
743.10	250.95
743.43	250.65
743.75	250.27
744.08	250.14
744.41	249.84
744.74	249.56
745.07	249.28
745.40	249.05
745.73	248.83
746.06	248.54
746.39	248.29
746.71	248.00
747.04	247.74
747.37	247.45
747.70	247.20
748.03	246.92
748.36	246.69
748.68	246.45
749.01	246.19
749.34	245.95
749.67	245.72
750.00	245.48
750.33	245.33
750.65	245.13
750.98	244.79
751.31	244.60
751.64	244.41
751.97	244.29
752.29	244.07
752.62	243.82
752.95	243.61
753.28	243.43
753.60	243.24
753.93	243.06
754.26	242.90
754.59	242.70
754.91	242.48
755.24	242.29
755.57	242.13
755.90	241.98
756.22	241.84
756.55	241.64
756.88	241.48
757.20	241.26
757.53	241.07
757.86	240.94
758.19	240.82
758.51	240.63
758.84	240.42
759.17	240.26
759.49	240.08
759.82	239.96
760.15	239.79
760.47	239.66
760.80	239.53
761.13	239.42
761.45	239.30
761.78	239.20
762.11	239.07
762.43	238.90
762.76	238.74
763.08	238.58
763.41	238.43
763.74	238.28
764.06	238.11
764.39	237.98
764.71	237.84
765.04	237.66
765.37	237.55
765.69	237.42
766.02	237.31
766.34	237.19
766.67	237.06
767.00	236.96
767.32	236.90
767.65	236.84
767.97	236.71
768.30	236.58
768.62	236.45
768.95	236.33
769.27	236.23
769.60	236.14
769.92	236.03
770.25	235.95
770.57	235.83
770.90	235.74
771.22	235.64
771.55	235.53
771.87	235.46
772.20	235.37
772.52	235.32
772.85	235.31
773.17	235.21
773.50	235.11
773.82	234.98
774.15	234.83
774.47	234.66
774.80	234.55
775.12	234.45
775.45	234.37
775.77	234.29
776.09	234.18
776.42	234.09
776.74	234.05
777.07	233.94
777.39	233.85
777.72	233.78
778.04	233.74
778.36	233.65
778.69	233.56
779.01	233.48
779.33	233.32
779.66	233.11
779.98	233.03
780.31	232.95
780.63	232.92
780.95	232.85
781.28	232.78
781.60	232.74
781.92	232.69
782.25	232.62
782.57	232.55
782.89	232.47
783.22	232.42
783.54	232.34
783.86	232.29
784.19	232.28
784.51	232.25
784.83	232.15
785.16	232.09
785.48	232.03
785.80	231.97
786.12	231.95
786.45	231.91
786.77	231.88
787.09	231.82
