SpectraSuite Data File
++++++++++++++++++++++++++++++++++++
Date: Fri Feb 01 16:08:27 EST 2013
User: group
Dark Spectrum Present: No
Reference Spectrum Present: No
Number of Sampled Component Spectra: 1
Spectrometers: USB2E7196
Integration Time (usec): 35000 (USB2E7196)
Spectra Averaged: 100 (USB2E7196)
Boxcar Smoothing: 10 (USB2E7196)
Correct for Electrical Dark: No (USB2E7196)
Strobe/Lamp Enabled: No (USB2E7196)
Correct for Detector Non-linearity: No (USB2E7196)
Correct for Stray Light: No (USB2E7196)
Number of Pixels in Processed Spectrum: 2048
>>>>>Begin Processed Spectral Data<<<<<
339.09	0.00
339.48	214.24
339.86	216.29
340.24	217.60
340.63	219.26
341.01	221.74
341.39	221.80
341.78	223.02
342.16	223.84
342.54	224.58
342.93	213.01
343.31	223.77
343.69	224.33
344.07	224.76
344.46	225.16
344.84	225.54
345.22	225.79
345.60	226.02
345.99	226.18
346.37	226.33
346.75	226.44
347.13	226.48
347.52	226.55
347.90	226.65
348.28	226.69
348.66	226.71
349.05	226.68
349.43	226.73
349.81	226.77
350.19	226.81
350.57	226.85
350.96	226.88
351.34	226.95
351.72	227.03
352.10	227.15
352.48	227.24
352.87	227.25
353.25	227.30
353.63	227.34
354.01	227.40
354.39	227.47
354.77	227.52
355.15	227.62
355.54	227.67
355.92	227.68
356.30	227.71
356.68	227.82
357.06	227.89
357.44	227.94
357.82	228.00
358.20	228.07
358.58	228.12
358.97	228.16
359.35	228.23
359.73	228.33
360.11	228.38
360.49	228.39
360.87	228.48
361.25	228.53
361.63	228.62
362.01	228.69
362.39	228.72
362.77	228.78
363.15	228.80
363.53	228.85
363.91	228.88
364.29	228.92
364.67	228.86
365.05	228.88
365.43	228.90
365.81	228.92
366.19	228.96
366.57	228.98
366.95	228.98
367.33	228.95
367.71	228.91
368.09	228.92
368.47	228.93
368.85	228.88
369.23	228.89
369.61	228.85
369.99	228.85
370.37	228.82
370.75	228.82
371.13	228.75
371.51	228.71
371.89	228.71
372.27	228.66
372.65	228.63
373.03	228.60
373.41	228.53
373.78	228.51
374.16	228.43
374.54	228.40
374.92	228.34
375.30	228.32
375.68	228.24
376.06	228.19
376.44	228.13
376.82	228.09
377.19	228.03
377.57	227.93
377.95	227.82
378.33	227.76
378.71	227.64
379.09	227.60
379.47	227.52
379.84	227.43
380.22	227.37
380.60	227.33
380.98	227.27
381.36	227.21
381.73	227.13
382.11	227.07
382.49	227.02
382.87	226.99
383.25	226.92
383.62	226.97
384.00	226.89
384.38	226.84
384.76	226.79
385.13	226.78
385.51	226.75
385.89	226.74
386.27	226.68
386.64	226.66
387.02	226.64
387.40	226.59
387.78	226.56
388.15	226.52
388.53	226.48
388.91	226.43
389.29	226.39
389.66	226.39
390.04	226.36
390.42	226.35
390.79	226.35
391.17	226.30
391.55	226.18
391.92	226.14
392.30	226.16
392.68	226.16
393.05	226.15
393.43	226.18
393.81	226.14
394.18	226.15
394.56	226.15
394.94	226.18
395.31	226.19
395.69	226.23
396.06	226.25
396.44	226.27
396.82	226.31
397.19	226.39
397.57	226.40
397.95	226.47
398.32	226.48
398.70	226.53
399.07	226.62
399.45	226.66
399.82	226.74
400.20	226.77
400.58	226.82
400.95	226.82
401.33	226.86
401.70	227.02
402.08	227.10
402.45	227.18
402.83	227.29
403.20	227.42
403.58	227.53
403.95	227.66
404.33	227.78
404.71	227.89
405.08	228.08
405.46	228.20
405.83	228.32
406.21	228.46
406.58	228.59
406.96	228.74
407.33	228.92
407.70	229.11
408.08	229.37
408.45	229.60
408.83	229.84
409.20	230.08
409.58	230.26
409.95	230.52
410.33	230.78
410.70	231.02
411.08	231.32
411.45	231.64
411.82	231.93
412.20	232.26
412.57	232.67
412.95	232.94
413.32	233.35
413.69	233.76
414.07	234.19
414.44	234.69
414.82	235.17
415.19	235.71
415.56	236.25
415.94	236.78
416.31	237.43
416.68	238.05
417.06	238.79
417.43	239.47
417.81	240.26
418.18	241.03
418.55	241.88
418.93	242.71
419.30	243.58
419.67	244.53
420.04	245.52
420.42	246.51
420.79	247.69
421.16	248.82
421.54	250.01
421.91	251.27
422.28	252.49
422.66	253.88
423.03	255.22
423.40	256.55
423.77	257.96
424.15	259.37
424.52	260.85
424.89	262.39
425.26	263.95
425.64	265.39
426.01	267.00
426.38	268.61
426.75	270.29
427.13	272.02
427.50	273.83
427.87	275.71
428.24	277.57
428.61	279.32
428.99	281.28
429.36	283.38
429.73	285.42
430.10	287.45
430.47	289.48
430.85	291.56
431.22	293.79
431.59	296.14
431.96	298.37
432.33	300.85
432.70	303.25
433.08	306.04
433.45	308.70
433.82	311.31
434.19	314.21
434.56	317.01
434.93	319.65
435.30	322.25
435.68	325.12
436.05	327.95
436.42	330.73
436.79	333.23
437.16	335.89
437.53	338.71
437.90	341.50
438.27	344.19
438.64	347.01
439.01	349.59
439.38	351.84
439.75	354.02
440.13	356.55
440.50	358.86
440.87	360.73
441.24	362.66
441.61	364.81
441.98	366.29
442.35	368.10
442.72	369.99
443.09	371.75
443.46	372.72
443.83	373.30
444.20	373.80
444.57	374.62
444.94	374.95
445.31	375.25
445.68	375.60
446.05	375.72
446.42	375.33
446.79	374.92
447.16	374.49
447.53	374.16
447.90	372.94
448.27	371.79
448.64	370.20
449.01	369.05
449.37	367.07
449.74	365.19
450.11	362.96
450.48	360.42
450.85	357.94
451.22	355.84
451.59	353.82
451.96	351.90
452.33	349.31
452.70	346.91
453.07	344.10
453.43	341.18
453.80	338.37
454.17	335.74
454.54	333.18
454.91	330.47
455.28	327.80
455.65	325.36
456.02	322.97
456.38	320.79
456.75	318.10
457.12	315.87
457.49	313.63
457.86	311.43
458.23	309.61
458.59	307.56
458.96	305.46
459.33	303.63
459.70	301.77
460.07	300.28
460.43	298.59
460.80	296.97
461.17	295.55
461.54	294.08
461.91	292.66
462.27	291.21
462.64	289.93
463.01	288.58
463.38	287.26
463.74	285.86
464.11	284.76
464.48	283.74
464.85	282.65
465.21	281.80
465.58	280.91
465.95	279.83
466.32	278.95
466.68	278.05
467.05	277.13
467.42	276.25
467.78	275.32
468.15	274.43
468.52	273.81
468.88	272.96
469.25	272.19
469.62	271.55
469.98	270.85
470.35	270.23
470.72	269.63
471.08	268.97
471.45	268.45
471.82	267.88
472.18	267.28
472.55	266.82
472.92	266.28
473.28	265.80
473.65	265.35
474.02	264.90
474.38	264.56
474.75	264.24
475.11	263.89
475.48	263.66
475.85	263.44
476.21	263.17
476.58	263.00
476.94	262.89
477.31	262.72
477.67	262.64
478.04	262.57
478.41	262.52
478.77	262.60
479.14	262.54
479.50	262.53
479.87	262.64
480.23	262.72
480.60	262.82
480.96	262.91
481.33	263.16
481.69	263.38
482.06	263.59
482.42	263.83
482.79	264.05
483.15	264.34
483.52	264.73
483.88	265.08
484.25	265.50
484.61	265.92
484.98	266.38
485.34	266.97
485.71	267.53
486.07	268.15
486.44	268.72
486.80	269.42
487.17	270.15
487.53	270.95
487.90	271.77
488.26	272.72
488.62	273.74
488.99	274.67
489.35	275.71
489.72	276.84
490.08	278.05
490.44	279.29
490.81	280.60
491.17	281.97
491.54	283.48
491.90	285.02
492.26	286.67
492.63	288.43
492.99	290.18
493.36	292.14
493.72	294.18
494.08	296.29
494.45	298.55
494.81	300.94
495.17	303.37
495.54	305.99
495.90	308.68
496.26	311.43
496.63	314.44
496.99	317.56
497.35	320.79
497.72	324.21
498.08	327.78
498.44	331.48
498.80	335.43
499.17	339.45
499.53	343.64
499.89	347.99
500.26	352.48
500.62	357.19
500.98	362.09
501.34	367.16
501.71	372.50
502.07	377.91
502.43	383.51
502.79	389.37
503.16	395.45
503.52	401.76
503.88	408.23
504.24	414.84
504.60	421.72
504.97	428.84
505.33	436.12
505.69	443.88
506.05	451.66
506.41	459.54
506.78	467.72
507.14	476.16
507.50	484.88
507.86	493.91
508.22	503.06
508.59	512.28
508.95	521.81
509.31	531.63
509.67	541.74
510.03	552.03
510.39	562.57
510.75	573.36
511.12	584.26
511.48	595.58
511.84	607.09
512.20	618.57
512.56	630.51
512.92	642.76
513.28	655.07
513.64	667.56
514.00	680.27
514.37	693.21
514.73	706.23
515.09	719.27
515.45	732.65
515.81	746.21
516.17	760.17
516.53	774.35
516.89	788.45
517.25	802.60
517.61	816.99
517.97	831.45
518.33	845.92
518.69	860.61
519.05	875.60
519.41	890.64
519.77	906.23
520.13	921.66
520.49	937.02
520.85	952.37
521.21	968.05
521.57	984.18
521.93	999.89
522.29	1016.25
522.65	1032.46
523.01	1048.54
523.37	1064.59
523.73	1080.74
524.09	1096.81
524.45	1113.14
524.81	1129.72
525.17	1146.56
525.53	1163.33
525.89	1180.08
526.25	1196.76
526.61	1213.14
526.97	1229.95
527.33	1246.41
527.68	1262.91
528.04	1279.35
528.40	1295.83
528.76	1312.75
529.12	1329.32
529.48	1346.06
529.84	1361.96
530.20	1378.53
530.56	1395.34
530.91	1412.67
531.27	1429.37
531.63	1445.82
531.99	1462.29
532.35	1478.32
532.71	1494.07
533.07	1510.27
533.42	1526.08
533.78	1542.25
534.14	1558.33
534.50	1573.53
534.86	1589.29
535.21	1604.63
535.57	1620.41
535.93	1636.05
536.29	1650.95
536.65	1665.90
537.00	1680.62
537.36	1695.89
537.72	1710.26
538.08	1724.59
538.44	1738.38
538.79	1752.16
539.15	1765.60
539.51	1779.34
539.87	1793.55
540.22	1807.21
540.58	1820.90
540.94	1834.16
541.29	1846.89
541.65	1859.54
542.01	1872.70
542.37	1884.94
542.72	1897.23
543.08	1909.00
543.44	1921.22
543.79	1932.20
544.15	1943.20
544.51	1954.76
544.87	1965.82
545.22	1976.63
545.58	1987.00
545.94	1996.61
546.29	2006.49
546.65	2016.47
547.01	2025.67
547.36	2034.42
547.72	2042.90
548.07	2050.90
548.43	2059.02
548.79	2066.95
549.14	2074.46
549.50	2081.77
549.86	2089.37
550.21	2096.53
550.57	2103.62
550.92	2110.17
551.28	2117.34
551.64	2124.37
551.99	2130.90
552.35	2136.93
552.70	2143.15
553.06	2149.04
553.41	2155.47
553.77	2161.38
554.13	2167.38
554.48	2173.51
554.84	2178.87
555.19	2184.07
555.55	2189.10
555.90	2193.52
556.26	2198.55
556.61	2203.23
556.97	2207.48
557.32	2211.52
557.68	2215.69
558.03	2219.94
558.39	2223.51
558.74	2228.06
559.10	2231.92
559.45	2235.45
559.81	2239.79
560.16	2243.57
560.52	2246.88
560.87	2250.24
561.23	2252.95
561.58	2255.86
561.94	2258.50
562.29	2260.69
562.64	2263.52
563.00	2266.20
563.35	2269.89
563.71	2272.96
564.06	2276.17
564.42	2279.02
564.77	2281.71
565.12	2283.99
565.48	2285.76
565.83	2287.70
566.19	2289.09
566.54	2290.02
566.89	2291.26
567.25	2291.84
567.60	2293.11
567.96	2294.83
568.31	2295.63
568.66	2296.89
569.02	2297.46
569.37	2297.68
569.72	2298.74
570.08	2298.94
570.43	2298.87
570.78	2298.20
571.14	2296.66
571.49	2295.42
571.84	2295.19
572.20	2294.00
572.55	2293.02
572.90	2291.57
573.26	2290.26
573.61	2288.47
573.96	2286.75
574.31	2283.77
574.67	2280.77
575.02	2277.28
575.37	2273.91
575.72	2270.39
576.08	2266.97
576.43	2263.56
576.78	2259.86
577.13	2256.62
577.49	2253.47
577.84	2249.97
578.19	2246.37
578.54	2242.81
578.90	2238.50
579.25	2232.86
579.60	2227.94
579.95	2222.96
580.30	2218.02
580.66	2212.85
581.01	2208.08
581.36	2203.11
581.71	2199.07
582.06	2194.79
582.42	2190.35
582.77	2185.08
583.12	2180.32
583.47	2175.71
583.82	2170.97
584.17	2165.77
584.53	2160.26
584.88	2154.64
585.23	2148.93
585.58	2143.32
585.93	2137.84
586.28	2133.20
586.63	2128.23
586.98	2123.36
587.34	2118.61
587.69	2113.74
588.04	2108.77
588.39	2102.96
588.74	2096.55
589.09	2090.51
589.44	2083.63
589.79	2077.45
590.14	2071.86
590.49	2065.28
590.84	2058.86
591.19	2052.83
591.54	2046.53
591.89	2039.23
592.25	2032.44
592.60	2025.27
592.95	2017.86
593.30	2010.72
593.65	2003.00
594.00	1995.99
594.35	1988.50
594.70	1980.52
595.05	1973.49
595.40	1965.99
595.75	1958.62
596.10	1952.55
596.45	1945.78
596.80	1939.66
597.15	1933.22
597.50	1926.18
597.85	1919.97
598.19	1913.38
598.54	1906.21
598.89	1899.48
599.24	1893.76
599.59	1887.21
599.94	1881.04
600.29	1874.69
600.64	1867.98
600.99	1860.70
601.34	1853.94
601.69	1847.10
602.04	1840.33
602.39	1832.89
602.74	1826.18
603.08	1819.45
603.43	1812.70
603.78	1805.43
604.13	1798.22
604.48	1790.87
604.83	1784.04
605.18	1777.09
605.53	1768.98
605.87	1761.02
606.22	1753.68
606.57	1745.58
606.92	1738.21
607.27	1731.01
607.62	1724.21
607.96	1717.00
608.31	1710.51
608.66	1702.90
609.01	1695.49
609.36	1687.85
609.70	1679.84
610.05	1671.76
610.40	1664.11
610.75	1655.81
611.10	1648.10
611.44	1639.67
611.79	1631.64
612.14	1622.93
612.49	1613.63
612.83	1605.41
613.18	1597.25
613.53	1589.24
613.88	1580.67
614.22	1572.34
614.57	1563.79
614.92	1555.62
615.27	1548.09
615.61	1539.58
615.96	1531.52
616.31	1523.71
616.65	1516.36
617.00	1508.83
617.35	1501.13
617.70	1492.80
618.04	1484.32
618.39	1476.10
618.74	1468.53
619.08	1460.27
619.43	1452.77
619.78	1445.81
620.12	1438.63
620.47	1431.23
620.82	1423.10
621.16	1415.79
621.51	1408.16
621.85	1400.58
622.20	1392.10
622.55	1383.70
622.89	1375.90
623.24	1368.32
623.59	1360.96
623.93	1353.45
624.28	1346.22
624.62	1338.76
624.97	1331.49
625.32	1324.68
625.66	1317.58
626.01	1310.40
626.35	1302.94
626.70	1295.10
627.04	1287.43
627.39	1279.52
627.73	1272.03
628.08	1265.02
628.43	1257.84
628.77	1250.49
629.12	1242.94
629.46	1235.87
629.81	1228.46
630.15	1221.22
630.50	1213.81
630.84	1205.67
631.19	1197.65
631.53	1190.05
631.88	1182.43
632.22	1174.87
632.57	1167.46
632.91	1160.02
633.26	1152.64
633.60	1145.30
633.95	1138.21
634.29	1131.12
634.64	1124.51
634.98	1117.13
635.32	1110.01
635.67	1103.32
636.01	1096.70
636.36	1089.84
636.70	1083.18
637.05	1076.62
637.39	1070.10
637.73	1063.55
638.08	1057.58
638.42	1051.62
638.77	1045.25
639.11	1038.70
639.45	1032.25
639.80	1025.62
640.14	1019.16
640.49	1012.68
640.83	1006.41
641.17	1000.19
641.52	993.84
641.86	987.38
642.20	981.56
642.55	975.34
642.89	968.92
643.23	962.34
643.58	956.58
643.92	950.43
644.26	944.43
644.61	938.39
644.95	932.40
645.29	925.88
645.64	919.18
645.98	912.86
646.32	906.91
646.66	900.93
647.01	895.23
647.35	889.54
647.69	883.57
648.04	878.01
648.38	872.23
648.72	866.30
649.06	860.21
649.41	854.29
649.75	848.30
650.09	842.30
650.43	836.55
650.78	830.46
651.12	824.49
651.46	818.66
651.80	812.98
652.14	807.54
652.49	802.15
652.83	797.02
653.17	791.30
653.51	785.68
653.85	780.25
654.20	774.55
654.54	768.53
654.88	762.83
655.22	756.93
655.56	751.16
655.90	745.64
656.25	740.46
656.59	735.10
656.93	730.07
657.27	724.92
657.61	719.57
657.95	714.39
658.29	709.28
658.64	704.06
658.98	698.73
659.32	693.30
659.66	688.15
660.00	682.80
660.34	677.83
660.68	672.92
661.02	667.91
661.36	663.25
661.70	658.74
662.05	654.34
662.39	650.03
662.73	645.65
663.07	641.34
663.41	636.85
663.75	632.36
664.09	627.71
664.43	623.27
664.77	619.09
665.11	614.83
665.45	610.80
665.79	606.71
666.13	602.62
666.47	598.52
666.81	594.35
667.15	590.23
667.49	586.28
667.83	582.44
668.17	578.55
668.51	574.44
668.85	570.43
669.19	566.57
669.53	562.72
669.87	558.80
670.21	555.14
670.55	551.49
670.89	548.07
671.23	544.64
671.57	541.13
671.91	537.57
672.25	534.05
672.58	530.48
672.92	527.07
673.26	523.86
673.60	520.69
673.94	517.56
674.28	514.68
674.62	511.81
674.96	508.65
675.30	505.73
675.64	502.79
675.97	500.01
676.31	497.19
676.65	494.24
676.99	491.53
677.33	488.57
677.67	485.75
678.01	482.74
678.34	479.79
678.68	476.94
679.02	474.16
679.36	471.42
679.70	468.68
680.04	465.90
680.37	463.01
680.71	460.22
681.05	457.62
681.39	454.85
681.73	452.12
682.06	449.56
682.40	447.02
682.74	444.45
683.08	441.89
683.42	439.28
683.75	436.80
684.09	434.29
684.43	431.82
684.77	429.31
685.10	426.96
685.44	424.59
685.78	422.32
686.12	420.04
686.45	417.74
686.79	415.44
687.13	413.28
687.46	411.16
687.80	409.04
688.14	406.80
688.48	404.76
688.81	402.62
689.15	400.50
689.49	398.33
689.82	396.31
690.16	394.25
690.50	392.27
690.83	390.36
691.17	388.34
691.51	386.49
691.84	384.72
692.18	382.78
692.52	380.85
692.85	378.91
693.19	377.05
693.52	375.20
693.86	373.38
694.20	371.60
694.53	369.79
694.87	367.93
695.21	366.16
695.54	364.29
695.88	362.59
696.21	360.92
696.55	359.20
696.88	357.52
697.22	355.86
697.56	354.30
697.89	352.62
698.23	351.05
698.56	349.45
698.90	347.84
699.23	346.22
699.57	344.65
699.90	343.12
700.24	341.56
700.58	340.05
700.91	338.54
701.25	337.07
701.58	335.70
701.92	334.31
702.25	332.92
702.59	331.63
702.92	330.30
703.26	328.97
703.59	327.72
703.93	326.52
704.26	325.28
704.60	323.96
704.93	322.67
705.26	321.41
705.60	320.21
705.93	319.02
706.27	317.97
706.60	316.95
706.94	315.85
707.27	314.74
707.61	313.68
707.94	312.65
708.27	311.57
708.61	310.49
708.94	309.48
709.28	308.49
709.61	307.48
709.94	306.49
710.28	305.47
710.61	304.49
710.95	303.41
711.28	302.49
711.61	301.53
711.95	300.64
712.28	299.68
712.61	298.67
712.95	297.75
713.28	296.85
713.61	295.94
713.95	295.10
714.28	294.22
714.61	293.32
714.95	292.50
715.28	291.63
715.61	290.76
715.95	289.90
716.28	289.00
716.61	288.15
716.95	287.31
717.28	286.54
717.61	285.79
717.94	285.05
718.28	284.26
718.61	283.53
718.94	282.80
719.27	282.16
719.61	281.57
719.94	280.90
720.27	280.19
720.60	279.51
720.94	278.86
721.27	278.30
721.60	277.78
721.93	277.20
722.27	276.69
722.60	276.15
722.93	275.58
723.26	275.05
723.59	274.51
723.93	273.97
724.26	273.44
724.59	272.85
724.92	272.29
725.25	271.74
725.59	271.23
725.92	270.75
726.25	270.20
726.58	269.67
726.91	269.18
727.24	268.71
727.57	268.27
727.91	267.73
728.24	267.26
728.57	266.71
728.90	266.24
729.23	265.71
729.56	265.27
729.89	264.81
730.22	264.35
730.55	263.89
730.89	263.45
731.22	263.00
731.55	262.57
731.88	262.19
732.21	261.80
732.54	261.37
732.87	260.92
733.20	260.54
733.53	260.17
733.86	259.79
734.19	259.42
734.52	258.98
734.85	258.68
735.18	258.24
735.51	257.92
735.84	257.53
736.17	257.22
736.50	256.82
736.83	256.62
737.16	256.29
737.49	255.95
737.82	255.61
738.15	255.30
738.48	254.96
738.81	254.62
739.14	254.28
739.47	253.97
739.80	253.64
740.13	253.34
740.46	253.02
740.79	252.67
741.12	252.36
741.45	252.09
741.78	251.73
742.11	251.48
742.44	251.14
742.77	250.86
743.10	250.52
743.43	250.22
743.75	249.80
744.08	249.68
744.41	249.43
744.74	249.15
745.07	248.88
745.40	248.64
745.73	248.38
746.06	248.12
746.39	247.86
746.71	247.62
747.04	247.34
747.37	247.07
747.70	246.87
748.03	246.60
748.36	246.37
748.68	246.12
749.01	245.90
749.34	245.70
749.67	245.48
750.00	245.31
750.33	245.14
750.65	244.93
750.98	244.56
751.31	244.30
751.64	244.12
751.97	243.94
752.29	243.72
752.62	243.50
752.95	243.28
753.28	243.06
753.60	242.85
753.93	242.68
754.26	242.49
754.59	242.20
754.91	242.01
755.24	241.83
755.57	241.67
755.90	241.46
756.22	241.26
756.55	241.05
756.88	240.82
757.20	240.61
757.53	240.43
757.86	240.26
758.19	240.09
758.51	239.89
758.84	239.68
759.17	239.52
759.49	239.34
759.82	239.24
760.15	239.11
760.47	238.97
760.80	238.79
761.13	238.68
761.45	238.59
761.78	238.44
762.11	238.27
762.43	238.11
762.76	237.92
763.08	237.80
763.41	237.69
763.74	237.55
764.06	237.38
764.39	237.24
764.71	237.10
765.04	236.96
765.37	236.83
765.69	236.69
766.02	236.57
766.34	236.46
766.67	236.31
767.00	236.20
767.32	236.14
767.65	236.09
767.97	235.96
768.30	235.84
768.62	235.69
768.95	235.56
769.27	235.44
769.60	235.39
769.92	235.26
770.25	235.14
770.57	235.04
770.90	234.96
771.22	234.88
771.55	234.79
771.87	234.71
772.20	234.62
772.52	234.60
772.85	234.58
773.17	234.49
773.50	234.40
773.82	234.27
774.15	234.12
774.47	234.00
774.80	233.88
775.12	233.82
775.45	233.75
775.77	233.67
776.09	233.62
776.42	233.55
776.74	233.50
777.07	233.43
777.39	233.38
777.72	233.26
778.04	233.20
778.36	233.15
778.69	233.11
779.01	233.05
779.33	232.90
779.66	232.76
779.98	232.69
780.31	232.61
780.63	232.59
780.95	232.54
781.28	232.43
781.60	232.35
781.92	232.24
782.25	232.18
782.57	232.16
782.89	232.07
783.22	232.00
783.54	231.92
783.86	231.87
784.19	231.79
784.51	231.82
784.83	231.73
785.16	231.66
785.48	231.61
785.80	231.55
786.12	231.48
786.45	231.44
786.77	231.40
787.09	231.36
