SpectraSuite Data File
++++++++++++++++++++++++++++++++++++
Date: Fri Feb 01 15:13:53 EST 2013
User: group
Dark Spectrum Present: No
Reference Spectrum Present: No
Number of Sampled Component Spectra: 1
Spectrometers: USB2E7196
Integration Time (usec): 35000 (USB2E7196)
Spectra Averaged: 100 (USB2E7196)
Boxcar Smoothing: 10 (USB2E7196)
Correct for Electrical Dark: No (USB2E7196)
Strobe/Lamp Enabled: No (USB2E7196)
Correct for Detector Non-linearity: No (USB2E7196)
Correct for Stray Light: No (USB2E7196)
Number of Pixels in Processed Spectrum: 2048
>>>>>Begin Processed Spectral Data<<<<<
339.09	0.00
339.48	215.74
339.86	216.94
340.24	218.37
340.63	219.54
341.01	221.99
341.39	221.86
341.78	223.53
342.16	224.62
342.54	225.20
342.93	213.59
343.31	224.41
343.69	224.94
344.07	225.41
344.46	225.82
344.84	226.22
345.22	226.45
345.60	226.71
345.99	226.88
346.37	227.04
346.75	227.15
347.13	227.21
347.52	227.29
347.90	227.38
348.28	227.41
348.66	227.47
349.05	227.47
349.43	227.49
349.81	227.51
350.19	227.57
350.57	227.60
350.96	227.69
351.34	227.76
351.72	227.83
352.10	227.91
352.48	228.01
352.87	228.05
353.25	228.12
353.63	228.19
354.01	228.27
354.39	228.30
354.77	228.37
355.15	228.47
355.54	228.58
355.92	228.61
356.30	228.66
356.68	228.78
357.06	228.85
357.44	228.91
357.82	228.99
358.20	229.06
358.58	229.14
358.97	229.18
359.35	229.24
359.73	229.34
360.11	229.37
360.49	229.40
360.87	229.43
361.25	229.50
361.63	229.58
362.01	229.63
362.39	229.66
362.77	229.69
363.15	229.68
363.53	229.66
363.91	229.70
364.29	229.71
364.67	229.63
365.05	229.64
365.43	229.63
365.81	229.63
366.19	229.65
366.57	229.68
366.95	229.65
367.33	229.62
367.71	229.58
368.09	229.61
368.47	229.59
368.85	229.57
369.23	229.54
369.61	229.44
369.99	229.42
370.37	229.36
370.75	229.36
371.13	229.29
371.51	229.21
371.89	229.15
372.27	229.12
372.65	229.06
373.03	228.99
373.41	228.91
373.78	228.86
374.16	228.75
374.54	228.63
374.92	228.54
375.30	228.48
375.68	228.36
376.06	228.29
376.44	228.18
376.82	228.12
377.19	228.04
377.57	227.96
377.95	227.85
378.33	227.82
378.71	227.70
379.09	227.64
379.47	227.58
379.84	227.50
380.22	227.41
380.60	227.33
380.98	227.25
381.36	227.20
381.73	227.13
382.11	227.08
382.49	227.04
382.87	227.01
383.25	226.94
383.62	227.02
384.00	226.93
384.38	226.88
384.76	226.83
385.13	226.83
385.51	226.78
385.89	226.74
386.27	226.68
386.64	226.63
387.02	226.60
387.40	226.59
387.78	226.57
388.15	226.56
388.53	226.52
388.91	226.49
389.29	226.45
389.66	226.44
390.04	226.41
390.42	226.38
390.79	226.36
391.17	226.35
391.55	226.22
391.92	226.21
392.30	226.23
392.68	226.22
393.05	226.18
393.43	226.21
393.81	226.25
394.18	226.24
394.56	226.30
394.94	226.31
395.31	226.32
395.69	226.37
396.06	226.42
396.44	226.47
396.82	226.52
397.19	226.59
397.57	226.61
397.95	226.70
398.32	226.75
398.70	226.81
399.07	226.91
399.45	226.99
399.82	227.06
400.20	227.13
400.58	227.22
400.95	227.29
401.33	227.40
401.70	227.51
402.08	227.65
402.45	227.74
402.83	227.88
403.20	228.03
403.58	228.12
403.95	228.27
404.33	228.42
404.71	228.52
405.08	228.75
405.46	228.90
405.83	229.06
406.21	229.20
406.58	229.40
406.96	229.55
407.33	229.73
407.70	229.94
408.08	230.23
408.45	230.46
408.83	230.69
409.20	230.91
409.58	231.11
409.95	231.37
410.33	231.65
410.70	231.89
411.08	232.19
411.45	232.53
411.82	232.82
412.20	233.17
412.57	233.64
412.95	233.93
413.32	234.30
413.69	234.68
414.07	235.14
414.44	235.61
414.82	236.07
415.19	236.63
415.56	237.19
415.94	237.70
416.31	238.36
416.68	238.99
417.06	239.68
417.43	240.38
417.81	241.15
418.18	241.94
418.55	242.79
418.93	243.66
419.30	244.53
419.67	245.47
420.04	246.41
420.42	247.40
420.79	248.59
421.16	249.77
421.54	251.01
421.91	252.21
422.28	253.46
422.66	254.80
423.03	256.10
423.40	257.43
423.77	258.85
424.15	260.22
424.52	261.71
424.89	263.36
425.26	264.90
425.64	266.30
426.01	267.88
426.38	269.53
426.75	271.19
427.13	272.91
427.50	274.73
427.87	276.62
428.24	278.46
428.61	280.15
428.99	282.14
429.36	284.21
429.73	286.29
430.10	288.33
430.47	290.39
430.85	292.48
431.22	294.72
431.59	297.11
431.96	299.34
432.33	301.80
432.70	304.18
433.08	307.00
433.45	309.70
433.82	312.28
434.19	315.18
434.56	317.99
434.93	320.64
435.30	323.28
435.68	326.15
436.05	328.99
436.42	331.80
436.79	334.30
437.16	336.98
437.53	339.83
437.90	342.63
438.27	345.37
438.64	348.23
439.01	350.83
439.38	353.08
439.75	355.31
440.13	357.84
440.50	360.18
440.87	362.02
441.24	363.95
441.61	366.18
441.98	367.67
442.35	369.43
442.72	371.31
443.09	373.11
443.46	374.12
443.83	374.73
444.20	375.21
444.57	376.03
444.94	376.34
445.31	376.64
445.68	377.01
446.05	377.08
446.42	376.71
446.79	376.27
447.16	375.83
447.53	375.49
447.90	374.34
448.27	373.17
448.64	371.60
449.01	370.45
449.37	368.46
449.74	366.57
450.11	364.37
450.48	361.92
450.85	359.41
451.22	357.27
451.59	355.25
451.96	353.31
452.33	350.68
452.70	348.33
453.07	345.52
453.43	342.60
453.80	339.83
454.17	337.15
454.54	334.60
454.91	331.90
455.28	329.23
455.65	326.74
456.02	324.31
456.38	322.14
456.75	319.51
457.12	317.21
457.49	315.00
457.86	312.82
458.23	310.91
458.59	308.84
458.96	306.76
459.33	304.89
459.70	303.06
460.07	301.57
460.43	299.85
460.80	298.26
461.17	296.80
461.54	295.32
461.91	293.85
462.27	292.39
462.64	291.10
463.01	289.76
463.38	288.44
463.74	286.99
464.11	285.82
464.48	284.79
464.85	283.70
465.21	282.81
465.58	281.87
465.95	280.79
466.32	279.84
466.68	278.91
467.05	278.01
467.42	277.09
467.78	276.14
468.15	275.23
468.52	274.48
468.88	273.62
469.25	272.76
469.62	272.14
469.98	271.46
470.35	270.83
470.72	270.19
471.08	269.49
471.45	268.97
471.82	268.43
472.18	267.84
472.55	267.36
472.92	266.80
473.28	266.34
473.65	265.86
474.02	265.44
474.38	265.06
474.75	264.71
475.11	264.38
475.48	264.16
475.85	263.93
476.21	263.71
476.58	263.53
476.94	263.45
477.31	263.31
477.67	263.17
478.04	263.03
478.41	262.95
478.77	263.01
479.14	262.95
479.50	262.93
479.87	262.96
480.23	263.05
480.60	263.14
480.96	263.19
481.33	263.40
481.69	263.57
482.06	263.79
482.42	264.02
482.79	264.26
483.15	264.55
483.52	264.92
483.88	265.30
484.25	265.66
484.61	266.09
484.98	266.53
485.34	267.05
485.71	267.65
486.07	268.27
486.44	268.89
486.80	269.60
487.17	270.34
487.53	271.15
487.90	272.01
488.26	272.93
488.62	273.92
488.99	274.91
489.35	275.98
489.72	277.06
490.08	278.24
490.44	279.49
490.81	280.79
491.17	282.13
491.54	283.59
491.90	285.13
492.26	286.74
492.63	288.46
492.99	290.25
493.36	292.13
493.72	294.17
494.08	296.25
494.45	298.49
494.81	300.86
495.17	303.33
495.54	305.86
495.90	308.56
496.26	311.35
496.63	314.29
496.99	317.38
497.35	320.63
497.72	324.02
498.08	327.49
498.44	331.18
498.80	335.10
499.17	339.12
499.53	343.31
499.89	347.70
500.26	352.23
500.62	356.89
500.98	361.84
501.34	366.86
501.71	372.13
502.07	377.59
502.43	383.18
502.79	388.96
503.16	395.08
503.52	401.28
503.88	407.72
504.24	414.39
504.60	421.27
504.97	428.40
505.33	435.72
505.69	443.48
506.05	451.21
506.41	459.03
506.78	467.20
507.14	475.64
507.50	484.39
507.86	493.37
508.22	502.55
508.59	511.74
508.95	521.33
509.31	531.17
509.67	541.27
510.03	551.61
510.39	562.14
510.75	572.96
511.12	583.96
511.48	595.21
511.84	606.69
512.20	618.15
512.56	630.09
512.92	642.28
513.28	654.59
513.64	667.12
514.00	679.89
514.37	692.80
514.73	705.80
515.09	718.82
515.45	732.12
515.81	745.73
516.17	759.75
516.53	773.89
516.89	788.12
517.25	802.31
517.61	816.72
517.97	831.21
518.33	845.60
518.69	860.41
519.05	875.52
519.41	890.67
519.77	906.37
520.13	921.85
520.49	937.22
520.85	952.67
521.21	968.44
521.57	984.84
521.93	1000.65
522.29	1017.14
522.65	1033.44
523.01	1049.76
523.37	1065.84
523.73	1082.06
524.09	1098.33
524.45	1114.69
524.81	1131.34
525.17	1148.27
525.53	1165.29
525.89	1182.33
526.25	1199.15
526.61	1215.44
526.97	1232.28
527.33	1248.74
527.68	1265.44
528.04	1282.10
528.40	1298.87
528.76	1315.96
529.12	1332.40
529.48	1349.32
529.84	1365.42
530.20	1382.17
530.56	1399.20
530.91	1416.68
531.27	1433.48
531.63	1449.95
531.99	1466.41
532.35	1482.43
532.71	1498.29
533.07	1514.59
533.42	1530.53
533.78	1546.66
534.14	1563.10
534.50	1578.37
534.86	1594.39
535.21	1609.61
535.57	1625.57
535.93	1641.10
536.29	1655.98
536.65	1671.11
537.00	1686.04
537.36	1701.41
537.72	1715.94
538.08	1730.49
538.44	1744.33
538.79	1758.42
539.15	1772.35
539.51	1786.44
539.87	1800.88
540.22	1814.57
540.58	1828.27
540.94	1841.65
541.29	1854.76
541.65	1867.54
542.01	1880.92
542.37	1893.33
542.72	1905.86
543.08	1917.64
543.44	1930.02
543.79	1941.35
544.15	1952.41
544.51	1964.01
544.87	1975.08
545.22	1985.80
545.58	1995.94
545.94	2005.87
546.29	2015.68
546.65	2025.34
547.01	2034.50
547.36	2043.28
547.72	2051.86
548.07	2059.81
548.43	2068.03
548.79	2076.06
549.14	2083.60
549.50	2091.01
549.86	2098.56
550.21	2105.83
550.57	2113.08
550.92	2119.73
551.28	2126.86
551.64	2134.01
551.99	2140.59
552.35	2146.63
552.70	2152.77
553.06	2158.77
553.41	2164.95
553.77	2171.10
554.13	2177.22
554.48	2183.40
554.84	2188.76
555.19	2194.11
555.55	2199.28
555.90	2203.71
556.26	2208.48
556.61	2213.13
556.97	2217.16
557.32	2221.31
557.68	2225.41
558.03	2229.72
558.39	2233.39
558.74	2237.90
559.10	2241.79
559.45	2245.34
559.81	2249.75
560.16	2253.65
560.52	2256.95
560.87	2260.52
561.23	2262.94
561.58	2265.92
561.94	2268.35
562.29	2270.88
562.64	2273.49
563.00	2276.09
563.35	2279.54
563.71	2282.67
564.06	2285.95
564.42	2288.90
564.77	2291.47
565.12	2293.69
565.48	2295.39
565.83	2297.21
566.19	2298.46
566.54	2299.38
566.89	2300.51
567.25	2301.00
567.60	2302.40
567.96	2303.98
568.31	2304.68
568.66	2305.85
569.02	2306.35
569.37	2306.57
569.72	2307.26
570.08	2307.33
570.43	2307.13
570.78	2306.44
571.14	2304.92
571.49	2303.41
571.84	2303.06
572.20	2301.73
572.55	2300.61
572.90	2299.14
573.26	2297.73
573.61	2296.00
573.96	2294.02
574.31	2290.95
574.67	2287.75
575.02	2283.99
575.37	2280.53
575.72	2276.51
576.08	2273.03
576.43	2269.63
576.78	2265.97
577.13	2262.75
577.49	2259.68
577.84	2256.25
578.19	2252.56
578.54	2248.55
578.90	2244.29
579.25	2238.56
579.60	2233.48
579.95	2228.30
580.30	2223.11
580.66	2217.80
581.01	2212.77
581.36	2207.83
581.71	2203.58
582.06	2199.14
582.42	2194.53
582.77	2189.19
583.12	2184.52
583.47	2179.64
583.82	2174.47
584.17	2169.15
584.53	2163.41
584.88	2157.70
585.23	2151.77
585.58	2146.16
585.93	2140.77
586.28	2135.81
586.63	2130.66
586.98	2125.53
587.34	2120.90
587.69	2116.01
588.04	2110.49
588.39	2104.66
588.74	2098.03
589.09	2091.81
589.44	2084.90
589.79	2078.80
590.14	2073.02
590.49	2066.41
590.84	2060.05
591.19	2053.99
591.54	2047.32
591.89	2039.84
592.25	2032.85
592.60	2025.70
592.95	2017.86
593.30	2010.37
593.65	2002.82
594.00	1995.78
594.35	1988.53
594.70	1980.36
595.05	1972.85
595.40	1965.68
595.75	1958.13
596.10	1951.77
596.45	1944.89
596.80	1938.59
597.15	1931.88
597.50	1924.65
597.85	1918.27
598.19	1911.46
598.54	1904.23
598.89	1897.63
599.24	1891.70
599.59	1885.00
599.94	1878.59
600.29	1872.34
600.64	1865.80
600.99	1858.12
601.34	1851.20
601.69	1844.16
602.04	1837.14
602.39	1829.86
602.74	1822.90
603.08	1816.21
603.43	1809.53
603.78	1802.17
604.13	1795.06
604.48	1787.67
604.83	1780.89
605.18	1773.76
605.53	1765.76
605.87	1757.67
606.22	1750.42
606.57	1742.50
606.92	1735.17
607.27	1728.03
607.62	1721.09
607.96	1713.69
608.31	1707.21
608.66	1699.50
609.01	1691.90
609.36	1684.41
609.70	1676.36
610.05	1668.19
610.40	1660.36
610.75	1652.00
611.10	1644.32
611.44	1635.79
611.79	1627.87
612.14	1619.08
612.49	1610.09
612.83	1601.69
613.18	1593.75
613.53	1585.62
613.88	1577.13
614.22	1568.86
614.57	1560.32
614.92	1552.27
615.27	1544.78
615.61	1536.44
615.96	1528.56
616.31	1520.94
616.65	1513.60
617.00	1506.03
617.35	1498.53
617.70	1490.15
618.04	1481.63
618.39	1473.40
618.74	1465.82
619.08	1457.44
619.43	1449.97
619.78	1442.98
620.12	1435.83
620.47	1428.21
620.82	1419.99
621.16	1412.59
621.51	1404.95
621.85	1397.26
622.20	1388.83
622.55	1380.45
622.89	1372.67
623.24	1365.10
623.59	1357.71
623.93	1350.13
624.28	1342.96
624.62	1335.34
624.97	1328.23
625.32	1321.59
625.66	1314.54
626.01	1307.38
626.35	1299.95
626.70	1292.21
627.04	1284.50
627.39	1276.76
627.73	1269.30
628.08	1262.41
628.43	1255.05
628.77	1247.68
629.12	1240.03
629.46	1232.80
629.81	1225.43
630.15	1218.20
630.50	1210.74
630.84	1202.61
631.19	1194.76
631.53	1187.27
631.88	1179.76
632.22	1172.24
632.57	1164.87
632.91	1157.46
633.26	1150.12
633.60	1142.90
633.95	1135.93
634.29	1128.82
634.64	1122.14
634.98	1114.81
635.32	1107.73
635.67	1101.23
636.01	1094.58
636.36	1087.87
636.70	1081.33
637.05	1074.84
637.39	1068.37
637.73	1061.82
638.08	1056.03
638.42	1050.02
638.77	1043.64
639.11	1037.06
639.45	1030.63
639.80	1024.03
640.14	1017.59
640.49	1010.96
640.83	1004.64
641.17	998.36
641.52	992.13
641.86	985.80
642.20	980.05
642.55	973.71
642.89	967.13
643.23	960.66
643.58	954.90
643.92	948.70
644.26	942.55
644.61	936.55
644.95	930.52
645.29	923.83
645.64	917.12
645.98	910.77
646.32	904.98
646.66	898.98
647.01	893.19
647.35	887.55
647.69	881.87
648.04	876.41
648.38	870.45
648.72	864.44
649.06	858.28
649.41	852.38
649.75	846.47
650.09	840.57
650.43	834.70
650.78	828.56
651.12	822.59
651.46	816.81
651.80	810.99
652.14	805.69
652.49	800.37
652.83	795.27
653.17	789.51
653.51	783.74
653.85	778.31
654.20	772.64
654.54	766.63
654.88	760.90
655.22	754.97
655.56	749.42
655.90	744.02
656.25	738.79
656.59	733.45
656.93	728.32
657.27	723.25
657.61	717.87
657.95	712.81
658.29	707.81
658.64	702.63
658.98	697.46
659.32	691.93
659.66	686.71
660.00	681.39
660.34	676.53
660.68	671.69
661.02	666.71
661.36	662.04
661.70	657.52
662.05	653.12
662.39	648.80
662.73	644.36
663.07	639.95
663.41	635.48
663.75	630.98
664.09	626.45
664.43	621.99
664.77	617.91
665.11	613.59
665.45	609.47
665.79	605.43
666.13	601.24
666.47	597.21
666.81	593.11
667.15	588.96
667.49	585.00
667.83	581.24
668.17	577.31
668.51	573.20
668.85	569.23
669.19	565.37
669.53	561.49
669.87	557.61
670.21	553.94
670.55	550.35
670.89	546.93
671.23	543.53
671.57	540.05
671.91	536.53
672.25	533.13
672.58	529.67
672.92	526.26
673.26	523.12
673.60	520.00
673.94	516.84
674.28	513.98
674.62	511.05
674.96	507.92
675.30	505.05
675.64	502.20
675.97	499.42
676.31	496.56
676.65	493.69
676.99	491.02
677.33	488.19
677.67	485.35
678.01	482.35
678.34	479.32
678.68	476.45
679.02	473.69
679.36	470.89
679.70	468.17
680.04	465.45
680.37	462.58
680.71	459.79
681.05	457.24
681.39	454.49
681.73	451.87
682.06	449.35
682.40	446.82
682.74	444.28
683.08	441.78
683.42	439.23
683.75	436.72
684.09	434.19
684.43	431.77
684.77	429.36
685.10	427.05
685.44	424.80
685.78	422.57
686.12	420.29
686.45	418.03
686.79	415.70
687.13	413.54
687.46	411.44
687.80	409.33
688.14	407.12
688.48	405.15
688.81	402.93
689.15	400.81
689.49	398.67
689.82	396.55
690.16	394.43
690.50	392.50
690.83	390.57
691.17	388.59
691.51	386.70
691.84	384.87
692.18	382.91
692.52	380.97
692.85	379.02
693.19	377.18
693.52	375.39
693.86	373.57
694.20	371.77
694.53	369.95
694.87	368.07
695.21	366.34
695.54	364.45
695.88	362.74
696.21	361.00
696.55	359.25
696.88	357.57
697.22	355.96
697.56	354.35
697.89	352.66
698.23	351.04
698.56	349.36
698.90	347.70
699.23	346.04
699.57	344.43
699.90	342.88
700.24	341.31
700.58	339.76
700.91	338.27
701.25	336.79
701.58	335.36
701.92	334.02
702.25	332.59
702.59	331.28
702.92	329.98
703.26	328.67
703.59	327.43
703.93	326.29
704.26	325.01
704.60	323.68
704.93	322.45
705.26	321.23
705.60	320.09
705.93	318.94
706.27	317.95
706.60	316.94
706.94	315.86
707.27	314.71
707.61	313.64
707.94	312.63
708.27	311.56
708.61	310.51
708.94	309.48
709.28	308.52
709.61	307.54
709.94	306.58
710.28	305.53
710.61	304.59
710.95	303.51
711.28	302.62
711.61	301.69
711.95	300.78
712.28	299.80
712.61	298.82
712.95	297.91
713.28	297.02
713.61	296.14
713.95	295.31
714.28	294.50
714.61	293.66
714.95	292.84
715.28	291.98
715.61	291.11
715.95	290.27
716.28	289.40
716.61	288.58
716.95	287.78
717.28	287.07
717.61	286.31
717.94	285.59
718.28	284.81
718.61	284.10
718.94	283.40
719.27	282.78
719.61	282.14
719.94	281.51
720.27	280.80
720.60	280.13
720.94	279.50
721.27	278.91
721.60	278.36
721.93	277.76
722.27	277.26
722.60	276.76
722.93	276.20
723.26	275.68
723.59	275.13
723.93	274.61
724.26	274.10
724.59	273.56
724.92	273.03
725.25	272.54
725.59	272.03
725.92	271.56
726.25	271.04
726.58	270.55
726.91	270.05
727.24	269.59
727.57	269.14
727.91	268.62
728.24	268.15
728.57	267.65
728.90	267.20
729.23	266.67
729.56	266.26
729.89	265.80
730.22	265.32
730.55	264.85
730.89	264.39
731.22	263.92
731.55	263.45
731.88	263.00
732.21	262.57
732.54	262.17
732.87	261.71
733.20	261.32
733.53	260.95
733.86	260.58
734.19	260.16
734.52	259.80
734.85	259.52
735.18	259.16
735.51	258.76
735.84	258.39
736.17	258.08
736.50	257.67
736.83	257.45
737.16	257.12
737.49	256.80
737.82	256.48
738.15	256.13
738.48	255.81
738.81	255.53
739.14	255.22
739.47	254.88
739.80	254.58
740.13	254.26
740.46	253.90
740.79	253.58
741.12	253.29
741.45	252.94
741.78	252.56
742.11	252.21
742.44	251.89
742.77	251.63
743.10	251.29
743.43	250.98
743.75	250.53
744.08	250.36
744.41	250.04
744.74	249.74
745.07	249.44
745.40	249.20
745.73	248.93
746.06	248.62
746.39	248.33
746.71	248.01
747.04	247.72
747.37	247.46
747.70	247.25
748.03	246.97
748.36	246.73
748.68	246.49
749.01	246.25
749.34	246.00
749.67	245.75
750.00	245.53
750.33	245.38
750.65	245.19
750.98	244.85
751.31	244.65
751.64	244.43
751.97	244.26
752.29	244.04
752.62	243.79
752.95	243.57
753.28	243.41
753.60	243.24
753.93	243.09
754.26	242.90
754.59	242.63
754.91	242.46
755.24	242.28
755.57	242.12
755.90	241.93
756.22	241.75
756.55	241.53
756.88	241.35
757.20	241.10
757.53	240.93
757.86	240.77
758.19	240.66
758.51	240.50
758.84	240.32
759.17	240.14
759.49	240.00
759.82	239.91
760.15	239.78
760.47	239.61
760.80	239.38
761.13	239.23
761.45	239.11
761.78	238.93
762.11	238.77
762.43	238.61
762.76	238.47
763.08	238.37
763.41	238.26
763.74	238.10
764.06	237.97
764.39	237.81
764.71	237.66
765.04	237.51
765.37	237.41
765.69	237.26
766.02	237.14
766.34	237.01
766.67	236.86
767.00	236.73
767.32	236.71
767.65	236.69
767.97	236.55
768.30	236.43
768.62	236.34
768.95	236.25
769.27	236.16
769.60	236.06
769.92	235.94
770.25	235.84
770.57	235.75
770.90	235.68
771.22	235.58
771.55	235.49
771.87	235.41
772.20	235.29
772.52	235.31
772.85	235.36
773.17	235.25
773.50	235.15
773.82	235.04
774.15	234.88
774.47	234.75
774.80	234.66
775.12	234.55
775.45	234.49
775.77	234.40
776.09	234.34
776.42	234.23
776.74	234.19
777.07	234.07
777.39	234.00
777.72	233.90
778.04	233.82
778.36	233.75
778.69	233.66
779.01	233.56
779.33	233.41
779.66	233.21
779.98	233.13
780.31	233.05
780.63	233.03
780.95	233.02
781.28	232.94
781.60	232.89
781.92	232.84
782.25	232.74
782.57	232.67
782.89	232.57
783.22	232.51
783.54	232.43
783.86	232.37
784.19	232.30
784.51	232.28
784.83	232.21
785.16	232.14
785.48	232.09
785.80	232.04
786.12	231.98
786.45	231.90
786.77	231.90
787.09	231.84
