SpectraSuite Data File
++++++++++++++++++++++++++++++++++++
Date: Fri Feb 01 16:11:48 EST 2013
User: group
Dark Spectrum Present: No
Reference Spectrum Present: No
Number of Sampled Component Spectra: 1
Spectrometers: USB2E7196
Integration Time (usec): 35000 (USB2E7196)
Spectra Averaged: 100 (USB2E7196)
Boxcar Smoothing: 10 (USB2E7196)
Correct for Electrical Dark: No (USB2E7196)
Strobe/Lamp Enabled: No (USB2E7196)
Correct for Detector Non-linearity: No (USB2E7196)
Correct for Stray Light: No (USB2E7196)
Number of Pixels in Processed Spectrum: 2048
>>>>>Begin Processed Spectral Data<<<<<
339.09	0.00
339.48	213.95
339.86	215.91
340.24	217.37
340.63	218.74
341.01	221.11
341.39	221.47
341.78	223.03
342.16	223.74
342.54	224.35
342.93	212.91
343.31	223.69
343.69	224.25
344.07	224.71
344.46	225.18
344.84	225.56
345.22	225.82
345.60	226.07
345.99	226.23
346.37	226.38
346.75	226.46
347.13	226.55
347.52	226.56
347.90	226.62
348.28	226.65
348.66	226.67
349.05	226.64
349.43	226.64
349.81	226.68
350.19	226.71
350.57	226.75
350.96	226.83
351.34	226.90
351.72	227.00
352.10	227.11
352.48	227.13
352.87	227.17
353.25	227.27
353.63	227.35
354.01	227.44
354.39	227.52
354.77	227.62
355.15	227.72
355.54	227.82
355.92	227.88
356.30	227.96
356.68	228.07
357.06	228.19
357.44	228.28
357.82	228.39
358.20	228.47
358.58	228.57
358.97	228.60
359.35	228.64
359.73	228.70
360.11	228.75
360.49	228.83
360.87	228.90
361.25	228.93
361.63	228.99
362.01	229.02
362.39	229.04
362.77	229.08
363.15	229.12
363.53	229.10
363.91	229.13
364.29	229.13
364.67	229.08
365.05	229.10
365.43	229.11
365.81	229.07
366.19	229.10
366.57	229.12
366.95	229.16
367.33	229.12
367.71	229.12
368.09	229.13
368.47	229.10
368.85	229.05
369.23	229.03
369.61	228.96
369.99	228.95
370.37	228.92
370.75	228.92
371.13	228.85
371.51	228.81
371.89	228.78
372.27	228.75
372.65	228.67
373.03	228.57
373.41	228.52
373.78	228.50
374.16	228.38
374.54	228.28
374.92	228.18
375.30	228.15
375.68	228.04
376.06	227.95
376.44	227.86
376.82	227.82
377.19	227.76
377.57	227.68
377.95	227.58
378.33	227.47
378.71	227.36
379.09	227.30
379.47	227.26
379.84	227.16
380.22	227.06
380.60	226.99
380.98	226.94
381.36	226.84
381.73	226.73
382.11	226.68
382.49	226.63
382.87	226.56
383.25	226.50
383.62	226.56
384.00	226.46
384.38	226.43
384.76	226.40
385.13	226.36
385.51	226.33
385.89	226.27
386.27	226.25
386.64	226.23
387.02	226.18
387.40	226.11
387.78	226.08
388.15	226.08
388.53	226.02
388.91	226.00
389.29	225.98
389.66	226.00
390.04	226.01
390.42	225.99
390.79	226.00
391.17	225.99
391.55	225.90
391.92	225.95
392.30	225.96
392.68	225.89
393.05	225.88
393.43	225.89
393.81	225.91
394.18	225.93
394.56	225.94
394.94	225.99
395.31	226.01
395.69	226.09
396.06	226.13
396.44	226.21
396.82	226.24
397.19	226.32
397.57	226.32
397.95	226.35
398.32	226.38
398.70	226.43
399.07	226.49
399.45	226.55
399.82	226.58
400.20	226.65
400.58	226.76
400.95	226.83
401.33	226.92
401.70	227.08
402.08	227.15
402.45	227.20
402.83	227.33
403.20	227.45
403.58	227.49
403.95	227.61
404.33	227.72
404.71	227.83
405.08	228.03
405.46	228.15
405.83	228.33
406.21	228.46
406.58	228.62
406.96	228.77
407.33	228.92
407.70	229.12
408.08	229.37
408.45	229.58
408.83	229.77
409.20	230.00
409.58	230.17
409.95	230.41
410.33	230.71
410.70	230.92
411.08	231.20
411.45	231.53
411.82	231.80
412.20	232.14
412.57	232.58
412.95	232.84
413.32	233.26
413.69	233.64
414.07	234.06
414.44	234.51
414.82	235.01
415.19	235.55
415.56	236.10
415.94	236.63
416.31	237.26
416.68	237.88
417.06	238.56
417.43	239.26
417.81	240.02
418.18	240.78
418.55	241.59
418.93	242.47
419.30	243.35
419.67	244.29
420.04	245.22
420.42	246.21
420.79	247.40
421.16	248.54
421.54	249.73
421.91	250.94
422.28	252.18
422.66	253.49
423.03	254.79
423.40	256.11
423.77	257.49
424.15	258.91
424.52	260.39
424.89	262.00
425.26	263.52
425.64	264.98
426.01	266.55
426.38	268.22
426.75	269.88
427.13	271.61
427.50	273.43
427.87	275.36
428.24	277.17
428.61	278.90
428.99	280.86
429.36	282.95
429.73	285.03
430.10	287.07
430.47	289.10
430.85	291.23
431.22	293.43
431.59	295.83
431.96	298.08
432.33	300.55
432.70	302.92
433.08	305.68
433.45	308.31
433.82	310.91
434.19	313.80
434.56	316.61
434.93	319.26
435.30	321.86
435.68	324.72
436.05	327.55
436.42	330.37
436.79	332.84
437.16	335.55
437.53	338.37
437.90	341.19
438.27	343.98
438.64	346.82
439.01	349.44
439.38	351.69
439.75	353.88
440.13	356.39
440.50	358.77
440.87	360.68
441.24	362.62
441.61	364.84
441.98	366.37
442.35	368.18
442.72	370.04
443.09	371.84
443.46	372.80
443.83	373.39
444.20	373.88
444.57	374.76
444.94	375.06
445.31	375.38
445.68	375.72
446.05	375.78
446.42	375.36
446.79	374.94
447.16	374.49
447.53	374.14
447.90	372.96
448.27	371.75
448.64	370.14
449.01	369.03
449.37	367.07
449.74	365.19
450.11	362.90
450.48	360.41
450.85	357.87
451.22	355.75
451.59	353.72
451.96	351.80
452.33	349.17
452.70	346.80
453.07	343.95
453.43	341.06
453.80	338.24
454.17	335.58
454.54	333.04
454.91	330.34
455.28	327.67
455.65	325.19
456.02	322.77
456.38	320.66
456.75	317.98
457.12	315.67
457.49	313.39
457.86	311.24
458.23	309.45
458.59	307.44
458.96	305.36
459.33	303.54
459.70	301.67
460.07	300.21
460.43	298.50
460.80	296.90
461.17	295.48
461.54	294.04
461.91	292.64
462.27	291.22
462.64	289.98
463.01	288.63
463.38	287.37
463.74	286.00
464.11	284.82
464.48	283.80
464.85	282.71
465.21	281.87
465.58	281.00
465.95	279.87
466.32	279.00
466.68	278.12
467.05	277.21
467.42	276.31
467.78	275.35
468.15	274.49
468.52	273.85
468.88	272.98
469.25	272.23
469.62	271.57
469.98	270.86
470.35	270.21
470.72	269.63
471.08	268.95
471.45	268.43
471.82	267.88
472.18	267.29
472.55	266.87
472.92	266.36
473.28	265.88
473.65	265.45
474.02	264.96
474.38	264.55
474.75	264.23
475.11	263.94
475.48	263.68
475.85	263.45
476.21	263.23
476.58	263.07
476.94	262.89
477.31	262.75
477.67	262.60
478.04	262.50
478.41	262.44
478.77	262.46
479.14	262.39
479.50	262.38
479.87	262.48
480.23	262.55
480.60	262.60
480.96	262.70
481.33	262.86
481.69	263.06
482.06	263.24
482.42	263.46
482.79	263.70
483.15	264.02
483.52	264.39
483.88	264.69
484.25	265.08
484.61	265.51
484.98	265.96
485.34	266.54
485.71	267.11
486.07	267.72
486.44	268.29
486.80	268.99
487.17	269.78
487.53	270.58
487.90	271.42
488.26	272.35
488.62	273.33
488.99	274.36
489.35	275.42
489.72	276.60
490.08	277.83
490.44	279.06
490.81	280.36
491.17	281.72
491.54	283.21
491.90	284.74
492.26	286.38
492.63	288.16
492.99	289.95
493.36	291.89
493.72	293.92
494.08	295.99
494.45	298.25
494.81	300.62
495.17	303.02
495.54	305.59
495.90	308.29
496.26	311.06
496.63	314.01
496.99	317.10
497.35	320.34
497.72	323.72
498.08	327.26
498.44	331.00
498.80	334.93
499.17	338.97
499.53	343.12
499.89	347.52
500.26	351.96
500.62	356.64
500.98	361.60
501.34	366.73
501.71	372.11
502.07	377.59
502.43	383.21
502.79	389.03
503.16	395.14
503.52	401.41
503.88	407.88
504.24	414.60
504.60	421.51
504.97	428.69
505.33	436.02
505.69	443.71
506.05	451.53
506.41	459.42
506.78	467.60
507.14	476.07
507.50	484.76
507.86	493.82
508.22	503.06
508.59	512.31
508.95	521.89
509.31	531.74
509.67	541.87
510.03	552.15
510.39	562.75
510.75	573.53
511.12	584.47
511.48	595.79
511.84	607.24
512.20	618.73
512.56	630.61
512.92	642.76
513.28	655.11
513.64	667.54
514.00	680.27
514.37	693.25
514.73	706.31
515.09	719.39
515.45	732.72
515.81	746.32
516.17	760.20
516.53	774.24
516.89	788.37
517.25	802.54
517.61	816.93
517.97	831.40
518.33	845.81
518.69	860.59
519.05	875.54
519.41	890.69
519.77	906.28
520.13	921.75
520.49	937.09
520.85	952.47
521.21	968.15
521.57	984.38
521.93	1000.10
522.29	1016.43
522.65	1032.64
523.01	1048.79
523.37	1064.75
523.73	1080.97
524.09	1097.15
524.45	1113.47
524.81	1130.11
525.17	1146.89
525.53	1163.66
525.89	1180.62
526.25	1197.48
526.61	1213.86
526.97	1230.50
527.33	1246.94
527.68	1263.48
528.04	1279.95
528.40	1296.48
528.76	1313.52
529.12	1330.02
529.48	1346.86
529.84	1362.83
530.20	1379.37
530.56	1396.29
530.91	1413.53
531.27	1430.15
531.63	1446.52
531.99	1462.98
532.35	1478.82
532.71	1494.63
533.07	1510.84
533.42	1526.58
533.78	1542.50
534.14	1558.67
534.50	1573.93
534.86	1589.67
535.21	1604.85
535.57	1620.74
535.93	1636.18
536.29	1650.83
536.65	1665.83
537.00	1680.40
537.36	1695.68
537.72	1710.12
538.08	1724.53
538.44	1738.22
538.79	1751.96
539.15	1765.46
539.51	1779.09
539.87	1793.36
540.22	1806.95
540.58	1820.63
540.94	1833.80
541.29	1846.53
541.65	1859.04
542.01	1872.23
542.37	1884.65
542.72	1896.94
543.08	1908.66
543.44	1920.98
543.79	1932.14
544.15	1943.01
544.51	1954.57
544.87	1965.36
545.22	1976.15
545.58	1986.31
545.94	1996.21
546.29	2006.10
546.65	2016.01
547.01	2025.36
547.36	2034.00
547.72	2042.60
548.07	2050.52
548.43	2058.66
548.79	2066.65
549.14	2074.36
549.50	2081.51
549.86	2088.89
550.21	2096.13
550.57	2103.18
550.92	2109.60
551.28	2116.70
551.64	2123.97
551.99	2130.48
552.35	2136.74
552.70	2143.01
553.06	2149.02
553.41	2155.24
553.77	2161.27
554.13	2167.35
554.48	2173.43
554.84	2178.91
555.19	2184.06
555.55	2189.28
555.90	2193.85
556.26	2198.86
556.61	2203.47
556.97	2208.01
557.32	2212.22
557.68	2216.47
558.03	2220.83
558.39	2224.61
558.74	2229.27
559.10	2233.02
559.45	2236.81
559.81	2240.97
560.16	2244.69
560.52	2247.79
560.87	2251.20
561.23	2253.92
561.58	2256.67
561.94	2259.19
562.29	2261.55
562.64	2264.29
563.00	2266.72
563.35	2270.27
563.71	2273.32
564.06	2276.52
564.42	2279.33
564.77	2281.91
565.12	2284.26
565.48	2286.21
565.83	2288.19
566.19	2289.65
566.54	2290.46
566.89	2291.63
567.25	2292.52
567.60	2293.72
567.96	2295.57
568.31	2296.38
568.66	2297.47
569.02	2298.20
569.37	2298.46
569.72	2299.24
570.08	2299.37
570.43	2299.45
570.78	2298.88
571.14	2297.31
571.49	2295.95
571.84	2295.62
572.20	2294.60
572.55	2293.54
572.90	2291.89
573.26	2290.54
573.61	2288.63
573.96	2287.08
574.31	2284.09
574.67	2280.92
575.02	2277.39
575.37	2273.97
575.72	2270.33
576.08	2266.84
576.43	2263.42
576.78	2259.91
577.13	2256.88
577.49	2253.78
577.84	2250.27
578.19	2246.35
578.54	2242.85
578.90	2238.81
579.25	2233.29
579.60	2228.35
579.95	2223.32
580.30	2218.30
580.66	2213.09
581.01	2208.18
581.36	2203.09
581.71	2198.94
582.06	2194.59
582.42	2190.30
582.77	2185.08
583.12	2180.54
583.47	2176.05
583.82	2171.31
584.17	2166.08
584.53	2160.62
584.88	2154.93
585.23	2149.29
585.58	2144.13
585.93	2138.68
586.28	2133.84
586.63	2128.77
586.98	2123.75
587.34	2119.05
587.69	2114.38
588.04	2109.26
588.39	2103.68
588.74	2097.31
589.09	2091.18
589.44	2084.51
589.79	2078.31
590.14	2072.66
590.49	2066.13
590.84	2059.70
591.19	2053.53
591.54	2047.18
591.89	2039.97
592.25	2033.38
592.60	2026.32
592.95	2018.76
593.30	2011.48
593.65	2003.79
594.00	1996.79
594.35	1989.50
594.70	1981.48
595.05	1974.39
595.40	1967.12
595.75	1959.58
596.10	1953.48
596.45	1946.75
596.80	1940.59
597.15	1934.03
597.50	1927.09
597.85	1920.71
598.19	1914.19
598.54	1907.21
598.89	1900.42
599.24	1894.50
599.59	1887.89
599.94	1881.54
600.29	1875.17
600.64	1868.51
600.99	1861.17
601.34	1854.31
601.69	1847.27
602.04	1840.52
602.39	1833.02
602.74	1826.14
603.08	1819.46
603.43	1812.72
603.78	1805.41
604.13	1798.15
604.48	1790.95
604.83	1784.05
605.18	1777.14
605.53	1769.19
605.87	1761.18
606.22	1753.94
606.57	1745.84
606.92	1738.46
607.27	1731.35
607.62	1724.44
607.96	1717.28
608.31	1710.71
608.66	1703.12
609.01	1695.67
609.36	1688.01
609.70	1680.06
610.05	1672.14
610.40	1664.48
610.75	1656.06
611.10	1648.46
611.44	1639.96
611.79	1631.92
612.14	1623.29
612.49	1613.97
612.83	1605.52
613.18	1597.33
613.53	1589.28
613.88	1580.80
614.22	1572.53
614.57	1563.85
614.92	1555.81
615.27	1548.26
615.61	1540.06
615.96	1532.11
616.31	1524.44
616.65	1517.12
617.00	1509.47
617.35	1501.58
617.70	1493.40
618.04	1484.96
618.39	1476.73
618.74	1469.17
619.08	1460.90
619.43	1453.25
619.78	1446.39
620.12	1439.32
620.47	1431.93
620.82	1423.65
621.16	1416.23
621.51	1408.50
621.85	1400.78
622.20	1392.40
622.55	1384.08
622.89	1376.13
623.24	1368.52
623.59	1361.06
623.93	1353.51
624.28	1346.32
624.62	1338.89
624.97	1331.59
625.32	1324.78
625.66	1317.68
626.01	1310.60
626.35	1303.26
626.70	1295.54
627.04	1287.77
627.39	1279.78
627.73	1272.30
628.08	1265.42
628.43	1258.29
628.77	1251.03
629.12	1243.55
629.46	1236.25
629.81	1228.75
630.15	1221.43
630.50	1213.98
630.84	1205.79
631.19	1197.81
631.53	1190.29
631.88	1182.75
632.22	1175.08
632.57	1167.77
632.91	1160.26
633.26	1152.81
633.60	1145.36
633.95	1138.24
634.29	1131.23
634.64	1124.68
634.98	1117.40
635.32	1110.29
635.67	1103.49
636.01	1096.78
636.36	1089.95
636.70	1083.44
637.05	1076.79
637.39	1070.40
637.73	1063.85
638.08	1058.02
638.42	1052.02
638.77	1045.59
639.11	1039.06
639.45	1032.66
639.80	1026.03
640.14	1019.66
640.49	1013.17
640.83	1006.84
641.17	1000.60
641.52	994.31
641.86	987.84
642.20	981.95
642.55	975.58
642.89	969.18
643.23	962.60
643.58	956.98
643.92	950.80
644.26	944.81
644.61	938.66
644.95	932.71
645.29	926.12
645.64	919.35
645.98	913.09
646.32	907.21
646.66	901.22
647.01	895.46
647.35	889.68
647.69	883.80
648.04	878.31
648.38	872.50
648.72	866.42
649.06	860.33
649.41	854.43
649.75	848.60
650.09	842.63
650.43	836.90
650.78	830.65
651.12	824.63
651.46	818.87
651.80	813.28
652.14	807.88
652.49	802.47
652.83	797.32
653.17	791.57
653.51	785.84
653.85	780.42
654.20	774.78
654.54	768.86
654.88	763.04
655.22	757.05
655.56	751.35
655.90	745.93
656.25	740.66
656.59	735.27
656.93	730.09
657.27	724.97
657.61	719.55
657.95	714.43
658.29	709.36
658.64	704.10
658.98	698.71
659.32	693.19
659.66	688.01
660.00	682.67
660.34	677.69
660.68	672.72
661.02	667.68
661.36	662.93
661.70	658.39
662.05	654.04
662.39	649.78
662.73	645.33
663.07	640.95
663.41	636.48
663.75	632.00
664.09	627.43
664.43	623.07
664.77	618.99
665.11	614.76
665.45	610.57
665.79	606.53
666.13	602.42
666.47	598.31
666.81	594.17
667.15	590.12
667.49	586.19
667.83	582.35
668.17	578.51
668.51	574.46
668.85	570.35
669.19	566.48
669.53	562.66
669.87	558.79
670.21	555.10
670.55	551.51
670.89	548.05
671.23	544.59
671.57	541.03
671.91	537.42
672.25	533.94
672.58	530.48
672.92	527.04
673.26	523.88
673.60	520.73
673.94	517.61
674.28	514.69
674.62	511.74
674.96	508.63
675.30	505.71
675.64	502.71
675.97	499.96
676.31	497.10
676.65	494.17
676.99	491.41
677.33	488.56
677.67	485.72
678.01	482.73
678.34	479.75
678.68	476.89
679.02	474.10
679.36	471.31
679.70	468.59
680.04	465.82
680.37	462.97
680.71	460.18
681.05	457.56
681.39	454.86
681.73	452.23
682.06	449.75
682.40	447.19
682.74	444.69
683.08	442.12
683.42	439.55
683.75	437.05
684.09	434.53
684.43	432.05
684.77	429.62
685.10	427.26
685.44	424.99
685.78	422.68
686.12	420.43
686.45	418.11
686.79	415.81
687.13	413.62
687.46	411.43
687.80	409.30
688.14	407.08
688.48	405.05
688.81	402.87
689.15	400.71
689.49	398.55
689.82	396.47
690.16	394.44
690.50	392.48
690.83	390.56
691.17	388.57
691.51	386.64
691.84	384.72
692.18	382.84
692.52	380.91
692.85	378.98
693.19	377.10
693.52	375.22
693.86	373.38
694.20	371.57
694.53	369.79
694.87	367.90
695.21	366.08
695.54	364.24
695.88	362.43
696.21	360.69
696.55	358.94
696.88	357.23
697.22	355.53
697.56	353.89
697.89	352.23
698.23	350.58
698.56	348.98
698.90	347.43
699.23	345.74
699.57	344.14
699.90	342.57
700.24	341.01
700.58	339.53
700.91	338.10
701.25	336.64
701.58	335.25
701.92	333.87
702.25	332.50
702.59	331.10
702.92	329.77
703.26	328.45
703.59	327.19
703.93	326.00
704.26	324.76
704.60	323.48
704.93	322.23
705.26	320.97
705.60	319.76
705.93	318.61
706.27	317.60
706.60	316.57
706.94	315.51
707.27	314.38
707.61	313.32
707.94	312.25
708.27	311.17
708.61	310.07
708.94	309.10
709.28	308.12
709.61	307.15
709.94	306.24
710.28	305.21
710.61	304.23
710.95	303.16
711.28	302.23
711.61	301.29
711.95	300.33
712.28	299.44
712.61	298.50
712.95	297.57
713.28	296.68
713.61	295.76
713.95	294.92
714.28	294.11
714.61	293.26
714.95	292.42
715.28	291.59
715.61	290.71
715.95	289.86
716.28	289.01
716.61	288.15
716.95	287.31
717.28	286.63
717.61	285.89
717.94	285.20
718.28	284.42
718.61	283.68
718.94	283.01
719.27	282.37
719.61	281.75
719.94	281.12
720.27	280.42
720.60	279.74
720.94	279.12
721.27	278.51
721.60	277.94
721.93	277.36
722.27	276.87
722.60	276.36
722.93	275.84
723.26	275.35
723.59	274.85
723.93	274.31
724.26	273.75
724.59	273.18
724.92	272.64
725.25	272.17
725.59	271.68
725.92	271.17
726.25	270.65
726.58	270.14
726.91	269.65
727.24	269.16
727.57	268.72
727.91	268.20
728.24	267.77
728.57	267.28
728.90	266.84
729.23	266.33
729.56	265.90
729.89	265.38
730.22	264.85
730.55	264.38
730.89	263.99
731.22	263.54
731.55	263.11
731.88	262.68
732.21	262.21
732.54	261.77
732.87	261.35
733.20	260.93
733.53	260.56
733.86	260.15
734.19	259.75
734.52	259.35
734.85	259.02
735.18	258.55
735.51	258.20
735.84	257.80
736.17	257.41
736.50	256.97
736.83	256.75
737.16	256.45
737.49	256.11
737.82	255.72
738.15	255.38
738.48	255.06
738.81	254.74
739.14	254.40
739.47	254.08
739.80	253.78
740.13	253.47
740.46	253.11
740.79	252.77
741.12	252.45
741.45	252.11
741.78	251.74
742.11	251.41
742.44	251.06
742.77	250.75
743.10	250.46
743.43	250.17
743.75	249.74
744.08	249.54
744.41	249.21
744.74	248.93
745.07	248.65
745.40	248.36
745.73	248.10
746.06	247.83
746.39	247.54
746.71	247.29
747.04	247.04
747.37	246.77
747.70	246.51
748.03	246.25
748.36	246.04
748.68	245.82
749.01	245.61
749.34	245.38
749.67	245.15
750.00	244.96
750.33	244.80
750.65	244.61
750.98	244.28
751.31	244.09
751.64	243.87
751.97	243.70
752.29	243.50
752.62	243.25
752.95	243.06
753.28	242.89
753.60	242.68
753.93	242.47
754.26	242.32
754.59	242.07
754.91	241.88
755.24	241.67
755.57	241.47
755.90	241.30
756.22	241.15
756.55	240.99
756.88	240.73
757.20	240.52
757.53	240.33
757.86	240.15
758.19	240.01
758.51	239.87
758.84	239.65
759.17	239.47
759.49	239.35
759.82	239.22
760.15	239.09
760.47	238.92
760.80	238.75
761.13	238.60
761.45	238.49
761.78	238.36
762.11	238.22
762.43	238.09
762.76	237.96
763.08	237.83
763.41	237.68
763.74	237.57
764.06	237.43
764.39	237.31
764.71	237.18
765.04	237.03
765.37	236.87
765.69	236.78
766.02	236.64
766.34	236.47
766.67	236.31
767.00	236.19
767.32	236.13
767.65	236.08
767.97	235.92
768.30	235.81
768.62	235.68
768.95	235.63
769.27	235.50
769.60	235.39
769.92	235.25
770.25	235.12
770.57	235.01
770.90	234.93
771.22	234.82
771.55	234.70
771.87	234.61
772.20	234.46
772.52	234.44
772.85	234.46
773.17	234.38
773.50	234.32
773.82	234.21
774.15	234.08
774.47	233.92
774.80	233.82
775.12	233.77
775.45	233.69
775.77	233.52
776.09	233.46
776.42	233.39
776.74	233.34
777.07	233.29
777.39	233.20
777.72	233.09
778.04	232.99
778.36	232.93
778.69	232.87
779.01	232.85
779.33	232.69
779.66	232.52
779.98	232.46
780.31	232.37
780.63	232.33
780.95	232.26
781.28	232.22
781.60	232.16
781.92	232.08
782.25	232.00
782.57	231.94
782.89	231.86
783.22	231.77
783.54	231.67
783.86	231.60
784.19	231.57
784.51	231.56
784.83	231.50
785.16	231.46
785.48	231.37
785.80	231.30
786.12	231.25
786.45	231.21
786.77	231.17
787.09	231.12
