SpectraSuite Data File
++++++++++++++++++++++++++++++++++++
Date: Fri Feb 01 17:40:09 EST 2013
User: group
Dark Spectrum Present: No
Reference Spectrum Present: No
Number of Sampled Component Spectra: 1
Spectrometers: USB2E7196
Integration Time (usec): 35000 (USB2E7196)
Spectra Averaged: 100 (USB2E7196)
Boxcar Smoothing: 10 (USB2E7196)
Correct for Electrical Dark: No (USB2E7196)
Strobe/Lamp Enabled: No (USB2E7196)
Correct for Detector Non-linearity: No (USB2E7196)
Correct for Stray Light: No (USB2E7196)
Number of Pixels in Processed Spectrum: 2048
>>>>>Begin Processed Spectral Data<<<<<
339.09	0.00
339.48	212.54
339.86	214.54
340.24	216.03
340.63	217.74
341.01	220.13
341.39	219.97
341.78	221.31
342.16	222.31
342.54	222.83
342.93	211.47
343.31	222.16
343.69	222.74
344.07	223.15
344.46	223.57
344.84	223.92
345.22	224.12
345.60	224.33
345.99	224.52
346.37	224.64
346.75	224.72
347.13	224.76
347.52	224.81
347.90	224.84
348.28	224.84
348.66	224.83
349.05	224.84
349.43	224.87
349.81	224.87
350.19	224.93
350.57	224.97
350.96	225.04
351.34	225.11
351.72	225.16
352.10	225.28
352.48	225.33
352.87	225.37
353.25	225.44
353.63	225.52
354.01	225.56
354.39	225.65
354.77	225.71
355.15	225.81
355.54	225.85
355.92	225.89
356.30	225.98
356.68	226.11
357.06	226.18
357.44	226.21
357.82	226.31
358.20	226.35
358.58	226.40
358.97	226.45
359.35	226.52
359.73	226.58
360.11	226.65
360.49	226.73
360.87	226.76
361.25	226.85
361.63	226.92
362.01	226.94
362.39	226.92
362.77	227.00
363.15	227.05
363.53	227.07
363.91	227.11
364.29	227.12
364.67	227.06
365.05	227.06
365.43	227.11
365.81	227.13
366.19	227.16
366.57	227.19
366.95	227.18
367.33	227.15
367.71	227.14
368.09	227.12
368.47	227.12
368.85	227.14
369.23	227.12
369.61	227.09
369.99	227.13
370.37	227.16
370.75	227.14
371.13	227.08
371.51	227.05
371.89	227.00
372.27	226.98
372.65	226.96
373.03	226.93
373.41	226.87
373.78	226.82
374.16	226.75
374.54	226.69
374.92	226.63
375.30	226.60
375.68	226.53
376.06	226.49
376.44	226.40
376.82	226.35
377.19	226.31
377.57	226.24
377.95	226.19
378.33	226.14
378.71	226.06
379.09	226.03
379.47	226.02
379.84	225.99
380.22	225.92
380.60	225.83
380.98	225.83
381.36	225.76
381.73	225.67
382.11	225.64
382.49	225.60
382.87	225.56
383.25	225.48
383.62	225.54
384.00	225.50
384.38	225.44
384.76	225.39
385.13	225.35
385.51	225.31
385.89	225.21
386.27	225.14
386.64	225.10
387.02	225.04
387.40	224.97
387.78	224.92
388.15	224.93
388.53	224.89
388.91	224.79
389.29	224.75
389.66	224.75
390.04	224.70
390.42	224.66
390.79	224.64
391.17	224.62
391.55	224.51
391.92	224.45
392.30	224.45
392.68	224.45
393.05	224.42
393.43	224.45
393.81	224.43
394.18	224.43
394.56	224.43
394.94	224.46
395.31	224.46
395.69	224.51
396.06	224.52
396.44	224.57
396.82	224.60
397.19	224.69
397.57	224.71
397.95	224.76
398.32	224.77
398.70	224.80
399.07	224.87
399.45	224.92
399.82	224.99
400.20	225.04
400.58	225.06
400.95	225.12
401.33	225.18
401.70	225.36
402.08	225.42
402.45	225.49
402.83	225.59
403.20	225.66
403.58	225.74
403.95	225.83
404.33	225.92
404.71	226.06
405.08	226.20
405.46	226.31
405.83	226.44
406.21	226.61
406.58	226.76
406.96	226.94
407.33	227.09
407.70	227.29
408.08	227.55
408.45	227.78
408.83	227.99
409.20	228.18
409.58	228.35
409.95	228.63
410.33	228.91
410.70	229.15
411.08	229.46
411.45	229.78
411.82	230.12
412.20	230.52
412.57	230.94
412.95	231.26
413.32	231.72
413.69	232.19
414.07	232.64
414.44	233.17
414.82	233.67
415.19	234.30
415.56	234.87
415.94	235.45
416.31	236.15
416.68	236.85
417.06	237.63
417.43	238.36
417.81	239.22
418.18	240.08
418.55	240.99
418.93	241.98
419.30	242.95
419.67	243.97
420.04	244.98
420.42	246.05
420.79	247.33
421.16	248.54
421.54	249.85
421.91	251.22
422.28	252.59
422.66	254.06
423.03	255.47
423.40	256.94
423.77	258.49
424.15	260.05
424.52	261.70
424.89	263.46
425.26	265.17
425.64	266.74
426.01	268.50
426.38	270.33
426.75	272.11
427.13	274.02
427.50	275.94
427.87	278.02
428.24	280.03
428.61	281.95
428.99	284.09
429.36	286.34
429.73	288.56
430.10	290.73
430.47	292.96
430.85	295.27
431.22	297.71
431.59	300.31
431.96	302.73
432.33	305.38
432.70	307.96
433.08	311.03
433.45	313.90
433.82	316.66
434.19	319.78
434.56	322.89
434.93	325.77
435.30	328.68
435.68	331.82
436.05	334.95
436.42	338.01
436.79	340.74
437.16	343.68
437.53	346.76
437.90	349.85
438.27	352.86
438.64	355.95
439.01	358.73
439.38	361.17
439.75	363.51
440.13	366.21
440.50	368.79
440.87	370.83
441.24	372.96
441.61	375.36
441.98	377.01
442.35	379.00
442.72	381.00
443.09	382.98
443.46	384.10
443.83	384.70
444.20	385.23
444.57	386.18
444.94	386.48
445.31	386.86
445.68	387.23
446.05	387.32
446.42	386.89
446.79	386.51
447.16	386.03
447.53	385.77
447.90	384.58
448.27	383.31
448.64	381.54
449.01	380.30
449.37	378.20
449.74	376.14
450.11	373.65
450.48	370.99
450.85	368.19
451.22	365.84
451.59	363.67
451.96	361.59
452.33	358.75
452.70	356.24
453.07	353.19
453.43	350.05
453.80	347.02
454.17	344.13
454.54	341.35
454.91	338.34
455.28	335.42
455.65	332.71
456.02	330.03
456.38	327.73
456.75	324.83
457.12	322.34
457.49	319.91
457.86	317.55
458.23	315.53
458.59	313.33
458.96	311.07
459.33	309.05
459.70	307.02
460.07	305.35
460.43	303.48
460.80	301.70
461.17	300.16
461.54	298.58
461.91	297.02
462.27	295.44
462.64	294.12
463.01	292.69
463.38	291.30
463.74	289.87
464.11	288.58
464.48	287.47
464.85	286.27
465.21	285.34
465.58	284.35
465.95	283.19
466.32	282.24
466.68	281.25
467.05	280.28
467.42	279.33
467.78	278.34
468.15	277.40
468.52	276.68
468.88	275.77
469.25	274.93
469.62	274.25
469.98	273.54
470.35	272.83
470.72	272.14
471.08	271.40
471.45	270.77
471.82	270.17
472.18	269.51
472.55	269.03
472.92	268.46
473.28	267.94
473.65	267.46
474.02	266.95
474.38	266.54
474.75	266.18
475.11	265.81
475.48	265.47
475.85	265.21
476.21	264.95
476.58	264.73
476.94	264.56
477.31	264.36
477.67	264.19
478.04	264.07
478.41	263.96
478.77	264.02
479.14	263.93
479.50	263.95
479.87	264.07
480.23	264.14
480.60	264.19
480.96	264.29
481.33	264.47
481.69	264.67
482.06	264.87
482.42	265.03
482.79	265.24
483.15	265.58
483.52	265.94
483.88	266.26
484.25	266.60
484.61	266.99
484.98	267.43
485.34	267.99
485.71	268.57
486.07	269.20
486.44	269.73
486.80	270.45
487.17	271.12
487.53	271.86
487.90	272.71
488.26	273.64
488.62	274.60
488.99	275.55
489.35	276.59
489.72	277.69
490.08	278.91
490.44	280.17
490.81	281.46
491.17	282.83
491.54	284.30
491.90	285.86
492.26	287.50
492.63	289.23
492.99	291.01
493.36	292.86
493.72	294.89
494.08	296.97
494.45	299.16
494.81	301.58
495.17	304.03
495.54	306.57
495.90	309.27
496.26	312.05
496.63	315.01
496.99	318.15
497.35	321.39
497.72	324.81
498.08	328.31
498.44	331.98
498.80	335.88
499.17	339.89
499.53	344.04
499.89	348.44
500.26	352.94
500.62	357.53
500.98	362.46
501.34	367.53
501.71	372.85
502.07	378.33
502.43	383.89
502.79	389.61
503.16	395.62
503.52	401.84
503.88	408.27
504.24	414.84
504.60	421.63
504.97	428.74
505.33	435.94
505.69	443.61
506.05	451.38
506.41	459.15
506.78	467.30
507.14	475.69
507.50	484.30
507.86	493.25
508.22	502.37
508.59	511.55
508.95	521.05
509.31	530.78
509.67	540.74
510.03	550.92
510.39	561.45
510.75	572.12
511.12	582.85
511.48	593.97
511.84	605.30
512.20	616.74
512.56	628.50
512.92	640.58
513.28	652.83
513.64	665.04
514.00	677.58
514.37	690.34
514.73	703.16
515.09	716.03
515.45	729.20
515.81	742.66
516.17	756.46
516.53	770.29
516.89	784.33
517.25	798.38
517.61	812.60
517.97	826.84
518.33	841.14
518.69	855.79
519.05	870.59
519.41	885.51
519.77	900.78
520.13	916.11
520.49	931.27
520.85	946.45
521.21	961.89
521.57	977.94
521.93	993.53
522.29	1009.70
522.65	1025.83
523.01	1041.73
523.37	1057.46
523.73	1073.44
524.09	1089.43
524.45	1105.32
524.81	1121.67
525.17	1138.18
525.53	1154.81
525.89	1171.48
526.25	1188.16
526.61	1204.31
526.97	1220.90
527.33	1237.23
527.68	1253.50
528.04	1269.85
528.40	1286.21
528.76	1303.24
529.12	1319.66
529.48	1336.40
529.84	1352.33
530.20	1368.64
530.56	1385.54
530.91	1402.85
531.27	1419.63
531.63	1435.92
531.99	1452.52
532.35	1468.60
532.71	1484.46
533.07	1500.77
533.42	1516.65
533.78	1532.66
534.14	1549.01
534.50	1564.29
534.86	1580.08
535.21	1595.31
535.57	1611.14
535.93	1626.67
536.29	1641.49
536.65	1656.62
537.00	1671.40
537.36	1686.85
537.72	1701.56
538.08	1716.04
538.44	1729.93
538.79	1743.81
539.15	1757.49
539.51	1771.36
539.87	1785.66
540.22	1799.48
540.58	1813.30
540.94	1826.67
541.29	1839.65
541.65	1852.55
542.01	1866.00
542.37	1878.59
542.72	1891.22
543.08	1903.36
543.44	1916.08
543.79	1927.54
544.15	1938.73
544.51	1950.61
544.87	1961.73
545.22	1972.96
545.58	1983.59
545.94	1993.74
546.29	2003.95
546.65	2014.42
547.01	2024.07
547.36	2033.25
547.72	2042.21
548.07	2050.63
548.43	2059.15
548.79	2067.45
549.14	2075.40
549.50	2083.05
549.86	2091.17
550.21	2099.00
550.57	2106.77
550.92	2113.83
551.28	2121.39
551.64	2128.95
551.99	2136.00
552.35	2142.78
552.70	2149.31
553.06	2155.80
553.41	2162.72
553.77	2169.00
554.13	2175.42
554.48	2181.99
554.84	2188.26
555.19	2194.00
555.55	2199.57
555.90	2204.69
556.26	2210.45
556.61	2215.60
556.97	2220.62
557.32	2225.34
557.68	2230.12
558.03	2234.65
558.39	2238.78
558.74	2243.96
559.10	2248.52
559.45	2252.66
559.81	2257.32
560.16	2261.59
560.52	2265.43
560.87	2269.31
561.23	2272.72
561.58	2276.04
561.94	2279.21
562.29	2281.91
562.64	2285.36
563.00	2288.68
563.35	2292.68
563.71	2296.18
564.06	2299.75
564.42	2303.30
564.77	2306.41
565.12	2309.29
565.48	2311.98
565.83	2314.37
566.19	2316.43
566.54	2317.70
566.89	2319.39
567.25	2320.74
567.60	2322.65
567.96	2324.89
568.31	2326.33
568.66	2328.01
569.02	2329.34
569.37	2330.16
569.72	2331.37
570.08	2331.94
570.43	2332.21
570.78	2332.29
571.14	2331.24
571.49	2330.44
571.84	2330.27
572.20	2329.64
572.55	2328.91
572.90	2327.66
573.26	2326.84
573.61	2325.38
573.96	2324.27
574.31	2321.66
574.67	2318.96
575.02	2315.70
575.37	2312.60
575.72	2309.36
576.08	2306.20
576.43	2303.11
576.78	2300.08
577.13	2297.19
577.49	2294.24
577.84	2291.19
578.19	2287.55
578.54	2284.43
578.90	2280.84
579.25	2275.78
579.60	2271.19
579.95	2266.59
580.30	2261.81
580.66	2256.96
581.01	2252.24
581.36	2247.38
581.71	2243.80
582.06	2239.99
582.42	2235.92
582.77	2231.06
583.12	2226.54
583.47	2222.38
583.82	2217.73
584.17	2212.51
584.53	2207.42
584.88	2202.22
585.23	2196.80
585.58	2191.57
585.93	2186.23
586.28	2181.32
586.63	2176.56
586.98	2171.61
587.34	2167.00
587.69	2162.36
588.04	2157.30
588.39	2151.74
588.74	2145.38
589.09	2139.17
589.44	2132.37
589.79	2126.26
590.14	2120.53
590.49	2114.02
590.84	2107.43
591.19	2101.42
591.54	2095.17
591.89	2088.00
592.25	2081.44
592.60	2074.18
592.95	2066.80
593.30	2059.55
593.65	2052.12
594.00	2044.92
594.35	2037.61
594.70	2029.46
595.05	2022.42
595.40	2015.03
595.75	2007.64
596.10	2001.66
596.45	1995.07
596.80	1988.70
597.15	1982.21
597.50	1975.36
597.85	1968.91
598.19	1962.50
598.54	1955.66
598.89	1948.97
599.24	1942.89
599.59	1936.37
599.94	1930.03
600.29	1923.66
600.64	1916.84
600.99	1909.45
601.34	1902.64
601.69	1895.53
602.04	1888.78
602.39	1881.30
602.74	1874.40
603.08	1867.66
603.43	1860.68
603.78	1853.19
604.13	1845.98
604.48	1838.65
604.83	1831.79
605.18	1824.91
605.53	1816.70
605.87	1808.46
606.22	1801.01
606.57	1792.88
606.92	1784.97
607.27	1777.87
607.62	1770.84
607.96	1763.62
608.31	1756.99
608.66	1749.30
609.01	1741.74
609.36	1734.06
609.70	1725.87
610.05	1717.73
610.40	1709.75
610.75	1701.48
611.10	1693.67
611.44	1684.93
611.79	1676.64
612.14	1667.55
612.49	1657.94
612.83	1649.27
613.18	1640.85
613.53	1632.44
613.88	1623.75
614.22	1615.27
614.57	1606.18
614.92	1597.91
615.27	1590.23
615.61	1581.63
615.96	1573.28
616.31	1565.28
616.65	1557.43
617.00	1549.64
617.35	1541.71
617.70	1533.24
618.04	1524.35
618.39	1515.60
618.74	1507.85
619.08	1499.27
619.43	1491.39
619.78	1484.28
620.12	1477.09
620.47	1469.39
620.82	1460.94
621.16	1453.07
621.51	1445.18
621.85	1437.33
622.20	1428.43
622.55	1419.61
622.89	1411.33
623.24	1403.46
623.59	1395.57
623.93	1387.73
624.28	1380.07
624.62	1372.25
624.97	1364.65
625.32	1357.41
625.66	1350.25
626.01	1342.83
626.35	1335.32
626.70	1327.26
627.04	1319.34
627.39	1311.08
627.73	1303.20
628.08	1296.06
628.43	1288.72
628.77	1281.18
629.12	1273.51
629.46	1266.20
629.81	1258.26
630.15	1250.72
630.50	1242.95
630.84	1234.77
631.19	1226.79
631.53	1218.97
631.88	1211.06
632.22	1203.22
632.57	1195.79
632.91	1187.95
633.26	1180.27
633.60	1172.47
633.95	1165.05
634.29	1157.61
634.64	1150.54
634.98	1142.94
635.32	1135.62
635.67	1128.65
636.01	1121.72
636.36	1114.64
636.70	1107.77
637.05	1101.14
637.39	1094.51
637.73	1087.88
638.08	1081.74
638.42	1075.46
638.77	1068.93
639.11	1062.14
639.45	1055.63
639.80	1048.87
640.14	1042.28
640.49	1035.58
640.83	1028.98
641.17	1022.63
641.52	1016.23
641.86	1009.70
642.20	1003.71
642.55	996.96
642.89	990.44
643.23	983.61
643.58	977.60
643.92	971.31
644.26	965.28
644.61	959.04
644.95	952.77
645.29	946.01
645.64	939.08
645.98	932.49
646.32	926.43
646.66	920.14
647.01	914.02
647.35	908.17
647.69	902.09
648.04	896.43
648.38	890.51
648.72	884.41
649.06	878.27
649.41	872.17
649.75	866.27
650.09	860.07
650.43	854.22
650.78	847.93
651.12	841.79
651.46	835.76
651.80	829.98
652.14	824.48
652.49	819.00
652.83	813.71
653.17	807.97
653.51	802.20
653.85	796.66
654.20	790.95
654.54	784.82
654.88	778.96
655.22	772.93
655.56	767.01
655.90	761.30
656.25	755.87
656.59	750.42
656.93	745.13
657.27	739.95
657.61	734.30
657.95	729.04
658.29	723.73
658.64	718.23
658.98	712.70
659.32	707.09
659.66	701.74
660.00	696.31
660.34	691.24
660.68	686.21
661.02	681.00
661.36	676.20
661.70	671.53
662.05	667.03
662.39	662.57
662.73	658.03
663.07	653.50
663.41	648.89
663.75	644.30
664.09	639.62
664.43	635.01
664.77	630.83
665.11	626.49
665.45	622.24
665.79	618.16
666.13	613.93
666.47	609.67
666.81	605.42
667.15	601.12
667.49	597.03
667.83	592.98
668.17	588.95
668.51	584.79
668.85	580.60
669.19	576.54
669.53	572.63
669.87	568.64
670.21	564.79
670.55	561.07
670.89	557.54
671.23	553.97
671.57	550.31
671.91	546.67
672.25	543.06
672.58	539.50
672.92	535.95
673.26	532.61
673.60	529.40
673.94	526.21
674.28	523.25
674.62	520.22
674.96	517.09
675.30	514.12
675.64	511.06
675.97	508.17
676.31	505.24
676.65	502.18
676.99	499.37
677.33	496.45
677.67	493.51
678.01	490.38
678.34	487.39
678.68	484.45
679.02	481.55
679.36	478.67
679.70	475.87
680.04	473.04
680.37	470.20
680.71	467.25
681.05	464.49
681.39	461.64
681.73	458.89
682.06	456.30
682.40	453.73
682.74	451.10
683.08	448.55
683.42	445.89
683.75	443.39
684.09	440.73
684.43	438.20
684.77	435.73
685.10	433.30
685.44	430.85
685.78	428.46
686.12	426.11
686.45	423.78
686.79	421.44
687.13	419.17
687.46	416.88
687.80	414.71
688.14	412.44
688.48	410.29
688.81	408.06
689.15	405.84
689.49	403.50
689.82	401.34
690.16	399.14
690.50	397.09
690.83	395.07
691.17	393.06
691.51	391.10
691.84	389.17
692.18	387.24
692.52	385.23
692.85	383.29
693.19	381.37
693.52	379.48
693.86	377.57
694.20	375.72
694.53	373.90
694.87	371.98
695.21	370.10
695.54	368.30
695.88	366.48
696.21	364.68
696.55	363.01
696.88	361.30
697.22	359.57
697.56	357.91
697.89	356.20
698.23	354.53
698.56	352.86
698.90	351.21
699.23	349.53
699.57	347.90
699.90	346.28
700.24	344.68
700.58	343.13
700.91	341.65
701.25	340.13
701.58	338.75
701.92	337.34
702.25	335.94
702.59	334.48
702.92	333.08
703.26	331.74
703.59	330.42
703.93	329.18
704.26	327.95
704.60	326.60
704.93	325.29
705.26	324.00
705.60	322.79
705.93	321.58
706.27	320.44
706.60	319.38
706.94	318.26
707.27	317.09
707.61	315.91
707.94	314.78
708.27	313.66
708.61	312.48
708.94	311.43
709.28	310.38
709.61	309.35
709.94	308.42
710.28	307.41
710.61	306.34
710.95	305.16
711.28	304.17
711.61	303.19
711.95	302.22
712.28	301.25
712.61	300.21
712.95	299.24
713.28	298.30
713.61	297.35
713.95	296.44
714.28	295.55
714.61	294.69
714.95	293.81
715.28	292.91
715.61	292.00
715.95	291.10
716.28	290.16
716.61	289.23
716.95	288.29
717.28	287.46
717.61	286.66
717.94	285.94
718.28	285.10
718.61	284.33
718.94	283.59
719.27	282.91
719.61	282.21
719.94	281.49
720.27	280.77
720.60	280.08
720.94	279.40
721.27	278.75
721.60	278.14
721.93	277.49
722.27	276.92
722.60	276.33
722.93	275.73
723.26	275.23
723.59	274.72
723.93	274.16
724.26	273.59
724.59	272.99
724.92	272.45
725.25	271.92
725.59	271.37
725.92	270.86
726.25	270.31
726.58	269.80
726.91	269.31
727.24	268.83
727.57	268.30
727.91	267.75
728.24	267.30
728.57	266.80
728.90	266.34
729.23	265.80
729.56	265.37
729.89	264.90
730.22	264.37
730.55	263.87
730.89	263.43
731.22	262.95
731.55	262.51
731.88	262.06
732.21	261.63
732.54	261.21
732.87	260.73
733.20	260.32
733.53	259.91
733.86	259.53
734.19	259.15
734.52	258.79
734.85	258.51
735.18	258.09
735.51	257.70
735.84	257.32
736.17	257.02
736.50	256.59
736.83	256.33
737.16	256.02
737.49	255.69
737.82	255.33
738.15	254.99
738.48	254.64
738.81	254.33
739.14	254.00
739.47	253.69
739.80	253.38
740.13	253.08
740.46	252.78
740.79	252.40
741.12	252.06
741.45	251.74
741.78	251.36
742.11	251.06
742.44	250.74
742.77	250.45
743.10	250.09
743.43	249.78
743.75	249.37
744.08	249.17
744.41	248.88
744.74	248.66
745.07	248.38
745.40	248.14
745.73	247.88
746.06	247.60
746.39	247.33
746.71	247.04
747.04	246.73
747.37	246.42
747.70	246.21
748.03	245.93
748.36	245.64
748.68	245.40
749.01	245.09
749.34	244.87
749.67	244.58
750.00	244.35
750.33	244.19
750.65	243.97
750.98	243.60
751.31	243.34
751.64	243.07
751.97	242.87
752.29	242.64
752.62	242.37
752.95	242.16
753.28	241.91
753.60	241.69
753.93	241.52
754.26	241.33
754.59	241.07
754.91	240.84
755.24	240.66
755.57	240.45
755.90	240.25
756.22	240.06
756.55	239.89
756.88	239.66
757.20	239.39
757.53	239.18
757.86	239.01
758.19	238.85
758.51	238.65
758.84	238.46
759.17	238.24
759.49	238.04
759.82	237.90
760.15	237.74
760.47	237.59
760.80	237.41
761.13	237.26
761.45	237.09
761.78	236.93
762.11	236.77
762.43	236.63
762.76	236.47
763.08	236.33
763.41	236.16
763.74	236.04
764.06	235.90
764.39	235.76
764.71	235.63
765.04	235.47
765.37	235.34
765.69	235.18
766.02	235.06
766.34	234.96
766.67	234.77
767.00	234.64
767.32	234.56
767.65	234.51
767.97	234.39
768.30	234.30
768.62	234.21
768.95	234.08
769.27	233.95
769.60	233.87
769.92	233.76
770.25	233.69
770.57	233.55
770.90	233.47
771.22	233.37
771.55	233.28
771.87	233.20
772.20	233.10
772.52	233.08
772.85	233.14
773.17	233.03
773.50	232.93
773.82	232.83
774.15	232.72
774.47	232.55
774.80	232.44
775.12	232.31
775.45	232.22
775.77	232.14
776.09	232.07
776.42	232.00
776.74	231.92
777.07	231.83
777.39	231.76
777.72	231.69
778.04	231.60
778.36	231.53
778.69	231.47
779.01	231.38
779.33	231.21
779.66	231.00
779.98	230.95
780.31	230.94
780.63	230.91
780.95	230.84
781.28	230.80
781.60	230.73
781.92	230.68
782.25	230.63
782.57	230.57
782.89	230.48
783.22	230.39
783.54	230.30
783.86	230.21
784.19	230.14
784.51	230.13
784.83	230.04
785.16	229.97
785.48	229.91
785.80	229.90
786.12	229.91
786.45	229.87
786.77	229.81
