SpectraSuite Data File
++++++++++++++++++++++++++++++++++++
Date: Fri Feb 01 17:40:32 EST 2013
User: group
Dark Spectrum Present: No
Reference Spectrum Present: No
Number of Sampled Component Spectra: 1
Spectrometers: USB2E7196
Integration Time (usec): 35000 (USB2E7196)
Spectra Averaged: 100 (USB2E7196)
Boxcar Smoothing: 10 (USB2E7196)
Correct for Electrical Dark: No (USB2E7196)
Strobe/Lamp Enabled: No (USB2E7196)
Correct for Detector Non-linearity: No (USB2E7196)
Correct for Stray Light: No (USB2E7196)
Number of Pixels in Processed Spectrum: 2048
>>>>>Begin Processed Spectral Data<<<<<
339.09	0.00
339.48	212.37
339.86	214.29
340.24	215.27
340.63	216.66
341.01	219.44
341.39	218.99
341.78	221.34
342.16	222.15
342.54	222.45
342.93	210.89
343.31	221.56
343.69	222.12
344.07	222.60
344.46	223.03
344.84	223.41
345.22	223.64
345.60	223.90
345.99	224.07
346.37	224.19
346.75	224.26
347.13	224.33
347.52	224.41
347.90	224.45
348.28	224.46
348.66	224.51
349.05	224.52
349.43	224.58
349.81	224.64
350.19	224.68
350.57	224.76
350.96	224.84
351.34	224.92
351.72	224.98
352.10	225.03
352.48	225.10
352.87	225.16
353.25	225.25
353.63	225.32
354.01	225.41
354.39	225.50
354.77	225.62
355.15	225.74
355.54	225.83
355.92	225.89
356.30	225.98
356.68	226.13
357.06	226.22
357.44	226.27
357.82	226.34
358.20	226.42
358.58	226.50
358.97	226.57
359.35	226.67
359.73	226.79
360.11	226.89
360.49	226.96
360.87	227.00
361.25	227.08
361.63	227.16
362.01	227.23
362.39	227.25
362.77	227.31
363.15	227.36
363.53	227.40
363.91	227.44
364.29	227.48
364.67	227.40
365.05	227.43
365.43	227.47
365.81	227.49
366.19	227.54
366.57	227.59
366.95	227.60
367.33	227.55
367.71	227.54
368.09	227.48
368.47	227.46
368.85	227.47
369.23	227.45
369.61	227.39
369.99	227.38
370.37	227.37
370.75	227.38
371.13	227.31
371.51	227.26
371.89	227.25
372.27	227.22
372.65	227.20
373.03	227.16
373.41	227.09
373.78	227.07
374.16	226.98
374.54	226.91
374.92	226.83
375.30	226.78
375.68	226.70
376.06	226.72
376.44	226.66
376.82	226.60
377.19	226.55
377.57	226.49
377.95	226.36
378.33	226.28
378.71	226.15
379.09	226.11
379.47	226.05
379.84	225.95
380.22	225.88
380.60	225.82
380.98	225.74
381.36	225.69
381.73	225.59
382.11	225.56
382.49	225.50
382.87	225.44
383.25	225.38
383.62	225.44
384.00	225.32
384.38	225.31
384.76	225.27
385.13	225.23
385.51	225.22
385.89	225.19
386.27	225.13
386.64	225.11
387.02	225.01
387.40	224.99
387.78	224.97
388.15	224.88
388.53	224.81
388.91	224.80
389.29	224.76
389.66	224.73
390.04	224.65
390.42	224.62
390.79	224.60
391.17	224.56
391.55	224.48
391.92	224.47
392.30	224.46
392.68	224.42
393.05	224.41
393.43	224.39
393.81	224.40
394.18	224.36
394.56	224.35
394.94	224.38
395.31	224.38
395.69	224.39
396.06	224.46
396.44	224.50
396.82	224.49
397.19	224.54
397.57	224.56
397.95	224.63
398.32	224.66
398.70	224.72
399.07	224.77
399.45	224.81
399.82	224.86
400.20	224.88
400.58	224.96
400.95	224.97
401.33	225.04
401.70	225.16
402.08	225.29
402.45	225.38
402.83	225.50
403.20	225.61
403.58	225.72
403.95	225.83
404.33	225.96
404.71	226.10
405.08	226.30
405.46	226.44
405.83	226.60
406.21	226.73
406.58	226.89
406.96	227.08
407.33	227.26
407.70	227.46
408.08	227.75
408.45	227.99
408.83	228.25
409.20	228.48
409.58	228.69
409.95	228.96
410.33	229.24
410.70	229.50
411.08	229.79
411.45	230.10
411.82	230.43
412.20	230.78
412.57	231.22
412.95	231.54
413.32	232.01
413.69	232.43
414.07	232.92
414.44	233.43
414.82	233.94
415.19	234.54
415.56	235.13
415.94	235.74
416.31	236.40
416.68	237.07
417.06	237.86
417.43	238.60
417.81	239.45
418.18	240.33
418.55	241.27
418.93	242.24
419.30	243.25
419.67	244.30
420.04	245.39
420.42	246.47
420.79	247.78
421.16	249.01
421.54	250.32
421.91	251.67
422.28	253.06
422.66	254.54
423.03	255.97
423.40	257.43
423.77	258.96
424.15	260.57
424.52	262.25
424.89	264.04
425.26	265.70
425.64	267.28
426.01	269.02
426.38	270.83
426.75	272.68
427.13	274.58
427.50	276.55
427.87	278.66
428.24	280.73
428.61	282.64
428.99	284.79
429.36	287.10
429.73	289.34
430.10	291.56
430.47	293.86
430.85	296.17
431.22	298.66
431.59	301.30
431.96	303.75
432.33	306.47
432.70	309.07
433.08	312.19
433.45	315.13
433.82	318.00
434.19	321.21
434.56	324.32
434.93	327.22
435.30	330.10
435.68	333.25
436.05	336.33
436.42	339.40
436.79	342.20
437.16	345.14
437.53	348.27
437.90	351.39
438.27	354.39
438.64	357.52
439.01	360.33
439.38	362.77
439.75	365.16
440.13	367.88
440.50	370.45
440.87	372.50
441.24	374.67
441.61	376.99
441.98	378.62
442.35	380.62
442.72	382.69
443.09	384.74
443.46	385.80
443.83	386.51
444.20	387.11
444.57	387.99
444.94	388.39
445.31	388.82
445.68	389.19
446.05	389.27
446.42	388.87
446.79	388.42
447.16	387.96
447.53	387.63
447.90	386.43
448.27	385.14
448.64	383.44
449.01	382.20
449.37	380.12
449.74	378.04
450.11	375.55
450.48	372.84
450.85	370.08
451.22	367.75
451.59	365.54
451.96	363.41
452.33	360.57
452.70	357.99
453.07	354.84
453.43	351.70
453.80	348.68
454.17	345.76
454.54	342.96
454.91	339.97
455.28	337.03
455.65	334.29
456.02	331.60
456.38	329.23
456.75	326.26
457.12	323.78
457.49	321.32
457.86	318.95
458.23	316.90
458.59	314.57
458.96	312.27
459.33	310.14
459.70	308.10
460.07	306.45
460.43	304.49
460.80	302.70
461.17	301.10
461.54	299.45
461.91	297.84
462.27	296.26
462.64	294.87
463.01	293.39
463.38	291.95
463.74	290.47
464.11	289.15
464.48	288.01
464.85	286.77
465.21	285.82
465.58	284.77
465.95	283.56
466.32	282.57
466.68	281.59
467.05	280.65
467.42	279.65
467.78	278.64
468.15	277.71
468.52	276.95
468.88	275.96
469.25	275.07
469.62	274.42
469.98	273.66
470.35	272.94
470.72	272.22
471.08	271.49
471.45	270.90
471.82	270.33
472.18	269.68
472.55	269.21
472.92	268.61
473.28	268.10
473.65	267.61
474.02	267.12
474.38	266.69
474.75	266.35
475.11	265.96
475.48	265.62
475.85	265.34
476.21	265.13
476.58	264.97
476.94	264.78
477.31	264.57
477.67	264.42
478.04	264.31
478.41	264.26
478.77	264.27
479.14	264.18
479.50	264.18
479.87	264.24
480.23	264.29
480.60	264.34
480.96	264.45
481.33	264.65
481.69	264.83
482.06	265.02
482.42	265.15
482.79	265.41
483.15	265.74
483.52	266.06
483.88	266.38
484.25	266.74
484.61	267.16
484.98	267.57
485.34	268.10
485.71	268.69
486.07	269.28
486.44	269.82
486.80	270.49
487.17	271.18
487.53	271.99
487.90	272.83
488.26	273.77
488.62	274.72
488.99	275.70
489.35	276.73
489.72	277.86
490.08	279.10
490.44	280.33
490.81	281.67
491.17	283.08
491.54	284.54
491.90	286.07
492.26	287.75
492.63	289.51
492.99	291.31
493.36	293.19
493.72	295.23
494.08	297.34
494.45	299.56
494.81	301.96
495.17	304.37
495.54	306.94
495.90	309.61
496.26	312.37
496.63	315.31
496.99	318.43
497.35	321.67
497.72	325.04
498.08	328.55
498.44	332.21
498.80	336.14
499.17	340.18
499.53	344.37
499.89	348.74
500.26	353.26
500.62	357.91
500.98	362.87
501.34	367.95
501.71	373.23
502.07	378.72
502.43	384.27
502.79	390.08
503.16	396.14
503.52	402.41
503.88	408.85
504.24	415.46
504.60	422.31
504.97	429.38
505.33	436.74
505.69	444.41
506.05	452.19
506.41	460.03
506.78	468.10
507.14	476.56
507.50	485.19
507.86	494.13
508.22	503.32
508.59	512.51
508.95	522.08
509.31	531.91
509.67	541.96
510.03	552.21
510.39	562.79
510.75	573.53
511.12	584.39
511.48	595.63
511.84	607.09
512.20	618.52
512.56	630.38
512.92	642.41
513.28	654.68
513.64	667.13
514.00	679.72
514.37	692.62
514.73	705.51
515.09	718.36
515.45	731.48
515.81	744.92
516.17	758.70
516.53	772.65
516.89	786.70
517.25	800.78
517.61	815.05
517.97	829.37
518.33	843.73
518.69	858.45
519.05	873.22
519.41	888.28
519.77	903.69
520.13	919.03
520.49	934.45
520.85	949.69
521.21	965.14
521.57	981.29
521.93	996.93
522.29	1013.22
522.65	1029.54
523.01	1045.65
523.37	1061.60
523.73	1077.70
524.09	1093.80
524.45	1110.00
524.81	1126.54
525.17	1143.26
525.53	1159.98
525.89	1176.66
526.25	1193.46
526.61	1209.94
526.97	1226.58
527.33	1242.95
527.68	1259.44
528.04	1275.80
528.40	1292.29
528.76	1309.31
529.12	1325.90
529.48	1342.74
529.84	1358.73
530.20	1375.27
530.56	1392.22
530.91	1409.56
531.27	1426.47
531.63	1442.86
531.99	1459.43
532.35	1475.50
532.71	1491.52
533.07	1507.87
533.42	1524.00
533.78	1540.05
534.14	1556.27
534.50	1571.72
534.86	1587.80
535.21	1603.25
535.57	1619.15
535.93	1634.76
536.29	1649.69
536.65	1664.87
537.00	1679.81
537.36	1695.27
537.72	1709.96
538.08	1724.71
538.44	1738.86
538.79	1752.90
539.15	1766.80
539.51	1780.78
539.87	1795.30
540.22	1809.15
540.58	1823.13
540.94	1836.47
541.29	1849.54
541.65	1862.67
542.01	1876.24
542.37	1889.01
542.72	1901.71
543.08	1914.02
543.44	1926.82
543.79	1938.69
544.15	1950.07
544.51	1962.08
544.87	1973.41
545.22	1984.81
545.58	1995.41
545.94	2005.55
546.29	2015.93
546.65	2026.33
547.01	2036.13
547.36	2045.41
547.72	2054.52
548.07	2063.01
548.43	2071.89
548.79	2080.22
549.14	2088.27
549.50	2095.98
549.86	2103.92
550.21	2111.77
550.57	2119.54
550.92	2126.79
551.28	2134.36
551.64	2142.07
551.99	2149.15
552.35	2156.05
552.70	2162.73
553.06	2169.26
553.41	2176.13
553.77	2182.48
554.13	2189.08
554.48	2195.75
554.84	2202.02
555.19	2207.72
555.55	2213.48
555.90	2218.55
556.26	2224.38
556.61	2229.63
556.97	2234.81
557.32	2239.81
557.68	2244.57
558.03	2249.31
558.39	2253.53
558.74	2258.60
559.10	2262.97
559.45	2267.17
559.81	2271.93
560.16	2276.24
560.52	2280.34
560.87	2284.32
561.23	2287.66
561.58	2291.06
561.94	2294.28
562.29	2296.91
562.64	2300.60
563.00	2303.77
563.35	2307.75
563.71	2311.45
564.06	2315.02
564.42	2318.28
564.77	2321.40
565.12	2324.34
565.48	2327.03
565.83	2329.65
566.19	2331.85
566.54	2333.25
566.89	2335.04
567.25	2336.26
567.60	2338.15
567.96	2340.29
568.31	2341.67
568.66	2343.43
569.02	2344.51
569.37	2345.44
569.72	2347.08
570.08	2347.48
570.43	2347.94
570.78	2348.05
571.14	2346.97
571.49	2346.21
571.84	2346.45
572.20	2345.81
572.55	2345.30
572.90	2343.96
573.26	2343.01
573.61	2341.37
573.96	2340.38
574.31	2337.91
574.67	2335.47
575.02	2332.25
575.37	2329.26
575.72	2326.02
576.08	2323.06
576.43	2320.08
576.78	2316.81
577.13	2313.72
577.49	2310.93
577.84	2307.96
578.19	2304.49
578.54	2301.34
578.90	2297.71
579.25	2292.46
579.60	2287.90
579.95	2283.09
580.30	2278.48
580.66	2273.48
581.01	2268.81
581.36	2263.97
581.71	2260.18
582.06	2255.95
582.42	2251.94
582.77	2246.89
583.12	2242.50
583.47	2238.20
583.82	2233.69
584.17	2228.56
584.53	2223.35
584.88	2218.01
585.23	2212.42
585.58	2207.01
585.93	2201.69
586.28	2196.79
586.63	2191.91
586.98	2186.73
587.34	2182.07
587.69	2177.12
588.04	2172.18
588.39	2166.60
588.74	2160.14
589.09	2153.92
589.44	2147.26
589.79	2140.98
590.14	2135.30
590.49	2128.60
590.84	2122.06
591.19	2115.88
591.54	2109.45
591.89	2102.21
592.25	2095.67
592.60	2088.54
592.95	2081.23
593.30	2073.79
593.65	2066.11
594.00	2058.93
594.35	2051.74
594.70	2043.52
595.05	2036.55
595.40	2029.12
595.75	2021.74
596.10	2015.73
596.45	2008.98
596.80	2002.70
597.15	1996.09
597.50	1989.30
597.85	1982.86
598.19	1976.22
598.54	1969.45
598.89	1962.78
599.24	1956.74
599.59	1949.99
599.94	1943.52
600.29	1936.87
600.64	1930.15
600.99	1922.84
601.34	1915.92
601.69	1908.63
602.04	1901.83
602.39	1894.24
602.74	1887.11
603.08	1880.28
603.43	1873.20
603.78	1865.72
604.13	1858.35
604.48	1851.02
604.83	1843.78
605.18	1836.95
605.53	1828.74
605.87	1820.44
606.22	1812.84
606.57	1804.54
606.92	1796.66
607.27	1789.37
607.62	1782.49
607.96	1775.14
608.31	1768.47
608.66	1760.84
609.01	1753.23
609.36	1745.54
609.70	1737.37
610.05	1729.19
610.40	1721.21
610.75	1712.75
611.10	1704.90
611.44	1696.06
611.79	1687.63
612.14	1678.69
612.49	1668.98
612.83	1660.35
613.18	1651.69
613.53	1643.45
613.88	1634.74
614.22	1626.16
614.57	1617.10
614.92	1608.70
615.27	1600.93
615.61	1592.18
615.96	1583.68
616.31	1575.58
616.65	1567.87
617.00	1559.95
617.35	1551.90
617.70	1543.35
618.04	1534.57
618.39	1525.83
618.74	1517.98
619.08	1509.37
619.43	1501.38
619.78	1494.14
620.12	1486.68
620.47	1478.92
620.82	1470.24
621.16	1462.34
621.51	1454.41
621.85	1446.30
622.20	1437.39
622.55	1428.50
622.89	1420.26
623.24	1412.17
623.59	1404.39
623.93	1396.40
624.28	1388.77
624.62	1380.95
624.97	1373.28
625.32	1365.93
625.66	1358.64
626.01	1351.15
626.35	1343.64
626.70	1335.51
627.04	1327.48
627.39	1319.15
627.73	1311.36
628.08	1304.13
628.43	1296.63
628.77	1289.07
629.12	1281.38
629.46	1273.79
629.81	1265.86
630.15	1258.17
630.50	1250.54
630.84	1242.11
631.19	1233.85
631.53	1225.94
631.88	1218.08
632.22	1210.23
632.57	1202.59
632.91	1194.66
633.26	1186.99
633.60	1179.23
633.95	1171.73
634.29	1164.29
634.64	1157.34
634.98	1149.79
635.32	1142.45
635.67	1135.44
636.01	1128.33
636.36	1121.26
636.70	1114.42
637.05	1107.71
637.39	1101.08
637.73	1094.29
638.08	1088.16
638.42	1081.98
638.77	1075.30
639.11	1068.48
639.45	1061.73
639.80	1054.91
640.14	1048.30
640.49	1041.55
640.83	1034.83
641.17	1028.55
641.52	1022.11
641.86	1015.42
642.20	1009.24
642.55	1002.52
642.89	995.87
643.23	989.06
643.58	983.03
643.92	976.70
644.26	970.43
644.61	964.07
644.95	957.88
645.29	951.07
645.64	944.06
645.98	937.44
646.32	931.11
646.66	924.90
647.01	918.88
647.35	912.96
647.69	906.88
648.04	901.08
648.38	894.98
648.72	888.80
649.06	882.57
649.41	876.36
649.75	870.33
650.09	864.27
650.43	858.34
650.78	852.02
651.12	845.84
651.46	839.87
651.80	834.05
652.14	828.34
652.49	822.81
652.83	817.45
653.17	811.72
653.51	806.07
653.85	800.42
654.20	794.68
654.54	788.51
654.88	782.42
655.22	776.39
655.56	770.48
655.90	764.71
656.25	759.24
656.59	753.77
656.93	748.53
657.27	743.18
657.61	737.51
657.95	732.21
658.29	726.96
658.64	721.48
658.98	716.00
659.32	710.37
659.66	705.00
660.00	699.49
660.34	694.37
660.68	689.21
661.02	683.97
661.36	679.02
661.70	674.37
662.05	669.92
662.39	665.49
662.73	660.92
663.07	656.46
663.41	651.90
663.75	647.26
664.09	642.41
664.43	637.84
664.77	633.63
665.11	629.28
665.45	625.01
665.79	620.87
666.13	616.62
666.47	612.41
666.81	608.10
667.15	603.83
667.49	599.63
667.83	595.60
668.17	591.58
668.51	587.40
668.85	583.14
669.19	579.11
669.53	575.12
669.87	571.20
670.21	567.37
670.55	563.57
670.89	559.98
671.23	556.46
671.57	552.79
671.91	549.09
672.25	545.35
672.58	541.74
672.92	538.22
673.26	534.88
673.60	531.61
673.94	528.40
674.28	525.33
674.62	522.40
674.96	519.25
675.30	516.28
675.64	513.25
675.97	510.37
676.31	507.43
676.65	504.39
676.99	501.48
677.33	498.43
677.67	495.47
678.01	492.37
678.34	489.33
678.68	486.32
679.02	483.43
679.36	480.51
679.70	477.63
680.04	474.77
680.37	471.84
680.71	468.91
681.05	466.13
681.39	463.38
681.73	460.54
682.06	457.90
682.40	455.18
682.74	452.55
683.08	449.97
683.42	447.27
683.75	444.66
684.09	441.98
684.43	439.45
684.77	436.96
685.10	434.49
685.44	432.08
685.78	429.73
686.12	427.40
686.45	425.07
686.79	422.69
687.13	420.40
687.46	418.13
687.80	415.92
688.14	413.61
688.48	411.41
688.81	409.18
689.15	406.98
689.49	404.76
689.82	402.58
690.16	400.36
690.50	398.27
690.83	396.31
691.17	394.24
691.51	392.29
691.84	390.38
692.18	388.46
692.52	386.44
692.85	384.40
693.19	382.47
693.52	380.55
693.86	378.63
694.20	376.73
694.53	374.91
694.87	372.97
695.21	371.14
695.54	369.27
695.88	367.38
696.21	365.51
696.55	363.78
696.88	362.02
697.22	360.27
697.56	358.60
697.89	356.85
698.23	355.27
698.56	353.61
698.90	351.98
699.23	350.27
699.57	348.64
699.90	347.08
700.24	345.44
700.58	343.84
700.91	342.34
701.25	340.83
701.58	339.38
701.92	337.96
702.25	336.52
702.59	335.13
702.92	333.83
703.26	332.51
703.59	331.19
703.93	329.97
704.26	328.67
704.60	327.35
704.93	326.06
705.26	324.76
705.60	323.45
705.93	322.15
706.27	321.01
706.60	319.95
706.94	318.85
707.27	317.65
707.61	316.52
707.94	315.43
708.27	314.28
708.61	313.13
708.94	312.08
709.28	311.07
709.61	310.07
709.94	309.04
710.28	307.92
710.61	306.83
710.95	305.67
711.28	304.69
711.61	303.68
711.95	302.68
712.28	301.63
712.61	300.64
712.95	299.68
713.28	298.71
713.61	297.70
713.95	296.74
714.28	295.84
714.61	294.95
714.95	294.05
715.28	293.13
715.61	292.21
715.95	291.30
716.28	290.35
716.61	289.42
716.95	288.55
717.28	287.75
717.61	286.99
717.94	286.19
718.28	285.38
718.61	284.61
718.94	283.88
719.27	283.18
719.61	282.49
719.94	281.82
720.27	281.08
720.60	280.39
720.94	279.74
721.27	279.13
721.60	278.53
721.93	277.91
722.27	277.35
722.60	276.80
722.93	276.18
723.26	275.62
723.59	275.04
723.93	274.45
724.26	273.86
724.59	273.26
724.92	272.74
725.25	272.18
725.59	271.61
725.92	271.06
726.25	270.53
726.58	270.02
726.91	269.48
727.24	268.99
727.57	268.50
727.91	267.91
728.24	267.43
728.57	266.88
728.90	266.34
729.23	265.79
729.56	265.32
729.89	264.82
730.22	264.32
730.55	263.85
730.89	263.42
731.22	262.98
731.55	262.55
731.88	262.09
732.21	261.66
732.54	261.19
732.87	260.73
733.20	260.30
733.53	259.90
733.86	259.53
734.19	259.14
734.52	258.78
734.85	258.46
735.18	258.00
735.51	257.64
735.84	257.31
736.17	257.01
736.50	256.58
736.83	256.35
737.16	256.01
737.49	255.65
737.82	255.27
738.15	254.91
738.48	254.56
738.81	254.25
739.14	253.90
739.47	253.62
739.80	253.33
740.13	253.04
740.46	252.70
740.79	252.39
741.12	252.06
741.45	251.70
741.78	251.37
742.11	251.08
742.44	250.78
742.77	250.51
743.10	250.20
743.43	249.91
743.75	249.52
744.08	249.35
744.41	249.10
744.74	248.81
745.07	248.53
745.40	248.26
745.73	247.99
746.06	247.71
746.39	247.41
746.71	247.13
747.04	246.86
747.37	246.59
747.70	246.27
748.03	246.02
748.36	245.79
748.68	245.53
749.01	245.27
749.34	245.05
749.67	244.74
750.00	244.50
750.33	244.33
750.65	244.12
750.98	243.77
751.31	243.52
751.64	243.29
751.97	243.16
752.29	242.97
752.62	242.73
752.95	242.54
753.28	242.33
753.60	242.12
753.93	241.92
754.26	241.72
754.59	241.50
754.91	241.28
755.24	241.10
755.57	240.88
755.90	240.71
756.22	240.50
756.55	240.31
756.88	240.11
757.20	239.84
757.53	239.63
757.86	239.43
758.19	239.29
758.51	239.11
758.84	238.85
759.17	238.63
759.49	238.48
759.82	238.35
760.15	238.16
760.47	237.97
760.80	237.76
761.13	237.61
761.45	237.44
761.78	237.24
762.11	237.03
762.43	236.89
762.76	236.70
763.08	236.52
763.41	236.37
763.74	236.17
764.06	236.03
764.39	235.86
764.71	235.72
765.04	235.51
765.37	235.38
765.69	235.26
766.02	235.12
766.34	234.95
766.67	234.79
767.00	234.67
767.32	234.59
767.65	234.50
767.97	234.37
768.30	234.28
768.62	234.17
768.95	234.05
769.27	233.91
769.60	233.81
769.92	233.68
770.25	233.57
770.57	233.47
770.90	233.38
771.22	233.28
771.55	233.17
771.87	233.10
772.20	233.00
772.52	232.95
772.85	232.95
773.17	232.86
773.50	232.73
773.82	232.65
774.15	232.52
774.47	232.39
774.80	232.28
775.12	232.16
775.45	232.08
775.77	232.02
776.09	231.94
776.42	231.82
776.74	231.80
777.07	231.73
777.39	231.66
777.72	231.57
778.04	231.51
778.36	231.43
778.69	231.37
779.01	231.29
779.33	231.08
779.66	230.90
779.98	230.86
780.31	230.76
780.63	230.73
780.95	230.69
781.28	230.65
781.60	230.58
781.92	230.53
782.25	230.47
782.57	230.40
782.89	230.36
783.22	230.33
783.54	230.25
783.86	230.17
784.19	230.11
784.51	230.10
784.83	230.00
785.16	229.94
785.48	229.87
785.80	229.82
786.12	229.85
786.45	229.83
786.77	229.79
