SpectraSuite Data File
++++++++++++++++++++++++++++++++++++
Date: Fri Feb 01 15:38:39 EST 2013
User: group
Dark Spectrum Present: No
Reference Spectrum Present: No
Number of Sampled Component Spectra: 1
Spectrometers: USB2E7196
Integration Time (usec): 35000 (USB2E7196)
Spectra Averaged: 100 (USB2E7196)
Boxcar Smoothing: 10 (USB2E7196)
Correct for Electrical Dark: No (USB2E7196)
Strobe/Lamp Enabled: No (USB2E7196)
Correct for Detector Non-linearity: No (USB2E7196)
Correct for Stray Light: No (USB2E7196)
Number of Pixels in Processed Spectrum: 2048
>>>>>Begin Processed Spectral Data<<<<<
339.09	0.00
339.48	214.39
339.86	216.33
340.24	217.83
340.63	219.45
341.01	222.09
341.39	222.35
341.78	223.17
342.16	224.66
342.54	225.18
342.93	213.44
343.31	224.23
343.69	224.80
344.07	225.25
344.46	225.70
344.84	226.06
345.22	226.28
345.60	226.53
345.99	226.69
346.37	226.82
346.75	226.90
347.13	226.97
347.52	227.03
347.90	227.10
348.28	227.09
348.66	227.11
349.05	227.09
349.43	227.13
349.81	227.11
350.19	227.13
350.57	227.18
350.96	227.27
351.34	227.35
351.72	227.43
352.10	227.52
352.48	227.57
352.87	227.62
353.25	227.66
353.63	227.71
354.01	227.80
354.39	227.87
354.77	227.94
355.15	228.05
355.54	228.08
355.92	228.14
356.30	228.19
356.68	228.35
357.06	228.39
357.44	228.45
357.82	228.55
358.20	228.62
358.58	228.67
358.97	228.72
359.35	228.78
359.73	228.86
360.11	228.94
360.49	228.99
360.87	229.05
361.25	229.11
361.63	229.18
362.01	229.24
362.39	229.26
362.77	229.32
363.15	229.33
363.53	229.38
363.91	229.37
364.29	229.42
364.67	229.32
365.05	229.33
365.43	229.29
365.81	229.28
366.19	229.34
366.57	229.33
366.95	229.30
367.33	229.28
367.71	229.27
368.09	229.25
368.47	229.23
368.85	229.20
369.23	229.21
369.61	229.13
369.99	229.14
370.37	229.10
370.75	229.11
371.13	229.04
371.51	228.96
371.89	228.93
372.27	228.91
372.65	228.86
373.03	228.81
373.41	228.81
373.78	228.75
374.16	228.64
374.54	228.57
374.92	228.49
375.30	228.41
375.68	228.31
376.06	228.25
376.44	228.16
376.82	228.10
377.19	228.03
377.57	227.97
377.95	227.81
378.33	227.73
378.71	227.60
379.09	227.52
379.47	227.49
379.84	227.43
380.22	227.34
380.60	227.28
380.98	227.22
381.36	227.15
381.73	227.08
382.11	227.04
382.49	226.95
382.87	226.89
383.25	226.83
383.62	226.88
384.00	226.83
384.38	226.77
384.76	226.71
385.13	226.68
385.51	226.66
385.89	226.64
386.27	226.58
386.64	226.53
387.02	226.50
387.40	226.45
387.78	226.38
388.15	226.35
388.53	226.32
388.91	226.26
389.29	226.22
389.66	226.22
390.04	226.17
390.42	226.19
390.79	226.19
391.17	226.19
391.55	226.10
391.92	226.07
392.30	226.08
392.68	226.07
393.05	226.09
393.43	226.09
393.81	226.12
394.18	226.16
394.56	226.21
394.94	226.26
395.31	226.28
395.69	226.38
396.06	226.41
396.44	226.47
396.82	226.52
397.19	226.61
397.57	226.68
397.95	226.74
398.32	226.78
398.70	226.84
399.07	226.95
399.45	227.00
399.82	227.08
400.20	227.16
400.58	227.26
400.95	227.31
401.33	227.41
401.70	227.54
402.08	227.61
402.45	227.71
402.83	227.82
403.20	227.94
403.58	228.04
403.95	228.19
404.33	228.34
404.71	228.52
405.08	228.72
405.46	228.84
405.83	229.01
406.21	229.17
406.58	229.38
406.96	229.54
407.33	229.74
407.70	229.98
408.08	230.25
408.45	230.49
408.83	230.70
409.20	230.93
409.58	231.15
409.95	231.47
410.33	231.76
410.70	232.03
411.08	232.31
411.45	232.62
411.82	232.91
412.20	233.26
412.57	233.65
412.95	233.94
413.32	234.33
413.69	234.75
414.07	235.20
414.44	235.66
414.82	236.16
415.19	236.74
415.56	237.28
415.94	237.82
416.31	238.47
416.68	239.06
417.06	239.78
417.43	240.46
417.81	241.20
418.18	241.97
418.55	242.81
418.93	243.68
419.30	244.56
419.67	245.49
420.04	246.45
420.42	247.40
420.79	248.59
421.16	249.77
421.54	250.97
421.91	252.15
422.28	253.42
422.66	254.70
423.03	255.97
423.40	257.28
423.77	258.69
424.15	260.10
424.52	261.62
424.89	263.20
425.26	264.72
425.64	266.12
426.01	267.71
426.38	269.36
426.75	271.01
427.13	272.72
427.50	274.46
427.87	276.31
428.24	278.18
428.61	279.89
428.99	281.78
429.36	283.85
429.73	285.90
430.10	287.86
430.47	289.91
430.85	291.99
431.22	294.22
431.59	296.56
431.96	298.80
432.33	301.28
432.70	303.66
433.08	306.46
433.45	309.13
433.82	311.73
434.19	314.58
434.56	317.42
434.93	320.12
435.30	322.80
435.68	325.70
436.05	328.56
436.42	331.38
436.79	333.91
437.16	336.60
437.53	339.40
437.90	342.22
438.27	344.94
438.64	347.79
439.01	350.40
439.38	352.65
439.75	354.80
440.13	357.32
440.50	359.61
440.87	361.48
441.24	363.41
441.61	365.53
441.98	367.04
442.35	368.83
442.72	370.65
443.09	372.46
443.46	373.43
443.83	374.01
444.20	374.52
444.57	375.34
444.94	375.62
445.31	376.02
445.68	376.39
446.05	376.53
446.42	376.15
446.79	375.72
447.16	375.28
447.53	374.95
447.90	373.74
448.27	372.58
448.64	370.99
449.01	369.87
449.37	367.92
449.74	366.00
450.11	363.78
450.48	361.30
450.85	358.76
451.22	356.63
451.59	354.59
451.96	352.64
452.33	350.07
452.70	347.71
453.07	344.91
453.43	342.02
453.80	339.22
454.17	336.54
454.54	333.97
454.91	331.27
455.28	328.60
455.65	326.18
456.02	323.78
456.38	321.65
456.75	318.99
457.12	316.76
457.49	314.52
457.86	312.34
458.23	310.51
458.59	308.47
458.96	306.40
459.33	304.53
459.70	302.66
460.07	301.18
460.43	299.51
460.80	297.87
461.17	296.42
461.54	294.93
461.91	293.50
462.27	292.03
462.64	290.73
463.01	289.37
463.38	288.03
463.74	286.65
464.11	285.44
464.48	284.41
464.85	283.28
465.21	282.40
465.58	281.49
465.95	280.40
466.32	279.47
466.68	278.56
467.05	277.65
467.42	276.74
467.78	275.77
468.15	274.91
468.52	274.25
468.88	273.40
469.25	272.61
469.62	271.98
469.98	271.36
470.35	270.75
470.72	270.15
471.08	269.52
471.45	268.97
471.82	268.44
472.18	267.87
472.55	267.45
472.92	266.93
473.28	266.42
473.65	265.97
474.02	265.51
474.38	265.12
474.75	264.83
475.11	264.48
475.48	264.22
475.85	263.96
476.21	263.70
476.58	263.50
476.94	263.34
477.31	263.15
477.67	262.98
478.04	262.89
478.41	262.80
478.77	262.81
479.14	262.74
479.50	262.76
479.87	262.82
480.23	262.88
480.60	262.95
480.96	263.05
481.33	263.26
481.69	263.48
482.06	263.66
482.42	263.86
482.79	264.13
483.15	264.47
483.52	264.86
483.88	265.19
484.25	265.60
484.61	266.06
484.98	266.50
485.34	267.09
485.71	267.66
486.07	268.24
486.44	268.85
486.80	269.55
487.17	270.26
487.53	271.09
487.90	271.94
488.26	272.90
488.62	273.93
488.99	274.89
489.35	275.94
489.72	277.07
490.08	278.25
490.44	279.51
490.81	280.80
491.17	282.11
491.54	283.63
491.90	285.16
492.26	286.77
492.63	288.53
492.99	290.30
493.36	292.19
493.72	294.26
494.08	296.39
494.45	298.66
494.81	301.04
495.17	303.45
495.54	306.03
495.90	308.71
496.26	311.49
496.63	314.46
496.99	317.56
497.35	320.83
497.72	324.24
498.08	327.78
498.44	331.44
498.80	335.39
499.17	339.41
499.53	343.59
499.89	348.02
500.26	352.54
500.62	357.23
500.98	362.21
501.34	367.29
501.71	372.57
502.07	378.06
502.43	383.68
502.79	389.50
503.16	395.55
503.52	401.80
503.88	408.20
504.24	414.81
504.60	421.68
504.97	428.80
505.33	436.09
505.69	443.80
506.05	451.65
506.41	459.50
506.78	467.65
507.14	476.08
507.50	484.74
507.86	493.80
508.22	502.98
508.59	512.23
508.95	521.85
509.31	531.70
509.67	541.81
510.03	552.07
510.39	562.62
510.75	573.44
511.12	584.49
511.48	595.86
511.84	607.34
512.20	618.90
512.56	630.91
512.92	643.12
513.28	655.47
513.64	667.95
514.00	680.69
514.37	693.57
514.73	706.65
515.09	719.69
515.45	732.95
515.81	746.55
516.17	760.53
516.53	774.63
516.89	788.73
517.25	802.81
517.61	817.32
517.97	831.80
518.33	846.23
518.69	860.91
519.05	875.87
519.41	890.96
519.77	906.53
520.13	922.05
520.49	937.43
520.85	952.81
521.21	968.53
521.57	984.81
521.93	1000.61
522.29	1017.02
522.65	1033.31
523.01	1049.57
523.37	1065.64
523.73	1081.79
524.09	1097.86
524.45	1114.23
524.81	1130.95
525.17	1147.79
525.53	1164.80
525.89	1181.63
526.25	1198.53
526.61	1214.96
526.97	1231.83
527.33	1248.30
527.68	1264.76
528.04	1281.32
528.40	1298.01
528.76	1315.12
529.12	1331.74
529.48	1348.68
529.84	1364.72
530.20	1381.37
530.56	1398.36
530.91	1415.83
531.27	1432.62
531.63	1449.11
531.99	1465.77
532.35	1481.79
532.71	1497.56
533.07	1513.71
533.42	1529.70
533.78	1545.81
534.14	1562.04
534.50	1577.24
534.86	1593.20
535.21	1608.51
535.57	1624.42
535.93	1639.96
536.29	1654.68
536.65	1669.71
537.00	1684.52
537.36	1699.88
537.72	1714.39
538.08	1728.85
538.44	1742.56
538.79	1756.46
539.15	1770.25
539.51	1784.02
539.87	1798.32
540.22	1812.09
540.58	1825.71
540.94	1839.13
541.29	1852.00
541.65	1864.71
542.01	1878.19
542.37	1890.31
542.72	1902.59
543.08	1914.32
543.44	1926.66
543.79	1937.99
544.15	1949.17
544.51	1960.74
544.87	1971.65
545.22	1982.57
545.58	1992.84
545.94	2002.75
546.29	2012.63
546.65	2022.32
547.01	2031.53
547.36	2040.37
547.72	2048.77
548.07	2056.73
548.43	2064.80
548.79	2072.93
549.14	2080.48
549.50	2087.79
549.86	2095.69
550.21	2103.02
550.57	2110.32
550.92	2116.96
551.28	2124.05
551.64	2130.94
551.99	2137.51
552.35	2143.66
552.70	2149.67
553.06	2155.71
553.41	2161.93
553.77	2168.02
554.13	2174.18
554.48	2180.43
554.84	2185.82
555.19	2191.25
555.55	2196.43
555.90	2200.94
556.26	2205.79
556.61	2210.52
556.97	2214.72
557.32	2218.77
557.68	2223.04
558.03	2227.27
558.39	2230.99
558.74	2235.46
559.10	2239.37
559.45	2243.07
559.81	2247.40
560.16	2251.34
560.52	2254.60
560.87	2258.09
561.23	2260.69
561.58	2263.72
561.94	2266.13
562.29	2268.40
562.64	2271.04
563.00	2273.70
563.35	2277.25
563.71	2280.24
564.06	2283.43
564.42	2286.19
564.77	2288.71
565.12	2290.89
565.48	2292.84
565.83	2294.61
566.19	2295.91
566.54	2296.83
566.89	2297.94
567.25	2298.47
567.60	2299.87
567.96	2301.34
568.31	2302.09
568.66	2303.18
569.02	2303.68
569.37	2303.91
569.72	2304.88
570.08	2304.98
570.43	2304.96
570.78	2304.24
571.14	2302.63
571.49	2301.17
571.84	2300.85
572.20	2299.63
572.55	2298.57
572.90	2296.83
573.26	2295.43
573.61	2293.62
573.96	2291.78
574.31	2288.57
574.67	2285.64
575.02	2281.79
575.37	2278.35
575.72	2274.74
576.08	2271.42
576.43	2268.03
576.78	2264.35
577.13	2261.17
577.49	2258.08
577.84	2254.50
578.19	2250.78
578.54	2247.18
578.90	2242.98
579.25	2237.44
579.60	2232.40
579.95	2227.32
580.30	2222.44
580.66	2217.26
581.01	2212.40
581.36	2207.42
581.71	2203.30
582.06	2198.68
582.42	2194.25
582.77	2189.13
583.12	2184.22
583.47	2179.33
583.82	2174.26
584.17	2168.88
584.53	2163.25
584.88	2157.58
585.23	2151.89
585.58	2146.48
585.93	2141.01
586.28	2136.29
586.63	2131.05
586.98	2126.15
587.34	2121.38
587.69	2116.40
588.04	2111.11
588.39	2105.31
588.74	2098.94
589.09	2092.87
589.44	2086.05
589.79	2080.06
590.14	2074.40
590.49	2067.88
590.84	2061.56
591.19	2055.55
591.54	2049.21
591.89	2041.68
592.25	2034.89
592.60	2027.59
592.95	2019.93
593.30	2012.61
593.65	2005.07
594.00	1998.18
594.35	1990.73
594.70	1982.83
595.05	1975.61
595.40	1968.21
595.75	1960.84
596.10	1954.51
596.45	1947.70
596.80	1941.62
597.15	1934.79
597.50	1927.59
597.85	1921.16
598.19	1914.43
598.54	1907.25
598.89	1900.53
599.24	1894.68
599.59	1887.88
599.94	1881.73
600.29	1875.29
600.64	1868.61
600.99	1860.94
601.34	1854.00
601.69	1847.11
602.04	1840.14
602.39	1832.67
602.74	1825.86
603.08	1819.16
603.43	1812.39
603.78	1805.06
604.13	1797.70
604.48	1790.42
604.83	1783.64
605.18	1776.57
605.53	1768.50
605.87	1760.41
606.22	1753.21
606.57	1745.27
606.92	1738.02
607.27	1730.81
607.62	1723.86
607.96	1716.53
608.31	1709.93
608.66	1702.36
609.01	1694.81
609.36	1687.14
609.70	1679.14
610.05	1671.03
610.40	1663.15
610.75	1654.74
611.10	1647.05
611.44	1638.70
611.79	1630.73
612.14	1621.88
612.49	1612.88
612.83	1604.58
613.18	1596.58
613.53	1588.42
613.88	1579.94
614.22	1571.56
614.57	1562.88
614.92	1554.91
615.27	1547.31
615.61	1538.89
615.96	1530.87
616.31	1523.15
616.65	1515.88
617.00	1508.29
617.35	1500.68
617.70	1492.31
618.04	1483.81
618.39	1475.62
618.74	1467.94
619.08	1459.64
619.43	1452.05
619.78	1445.06
620.12	1437.86
620.47	1430.29
620.82	1422.20
621.16	1414.78
621.51	1407.27
621.85	1399.64
622.20	1391.09
622.55	1382.80
622.89	1375.15
623.24	1367.59
623.59	1360.12
623.93	1352.56
624.28	1345.36
624.62	1337.81
624.97	1330.75
625.32	1323.97
625.66	1316.87
626.01	1309.79
626.35	1302.29
626.70	1294.58
627.04	1286.76
627.39	1279.06
627.73	1271.64
628.08	1264.78
628.43	1257.38
628.77	1249.99
629.12	1242.46
629.46	1235.27
629.81	1227.90
630.15	1220.66
630.50	1213.21
630.84	1205.04
631.19	1197.20
631.53	1189.64
631.88	1182.11
632.22	1174.49
632.57	1167.35
632.91	1159.90
633.26	1152.50
633.60	1145.23
633.95	1138.14
634.29	1131.11
634.64	1124.34
634.98	1116.98
635.32	1109.77
635.67	1103.26
636.01	1096.59
636.36	1089.85
636.70	1083.41
637.05	1076.93
637.39	1070.48
637.73	1064.01
638.08	1058.23
638.42	1052.24
638.77	1045.84
639.11	1039.19
639.45	1032.88
639.80	1026.12
640.14	1019.56
640.49	1012.95
640.83	1006.55
641.17	1000.33
641.52	994.07
641.86	987.67
642.20	981.84
642.55	975.57
642.89	969.07
643.23	962.52
643.58	956.64
643.92	950.47
644.26	944.21
644.61	938.10
644.95	931.90
645.29	925.27
645.64	918.44
645.98	912.14
646.32	906.41
646.66	900.26
647.01	894.47
647.35	888.81
647.69	883.02
648.04	877.59
648.38	871.78
648.72	865.69
649.06	859.60
649.41	853.74
649.75	847.66
650.09	841.67
650.43	835.92
650.78	829.80
651.12	823.75
651.46	818.10
651.80	812.40
652.14	807.15
652.49	801.83
652.83	796.63
653.17	790.87
653.51	785.08
653.85	779.65
654.20	773.96
654.54	767.93
654.88	762.15
655.22	756.23
655.56	750.52
655.90	745.13
656.25	739.86
656.59	734.52
656.93	729.49
657.27	724.33
657.61	718.87
657.95	713.74
658.29	708.68
658.64	703.44
658.98	698.15
659.32	692.59
659.66	687.33
660.00	682.13
660.34	677.23
660.68	672.33
661.02	667.37
661.36	662.73
661.70	658.30
662.05	653.98
662.39	649.69
662.73	645.26
663.07	640.89
663.41	636.45
663.75	631.90
664.09	627.33
664.43	623.04
664.77	618.93
665.11	614.67
665.45	610.53
665.79	606.46
666.13	602.28
666.47	598.27
666.81	594.15
667.15	590.00
667.49	586.03
667.83	582.19
668.17	578.26
668.51	574.19
668.85	570.14
669.19	566.32
669.53	562.43
669.87	558.53
670.21	554.82
670.55	551.19
670.89	547.79
671.23	544.32
671.57	540.75
671.91	537.17
672.25	533.73
672.58	530.21
672.92	526.80
673.26	523.64
673.60	520.47
673.94	517.38
674.28	514.49
674.62	511.55
674.96	508.49
675.30	505.54
675.64	502.62
675.97	499.86
676.31	496.93
676.65	494.05
676.99	491.36
677.33	488.49
677.67	485.67
678.01	482.65
678.34	479.71
678.68	476.85
679.02	474.06
679.36	471.30
679.70	468.67
680.04	465.92
680.37	463.06
680.71	460.27
681.05	457.64
681.39	454.90
681.73	452.26
682.06	449.73
682.40	447.23
682.74	444.76
683.08	442.23
683.42	439.68
683.75	437.17
684.09	434.67
684.43	432.24
684.77	429.83
685.10	427.49
685.44	425.16
685.78	422.91
686.12	420.72
686.45	418.44
686.79	416.05
687.13	413.87
687.46	411.72
687.80	409.60
688.14	407.37
688.48	405.34
688.81	403.13
689.15	401.02
689.49	398.85
689.82	396.70
690.16	394.63
690.50	392.66
690.83	390.71
691.17	388.74
691.51	386.84
691.84	384.95
692.18	383.02
692.52	381.05
692.85	379.11
693.19	377.19
693.52	375.36
693.86	373.58
694.20	371.77
694.53	369.93
694.87	368.06
695.21	366.30
695.54	364.46
695.88	362.75
696.21	361.02
696.55	359.30
696.88	357.67
697.22	356.04
697.56	354.41
697.89	352.72
698.23	351.06
698.56	349.44
698.90	347.85
699.23	346.18
699.57	344.66
699.90	343.12
700.24	341.61
700.58	340.07
700.91	338.56
701.25	337.13
701.58	335.78
701.92	334.40
702.25	332.99
702.59	331.66
702.92	330.32
703.26	328.96
703.59	327.71
703.93	326.50
704.26	325.19
704.60	323.88
704.93	322.61
705.26	321.39
705.60	320.24
705.93	319.10
706.27	318.08
706.60	317.02
706.94	315.90
707.27	314.79
707.61	313.72
707.94	312.68
708.27	311.60
708.61	310.48
708.94	309.50
709.28	308.54
709.61	307.57
709.94	306.64
710.28	305.68
710.61	304.73
710.95	303.65
711.28	302.77
711.61	301.83
711.95	300.93
712.28	299.98
712.61	298.98
712.95	298.03
713.28	297.15
713.61	296.26
713.95	295.37
714.28	294.48
714.61	293.62
714.95	292.80
715.28	291.97
715.61	291.13
715.95	290.25
716.28	289.41
716.61	288.57
716.95	287.74
717.28	286.98
717.61	286.20
717.94	285.47
718.28	284.68
718.61	283.97
718.94	283.29
719.27	282.65
719.61	282.02
719.94	281.38
720.27	280.68
720.60	280.02
720.94	279.42
721.27	278.88
721.60	278.33
721.93	277.73
722.27	277.15
722.60	276.62
722.93	276.06
723.26	275.51
723.59	274.92
723.93	274.39
724.26	273.84
724.59	273.24
724.92	272.68
725.25	272.14
725.59	271.60
725.92	271.11
726.25	270.58
726.58	270.09
726.91	269.63
727.24	269.18
727.57	268.69
727.91	268.21
728.24	267.71
728.57	267.21
728.90	266.76
729.23	266.27
729.56	265.81
729.89	265.35
730.22	264.82
730.55	264.41
730.89	263.92
731.22	263.47
731.55	263.05
731.88	262.66
732.21	262.29
732.54	261.90
732.87	261.48
733.20	261.06
733.53	260.66
733.86	260.24
734.19	259.80
734.52	259.45
734.85	259.11
735.18	258.68
735.51	258.34
735.84	257.94
736.17	257.57
736.50	257.20
736.83	256.96
737.16	256.68
737.49	256.32
737.82	256.00
738.15	255.69
738.48	255.41
738.81	255.08
739.14	254.71
739.47	254.39
739.80	254.04
740.13	253.76
740.46	253.42
740.79	253.07
741.12	252.80
741.45	252.44
741.78	252.10
742.11	251.85
742.44	251.50
742.77	251.21
743.10	250.88
743.43	250.55
743.75	250.13
744.08	249.97
744.41	249.70
744.74	249.43
745.07	249.13
745.40	248.85
745.73	248.61
746.06	248.34
746.39	248.06
746.71	247.79
747.04	247.50
747.37	247.26
747.70	247.02
748.03	246.77
748.36	246.56
748.68	246.33
749.01	246.04
749.34	245.82
749.67	245.61
750.00	245.43
750.33	245.28
750.65	245.11
750.98	244.75
751.31	244.50
751.64	244.30
751.97	244.15
752.29	243.94
752.62	243.68
752.95	243.53
753.28	243.35
753.60	243.17
753.93	243.02
754.26	242.81
754.59	242.59
754.91	242.40
755.24	242.19
755.57	242.00
755.90	241.81
756.22	241.60
756.55	241.42
756.88	241.22
757.20	241.02
757.53	240.81
757.86	240.65
758.19	240.53
758.51	240.38
758.84	240.18
759.17	239.97
759.49	239.82
759.82	239.69
760.15	239.52
760.47	239.36
760.80	239.18
761.13	239.07
761.45	238.94
761.78	238.80
762.11	238.68
762.43	238.53
762.76	238.42
763.08	238.30
763.41	238.17
763.74	238.07
764.06	237.91
764.39	237.78
764.71	237.61
765.04	237.48
765.37	237.34
765.69	237.23
766.02	237.09
766.34	236.96
766.67	236.80
767.00	236.71
767.32	236.64
767.65	236.57
767.97	236.43
768.30	236.33
768.62	236.16
768.95	236.05
769.27	235.90
769.60	235.81
769.92	235.70
770.25	235.57
770.57	235.43
770.90	235.34
771.22	235.24
771.55	235.16
771.87	235.04
772.20	234.90
772.52	234.86
772.85	234.87
773.17	234.77
773.50	234.63
773.82	234.55
774.15	234.41
774.47	234.28
774.80	234.16
775.12	234.07
775.45	234.01
775.77	233.91
776.09	233.85
776.42	233.73
776.74	233.68
777.07	233.62
777.39	233.52
777.72	233.45
778.04	233.37
778.36	233.30
778.69	233.26
779.01	233.22
779.33	233.07
779.66	232.90
779.98	232.83
780.31	232.75
780.63	232.68
780.95	232.62
781.28	232.55
781.60	232.49
781.92	232.43
782.25	232.36
782.57	232.30
782.89	232.24
783.22	232.21
783.54	232.10
783.86	232.05
784.19	232.01
784.51	231.97
784.83	231.93
785.16	231.87
785.48	231.80
785.80	231.74
786.12	231.71
786.45	231.71
786.77	231.68
787.09	231.66
