SpectraSuite Data File
++++++++++++++++++++++++++++++++++++
Date: Fri Feb 01 17:24:39 EST 2013
User: group
Dark Spectrum Present: No
Reference Spectrum Present: No
Number of Sampled Component Spectra: 1
Spectrometers: USB2E7196
Integration Time (usec): 35000 (USB2E7196)
Spectra Averaged: 100 (USB2E7196)
Boxcar Smoothing: 10 (USB2E7196)
Correct for Electrical Dark: No (USB2E7196)
Strobe/Lamp Enabled: No (USB2E7196)
Correct for Detector Non-linearity: No (USB2E7196)
Correct for Stray Light: No (USB2E7196)
Number of Pixels in Processed Spectrum: 2048
>>>>>Begin Processed Spectral Data<<<<<
339.09	0.00
339.48	212.88
339.86	214.15
340.24	215.59
340.63	217.24
341.01	219.89
341.39	219.62
341.78	220.70
342.16	222.53
342.54	222.20
342.93	211.26
343.31	221.94
343.69	222.47
344.07	222.93
344.46	223.38
344.84	223.75
345.22	224.01
345.60	224.28
345.99	224.50
346.37	224.63
346.75	224.78
347.13	224.87
347.52	224.90
347.90	224.99
348.28	224.99
348.66	225.03
349.05	225.03
349.43	225.07
349.81	225.12
350.19	225.19
350.57	225.25
350.96	225.33
351.34	225.41
351.72	225.52
352.10	225.65
352.48	225.73
352.87	225.77
353.25	225.82
353.63	225.88
354.01	225.94
354.39	226.03
354.77	226.10
355.15	226.21
355.54	226.28
355.92	226.34
356.30	226.42
356.68	226.58
357.06	226.64
357.44	226.67
357.82	226.75
358.20	226.80
358.58	226.86
358.97	226.92
359.35	226.97
359.73	227.05
360.11	227.06
360.49	227.10
360.87	227.16
361.25	227.22
361.63	227.30
362.01	227.34
362.39	227.37
362.77	227.39
363.15	227.39
363.53	227.40
363.91	227.43
364.29	227.45
364.67	227.36
365.05	227.40
365.43	227.44
365.81	227.45
366.19	227.50
366.57	227.54
366.95	227.52
367.33	227.51
367.71	227.46
368.09	227.46
368.47	227.46
368.85	227.44
369.23	227.42
369.61	227.35
369.99	227.39
370.37	227.38
370.75	227.38
371.13	227.34
371.51	227.31
371.89	227.25
372.27	227.21
372.65	227.19
373.03	227.14
373.41	227.08
373.78	227.00
374.16	226.89
374.54	226.82
374.92	226.76
375.30	226.71
375.68	226.65
376.06	226.63
376.44	226.54
376.82	226.49
377.19	226.43
377.57	226.35
377.95	226.21
378.33	226.12
378.71	226.00
379.09	225.94
379.47	225.88
379.84	225.81
380.22	225.73
380.60	225.61
380.98	225.53
381.36	225.50
381.73	225.44
382.11	225.37
382.49	225.29
382.87	225.22
383.25	225.15
383.62	225.24
384.00	225.14
384.38	225.10
384.76	225.07
385.13	225.09
385.51	225.03
385.89	224.97
386.27	224.95
386.64	224.96
387.02	224.92
387.40	224.86
387.78	224.84
388.15	224.80
388.53	224.79
388.91	224.73
389.29	224.68
389.66	224.68
390.04	224.63
390.42	224.64
390.79	224.64
391.17	224.64
391.55	224.50
391.92	224.49
392.30	224.47
392.68	224.44
393.05	224.41
393.43	224.41
393.81	224.44
394.18	224.42
394.56	224.40
394.94	224.40
395.31	224.42
395.69	224.47
396.06	224.51
396.44	224.52
396.82	224.54
397.19	224.61
397.57	224.63
397.95	224.69
398.32	224.71
398.70	224.73
399.07	224.76
399.45	224.83
399.82	224.90
400.20	224.98
400.58	225.04
400.95	225.07
401.33	225.16
401.70	225.27
402.08	225.37
402.45	225.47
402.83	225.57
403.20	225.66
403.58	225.72
403.95	225.85
404.33	225.96
404.71	226.10
405.08	226.29
405.46	226.43
405.83	226.59
406.21	226.71
406.58	226.88
406.96	227.08
407.33	227.23
407.70	227.42
408.08	227.65
408.45	227.86
408.83	228.09
409.20	228.32
409.58	228.48
409.95	228.77
410.33	229.02
410.70	229.29
411.08	229.61
411.45	229.92
411.82	230.23
412.20	230.61
412.57	231.04
412.95	231.33
413.32	231.75
413.69	232.14
414.07	232.61
414.44	233.10
414.82	233.58
415.19	234.16
415.56	234.71
415.94	235.30
416.31	235.98
416.68	236.67
417.06	237.40
417.43	238.11
417.81	238.89
418.18	239.69
418.55	240.55
418.93	241.48
419.30	242.43
419.67	243.43
420.04	244.43
420.42	245.45
420.79	246.69
421.16	247.87
421.54	249.10
421.91	250.34
422.28	251.64
422.66	253.02
423.03	254.35
423.40	255.76
423.77	257.21
424.15	258.67
424.52	260.22
424.89	261.90
425.26	263.56
425.64	265.05
426.01	266.73
426.38	268.49
426.75	270.19
427.13	271.94
427.50	273.83
427.87	275.79
428.24	277.73
428.61	279.54
428.99	281.57
429.36	283.75
429.73	285.89
430.10	288.00
430.47	290.14
430.85	292.34
431.22	294.69
431.59	297.18
431.96	299.50
432.33	302.05
432.70	304.49
433.08	307.36
433.45	310.10
433.82	312.74
434.19	315.70
434.56	318.60
434.93	321.38
435.30	323.99
435.68	326.96
436.05	329.87
436.42	332.74
436.79	335.33
437.16	338.11
437.53	341.07
437.90	343.97
438.27	346.82
438.64	349.76
439.01	352.42
439.38	354.70
439.75	356.98
440.13	359.60
440.50	362.05
440.87	364.00
441.24	366.02
441.61	368.28
441.98	369.82
442.35	371.71
442.72	373.64
443.09	375.62
443.46	376.65
443.83	377.31
444.20	377.87
444.57	378.78
444.94	379.10
445.31	379.48
445.68	379.85
446.05	379.92
446.42	379.53
446.79	379.12
447.16	378.68
447.53	378.36
447.90	377.15
448.27	375.93
448.64	374.31
449.01	373.15
449.37	371.15
449.74	369.22
450.11	366.90
450.48	364.35
450.85	361.72
451.22	359.55
451.59	357.48
451.96	355.46
452.33	352.79
452.70	350.37
453.07	347.44
453.43	344.48
453.80	341.63
454.17	338.83
454.54	336.19
454.91	333.38
455.28	330.58
455.65	327.98
456.02	325.49
456.38	323.25
456.75	320.51
457.12	318.19
457.49	315.90
457.86	313.67
458.23	311.75
458.59	309.61
458.96	307.42
459.33	305.51
459.70	303.63
460.07	302.07
460.43	300.30
460.80	298.62
461.17	297.11
461.54	295.59
461.91	294.17
462.27	292.68
462.64	291.40
463.01	290.07
463.38	288.73
463.74	287.33
464.11	286.11
464.48	285.04
464.85	283.92
465.21	283.02
465.58	282.05
465.95	280.90
466.32	280.02
466.68	279.10
467.05	278.10
467.42	277.17
467.78	276.19
468.15	275.26
468.52	274.59
468.88	273.73
469.25	272.90
469.62	272.24
469.98	271.55
470.35	270.91
470.72	270.26
471.08	269.57
471.45	269.02
471.82	268.48
472.18	267.84
472.55	267.37
472.92	266.83
473.28	266.36
473.65	265.93
474.02	265.43
474.38	265.07
474.75	264.74
475.11	264.34
475.48	264.07
475.85	263.84
476.21	263.58
476.58	263.37
476.94	263.24
477.31	263.04
477.67	262.88
478.04	262.72
478.41	262.68
478.77	262.74
479.14	262.62
479.50	262.62
479.87	262.69
480.23	262.74
480.60	262.79
480.96	262.89
481.33	263.11
481.69	263.31
482.06	263.49
482.42	263.68
482.79	263.95
483.15	264.29
483.52	264.65
483.88	264.98
484.25	265.34
484.61	265.77
484.98	266.22
485.34	266.76
485.71	267.35
486.07	267.91
486.44	268.45
486.80	269.15
487.17	269.87
487.53	270.67
487.90	271.50
488.26	272.41
488.62	273.38
488.99	274.30
489.35	275.33
489.72	276.43
490.08	277.64
490.44	278.86
490.81	280.13
491.17	281.45
491.54	282.92
491.90	284.46
492.26	286.07
492.63	287.82
492.99	289.63
493.36	291.51
493.72	293.57
494.08	295.68
494.45	297.92
494.81	300.26
495.17	302.67
495.54	305.25
495.90	307.92
496.26	310.71
496.63	313.64
496.99	316.73
497.35	319.98
497.72	323.40
498.08	326.89
498.44	330.55
498.80	334.49
499.17	338.51
499.53	342.67
499.89	347.02
500.26	351.46
500.62	356.03
500.98	360.93
501.34	365.91
501.71	371.19
502.07	376.58
502.43	382.17
502.79	387.92
503.16	393.88
503.52	400.07
503.88	406.40
504.24	412.92
504.60	419.67
504.97	426.72
505.33	433.89
505.69	441.46
506.05	449.14
506.41	456.88
506.78	464.91
507.14	473.18
507.50	481.78
507.86	490.69
508.22	499.73
508.59	508.77
508.95	518.21
509.31	527.82
509.67	537.75
510.03	547.78
510.39	558.20
510.75	568.81
511.12	579.58
511.48	590.68
511.84	602.01
512.20	613.31
512.56	625.01
512.92	636.92
513.28	649.10
513.64	661.24
514.00	673.72
514.37	686.43
514.73	699.21
515.09	711.89
515.45	724.85
515.81	738.21
516.17	751.92
516.53	765.73
516.89	779.56
517.25	793.29
517.61	807.44
517.97	821.49
518.33	835.58
518.69	849.95
519.05	864.46
519.41	879.15
519.77	894.29
520.13	909.31
520.49	924.37
520.85	939.20
521.21	954.60
521.57	970.49
521.93	985.82
522.29	1001.71
522.65	1017.61
523.01	1033.36
523.37	1048.91
523.73	1064.57
524.09	1080.24
524.45	1096.10
524.81	1112.49
525.17	1128.74
525.53	1145.18
525.89	1161.70
526.25	1178.15
526.61	1194.24
526.97	1210.70
527.33	1226.78
527.68	1243.00
528.04	1259.02
528.40	1275.20
528.76	1291.76
529.12	1307.86
529.48	1324.19
529.84	1339.85
530.20	1356.02
530.56	1372.62
530.91	1389.62
531.27	1405.99
531.63	1422.09
531.99	1438.29
532.35	1453.90
532.71	1469.41
533.07	1485.35
533.42	1500.90
533.78	1516.60
534.14	1532.37
534.50	1547.25
534.86	1562.78
535.21	1577.72
535.57	1593.27
535.93	1608.45
536.29	1623.07
536.65	1637.87
537.00	1652.46
537.36	1667.53
537.72	1681.84
538.08	1696.06
538.44	1709.55
538.79	1723.27
539.15	1736.58
539.51	1750.18
539.87	1764.22
540.22	1777.87
540.58	1791.43
540.94	1804.48
541.29	1817.07
541.65	1829.65
542.01	1842.85
542.37	1855.01
542.72	1867.26
543.08	1879.06
543.44	1891.47
543.79	1902.69
544.15	1913.55
544.51	1925.09
544.87	1936.04
545.22	1946.96
545.58	1957.23
545.94	1967.15
546.29	1976.98
546.65	1987.04
547.01	1996.39
547.36	2005.22
547.72	2013.79
548.07	2021.85
548.43	2030.20
548.79	2038.21
549.14	2046.17
549.50	2053.52
549.86	2061.36
550.21	2068.79
550.57	2076.17
550.92	2082.93
551.28	2090.07
551.64	2097.52
551.99	2104.20
552.35	2110.66
552.70	2116.89
553.06	2123.15
553.41	2129.61
553.77	2135.98
554.13	2142.18
554.48	2148.55
554.84	2154.28
555.19	2159.83
555.55	2165.23
555.90	2170.03
556.26	2175.65
556.61	2180.50
556.97	2185.33
557.32	2189.81
557.68	2194.19
558.03	2198.61
558.39	2202.58
558.74	2207.53
559.10	2211.61
559.45	2215.65
559.81	2220.06
560.16	2224.29
560.52	2227.75
560.87	2231.49
561.23	2234.35
561.58	2237.55
561.94	2240.37
562.29	2243.07
562.64	2246.21
563.00	2249.00
563.35	2252.73
563.71	2256.02
564.06	2259.34
564.42	2262.48
564.77	2265.48
565.12	2268.45
565.48	2270.94
565.83	2273.26
566.19	2275.06
566.54	2276.10
566.89	2277.68
567.25	2278.88
567.60	2280.40
567.96	2282.64
568.31	2283.93
568.66	2285.45
569.02	2286.49
569.37	2287.35
569.72	2288.71
570.08	2289.21
570.43	2289.64
570.78	2289.61
571.14	2288.38
571.49	2287.60
571.84	2287.51
572.20	2286.77
572.55	2285.82
572.90	2284.37
573.26	2283.32
573.61	2281.74
573.96	2280.62
574.31	2278.06
574.67	2275.32
575.02	2272.20
575.37	2269.01
575.72	2265.80
576.08	2262.84
576.43	2259.79
576.78	2256.49
577.13	2253.47
577.49	2250.45
577.84	2247.45
578.19	2243.94
578.54	2240.78
578.90	2236.93
579.25	2231.84
579.60	2227.28
579.95	2222.67
580.30	2218.13
580.66	2213.33
581.01	2208.74
581.36	2204.05
581.71	2200.15
582.06	2196.19
582.42	2192.14
582.77	2187.26
583.12	2182.84
583.47	2178.57
583.82	2174.10
584.17	2169.11
584.53	2163.91
584.88	2158.66
585.23	2153.33
585.58	2148.06
585.93	2142.68
586.28	2137.97
586.63	2133.19
586.98	2128.25
587.34	2123.80
587.69	2119.08
588.04	2114.21
588.39	2108.82
588.74	2102.66
589.09	2096.69
589.44	2090.04
589.79	2084.03
590.14	2078.59
590.49	2072.14
590.84	2065.82
591.19	2059.92
591.54	2053.61
591.89	2046.51
592.25	2040.11
592.60	2032.97
592.95	2025.81
593.30	2018.84
593.65	2011.46
594.00	2004.51
594.35	1997.39
594.70	1989.49
595.05	1982.70
595.40	1975.48
595.75	1968.17
596.10	1962.19
596.45	1955.82
596.80	1949.89
597.15	1943.46
597.50	1936.62
597.85	1930.29
598.19	1923.77
598.54	1917.04
598.89	1910.46
599.24	1904.80
599.59	1898.48
599.94	1892.31
600.29	1885.89
600.64	1879.34
600.99	1872.08
601.34	1865.39
601.69	1858.47
602.04	1851.80
602.39	1844.40
602.74	1837.75
603.08	1831.16
603.43	1824.35
603.78	1816.99
604.13	1809.87
604.48	1802.70
604.83	1795.68
605.18	1789.12
605.53	1781.28
605.87	1773.11
606.22	1765.98
606.57	1757.86
606.92	1750.20
607.27	1743.18
607.62	1736.49
607.96	1729.35
608.31	1722.96
608.66	1715.52
609.01	1708.15
609.36	1700.56
609.70	1692.63
610.05	1684.44
610.40	1676.84
610.75	1668.70
611.10	1661.01
611.44	1652.40
611.79	1644.37
612.14	1635.77
612.49	1626.34
612.83	1617.93
613.18	1609.66
613.53	1601.46
613.88	1593.00
614.22	1584.74
614.57	1575.97
614.92	1567.81
615.27	1560.17
615.61	1551.79
615.96	1543.44
616.31	1535.53
616.65	1528.12
617.00	1520.48
617.35	1512.77
617.70	1504.34
618.04	1495.73
618.39	1487.25
618.74	1479.61
619.08	1471.20
619.43	1463.53
619.78	1456.43
620.12	1449.24
620.47	1441.79
620.82	1433.47
621.16	1425.81
621.51	1418.01
621.85	1410.27
622.20	1401.60
622.55	1393.05
622.89	1384.96
623.24	1377.28
623.59	1369.77
623.93	1362.10
624.28	1354.71
624.62	1347.09
624.97	1339.66
625.32	1332.64
625.66	1325.68
626.01	1318.44
626.35	1311.06
626.70	1303.24
627.04	1295.66
627.39	1287.74
627.73	1280.13
628.08	1273.20
628.43	1266.03
628.77	1258.62
629.12	1251.00
629.46	1243.86
629.81	1236.34
630.15	1229.08
630.50	1221.60
630.84	1213.41
631.19	1205.31
631.53	1197.61
631.88	1189.98
632.22	1182.35
632.57	1175.01
632.91	1167.34
633.26	1159.89
633.60	1152.28
633.95	1144.94
634.29	1137.60
634.64	1130.77
634.98	1123.28
635.32	1116.08
635.67	1109.30
636.01	1102.56
636.36	1095.69
636.70	1089.05
637.05	1082.41
637.39	1075.81
637.73	1069.26
638.08	1063.33
638.42	1057.23
638.77	1050.78
639.11	1044.21
639.45	1037.80
639.80	1030.99
640.14	1024.57
640.49	1017.96
640.83	1011.58
641.17	1005.41
641.52	999.14
641.86	992.58
642.20	986.78
642.55	980.26
642.89	973.76
643.23	967.10
643.58	961.33
643.92	955.07
644.26	949.14
644.61	943.10
644.95	937.12
645.29	930.53
645.64	923.77
645.98	917.45
646.32	911.37
646.66	905.26
647.01	899.52
647.35	893.78
647.69	887.83
648.04	882.23
648.38	876.40
648.72	870.43
649.06	864.45
649.41	858.52
649.75	852.66
650.09	846.73
650.43	841.00
650.78	834.77
651.12	828.85
651.46	822.97
651.80	817.25
652.14	811.79
652.49	806.40
652.83	801.29
653.17	795.67
653.51	790.05
653.85	784.66
654.20	779.02
654.54	773.02
654.88	767.21
655.22	761.31
655.56	755.58
655.90	750.02
656.25	744.70
656.59	739.27
656.93	734.12
657.27	728.98
657.61	723.52
657.95	718.46
658.29	713.22
658.64	707.87
658.98	702.47
659.32	696.98
659.66	691.73
660.00	686.43
660.34	681.37
660.68	676.39
661.02	671.31
661.36	666.54
661.70	661.96
662.05	657.67
662.39	653.47
662.73	649.01
663.07	644.62
663.41	640.19
663.75	635.80
664.09	631.18
664.43	626.69
664.77	622.58
665.11	618.28
665.45	614.21
665.79	610.17
666.13	606.09
666.47	601.93
666.81	597.79
667.15	593.64
667.49	589.73
667.83	585.87
668.17	581.87
668.51	577.78
668.85	573.71
669.19	569.75
669.53	565.82
669.87	561.92
670.21	558.20
670.55	554.54
670.89	551.04
671.23	547.61
671.57	544.06
671.91	540.54
672.25	537.02
672.58	533.46
672.92	530.01
673.26	526.76
673.60	523.59
673.94	520.45
674.28	517.48
674.62	514.49
674.96	511.36
675.30	508.39
675.64	505.45
675.97	502.63
676.31	499.77
676.65	496.77
676.99	494.04
677.33	491.14
677.67	488.29
678.01	485.27
678.34	482.31
678.68	479.39
679.02	476.52
679.36	473.68
679.70	470.96
680.04	468.23
680.37	465.37
680.71	462.53
681.05	459.84
681.39	457.13
681.73	454.44
682.06	451.88
682.40	449.42
682.74	446.85
683.08	444.27
683.42	441.67
683.75	439.20
684.09	436.62
684.43	434.16
684.77	431.71
685.10	429.27
685.44	426.96
685.78	424.67
686.12	422.34
686.45	420.05
686.79	417.69
687.13	415.44
687.46	413.23
687.80	411.07
688.14	408.87
688.48	406.71
688.81	404.52
689.15	402.40
689.49	400.19
689.82	398.08
690.16	395.95
690.50	393.92
690.83	391.95
691.17	389.97
691.51	388.01
691.84	386.09
692.18	384.19
692.52	382.18
692.85	380.23
693.19	378.37
693.52	376.48
693.86	374.64
694.20	372.81
694.53	371.01
694.87	369.13
695.21	367.27
695.54	365.44
695.88	363.62
696.21	361.83
696.55	360.13
696.88	358.43
697.22	356.77
697.56	355.13
697.89	353.48
698.23	351.88
698.56	350.26
698.90	348.63
699.23	346.96
699.57	345.41
699.90	343.83
700.24	342.26
700.58	340.73
700.91	339.22
701.25	337.77
701.58	336.35
701.92	334.99
702.25	333.64
702.59	332.25
702.92	330.95
703.26	329.60
703.59	328.30
703.93	327.10
704.26	325.88
704.60	324.56
704.93	323.22
705.26	321.91
705.60	320.68
705.93	319.50
706.27	318.46
706.60	317.39
706.94	316.27
707.27	315.10
707.61	314.02
707.94	312.94
708.27	311.83
708.61	310.74
708.94	309.69
709.28	308.67
709.61	307.73
709.94	306.71
710.28	305.71
710.61	304.68
710.95	303.57
711.28	302.62
711.61	301.64
711.95	300.72
712.28	299.76
712.61	298.80
712.95	297.82
713.28	296.85
713.61	295.90
713.95	295.01
714.28	294.18
714.61	293.29
714.95	292.46
715.28	291.60
715.61	290.71
715.95	289.86
716.28	288.94
716.61	288.05
716.95	287.21
717.28	286.41
717.61	285.62
717.94	284.88
718.28	284.05
718.61	283.31
718.94	282.57
719.27	281.88
719.61	281.21
719.94	280.55
720.27	279.83
720.60	279.16
720.94	278.54
721.27	277.92
721.60	277.34
721.93	276.69
722.27	276.15
722.60	275.60
722.93	275.01
723.26	274.49
723.59	273.88
723.93	273.33
724.26	272.78
724.59	272.21
724.92	271.66
725.25	271.15
725.59	270.63
725.92	270.13
726.25	269.58
726.58	269.09
726.91	268.58
727.24	268.09
727.57	267.59
727.91	267.03
728.24	266.54
728.57	266.01
728.90	265.53
729.23	264.98
729.56	264.48
729.89	263.99
730.22	263.51
730.55	263.08
730.89	262.66
731.22	262.20
731.55	261.77
731.88	261.29
732.21	260.89
732.54	260.46
732.87	260.03
733.20	259.64
733.53	259.21
733.86	258.84
734.19	258.45
734.52	258.08
734.85	257.78
735.18	257.34
735.51	256.99
735.84	256.62
736.17	256.28
736.50	255.88
736.83	255.61
737.16	255.27
737.49	254.92
737.82	254.54
738.15	254.23
738.48	253.88
738.81	253.56
739.14	253.22
739.47	252.89
739.80	252.55
740.13	252.19
740.46	251.86
740.79	251.50
741.12	251.14
741.45	250.82
741.78	250.48
742.11	250.23
742.44	249.88
742.77	249.57
743.10	249.25
743.43	248.93
743.75	248.59
744.08	248.43
744.41	248.14
744.74	247.85
745.07	247.54
745.40	247.29
745.73	247.06
746.06	246.72
746.39	246.46
746.71	246.18
747.04	245.96
747.37	245.68
747.70	245.44
748.03	245.23
748.36	244.99
748.68	244.73
749.01	244.43
749.34	244.20
749.67	243.98
750.00	243.76
750.33	243.59
750.65	243.36
750.98	242.96
751.31	242.74
751.64	242.51
751.97	242.35
752.29	242.11
752.62	241.84
752.95	241.63
753.28	241.45
753.60	241.24
753.93	241.08
754.26	240.89
754.59	240.68
754.91	240.46
755.24	240.22
755.57	240.01
755.90	239.81
756.22	239.60
756.55	239.37
756.88	239.18
757.20	238.98
757.53	238.77
757.86	238.65
758.19	238.49
758.51	238.33
758.84	238.12
759.17	237.98
759.49	237.84
759.82	237.75
760.15	237.57
760.47	237.43
760.80	237.22
761.13	237.09
761.45	236.93
761.78	236.79
762.11	236.69
762.43	236.56
762.76	236.45
763.08	236.35
763.41	236.28
763.74	236.12
764.06	235.98
764.39	235.86
764.71	235.72
765.04	235.58
765.37	235.44
765.69	235.30
766.02	235.16
766.34	235.05
766.67	234.88
767.00	234.77
767.32	234.70
767.65	234.64
767.97	234.52
768.30	234.42
768.62	234.30
768.95	234.16
769.27	234.05
769.60	233.94
769.92	233.83
770.25	233.68
770.57	233.58
770.90	233.44
771.22	233.33
771.55	233.21
771.87	233.12
772.20	233.02
772.52	232.99
772.85	232.99
773.17	232.91
773.50	232.80
773.82	232.68
774.15	232.55
774.47	232.40
774.80	232.29
775.12	232.20
775.45	232.08
775.77	231.98
776.09	231.90
776.42	231.80
776.74	231.75
777.07	231.70
777.39	231.63
777.72	231.53
778.04	231.45
778.36	231.39
778.69	231.33
779.01	231.29
779.33	231.14
779.66	230.96
779.98	230.84
780.31	230.77
780.63	230.76
780.95	230.72
781.28	230.66
781.60	230.61
781.92	230.51
782.25	230.47
782.57	230.40
782.89	230.32
783.22	230.25
783.54	230.13
783.86	230.03
784.19	229.98
784.51	230.00
784.83	229.93
785.16	229.88
785.48	229.81
785.80	229.77
786.12	229.73
786.45	229.69
786.77	229.65
787.09	229.62
