SpectraSuite Data File
++++++++++++++++++++++++++++++++++++
Date: Fri Feb 01 16:54:20 EST 2013
User: group
Dark Spectrum Present: No
Reference Spectrum Present: No
Number of Sampled Component Spectra: 1
Spectrometers: USB2E7196
Integration Time (usec): 35000 (USB2E7196)
Spectra Averaged: 100 (USB2E7196)
Boxcar Smoothing: 10 (USB2E7196)
Correct for Electrical Dark: No (USB2E7196)
Strobe/Lamp Enabled: No (USB2E7196)
Correct for Detector Non-linearity: No (USB2E7196)
Correct for Stray Light: No (USB2E7196)
Number of Pixels in Processed Spectrum: 2048
>>>>>Begin Processed Spectral Data<<<<<
339.09	0.00
339.48	213.46
339.86	215.34
340.24	216.21
340.63	217.22
341.01	220.63
341.39	220.61
341.78	221.65
342.16	223.34
342.54	223.59
342.93	211.89
343.31	222.58
343.69	223.10
344.07	223.58
344.46	224.01
344.84	224.39
345.22	224.61
345.60	224.84
345.99	225.02
346.37	225.13
346.75	225.20
347.13	225.28
347.52	225.34
347.90	225.39
348.28	225.41
348.66	225.45
349.05	225.44
349.43	225.52
349.81	225.55
350.19	225.56
350.57	225.60
350.96	225.66
351.34	225.75
351.72	225.83
352.10	225.88
352.48	225.91
352.87	226.00
353.25	226.07
353.63	226.16
354.01	226.23
354.39	226.29
354.77	226.38
355.15	226.49
355.54	226.57
355.92	226.63
356.30	226.70
356.68	226.84
357.06	226.88
357.44	226.91
357.82	226.98
358.20	227.04
358.58	227.12
358.97	227.15
359.35	227.22
359.73	227.31
360.11	227.36
360.49	227.42
360.87	227.48
361.25	227.55
361.63	227.58
362.01	227.62
362.39	227.65
362.77	227.68
363.15	227.69
363.53	227.71
363.91	227.73
364.29	227.73
364.67	227.64
365.05	227.68
365.43	227.73
365.81	227.74
366.19	227.79
366.57	227.83
366.95	227.83
367.33	227.83
367.71	227.81
368.09	227.84
368.47	227.84
368.85	227.78
369.23	227.75
369.61	227.70
369.99	227.71
370.37	227.73
370.75	227.75
371.13	227.70
371.51	227.67
371.89	227.64
372.27	227.62
372.65	227.57
373.03	227.54
373.41	227.45
373.78	227.36
374.16	227.24
374.54	227.15
374.92	227.11
375.30	227.05
375.68	226.98
376.06	226.92
376.44	226.84
376.82	226.80
377.19	226.77
377.57	226.70
377.95	226.59
378.33	226.50
378.71	226.38
379.09	226.32
379.47	226.24
379.84	226.18
380.22	226.13
380.60	226.05
380.98	225.98
381.36	225.94
381.73	225.91
382.11	225.89
382.49	225.81
382.87	225.75
383.25	225.70
383.62	225.78
384.00	225.69
384.38	225.63
384.76	225.60
385.13	225.57
385.51	225.53
385.89	225.44
386.27	225.39
386.64	225.37
387.02	225.33
387.40	225.30
387.78	225.27
388.15	225.23
388.53	225.21
388.91	225.14
389.29	225.08
389.66	225.06
390.04	225.02
390.42	225.00
390.79	224.97
391.17	224.95
391.55	224.80
391.92	224.76
392.30	224.76
392.68	224.73
393.05	224.70
393.43	224.69
393.81	224.73
394.18	224.73
394.56	224.76
394.94	224.74
395.31	224.74
395.69	224.78
396.06	224.79
396.44	224.79
396.82	224.85
397.19	224.89
397.57	224.92
397.95	224.98
398.32	225.02
398.70	225.07
399.07	225.12
399.45	225.18
399.82	225.23
400.20	225.25
400.58	225.32
400.95	225.37
401.33	225.46
401.70	225.58
402.08	225.64
402.45	225.68
402.83	225.81
403.20	225.90
403.58	225.94
403.95	226.06
404.33	226.21
404.71	226.32
405.08	226.53
405.46	226.67
405.83	226.79
406.21	226.93
406.58	227.07
406.96	227.22
407.33	227.38
407.70	227.59
408.08	227.90
408.45	228.10
408.83	228.33
409.20	228.52
409.58	228.70
409.95	228.96
410.33	229.26
410.70	229.52
411.08	229.82
411.45	230.16
411.82	230.46
412.20	230.82
412.57	231.24
412.95	231.51
413.32	231.92
413.69	232.32
414.07	232.76
414.44	233.25
414.82	233.74
415.19	234.30
415.56	234.85
415.94	235.39
416.31	236.04
416.68	236.66
417.06	237.38
417.43	238.08
417.81	238.86
418.18	239.60
418.55	240.44
418.93	241.34
419.30	242.23
419.67	243.18
420.04	244.14
420.42	245.12
420.79	246.34
421.16	247.49
421.54	248.70
421.91	249.94
422.28	251.20
422.66	252.49
423.03	253.80
423.40	255.14
423.77	256.52
424.15	257.93
424.52	259.40
424.89	261.03
425.26	262.56
425.64	264.00
426.01	265.60
426.38	267.22
426.75	268.88
427.13	270.58
427.50	272.35
427.87	274.19
428.24	276.02
428.61	277.72
428.99	279.66
429.36	281.73
429.73	283.77
430.10	285.75
430.47	287.81
430.85	289.91
431.22	292.08
431.59	294.45
431.96	296.70
432.33	299.18
432.70	301.50
433.08	304.29
433.45	306.90
433.82	309.45
434.19	312.31
434.56	315.06
434.93	317.72
435.30	320.31
435.68	323.14
436.05	325.94
436.42	328.73
436.79	331.21
437.16	333.87
437.53	336.66
437.90	339.45
438.27	342.17
438.64	344.94
439.01	347.55
439.38	349.78
439.75	351.89
440.13	354.34
440.50	356.67
440.87	358.52
441.24	360.45
441.61	362.61
441.98	364.11
442.35	365.86
442.72	367.67
443.09	369.50
443.46	370.52
443.83	371.16
444.20	371.63
444.57	372.44
444.94	372.74
445.31	373.08
445.68	373.43
446.05	373.50
446.42	373.15
446.79	372.76
447.16	372.33
447.53	371.98
447.90	370.85
448.27	369.67
448.64	368.10
449.01	366.98
449.37	365.03
449.74	363.17
450.11	361.00
450.48	358.56
450.85	356.02
451.22	353.89
451.59	351.86
451.96	349.94
452.33	347.36
452.70	345.04
453.07	342.24
453.43	339.37
453.80	336.64
454.17	333.98
454.54	331.42
454.91	328.73
455.28	326.11
455.65	323.61
456.02	321.24
456.38	319.13
456.75	316.50
457.12	314.28
457.49	312.08
457.86	309.89
458.23	308.06
458.59	306.06
458.96	303.98
459.33	302.17
459.70	300.37
460.07	298.88
460.43	297.15
460.80	295.57
461.17	294.15
461.54	292.70
461.91	291.33
462.27	289.92
462.64	288.67
463.01	287.38
463.38	286.13
463.74	284.79
464.11	283.63
464.48	282.64
464.85	281.57
465.21	280.70
465.58	279.82
465.95	278.74
466.32	277.85
466.68	276.99
467.05	276.12
467.42	275.25
467.78	274.39
468.15	273.55
468.52	272.90
468.88	272.06
469.25	271.28
469.62	270.65
469.98	270.01
470.35	269.41
470.72	268.81
471.08	268.18
471.45	267.63
471.82	267.07
472.18	266.48
472.55	266.06
472.92	265.54
473.28	265.11
473.65	264.70
474.02	264.27
474.38	263.93
474.75	263.63
475.11	263.24
475.48	262.96
475.85	262.74
476.21	262.54
476.58	262.39
476.94	262.28
477.31	262.10
477.67	261.93
478.04	261.81
478.41	261.77
478.77	261.79
479.14	261.78
479.50	261.81
479.87	261.86
480.23	261.93
480.60	262.00
480.96	262.09
481.33	262.28
481.69	262.51
482.06	262.68
482.42	262.86
482.79	263.17
483.15	263.49
483.52	263.87
483.88	264.19
484.25	264.57
484.61	264.99
484.98	265.44
485.34	266.02
485.71	266.63
486.07	267.21
486.44	267.80
486.80	268.47
487.17	269.17
487.53	270.03
487.90	270.87
488.26	271.80
488.62	272.79
488.99	273.75
489.35	274.77
489.72	275.90
490.08	277.09
490.44	278.30
490.81	279.60
491.17	280.94
491.54	282.43
491.90	283.96
492.26	285.59
492.63	287.34
492.99	289.07
493.36	290.97
493.72	293.01
494.08	295.05
494.45	297.29
494.81	299.70
495.17	302.08
495.54	304.67
495.90	307.35
496.26	310.12
496.63	313.08
496.99	316.21
497.35	319.45
497.72	322.89
498.08	326.39
498.44	330.04
498.80	333.95
499.17	338.01
499.53	342.17
499.89	346.52
500.26	351.04
500.62	355.67
500.98	360.59
501.34	365.63
501.71	370.99
502.07	376.41
502.43	381.96
502.79	387.74
503.16	393.76
503.52	400.00
503.88	406.35
504.24	412.99
504.60	419.80
504.97	426.92
505.33	434.12
505.69	441.80
506.05	449.53
506.41	457.29
506.78	465.34
507.14	473.73
507.50	482.36
507.86	491.29
508.22	500.44
508.59	509.62
508.95	519.17
509.31	528.91
509.67	538.92
510.03	549.15
510.39	559.64
510.75	570.35
511.12	581.22
511.48	592.45
511.84	603.84
512.20	615.25
512.56	627.07
512.92	639.15
513.28	651.41
513.64	663.76
514.00	676.40
514.37	689.18
514.73	702.08
515.09	714.98
515.45	728.10
515.81	741.57
516.17	755.35
516.53	769.24
516.89	783.18
517.25	797.16
517.61	811.41
517.97	825.66
518.33	839.92
518.69	854.53
519.05	869.35
519.41	884.24
519.77	899.56
520.13	914.71
520.49	929.82
520.85	944.96
521.21	960.46
521.57	976.50
521.93	992.11
522.29	1008.31
522.65	1024.31
523.01	1040.19
523.37	1055.96
523.73	1072.01
524.09	1087.90
524.45	1103.98
524.81	1120.41
525.17	1136.85
525.53	1153.45
525.89	1170.06
526.25	1186.52
526.61	1202.60
526.97	1219.14
527.33	1235.39
527.68	1251.76
528.04	1268.06
528.40	1284.38
528.76	1301.02
529.12	1317.17
529.48	1333.76
529.84	1349.46
530.20	1365.81
530.56	1382.66
530.91	1399.76
531.27	1416.12
531.63	1432.38
531.99	1448.65
532.35	1464.37
532.71	1480.15
533.07	1496.14
533.42	1511.86
533.78	1527.73
534.14	1543.67
534.50	1558.77
534.86	1574.32
535.21	1589.23
535.57	1604.91
535.93	1620.06
536.29	1634.62
536.65	1649.49
537.00	1663.89
537.36	1678.88
537.72	1693.12
538.08	1707.32
538.44	1720.85
538.79	1734.53
539.15	1747.70
539.51	1761.10
539.87	1775.27
540.22	1788.61
540.58	1802.16
540.94	1815.02
541.29	1827.58
541.65	1840.05
542.01	1852.97
542.37	1865.10
542.72	1877.17
543.08	1888.75
543.44	1901.01
543.79	1912.15
544.15	1922.91
544.51	1934.44
544.87	1945.22
545.22	1955.92
545.58	1965.91
545.94	1975.61
546.29	1985.23
546.65	1995.10
547.01	2004.46
547.36	2012.94
547.72	2021.31
548.07	2029.10
548.43	2037.16
548.79	2045.06
549.14	2052.64
549.50	2059.88
549.86	2067.35
550.21	2074.67
550.57	2081.84
550.92	2088.33
551.28	2095.35
551.64	2102.41
551.99	2108.92
552.35	2115.19
552.70	2121.36
553.06	2127.38
553.41	2133.65
553.77	2139.83
554.13	2145.83
554.48	2151.91
554.84	2157.46
555.19	2162.75
555.55	2167.91
555.90	2172.54
556.26	2177.59
556.61	2182.16
556.97	2186.66
557.32	2190.99
557.68	2195.11
558.03	2199.41
558.39	2203.01
558.74	2207.61
559.10	2211.57
559.45	2215.30
559.81	2219.58
560.16	2223.45
560.52	2226.80
560.87	2230.12
561.23	2232.79
561.58	2235.73
561.94	2238.20
562.29	2240.46
562.64	2243.34
563.00	2245.95
563.35	2249.58
563.71	2252.70
564.06	2255.98
564.42	2258.86
564.77	2261.44
565.12	2264.11
565.48	2266.16
565.83	2268.38
566.19	2269.86
566.54	2270.86
566.89	2271.93
567.25	2272.69
567.60	2274.06
567.96	2275.80
568.31	2276.80
568.66	2278.04
569.02	2278.83
569.37	2279.39
569.72	2280.48
570.08	2280.90
570.43	2281.12
570.78	2280.68
571.14	2279.32
571.49	2278.10
571.84	2277.67
572.20	2276.61
572.55	2275.55
572.90	2273.87
573.26	2272.56
573.61	2270.94
573.96	2269.35
574.31	2266.66
574.67	2263.81
575.02	2260.40
575.37	2257.14
575.72	2253.61
576.08	2250.23
576.43	2247.02
576.78	2243.65
577.13	2240.50
577.49	2237.21
577.84	2233.86
578.19	2230.14
578.54	2226.85
578.90	2223.01
579.25	2217.71
579.60	2213.11
579.95	2208.30
580.30	2203.58
580.66	2198.63
581.01	2193.86
581.36	2189.16
581.71	2185.16
582.06	2181.01
582.42	2176.81
582.77	2171.73
583.12	2167.32
583.47	2163.06
583.82	2158.33
584.17	2153.07
584.53	2147.89
584.88	2142.55
585.23	2137.01
585.58	2131.69
585.93	2126.22
586.28	2121.39
586.63	2116.58
586.98	2111.56
587.34	2106.95
587.69	2102.26
588.04	2097.14
588.39	2091.61
588.74	2085.28
589.09	2079.16
589.44	2072.41
589.79	2066.31
590.14	2060.84
590.49	2054.44
590.84	2048.13
591.19	2042.15
591.54	2035.97
591.89	2028.85
592.25	2022.30
592.60	2015.05
592.95	2007.80
593.30	2000.54
593.65	1993.07
594.00	1986.17
594.35	1979.01
594.70	1971.05
595.05	1964.15
595.40	1957.07
595.75	1949.73
596.10	1943.75
596.45	1937.29
596.80	1931.25
597.15	1924.83
597.50	1918.01
597.85	1911.64
598.19	1905.10
598.54	1898.15
598.89	1891.58
599.24	1885.76
599.59	1879.35
599.94	1873.37
600.29	1867.01
600.64	1860.58
600.99	1853.32
601.34	1846.63
601.69	1839.81
602.04	1833.17
602.39	1825.76
602.74	1818.99
603.08	1812.44
603.43	1805.68
603.78	1798.47
604.13	1791.23
604.48	1784.20
604.83	1777.36
605.18	1770.64
605.53	1762.72
605.87	1754.84
606.22	1747.69
606.57	1739.70
606.92	1732.14
607.27	1725.14
607.62	1718.50
607.96	1711.35
608.31	1705.11
608.66	1697.66
609.01	1690.27
609.36	1682.90
609.70	1675.00
610.05	1667.02
610.40	1659.42
610.75	1651.27
611.10	1643.69
611.44	1635.44
611.79	1627.36
612.14	1618.79
612.49	1609.50
612.83	1601.19
613.18	1593.17
613.53	1585.13
613.88	1576.69
614.22	1568.55
614.57	1559.86
614.92	1551.80
615.27	1544.27
615.61	1535.90
615.96	1527.81
616.31	1520.19
616.65	1512.71
617.00	1505.17
617.35	1497.51
617.70	1489.30
618.04	1480.73
618.39	1472.38
618.74	1464.90
619.08	1456.59
619.43	1448.95
619.78	1442.19
620.12	1435.18
620.47	1427.61
620.82	1419.38
621.16	1411.95
621.51	1404.29
621.85	1396.73
622.20	1388.28
622.55	1379.85
622.89	1371.99
623.24	1364.38
623.59	1356.85
623.93	1349.39
624.28	1342.21
624.62	1334.79
624.97	1327.58
625.32	1320.86
625.66	1313.92
626.01	1306.78
626.35	1299.44
626.70	1291.60
627.04	1283.91
627.39	1276.06
627.73	1268.79
628.08	1261.94
628.43	1254.91
628.77	1247.76
629.12	1240.26
629.46	1233.04
629.81	1225.68
630.15	1218.42
630.50	1211.07
630.84	1203.07
631.19	1195.08
631.53	1187.49
631.88	1179.88
632.22	1172.24
632.57	1164.95
632.91	1157.49
633.26	1150.05
633.60	1142.61
633.95	1135.56
634.29	1128.53
634.64	1121.82
634.98	1114.45
635.32	1107.27
635.67	1100.48
636.01	1093.73
636.36	1086.98
636.70	1080.52
637.05	1073.97
637.39	1067.50
637.73	1060.99
638.08	1055.04
638.42	1049.08
638.77	1042.72
639.11	1036.25
639.45	1029.94
639.80	1023.22
640.14	1016.81
640.49	1010.32
640.83	1004.06
641.17	997.88
641.52	991.54
641.86	985.05
642.20	979.19
642.55	972.87
642.89	966.46
643.23	959.86
643.58	954.11
643.92	947.90
644.26	941.97
644.61	935.86
644.95	929.87
645.29	923.34
645.64	916.63
645.98	910.32
646.32	904.26
646.66	898.14
647.01	892.38
647.35	886.76
647.69	880.91
648.04	875.39
648.38	869.70
648.72	863.86
649.06	857.87
649.41	852.00
649.75	846.19
650.09	840.26
650.43	834.57
650.78	828.45
651.12	822.51
651.46	816.76
651.80	811.11
652.14	805.75
652.49	800.39
652.83	795.30
653.17	789.70
653.51	784.18
653.85	778.89
654.20	773.41
654.54	767.34
654.88	761.56
655.22	755.66
655.56	749.93
655.90	744.33
656.25	739.18
656.59	733.73
656.93	728.59
657.27	723.45
657.61	718.03
657.95	712.93
658.29	707.82
658.64	702.56
658.98	697.22
659.32	691.75
659.66	686.61
660.00	681.31
660.34	676.29
660.68	671.31
661.02	666.23
661.36	661.47
661.70	656.98
662.05	652.73
662.39	648.49
662.73	644.04
663.07	639.71
663.41	635.27
663.75	630.81
664.09	626.25
664.43	621.89
664.77	617.78
665.11	613.51
665.45	609.41
665.79	605.35
666.13	601.34
666.47	597.21
666.81	593.03
667.15	588.93
667.49	585.08
667.83	581.31
668.17	577.38
668.51	573.33
668.85	569.29
669.19	565.33
669.53	561.48
669.87	557.61
670.21	553.95
670.55	550.27
670.89	546.90
671.23	543.54
671.57	540.01
671.91	536.49
672.25	533.00
672.58	529.51
672.92	526.11
673.26	522.89
673.60	519.77
673.94	516.63
674.28	513.64
674.62	510.70
674.96	507.60
675.30	504.69
675.64	501.75
675.97	498.97
676.31	496.11
676.65	493.18
676.99	490.47
677.33	487.55
677.67	484.67
678.01	481.68
678.34	478.71
678.68	475.81
679.02	473.03
679.36	470.26
679.70	467.51
680.04	464.79
680.37	461.97
680.71	459.18
681.05	456.54
681.39	453.85
681.73	451.23
682.06	448.71
682.40	446.13
682.74	443.62
683.08	441.11
683.42	438.57
683.75	436.11
684.09	433.57
684.43	431.14
684.77	428.76
685.10	426.41
685.44	424.04
685.78	421.74
686.12	419.46
686.45	417.17
686.79	414.90
687.13	412.65
687.46	410.41
687.80	408.23
688.14	406.02
688.48	403.93
688.81	401.64
689.15	399.44
689.49	397.32
689.82	395.20
690.16	393.09
690.50	391.10
690.83	389.13
691.17	387.11
691.51	385.18
691.84	383.32
692.18	381.37
692.52	379.42
692.85	377.50
693.19	375.61
693.52	373.75
693.86	371.92
694.20	370.13
694.53	368.33
694.87	366.50
695.21	364.71
695.54	362.91
695.88	361.20
696.21	359.48
696.55	357.81
696.88	356.14
697.22	354.45
697.56	352.77
697.89	351.09
698.23	349.50
698.56	347.88
698.90	346.28
699.23	344.66
699.57	343.12
699.90	341.59
700.24	340.05
700.58	338.58
700.91	337.08
701.25	335.66
701.58	334.31
701.92	332.94
702.25	331.57
702.59	330.23
702.92	328.88
703.26	327.59
703.59	326.30
703.93	325.08
704.26	323.86
704.60	322.63
704.93	321.41
705.26	320.19
705.60	318.99
705.93	317.83
706.27	316.81
706.60	315.75
706.94	314.67
707.27	313.56
707.61	312.47
707.94	311.48
708.27	310.41
708.61	309.34
708.94	308.37
709.28	307.38
709.61	306.41
709.94	305.45
710.28	304.41
710.61	303.48
710.95	302.43
711.28	301.49
711.61	300.53
711.95	299.58
712.28	298.60
712.61	297.62
712.95	296.68
713.28	295.77
713.61	294.88
713.95	294.00
714.28	293.14
714.61	292.28
714.95	291.40
715.28	290.54
715.61	289.61
715.95	288.74
716.28	287.91
716.61	287.06
716.95	286.22
717.28	285.49
717.61	284.70
717.94	283.95
718.28	283.20
718.61	282.47
718.94	281.77
719.27	281.12
719.61	280.47
719.94	279.84
720.27	279.11
720.60	278.45
720.94	277.81
721.27	277.22
721.60	276.64
721.93	276.02
722.27	275.47
722.60	274.96
722.93	274.38
723.26	273.84
723.59	273.30
723.93	272.77
724.26	272.21
724.59	271.65
724.92	271.12
725.25	270.59
725.59	270.09
725.92	269.63
726.25	269.14
726.58	268.62
726.91	268.12
727.24	267.67
727.57	267.20
727.91	266.68
728.24	266.21
728.57	265.74
728.90	265.30
729.23	264.78
729.56	264.34
729.89	263.88
730.22	263.39
730.55	262.91
730.89	262.47
731.22	262.02
731.55	261.56
731.88	261.13
732.21	260.71
732.54	260.22
732.87	259.76
733.20	259.37
733.53	259.00
733.86	258.61
734.19	258.19
734.52	257.79
734.85	257.46
735.18	257.06
735.51	256.70
735.84	256.34
736.17	256.00
736.50	255.60
736.83	255.39
737.16	255.08
737.49	254.73
737.82	254.39
738.15	254.05
738.48	253.72
738.81	253.37
739.14	253.02
739.47	252.77
739.80	252.46
740.13	252.11
740.46	251.80
740.79	251.46
741.12	251.19
741.45	250.86
741.78	250.54
742.11	250.26
742.44	249.94
742.77	249.66
743.10	249.34
743.43	249.05
743.75	248.67
744.08	248.50
744.41	248.24
744.74	247.97
745.07	247.71
745.40	247.46
745.73	247.23
746.06	246.95
746.39	246.67
746.71	246.39
747.04	246.15
747.37	245.94
747.70	245.71
748.03	245.46
748.36	245.29
748.68	245.06
749.01	244.80
749.34	244.58
749.67	244.33
750.00	244.14
750.33	243.99
750.65	243.77
750.98	243.41
751.31	243.20
751.64	243.02
751.97	242.87
752.29	242.67
752.62	242.43
752.95	242.24
753.28	242.04
753.60	241.85
753.93	241.64
754.26	241.39
754.59	241.19
754.91	240.98
755.24	240.76
755.57	240.57
755.90	240.41
756.22	240.21
756.55	240.01
756.88	239.78
757.20	239.53
757.53	239.33
757.86	239.18
758.19	239.02
758.51	238.82
758.84	238.60
759.17	238.40
759.49	238.25
759.82	238.13
760.15	237.97
760.47	237.80
760.80	237.63
761.13	237.50
761.45	237.36
761.78	237.16
762.11	237.00
762.43	236.85
762.76	236.68
763.08	236.54
763.41	236.39
763.74	236.25
764.06	236.08
764.39	235.90
764.71	235.74
765.04	235.60
765.37	235.42
765.69	235.25
766.02	235.14
766.34	234.97
766.67	234.80
767.00	234.71
767.32	234.65
767.65	234.59
767.97	234.47
768.30	234.29
768.62	234.21
768.95	234.08
769.27	233.93
769.60	233.82
769.92	233.69
770.25	233.58
770.57	233.47
770.90	233.42
771.22	233.33
771.55	233.26
771.87	233.16
772.20	233.10
772.52	233.11
772.85	233.15
773.17	233.08
773.50	233.01
773.82	232.88
774.15	232.74
774.47	232.63
774.80	232.51
775.12	232.45
775.45	232.39
775.77	232.33
776.09	232.27
776.42	232.21
776.74	232.16
777.07	232.10
777.39	232.04
777.72	231.92
778.04	231.84
778.36	231.73
778.69	231.62
779.01	231.56
779.33	231.40
779.66	231.21
779.98	231.16
780.31	231.07
780.63	231.07
780.95	231.02
781.28	230.93
781.60	230.88
781.92	230.81
782.25	230.73
782.57	230.69
782.89	230.61
783.22	230.52
783.54	230.45
783.86	230.40
784.19	230.33
784.51	230.35
784.83	230.31
785.16	230.28
785.48	230.29
785.80	230.23
786.12	230.19
786.45	230.14
786.77	230.06
787.09	230.04
