SpectraSuite Data File
++++++++++++++++++++++++++++++++++++
Date: Fri Feb 01 16:46:58 EST 2013
User: group
Dark Spectrum Present: No
Reference Spectrum Present: No
Number of Sampled Component Spectra: 1
Spectrometers: USB2E7196
Integration Time (usec): 35000 (USB2E7196)
Spectra Averaged: 100 (USB2E7196)
Boxcar Smoothing: 10 (USB2E7196)
Correct for Electrical Dark: No (USB2E7196)
Strobe/Lamp Enabled: No (USB2E7196)
Correct for Detector Non-linearity: No (USB2E7196)
Correct for Stray Light: No (USB2E7196)
Number of Pixels in Processed Spectrum: 2048
>>>>>Begin Processed Spectral Data<<<<<
339.09	0.00
339.48	213.70
339.86	214.53
340.24	216.57
340.63	217.20
341.01	220.53
341.39	220.42
341.78	221.48
342.16	223.13
342.54	223.39
342.93	211.88
343.31	222.59
343.69	223.13
344.07	223.62
344.46	224.05
344.84	224.43
345.22	224.66
345.60	224.91
345.99	225.10
346.37	225.21
346.75	225.32
347.13	225.38
347.52	225.41
347.90	225.46
348.28	225.49
348.66	225.52
349.05	225.54
349.43	225.56
349.81	225.59
350.19	225.63
350.57	225.66
350.96	225.70
351.34	225.76
351.72	225.83
352.10	225.91
352.48	225.98
352.87	226.03
353.25	226.09
353.63	226.15
354.01	226.20
354.39	226.28
354.77	226.34
355.15	226.47
355.54	226.54
355.92	226.57
356.30	226.67
356.68	226.77
357.06	226.86
357.44	226.88
357.82	226.95
358.20	227.03
358.58	227.08
358.97	227.15
359.35	227.24
359.73	227.33
360.11	227.37
360.49	227.39
360.87	227.44
361.25	227.47
361.63	227.55
362.01	227.59
362.39	227.63
362.77	227.69
363.15	227.71
363.53	227.72
363.91	227.71
364.29	227.71
364.67	227.66
365.05	227.65
365.43	227.74
365.81	227.74
366.19	227.79
366.57	227.86
366.95	227.85
367.33	227.81
367.71	227.76
368.09	227.78
368.47	227.77
368.85	227.77
369.23	227.81
369.61	227.74
369.99	227.73
370.37	227.69
370.75	227.70
371.13	227.66
371.51	227.62
371.89	227.62
372.27	227.64
372.65	227.61
373.03	227.57
373.41	227.51
373.78	227.45
374.16	227.33
374.54	227.22
374.92	227.15
375.30	227.09
375.68	227.04
376.06	226.99
376.44	226.90
376.82	226.82
377.19	226.75
377.57	226.71
377.95	226.63
378.33	226.55
378.71	226.41
379.09	226.36
379.47	226.32
379.84	226.25
380.22	226.14
380.60	226.04
380.98	225.98
381.36	225.94
381.73	225.91
382.11	225.87
382.49	225.83
382.87	225.79
383.25	225.75
383.62	225.81
384.00	225.74
384.38	225.66
384.76	225.65
385.13	225.62
385.51	225.59
385.89	225.52
386.27	225.51
386.64	225.50
387.02	225.41
387.40	225.34
387.78	225.33
388.15	225.28
388.53	225.28
388.91	225.22
389.29	225.15
389.66	225.10
390.04	225.07
390.42	225.07
390.79	225.04
391.17	225.00
391.55	224.91
391.92	224.91
392.30	224.96
392.68	224.93
393.05	224.92
393.43	224.89
393.81	224.90
394.18	224.88
394.56	224.89
394.94	224.94
395.31	224.95
395.69	225.00
396.06	225.04
396.44	225.08
396.82	225.11
397.19	225.20
397.57	225.21
397.95	225.26
398.32	225.28
398.70	225.32
399.07	225.43
399.45	225.47
399.82	225.52
400.20	225.58
400.58	225.61
400.95	225.65
401.33	225.77
401.70	225.92
402.08	225.99
402.45	226.08
402.83	226.19
403.20	226.28
403.58	226.32
403.95	226.46
404.33	226.55
404.71	226.64
405.08	226.82
405.46	226.96
405.83	227.09
406.21	227.22
406.58	227.36
406.96	227.48
407.33	227.60
407.70	227.80
408.08	228.06
408.45	228.31
408.83	228.53
409.20	228.70
409.58	228.85
409.95	229.12
410.33	229.37
410.70	229.57
411.08	229.86
411.45	230.21
411.82	230.48
412.20	230.84
412.57	231.28
412.95	231.54
413.32	231.96
413.69	232.35
414.07	232.79
414.44	233.26
414.82	233.74
415.19	234.32
415.56	234.87
415.94	235.38
416.31	236.00
416.68	236.62
417.06	237.34
417.43	238.03
417.81	238.79
418.18	239.60
418.55	240.46
418.93	241.33
419.30	242.20
419.67	243.15
420.04	244.10
420.42	245.07
420.79	246.25
421.16	247.38
421.54	248.60
421.91	249.76
422.28	251.03
422.66	252.32
423.03	253.61
423.40	254.92
423.77	256.30
424.15	257.73
424.52	259.21
424.89	260.85
425.26	262.40
425.64	263.85
426.01	265.41
426.38	267.08
426.75	268.77
427.13	270.50
427.50	272.31
427.87	274.14
428.24	275.99
428.61	277.71
428.99	279.64
429.36	281.69
429.73	283.79
430.10	285.78
430.47	287.86
430.85	289.96
431.22	292.15
431.59	294.54
431.96	296.70
432.33	299.15
432.70	301.49
433.08	304.30
433.45	306.90
433.82	309.50
434.19	312.37
434.56	315.15
434.93	317.77
435.30	320.37
435.68	323.25
436.05	326.10
436.42	328.88
436.79	331.39
437.16	334.08
437.53	336.87
437.90	339.67
438.27	342.36
438.64	345.15
439.01	347.75
439.38	349.95
439.75	352.14
440.13	354.63
440.50	356.95
440.87	358.72
441.24	360.61
441.61	362.72
441.98	364.16
442.35	365.91
442.72	367.75
443.09	369.49
443.46	370.46
443.83	370.98
444.20	371.50
444.57	372.33
444.94	372.60
445.31	372.96
445.68	373.31
446.05	373.38
446.42	373.08
446.79	372.68
447.16	372.22
447.53	371.93
447.90	370.77
448.27	369.61
448.64	368.08
449.01	367.03
449.37	365.12
449.74	363.29
450.11	361.09
450.48	358.67
450.85	356.21
451.22	354.09
451.59	352.13
451.96	350.19
452.33	347.61
452.70	345.26
453.07	342.43
453.43	339.56
453.80	336.85
454.17	334.15
454.54	331.65
454.91	329.00
455.28	326.38
455.65	323.93
456.02	321.50
456.38	319.37
456.75	316.71
457.12	314.49
457.49	312.26
457.86	310.13
458.23	308.27
458.59	306.24
458.96	304.21
459.33	302.38
459.70	300.56
460.07	299.12
460.43	297.47
460.80	295.88
461.17	294.49
461.54	293.02
461.91	291.60
462.27	290.11
462.64	288.85
463.01	287.45
463.38	286.19
463.74	284.87
464.11	283.73
464.48	282.74
464.85	281.62
465.21	280.77
465.58	279.81
465.95	278.71
466.32	277.82
466.68	276.91
467.05	276.03
467.42	275.19
467.78	274.23
468.15	273.34
468.52	272.68
468.88	271.81
469.25	271.00
469.62	270.39
469.98	269.78
470.35	269.15
470.72	268.59
471.08	267.90
471.45	267.38
471.82	266.84
472.18	266.22
472.55	265.79
472.92	265.30
473.28	264.89
473.65	264.49
474.02	264.05
474.38	263.65
474.75	263.35
475.11	263.00
475.48	262.75
475.85	262.55
476.21	262.36
476.58	262.23
476.94	262.14
477.31	262.00
477.67	261.81
478.04	261.76
478.41	261.73
478.77	261.83
479.14	261.74
479.50	261.75
479.87	261.88
480.23	261.99
480.60	262.05
480.96	262.15
481.33	262.35
481.69	262.56
482.06	262.80
482.42	263.02
482.79	263.26
483.15	263.60
483.52	263.98
483.88	264.33
484.25	264.71
484.61	265.10
484.98	265.57
485.34	266.14
485.71	266.69
486.07	267.28
486.44	267.83
486.80	268.56
487.17	269.29
487.53	270.09
487.90	270.92
488.26	271.87
488.62	272.85
488.99	273.79
489.35	274.87
489.72	276.00
490.08	277.20
490.44	278.46
490.81	279.78
491.17	281.14
491.54	282.58
491.90	284.11
492.26	285.78
492.63	287.51
492.99	289.33
493.36	291.25
493.72	293.31
494.08	295.41
494.45	297.65
494.81	300.04
495.17	302.48
495.54	305.04
495.90	307.69
496.26	310.50
496.63	313.47
496.99	316.54
497.35	319.80
497.72	323.19
498.08	326.67
498.44	330.33
498.80	334.18
499.17	338.25
499.53	342.37
499.89	346.71
500.26	351.18
500.62	355.84
500.98	360.79
501.34	365.80
501.71	371.10
502.07	376.53
502.43	382.15
502.79	387.94
503.16	394.06
503.52	400.31
503.88	406.69
504.24	413.35
504.60	420.19
504.97	427.31
505.33	434.57
505.69	442.32
506.05	450.08
506.41	458.02
506.78	466.09
507.14	474.57
507.50	483.28
507.86	492.31
508.22	501.46
508.59	510.64
508.95	520.18
509.31	529.97
509.67	540.03
510.03	550.26
510.39	560.77
510.75	571.48
511.12	582.42
511.48	593.72
511.84	605.08
512.20	616.58
512.56	628.49
512.92	640.64
513.28	652.80
513.64	665.18
514.00	677.80
514.37	690.78
514.73	703.70
515.09	716.62
515.45	729.89
515.81	743.32
516.17	757.17
516.53	771.22
516.89	785.26
517.25	799.46
517.61	813.77
517.97	828.19
518.33	842.46
518.69	857.08
519.05	871.81
519.41	886.88
519.77	902.28
520.13	917.56
520.49	932.84
520.85	948.20
521.21	963.75
521.57	979.84
521.93	995.39
522.29	1011.73
522.65	1027.86
523.01	1043.86
523.37	1059.78
523.73	1075.91
524.09	1091.95
524.45	1108.08
524.81	1124.35
525.17	1140.93
525.53	1157.59
525.89	1174.33
526.25	1191.02
526.61	1207.39
526.97	1223.95
527.33	1240.18
527.68	1256.61
528.04	1273.03
528.40	1289.40
528.76	1306.31
529.12	1322.67
529.48	1339.32
529.84	1355.05
530.20	1371.43
530.56	1388.20
530.91	1405.49
531.27	1422.00
531.63	1438.24
531.99	1454.78
532.35	1470.75
532.71	1486.49
533.07	1502.52
533.42	1518.33
533.78	1534.24
534.14	1550.32
534.50	1565.61
534.86	1581.42
535.21	1596.39
535.57	1612.02
535.93	1627.39
536.29	1642.04
536.65	1656.93
537.00	1671.48
537.36	1686.61
537.72	1701.07
538.08	1715.33
538.44	1729.03
538.79	1742.72
539.15	1756.15
539.51	1769.62
539.87	1783.72
540.22	1797.26
540.58	1810.85
540.94	1823.79
541.29	1836.42
541.65	1848.86
542.01	1861.73
542.37	1873.83
542.72	1886.07
543.08	1897.70
543.44	1909.87
543.79	1920.99
544.15	1931.90
544.51	1943.46
544.87	1954.32
545.22	1965.07
545.58	1975.21
545.94	1984.76
546.29	1994.55
546.65	2004.49
547.01	2013.63
547.36	2022.22
547.72	2030.61
548.07	2038.57
548.43	2046.66
548.79	2054.47
549.14	2062.05
549.50	2069.30
549.86	2076.88
550.21	2084.23
550.57	2091.45
550.92	2097.88
551.28	2104.90
551.64	2111.85
551.99	2118.36
552.35	2124.58
552.70	2130.59
553.06	2136.53
553.41	2142.76
553.77	2148.63
554.13	2154.48
554.48	2160.52
554.84	2166.09
555.19	2171.30
555.55	2176.35
555.90	2180.88
556.26	2186.04
556.61	2190.67
556.97	2195.16
557.32	2199.29
557.68	2203.35
558.03	2207.41
558.39	2211.15
558.74	2215.80
559.10	2219.60
559.45	2223.06
559.81	2227.19
560.16	2231.02
560.52	2234.30
560.87	2237.89
561.23	2240.69
561.58	2243.64
561.94	2246.32
562.29	2248.59
562.64	2251.43
563.00	2254.02
563.35	2257.54
563.71	2260.51
564.06	2263.68
564.42	2266.58
564.77	2269.34
565.12	2271.81
565.48	2273.92
565.83	2275.94
566.19	2277.23
566.54	2278.19
566.89	2279.49
567.25	2280.32
567.60	2281.61
567.96	2283.40
568.31	2284.19
568.66	2285.45
569.02	2286.30
569.37	2286.69
569.72	2287.76
570.08	2287.99
570.43	2288.09
570.78	2287.70
571.14	2286.26
571.49	2284.96
571.84	2284.53
572.20	2283.36
572.55	2282.39
572.90	2280.73
573.26	2279.59
573.61	2277.89
573.96	2276.46
574.31	2273.66
574.67	2270.63
575.02	2267.01
575.37	2263.59
575.72	2259.99
576.08	2256.54
576.43	2253.05
576.78	2249.44
577.13	2246.16
577.49	2242.93
577.84	2239.55
578.19	2235.82
578.54	2232.49
578.90	2228.52
579.25	2223.08
579.60	2218.39
579.95	2213.39
580.30	2208.55
580.66	2203.31
581.01	2198.45
581.36	2193.51
581.71	2189.42
582.06	2185.22
582.42	2181.21
582.77	2176.18
583.12	2171.66
583.47	2167.20
583.82	2162.44
584.17	2157.41
584.53	2152.13
584.88	2146.83
585.23	2141.22
585.58	2135.84
585.93	2130.38
586.28	2125.47
586.63	2120.56
586.98	2115.49
587.34	2110.86
587.69	2106.14
588.04	2101.05
588.39	2095.65
588.74	2089.26
589.09	2083.22
589.44	2076.53
589.79	2070.39
590.14	2064.72
590.49	2058.24
590.84	2051.77
591.19	2045.75
591.54	2039.24
591.89	2032.05
592.25	2025.30
592.60	2018.22
592.95	2010.89
593.30	2003.67
593.65	1996.28
594.00	1989.41
594.35	1982.20
594.70	1974.28
595.05	1967.15
595.40	1959.99
595.75	1952.52
596.10	1946.61
596.45	1940.02
596.80	1933.86
597.15	1927.40
597.50	1920.70
597.85	1914.34
598.19	1907.89
598.54	1900.96
598.89	1894.48
599.24	1888.60
599.59	1881.99
599.94	1875.83
600.29	1869.60
600.64	1862.95
600.99	1855.81
601.34	1849.06
601.69	1842.13
602.04	1835.52
602.39	1828.38
602.74	1821.47
603.08	1814.82
603.43	1808.03
603.78	1800.69
604.13	1793.53
604.48	1786.40
604.83	1779.47
605.18	1772.76
605.53	1764.84
605.87	1756.92
606.22	1749.73
606.57	1741.86
606.92	1734.59
607.27	1727.52
607.62	1720.74
607.96	1713.62
608.31	1707.06
608.66	1699.68
609.01	1692.28
609.36	1684.70
609.70	1676.63
610.05	1668.75
610.40	1661.16
610.75	1652.85
611.10	1645.34
611.44	1636.97
611.79	1628.90
612.14	1620.36
612.49	1611.07
612.83	1602.64
613.18	1594.52
613.53	1586.46
613.88	1577.94
614.22	1569.85
614.57	1561.16
614.92	1553.06
615.27	1545.58
615.61	1537.24
615.96	1528.97
616.31	1521.33
616.65	1513.93
617.00	1506.34
617.35	1498.62
617.70	1490.39
618.04	1481.92
618.39	1473.66
618.74	1466.18
619.08	1457.86
619.43	1450.19
619.78	1443.32
620.12	1436.36
620.47	1428.98
620.82	1420.76
621.16	1413.33
621.51	1405.59
621.85	1397.99
622.20	1389.51
622.55	1381.01
622.89	1373.17
623.24	1365.47
623.59	1358.04
623.93	1350.60
624.28	1343.44
624.62	1336.12
624.97	1328.81
625.32	1321.99
625.66	1314.93
626.01	1307.71
626.35	1300.41
626.70	1292.66
627.04	1285.00
627.39	1277.13
627.73	1269.65
628.08	1262.81
628.43	1255.67
628.77	1248.37
629.12	1240.81
629.46	1233.67
629.81	1226.38
630.15	1219.19
630.50	1211.92
630.84	1203.70
631.19	1195.68
631.53	1188.14
631.88	1180.49
632.22	1172.99
632.57	1165.71
632.91	1158.20
633.26	1150.89
633.60	1143.40
633.95	1136.19
634.29	1129.08
634.64	1122.35
634.98	1115.00
635.32	1107.80
635.67	1101.16
636.01	1094.52
636.36	1087.80
636.70	1081.15
637.05	1074.62
637.39	1068.15
637.73	1061.69
638.08	1055.87
638.42	1049.89
638.77	1043.45
639.11	1036.98
639.45	1030.54
639.80	1023.95
640.14	1017.62
640.49	1011.11
640.83	1004.87
641.17	998.76
641.52	992.41
641.86	985.96
642.20	980.09
642.55	973.75
642.89	967.29
643.23	960.73
643.58	954.99
643.92	948.87
644.26	942.87
644.61	936.70
644.95	930.74
645.29	924.16
645.64	917.44
645.98	911.13
646.32	905.09
646.66	899.07
647.01	893.30
647.35	887.60
647.69	881.66
648.04	876.08
648.38	870.30
648.72	864.42
649.06	858.47
649.41	852.60
649.75	846.74
650.09	840.76
650.43	834.98
650.78	828.87
651.12	822.94
651.46	817.16
651.80	811.57
652.14	806.11
652.49	800.84
652.83	795.71
653.17	790.08
653.51	784.51
653.85	779.12
654.20	773.46
654.54	767.49
654.88	761.82
655.22	755.95
655.56	750.35
655.90	744.91
656.25	739.63
656.59	734.28
656.93	729.18
657.27	724.16
657.61	718.71
657.95	713.59
658.29	708.58
658.64	703.31
658.98	698.04
659.32	692.58
659.66	687.37
660.00	682.14
660.34	677.19
660.68	672.27
661.02	667.29
661.36	662.64
661.70	658.12
662.05	653.82
662.39	649.54
662.73	644.98
663.07	640.62
663.41	636.21
663.75	631.80
664.09	627.23
664.43	622.76
664.77	618.72
665.11	614.53
665.45	610.38
665.79	606.32
666.13	602.15
666.47	598.08
666.81	593.92
667.15	589.75
667.49	585.87
667.83	582.00
668.17	578.10
668.51	573.99
668.85	569.98
669.19	566.02
669.53	562.22
669.87	558.39
670.21	554.67
670.55	551.01
670.89	547.53
671.23	544.16
671.57	540.63
671.91	537.09
672.25	533.51
672.58	529.96
672.92	526.52
673.26	523.29
673.60	520.17
673.94	517.03
674.28	514.08
674.62	511.08
674.96	508.03
675.30	505.13
675.64	502.20
675.97	499.38
676.31	496.52
676.65	493.54
676.99	490.82
677.33	487.92
677.67	485.08
678.01	482.06
678.34	479.05
678.68	476.16
679.02	473.30
679.36	470.52
679.70	467.81
680.04	465.10
680.37	462.28
680.71	459.43
681.05	456.76
681.39	454.00
681.73	451.34
682.06	448.79
682.40	446.19
682.74	443.64
683.08	441.06
683.42	438.45
683.75	435.97
684.09	433.37
684.43	430.89
684.77	428.43
685.10	426.03
685.44	423.72
685.78	421.37
686.12	419.11
686.45	416.81
686.79	414.55
687.13	412.32
687.46	410.10
687.80	407.92
688.14	405.71
688.48	403.74
688.81	401.56
689.15	399.36
689.49	397.23
689.82	395.19
690.16	393.18
690.50	391.25
690.83	389.31
691.17	387.33
691.51	385.50
691.84	383.65
692.18	381.80
692.52	379.85
692.85	377.96
693.19	376.08
693.52	374.28
693.86	372.39
694.20	370.62
694.53	368.89
694.87	367.08
695.21	365.27
695.54	363.42
695.88	361.68
696.21	359.98
696.55	358.28
696.88	356.54
697.22	354.82
697.56	353.20
697.89	351.55
698.23	349.98
698.56	348.32
698.90	346.77
699.23	345.11
699.57	343.55
699.90	342.08
700.24	340.56
700.58	339.04
700.91	337.55
701.25	336.10
701.58	334.69
701.92	333.37
702.25	332.05
702.59	330.69
702.92	329.38
703.26	328.10
703.59	326.85
703.93	325.69
704.26	324.51
704.60	323.20
704.93	321.94
705.26	320.69
705.60	319.52
705.93	318.37
706.27	317.34
706.60	316.29
706.94	315.22
707.27	314.09
707.61	312.99
707.94	311.98
708.27	310.88
708.61	309.81
708.94	308.77
709.28	307.76
709.61	306.80
709.94	305.84
710.28	304.79
710.61	303.76
710.95	302.65
711.28	301.69
711.61	300.75
711.95	299.79
712.28	298.81
712.61	297.81
712.95	296.84
713.28	295.90
713.61	294.96
713.95	294.02
714.28	293.14
714.61	292.26
714.95	291.39
715.28	290.53
715.61	289.62
715.95	288.75
716.28	287.90
716.61	287.07
716.95	286.20
717.28	285.44
717.61	284.66
717.94	283.91
718.28	283.11
718.61	282.37
718.94	281.71
719.27	281.04
719.61	280.38
719.94	279.72
720.27	279.02
720.60	278.35
720.94	277.70
721.27	277.06
721.60	276.48
721.93	275.87
722.27	275.34
722.60	274.79
722.93	274.22
723.26	273.66
723.59	273.08
723.93	272.55
724.26	271.98
724.59	271.42
724.92	270.94
725.25	270.40
725.59	269.86
725.92	269.33
726.25	268.82
726.58	268.34
726.91	267.82
727.24	267.33
727.57	266.83
727.91	266.32
728.24	265.90
728.57	265.39
728.90	264.97
729.23	264.47
729.56	264.05
729.89	263.58
730.22	263.09
730.55	262.60
730.89	262.11
731.22	261.67
731.55	261.23
731.88	260.77
732.21	260.38
732.54	259.95
732.87	259.55
733.20	259.17
733.53	258.77
733.86	258.42
734.19	258.05
734.52	257.69
734.85	257.37
735.18	256.94
735.51	256.60
735.84	256.19
736.17	255.83
736.50	255.45
736.83	255.18
737.16	254.85
737.49	254.53
737.82	254.23
738.15	253.94
738.48	253.62
738.81	253.31
739.14	252.99
739.47	252.71
739.80	252.36
740.13	252.02
740.46	251.70
740.79	251.40
741.12	251.10
741.45	250.80
741.78	250.45
742.11	250.17
742.44	249.85
742.77	249.59
743.10	249.31
743.43	249.04
743.75	248.69
744.08	248.58
744.41	248.29
744.74	248.01
745.07	247.72
745.40	247.48
745.73	247.25
746.06	246.97
746.39	246.69
746.71	246.46
747.04	246.23
747.37	245.96
747.70	245.68
748.03	245.44
748.36	245.21
748.68	244.99
749.01	244.77
749.34	244.56
749.67	244.32
750.00	244.10
750.33	243.96
750.65	243.77
750.98	243.42
751.31	243.20
751.64	243.00
751.97	242.85
752.29	242.63
752.62	242.38
752.95	242.14
753.28	241.92
753.60	241.71
753.93	241.53
754.26	241.32
754.59	241.11
754.91	240.87
755.24	240.68
755.57	240.51
755.90	240.28
756.22	240.07
756.55	239.86
756.88	239.63
757.20	239.33
757.53	239.11
757.86	238.91
758.19	238.79
758.51	238.60
758.84	238.38
759.17	238.22
759.49	238.06
759.82	237.99
760.15	237.83
760.47	237.63
760.80	237.42
761.13	237.28
761.45	237.09
761.78	236.95
762.11	236.79
762.43	236.63
762.76	236.49
763.08	236.36
763.41	236.25
763.74	236.11
764.06	235.96
764.39	235.82
764.71	235.69
765.04	235.53
765.37	235.40
765.69	235.25
766.02	235.08
766.34	234.91
766.67	234.71
767.00	234.62
767.32	234.59
767.65	234.56
767.97	234.44
768.30	234.35
768.62	234.22
768.95	234.09
769.27	233.98
769.60	233.85
769.92	233.72
770.25	233.59
770.57	233.49
770.90	233.42
771.22	233.31
771.55	233.21
771.87	233.15
772.20	233.04
772.52	233.02
772.85	233.08
773.17	233.01
773.50	232.94
773.82	232.83
774.15	232.70
774.47	232.56
774.80	232.49
775.12	232.40
775.45	232.33
775.77	232.26
776.09	232.19
776.42	232.15
776.74	232.12
777.07	232.07
777.39	232.01
777.72	231.90
778.04	231.87
778.36	231.80
778.69	231.72
779.01	231.70
779.33	231.59
779.66	231.41
779.98	231.37
780.31	231.31
780.63	231.31
780.95	231.29
781.28	231.19
781.60	231.10
781.92	231.06
782.25	231.04
782.57	231.01
782.89	230.94
783.22	230.89
783.54	230.84
783.86	230.79
784.19	230.72
784.51	230.73
784.83	230.69
785.16	230.64
785.48	230.59
785.80	230.53
786.12	230.48
786.45	230.43
786.77	230.40
787.09	230.34
