SpectraSuite Data File
++++++++++++++++++++++++++++++++++++
Date: Fri Feb 01 15:00:25 EST 2013
User: group
Dark Spectrum Present: No
Reference Spectrum Present: No
Number of Sampled Component Spectra: 1
Spectrometers: USB2E7196
Integration Time (usec): 35000 (USB2E7196)
Spectra Averaged: 100 (USB2E7196)
Boxcar Smoothing: 10 (USB2E7196)
Correct for Electrical Dark: No (USB2E7196)
Strobe/Lamp Enabled: No (USB2E7196)
Correct for Detector Non-linearity: No (USB2E7196)
Correct for Stray Light: No (USB2E7196)
Number of Pixels in Processed Spectrum: 2048
>>>>>Begin Processed Spectral Data<<<<<
339.09	0.00
339.48	215.68
339.86	216.77
340.24	218.39
340.63	219.67
341.01	221.48
341.39	222.11
341.78	223.84
342.16	225.00
342.54	225.30
342.93	213.72
343.31	224.51
343.69	225.04
344.07	225.48
344.46	225.89
344.84	226.28
345.22	226.59
345.60	226.84
345.99	227.03
346.37	227.16
346.75	227.27
347.13	227.34
347.52	227.36
347.90	227.44
348.28	227.42
348.66	227.48
349.05	227.44
349.43	227.51
349.81	227.54
350.19	227.55
350.57	227.61
350.96	227.68
351.34	227.74
351.72	227.83
352.10	227.93
352.48	227.99
352.87	228.00
353.25	228.04
353.63	228.09
354.01	228.16
354.39	228.23
354.77	228.29
355.15	228.35
355.54	228.42
355.92	228.43
356.30	228.52
356.68	228.61
357.06	228.69
357.44	228.70
357.82	228.75
358.20	228.85
358.58	228.91
358.97	228.97
359.35	229.04
359.73	229.10
360.11	229.14
360.49	229.21
360.87	229.27
361.25	229.29
361.63	229.34
362.01	229.36
362.39	229.38
362.77	229.40
363.15	229.42
363.53	229.40
363.91	229.42
364.29	229.44
364.67	229.39
365.05	229.39
365.43	229.40
365.81	229.45
366.19	229.46
366.57	229.47
366.95	229.47
367.33	229.43
367.71	229.38
368.09	229.38
368.47	229.34
368.85	229.29
369.23	229.28
369.61	229.23
369.99	229.20
370.37	229.18
370.75	229.17
371.13	229.11
371.51	229.08
371.89	229.03
372.27	228.95
372.65	228.88
373.03	228.81
373.41	228.74
373.78	228.65
374.16	228.53
374.54	228.42
374.92	228.34
375.30	228.26
375.68	228.18
376.06	228.10
376.44	228.03
376.82	227.94
377.19	227.85
377.57	227.76
377.95	227.66
378.33	227.56
378.71	227.42
379.09	227.33
379.47	227.26
379.84	227.18
380.22	227.08
380.60	227.03
380.98	226.96
381.36	226.91
381.73	226.82
382.11	226.78
382.49	226.72
382.87	226.62
383.25	226.57
383.62	226.62
384.00	226.56
384.38	226.51
384.76	226.50
385.13	226.52
385.51	226.50
385.89	226.45
386.27	226.41
386.64	226.40
387.02	226.38
387.40	226.35
387.78	226.35
388.15	226.35
388.53	226.30
388.91	226.30
389.29	226.27
389.66	226.28
390.04	226.25
390.42	226.26
390.79	226.28
391.17	226.27
391.55	226.18
391.92	226.20
392.30	226.23
392.68	226.19
393.05	226.18
393.43	226.17
393.81	226.18
394.18	226.17
394.56	226.22
394.94	226.27
395.31	226.30
395.69	226.33
396.06	226.38
396.44	226.42
396.82	226.44
397.19	226.54
397.57	226.58
397.95	226.68
398.32	226.70
398.70	226.79
399.07	226.89
399.45	226.97
399.82	227.04
400.20	227.08
400.58	227.20
400.95	227.27
401.33	227.41
401.70	227.57
402.08	227.70
402.45	227.80
402.83	227.94
403.20	228.05
403.58	228.14
403.95	228.28
404.33	228.44
404.71	228.57
405.08	228.76
405.46	228.90
405.83	229.03
406.21	229.18
406.58	229.33
406.96	229.48
407.33	229.64
407.70	229.85
408.08	230.14
408.45	230.36
408.83	230.61
409.20	230.80
409.58	231.02
409.95	231.29
410.33	231.57
410.70	231.80
411.08	232.11
411.45	232.44
411.82	232.74
412.20	233.07
412.57	233.51
412.95	233.77
413.32	234.21
413.69	234.62
414.07	235.06
414.44	235.52
414.82	236.00
415.19	236.59
415.56	237.12
415.94	237.66
416.31	238.30
416.68	238.92
417.06	239.65
417.43	240.31
417.81	241.08
418.18	241.87
418.55	242.72
418.93	243.60
419.30	244.49
419.67	245.43
420.04	246.39
420.42	247.37
420.79	248.60
421.16	249.75
421.54	250.91
421.91	252.13
422.28	253.39
422.66	254.72
423.03	256.00
423.40	257.36
423.77	258.75
424.15	260.14
424.52	261.61
424.89	263.21
425.26	264.77
425.64	266.22
426.01	267.79
426.38	269.47
426.75	271.13
427.13	272.85
427.50	274.65
427.87	276.54
428.24	278.41
428.61	280.10
428.99	282.04
429.36	284.21
429.73	286.31
430.10	288.38
430.47	290.47
430.85	292.57
431.22	294.82
431.59	297.25
431.96	299.52
432.33	302.03
432.70	304.39
433.08	307.23
433.45	309.86
433.82	312.48
434.19	315.37
434.56	318.21
434.93	320.90
435.30	323.57
435.68	326.47
436.05	329.31
436.42	332.14
436.79	334.68
437.16	337.34
437.53	340.18
437.90	342.96
438.27	345.67
438.64	348.49
439.01	351.09
439.38	353.34
439.75	355.57
440.13	358.08
440.50	360.46
440.87	362.32
441.24	364.30
441.61	366.45
441.98	367.97
442.35	369.82
442.72	371.68
443.09	373.43
443.46	374.45
443.83	375.04
444.20	375.53
444.57	376.37
444.94	376.68
445.31	377.06
445.68	377.48
446.05	377.55
446.42	377.24
446.79	376.80
447.16	376.30
447.53	375.94
447.90	374.80
448.27	373.57
448.64	371.94
449.01	370.77
449.37	368.83
449.74	366.91
450.11	364.61
450.48	362.13
450.85	359.62
451.22	357.46
451.59	355.46
451.96	353.51
452.33	350.86
452.70	348.47
453.07	345.61
453.43	342.62
453.80	339.84
454.17	337.11
454.54	334.56
454.91	331.83
455.28	329.17
455.65	326.61
456.02	324.20
456.38	322.04
456.75	319.37
457.12	317.09
457.49	314.83
457.86	312.62
458.23	310.73
458.59	308.71
458.96	306.58
459.33	304.72
459.70	302.86
460.07	301.38
460.43	299.64
460.80	297.96
461.17	296.49
461.54	295.02
461.91	293.62
462.27	292.14
462.64	290.84
463.01	289.47
463.38	288.19
463.74	286.82
464.11	285.69
464.48	284.63
464.85	283.50
465.21	282.66
465.58	281.73
465.95	280.61
466.32	279.68
466.68	278.78
467.05	277.85
467.42	276.98
467.78	276.02
468.15	275.14
468.52	274.46
468.88	273.64
469.25	272.85
469.62	272.20
469.98	271.54
470.35	270.96
470.72	270.34
471.08	269.70
471.45	269.09
471.82	268.50
472.18	267.92
472.55	267.48
472.92	266.92
473.28	266.46
473.65	266.02
474.02	265.58
474.38	265.20
474.75	264.86
475.11	264.45
475.48	264.20
475.85	263.99
476.21	263.77
476.58	263.55
476.94	263.42
477.31	263.25
477.67	263.10
478.04	262.94
478.41	262.89
478.77	262.94
479.14	262.93
479.50	262.95
479.87	263.01
480.23	263.09
480.60	263.17
480.96	263.25
481.33	263.46
481.69	263.66
482.06	263.85
482.42	264.05
482.79	264.29
483.15	264.60
483.52	264.99
483.88	265.32
484.25	265.71
484.61	266.09
484.98	266.53
485.34	267.07
485.71	267.65
486.07	268.24
486.44	268.75
486.80	269.38
487.17	270.13
487.53	270.96
487.90	271.80
488.26	272.71
488.62	273.67
488.99	274.61
489.35	275.64
489.72	276.77
490.08	277.97
490.44	279.22
490.81	280.51
491.17	281.81
491.54	283.30
491.90	284.83
492.26	286.53
492.63	288.29
492.99	290.07
493.36	291.92
493.72	293.96
494.08	296.06
494.45	298.32
494.81	300.64
495.17	303.06
495.54	305.64
495.90	308.32
496.26	311.13
496.63	314.09
496.99	317.16
497.35	320.37
497.72	323.78
498.08	327.32
498.44	330.96
498.80	334.86
499.17	338.85
499.53	343.01
499.89	347.31
500.26	351.77
500.62	356.40
500.98	361.37
501.34	366.38
501.71	371.70
502.07	377.17
502.43	382.73
502.79	388.50
503.16	394.59
503.52	400.83
503.88	407.26
504.24	413.88
504.60	420.79
504.97	427.92
505.33	435.13
505.69	442.75
506.05	450.56
506.41	458.47
506.78	466.62
507.14	475.03
507.50	483.75
507.86	492.74
508.22	501.98
508.59	511.15
508.95	520.76
509.31	530.57
509.67	540.64
510.03	550.89
510.39	561.42
510.75	572.09
511.12	583.05
511.48	594.35
511.84	605.79
512.20	617.31
512.56	629.24
512.92	641.48
513.28	653.89
513.64	666.27
514.00	678.99
514.37	691.94
514.73	704.98
515.09	717.93
515.45	731.22
515.81	744.80
516.17	758.81
516.53	772.93
516.89	787.03
517.25	801.23
517.61	815.83
517.97	830.28
518.33	844.78
518.69	859.54
519.05	874.51
519.41	889.74
519.77	905.31
520.13	920.78
520.49	936.19
520.85	951.62
521.21	967.45
521.57	983.79
521.93	999.57
522.29	1016.05
522.65	1032.39
523.01	1048.61
523.37	1064.70
523.73	1081.01
524.09	1097.26
524.45	1113.71
524.81	1130.36
525.17	1147.16
525.53	1164.17
525.89	1181.10
526.25	1198.01
526.61	1214.41
526.97	1231.11
527.33	1247.59
527.68	1264.34
528.04	1280.99
528.40	1297.63
528.76	1314.83
529.12	1331.43
529.48	1348.36
529.84	1364.42
530.20	1381.19
530.56	1398.34
530.91	1415.83
531.27	1432.56
531.63	1449.11
531.99	1465.81
532.35	1481.81
532.71	1497.73
533.07	1514.11
533.42	1530.01
533.78	1546.12
534.14	1562.52
534.50	1577.91
534.86	1593.93
535.21	1609.11
535.57	1625.12
535.93	1640.85
536.29	1655.73
536.65	1670.87
537.00	1685.94
537.36	1701.42
537.72	1716.00
538.08	1730.58
538.44	1744.46
538.79	1758.52
539.15	1772.25
539.51	1786.01
539.87	1800.54
540.22	1814.42
540.58	1828.30
540.94	1841.90
541.29	1854.98
541.65	1867.65
542.01	1881.11
542.37	1893.45
542.72	1906.00
543.08	1917.70
543.44	1930.01
543.79	1941.31
544.15	1952.43
544.51	1963.86
544.87	1974.91
545.22	1985.78
545.58	1996.01
545.94	2005.92
546.29	2015.78
546.65	2025.59
547.01	2034.91
547.36	2043.59
547.72	2051.97
548.07	2059.77
548.43	2067.83
548.79	2075.75
549.14	2083.36
549.50	2090.74
549.86	2098.50
550.21	2105.87
550.57	2113.00
550.92	2119.56
551.28	2126.64
551.64	2133.55
551.99	2140.07
552.35	2146.14
552.70	2152.14
553.06	2158.11
553.41	2164.36
553.77	2170.38
554.13	2176.46
554.48	2182.45
554.84	2187.78
555.19	2193.20
555.55	2198.27
555.90	2202.79
556.26	2207.70
556.61	2212.49
556.97	2216.62
557.32	2220.67
557.68	2224.78
558.03	2229.17
558.39	2232.88
558.74	2237.38
559.10	2241.13
559.45	2244.69
559.81	2248.99
560.16	2252.81
560.52	2255.89
560.87	2259.27
561.23	2261.76
561.58	2264.83
561.94	2267.28
562.29	2269.76
562.64	2272.26
563.00	2274.83
563.35	2278.26
563.71	2281.28
564.06	2284.40
564.42	2287.26
564.77	2289.68
565.12	2291.67
565.48	2293.32
565.83	2294.99
566.19	2296.20
566.54	2297.32
566.89	2298.44
567.25	2298.86
567.60	2300.13
567.96	2301.62
568.31	2302.27
568.66	2303.29
569.02	2303.49
569.37	2303.73
569.72	2304.35
570.08	2304.32
570.43	2304.26
570.78	2303.48
571.14	2301.78
571.49	2300.23
571.84	2299.64
572.20	2298.16
572.55	2297.06
572.90	2295.41
573.26	2293.81
573.61	2291.88
573.96	2289.75
574.31	2286.60
574.67	2283.51
575.02	2279.81
575.37	2276.24
575.72	2272.22
576.08	2268.72
576.43	2265.29
576.78	2261.48
577.13	2258.28
577.49	2255.11
577.84	2251.38
578.19	2247.59
578.54	2243.67
578.90	2239.26
579.25	2233.70
579.60	2228.74
579.95	2223.59
580.30	2218.45
580.66	2213.31
581.01	2208.37
581.36	2203.35
581.71	2198.96
582.06	2194.30
582.42	2189.67
582.77	2184.38
583.12	2179.65
583.47	2174.83
583.82	2169.67
584.17	2164.31
584.53	2158.60
584.88	2152.87
585.23	2146.84
585.58	2141.25
585.93	2135.82
586.28	2131.09
586.63	2125.73
586.98	2120.53
587.34	2115.73
587.69	2110.86
588.04	2105.49
588.39	2099.62
588.74	2093.15
589.09	2086.87
589.44	2079.90
589.79	2073.79
590.14	2068.00
590.49	2061.45
590.84	2054.98
591.19	2048.86
591.54	2042.34
591.89	2034.84
592.25	2027.88
592.60	2020.70
592.95	2012.88
593.30	2005.36
593.65	1997.65
594.00	1990.61
594.35	1983.26
594.70	1975.16
595.05	1967.69
595.40	1960.26
595.75	1952.77
596.10	1946.26
596.45	1939.47
596.80	1933.20
597.15	1926.33
597.50	1919.18
597.85	1912.69
598.19	1905.91
598.54	1898.81
598.89	1892.16
599.24	1886.21
599.59	1879.34
599.94	1873.10
600.29	1866.80
600.64	1860.18
600.99	1852.56
601.34	1845.66
601.69	1838.72
602.04	1831.70
602.39	1824.44
602.74	1817.71
603.08	1810.92
603.43	1804.37
603.78	1797.14
604.13	1789.95
604.48	1782.70
604.83	1775.94
605.18	1768.81
605.53	1760.77
605.87	1752.72
606.22	1745.38
606.57	1737.40
606.92	1730.28
607.27	1723.06
607.62	1716.13
607.96	1708.82
608.31	1702.27
608.66	1694.63
609.01	1687.02
609.36	1679.52
609.70	1671.51
610.05	1663.45
610.40	1655.74
610.75	1647.32
611.10	1639.53
611.44	1631.33
611.79	1623.39
612.14	1614.60
612.49	1605.63
612.83	1597.36
613.18	1589.25
613.53	1581.28
613.88	1572.93
614.22	1564.61
614.57	1556.11
614.92	1548.21
615.27	1540.71
615.61	1532.39
615.96	1524.51
616.31	1516.95
616.65	1509.53
617.00	1501.97
617.35	1494.22
617.70	1485.77
618.04	1477.18
618.39	1469.14
618.74	1461.53
619.08	1453.28
619.43	1445.93
619.78	1438.93
620.12	1431.76
620.47	1424.19
620.82	1416.02
621.16	1408.61
621.51	1401.07
621.85	1393.48
622.20	1384.90
622.55	1376.70
622.89	1368.92
623.24	1361.24
623.59	1353.82
623.93	1346.38
624.28	1339.17
624.62	1331.70
624.97	1324.58
625.32	1317.94
625.66	1310.90
626.01	1303.60
626.35	1296.13
626.70	1288.32
627.04	1280.65
627.39	1272.92
627.73	1265.58
628.08	1258.64
628.43	1251.12
628.77	1243.67
629.12	1236.08
629.46	1228.99
629.81	1221.54
630.15	1214.34
630.50	1207.03
630.84	1198.91
631.19	1191.08
631.53	1183.66
631.88	1176.20
632.22	1168.71
632.57	1161.45
632.91	1153.95
633.26	1146.55
633.60	1139.27
633.95	1132.25
634.29	1125.26
634.64	1118.55
634.98	1111.21
635.32	1104.21
635.67	1097.92
636.01	1091.43
636.36	1084.73
636.70	1078.29
637.05	1071.80
637.39	1065.39
637.73	1058.90
638.08	1053.10
638.42	1047.22
638.77	1040.77
639.11	1034.02
639.45	1027.72
639.80	1021.11
640.14	1014.75
640.49	1008.31
640.83	1002.01
641.17	995.75
641.52	989.60
641.86	983.32
642.20	977.60
642.55	971.39
642.89	964.89
643.23	958.43
643.58	952.69
643.92	946.49
644.26	940.44
644.61	934.39
644.95	928.43
645.29	921.83
645.64	915.07
645.98	908.80
646.32	903.15
646.66	897.13
647.01	891.40
647.35	885.72
647.69	879.96
648.04	874.56
648.38	868.84
648.72	862.76
649.06	856.69
649.41	850.78
649.75	844.74
650.09	838.80
650.43	832.99
650.78	826.85
651.12	820.92
651.46	815.20
651.80	809.49
652.14	804.07
652.49	798.76
652.83	793.54
653.17	787.81
653.51	782.13
653.85	776.77
654.20	771.10
654.54	765.15
654.88	759.43
655.22	753.53
655.56	747.88
655.90	742.47
656.25	737.27
656.59	731.97
656.93	726.86
657.27	721.77
657.61	716.34
657.95	711.22
658.29	706.14
658.64	701.00
658.98	695.71
659.32	690.29
659.66	685.16
660.00	679.87
660.34	675.00
660.68	670.11
661.02	665.07
661.36	660.34
661.70	655.81
662.05	651.51
662.39	647.10
662.73	642.65
663.07	638.24
663.41	633.79
663.75	629.30
664.09	624.82
664.43	620.42
664.77	616.35
665.11	612.11
665.45	607.95
665.79	603.85
666.13	599.74
666.47	595.70
666.81	591.53
667.15	587.41
667.49	583.53
667.83	579.74
668.17	575.84
668.51	571.87
668.85	567.97
669.19	564.07
669.53	560.27
669.87	556.39
670.21	552.77
670.55	549.17
670.89	545.77
671.23	542.35
671.57	538.83
671.91	535.29
672.25	531.85
672.58	528.36
672.92	524.94
673.26	521.86
673.60	518.70
673.94	515.54
674.28	512.71
674.62	509.80
674.96	506.72
675.30	503.83
675.64	500.86
675.97	498.07
676.31	495.28
676.65	492.43
676.99	489.79
677.33	486.93
677.67	484.10
678.01	481.10
678.34	478.11
678.68	475.31
679.02	472.51
679.36	469.80
679.70	467.12
680.04	464.34
680.37	461.47
680.71	458.71
681.05	456.21
681.39	453.50
681.73	450.85
682.06	448.34
682.40	445.83
682.74	443.40
683.08	440.87
683.42	438.29
683.75	435.79
684.09	433.24
684.43	430.81
684.77	428.40
685.10	426.04
685.44	423.82
685.78	421.57
686.12	419.39
686.45	417.18
686.79	414.94
687.13	412.86
687.46	410.73
687.80	408.62
688.14	406.42
688.48	404.38
688.81	402.16
689.15	400.01
689.49	397.91
689.82	395.84
690.16	393.77
690.50	391.88
690.83	390.02
691.17	388.08
691.51	386.22
691.84	384.43
692.18	382.52
692.52	380.56
692.85	378.65
693.19	376.79
693.52	374.92
693.86	373.17
694.20	371.37
694.53	369.59
694.87	367.78
695.21	366.03
695.54	364.24
695.88	362.55
696.21	360.82
696.55	359.18
696.88	357.51
697.22	355.88
697.56	354.28
697.89	352.57
698.23	350.95
698.56	349.31
698.90	347.69
699.23	346.09
699.57	344.54
699.90	342.95
700.24	341.40
700.58	339.86
700.91	338.31
701.25	336.89
701.58	335.50
701.92	334.14
702.25	332.75
702.59	331.39
702.92	330.06
703.26	328.79
703.59	327.46
703.93	326.27
704.26	325.02
704.60	323.67
704.93	322.41
705.26	321.19
705.60	320.05
705.93	318.88
706.27	317.82
706.60	316.75
706.94	315.70
707.27	314.59
707.61	313.54
707.94	312.53
708.27	311.46
708.61	310.37
708.94	309.31
709.28	308.30
709.61	307.31
709.94	306.36
710.28	305.33
710.61	304.40
710.95	303.35
711.28	302.43
711.61	301.50
711.95	300.62
712.28	299.67
712.61	298.64
712.95	297.73
713.28	296.86
713.61	295.98
713.95	295.04
714.28	294.19
714.61	293.34
714.95	292.50
715.28	291.64
715.61	290.77
715.95	289.96
716.28	289.11
716.61	288.33
716.95	287.54
717.28	286.79
717.61	286.00
717.94	285.28
718.28	284.50
718.61	283.79
718.94	283.06
719.27	282.41
719.61	281.80
719.94	281.15
720.27	280.43
720.60	279.82
720.94	279.23
721.27	278.64
721.60	278.04
721.93	277.45
722.27	276.91
722.60	276.38
722.93	275.81
723.26	275.31
723.59	274.74
723.93	274.18
724.26	273.63
724.59	273.09
724.92	272.56
725.25	272.08
725.59	271.57
725.92	271.10
726.25	270.59
726.58	270.13
726.91	269.62
727.24	269.17
727.57	268.70
727.91	268.23
728.24	267.77
728.57	267.34
728.90	266.90
729.23	266.44
729.56	266.01
729.89	265.54
730.22	265.05
730.55	264.62
730.89	264.17
731.22	263.76
731.55	263.34
731.88	262.92
732.21	262.48
732.54	262.07
732.87	261.67
733.20	261.29
733.53	260.91
733.86	260.58
734.19	260.21
734.52	259.81
734.85	259.49
735.18	259.08
735.51	258.68
735.84	258.30
736.17	257.97
736.50	257.58
736.83	257.33
737.16	257.05
737.49	256.69
737.82	256.37
738.15	256.06
738.48	255.75
738.81	255.45
739.14	255.09
739.47	254.77
739.80	254.44
740.13	254.15
740.46	253.78
740.79	253.41
741.12	253.06
741.45	252.76
741.78	252.42
742.11	252.14
742.44	251.83
742.77	251.53
743.10	251.23
743.43	250.95
743.75	250.56
744.08	250.37
744.41	250.10
744.74	249.81
745.07	249.47
745.40	249.23
745.73	248.95
746.06	248.68
746.39	248.39
746.71	248.10
747.04	247.81
747.37	247.57
747.70	247.30
748.03	247.06
748.36	246.85
748.68	246.58
749.01	246.36
749.34	246.14
749.67	245.92
750.00	245.66
750.33	245.48
750.65	245.30
750.98	244.94
751.31	244.74
751.64	244.52
751.97	244.38
752.29	244.10
752.62	243.86
752.95	243.65
753.28	243.46
753.60	243.22
753.93	243.04
754.26	242.84
754.59	242.64
754.91	242.47
755.24	242.25
755.57	242.09
755.90	241.90
756.22	241.69
756.55	241.50
756.88	241.33
757.20	241.08
757.53	240.90
757.86	240.76
758.19	240.55
758.51	240.41
758.84	240.22
759.17	240.06
759.49	239.92
759.82	239.82
760.15	239.68
760.47	239.59
760.80	239.41
761.13	239.27
761.45	239.14
761.78	239.00
762.11	238.88
762.43	238.76
762.76	238.60
763.08	238.50
763.41	238.38
763.74	238.24
764.06	238.11
764.39	237.93
764.71	237.80
765.04	237.70
765.37	237.55
765.69	237.40
766.02	237.26
766.34	237.14
766.67	237.00
767.00	236.89
767.32	236.82
767.65	236.75
767.97	236.62
768.30	236.51
768.62	236.37
768.95	236.27
769.27	236.15
769.60	236.07
769.92	235.95
770.25	235.84
770.57	235.70
770.90	235.62
771.22	235.51
771.55	235.41
771.87	235.30
772.20	235.19
772.52	235.22
772.85	235.27
773.17	235.16
773.50	235.02
773.82	234.93
774.15	234.78
774.47	234.65
774.80	234.59
775.12	234.50
775.45	234.41
775.77	234.29
776.09	234.20
776.42	234.10
776.74	234.05
777.07	233.95
777.39	233.93
777.72	233.82
778.04	233.81
778.36	233.70
778.69	233.65
779.01	233.62
779.33	233.42
779.66	233.23
779.98	233.17
780.31	233.13
780.63	233.12
780.95	233.08
781.28	233.02
781.60	232.95
781.92	232.91
782.25	232.86
782.57	232.83
782.89	232.74
783.22	232.69
783.54	232.59
783.86	232.58
784.19	232.50
784.51	232.48
784.83	232.37
785.16	232.35
785.48	232.31
785.80	232.26
786.12	232.21
786.45	232.14
786.77	232.11
787.09	232.06
