SpectraSuite Data File
++++++++++++++++++++++++++++++++++++
Date: Fri Feb 01 15:43:08 EST 2013
User: group
Dark Spectrum Present: No
Reference Spectrum Present: No
Number of Sampled Component Spectra: 1
Spectrometers: USB2E7196
Integration Time (usec): 35000 (USB2E7196)
Spectra Averaged: 100 (USB2E7196)
Boxcar Smoothing: 10 (USB2E7196)
Correct for Electrical Dark: No (USB2E7196)
Strobe/Lamp Enabled: No (USB2E7196)
Correct for Detector Non-linearity: No (USB2E7196)
Correct for Stray Light: No (USB2E7196)
Number of Pixels in Processed Spectrum: 2048
>>>>>Begin Processed Spectral Data<<<<<
339.09	0.00
339.48	214.59
339.86	216.04
340.24	218.02
340.63	219.48
341.01	221.67
341.39	221.56
341.78	223.44
342.16	224.42
342.54	224.61
342.93	213.05
343.31	223.81
343.69	224.36
344.07	224.85
344.46	225.25
344.84	225.56
345.22	225.79
345.60	226.04
345.99	226.21
346.37	226.34
346.75	226.45
347.13	226.55
347.52	226.63
347.90	226.70
348.28	226.76
348.66	226.82
349.05	226.83
349.43	226.89
349.81	226.94
350.19	226.98
350.57	227.04
350.96	227.11
351.34	227.20
351.72	227.31
352.10	227.41
352.48	227.51
352.87	227.61
353.25	227.69
353.63	227.76
354.01	227.83
354.39	227.89
354.77	227.97
355.15	228.09
355.54	228.13
355.92	228.18
356.30	228.27
356.68	228.36
357.06	228.43
357.44	228.47
357.82	228.55
358.20	228.62
358.58	228.71
358.97	228.79
359.35	228.88
359.73	228.93
360.11	228.99
360.49	229.05
360.87	229.10
361.25	229.20
361.63	229.27
362.01	229.36
362.39	229.39
362.77	229.43
363.15	229.41
363.53	229.46
363.91	229.48
364.29	229.52
364.67	229.49
365.05	229.54
365.43	229.58
365.81	229.62
366.19	229.70
366.57	229.75
366.95	229.77
367.33	229.76
367.71	229.75
368.09	229.75
368.47	229.71
368.85	229.70
369.23	229.68
369.61	229.65
369.99	229.66
370.37	229.63
370.75	229.65
371.13	229.62
371.51	229.55
371.89	229.54
372.27	229.50
372.65	229.48
373.03	229.42
373.41	229.35
373.78	229.28
374.16	229.16
374.54	229.08
374.92	229.02
375.30	228.94
375.68	228.87
376.06	228.77
376.44	228.72
376.82	228.66
377.19	228.63
377.57	228.56
377.95	228.42
378.33	228.35
378.71	228.22
379.09	228.11
379.47	228.08
379.84	227.99
380.22	227.89
380.60	227.76
380.98	227.67
381.36	227.59
381.73	227.49
382.11	227.42
382.49	227.31
382.87	227.20
383.25	227.13
383.62	227.13
384.00	227.08
384.38	227.01
384.76	226.95
385.13	226.89
385.51	226.79
385.89	226.73
386.27	226.66
386.64	226.65
387.02	226.60
387.40	226.53
387.78	226.49
388.15	226.44
388.53	226.42
388.91	226.36
389.29	226.33
389.66	226.34
390.04	226.31
390.42	226.34
390.79	226.32
391.17	226.27
391.55	226.20
391.92	226.19
392.30	226.21
392.68	226.20
393.05	226.16
393.43	226.19
393.81	226.20
394.18	226.22
394.56	226.23
394.94	226.29
395.31	226.33
395.69	226.38
396.06	226.43
396.44	226.49
396.82	226.54
397.19	226.58
397.57	226.62
397.95	226.68
398.32	226.69
398.70	226.75
399.07	226.86
399.45	226.91
399.82	226.98
400.20	227.04
400.58	227.12
400.95	227.17
401.33	227.26
401.70	227.46
402.08	227.55
402.45	227.62
402.83	227.72
403.20	227.81
403.58	227.85
403.95	227.99
404.33	228.13
404.71	228.24
405.08	228.49
405.46	228.63
405.83	228.76
406.21	228.93
406.58	229.10
406.96	229.28
407.33	229.45
407.70	229.59
408.08	229.85
408.45	230.06
408.83	230.31
409.20	230.52
409.58	230.69
409.95	230.99
410.33	231.28
410.70	231.53
411.08	231.81
411.45	232.18
411.82	232.51
412.20	232.87
412.57	233.32
412.95	233.59
413.32	234.01
413.69	234.42
414.07	234.87
414.44	235.33
414.82	235.80
415.19	236.36
415.56	236.95
415.94	237.50
416.31	238.14
416.68	238.78
417.06	239.51
417.43	240.17
417.81	240.90
418.18	241.68
418.55	242.54
418.93	243.41
419.30	244.26
419.67	245.17
420.04	246.11
420.42	247.07
420.79	248.24
421.16	249.37
421.54	250.55
421.91	251.75
422.28	253.00
422.66	254.33
423.03	255.62
423.40	256.94
423.77	258.35
424.15	259.77
424.52	261.18
424.89	262.76
425.26	264.30
425.64	265.69
426.01	267.27
426.38	268.92
426.75	270.58
427.13	272.30
427.50	274.12
427.87	276.02
428.24	277.88
428.61	279.66
428.99	281.59
429.36	283.71
429.73	285.79
430.10	287.80
430.47	289.84
430.85	291.96
431.22	294.19
431.59	296.57
431.96	298.82
432.33	301.35
432.70	303.76
433.08	306.57
433.45	309.28
433.82	311.89
434.19	314.83
434.56	317.68
434.93	320.36
435.30	322.98
435.68	325.89
436.05	328.74
436.42	331.48
436.79	333.99
437.16	336.67
437.53	339.49
437.90	342.34
438.27	345.12
438.64	347.97
439.01	350.52
439.38	352.77
439.75	354.98
440.13	357.48
440.50	359.83
440.87	361.63
441.24	363.59
441.61	365.78
441.98	367.25
442.35	369.03
442.72	370.88
443.09	372.69
443.46	373.66
443.83	374.22
444.20	374.78
444.57	375.68
444.94	375.98
445.31	376.33
445.68	376.63
446.05	376.69
446.42	376.31
446.79	375.97
447.16	375.53
447.53	375.17
447.90	374.01
448.27	372.79
448.64	371.26
449.01	370.09
449.37	368.11
449.74	366.16
450.11	363.90
450.48	361.42
450.85	358.88
451.22	356.75
451.59	354.76
451.96	352.82
452.33	350.14
452.70	347.79
453.07	344.95
453.43	342.05
453.80	339.32
454.17	336.63
454.54	334.06
454.91	331.29
455.28	328.61
455.65	326.09
456.02	323.68
456.38	321.51
456.75	318.86
457.12	316.58
457.49	314.32
457.86	312.17
458.23	310.32
458.59	308.26
458.96	306.15
459.33	304.28
459.70	302.41
460.07	300.91
460.43	299.20
460.80	297.61
461.17	296.22
461.54	294.70
461.91	293.26
462.27	291.82
462.64	290.62
463.01	289.26
463.38	288.01
463.74	286.65
464.11	285.49
464.48	284.44
464.85	283.33
465.21	282.49
465.58	281.57
465.95	280.45
466.32	279.57
466.68	278.66
467.05	277.75
467.42	276.88
467.78	275.97
468.15	275.07
468.52	274.41
468.88	273.50
469.25	272.69
469.62	272.07
469.98	271.37
470.35	270.72
470.72	270.16
471.08	269.49
471.45	268.97
471.82	268.44
472.18	267.87
472.55	267.44
472.92	266.94
473.28	266.48
473.65	266.06
474.02	265.62
474.38	265.25
474.75	264.91
475.11	264.56
475.48	264.28
475.85	264.02
476.21	263.76
476.58	263.58
476.94	263.47
477.31	263.29
477.67	263.13
478.04	262.99
478.41	262.90
478.77	262.94
479.14	262.88
479.50	262.91
479.87	262.97
480.23	263.08
480.60	263.13
480.96	263.21
481.33	263.40
481.69	263.59
482.06	263.79
482.42	264.02
482.79	264.25
483.15	264.58
483.52	264.97
483.88	265.32
484.25	265.73
484.61	266.16
484.98	266.61
485.34	267.24
485.71	267.89
486.07	268.47
486.44	269.04
486.80	269.71
487.17	270.44
487.53	271.27
487.90	272.06
488.26	273.03
488.62	274.03
488.99	275.02
489.35	276.11
489.72	277.23
490.08	278.46
490.44	279.72
490.81	281.05
491.17	282.38
491.54	283.91
491.90	285.44
492.26	287.07
492.63	288.81
492.99	290.58
493.36	292.42
493.72	294.50
494.08	296.65
494.45	298.91
494.81	301.30
495.17	303.73
495.54	306.33
495.90	309.01
496.26	311.78
496.63	314.75
496.99	317.83
497.35	321.11
497.72	324.57
498.08	328.05
498.44	331.73
498.80	335.71
499.17	339.74
499.53	343.92
499.89	348.30
500.26	352.81
500.62	357.45
500.98	362.44
501.34	367.47
501.71	372.81
502.07	378.21
502.43	383.76
502.79	389.55
503.16	395.64
503.52	401.94
503.88	408.34
504.24	414.98
504.60	421.87
504.97	428.99
505.33	436.32
505.69	444.05
506.05	451.84
506.41	459.75
506.78	467.85
507.14	476.29
507.50	485.04
507.86	494.05
508.22	503.26
508.59	512.47
508.95	522.17
509.31	531.95
509.67	542.07
510.03	552.36
510.39	562.93
510.75	573.73
511.12	584.70
511.48	596.01
511.84	607.47
512.20	619.03
512.56	631.00
512.92	643.05
513.28	655.42
513.64	667.93
514.00	680.62
514.37	693.64
514.73	706.70
515.09	719.69
515.45	733.03
515.81	746.58
516.17	760.63
516.53	774.70
516.89	788.87
517.25	803.06
517.61	817.51
517.97	832.00
518.33	846.46
518.69	861.23
519.05	876.26
519.41	891.40
519.77	906.92
520.13	922.34
520.49	937.78
520.85	953.17
521.21	968.85
521.57	985.03
521.93	1000.80
522.29	1017.25
522.65	1033.53
523.01	1049.78
523.37	1065.85
523.73	1081.96
524.09	1098.11
524.45	1114.41
524.81	1131.09
525.17	1147.92
525.53	1164.86
525.89	1181.71
526.25	1198.56
526.61	1214.92
526.97	1231.66
527.33	1248.12
527.68	1264.67
528.04	1281.25
528.40	1297.92
528.76	1314.98
529.12	1331.62
529.48	1348.35
529.84	1364.35
530.20	1381.02
530.56	1397.92
530.91	1415.43
531.27	1432.13
531.63	1448.47
531.99	1465.08
532.35	1480.93
532.71	1496.82
533.07	1512.97
533.42	1528.80
533.78	1544.77
534.14	1561.16
534.50	1576.46
534.86	1592.38
535.21	1607.76
535.57	1623.69
535.93	1639.19
536.29	1653.98
536.65	1669.06
537.00	1683.94
537.36	1699.16
537.72	1713.69
538.08	1728.27
538.44	1741.94
538.79	1755.86
539.15	1769.54
539.51	1783.18
539.87	1797.58
540.22	1811.42
540.58	1825.20
540.94	1838.55
541.29	1851.48
541.65	1864.06
542.01	1877.40
542.37	1889.69
542.72	1901.95
543.08	1913.63
543.44	1925.88
543.79	1937.15
544.15	1948.12
544.51	1959.71
544.87	1970.85
545.22	1981.60
545.58	1991.72
545.94	2001.50
546.29	2011.50
546.65	2021.43
547.01	2030.75
547.36	2039.52
547.72	2047.96
548.07	2055.86
548.43	2064.14
548.79	2072.21
549.14	2079.72
549.50	2087.11
549.86	2094.97
550.21	2102.34
550.57	2109.54
550.92	2116.32
551.28	2123.49
551.64	2130.54
551.99	2137.06
552.35	2143.22
552.70	2149.34
553.06	2155.39
553.41	2161.73
553.77	2167.73
554.13	2173.73
554.48	2179.90
554.84	2185.33
555.19	2190.75
555.55	2195.89
555.90	2200.35
556.26	2205.23
556.61	2210.04
556.97	2214.13
557.32	2218.01
557.68	2222.07
558.03	2226.43
558.39	2230.06
558.74	2234.52
559.10	2238.47
559.45	2242.21
559.81	2246.40
560.16	2250.31
560.52	2253.59
560.87	2257.10
561.23	2259.74
561.58	2262.80
561.94	2265.28
562.29	2267.75
562.64	2270.19
563.00	2272.83
563.35	2276.34
563.71	2279.51
564.06	2282.68
564.42	2285.58
564.77	2288.06
565.12	2290.33
565.48	2292.21
565.83	2294.12
566.19	2295.35
566.54	2296.27
566.89	2297.32
567.25	2297.88
567.60	2299.06
567.96	2300.64
568.31	2301.45
568.66	2302.49
569.02	2302.98
569.37	2303.26
569.72	2304.00
570.08	2304.27
570.43	2304.32
570.78	2303.68
571.14	2302.05
571.49	2300.68
571.84	2300.46
572.20	2299.34
572.55	2298.38
572.90	2296.74
573.26	2295.30
573.61	2293.69
573.96	2291.79
574.31	2288.81
574.67	2285.85
575.02	2282.39
575.37	2278.92
575.72	2274.97
576.08	2271.78
576.43	2268.44
576.78	2264.74
577.13	2261.70
577.49	2258.50
577.84	2254.92
578.19	2251.16
578.54	2247.38
578.90	2243.09
579.25	2237.41
579.60	2232.54
579.95	2227.42
580.30	2222.42
580.66	2217.05
581.01	2212.07
581.36	2207.17
581.71	2203.02
582.06	2198.57
582.42	2193.90
582.77	2188.82
583.12	2184.30
583.47	2179.24
583.82	2174.12
584.17	2168.88
584.53	2163.23
584.88	2157.60
585.23	2151.79
585.58	2146.27
585.93	2140.87
586.28	2136.23
586.63	2131.15
586.98	2126.02
587.34	2121.34
587.69	2116.39
588.04	2111.18
588.39	2105.55
588.74	2099.07
589.09	2092.67
589.44	2085.79
589.79	2079.84
590.14	2074.14
590.49	2067.59
590.84	2061.31
591.19	2055.41
591.54	2048.92
591.89	2041.49
592.25	2034.59
592.60	2027.37
592.95	2019.68
593.30	2012.32
593.65	2004.64
594.00	1997.54
594.35	1990.26
594.70	1982.14
595.05	1974.82
595.40	1967.70
595.75	1960.02
596.10	1953.74
596.45	1947.11
596.80	1940.89
597.15	1934.20
597.50	1926.92
597.85	1920.34
598.19	1913.67
598.54	1906.44
598.89	1899.91
599.24	1894.04
599.59	1887.41
599.94	1881.20
600.29	1874.97
600.64	1868.33
600.99	1860.82
601.34	1854.01
601.69	1847.10
602.04	1840.18
602.39	1832.85
602.74	1825.84
603.08	1819.29
603.43	1812.55
603.78	1805.31
604.13	1798.16
604.48	1790.83
604.83	1783.96
605.18	1777.01
605.53	1769.00
605.87	1760.94
606.22	1753.73
606.57	1745.75
606.92	1738.45
607.27	1731.20
607.62	1724.31
607.96	1717.08
608.31	1710.52
608.66	1702.95
609.01	1695.33
609.36	1687.77
609.70	1679.85
610.05	1671.80
610.40	1664.04
610.75	1655.69
611.10	1648.02
611.44	1639.63
611.79	1631.73
612.14	1623.24
612.49	1614.15
612.83	1605.81
613.18	1597.77
613.53	1589.43
613.88	1580.89
614.22	1572.51
614.57	1564.02
614.92	1555.89
615.27	1548.32
615.61	1539.94
615.96	1531.90
616.31	1524.31
616.65	1516.97
617.00	1509.41
617.35	1501.79
617.70	1493.39
618.04	1484.99
618.39	1476.78
618.74	1469.14
619.08	1460.74
619.43	1453.10
619.78	1446.19
620.12	1438.89
620.47	1431.41
620.82	1423.36
621.16	1415.97
621.51	1408.35
621.85	1400.67
622.20	1392.20
622.55	1383.87
622.89	1376.04
623.24	1368.40
623.59	1361.01
623.93	1353.49
624.28	1346.17
624.62	1338.56
624.97	1331.46
625.32	1324.68
625.66	1317.63
626.01	1310.50
626.35	1303.11
626.70	1295.42
627.04	1287.62
627.39	1279.95
627.73	1272.45
628.08	1265.58
628.43	1258.25
628.77	1250.91
629.12	1243.32
629.46	1236.20
629.81	1228.75
630.15	1221.42
630.50	1213.95
630.84	1205.71
631.19	1197.84
631.53	1190.36
631.88	1182.92
632.22	1175.17
632.57	1167.81
632.91	1160.16
633.26	1152.61
633.60	1145.24
633.95	1138.01
634.29	1131.04
634.64	1124.30
634.98	1117.03
635.32	1109.86
635.67	1103.29
636.01	1096.66
636.36	1089.90
636.70	1083.37
637.05	1076.83
637.39	1070.42
637.73	1063.96
638.08	1058.19
638.42	1052.14
638.77	1045.63
639.11	1038.97
639.45	1032.73
639.80	1026.06
640.14	1019.68
640.49	1013.17
640.83	1006.83
641.17	1000.67
641.52	994.29
641.86	987.90
642.20	981.97
642.55	975.62
642.89	969.11
643.23	962.53
643.58	956.74
643.92	950.47
644.26	944.36
644.61	938.36
644.95	932.28
645.29	925.59
645.64	918.88
645.98	912.62
646.32	906.81
646.66	900.61
647.01	894.81
647.35	889.07
647.69	883.31
648.04	877.82
648.38	871.93
648.72	865.94
649.06	859.84
649.41	853.96
649.75	848.01
650.09	842.05
650.43	836.28
650.78	830.11
651.12	824.16
651.46	818.42
651.80	812.63
652.14	807.34
652.49	801.97
652.83	796.81
653.17	791.03
653.51	785.31
653.85	780.04
654.20	774.40
654.54	768.41
654.88	762.68
655.22	756.76
655.56	751.15
655.90	745.75
656.25	740.56
656.59	735.19
656.93	730.17
657.27	725.00
657.61	719.55
657.95	714.43
658.29	709.33
658.64	704.12
658.98	698.73
659.32	693.21
659.66	688.05
660.00	682.69
660.34	677.83
660.68	672.92
661.02	667.82
661.36	663.11
661.70	658.62
662.05	654.22
662.39	649.90
662.73	645.39
663.07	641.01
663.41	636.60
663.75	632.14
664.09	627.56
664.43	623.22
664.77	619.18
665.11	614.99
665.45	610.92
665.79	606.76
666.13	602.69
666.47	598.58
666.81	594.33
667.15	590.23
667.49	586.30
667.83	582.49
668.17	578.62
668.51	574.51
668.85	570.51
669.19	566.73
669.53	562.91
669.87	559.03
670.21	555.28
670.55	551.63
670.89	548.14
671.23	544.63
671.57	541.07
671.91	537.45
672.25	533.95
672.58	530.38
672.92	526.98
673.26	523.81
673.60	520.74
673.94	517.71
674.28	514.84
674.62	511.91
674.96	508.74
675.30	505.79
675.64	502.86
675.97	500.04
676.31	497.17
676.65	494.24
676.99	491.54
677.33	488.66
677.67	485.78
678.01	482.82
678.34	479.91
678.68	477.03
679.02	474.23
679.36	471.44
679.70	468.76
680.04	466.02
680.37	463.16
680.71	460.32
681.05	457.67
681.39	454.94
681.73	452.28
682.06	449.77
682.40	447.22
682.74	444.75
683.08	442.21
683.42	439.60
683.75	437.09
684.09	434.54
684.43	432.11
684.77	429.64
685.10	427.28
685.44	424.94
685.78	422.67
686.12	420.53
686.45	418.21
686.79	415.92
687.13	413.73
687.46	411.61
687.80	409.46
688.14	407.25
688.48	405.16
688.81	402.90
689.15	400.81
689.49	398.71
689.82	396.62
690.16	394.58
690.50	392.61
690.83	390.70
691.17	388.74
691.51	386.86
691.84	385.03
692.18	383.03
692.52	381.06
692.85	379.18
693.19	377.26
693.52	375.42
693.86	373.63
694.20	371.90
694.53	370.08
694.87	368.23
695.21	366.43
695.54	364.60
695.88	362.86
696.21	361.11
696.55	359.39
696.88	357.70
697.22	356.04
697.56	354.43
697.89	352.80
698.23	351.21
698.56	349.57
698.90	348.02
699.23	346.41
699.57	344.87
699.90	343.31
700.24	341.76
700.58	340.27
700.91	338.76
701.25	337.31
701.58	335.94
701.92	334.58
702.25	333.20
702.59	331.83
702.92	330.53
703.26	329.23
703.59	327.97
703.93	326.79
704.26	325.57
704.60	324.25
704.93	322.93
705.26	321.70
705.60	320.56
705.93	319.37
706.27	318.35
706.60	317.30
706.94	316.22
707.27	315.09
707.61	314.03
707.94	313.01
708.27	311.89
708.61	310.80
708.94	309.80
709.28	308.85
709.61	307.94
709.94	307.01
710.28	305.98
710.61	305.00
710.95	303.93
711.28	302.99
711.61	302.05
711.95	301.16
712.28	300.17
712.61	299.16
712.95	298.21
713.28	297.32
713.61	296.43
713.95	295.52
714.28	294.69
714.61	293.86
714.95	293.00
715.28	292.16
715.61	291.31
715.95	290.46
716.28	289.58
716.61	288.70
716.95	287.89
717.28	287.14
717.61	286.36
717.94	285.61
718.28	284.79
718.61	284.05
718.94	283.31
719.27	282.67
719.61	282.03
719.94	281.41
720.27	280.68
720.60	279.99
720.94	279.42
721.27	278.85
721.60	278.24
721.93	277.64
722.27	277.07
722.60	276.52
722.93	275.92
723.26	275.41
723.59	274.86
723.93	274.30
724.26	273.76
724.59	273.21
724.92	272.70
725.25	272.21
725.59	271.75
725.92	271.25
726.25	270.75
726.58	270.24
726.91	269.73
727.24	269.27
727.57	268.82
727.91	268.30
728.24	267.78
728.57	267.26
728.90	266.80
729.23	266.31
729.56	265.88
729.89	265.43
730.22	264.95
730.55	264.54
730.89	264.11
731.22	263.67
731.55	263.22
731.88	262.83
732.21	262.42
732.54	261.98
732.87	261.56
733.20	261.15
733.53	260.79
733.86	260.43
734.19	260.04
734.52	259.63
734.85	259.32
735.18	258.93
735.51	258.59
735.84	258.23
736.17	257.94
736.50	257.52
736.83	257.30
737.16	256.97
737.49	256.59
737.82	256.23
738.15	255.90
738.48	255.60
738.81	255.21
739.14	254.88
739.47	254.53
739.80	254.26
740.13	253.96
740.46	253.60
740.79	253.26
741.12	252.94
741.45	252.65
741.78	252.30
742.11	252.01
742.44	251.70
742.77	251.42
743.10	251.08
743.43	250.80
743.75	250.40
744.08	250.26
744.41	249.99
744.74	249.74
745.07	249.46
745.40	249.21
745.73	249.00
746.06	248.72
746.39	248.46
746.71	248.14
747.04	247.87
747.37	247.63
747.70	247.38
748.03	247.12
748.36	246.88
748.68	246.62
749.01	246.39
749.34	246.14
749.67	245.88
750.00	245.66
750.33	245.50
750.65	245.27
750.98	244.91
751.31	244.66
751.64	244.43
751.97	244.30
752.29	244.06
752.62	243.79
752.95	243.57
753.28	243.37
753.60	243.16
753.93	242.97
754.26	242.76
754.59	242.51
754.91	242.31
755.24	242.09
755.57	241.95
755.90	241.74
756.22	241.53
756.55	241.34
756.88	241.13
757.20	240.86
757.53	240.70
757.86	240.55
758.19	240.42
758.51	240.26
758.84	240.04
759.17	239.88
759.49	239.78
759.82	239.69
760.15	239.51
760.47	239.36
760.80	239.20
761.13	239.08
761.45	238.96
761.78	238.82
762.11	238.68
762.43	238.49
762.76	238.35
763.08	238.24
763.41	238.12
763.74	238.03
764.06	237.93
764.39	237.77
764.71	237.62
765.04	237.48
765.37	237.33
765.69	237.17
766.02	237.05
766.34	236.88
766.67	236.70
767.00	236.62
767.32	236.55
767.65	236.48
767.97	236.35
768.30	236.26
768.62	236.14
768.95	236.06
769.27	235.97
769.60	235.87
769.92	235.76
770.25	235.61
770.57	235.46
770.90	235.32
771.22	235.23
771.55	235.10
771.87	235.01
772.20	234.93
772.52	234.93
772.85	234.95
773.17	234.86
773.50	234.75
773.82	234.66
774.15	234.55
774.47	234.41
774.80	234.33
775.12	234.22
775.45	234.13
775.77	234.04
776.09	233.97
776.42	233.89
776.74	233.83
777.07	233.77
777.39	233.71
777.72	233.67
778.04	233.63
778.36	233.59
778.69	233.54
779.01	233.49
779.33	233.35
779.66	233.15
779.98	233.09
780.31	233.03
780.63	233.01
780.95	232.96
781.28	232.88
781.60	232.81
781.92	232.76
782.25	232.73
782.57	232.68
782.89	232.59
783.22	232.51
783.54	232.41
783.86	232.37
784.19	232.31
784.51	232.29
784.83	232.20
785.16	232.12
785.48	232.07
785.80	232.02
786.12	231.99
786.45	231.95
786.77	231.91
787.09	231.85
