SpectraSuite Data File
++++++++++++++++++++++++++++++++++++
Date: Fri Feb 01 17:01:34 EST 2013
User: group
Dark Spectrum Present: No
Reference Spectrum Present: No
Number of Sampled Component Spectra: 1
Spectrometers: USB2E7196
Integration Time (usec): 35000 (USB2E7196)
Spectra Averaged: 100 (USB2E7196)
Boxcar Smoothing: 10 (USB2E7196)
Correct for Electrical Dark: No (USB2E7196)
Strobe/Lamp Enabled: No (USB2E7196)
Correct for Detector Non-linearity: No (USB2E7196)
Correct for Stray Light: No (USB2E7196)
Number of Pixels in Processed Spectrum: 2048
>>>>>Begin Processed Spectral Data<<<<<
339.09	0.00
339.48	213.38
339.86	214.98
340.24	216.21
340.63	217.60
341.01	220.40
341.39	220.62
341.78	222.17
342.16	223.19
342.54	223.39
342.93	211.94
343.31	222.64
343.69	223.16
344.07	223.63
344.46	224.06
344.84	224.44
345.22	224.67
345.60	224.90
345.99	225.05
346.37	225.19
346.75	225.28
347.13	225.37
347.52	225.41
347.90	225.51
348.28	225.49
348.66	225.54
349.05	225.49
349.43	225.54
349.81	225.56
350.19	225.62
350.57	225.64
350.96	225.70
351.34	225.81
351.72	225.92
352.10	225.99
352.48	226.03
352.87	226.06
353.25	226.12
353.63	226.17
354.01	226.23
354.39	226.28
354.77	226.37
355.15	226.48
355.54	226.52
355.92	226.52
356.30	226.60
356.68	226.75
357.06	226.85
357.44	226.88
357.82	226.94
358.20	227.01
358.58	227.06
358.97	227.11
359.35	227.16
359.73	227.20
360.11	227.21
360.49	227.29
360.87	227.35
361.25	227.38
361.63	227.45
362.01	227.50
362.39	227.54
362.77	227.58
363.15	227.57
363.53	227.62
363.91	227.64
364.29	227.66
364.67	227.54
365.05	227.54
365.43	227.58
365.81	227.59
366.19	227.61
366.57	227.69
366.95	227.69
367.33	227.65
367.71	227.64
368.09	227.66
368.47	227.67
368.85	227.64
369.23	227.68
369.61	227.61
369.99	227.61
370.37	227.57
370.75	227.56
371.13	227.53
371.51	227.46
371.89	227.43
372.27	227.39
372.65	227.36
373.03	227.29
373.41	227.24
373.78	227.18
374.16	227.08
374.54	226.99
374.92	226.93
375.30	226.89
375.68	226.83
376.06	226.80
376.44	226.72
376.82	226.69
377.19	226.60
377.57	226.56
377.95	226.49
378.33	226.40
378.71	226.25
379.09	226.20
379.47	226.16
379.84	226.08
380.22	226.04
380.60	225.99
380.98	225.93
381.36	225.87
381.73	225.80
382.11	225.75
382.49	225.70
382.87	225.61
383.25	225.55
383.62	225.60
384.00	225.49
384.38	225.45
384.76	225.39
385.13	225.40
385.51	225.35
385.89	225.28
386.27	225.28
386.64	225.26
387.02	225.20
387.40	225.16
387.78	225.16
388.15	225.12
388.53	225.10
388.91	225.11
389.29	225.08
389.66	225.06
390.04	225.05
390.42	225.04
390.79	225.04
391.17	225.05
391.55	224.95
391.92	224.97
392.30	224.97
392.68	224.94
393.05	224.92
393.43	224.91
393.81	224.93
394.18	224.90
394.56	224.94
394.94	224.96
395.31	224.99
395.69	225.03
396.06	225.06
396.44	225.08
396.82	225.07
397.19	225.14
397.57	225.15
397.95	225.16
398.32	225.18
398.70	225.23
399.07	225.27
399.45	225.33
399.82	225.37
400.20	225.41
400.58	225.51
400.95	225.54
401.33	225.63
401.70	225.78
402.08	225.85
402.45	225.95
402.83	226.09
403.20	226.18
403.58	226.23
403.95	226.36
404.33	226.46
404.71	226.59
405.08	226.78
405.46	226.90
405.83	227.04
406.21	227.13
406.58	227.28
406.96	227.41
407.33	227.56
407.70	227.76
408.08	228.01
408.45	228.24
408.83	228.43
409.20	228.63
409.58	228.79
409.95	229.04
410.33	229.28
410.70	229.49
411.08	229.76
411.45	230.07
411.82	230.33
412.20	230.69
412.57	231.06
412.95	231.34
413.32	231.75
413.69	232.16
414.07	232.65
414.44	233.13
414.82	233.65
415.19	234.18
415.56	234.73
415.94	235.26
416.31	235.85
416.68	236.49
417.06	237.17
417.43	237.88
417.81	238.64
418.18	239.39
418.55	240.21
418.93	241.07
419.30	241.95
419.67	242.90
420.04	243.82
420.42	244.81
420.79	246.00
421.16	247.13
421.54	248.32
421.91	249.52
422.28	250.77
422.66	252.06
423.03	253.36
423.40	254.68
423.77	256.07
424.15	257.48
424.52	258.96
424.89	260.61
425.26	262.12
425.64	263.57
426.01	265.18
426.38	266.83
426.75	268.48
427.13	270.22
427.50	272.00
427.87	273.86
428.24	275.72
428.61	277.43
428.99	279.39
429.36	281.50
429.73	283.53
430.10	285.55
430.47	287.60
430.85	289.72
431.22	291.95
431.59	294.34
431.96	296.60
432.33	299.07
432.70	301.38
433.08	304.21
433.45	306.85
433.82	309.43
434.19	312.33
434.56	315.16
434.93	317.77
435.30	320.41
435.68	323.30
436.05	326.12
436.42	328.88
436.79	331.37
437.16	334.05
437.53	336.88
437.90	339.66
438.27	342.34
438.64	345.13
439.01	347.67
439.38	349.87
439.75	351.98
440.13	354.45
440.50	356.76
440.87	358.62
441.24	360.58
441.61	362.75
441.98	364.20
442.35	366.00
442.72	367.87
443.09	369.70
443.46	370.69
443.83	371.28
444.20	371.83
444.57	372.67
444.94	372.95
445.31	373.26
445.68	373.63
446.05	373.77
446.42	373.39
446.79	373.00
447.16	372.58
447.53	372.28
447.90	371.17
448.27	370.06
448.64	368.49
449.01	367.32
449.37	365.35
449.74	363.49
450.11	361.22
450.48	358.74
450.85	356.17
451.22	354.08
451.59	352.09
451.96	350.11
452.33	347.56
452.70	345.17
453.07	342.40
453.43	339.49
453.80	336.74
454.17	334.09
454.54	331.58
454.91	328.89
455.28	326.28
455.65	323.78
456.02	321.36
456.38	319.19
456.75	316.53
457.12	314.30
457.49	312.07
457.86	309.94
458.23	308.12
458.59	306.11
458.96	304.00
459.33	302.14
459.70	300.33
460.07	298.78
460.43	297.11
460.80	295.49
461.17	294.10
461.54	292.63
461.91	291.23
462.27	289.78
462.64	288.52
463.01	287.13
463.38	285.85
463.74	284.48
464.11	283.33
464.48	282.34
464.85	281.25
465.21	280.41
465.58	279.50
465.95	278.43
466.32	277.52
466.68	276.66
467.05	275.79
467.42	274.94
467.78	274.04
468.15	273.20
468.52	272.55
468.88	271.66
469.25	270.90
469.62	270.34
469.98	269.67
470.35	269.08
470.72	268.50
471.08	267.85
471.45	267.34
471.82	266.81
472.18	266.20
472.55	265.78
472.92	265.31
473.28	264.89
473.65	264.46
474.02	264.05
474.38	263.65
474.75	263.34
475.11	263.00
475.48	262.77
475.85	262.55
476.21	262.32
476.58	262.19
476.94	262.03
477.31	261.86
477.67	261.77
478.04	261.66
478.41	261.61
478.77	261.68
479.14	261.63
479.50	261.63
479.87	261.74
480.23	261.84
480.60	261.90
480.96	262.00
481.33	262.24
481.69	262.45
482.06	262.70
482.42	262.92
482.79	263.18
483.15	263.50
483.52	263.86
483.88	264.24
484.25	264.63
484.61	265.08
484.98	265.53
485.34	266.10
485.71	266.69
486.07	267.30
486.44	267.86
486.80	268.60
487.17	269.33
487.53	270.18
487.90	271.03
488.26	271.95
488.62	272.92
488.99	273.86
489.35	274.87
489.72	276.00
490.08	277.21
490.44	278.43
490.81	279.74
491.17	281.13
491.54	282.61
491.90	284.10
492.26	285.76
492.63	287.49
492.99	289.24
493.36	291.18
493.72	293.25
494.08	295.39
494.45	297.62
494.81	299.98
495.17	302.40
495.54	304.93
495.90	307.59
496.26	310.36
496.63	313.32
496.99	316.44
497.35	319.66
497.72	323.05
498.08	326.54
498.44	330.23
498.80	334.09
499.17	338.07
499.53	342.23
499.89	346.54
500.26	350.98
500.62	355.62
500.98	360.49
501.34	365.54
501.71	370.79
502.07	376.14
502.43	381.73
502.79	387.50
503.16	393.49
503.52	399.75
503.88	406.11
504.24	412.69
504.60	419.53
504.97	426.61
505.33	433.82
505.69	441.44
506.05	449.17
506.41	456.99
506.78	465.11
507.14	473.50
507.50	482.10
507.86	491.03
508.22	500.09
508.59	509.27
508.95	518.73
509.31	528.39
509.67	538.43
510.03	548.61
510.39	559.03
510.75	569.65
511.12	580.46
511.48	591.64
511.84	602.90
512.20	614.25
512.56	625.99
512.92	637.99
513.28	650.18
513.64	662.45
514.00	674.96
514.37	687.69
514.73	700.57
515.09	713.46
515.45	726.54
515.81	739.98
516.17	753.68
516.53	767.65
516.89	781.65
517.25	795.63
517.61	809.84
517.97	824.10
518.33	838.37
518.69	852.93
519.05	867.70
519.41	882.66
519.77	897.92
520.13	913.10
520.49	928.23
520.85	943.27
521.21	958.58
521.57	974.54
521.93	990.00
522.29	1006.04
522.65	1021.95
523.01	1037.80
523.37	1053.53
523.73	1069.38
524.09	1085.03
524.45	1100.96
524.81	1117.10
525.17	1133.47
525.53	1150.00
525.89	1166.50
526.25	1182.95
526.61	1198.95
526.97	1215.34
527.33	1231.57
527.68	1247.82
528.04	1264.00
528.40	1280.34
528.76	1297.09
529.12	1313.32
529.48	1329.98
529.84	1345.69
530.20	1362.04
530.56	1378.70
530.91	1395.77
531.27	1412.16
531.63	1428.41
531.99	1444.74
532.35	1460.53
532.71	1476.13
533.07	1492.07
533.42	1507.70
533.78	1523.38
534.14	1539.30
534.50	1554.32
534.86	1569.75
535.21	1584.62
535.57	1600.27
535.93	1615.42
536.29	1629.83
536.65	1644.47
537.00	1658.77
537.36	1673.67
537.72	1687.85
538.08	1702.07
538.44	1715.47
538.79	1729.14
539.15	1742.47
539.51	1755.73
539.87	1769.75
540.22	1783.21
540.58	1796.65
540.94	1809.60
541.29	1822.17
541.65	1834.58
542.01	1847.46
542.37	1859.56
542.72	1871.70
543.08	1883.17
543.44	1895.32
543.79	1906.51
544.15	1917.35
544.51	1928.72
544.87	1939.58
545.22	1950.18
545.58	1960.09
545.94	1969.77
546.29	1979.41
546.65	1989.09
547.01	1998.28
547.36	2006.73
547.72	2015.15
548.07	2022.88
548.43	2030.89
548.79	2038.85
549.14	2046.30
549.50	2053.44
549.86	2060.91
550.21	2068.16
550.57	2075.24
550.92	2081.70
551.28	2088.69
551.64	2095.87
551.99	2102.42
552.35	2108.49
552.70	2114.54
553.06	2120.62
553.41	2126.89
553.77	2132.83
554.13	2138.83
554.48	2145.02
554.84	2150.65
555.19	2155.73
555.55	2160.91
555.90	2165.49
556.26	2170.36
556.61	2175.04
556.97	2179.58
557.32	2183.83
557.68	2187.91
558.03	2192.15
558.39	2195.84
558.74	2200.39
559.10	2204.20
559.45	2207.84
559.81	2212.06
560.16	2216.04
560.52	2219.26
560.87	2222.67
561.23	2225.57
561.58	2228.61
561.94	2231.18
562.29	2233.59
562.64	2236.46
563.00	2238.99
563.35	2242.47
563.71	2245.75
564.06	2249.17
564.42	2252.10
564.77	2254.76
565.12	2257.27
565.48	2259.31
565.83	2261.52
566.19	2263.15
566.54	2264.04
566.89	2265.29
567.25	2266.06
567.60	2267.37
567.96	2269.33
568.31	2270.22
568.66	2271.47
569.02	2272.16
569.37	2272.59
569.72	2273.61
570.08	2274.01
570.43	2274.37
570.78	2274.11
571.14	2272.87
571.49	2271.67
571.84	2271.52
572.20	2270.66
572.55	2269.85
572.90	2268.39
573.26	2267.20
573.61	2265.55
573.96	2264.20
574.31	2261.51
574.67	2258.76
575.02	2255.40
575.37	2251.98
575.72	2248.62
576.08	2245.31
576.43	2242.19
576.78	2238.91
577.13	2235.82
577.49	2232.80
577.84	2229.56
578.19	2226.05
578.54	2222.54
578.90	2218.62
579.25	2213.20
579.60	2208.46
579.95	2203.66
580.30	2198.94
580.66	2194.02
581.01	2189.10
581.36	2184.31
581.71	2180.48
582.06	2176.32
582.42	2172.21
582.77	2167.29
583.12	2162.86
583.47	2158.49
583.82	2153.80
584.17	2148.62
584.53	2143.39
584.88	2138.02
585.23	2132.42
585.58	2127.10
585.93	2121.81
586.28	2117.25
586.63	2112.48
586.98	2107.52
587.34	2102.95
587.69	2098.25
588.04	2093.13
588.39	2087.83
588.74	2081.48
589.09	2075.38
589.44	2068.78
589.79	2062.84
590.14	2057.34
590.49	2050.92
590.84	2044.58
591.19	2038.76
591.54	2032.47
591.89	2025.38
592.25	2018.87
592.60	2011.89
592.95	2004.54
593.30	1997.35
593.65	1989.80
594.00	1982.88
594.35	1975.87
594.70	1968.04
595.05	1961.22
595.40	1954.02
595.75	1946.72
596.10	1940.86
596.45	1934.30
596.80	1928.49
597.15	1922.06
597.50	1915.26
597.85	1909.06
598.19	1902.54
598.54	1895.58
598.89	1889.13
599.24	1883.36
599.59	1876.88
599.94	1870.78
600.29	1864.43
600.64	1857.87
600.99	1850.59
601.34	1843.92
601.69	1836.90
602.04	1830.12
602.39	1822.79
602.74	1816.14
603.08	1809.49
603.43	1802.74
603.78	1795.45
604.13	1788.26
604.48	1781.11
604.83	1774.38
605.18	1767.60
605.53	1759.77
605.87	1751.82
606.22	1744.63
606.57	1736.78
606.92	1729.30
607.27	1722.34
607.62	1715.71
607.96	1708.69
608.31	1702.27
608.66	1694.73
609.01	1687.46
609.36	1680.15
609.70	1672.33
610.05	1664.36
610.40	1656.84
610.75	1648.70
611.10	1641.27
611.44	1632.72
611.79	1624.78
612.14	1616.23
612.49	1607.03
612.83	1598.75
613.18	1590.67
613.53	1582.80
613.88	1574.30
614.22	1566.27
614.57	1557.59
614.92	1549.61
615.27	1542.10
615.61	1533.82
615.96	1525.93
616.31	1518.29
616.65	1510.91
617.00	1503.38
617.35	1495.74
617.70	1487.51
618.04	1479.01
618.39	1470.63
618.74	1463.25
619.08	1455.05
619.43	1447.41
619.78	1440.59
620.12	1433.56
620.47	1426.19
620.82	1417.90
621.16	1410.52
621.51	1402.81
621.85	1395.42
622.20	1386.88
622.55	1378.56
622.89	1370.73
623.24	1363.05
623.59	1355.65
623.93	1348.05
624.28	1340.84
624.62	1333.37
624.97	1326.15
625.32	1319.48
625.66	1312.71
626.01	1305.55
626.35	1298.10
626.70	1290.39
627.04	1282.70
627.39	1274.87
627.73	1267.42
628.08	1260.56
628.43	1253.43
628.77	1246.20
629.12	1238.56
629.46	1231.49
629.81	1223.98
630.15	1216.79
630.50	1209.52
630.84	1201.45
631.19	1193.57
631.53	1185.99
631.88	1178.46
632.22	1170.84
632.57	1163.49
632.91	1155.83
633.26	1148.43
633.60	1141.07
633.95	1133.90
634.29	1126.91
634.64	1120.36
634.98	1113.00
635.32	1105.93
635.67	1099.17
636.01	1092.51
636.36	1085.73
636.70	1079.20
637.05	1072.69
637.39	1066.20
637.73	1059.72
638.08	1053.77
638.42	1047.72
638.77	1041.26
639.11	1034.65
639.45	1028.29
639.80	1021.64
640.14	1015.37
640.49	1008.85
640.83	1002.53
641.17	996.40
641.52	989.97
641.86	983.44
642.20	977.65
642.55	971.26
642.89	964.85
643.23	958.25
643.58	952.48
643.92	946.30
644.26	940.36
644.61	934.35
644.95	928.37
645.29	921.79
645.64	915.08
645.98	908.81
646.32	902.98
646.66	897.01
647.01	891.23
647.35	885.55
647.69	879.71
648.04	874.10
648.38	868.27
648.72	862.41
649.06	856.36
649.41	850.48
649.75	844.67
650.09	838.83
650.43	833.15
650.78	827.05
651.12	821.05
651.46	815.36
651.80	809.72
652.14	804.26
652.49	798.98
652.83	793.91
653.17	788.35
653.51	782.76
653.85	777.38
654.20	771.81
654.54	765.80
654.88	760.11
655.22	754.42
655.56	748.83
655.90	743.31
656.25	738.25
656.59	732.93
656.93	727.86
657.27	722.68
657.61	717.22
657.95	712.18
658.29	707.14
658.64	701.84
658.98	696.47
659.32	691.03
659.66	685.92
660.00	680.69
660.34	675.75
660.68	670.79
661.02	665.84
661.36	661.17
661.70	656.75
662.05	652.46
662.39	648.16
662.73	643.75
663.07	639.42
663.41	634.84
663.75	630.38
664.09	625.78
664.43	621.46
664.77	617.42
665.11	613.16
665.45	609.04
665.79	605.01
666.13	600.93
666.47	596.96
666.81	592.82
667.15	588.74
667.49	584.82
667.83	580.96
668.17	577.02
668.51	572.97
668.85	568.92
669.19	565.04
669.53	561.23
669.87	557.32
670.21	553.67
670.55	550.10
670.89	546.67
671.23	543.25
671.57	539.69
671.91	536.16
672.25	532.66
672.58	529.17
672.92	525.77
673.26	522.63
673.60	519.46
673.94	516.34
674.28	513.34
674.62	510.42
674.96	507.41
675.30	504.52
675.64	501.62
675.97	498.80
676.31	495.97
676.65	492.97
676.99	490.35
677.33	487.47
677.67	484.68
678.01	481.67
678.34	478.73
678.68	475.92
679.02	473.12
679.36	470.35
679.70	467.64
680.04	464.89
680.37	462.03
680.71	459.19
681.05	456.60
681.39	453.86
681.73	451.18
682.06	448.64
682.40	446.02
682.74	443.48
683.08	440.93
683.42	438.28
683.75	435.80
684.09	433.19
684.43	430.68
684.77	428.20
685.10	425.85
685.44	423.57
685.78	421.20
686.12	418.94
686.45	416.65
686.79	414.32
687.13	412.10
687.46	409.90
687.80	407.70
688.14	405.42
688.48	403.42
688.81	401.20
689.15	399.05
689.49	396.93
689.82	394.79
690.16	392.74
690.50	390.78
690.83	388.85
691.17	386.85
691.51	384.98
691.84	383.16
692.18	381.21
692.52	379.19
692.85	377.29
693.19	375.39
693.52	373.49
693.86	371.69
694.20	369.94
694.53	368.15
694.87	366.33
695.21	364.54
695.54	362.68
695.88	360.94
696.21	359.22
696.55	357.53
696.88	355.84
697.22	354.15
697.56	352.48
697.89	350.87
698.23	349.28
698.56	347.67
698.90	346.10
699.23	344.48
699.57	342.96
699.90	341.42
700.24	339.91
700.58	338.46
700.91	337.02
701.25	335.54
701.58	334.18
701.92	332.84
702.25	331.51
702.59	330.16
702.92	328.84
703.26	327.55
703.59	326.25
703.93	325.09
704.26	323.85
704.60	322.64
704.93	321.36
705.26	320.10
705.60	318.88
705.93	317.71
706.27	316.67
706.60	315.59
706.94	314.50
707.27	313.35
707.61	312.27
707.94	311.20
708.27	310.18
708.61	309.09
708.94	308.11
709.28	307.09
709.61	306.13
709.94	305.21
710.28	304.20
710.61	303.24
710.95	302.17
711.28	301.32
711.61	300.33
711.95	299.43
712.28	298.53
712.61	297.58
712.95	296.65
713.28	295.77
713.61	294.88
713.95	294.03
714.28	293.20
714.61	292.35
714.95	291.53
715.28	290.63
715.61	289.78
715.95	288.91
716.28	288.06
716.61	287.24
716.95	286.38
717.28	285.58
717.61	284.81
717.94	284.07
718.28	283.23
718.61	282.52
718.94	281.81
719.27	281.16
719.61	280.53
719.94	279.88
720.27	279.17
720.60	278.50
720.94	277.87
721.27	277.30
721.60	276.69
721.93	276.09
722.27	275.57
722.60	274.98
722.93	274.39
723.26	273.82
723.59	273.26
723.93	272.75
724.26	272.20
724.59	271.66
724.92	271.13
725.25	270.62
725.59	270.08
725.92	269.56
726.25	268.97
726.58	268.48
726.91	267.93
727.24	267.42
727.57	266.99
727.91	266.43
728.24	265.91
728.57	265.41
728.90	264.93
729.23	264.39
729.56	263.94
729.89	263.46
730.22	262.99
730.55	262.50
730.89	262.03
731.22	261.62
731.55	261.17
731.88	260.72
732.21	260.32
732.54	259.89
732.87	259.48
733.20	259.13
733.53	258.69
733.86	258.34
734.19	257.94
734.52	257.52
734.85	257.25
735.18	256.84
735.51	256.50
735.84	256.14
736.17	255.81
736.50	255.40
736.83	255.20
737.16	254.87
737.49	254.55
737.82	254.19
738.15	253.84
738.48	253.50
738.81	253.19
739.14	252.83
739.47	252.54
739.80	252.22
740.13	251.88
740.46	251.59
740.79	251.26
741.12	250.94
741.45	250.63
741.78	250.26
742.11	249.99
742.44	249.67
742.77	249.38
743.10	249.09
743.43	248.79
743.75	248.39
744.08	248.28
744.41	247.98
744.74	247.70
745.07	247.43
745.40	247.17
745.73	246.93
746.06	246.66
746.39	246.38
746.71	246.11
747.04	245.85
747.37	245.61
747.70	245.39
748.03	245.16
748.36	244.93
748.68	244.71
749.01	244.47
749.34	244.25
749.67	244.01
750.00	243.81
750.33	243.68
750.65	243.48
750.98	243.15
751.31	242.93
751.64	242.74
751.97	242.59
752.29	242.38
752.62	242.14
752.95	241.92
753.28	241.72
753.60	241.52
753.93	241.32
754.26	241.11
754.59	240.89
754.91	240.69
755.24	240.52
755.57	240.34
755.90	240.17
756.22	239.98
756.55	239.76
756.88	239.55
757.20	239.34
757.53	239.15
757.86	238.96
758.19	238.82
758.51	238.67
758.84	238.47
759.17	238.29
759.49	238.13
759.82	238.04
760.15	237.90
760.47	237.80
760.80	237.62
761.13	237.51
761.45	237.37
761.78	237.20
762.11	237.04
762.43	236.87
762.76	236.73
763.08	236.65
763.41	236.52
763.74	236.40
764.06	236.25
764.39	236.09
764.71	235.93
765.04	235.77
765.37	235.62
765.69	235.47
766.02	235.37
766.34	235.26
766.67	235.10
767.00	234.99
767.32	234.90
767.65	234.84
767.97	234.70
768.30	234.58
768.62	234.52
768.95	234.40
769.27	234.29
769.60	234.19
769.92	234.02
770.25	233.90
770.57	233.81
770.90	233.69
771.22	233.60
771.55	233.53
771.87	233.47
772.20	233.36
772.52	233.38
772.85	233.41
773.17	233.31
773.50	233.20
773.82	233.03
774.15	232.93
774.47	232.78
774.80	232.70
775.12	232.59
775.45	232.50
775.77	232.40
776.09	232.30
776.42	232.21
776.74	232.17
777.07	232.09
777.39	231.99
777.72	231.91
778.04	231.84
778.36	231.74
778.69	231.66
779.01	231.61
779.33	231.40
779.66	231.19
779.98	231.13
780.31	231.07
780.63	231.08
780.95	230.99
781.28	230.90
781.60	230.82
781.92	230.76
782.25	230.67
782.57	230.59
782.89	230.51
783.22	230.44
783.54	230.35
783.86	230.31
784.19	230.22
784.51	230.17
784.83	230.12
785.16	230.06
785.48	229.99
785.80	229.90
786.12	229.86
786.45	229.83
786.77	229.73
787.09	229.66
