SpectraSuite Data File
++++++++++++++++++++++++++++++++++++
Date: Fri Feb 01 15:56:59 EST 2013
User: group
Dark Spectrum Present: No
Reference Spectrum Present: No
Number of Sampled Component Spectra: 1
Spectrometers: USB2E7196
Integration Time (usec): 35000 (USB2E7196)
Spectra Averaged: 100 (USB2E7196)
Boxcar Smoothing: 10 (USB2E7196)
Correct for Electrical Dark: No (USB2E7196)
Strobe/Lamp Enabled: No (USB2E7196)
Correct for Detector Non-linearity: No (USB2E7196)
Correct for Stray Light: No (USB2E7196)
Number of Pixels in Processed Spectrum: 2048
>>>>>Begin Processed Spectral Data<<<<<
339.09	0.00
339.48	215.04
339.86	216.34
340.24	217.78
340.63	219.20
341.01	222.17
341.39	221.50
341.78	222.93
342.16	224.57
342.54	224.59
342.93	213.19
343.31	223.96
343.69	224.49
344.07	224.94
344.46	225.36
344.84	225.73
345.22	225.95
345.60	226.22
345.99	226.40
346.37	226.51
346.75	226.60
347.13	226.63
347.52	226.69
347.90	226.73
348.28	226.76
348.66	226.79
349.05	226.75
349.43	226.79
349.81	226.84
350.19	226.89
350.57	226.97
350.96	227.02
351.34	227.11
351.72	227.18
352.10	227.28
352.48	227.31
352.87	227.35
353.25	227.41
353.63	227.47
354.01	227.51
354.39	227.61
354.77	227.69
355.15	227.80
355.54	227.90
355.92	227.97
356.30	228.06
356.68	228.19
357.06	228.23
357.44	228.29
357.82	228.38
358.20	228.46
358.58	228.49
358.97	228.58
359.35	228.64
359.73	228.72
360.11	228.80
360.49	228.86
360.87	228.91
361.25	229.01
361.63	229.07
362.01	229.10
362.39	229.11
362.77	229.16
363.15	229.20
363.53	229.19
363.91	229.17
364.29	229.18
364.67	229.11
365.05	229.17
365.43	229.15
365.81	229.16
366.19	229.15
366.57	229.17
366.95	229.14
367.33	229.11
367.71	229.14
368.09	229.14
368.47	229.13
368.85	229.11
369.23	229.07
369.61	229.02
369.99	229.06
370.37	229.07
370.75	229.07
371.13	229.02
371.51	228.98
371.89	228.96
372.27	228.93
372.65	228.87
373.03	228.83
373.41	228.82
373.78	228.75
374.16	228.69
374.54	228.63
374.92	228.56
375.30	228.48
375.68	228.39
376.06	228.27
376.44	228.21
376.82	228.18
377.19	228.10
377.57	228.06
377.95	227.96
378.33	227.85
378.71	227.75
379.09	227.70
379.47	227.66
379.84	227.60
380.22	227.55
380.60	227.45
380.98	227.37
381.36	227.28
381.73	227.23
382.11	227.16
382.49	227.08
382.87	227.00
383.25	226.95
383.62	227.01
384.00	226.96
384.38	226.90
384.76	226.84
385.13	226.83
385.51	226.76
385.89	226.69
386.27	226.69
386.64	226.64
387.02	226.56
387.40	226.52
387.78	226.46
388.15	226.42
388.53	226.41
388.91	226.37
389.29	226.33
389.66	226.31
390.04	226.28
390.42	226.25
390.79	226.26
391.17	226.24
391.55	226.12
391.92	226.11
392.30	226.12
392.68	226.12
393.05	226.10
393.43	226.10
393.81	226.14
394.18	226.10
394.56	226.11
394.94	226.16
395.31	226.16
395.69	226.24
396.06	226.30
396.44	226.34
396.82	226.39
397.19	226.49
397.57	226.56
397.95	226.61
398.32	226.68
398.70	226.74
399.07	226.82
399.45	226.86
399.82	226.94
400.20	226.98
400.58	227.06
400.95	227.07
401.33	227.17
401.70	227.29
402.08	227.40
402.45	227.51
402.83	227.60
403.20	227.74
403.58	227.83
403.95	227.96
404.33	228.10
404.71	228.22
405.08	228.39
405.46	228.51
405.83	228.69
406.21	228.84
406.58	229.01
406.96	229.17
407.33	229.37
407.70	229.58
408.08	229.84
408.45	230.05
408.83	230.32
409.20	230.54
409.58	230.73
409.95	230.99
410.33	231.25
410.70	231.51
411.08	231.79
411.45	232.10
411.82	232.39
412.20	232.77
412.57	233.17
412.95	233.46
413.32	233.86
413.69	234.26
414.07	234.73
414.44	235.16
414.82	235.66
415.19	236.19
415.56	236.77
415.94	237.32
416.31	238.00
416.68	238.61
417.06	239.32
417.43	240.01
417.81	240.82
418.18	241.62
418.55	242.46
418.93	243.33
419.30	244.20
419.67	245.15
420.04	246.13
420.42	247.12
420.79	248.31
421.16	249.47
421.54	250.64
421.91	251.82
422.28	253.07
422.66	254.41
423.03	255.71
423.40	257.00
423.77	258.43
424.15	259.80
424.52	261.31
424.89	262.90
425.26	264.41
425.64	265.82
426.01	267.41
426.38	269.08
426.75	270.75
427.13	272.49
427.50	274.26
427.87	276.08
428.24	277.89
428.61	279.63
428.99	281.54
429.36	283.62
429.73	285.66
430.10	287.71
430.47	289.74
430.85	291.89
431.22	294.12
431.59	296.49
431.96	298.75
432.33	301.21
432.70	303.59
433.08	306.43
433.45	309.07
433.82	311.66
434.19	314.56
434.56	317.38
434.93	320.06
435.30	322.69
435.68	325.58
436.05	328.45
436.42	331.24
436.79	333.72
437.16	336.41
437.53	339.26
437.90	342.07
438.27	344.79
438.64	347.59
439.01	350.20
439.38	352.44
439.75	354.55
440.13	357.01
440.50	359.39
440.87	361.23
441.24	363.15
441.61	365.31
441.98	366.76
442.35	368.58
442.72	370.38
443.09	372.15
443.46	373.18
443.83	373.78
444.20	374.27
444.57	375.13
444.94	375.43
445.31	375.76
445.68	376.06
446.05	376.15
446.42	375.77
446.79	375.34
447.16	374.86
447.53	374.57
447.90	373.40
448.27	372.19
448.64	370.61
449.01	369.50
449.37	367.50
449.74	365.61
450.11	363.32
450.48	360.87
450.85	358.40
451.22	356.24
451.59	354.19
451.96	352.26
452.33	349.69
452.70	347.32
453.07	344.50
453.43	341.62
453.80	338.89
454.17	336.19
454.54	333.64
454.91	330.89
455.28	328.21
455.65	325.78
456.02	323.31
456.38	321.14
456.75	318.48
457.12	316.24
457.49	313.99
457.86	311.79
458.23	309.93
458.59	307.83
458.96	305.74
459.33	303.90
459.70	302.02
460.07	300.51
460.43	298.80
460.80	297.18
461.17	295.75
461.54	294.25
461.91	292.79
462.27	291.36
462.64	290.15
463.01	288.83
463.38	287.53
463.74	286.20
464.11	285.05
464.48	284.01
464.85	282.92
465.21	282.07
465.58	281.21
465.95	280.14
466.32	279.29
466.68	278.40
467.05	277.53
467.42	276.66
467.78	275.72
468.15	274.83
468.52	274.18
468.88	273.31
469.25	272.51
469.62	271.93
469.98	271.26
470.35	270.64
470.72	270.04
471.08	269.37
471.45	268.84
471.82	268.30
472.18	267.71
472.55	267.29
472.92	266.81
473.28	266.30
473.65	265.83
474.02	265.35
474.38	264.98
474.75	264.64
475.11	264.30
475.48	264.06
475.85	263.88
476.21	263.65
476.58	263.52
476.94	263.38
477.31	263.23
477.67	263.07
478.04	262.93
478.41	262.89
478.77	262.94
479.14	262.86
479.50	262.86
479.87	262.94
480.23	263.00
480.60	263.04
480.96	263.17
481.33	263.39
481.69	263.60
482.06	263.80
482.42	264.03
482.79	264.26
483.15	264.56
483.52	264.90
483.88	265.24
484.25	265.61
484.61	266.07
484.98	266.51
485.34	267.08
485.71	267.69
486.07	268.25
486.44	268.82
486.80	269.52
487.17	270.23
487.53	271.04
487.90	271.93
488.26	272.90
488.62	273.88
488.99	274.84
489.35	275.90
489.72	277.05
490.08	278.24
490.44	279.50
490.81	280.85
491.17	282.24
491.54	283.69
491.90	285.15
492.26	286.77
492.63	288.50
492.99	290.30
493.36	292.20
493.72	294.25
494.08	296.37
494.45	298.64
494.81	301.06
495.17	303.48
495.54	306.02
495.90	308.68
496.26	311.48
496.63	314.46
496.99	317.59
497.35	320.79
497.72	324.20
498.08	327.74
498.44	331.38
498.80	335.29
499.17	339.34
499.53	343.57
499.89	347.96
500.26	352.45
500.62	357.13
500.98	362.08
501.34	367.18
501.71	372.52
502.07	377.93
502.43	383.56
502.79	389.39
503.16	395.48
503.52	401.83
503.88	408.25
504.24	414.93
504.60	421.82
504.97	428.97
505.33	436.31
505.69	443.96
506.05	451.76
506.41	459.66
506.78	467.84
507.14	476.35
507.50	485.08
507.86	494.16
508.22	503.34
508.59	512.59
508.95	522.13
509.31	531.92
509.67	542.04
510.03	552.36
510.39	562.96
510.75	573.74
511.12	584.57
511.48	595.92
511.84	607.31
512.20	618.86
512.56	630.81
512.92	643.00
513.28	655.39
513.64	667.84
514.00	680.52
514.37	693.40
514.73	706.38
515.09	719.33
515.45	732.54
515.81	746.08
516.17	760.03
516.53	774.23
516.89	788.42
517.25	802.57
517.61	816.94
517.97	831.28
518.33	845.69
518.69	860.38
519.05	875.27
519.41	890.43
519.77	905.89
520.13	921.32
520.49	936.61
520.85	952.04
521.21	967.66
521.57	983.92
521.93	999.66
522.29	1016.04
522.65	1032.37
523.01	1048.59
523.37	1064.55
523.73	1080.70
524.09	1096.71
524.45	1112.87
524.81	1129.51
525.17	1146.27
525.53	1163.19
525.89	1180.09
526.25	1197.00
526.61	1213.30
526.97	1230.05
527.33	1246.47
527.68	1263.04
528.04	1279.54
528.40	1296.07
528.76	1313.19
529.12	1329.73
529.48	1346.59
529.84	1362.54
530.20	1379.07
530.56	1396.07
530.91	1413.57
531.27	1430.23
531.63	1446.73
531.99	1463.44
532.35	1479.29
532.71	1495.16
533.07	1511.38
533.42	1527.20
533.78	1543.09
534.14	1559.45
534.50	1574.71
534.86	1590.60
535.21	1605.72
535.57	1621.61
535.93	1637.10
536.29	1651.91
536.65	1666.90
537.00	1681.73
537.36	1696.87
537.72	1711.38
538.08	1725.68
538.44	1739.42
538.79	1753.32
539.15	1766.95
539.51	1780.69
539.87	1794.93
540.22	1808.63
540.58	1822.40
540.94	1835.63
541.29	1848.55
541.65	1861.16
542.01	1874.42
542.37	1886.69
542.72	1899.08
543.08	1910.85
543.44	1923.20
543.79	1934.42
544.15	1945.29
544.51	1956.79
544.87	1967.86
545.22	1978.73
545.58	1989.04
545.94	1998.73
546.29	2008.61
546.65	2018.39
547.01	2027.62
547.36	2036.48
547.72	2044.91
548.07	2052.65
548.43	2060.79
548.79	2068.86
549.14	2076.44
549.50	2083.75
549.86	2091.47
550.21	2098.85
550.57	2105.99
550.92	2112.48
551.28	2119.49
551.64	2126.65
551.99	2133.22
552.35	2139.36
552.70	2145.40
553.06	2151.34
553.41	2157.68
553.77	2163.59
554.13	2169.69
554.48	2175.68
554.84	2181.04
555.19	2186.36
555.55	2191.60
555.90	2196.28
556.26	2200.92
556.61	2205.67
556.97	2209.91
557.32	2214.04
557.68	2218.10
558.03	2222.43
558.39	2226.19
558.74	2230.81
559.10	2234.66
559.45	2238.38
559.81	2242.70
560.16	2246.60
560.52	2249.82
560.87	2253.33
561.23	2256.10
561.58	2259.01
561.94	2261.61
562.29	2264.07
562.64	2266.62
563.00	2269.22
563.35	2272.60
563.71	2275.91
564.06	2279.10
564.42	2281.92
564.77	2284.35
565.12	2286.60
565.48	2288.35
565.83	2290.17
566.19	2291.46
566.54	2292.32
566.89	2293.37
567.25	2293.95
567.60	2295.21
567.96	2296.83
568.31	2297.66
568.66	2298.75
569.02	2299.30
569.37	2299.64
569.72	2300.52
570.08	2300.63
570.43	2300.73
570.78	2300.05
571.14	2298.54
571.49	2297.08
571.84	2296.87
572.20	2295.77
572.55	2294.79
572.90	2293.20
573.26	2291.85
573.61	2290.21
573.96	2288.42
574.31	2285.46
574.67	2282.52
575.02	2278.99
575.37	2275.68
575.72	2271.86
576.08	2268.43
576.43	2265.25
576.78	2261.58
577.13	2258.30
577.49	2255.31
577.84	2251.65
578.19	2248.15
578.54	2244.48
578.90	2240.34
579.25	2234.76
579.60	2229.71
579.95	2224.76
580.30	2219.87
580.66	2214.75
581.01	2209.80
581.36	2204.95
581.71	2200.88
582.06	2196.40
582.42	2191.79
582.77	2186.62
583.12	2182.00
583.47	2177.37
583.82	2172.30
584.17	2167.02
584.53	2161.48
584.88	2155.97
585.23	2150.20
585.58	2144.74
585.93	2139.36
586.28	2134.58
586.63	2129.51
586.98	2124.60
587.34	2119.85
587.69	2115.02
588.04	2109.71
588.39	2104.09
588.74	2097.64
589.09	2091.47
589.44	2084.75
589.79	2078.82
590.14	2073.09
590.49	2066.50
590.84	2060.02
591.19	2053.96
591.54	2047.59
591.89	2040.30
592.25	2033.40
592.60	2026.22
592.95	2018.53
593.30	2010.99
593.65	2003.40
594.00	1996.33
594.35	1989.07
594.70	1981.13
595.05	1973.81
595.40	1966.55
595.75	1958.98
596.10	1952.74
596.45	1945.86
596.80	1939.59
597.15	1932.95
597.50	1925.81
597.85	1919.46
598.19	1912.84
598.54	1905.78
598.89	1899.15
599.24	1893.32
599.59	1886.63
599.94	1880.48
600.29	1874.11
600.64	1867.61
600.99	1860.21
601.34	1853.34
601.69	1846.33
602.04	1839.30
602.39	1832.01
602.74	1825.18
603.08	1818.49
603.43	1811.76
603.78	1804.57
604.13	1797.45
604.48	1790.11
604.83	1783.36
605.18	1776.29
605.53	1768.28
605.87	1760.20
606.22	1752.81
606.57	1744.85
606.92	1737.63
607.27	1730.37
607.62	1723.48
607.96	1716.19
608.31	1709.52
608.66	1701.98
609.01	1694.40
609.36	1686.86
609.70	1678.90
610.05	1670.70
610.40	1662.98
610.75	1654.63
611.10	1646.94
611.44	1638.44
611.79	1630.58
612.14	1621.78
612.49	1612.71
612.83	1604.42
613.18	1596.22
613.53	1588.13
613.88	1579.61
614.22	1571.33
614.57	1562.80
614.92	1554.82
615.27	1547.31
615.61	1538.95
615.96	1530.95
616.31	1523.25
616.65	1515.96
617.00	1508.32
617.35	1500.77
617.70	1492.38
618.04	1483.92
618.39	1475.56
618.74	1467.98
619.08	1459.55
619.43	1452.06
619.78	1445.17
620.12	1437.91
620.47	1430.54
620.82	1422.54
621.16	1415.09
621.51	1407.45
621.85	1399.82
622.20	1391.28
622.55	1382.92
622.89	1375.09
623.24	1367.49
623.59	1360.15
623.93	1352.57
624.28	1345.32
624.62	1337.80
624.97	1330.69
625.32	1323.98
625.66	1317.03
626.01	1309.91
626.35	1302.54
626.70	1294.80
627.04	1287.06
627.39	1279.39
627.73	1272.02
628.08	1265.03
628.43	1257.68
628.77	1250.31
629.12	1242.75
629.46	1235.55
629.81	1228.22
630.15	1220.96
630.50	1213.55
630.84	1205.27
631.19	1197.39
631.53	1189.95
631.88	1182.38
632.22	1174.69
632.57	1167.40
632.91	1159.86
633.26	1152.34
633.60	1144.99
633.95	1137.90
634.29	1130.78
634.64	1124.13
634.98	1116.61
635.32	1109.47
635.67	1102.91
636.01	1096.26
636.36	1089.56
636.70	1083.05
637.05	1076.51
637.39	1070.10
637.73	1063.52
638.08	1057.73
638.42	1051.82
638.77	1045.40
639.11	1038.85
639.45	1032.49
639.80	1025.84
640.14	1019.51
640.49	1013.07
640.83	1006.72
641.17	1000.51
641.52	994.25
641.86	987.75
642.20	981.99
642.55	975.67
642.89	969.21
643.23	962.59
643.58	956.78
643.92	950.66
644.26	944.47
644.61	938.52
644.95	932.48
645.29	925.95
645.64	919.10
645.98	912.82
646.32	907.01
646.66	900.98
647.01	895.21
647.35	889.37
647.69	883.45
648.04	877.90
648.38	872.06
648.72	866.13
649.06	860.07
649.41	854.14
649.75	848.26
650.09	842.30
650.43	836.64
650.78	830.49
651.12	824.50
651.46	818.79
651.80	812.95
652.14	807.56
652.49	802.19
652.83	797.05
653.17	791.34
653.51	785.54
653.85	780.18
654.20	774.48
654.54	768.56
654.88	762.92
655.22	757.00
655.56	751.37
655.90	745.85
656.25	740.55
656.59	735.23
656.93	730.11
657.27	724.98
657.61	719.52
657.95	714.38
658.29	709.22
658.64	703.98
658.98	698.70
659.32	693.32
659.66	688.07
660.00	682.68
660.34	677.63
660.68	672.76
661.02	667.66
661.36	662.91
661.70	658.36
662.05	654.00
662.39	649.74
662.73	645.26
663.07	640.84
663.41	636.45
663.75	631.95
664.09	627.32
664.43	622.88
664.77	618.71
665.11	614.47
665.45	610.45
665.79	606.38
666.13	602.24
666.47	598.05
666.81	593.89
667.15	589.80
667.49	585.90
667.83	582.14
668.17	578.24
668.51	574.14
668.85	570.12
669.19	566.30
669.53	562.39
669.87	558.50
670.21	554.90
670.55	551.21
670.89	547.82
671.23	544.40
671.57	540.89
671.91	537.41
672.25	533.94
672.58	530.39
672.92	526.98
673.26	523.81
673.60	520.64
673.94	517.50
674.28	514.63
674.62	511.73
674.96	508.58
675.30	505.65
675.64	502.76
675.97	500.02
676.31	497.11
676.65	494.23
676.99	491.53
677.33	488.65
677.67	485.82
678.01	482.77
678.34	479.80
678.68	476.95
679.02	474.12
679.36	471.30
679.70	468.54
680.04	465.77
680.37	462.86
680.71	460.14
681.05	457.55
681.39	454.84
681.73	452.18
682.06	449.68
682.40	447.17
682.74	444.65
683.08	442.15
683.42	439.56
683.75	437.04
684.09	434.48
684.43	431.97
684.77	429.53
685.10	427.16
685.44	424.91
685.78	422.57
686.12	420.31
686.45	418.05
686.79	415.80
687.13	413.61
687.46	411.50
687.80	409.36
688.14	407.13
688.48	405.09
688.81	402.85
689.15	400.70
689.49	398.55
689.82	396.45
690.16	394.34
690.50	392.36
690.83	390.42
691.17	388.43
691.51	386.53
691.84	384.71
692.18	382.80
692.52	380.77
692.85	378.90
693.19	377.04
693.52	375.21
693.86	373.36
694.20	371.61
694.53	369.80
694.87	367.95
695.21	366.23
695.54	364.37
695.88	362.62
696.21	360.88
696.55	359.18
696.88	357.52
697.22	355.89
697.56	354.29
697.89	352.61
698.23	350.99
698.56	349.37
698.90	347.74
699.23	346.09
699.57	344.57
699.90	343.00
700.24	341.46
700.58	339.97
700.91	338.47
701.25	337.01
701.58	335.65
701.92	334.29
702.25	332.88
702.59	331.57
702.92	330.27
703.26	329.01
703.59	327.74
703.93	326.55
704.26	325.31
704.60	323.98
704.93	322.71
705.26	321.51
705.60	320.38
705.93	319.26
706.27	318.24
706.60	317.19
706.94	316.12
707.27	314.97
707.61	313.84
707.94	312.85
708.27	311.76
708.61	310.67
708.94	309.65
709.28	308.66
709.61	307.67
709.94	306.74
710.28	305.65
710.61	304.67
710.95	303.64
711.28	302.70
711.61	301.79
711.95	300.88
712.28	299.94
712.61	298.95
712.95	298.02
713.28	297.10
713.61	296.23
713.95	295.35
714.28	294.52
714.61	293.70
714.95	292.82
715.28	292.02
715.61	291.17
715.95	290.34
716.28	289.50
716.61	288.69
716.95	287.86
717.28	287.15
717.61	286.37
717.94	285.60
718.28	284.78
718.61	284.04
718.94	283.37
719.27	282.70
719.61	282.03
719.94	281.35
720.27	280.65
720.60	279.93
720.94	279.30
721.27	278.70
721.60	278.12
721.93	277.54
722.27	276.97
722.60	276.42
722.93	275.84
723.26	275.28
723.59	274.72
723.93	274.18
724.26	273.59
724.59	273.06
724.92	272.54
725.25	272.07
725.59	271.54
725.92	271.05
726.25	270.54
726.58	270.04
726.91	269.55
727.24	269.07
727.57	268.60
727.91	268.09
728.24	267.59
728.57	267.14
728.90	266.72
729.23	266.20
729.56	265.73
729.89	265.30
730.22	264.80
730.55	264.32
730.89	263.88
731.22	263.47
731.55	263.02
731.88	262.60
732.21	262.12
732.54	261.73
732.87	261.27
733.20	260.88
733.53	260.52
733.86	260.12
734.19	259.73
734.52	259.36
734.85	259.05
735.18	258.66
735.51	258.26
735.84	257.87
736.17	257.53
736.50	257.13
736.83	256.86
737.16	256.59
737.49	256.27
737.82	255.89
738.15	255.55
738.48	255.22
738.81	254.86
739.14	254.58
739.47	254.25
739.80	253.97
740.13	253.63
740.46	253.31
740.79	253.00
741.12	252.66
741.45	252.36
741.78	251.99
742.11	251.72
742.44	251.41
742.77	251.09
743.10	250.78
743.43	250.50
743.75	250.12
744.08	249.95
744.41	249.68
744.74	249.41
745.07	249.14
745.40	248.90
745.73	248.70
746.06	248.44
746.39	248.14
746.71	247.87
747.04	247.62
747.37	247.32
747.70	247.09
748.03	246.85
748.36	246.63
748.68	246.39
749.01	246.16
749.34	245.92
749.67	245.72
750.00	245.50
750.33	245.34
750.65	245.14
750.98	244.74
751.31	244.54
751.64	244.35
751.97	244.18
752.29	243.94
752.62	243.71
752.95	243.48
753.28	243.29
753.60	243.07
753.93	242.91
754.26	242.74
754.59	242.51
754.91	242.31
755.24	242.11
755.57	241.94
755.90	241.72
756.22	241.53
756.55	241.33
756.88	241.17
757.20	240.91
757.53	240.74
757.86	240.60
758.19	240.41
758.51	240.24
758.84	240.05
759.17	239.88
759.49	239.71
759.82	239.58
760.15	239.45
760.47	239.34
760.80	239.17
761.13	239.02
761.45	238.89
761.78	238.77
762.11	238.64
762.43	238.48
762.76	238.35
763.08	238.21
763.41	238.06
763.74	237.89
764.06	237.76
764.39	237.62
764.71	237.47
765.04	237.34
765.37	237.22
765.69	237.07
766.02	236.95
766.34	236.80
766.67	236.68
767.00	236.55
767.32	236.45
767.65	236.38
767.97	236.27
768.30	236.14
768.62	235.99
768.95	235.86
769.27	235.76
769.60	235.67
769.92	235.58
770.25	235.47
770.57	235.37
770.90	235.30
771.22	235.17
771.55	235.09
771.87	234.98
772.20	234.86
772.52	234.85
772.85	234.86
773.17	234.77
773.50	234.66
773.82	234.55
774.15	234.41
774.47	234.26
774.80	234.20
775.12	234.12
775.45	234.06
775.77	234.00
776.09	233.92
776.42	233.83
776.74	233.76
777.07	233.68
777.39	233.60
777.72	233.53
778.04	233.45
778.36	233.38
778.69	233.32
779.01	233.28
779.33	233.14
779.66	232.98
779.98	232.93
780.31	232.90
780.63	232.88
780.95	232.82
781.28	232.74
781.60	232.63
781.92	232.52
782.25	232.45
782.57	232.36
782.89	232.28
783.22	232.23
783.54	232.16
783.86	232.11
784.19	232.05
784.51	231.99
784.83	231.94
785.16	231.87
785.48	231.83
785.80	231.78
786.12	231.74
786.45	231.67
786.77	231.61
787.09	231.53
