SpectraSuite Data File
++++++++++++++++++++++++++++++++++++
Date: Fri Feb 01 17:14:22 EST 2013
User: group
Dark Spectrum Present: No
Reference Spectrum Present: No
Number of Sampled Component Spectra: 1
Spectrometers: USB2E7196
Integration Time (usec): 35000 (USB2E7196)
Spectra Averaged: 100 (USB2E7196)
Boxcar Smoothing: 10 (USB2E7196)
Correct for Electrical Dark: No (USB2E7196)
Strobe/Lamp Enabled: No (USB2E7196)
Correct for Detector Non-linearity: No (USB2E7196)
Correct for Stray Light: No (USB2E7196)
Number of Pixels in Processed Spectrum: 2048
>>>>>Begin Processed Spectral Data<<<<<
339.09	0.00
339.48	213.01
339.86	214.75
340.24	216.24
340.63	217.58
341.01	220.16
341.39	220.12
341.78	221.68
342.16	222.41
342.54	223.22
342.93	211.57
343.31	222.27
343.69	222.82
344.07	223.30
344.46	223.74
344.84	224.09
345.22	224.29
345.60	224.52
345.99	224.70
346.37	224.83
346.75	224.96
347.13	225.00
347.52	225.03
347.90	225.12
348.28	225.12
348.66	225.15
349.05	225.16
349.43	225.22
349.81	225.26
350.19	225.36
350.57	225.41
350.96	225.50
351.34	225.59
351.72	225.70
352.10	225.78
352.48	225.79
352.87	225.87
353.25	225.99
353.63	226.08
354.01	226.13
354.39	226.20
354.77	226.23
355.15	226.37
355.54	226.44
355.92	226.49
356.30	226.60
356.68	226.72
357.06	226.76
357.44	226.81
357.82	226.88
358.20	226.94
358.58	227.01
358.97	227.09
359.35	227.15
359.73	227.23
360.11	227.27
360.49	227.37
360.87	227.44
361.25	227.48
361.63	227.55
362.01	227.59
362.39	227.64
362.77	227.70
363.15	227.72
363.53	227.75
363.91	227.76
364.29	227.78
364.67	227.71
365.05	227.78
365.43	227.82
365.81	227.85
366.19	227.88
366.57	227.94
366.95	227.91
367.33	227.88
367.71	227.85
368.09	227.88
368.47	227.88
368.85	227.83
369.23	227.83
369.61	227.77
369.99	227.79
370.37	227.77
370.75	227.79
371.13	227.73
371.51	227.68
371.89	227.69
372.27	227.67
372.65	227.64
373.03	227.54
373.41	227.46
373.78	227.40
374.16	227.32
374.54	227.25
374.92	227.20
375.30	227.17
375.68	227.10
376.06	227.02
376.44	226.96
376.82	226.95
377.19	226.85
377.57	226.81
377.95	226.72
378.33	226.68
378.71	226.54
379.09	226.52
379.47	226.50
379.84	226.43
380.22	226.37
380.60	226.31
380.98	226.26
381.36	226.23
381.73	226.17
382.11	226.12
382.49	226.06
382.87	225.98
383.25	225.91
383.62	225.93
384.00	225.90
384.38	225.83
384.76	225.76
385.13	225.79
385.51	225.75
385.89	225.67
386.27	225.63
386.64	225.62
387.02	225.54
387.40	225.48
387.78	225.42
388.15	225.38
388.53	225.33
388.91	225.27
389.29	225.21
389.66	225.20
390.04	225.16
390.42	225.16
390.79	225.16
391.17	225.12
391.55	225.03
391.92	224.99
392.30	225.01
392.68	224.99
393.05	224.94
393.43	224.92
393.81	224.95
394.18	224.93
394.56	224.95
394.94	225.01
395.31	224.99
395.69	225.03
396.06	225.06
396.44	225.10
396.82	225.12
397.19	225.19
397.57	225.17
397.95	225.22
398.32	225.23
398.70	225.29
399.07	225.37
399.45	225.44
399.82	225.49
400.20	225.52
400.58	225.55
400.95	225.57
401.33	225.67
401.70	225.79
402.08	225.87
402.45	225.94
402.83	225.99
403.20	226.13
403.58	226.19
403.95	226.29
404.33	226.37
404.71	226.50
405.08	226.67
405.46	226.82
405.83	226.95
406.21	227.07
406.58	227.22
406.96	227.36
407.33	227.49
407.70	227.67
408.08	227.94
408.45	228.20
408.83	228.42
409.20	228.63
409.58	228.80
409.95	229.07
410.33	229.36
410.70	229.60
411.08	229.88
411.45	230.18
411.82	230.49
412.20	230.90
412.57	231.31
412.95	231.59
413.32	232.00
413.69	232.40
414.07	232.89
414.44	233.36
414.82	233.87
415.19	234.47
415.56	235.04
415.94	235.57
416.31	236.21
416.68	236.86
417.06	237.61
417.43	238.31
417.81	239.10
418.18	239.85
418.55	240.76
418.93	241.66
419.30	242.58
419.67	243.54
420.04	244.49
420.42	245.51
420.79	246.73
421.16	247.93
421.54	249.19
421.91	250.40
422.28	251.71
422.66	253.08
423.03	254.41
423.40	255.76
423.77	257.25
424.15	258.75
424.52	260.31
424.89	261.91
425.26	263.51
425.64	264.99
426.01	266.65
426.38	268.35
426.75	270.05
427.13	271.82
427.50	273.65
427.87	275.59
428.24	277.53
428.61	279.33
428.99	281.29
429.36	283.42
429.73	285.57
430.10	287.63
430.47	289.71
430.85	291.86
431.22	294.13
431.59	296.48
431.96	298.75
432.33	301.31
432.70	303.78
433.08	306.68
433.45	309.34
433.82	311.98
434.19	314.93
434.56	317.83
434.93	320.59
435.30	323.30
435.68	326.27
436.05	329.11
436.42	331.97
436.79	334.55
437.16	337.31
437.53	340.16
437.90	343.03
438.27	345.86
438.64	348.72
439.01	351.40
439.38	353.74
439.75	355.95
440.13	358.51
440.50	360.81
440.87	362.71
441.24	364.70
441.61	366.94
441.98	368.44
442.35	370.27
442.72	372.14
443.09	374.00
443.46	375.01
443.83	375.63
444.20	376.18
444.57	377.03
444.94	377.30
445.31	377.67
445.68	378.01
446.05	378.04
446.42	377.69
446.79	377.28
447.16	376.86
447.53	376.51
447.90	375.30
448.27	374.18
448.64	372.53
449.01	371.39
449.37	369.36
449.74	367.43
450.11	365.13
450.48	362.62
450.85	360.02
451.22	357.83
451.59	355.81
451.96	353.77
452.33	351.15
452.70	348.76
453.07	345.86
453.43	342.95
453.80	340.11
454.17	337.40
454.54	334.81
454.91	332.05
455.28	329.34
455.65	326.81
456.02	324.32
456.38	322.14
456.75	319.40
457.12	317.10
457.49	314.87
457.86	312.63
458.23	310.77
458.59	308.65
458.96	306.49
459.33	304.57
459.70	302.69
460.07	301.17
460.43	299.45
460.80	297.80
461.17	296.34
461.54	294.87
461.91	293.42
462.27	291.93
462.64	290.64
463.01	289.29
463.38	287.97
463.74	286.59
464.11	285.40
464.48	284.37
464.85	283.27
465.21	282.37
465.58	281.43
465.95	280.29
466.32	279.39
466.68	278.49
467.05	277.61
467.42	276.70
467.78	275.74
468.15	274.85
468.52	274.18
468.88	273.26
469.25	272.48
469.62	271.84
469.98	271.13
470.35	270.49
470.72	269.87
471.08	269.22
471.45	268.69
471.82	268.14
472.18	267.56
472.55	267.12
472.92	266.60
473.28	266.15
473.65	265.74
474.02	265.30
474.38	264.93
474.75	264.59
475.11	264.25
475.48	263.97
475.85	263.75
476.21	263.53
476.58	263.38
476.94	263.20
477.31	263.06
477.67	262.95
478.04	262.84
478.41	262.79
478.77	262.81
479.14	262.71
479.50	262.72
479.87	262.79
480.23	262.83
480.60	262.89
480.96	262.98
481.33	263.16
481.69	263.36
482.06	263.50
482.42	263.70
482.79	263.94
483.15	264.25
483.52	264.58
483.88	264.94
484.25	265.32
484.61	265.75
484.98	266.17
485.34	266.69
485.71	267.23
486.07	267.77
486.44	268.33
486.80	269.01
487.17	269.73
487.53	270.51
487.90	271.36
488.26	272.31
488.62	273.31
488.99	274.25
489.35	275.31
489.72	276.48
490.08	277.67
490.44	278.89
490.81	280.23
491.17	281.56
491.54	283.03
491.90	284.53
492.26	286.17
492.63	287.90
492.99	289.68
493.36	291.60
493.72	293.67
494.08	295.74
494.45	298.00
494.81	300.35
495.17	302.77
495.54	305.36
495.90	308.03
496.26	310.77
496.63	313.74
496.99	316.84
497.35	320.09
497.72	323.50
498.08	327.05
498.44	330.75
498.80	334.67
499.17	338.68
499.53	342.90
499.89	347.21
500.26	351.71
500.62	356.42
500.98	361.38
501.34	366.41
501.71	371.74
502.07	377.15
502.43	382.73
502.79	388.53
503.16	394.58
503.52	400.82
503.88	407.18
504.24	413.81
504.60	420.62
504.97	427.68
505.33	434.91
505.69	442.60
506.05	450.25
506.41	458.05
506.78	466.15
507.14	474.51
507.50	483.16
507.86	492.03
508.22	501.16
508.59	510.29
508.95	519.78
509.31	529.48
509.67	539.52
510.03	549.66
510.39	560.14
510.75	570.76
511.12	581.58
511.48	592.78
511.84	604.07
512.20	615.49
512.56	627.30
512.92	639.26
513.28	651.46
513.64	663.77
514.00	676.33
514.37	689.10
514.73	701.93
515.09	714.77
515.45	727.92
515.81	741.26
516.17	754.99
516.53	768.95
516.89	782.89
517.25	796.82
517.61	811.14
517.97	825.36
518.33	839.58
518.69	854.17
519.05	868.81
519.41	883.70
519.77	898.90
520.13	914.02
520.49	929.27
520.85	944.29
521.21	959.70
521.57	975.59
521.93	991.07
522.29	1007.12
522.65	1023.11
523.01	1038.89
523.37	1054.65
523.73	1070.50
524.09	1086.16
524.45	1102.13
524.81	1118.43
525.17	1134.79
525.53	1151.35
525.89	1167.92
526.25	1184.35
526.61	1200.48
526.97	1217.03
527.33	1233.26
527.68	1249.61
528.04	1265.69
528.40	1282.02
528.76	1298.85
529.12	1315.23
529.48	1331.81
529.84	1347.59
530.20	1363.88
530.56	1380.58
530.91	1397.56
531.27	1414.04
531.63	1430.34
531.99	1446.74
532.35	1462.49
532.71	1478.21
533.07	1494.21
533.42	1509.83
533.78	1525.65
534.14	1541.48
534.50	1556.40
534.86	1571.95
535.21	1586.86
535.57	1602.53
535.93	1617.74
536.29	1632.12
536.65	1646.74
537.00	1661.10
537.36	1676.17
537.72	1690.44
538.08	1704.62
538.44	1718.13
538.79	1731.73
539.15	1744.95
539.51	1758.28
539.87	1772.32
540.22	1785.56
540.58	1798.84
540.94	1811.68
541.29	1824.06
541.65	1836.57
542.01	1849.51
542.37	1861.64
542.72	1873.77
543.08	1885.41
543.44	1897.49
543.79	1908.87
544.15	1919.82
544.51	1931.46
544.87	1942.30
545.22	1953.10
545.58	1963.41
545.94	1973.27
546.29	1983.26
546.65	1993.24
547.01	2002.77
547.36	2011.59
547.72	2020.28
548.07	2028.53
548.43	2036.89
548.79	2045.01
549.14	2052.91
549.50	2060.44
549.86	2068.16
550.21	2075.71
550.57	2082.99
550.92	2089.78
551.28	2096.83
551.64	2104.03
551.99	2110.61
552.35	2116.93
552.70	2123.30
553.06	2129.45
553.41	2135.98
553.77	2142.02
554.13	2148.21
554.48	2154.30
554.84	2160.09
555.19	2165.42
555.55	2170.82
555.90	2175.63
556.26	2181.01
556.61	2185.81
556.97	2190.37
557.32	2194.78
557.68	2199.08
558.03	2203.57
558.39	2207.53
558.74	2212.41
559.10	2216.46
559.45	2220.42
559.81	2224.92
560.16	2228.75
560.52	2232.29
560.87	2235.85
561.23	2238.78
561.58	2241.80
561.94	2244.73
562.29	2247.04
562.64	2250.23
563.00	2252.85
563.35	2256.54
563.71	2259.78
564.06	2263.04
564.42	2266.28
564.77	2269.27
565.12	2272.09
565.48	2274.39
565.83	2276.61
566.19	2278.26
566.54	2279.49
566.89	2280.97
567.25	2281.84
567.60	2283.54
567.96	2285.49
568.31	2286.70
568.66	2288.17
569.02	2289.21
569.37	2289.82
569.72	2291.14
570.08	2291.72
570.43	2292.02
570.78	2291.93
571.14	2290.77
571.49	2289.87
571.84	2289.50
572.20	2288.57
572.55	2287.59
572.90	2286.02
573.26	2284.86
573.61	2283.08
573.96	2281.87
574.31	2279.09
574.67	2276.33
575.02	2272.87
575.37	2269.55
575.72	2266.01
576.08	2262.74
576.43	2259.45
576.78	2256.12
577.13	2253.04
577.49	2249.69
577.84	2246.62
578.19	2242.83
578.54	2239.56
578.90	2235.66
579.25	2230.56
579.60	2225.98
579.95	2221.44
580.30	2216.75
580.66	2211.76
581.01	2207.22
581.36	2202.22
581.71	2198.33
582.06	2194.34
582.42	2190.27
582.77	2185.41
583.12	2181.05
583.47	2176.78
583.82	2172.33
584.17	2167.38
584.53	2162.00
584.88	2156.85
585.23	2151.31
585.58	2146.05
585.93	2140.60
586.28	2135.80
586.63	2130.98
586.98	2125.88
587.34	2121.03
587.69	2116.34
588.04	2111.46
588.39	2105.99
588.74	2099.70
589.09	2093.64
589.44	2087.02
589.79	2080.90
590.14	2075.24
590.49	2068.82
590.84	2062.39
591.19	2056.55
591.54	2050.05
591.89	2043.06
592.25	2036.50
592.60	2029.40
592.95	2022.18
593.30	2015.13
593.65	2007.68
594.00	2000.59
594.35	1993.52
594.70	1985.52
595.05	1978.63
595.40	1971.25
595.75	1963.89
596.10	1958.00
596.45	1951.57
596.80	1945.41
597.15	1939.19
597.50	1932.69
597.85	1926.37
598.19	1919.97
598.54	1913.06
598.89	1906.62
599.24	1900.86
599.59	1894.42
599.94	1888.22
600.29	1881.91
600.64	1875.32
600.99	1868.16
601.34	1861.58
601.69	1854.57
602.04	1847.91
602.39	1840.65
602.74	1834.06
603.08	1827.61
603.43	1820.73
603.78	1813.34
604.13	1806.10
604.48	1798.96
604.83	1792.01
605.18	1785.29
605.53	1777.47
605.87	1769.33
606.22	1761.93
606.57	1753.86
606.92	1746.29
607.27	1739.22
607.62	1732.36
607.96	1725.19
608.31	1718.83
608.66	1711.30
609.01	1703.86
609.36	1696.46
609.70	1688.39
610.05	1680.34
610.40	1672.57
610.75	1664.37
611.10	1656.64
611.44	1648.17
611.79	1639.99
612.14	1631.23
612.49	1621.84
612.83	1613.25
613.18	1605.10
613.53	1597.06
613.88	1588.46
614.22	1580.15
614.57	1571.41
614.92	1563.39
615.27	1555.96
615.61	1547.63
615.96	1539.35
616.31	1531.68
616.65	1524.18
617.00	1516.63
617.35	1508.87
617.70	1500.48
618.04	1492.12
618.39	1483.88
618.74	1476.41
619.08	1467.98
619.43	1460.35
619.78	1453.44
620.12	1446.28
620.47	1438.72
620.82	1430.42
621.16	1423.04
621.51	1415.35
621.85	1407.64
622.20	1399.00
622.55	1390.41
622.89	1382.24
623.24	1374.59
623.59	1366.97
623.93	1359.33
624.28	1351.95
624.62	1344.35
624.97	1337.07
625.32	1330.02
625.66	1322.89
626.01	1315.65
626.35	1308.43
626.70	1300.49
627.04	1292.74
627.39	1284.89
627.73	1277.38
628.08	1270.47
628.43	1263.34
628.77	1256.09
629.12	1248.55
629.46	1241.44
629.81	1233.85
630.15	1226.57
630.50	1219.23
630.84	1211.14
631.19	1203.17
631.53	1195.58
631.88	1188.03
632.22	1180.31
632.57	1172.95
632.91	1165.39
633.26	1158.02
633.60	1150.41
633.95	1143.12
634.29	1135.84
634.64	1129.06
634.98	1121.70
635.32	1114.47
635.67	1107.62
636.01	1100.83
636.36	1094.01
636.70	1087.27
637.05	1080.73
637.39	1074.29
637.73	1067.79
638.08	1061.77
638.42	1055.80
638.77	1049.32
639.11	1042.76
639.45	1036.38
639.80	1029.73
640.14	1023.36
640.49	1016.78
640.83	1010.42
641.17	1004.35
641.52	998.13
641.86	991.73
642.20	985.81
642.55	979.44
642.89	972.97
643.23	966.31
643.58	960.46
643.92	954.40
644.26	948.40
644.61	942.23
644.95	936.14
645.29	929.65
645.64	922.87
645.98	916.52
646.32	910.51
646.66	904.44
647.01	898.54
647.35	892.81
647.69	886.83
648.04	881.30
648.38	875.44
648.72	869.46
649.06	863.42
649.41	857.50
649.75	851.61
650.09	845.66
650.43	839.94
650.78	833.74
651.12	827.72
651.46	821.88
651.80	816.35
652.14	810.88
652.49	805.50
652.83	800.28
653.17	794.68
653.51	789.05
653.85	783.56
654.20	778.03
654.54	772.01
654.88	766.23
655.22	760.30
655.56	754.63
655.90	749.07
656.25	743.71
656.59	738.37
656.93	733.24
657.27	728.08
657.61	722.56
657.95	717.46
658.29	712.33
658.64	707.01
658.98	701.49
659.32	695.98
659.66	690.71
660.00	685.50
660.34	680.48
660.68	675.50
661.02	670.53
661.36	665.80
661.70	661.29
662.05	656.96
662.39	652.66
662.73	648.15
663.07	643.74
663.41	639.34
663.75	634.87
664.09	630.22
664.43	625.80
664.77	621.77
665.11	617.56
665.45	613.34
665.79	609.28
666.13	605.22
666.47	601.10
666.81	596.92
667.15	592.71
667.49	588.76
667.83	584.84
668.17	580.84
668.51	576.71
668.85	572.67
669.19	568.73
669.53	564.88
669.87	561.06
670.21	557.40
670.55	553.66
670.89	550.16
671.23	546.76
671.57	543.17
671.91	539.61
672.25	536.07
672.58	532.61
672.92	529.19
673.26	525.91
673.60	522.73
673.94	519.65
674.28	516.66
674.62	513.72
674.96	510.72
675.30	507.82
675.64	504.90
675.97	502.03
676.31	499.18
676.65	496.22
676.99	493.42
677.33	490.49
677.67	487.72
678.01	484.69
678.34	481.68
678.68	478.81
679.02	475.96
679.36	473.17
679.70	470.39
680.04	467.59
680.37	464.74
680.71	461.91
681.05	459.21
681.39	456.47
681.73	453.72
682.06	451.11
682.40	448.57
682.74	445.96
683.08	443.39
683.42	440.72
683.75	438.18
684.09	435.57
684.43	433.10
684.77	430.57
685.10	428.19
685.44	425.84
685.78	423.53
686.12	421.26
686.45	418.92
686.79	416.61
687.13	414.44
687.46	412.28
687.80	410.09
688.14	407.83
688.48	405.79
688.81	403.56
689.15	401.40
689.49	399.16
689.82	397.07
690.16	394.94
690.50	393.00
690.83	391.09
691.17	389.12
691.51	387.18
691.84	385.32
692.18	383.41
692.52	381.42
692.85	379.45
693.19	377.51
693.52	375.67
693.86	373.77
694.20	371.92
694.53	370.09
694.87	368.26
695.21	366.47
695.54	364.60
695.88	362.83
696.21	361.08
696.55	359.46
696.88	357.78
697.22	356.07
697.56	354.39
697.89	352.72
698.23	351.12
698.56	349.51
698.90	347.92
699.23	346.27
699.57	344.79
699.90	343.25
700.24	341.71
700.58	340.21
700.91	338.81
701.25	337.37
701.58	336.03
701.92	334.62
702.25	333.21
702.59	331.89
702.92	330.55
703.26	329.24
703.59	327.90
703.93	326.69
704.26	325.51
704.60	324.25
704.93	322.96
705.26	321.68
705.60	320.46
705.93	319.27
706.27	318.21
706.60	317.10
706.94	316.01
707.27	314.88
707.61	313.77
707.94	312.67
708.27	311.55
708.61	310.40
708.94	309.38
709.28	308.41
709.61	307.38
709.94	306.44
710.28	305.38
710.61	304.40
710.95	303.33
711.28	302.38
711.61	301.37
711.95	300.44
712.28	299.47
712.61	298.50
712.95	297.56
713.28	296.65
713.61	295.73
713.95	294.84
714.28	293.99
714.61	293.11
714.95	292.24
715.28	291.39
715.61	290.52
715.95	289.68
716.28	288.84
716.61	288.00
716.95	287.16
717.28	286.44
717.61	285.62
717.94	284.87
718.28	284.03
718.61	283.29
718.94	282.58
719.27	281.92
719.61	281.28
719.94	280.61
720.27	279.85
720.60	279.14
720.94	278.51
721.27	277.87
721.60	277.27
721.93	276.69
722.27	276.08
722.60	275.52
722.93	274.92
723.26	274.32
723.59	273.80
723.93	273.21
724.26	272.61
724.59	272.04
724.92	271.48
725.25	270.99
725.59	270.45
725.92	269.93
726.25	269.40
726.58	268.90
726.91	268.39
727.24	267.94
727.57	267.47
727.91	266.96
728.24	266.50
728.57	266.01
728.90	265.54
729.23	265.06
729.56	264.64
729.89	264.13
730.22	263.70
730.55	263.19
730.89	262.79
731.22	262.36
731.55	261.93
731.88	261.52
732.21	261.09
732.54	260.65
732.87	260.23
733.20	259.81
733.53	259.37
733.86	258.96
734.19	258.56
734.52	258.18
734.85	257.85
735.18	257.42
735.51	257.07
735.84	256.70
736.17	256.37
736.50	255.95
736.83	255.76
737.16	255.41
737.49	255.08
737.82	254.73
738.15	254.40
738.48	254.04
738.81	253.70
739.14	253.36
739.47	253.04
739.80	252.70
740.13	252.41
740.46	252.09
740.79	251.77
741.12	251.48
741.45	251.17
741.78	250.80
742.11	250.54
742.44	250.21
742.77	249.92
743.10	249.60
743.43	249.31
743.75	248.91
744.08	248.76
744.41	248.48
744.74	248.23
745.07	247.93
745.40	247.73
745.73	247.48
746.06	247.22
746.39	246.98
746.71	246.75
747.04	246.45
747.37	246.20
747.70	245.97
748.03	245.72
748.36	245.47
748.68	245.27
749.01	245.01
749.34	244.77
749.67	244.50
750.00	244.27
750.33	244.12
750.65	243.90
750.98	243.58
751.31	243.35
751.64	243.12
751.97	242.98
752.29	242.74
752.62	242.51
752.95	242.31
753.28	242.11
753.60	241.86
753.93	241.67
754.26	241.51
754.59	241.27
754.91	241.05
755.24	240.85
755.57	240.60
755.90	240.45
756.22	240.27
756.55	240.09
756.88	239.87
757.20	239.60
757.53	239.39
757.86	239.18
758.19	239.05
758.51	238.86
758.84	238.65
759.17	238.47
759.49	238.28
759.82	238.15
760.15	238.00
760.47	237.89
760.80	237.72
761.13	237.58
761.45	237.46
761.78	237.33
762.11	237.19
762.43	237.02
762.76	236.84
763.08	236.69
763.41	236.56
763.74	236.44
764.06	236.28
764.39	236.17
764.71	236.00
765.04	235.83
765.37	235.72
765.69	235.58
766.02	235.42
766.34	235.28
766.67	235.15
767.00	235.02
767.32	234.94
767.65	234.91
767.97	234.77
768.30	234.66
768.62	234.53
768.95	234.37
769.27	234.29
769.60	234.22
769.92	234.11
770.25	233.96
770.57	233.84
770.90	233.77
771.22	233.63
771.55	233.55
771.87	233.47
772.20	233.36
772.52	233.33
772.85	233.39
773.17	233.29
773.50	233.17
773.82	233.07
774.15	232.91
774.47	232.75
774.80	232.65
775.12	232.54
775.45	232.46
775.77	232.39
776.09	232.29
776.42	232.19
776.74	232.14
777.07	232.07
777.39	231.99
777.72	231.91
778.04	231.82
778.36	231.76
778.69	231.66
779.01	231.59
779.33	231.45
779.66	231.24
779.98	231.18
780.31	231.11
780.63	231.07
780.95	231.05
781.28	230.99
781.60	230.93
781.92	230.89
782.25	230.87
782.57	230.83
782.89	230.75
783.22	230.70
783.54	230.62
783.86	230.60
784.19	230.57
784.51	230.54
784.83	230.53
785.16	230.46
785.48	230.44
785.80	230.42
786.12	230.35
786.45	230.36
786.77	230.34
787.09	230.26
