SpectraSuite Data File
++++++++++++++++++++++++++++++++++++
Date: Fri Feb 01 16:28:56 EST 2013
User: group
Dark Spectrum Present: No
Reference Spectrum Present: No
Number of Sampled Component Spectra: 1
Spectrometers: USB2E7196
Integration Time (usec): 35000 (USB2E7196)
Spectra Averaged: 100 (USB2E7196)
Boxcar Smoothing: 10 (USB2E7196)
Correct for Electrical Dark: No (USB2E7196)
Strobe/Lamp Enabled: No (USB2E7196)
Correct for Detector Non-linearity: No (USB2E7196)
Correct for Stray Light: No (USB2E7196)
Number of Pixels in Processed Spectrum: 2048
>>>>>Begin Processed Spectral Data<<<<<
339.09	0.00
339.48	213.29
339.86	215.93
340.24	216.68
340.63	218.65
341.01	221.24
341.39	220.65
341.78	222.18
342.16	223.42
342.54	223.78
342.93	212.42
343.31	223.15
343.69	223.73
344.07	224.17
344.46	224.61
344.84	224.94
345.22	225.16
345.60	225.44
345.99	225.62
346.37	225.70
346.75	225.80
347.13	225.86
347.52	225.91
347.90	226.00
348.28	226.01
348.66	226.07
349.05	226.02
349.43	226.09
349.81	226.10
350.19	226.13
350.57	226.15
350.96	226.22
351.34	226.30
351.72	226.38
352.10	226.49
352.48	226.57
352.87	226.66
353.25	226.73
353.63	226.79
354.01	226.87
354.39	227.00
354.77	227.09
355.15	227.17
355.54	227.23
355.92	227.28
356.30	227.34
356.68	227.47
357.06	227.55
357.44	227.59
357.82	227.67
358.20	227.72
358.58	227.76
358.97	227.85
359.35	227.91
359.73	227.98
360.11	228.01
360.49	228.05
360.87	228.10
361.25	228.13
361.63	228.21
362.01	228.26
362.39	228.28
362.77	228.30
363.15	228.35
363.53	228.40
363.91	228.44
364.29	228.45
364.67	228.40
365.05	228.44
365.43	228.45
365.81	228.45
366.19	228.51
366.57	228.59
366.95	228.58
367.33	228.57
367.71	228.57
368.09	228.58
368.47	228.58
368.85	228.54
369.23	228.55
369.61	228.47
369.99	228.46
370.37	228.46
370.75	228.49
371.13	228.43
371.51	228.37
371.89	228.33
372.27	228.29
372.65	228.25
373.03	228.24
373.41	228.20
373.78	228.15
374.16	228.02
374.54	227.92
374.92	227.86
375.30	227.80
375.68	227.70
376.06	227.66
376.44	227.58
376.82	227.53
377.19	227.48
377.57	227.44
377.95	227.36
378.33	227.30
378.71	227.16
379.09	227.12
379.47	227.09
379.84	227.02
380.22	226.97
380.60	226.90
380.98	226.78
381.36	226.73
381.73	226.66
382.11	226.66
382.49	226.61
382.87	226.51
383.25	226.45
383.62	226.49
384.00	226.38
384.38	226.34
384.76	226.31
385.13	226.26
385.51	226.18
385.89	226.15
386.27	226.09
386.64	226.08
387.02	225.99
387.40	225.95
387.78	225.92
388.15	225.83
388.53	225.77
388.91	225.75
389.29	225.68
389.66	225.69
390.04	225.65
390.42	225.63
390.79	225.62
391.17	225.60
391.55	225.49
391.92	225.50
392.30	225.52
392.68	225.51
393.05	225.51
393.43	225.52
393.81	225.48
394.18	225.45
394.56	225.45
394.94	225.51
395.31	225.53
395.69	225.58
396.06	225.66
396.44	225.71
396.82	225.71
397.19	225.80
397.57	225.78
397.95	225.80
398.32	225.82
398.70	225.88
399.07	225.97
399.45	226.03
399.82	226.05
400.20	226.06
400.58	226.10
400.95	226.11
401.33	226.19
401.70	226.35
402.08	226.46
402.45	226.54
402.83	226.66
403.20	226.73
403.58	226.79
403.95	226.90
404.33	227.03
404.71	227.18
405.08	227.33
405.46	227.49
405.83	227.64
406.21	227.83
406.58	228.00
406.96	228.13
407.33	228.33
407.70	228.58
408.08	228.85
408.45	229.05
408.83	229.30
409.20	229.51
409.58	229.67
409.95	229.95
410.33	230.19
410.70	230.43
411.08	230.72
411.45	231.01
411.82	231.33
412.20	231.69
412.57	232.09
412.95	232.41
413.32	232.79
413.69	233.21
414.07	233.61
414.44	234.05
414.82	234.53
415.19	235.05
415.56	235.55
415.94	236.11
416.31	236.76
416.68	237.43
417.06	238.17
417.43	238.85
417.81	239.59
418.18	240.41
418.55	241.23
418.93	242.11
419.30	243.01
419.67	243.94
420.04	244.84
420.42	245.82
420.79	246.97
421.16	248.14
421.54	249.32
421.91	250.54
422.28	251.78
422.66	253.10
423.03	254.43
423.40	255.79
423.77	257.16
424.15	258.56
424.52	259.99
424.89	261.58
425.26	263.14
425.64	264.53
426.01	266.09
426.38	267.75
426.75	269.43
427.13	271.18
427.50	272.99
427.87	274.87
428.24	276.72
428.61	278.47
428.99	280.39
429.36	282.48
429.73	284.51
430.10	286.58
430.47	288.67
430.85	290.80
431.22	293.04
431.59	295.43
431.96	297.69
432.33	300.19
432.70	302.49
433.08	305.30
433.45	308.00
433.82	310.59
434.19	313.47
434.56	316.25
434.93	318.89
435.30	321.51
435.68	324.38
436.05	327.20
436.42	329.96
436.79	332.51
437.16	335.17
437.53	338.00
437.90	340.74
438.27	343.42
438.64	346.20
439.01	348.77
439.38	350.98
439.75	353.09
440.13	355.59
440.50	357.96
440.87	359.78
441.24	361.67
441.61	363.85
441.98	365.32
442.35	367.09
442.72	368.84
443.09	370.60
443.46	371.58
443.83	372.14
444.20	372.68
444.57	373.47
444.94	373.76
445.31	374.09
445.68	374.45
446.05	374.54
446.42	374.16
446.79	373.74
447.16	373.32
447.53	373.07
447.90	371.90
448.27	370.73
448.64	369.14
449.01	368.04
449.37	366.02
449.74	364.10
450.11	361.85
450.48	359.47
450.85	356.95
451.22	354.84
451.59	352.83
451.96	350.91
452.33	348.32
452.70	345.94
453.07	343.15
453.43	340.28
453.80	337.53
454.17	334.84
454.54	332.29
454.91	329.55
455.28	326.90
455.65	324.44
456.02	322.03
456.38	319.91
456.75	317.28
457.12	315.06
457.49	312.88
457.86	310.74
458.23	308.88
458.59	306.88
458.96	304.81
459.33	303.03
459.70	301.16
460.07	299.70
460.43	298.04
460.80	296.41
461.17	294.97
461.54	293.48
461.91	292.12
462.27	290.74
462.64	289.52
463.01	288.15
463.38	286.86
463.74	285.52
464.11	284.37
464.48	283.33
464.85	282.24
465.21	281.44
465.58	280.57
465.95	279.50
466.32	278.61
466.68	277.72
467.05	276.81
467.42	275.95
467.78	274.98
468.15	274.18
468.52	273.56
468.88	272.72
469.25	271.97
469.62	271.33
469.98	270.65
470.35	270.07
470.72	269.48
471.08	268.87
471.45	268.36
471.82	267.83
472.18	267.25
472.55	266.87
472.92	266.33
473.28	265.85
473.65	265.41
474.02	265.00
474.38	264.66
474.75	264.36
475.11	264.02
475.48	263.82
475.85	263.54
476.21	263.33
476.58	263.14
476.94	262.97
477.31	262.84
477.67	262.70
478.04	262.55
478.41	262.50
478.77	262.50
479.14	262.44
479.50	262.42
479.87	262.47
480.23	262.52
480.60	262.57
480.96	262.67
481.33	262.89
481.69	263.06
482.06	263.21
482.42	263.41
482.79	263.66
483.15	263.95
483.52	264.34
483.88	264.64
484.25	265.05
484.61	265.48
484.98	265.92
485.34	266.45
485.71	267.10
486.07	267.70
486.44	268.26
486.80	268.93
487.17	269.68
487.53	270.51
487.90	271.37
488.26	272.27
488.62	273.29
488.99	274.23
489.35	275.28
489.72	276.40
490.08	277.59
490.44	278.87
490.81	280.19
491.17	281.56
491.54	283.06
491.90	284.59
492.26	286.23
492.63	287.98
492.99	289.76
493.36	291.62
493.72	293.66
494.08	295.79
494.45	298.06
494.81	300.43
495.17	302.89
495.54	305.45
495.90	308.16
496.26	310.95
496.63	313.93
496.99	317.03
497.35	320.34
497.72	323.74
498.08	327.21
498.44	330.93
498.80	334.83
499.17	338.94
499.53	343.11
499.89	347.49
500.26	351.96
500.62	356.66
500.98	361.62
501.34	366.69
501.71	372.02
502.07	377.50
502.43	383.12
502.79	388.91
503.16	395.01
503.52	401.31
503.88	407.77
504.24	414.45
504.60	421.34
504.97	428.46
505.33	435.75
505.69	443.53
506.05	451.32
506.41	459.25
506.78	467.40
507.14	475.87
507.50	484.60
507.86	493.58
508.22	502.76
508.59	512.00
508.95	521.59
509.31	531.44
509.67	541.50
510.03	551.77
510.39	562.33
510.75	573.14
511.12	584.09
511.48	595.37
511.84	606.82
512.20	618.37
512.56	630.28
512.92	642.48
513.28	654.74
513.64	667.15
514.00	679.84
514.37	692.75
514.73	705.78
515.09	718.85
515.45	732.17
515.81	745.77
516.17	759.65
516.53	773.78
516.89	787.95
517.25	802.09
517.61	816.47
517.97	830.84
518.33	845.20
518.69	859.88
519.05	874.78
519.41	889.82
519.77	905.28
520.13	920.68
520.49	936.01
520.85	951.39
521.21	967.05
521.57	983.22
521.93	998.91
522.29	1015.30
522.65	1031.44
523.01	1047.57
523.37	1063.45
523.73	1079.59
524.09	1095.57
524.45	1111.70
524.81	1128.29
525.17	1145.02
525.53	1161.85
525.89	1178.66
526.25	1195.43
526.61	1211.73
526.97	1228.42
527.33	1244.82
527.68	1261.32
528.04	1277.81
528.40	1294.28
528.76	1311.19
529.12	1327.68
529.48	1344.56
529.84	1360.34
530.20	1376.86
530.56	1393.86
530.91	1411.29
531.27	1427.95
531.63	1444.30
531.99	1460.92
532.35	1476.78
532.71	1492.55
533.07	1508.68
533.42	1524.43
533.78	1540.37
534.14	1556.65
534.50	1571.89
534.86	1587.76
535.21	1602.91
535.57	1618.69
535.93	1634.07
536.29	1648.90
536.65	1663.79
537.00	1678.29
537.36	1693.49
537.72	1707.83
538.08	1722.24
538.44	1735.86
538.79	1749.69
539.15	1763.28
539.51	1776.85
539.87	1791.03
540.22	1804.79
540.58	1818.51
540.94	1831.82
541.29	1844.54
541.65	1856.90
542.01	1870.09
542.37	1882.18
542.72	1894.56
543.08	1906.14
543.44	1918.55
543.79	1929.66
544.15	1940.46
544.51	1952.09
544.87	1963.12
545.22	1974.05
545.58	1984.08
545.94	1993.83
546.29	2003.53
546.65	2013.30
547.01	2022.41
547.36	2031.15
547.72	2039.45
548.07	2047.20
548.43	2055.31
548.79	2063.36
549.14	2071.03
549.50	2078.30
549.86	2085.94
550.21	2093.16
550.57	2100.25
550.92	2106.70
551.28	2113.67
551.64	2120.89
551.99	2127.24
552.35	2133.25
552.70	2139.28
553.06	2145.07
553.41	2151.34
553.77	2157.39
554.13	2163.43
554.48	2169.61
554.84	2175.09
555.19	2180.46
555.55	2185.73
555.90	2190.07
556.26	2194.95
556.61	2199.71
556.97	2203.83
557.32	2208.06
557.68	2212.13
558.03	2216.58
558.39	2220.35
558.74	2225.07
559.10	2228.85
559.45	2232.59
559.81	2236.96
560.16	2240.78
560.52	2244.25
560.87	2247.63
561.23	2250.37
561.58	2253.30
561.94	2255.81
562.29	2258.08
562.64	2260.70
563.00	2263.30
563.35	2266.82
563.71	2269.96
564.06	2273.16
564.42	2276.15
564.77	2278.57
565.12	2280.90
565.48	2282.73
565.83	2284.65
566.19	2285.94
566.54	2286.88
566.89	2287.97
567.25	2288.57
567.60	2289.80
567.96	2291.40
568.31	2292.27
568.66	2293.43
569.02	2294.12
569.37	2294.54
569.72	2295.50
570.08	2295.78
570.43	2295.83
570.78	2295.40
571.14	2294.02
571.49	2292.57
571.84	2292.37
572.20	2291.34
572.55	2290.43
572.90	2288.98
573.26	2287.71
573.61	2286.10
573.96	2284.50
574.31	2281.60
574.67	2278.77
575.02	2275.37
575.37	2272.07
575.72	2268.34
576.08	2265.01
576.43	2261.82
576.78	2258.26
577.13	2255.26
577.49	2252.29
577.84	2248.77
578.19	2245.16
578.54	2241.59
578.90	2237.66
579.25	2232.06
579.60	2227.19
579.95	2222.18
580.30	2217.21
580.66	2211.95
581.01	2207.07
581.36	2202.22
581.71	2198.16
582.06	2193.74
582.42	2189.33
582.77	2184.18
583.12	2179.67
583.47	2174.99
583.82	2169.99
584.17	2164.79
584.53	2159.24
584.88	2153.54
585.23	2147.95
585.58	2142.58
585.93	2137.17
586.28	2132.28
586.63	2127.44
586.98	2122.45
587.34	2117.78
587.69	2112.89
588.04	2107.73
588.39	2102.17
588.74	2095.66
589.09	2089.59
589.44	2082.83
589.79	2076.88
590.14	2071.35
590.49	2064.88
590.84	2058.47
591.19	2052.54
591.54	2046.08
591.89	2038.74
592.25	2032.09
592.60	2024.95
592.95	2017.32
593.30	2009.97
593.65	2002.49
594.00	1995.40
594.35	1988.25
594.70	1980.31
595.05	1973.17
595.40	1965.96
595.75	1958.43
596.10	1952.36
596.45	1945.61
596.80	1939.47
597.15	1932.87
597.50	1925.76
597.85	1919.41
598.19	1912.85
598.54	1905.74
598.89	1899.21
599.24	1893.43
599.59	1886.57
599.94	1880.39
600.29	1874.22
600.64	1867.74
600.99	1860.37
601.34	1853.68
601.69	1846.79
602.04	1839.97
602.39	1832.62
602.74	1825.83
603.08	1819.00
603.43	1812.30
603.78	1805.13
604.13	1798.01
604.48	1790.63
604.83	1783.89
605.18	1776.98
605.53	1769.02
605.87	1761.05
606.22	1753.91
606.57	1745.90
606.92	1738.74
607.27	1731.63
607.62	1724.55
607.96	1717.31
608.31	1710.71
608.66	1702.98
609.01	1695.34
609.36	1687.83
609.70	1679.88
610.05	1671.94
610.40	1664.40
610.75	1655.97
611.10	1648.28
611.44	1639.87
611.79	1631.97
612.14	1623.23
612.49	1614.05
612.83	1605.69
613.18	1597.48
613.53	1589.29
613.88	1580.76
614.22	1572.56
614.57	1563.96
614.92	1555.96
615.27	1548.38
615.61	1540.01
615.96	1531.98
616.31	1524.31
616.65	1516.80
617.00	1509.27
617.35	1501.45
617.70	1493.09
618.04	1484.63
618.39	1476.42
618.74	1468.76
619.08	1460.49
619.43	1452.95
619.78	1446.07
620.12	1438.90
620.47	1431.32
620.82	1423.16
621.16	1415.85
621.51	1408.24
621.85	1400.49
622.20	1392.01
622.55	1383.48
622.89	1375.70
623.24	1368.05
623.59	1360.73
623.93	1353.27
624.28	1346.06
624.62	1338.50
624.97	1331.35
625.32	1324.61
625.66	1317.62
626.01	1310.50
626.35	1303.08
626.70	1295.30
627.04	1287.41
627.39	1279.69
627.73	1272.44
628.08	1265.55
628.43	1258.18
628.77	1250.71
629.12	1243.23
629.46	1236.08
629.81	1228.72
630.15	1221.56
630.50	1214.21
630.84	1205.85
631.19	1197.95
631.53	1190.32
631.88	1182.88
632.22	1175.32
632.57	1168.07
632.91	1160.44
633.26	1152.92
633.60	1145.48
633.95	1138.39
634.29	1131.50
634.64	1124.78
634.98	1117.38
635.32	1110.10
635.67	1103.50
636.01	1096.85
636.36	1089.97
636.70	1083.43
637.05	1076.90
637.39	1070.38
637.73	1063.86
638.08	1058.06
638.42	1051.98
638.77	1045.72
639.11	1039.04
639.45	1032.63
639.80	1025.94
640.14	1019.52
640.49	1013.03
640.83	1006.78
641.17	1000.51
641.52	994.05
641.86	987.55
642.20	981.68
642.55	975.42
642.89	968.94
643.23	962.43
643.58	956.72
643.92	950.50
644.26	944.43
644.61	938.36
644.95	932.29
645.29	925.84
645.64	919.17
645.98	912.83
646.32	907.04
646.66	900.93
647.01	895.13
647.35	889.48
647.69	883.64
648.04	878.12
648.38	872.35
648.72	866.39
649.06	860.40
649.41	854.52
649.75	848.62
650.09	842.71
650.43	836.98
650.78	830.70
651.12	824.80
651.46	819.03
651.80	813.23
652.14	807.86
652.49	802.40
652.83	797.23
653.17	791.35
653.51	785.66
653.85	780.25
654.20	774.63
654.54	768.56
654.88	762.81
655.22	756.83
655.56	751.15
655.90	745.69
656.25	740.39
656.59	735.02
656.93	729.87
657.27	724.66
657.61	719.16
657.95	714.18
658.29	709.04
658.64	703.83
658.98	698.60
659.32	693.16
659.66	687.89
660.00	682.60
660.34	677.81
660.68	672.81
661.02	667.74
661.36	663.01
661.70	658.56
662.05	654.28
662.39	649.99
662.73	645.53
663.07	641.15
663.41	636.71
663.75	632.27
664.09	627.72
664.43	623.35
664.77	619.22
665.11	614.92
665.45	610.80
665.79	606.72
666.13	602.56
666.47	598.52
666.81	594.36
667.15	590.20
667.49	586.27
667.83	582.45
668.17	578.60
668.51	574.46
668.85	570.41
669.19	566.48
669.53	562.58
669.87	558.68
670.21	555.02
670.55	551.37
670.89	547.90
671.23	544.47
671.57	540.89
671.91	537.30
672.25	533.85
672.58	530.32
672.92	526.86
673.26	523.62
673.60	520.40
673.94	517.28
674.28	514.34
674.62	511.38
674.96	508.31
675.30	505.37
675.64	502.42
675.97	499.63
676.31	496.76
676.65	493.87
676.99	491.10
677.33	488.15
677.67	485.34
678.01	482.30
678.34	479.30
678.68	476.44
679.02	473.64
679.36	470.81
679.70	468.06
680.04	465.31
680.37	462.42
680.71	459.64
681.05	457.06
681.39	454.35
681.73	451.66
682.06	449.10
682.40	446.50
682.74	444.00
683.08	441.43
683.42	438.87
683.75	436.36
684.09	433.85
684.43	431.43
684.77	428.92
685.10	426.53
685.44	424.25
685.78	421.98
686.12	419.71
686.45	417.42
686.79	415.20
687.13	413.01
687.46	410.91
687.80	408.75
688.14	406.54
688.48	404.48
688.81	402.23
689.15	400.08
689.49	398.00
689.82	395.94
690.16	393.87
690.50	391.89
690.83	389.94
691.17	387.91
691.51	386.02
691.84	384.18
692.18	382.30
692.52	380.32
692.85	378.40
693.19	376.57
693.52	374.74
693.86	372.86
694.20	371.09
694.53	369.29
694.87	367.45
695.21	365.67
695.54	363.84
695.88	362.18
696.21	360.45
696.55	358.72
696.88	357.05
697.22	355.36
697.56	353.74
697.89	352.12
698.23	350.55
698.56	348.97
698.90	347.39
699.23	345.77
699.57	344.20
699.90	342.67
700.24	341.08
700.58	339.60
700.91	338.13
701.25	336.65
701.58	335.27
701.92	333.88
702.25	332.51
702.59	331.15
702.92	329.78
703.26	328.49
703.59	327.20
703.93	326.00
704.26	324.80
704.60	323.47
704.93	322.19
705.26	320.98
705.60	319.76
705.93	318.61
706.27	317.55
706.60	316.47
706.94	315.35
707.27	314.26
707.61	313.15
707.94	312.09
708.27	311.05
708.61	309.97
708.94	309.00
709.28	308.02
709.61	307.08
709.94	306.14
710.28	305.11
710.61	304.17
710.95	303.10
711.28	302.19
711.61	301.26
711.95	300.34
712.28	299.40
712.61	298.45
712.95	297.55
713.28	296.67
713.61	295.82
713.95	294.98
714.28	294.15
714.61	293.28
714.95	292.45
715.28	291.53
715.61	290.65
715.95	289.79
716.28	288.89
716.61	288.00
716.95	287.17
717.28	286.41
717.61	285.62
717.94	284.90
718.28	284.11
718.61	283.38
718.94	282.67
719.27	282.01
719.61	281.36
719.94	280.67
720.27	279.95
720.60	279.26
720.94	278.61
721.27	278.02
721.60	277.42
721.93	276.85
722.27	276.31
722.60	275.73
722.93	275.19
723.26	274.68
723.59	274.14
723.93	273.59
724.26	273.06
724.59	272.52
724.92	271.98
725.25	271.47
725.59	270.96
725.92	270.48
726.25	269.93
726.58	269.39
726.91	268.88
727.24	268.39
727.57	267.95
727.91	267.45
728.24	266.98
728.57	266.52
728.90	266.04
729.23	265.58
729.56	265.17
729.89	264.70
730.22	264.22
730.55	263.78
730.89	263.32
731.22	262.88
731.55	262.42
731.88	261.97
732.21	261.53
732.54	261.10
732.87	260.65
733.20	260.25
733.53	259.91
733.86	259.54
734.19	259.13
734.52	258.73
734.85	258.41
735.18	258.03
735.51	257.67
735.84	257.29
736.17	256.91
736.50	256.53
736.83	256.28
737.16	255.94
737.49	255.57
737.82	255.24
738.15	254.89
738.48	254.56
738.81	254.26
739.14	253.92
739.47	253.59
739.80	253.27
740.13	252.97
740.46	252.67
740.79	252.33
741.12	252.00
741.45	251.67
741.78	251.33
742.11	251.01
742.44	250.68
742.77	250.40
743.10	250.09
743.43	249.79
743.75	249.42
744.08	249.26
744.41	249.00
744.74	248.71
745.07	248.42
745.40	248.18
745.73	247.95
746.06	247.70
746.39	247.42
746.71	247.15
747.04	246.87
747.37	246.54
747.70	246.32
748.03	246.11
748.36	245.92
748.68	245.66
749.01	245.39
749.34	245.15
749.67	244.92
750.00	244.73
750.33	244.55
750.65	244.31
750.98	243.97
751.31	243.75
751.64	243.55
751.97	243.40
752.29	243.19
752.62	242.92
752.95	242.72
753.28	242.53
753.60	242.30
753.93	242.13
754.26	241.95
754.59	241.69
754.91	241.46
755.24	241.23
755.57	241.04
755.90	240.88
756.22	240.72
756.55	240.52
756.88	240.30
757.20	240.06
757.53	239.82
757.86	239.65
758.19	239.48
758.51	239.34
758.84	239.15
759.17	238.96
759.49	238.81
759.82	238.66
760.15	238.49
760.47	238.36
760.80	238.15
761.13	237.99
761.45	237.85
761.78	237.69
762.11	237.53
762.43	237.40
762.76	237.23
763.08	237.04
763.41	236.92
763.74	236.79
764.06	236.64
764.39	236.52
764.71	236.36
765.04	236.21
765.37	236.06
765.69	235.91
766.02	235.81
766.34	235.69
766.67	235.57
767.00	235.49
767.32	235.39
767.65	235.35
767.97	235.29
768.30	235.18
768.62	235.07
768.95	234.98
769.27	234.86
769.60	234.78
769.92	234.68
770.25	234.54
770.57	234.45
770.90	234.38
771.22	234.28
771.55	234.21
771.87	234.16
772.20	234.08
772.52	234.06
772.85	234.05
773.17	233.97
773.50	233.85
773.82	233.74
774.15	233.65
774.47	233.50
774.80	233.38
775.12	233.31
775.45	233.23
775.77	233.14
776.09	233.13
776.42	233.03
776.74	232.98
777.07	232.93
777.39	232.85
777.72	232.74
778.04	232.69
778.36	232.59
778.69	232.51
779.01	232.41
779.33	232.26
779.66	232.11
779.98	232.05
780.31	231.97
780.63	231.95
780.95	231.89
781.28	231.85
781.60	231.79
781.92	231.72
782.25	231.67
782.57	231.60
782.89	231.52
783.22	231.46
783.54	231.41
783.86	231.34
784.19	231.24
784.51	231.23
784.83	231.17
785.16	231.13
785.48	231.12
785.80	231.09
786.12	231.01
786.45	230.92
786.77	230.85
787.09	230.81
