SpectraSuite Data File
++++++++++++++++++++++++++++++++++++
Date: Fri Feb 01 15:21:18 EST 2013
User: group
Dark Spectrum Present: No
Reference Spectrum Present: No
Number of Sampled Component Spectra: 1
Spectrometers: USB2E7196
Integration Time (usec): 35000 (USB2E7196)
Spectra Averaged: 100 (USB2E7196)
Boxcar Smoothing: 10 (USB2E7196)
Correct for Electrical Dark: No (USB2E7196)
Strobe/Lamp Enabled: No (USB2E7196)
Correct for Detector Non-linearity: No (USB2E7196)
Correct for Stray Light: No (USB2E7196)
Number of Pixels in Processed Spectrum: 2048
>>>>>Begin Processed Spectral Data<<<<<
339.09	0.00
339.48	215.95
339.86	216.30
340.24	217.93
340.63	219.59
341.01	222.36
341.39	222.47
341.78	223.39
342.16	224.38
342.54	225.48
342.93	213.64
343.31	224.44
343.69	224.95
344.07	225.42
344.46	225.83
344.84	226.22
345.22	226.47
345.60	226.67
345.99	226.85
346.37	227.00
346.75	227.08
347.13	227.13
347.52	227.22
347.90	227.26
348.28	227.29
348.66	227.33
349.05	227.33
349.43	227.35
349.81	227.35
350.19	227.38
350.57	227.48
350.96	227.57
351.34	227.62
351.72	227.69
352.10	227.78
352.48	227.84
352.87	227.89
353.25	227.94
353.63	228.06
354.01	228.12
354.39	228.17
354.77	228.25
355.15	228.34
355.54	228.38
355.92	228.42
356.30	228.46
356.68	228.59
357.06	228.66
357.44	228.73
357.82	228.77
358.20	228.88
358.58	228.93
358.97	228.96
359.35	229.04
359.73	229.11
360.11	229.18
360.49	229.26
360.87	229.27
361.25	229.33
361.63	229.35
362.01	229.41
362.39	229.45
362.77	229.47
363.15	229.46
363.53	229.49
363.91	229.53
364.29	229.56
364.67	229.49
365.05	229.47
365.43	229.46
365.81	229.48
366.19	229.48
366.57	229.49
366.95	229.51
367.33	229.48
367.71	229.47
368.09	229.46
368.47	229.43
368.85	229.41
369.23	229.38
369.61	229.32
369.99	229.30
370.37	229.29
370.75	229.29
371.13	229.25
371.51	229.17
371.89	229.10
372.27	229.03
372.65	228.98
373.03	228.92
373.41	228.86
373.78	228.81
374.16	228.71
374.54	228.64
374.92	228.53
375.30	228.44
375.68	228.32
376.06	228.26
376.44	228.14
376.82	228.10
377.19	228.03
377.57	227.95
377.95	227.82
378.33	227.70
378.71	227.60
379.09	227.53
379.47	227.47
379.84	227.37
380.22	227.28
380.60	227.16
380.98	227.12
381.36	227.05
381.73	226.97
382.11	226.93
382.49	226.84
382.87	226.78
383.25	226.75
383.62	226.80
384.00	226.73
384.38	226.66
384.76	226.60
385.13	226.59
385.51	226.54
385.89	226.52
386.27	226.49
386.64	226.43
387.02	226.36
387.40	226.31
387.78	226.29
388.15	226.27
388.53	226.25
388.91	226.18
389.29	226.14
389.66	226.14
390.04	226.07
390.42	226.07
390.79	226.04
391.17	226.02
391.55	225.94
391.92	225.95
392.30	226.00
392.68	225.97
393.05	225.94
393.43	225.95
393.81	225.98
394.18	225.96
394.56	225.99
394.94	226.06
395.31	226.11
395.69	226.17
396.06	226.24
396.44	226.30
396.82	226.38
397.19	226.47
397.57	226.49
397.95	226.59
398.32	226.62
398.70	226.72
399.07	226.80
399.45	226.85
399.82	226.91
400.20	226.98
400.58	227.09
400.95	227.16
401.33	227.28
401.70	227.44
402.08	227.57
402.45	227.70
402.83	227.82
403.20	227.94
403.58	228.06
403.95	228.21
404.33	228.34
404.71	228.44
405.08	228.64
405.46	228.80
405.83	228.94
406.21	229.10
406.58	229.25
406.96	229.39
407.33	229.57
407.70	229.78
408.08	230.08
408.45	230.30
408.83	230.54
409.20	230.74
409.58	230.93
409.95	231.16
410.33	231.42
410.70	231.68
411.08	231.96
411.45	232.27
411.82	232.56
412.20	232.92
412.57	233.35
412.95	233.62
413.32	234.03
413.69	234.44
414.07	234.87
414.44	235.37
414.82	235.87
415.19	236.42
415.56	236.95
415.94	237.50
416.31	238.16
416.68	238.78
417.06	239.51
417.43	240.17
417.81	240.94
418.18	241.73
418.55	242.56
418.93	243.44
419.30	244.34
419.67	245.25
420.04	246.22
420.42	247.22
420.79	248.42
421.16	249.57
421.54	250.76
421.91	251.99
422.28	253.26
422.66	254.60
423.03	255.92
423.40	257.28
423.77	258.67
424.15	260.05
424.52	261.52
424.89	263.12
425.26	264.70
425.64	266.16
426.01	267.76
426.38	269.41
426.75	271.09
427.13	272.80
427.50	274.62
427.87	276.53
428.24	278.37
428.61	280.12
428.99	282.08
429.36	284.20
429.73	286.27
430.10	288.26
430.47	290.29
430.85	292.37
431.22	294.60
431.59	296.98
431.96	299.25
432.33	301.81
432.70	304.18
433.08	306.97
433.45	309.66
433.82	312.24
434.19	315.11
434.56	317.91
434.93	320.60
435.30	323.22
435.68	326.09
436.05	328.96
436.42	331.74
436.79	334.26
437.16	336.94
437.53	339.77
437.90	342.61
438.27	345.39
438.64	348.26
439.01	350.89
439.38	353.16
439.75	355.33
440.13	357.76
440.50	360.14
440.87	362.01
441.24	363.95
441.61	366.11
441.98	367.61
442.35	369.43
442.72	371.29
443.09	373.14
443.46	374.12
443.83	374.69
444.20	375.21
444.57	376.04
444.94	376.33
445.31	376.67
445.68	377.00
446.05	377.05
446.42	376.67
446.79	376.22
447.16	375.78
447.53	375.47
447.90	374.34
448.27	373.16
448.64	371.54
449.01	370.42
449.37	368.46
449.74	366.59
450.11	364.34
450.48	361.84
450.85	359.30
451.22	357.17
451.59	355.14
451.96	353.21
452.33	350.59
452.70	348.26
453.07	345.44
453.43	342.55
453.80	339.78
454.17	337.09
454.54	334.55
454.91	331.78
455.28	329.09
455.65	326.62
456.02	324.18
456.38	322.00
456.75	319.31
457.12	317.04
457.49	314.85
457.86	312.69
458.23	310.84
458.59	308.76
458.96	306.69
459.33	304.83
459.70	302.93
460.07	301.46
460.43	299.71
460.80	298.07
461.17	296.63
461.54	295.13
461.91	293.73
462.27	292.26
462.64	291.03
463.01	289.69
463.38	288.35
463.74	286.96
464.11	285.83
464.48	284.78
464.85	283.66
465.21	282.74
465.58	281.79
465.95	280.72
466.32	279.82
466.68	278.84
467.05	277.93
467.42	277.06
467.78	276.08
468.15	275.19
468.52	274.52
468.88	273.65
469.25	272.83
469.62	272.17
469.98	271.51
470.35	270.84
470.72	270.26
471.08	269.58
471.45	269.04
471.82	268.46
472.18	267.84
472.55	267.42
472.92	266.86
473.28	266.38
473.65	265.86
474.02	265.39
474.38	265.04
474.75	264.72
475.11	264.34
475.48	264.11
475.85	263.85
476.21	263.62
476.58	263.44
476.94	263.31
477.31	263.14
477.67	262.98
478.04	262.87
478.41	262.80
478.77	262.88
479.14	262.80
479.50	262.84
479.87	262.96
480.23	263.06
480.60	263.15
480.96	263.24
481.33	263.47
481.69	263.70
482.06	263.93
482.42	264.14
482.79	264.46
483.15	264.80
483.52	265.22
483.88	265.52
484.25	265.91
484.61	266.37
484.98	266.82
485.34	267.40
485.71	267.99
486.07	268.58
486.44	269.11
486.80	269.80
487.17	270.53
487.53	271.30
487.90	272.13
488.26	273.04
488.62	274.06
488.99	274.99
489.35	276.02
489.72	277.10
490.08	278.29
490.44	279.53
490.81	280.84
491.17	282.21
491.54	283.74
491.90	285.26
492.26	286.89
492.63	288.66
492.99	290.40
493.36	292.35
493.72	294.36
494.08	296.47
494.45	298.73
494.81	301.11
495.17	303.61
495.54	306.18
495.90	308.88
496.26	311.65
496.63	314.65
496.99	317.74
497.35	321.02
497.72	324.41
498.08	327.91
498.44	331.59
498.80	335.48
499.17	339.52
499.53	343.66
499.89	348.05
500.26	352.47
500.62	357.17
500.98	362.12
501.34	367.17
501.71	372.52
502.07	377.97
502.43	383.56
502.79	389.34
503.16	395.38
503.52	401.64
503.88	408.08
504.24	414.67
504.60	421.53
504.97	428.65
505.33	435.96
505.69	443.61
506.05	451.36
506.41	459.28
506.78	467.40
507.14	475.88
507.50	484.57
507.86	493.63
508.22	502.77
508.59	511.99
508.95	521.60
509.31	531.37
509.67	541.42
510.03	551.70
510.39	562.22
510.75	573.04
511.12	584.00
511.48	595.29
511.84	606.81
512.20	618.38
512.56	630.36
512.92	642.62
513.28	654.95
513.64	667.45
514.00	680.13
514.37	693.06
514.73	706.11
515.09	719.24
515.45	732.48
515.81	746.09
516.17	760.09
516.53	774.30
516.89	788.60
517.25	802.81
517.61	817.25
517.97	831.77
518.33	846.20
518.69	861.04
519.05	876.06
519.41	891.26
519.77	906.85
520.13	922.33
520.49	937.63
520.85	953.14
521.21	968.91
521.57	985.25
521.93	1001.11
522.29	1017.53
522.65	1033.73
523.01	1050.12
523.37	1066.26
523.73	1082.51
524.09	1098.48
524.45	1114.80
524.81	1131.57
525.17	1148.54
525.53	1165.49
525.89	1182.44
526.25	1199.34
526.61	1215.78
526.97	1232.45
527.33	1248.90
527.68	1265.52
528.04	1282.18
528.40	1298.91
528.76	1315.99
529.12	1332.53
529.48	1349.43
529.84	1365.53
530.20	1382.29
530.56	1399.33
530.91	1416.80
531.27	1433.56
531.63	1450.16
531.99	1466.86
532.35	1482.81
532.71	1498.71
533.07	1514.98
533.42	1530.86
533.78	1546.87
534.14	1563.24
534.50	1578.78
534.86	1594.70
535.21	1610.02
535.57	1625.99
535.93	1641.55
536.29	1656.38
536.65	1671.66
537.00	1686.60
537.36	1702.05
537.72	1716.65
538.08	1731.12
538.44	1745.02
538.79	1759.00
539.15	1772.75
539.51	1786.35
539.87	1800.81
540.22	1814.60
540.58	1828.52
540.94	1842.11
541.29	1855.23
541.65	1868.13
542.01	1881.30
542.37	1893.87
542.72	1906.38
543.08	1918.17
543.44	1930.74
543.79	1942.15
544.15	1953.10
544.51	1964.72
544.87	1975.77
545.22	1986.53
545.58	1996.88
545.94	2006.65
546.29	2016.51
546.65	2026.48
547.01	2035.88
547.36	2044.64
547.72	2053.13
548.07	2061.04
548.43	2069.17
548.79	2077.21
549.14	2084.61
549.50	2092.14
549.86	2099.80
550.21	2107.05
550.57	2114.33
550.92	2120.67
551.28	2127.59
551.64	2134.73
551.99	2141.37
552.35	2147.43
552.70	2153.65
553.06	2159.57
553.41	2165.92
553.77	2171.92
554.13	2177.94
554.48	2184.04
554.84	2189.41
555.19	2194.70
555.55	2199.83
555.90	2204.16
556.26	2208.90
556.61	2213.82
556.97	2217.94
557.32	2222.03
557.68	2226.18
558.03	2230.47
558.39	2234.32
558.74	2239.18
559.10	2242.94
559.45	2246.46
559.81	2250.85
560.16	2254.61
560.52	2257.84
560.87	2261.24
561.23	2263.93
561.58	2266.82
561.94	2269.49
562.29	2271.98
562.64	2274.63
563.00	2277.29
563.35	2280.97
563.71	2284.13
564.06	2287.08
564.42	2289.92
564.77	2292.36
565.12	2294.62
565.48	2296.27
565.83	2297.99
566.19	2299.10
566.54	2300.14
566.89	2301.33
567.25	2301.76
567.60	2303.15
567.96	2304.72
568.31	2305.61
568.66	2306.53
569.02	2307.10
569.37	2307.25
569.72	2307.93
570.08	2308.04
570.43	2307.94
570.78	2307.16
571.14	2305.58
571.49	2304.12
571.84	2303.82
572.20	2302.55
572.55	2301.39
572.90	2300.08
573.26	2298.69
573.61	2296.81
573.96	2294.89
574.31	2291.61
574.67	2288.54
575.02	2284.74
575.37	2281.28
575.72	2277.28
576.08	2274.05
576.43	2270.80
576.78	2266.97
577.13	2263.78
577.49	2260.44
577.84	2256.87
578.19	2253.17
578.54	2249.37
578.90	2245.05
579.25	2239.53
579.60	2234.51
579.95	2229.50
580.30	2224.29
580.66	2219.09
581.01	2214.28
581.36	2209.19
581.71	2205.07
582.06	2200.54
582.42	2196.01
582.77	2190.69
583.12	2186.09
583.47	2181.25
583.82	2176.07
584.17	2170.83
584.53	2165.38
584.88	2159.88
585.23	2153.85
585.58	2148.20
585.93	2142.77
586.28	2137.94
586.63	2132.57
586.98	2127.48
587.34	2122.71
587.69	2117.61
588.04	2112.17
588.39	2106.28
588.74	2099.84
589.09	2093.56
589.44	2086.67
589.79	2080.59
590.14	2074.92
590.49	2068.28
590.84	2061.90
591.19	2055.86
591.54	2049.39
591.89	2041.70
592.25	2034.73
592.60	2027.57
592.95	2019.92
593.30	2012.46
593.65	2004.84
594.00	1997.88
594.35	1990.62
594.70	1982.38
595.05	1975.13
595.40	1967.77
595.75	1960.22
596.10	1953.82
596.45	1947.00
596.80	1940.80
597.15	1934.10
597.50	1926.84
597.85	1920.24
598.19	1913.39
598.54	1906.16
598.89	1899.41
599.24	1893.55
599.59	1886.77
599.94	1880.58
600.29	1874.29
600.64	1867.77
600.99	1860.23
601.34	1853.26
601.69	1846.11
602.04	1839.19
602.39	1831.89
602.74	1825.02
603.08	1818.29
603.43	1811.46
603.78	1804.19
604.13	1796.94
604.48	1789.61
604.83	1782.86
605.18	1775.85
605.53	1767.87
605.87	1759.77
606.22	1752.45
606.57	1744.48
606.92	1737.21
607.27	1729.87
607.62	1722.74
607.96	1715.29
608.31	1708.61
608.66	1701.00
609.01	1693.50
609.36	1685.85
609.70	1677.74
610.05	1669.61
610.40	1661.82
610.75	1653.50
611.10	1645.74
611.44	1637.34
611.79	1629.37
612.14	1620.63
612.49	1611.51
612.83	1603.13
613.18	1594.98
613.53	1586.90
613.88	1578.32
614.22	1570.02
614.57	1561.45
614.92	1553.47
615.27	1545.81
615.61	1537.45
615.96	1529.34
616.31	1521.70
616.65	1514.45
617.00	1506.94
617.35	1499.40
617.70	1490.90
618.04	1482.34
618.39	1474.23
618.74	1466.55
619.08	1458.15
619.43	1450.69
619.78	1443.82
620.12	1436.62
620.47	1428.96
620.82	1420.83
621.16	1413.48
621.51	1405.94
621.85	1398.45
622.20	1389.93
622.55	1381.58
622.89	1373.82
623.24	1366.30
623.59	1358.85
623.93	1351.28
624.28	1344.06
624.62	1336.47
624.97	1329.47
625.32	1322.86
625.66	1315.80
626.01	1308.64
626.35	1301.17
626.70	1293.27
627.04	1285.47
627.39	1277.74
627.73	1270.48
628.08	1263.58
628.43	1256.19
628.77	1248.66
629.12	1240.99
629.46	1233.88
629.81	1226.74
630.15	1219.57
630.50	1212.15
630.84	1203.99
631.19	1196.19
631.53	1188.73
631.88	1181.24
632.22	1173.61
632.57	1166.33
632.91	1158.72
633.26	1151.37
633.60	1144.08
633.95	1137.12
634.29	1130.14
634.64	1123.53
634.98	1116.16
635.32	1109.05
635.67	1102.54
636.01	1095.95
636.36	1089.16
636.70	1082.65
637.05	1075.95
637.39	1069.45
637.73	1062.96
638.08	1057.13
638.42	1051.10
638.77	1044.64
639.11	1037.99
639.45	1031.71
639.80	1025.03
640.14	1018.72
640.49	1012.19
640.83	1005.94
641.17	999.63
641.52	993.34
641.86	986.87
642.20	981.05
642.55	974.79
642.89	968.34
643.23	961.84
643.58	956.11
643.92	949.94
644.26	943.84
644.61	937.91
644.95	931.90
645.29	925.37
645.64	918.58
645.98	912.21
646.32	906.38
646.66	900.28
647.01	894.51
647.35	888.72
647.69	882.89
648.04	877.27
648.38	871.53
648.72	865.45
649.06	859.33
649.41	853.45
649.75	847.42
650.09	841.47
650.43	835.69
650.78	829.52
651.12	823.49
651.46	817.73
651.80	811.90
652.14	806.51
652.49	801.14
652.83	795.93
653.17	790.17
653.51	784.40
653.85	779.03
654.20	773.30
654.54	767.35
654.88	761.62
655.22	755.76
655.56	750.04
655.90	744.62
656.25	739.39
656.59	734.02
656.93	728.82
657.27	723.63
657.61	718.15
657.95	713.04
658.29	708.01
658.64	702.82
658.98	697.50
659.32	692.02
659.66	686.77
660.00	681.54
660.34	676.67
660.68	671.81
661.02	666.78
661.36	662.09
661.70	657.54
662.05	653.12
662.39	648.81
662.73	644.37
663.07	639.95
663.41	635.57
663.75	631.05
664.09	626.63
664.43	622.31
664.77	618.17
665.11	613.87
665.45	609.73
665.79	605.64
666.13	601.54
666.47	597.47
666.81	593.26
667.15	589.08
667.49	585.18
667.83	581.40
668.17	577.43
668.51	573.44
668.85	569.50
669.19	565.69
669.53	561.83
669.87	557.94
670.21	554.30
670.55	550.64
670.89	547.21
671.23	543.75
671.57	540.20
671.91	536.74
672.25	533.37
672.58	529.91
672.92	526.50
673.26	523.40
673.60	520.23
673.94	517.21
674.28	514.36
674.62	511.44
674.96	508.28
675.30	505.47
675.64	502.52
675.97	499.77
676.31	496.90
676.65	494.01
676.99	491.29
677.33	488.44
677.67	485.64
678.01	482.66
678.34	479.69
678.68	476.90
679.02	474.11
679.36	471.30
679.70	468.56
680.04	465.84
680.37	462.90
680.71	460.16
681.05	457.50
681.39	454.82
681.73	452.20
682.06	449.72
682.40	447.11
682.74	444.60
683.08	442.01
683.42	439.47
683.75	437.04
684.09	434.54
684.43	432.09
684.77	429.62
685.10	427.33
685.44	425.01
685.78	422.70
686.12	420.44
686.45	418.20
686.79	415.95
687.13	413.73
687.46	411.58
687.80	409.41
688.14	407.30
688.48	405.21
688.81	402.94
689.15	400.82
689.49	398.76
689.82	396.66
690.16	394.60
690.50	392.65
690.83	390.66
691.17	388.69
691.51	386.75
691.84	384.90
692.18	382.93
692.52	380.97
692.85	379.00
693.19	377.14
693.52	375.31
693.86	373.51
694.20	371.78
694.53	370.02
694.87	368.18
695.21	366.36
695.54	364.54
695.88	362.81
696.21	361.05
696.55	359.37
696.88	357.68
697.22	356.02
697.56	354.35
697.89	352.70
698.23	351.06
698.56	349.49
698.90	347.87
699.23	346.23
699.57	344.70
699.90	343.18
700.24	341.61
700.58	340.02
700.91	338.46
701.25	336.99
701.58	335.57
701.92	334.20
702.25	332.78
702.59	331.43
702.92	330.09
703.26	328.80
703.59	327.47
703.93	326.30
704.26	325.08
704.60	323.85
704.93	322.56
705.26	321.29
705.60	320.13
705.93	319.00
706.27	317.94
706.60	316.89
706.94	315.80
707.27	314.66
707.61	313.64
707.94	312.64
708.27	311.58
708.61	310.51
708.94	309.51
709.28	308.56
709.61	307.60
709.94	306.67
710.28	305.66
710.61	304.68
710.95	303.64
711.28	302.71
711.61	301.69
711.95	300.77
712.28	299.86
712.61	298.85
712.95	297.92
713.28	297.05
713.61	296.15
713.95	295.25
714.28	294.44
714.61	293.58
714.95	292.75
715.28	291.88
715.61	291.05
715.95	290.19
716.28	289.30
716.61	288.47
716.95	287.64
717.28	286.93
717.61	286.16
717.94	285.41
718.28	284.61
718.61	283.95
718.94	283.30
719.27	282.62
719.61	281.98
719.94	281.30
720.27	280.60
720.60	279.95
720.94	279.35
721.27	278.76
721.60	278.19
721.93	277.59
722.27	277.04
722.60	276.52
722.93	275.98
723.26	275.48
723.59	274.96
723.93	274.44
724.26	273.87
724.59	273.34
724.92	272.85
725.25	272.37
725.59	271.86
725.92	271.35
726.25	270.87
726.58	270.41
726.91	269.98
727.24	269.50
727.57	269.04
727.91	268.54
728.24	268.05
728.57	267.57
728.90	267.12
729.23	266.66
729.56	266.24
729.89	265.76
730.22	265.27
730.55	264.81
730.89	264.36
731.22	263.93
731.55	263.54
731.88	263.11
732.21	262.66
732.54	262.21
732.87	261.78
733.20	261.41
733.53	260.99
733.86	260.56
734.19	260.15
734.52	259.79
734.85	259.47
735.18	259.08
735.51	258.74
735.84	258.38
736.17	258.02
736.50	257.59
736.83	257.32
737.16	257.00
737.49	256.65
737.82	256.29
738.15	255.94
738.48	255.56
738.81	255.23
739.14	254.90
739.47	254.57
739.80	254.27
740.13	253.95
740.46	253.64
740.79	253.34
741.12	253.04
741.45	252.70
741.78	252.35
742.11	252.06
742.44	251.72
742.77	251.41
743.10	251.07
743.43	250.76
743.75	250.44
744.08	250.29
744.41	250.03
744.74	249.77
745.07	249.46
745.40	249.19
745.73	248.91
746.06	248.64
746.39	248.41
746.71	248.13
747.04	247.81
747.37	247.55
747.70	247.32
748.03	247.07
748.36	246.83
748.68	246.62
749.01	246.37
749.34	246.15
749.67	245.89
750.00	245.66
750.33	245.52
750.65	245.29
750.98	244.95
751.31	244.71
751.64	244.49
751.97	244.37
752.29	244.18
752.62	243.94
752.95	243.73
753.28	243.51
753.60	243.31
753.93	243.16
754.26	242.91
754.59	242.68
754.91	242.48
755.24	242.29
755.57	242.09
755.90	241.91
756.22	241.70
756.55	241.53
756.88	241.36
757.20	241.10
757.53	240.90
757.86	240.71
758.19	240.56
758.51	240.38
758.84	240.19
759.17	240.01
759.49	239.87
759.82	239.79
760.15	239.65
760.47	239.50
760.80	239.33
761.13	239.25
761.45	239.11
761.78	238.97
762.11	238.84
762.43	238.67
762.76	238.53
763.08	238.41
763.41	238.28
763.74	238.18
764.06	238.03
764.39	237.90
764.71	237.76
765.04	237.60
765.37	237.47
765.69	237.36
766.02	237.22
766.34	237.10
766.67	236.93
767.00	236.80
767.32	236.78
767.65	236.71
767.97	236.59
768.30	236.46
768.62	236.38
768.95	236.24
769.27	236.12
769.60	236.00
769.92	235.88
770.25	235.74
770.57	235.61
770.90	235.54
771.22	235.45
771.55	235.37
771.87	235.29
772.20	235.20
772.52	235.15
772.85	235.18
773.17	235.07
773.50	234.99
773.82	234.94
774.15	234.78
774.47	234.65
774.80	234.52
775.12	234.46
775.45	234.34
775.77	234.26
776.09	234.21
776.42	234.15
776.74	234.09
777.07	234.04
777.39	233.93
777.72	233.80
778.04	233.73
778.36	233.66
778.69	233.59
779.01	233.53
779.33	233.35
779.66	233.19
779.98	233.12
780.31	233.05
780.63	232.97
780.95	232.94
781.28	232.86
781.60	232.78
781.92	232.72
782.25	232.62
782.57	232.57
782.89	232.48
783.22	232.40
783.54	232.32
783.86	232.27
784.19	232.22
784.51	232.21
784.83	232.16
785.16	232.08
785.48	232.03
785.80	231.98
786.12	231.94
786.45	231.88
786.77	231.85
787.09	231.77
