SpectraSuite Data File
++++++++++++++++++++++++++++++++++++
Date: Fri Feb 01 15:34:39 EST 2013
User: group
Dark Spectrum Present: No
Reference Spectrum Present: No
Number of Sampled Component Spectra: 1
Spectrometers: USB2E7196
Integration Time (usec): 35000 (USB2E7196)
Spectra Averaged: 100 (USB2E7196)
Boxcar Smoothing: 10 (USB2E7196)
Correct for Electrical Dark: No (USB2E7196)
Strobe/Lamp Enabled: No (USB2E7196)
Correct for Detector Non-linearity: No (USB2E7196)
Correct for Stray Light: No (USB2E7196)
Number of Pixels in Processed Spectrum: 2048
>>>>>Begin Processed Spectral Data<<<<<
339.09	0.00
339.48	215.27
339.86	216.12
340.24	218.32
340.63	219.60
341.01	221.85
341.39	221.94
341.78	223.93
342.16	224.50
342.54	224.70
342.93	213.36
343.31	224.16
343.69	224.69
344.07	225.16
344.46	225.56
344.84	225.92
345.22	226.17
345.60	226.41
345.99	226.57
346.37	226.70
346.75	226.81
347.13	226.90
347.52	226.96
347.90	227.02
348.28	227.04
348.66	227.09
349.05	227.09
349.43	227.12
349.81	227.15
350.19	227.22
350.57	227.23
350.96	227.32
351.34	227.36
351.72	227.41
352.10	227.54
352.48	227.63
352.87	227.68
353.25	227.75
353.63	227.82
354.01	227.86
354.39	227.94
354.77	228.02
355.15	228.11
355.54	228.17
355.92	228.20
356.30	228.28
356.68	228.41
357.06	228.45
357.44	228.52
357.82	228.61
358.20	228.65
358.58	228.71
358.97	228.75
359.35	228.82
359.73	228.91
360.11	228.90
360.49	228.94
360.87	228.99
361.25	229.05
361.63	229.12
362.01	229.19
362.39	229.20
362.77	229.25
363.15	229.28
363.53	229.32
363.91	229.36
364.29	229.36
364.67	229.28
365.05	229.31
365.43	229.32
365.81	229.32
366.19	229.34
366.57	229.39
366.95	229.39
367.33	229.37
367.71	229.36
368.09	229.37
368.47	229.34
368.85	229.31
369.23	229.29
369.61	229.22
369.99	229.21
370.37	229.18
370.75	229.18
371.13	229.12
371.51	229.05
371.89	229.02
372.27	228.96
372.65	228.93
373.03	228.90
373.41	228.81
373.78	228.77
374.16	228.69
374.54	228.60
374.92	228.54
375.30	228.49
375.68	228.43
376.06	228.36
376.44	228.30
376.82	228.22
377.19	228.11
377.57	228.02
377.95	227.91
378.33	227.84
378.71	227.68
379.09	227.64
379.47	227.56
379.84	227.45
380.22	227.41
380.60	227.32
380.98	227.25
381.36	227.16
381.73	227.07
382.11	227.01
382.49	226.92
382.87	226.82
383.25	226.76
383.62	226.79
384.00	226.70
384.38	226.62
384.76	226.62
385.13	226.61
385.51	226.56
385.89	226.51
386.27	226.47
386.64	226.44
387.02	226.40
387.40	226.32
387.78	226.32
388.15	226.29
388.53	226.22
388.91	226.17
389.29	226.15
389.66	226.16
390.04	226.11
390.42	226.12
390.79	226.17
391.17	226.14
391.55	226.03
391.92	226.07
392.30	226.09
392.68	226.04
393.05	226.04
393.43	226.09
393.81	226.10
394.18	226.08
394.56	226.12
394.94	226.18
395.31	226.23
395.69	226.28
396.06	226.29
396.44	226.36
396.82	226.38
397.19	226.50
397.57	226.56
397.95	226.61
398.32	226.66
398.70	226.68
399.07	226.78
399.45	226.86
399.82	226.91
400.20	226.97
400.58	227.09
400.95	227.13
401.33	227.22
401.70	227.40
402.08	227.52
402.45	227.59
402.83	227.69
403.20	227.82
403.58	227.93
403.95	228.09
404.33	228.22
404.71	228.37
405.08	228.52
405.46	228.64
405.83	228.82
406.21	228.97
406.58	229.16
406.96	229.31
407.33	229.48
407.70	229.67
408.08	229.96
408.45	230.17
408.83	230.43
409.20	230.65
409.58	230.81
409.95	231.08
410.33	231.36
410.70	231.60
411.08	231.88
411.45	232.18
411.82	232.49
412.20	232.82
412.57	233.25
412.95	233.56
413.32	233.95
413.69	234.33
414.07	234.78
414.44	235.24
414.82	235.72
415.19	236.30
415.56	236.82
415.94	237.36
416.31	238.01
416.68	238.63
417.06	239.34
417.43	239.99
417.81	240.78
418.18	241.57
418.55	242.37
418.93	243.23
419.30	244.13
419.67	245.07
420.04	246.03
420.42	246.99
420.79	248.13
421.16	249.29
421.54	250.49
421.91	251.71
422.28	252.96
422.66	254.26
423.03	255.53
423.40	256.87
423.77	258.29
424.15	259.66
424.52	261.15
424.89	262.77
425.26	264.35
425.64	265.76
426.01	267.39
426.38	269.06
426.75	270.73
427.13	272.43
427.50	274.21
427.87	276.09
428.24	277.96
428.61	279.73
428.99	281.69
429.36	283.78
429.73	285.82
430.10	287.81
430.47	289.92
430.85	292.07
431.22	294.32
431.59	296.68
431.96	298.94
432.33	301.45
432.70	303.80
433.08	306.64
433.45	309.33
433.82	311.90
434.19	314.80
434.56	317.64
434.93	320.33
435.30	322.98
435.68	325.88
436.05	328.75
436.42	331.57
436.79	334.08
437.16	336.80
437.53	339.64
437.90	342.50
438.27	345.25
438.64	348.04
439.01	350.61
439.38	352.88
439.75	355.05
440.13	357.53
440.50	359.87
440.87	361.71
441.24	363.62
441.61	365.77
441.98	367.30
442.35	369.10
442.72	370.94
443.09	372.74
443.46	373.75
443.83	374.35
444.20	374.81
444.57	375.62
444.94	375.87
445.31	376.18
445.68	376.49
446.05	376.55
446.42	376.18
446.79	375.81
447.16	375.38
447.53	375.09
447.90	373.91
448.27	372.76
448.64	371.17
449.01	370.00
449.37	368.05
449.74	366.14
450.11	363.87
450.48	361.38
450.85	358.87
451.22	356.72
451.59	354.66
451.96	352.74
452.33	350.15
452.70	347.78
453.07	344.95
453.43	342.07
453.80	339.31
454.17	336.66
454.54	334.09
454.91	331.33
455.28	328.65
455.65	326.15
456.02	323.66
456.38	321.48
456.75	318.84
457.12	316.61
457.49	314.34
457.86	312.18
458.23	310.33
458.59	308.27
458.96	306.19
459.33	304.34
459.70	302.50
460.07	300.99
460.43	299.31
460.80	297.72
461.17	296.29
461.54	294.76
461.91	293.32
462.27	291.86
462.64	290.62
463.01	289.24
463.38	287.99
463.74	286.63
464.11	285.51
464.48	284.49
464.85	283.33
465.21	282.49
465.58	281.56
465.95	280.46
466.32	279.56
466.68	278.62
467.05	277.72
467.42	276.80
467.78	275.86
468.15	274.98
468.52	274.32
468.88	273.43
469.25	272.65
469.62	272.00
469.98	271.34
470.35	270.69
470.72	270.07
471.08	269.35
471.45	268.76
471.82	268.23
472.18	267.62
472.55	267.22
472.92	266.70
473.28	266.23
473.65	265.77
474.02	265.32
474.38	264.94
474.75	264.63
475.11	264.28
475.48	264.03
475.85	263.82
476.21	263.55
476.58	263.40
476.94	263.29
477.31	263.13
477.67	262.94
478.04	262.83
478.41	262.78
478.77	262.85
479.14	262.82
479.50	262.81
479.87	262.90
480.23	262.95
480.60	263.01
480.96	263.09
481.33	263.31
481.69	263.54
482.06	263.73
482.42	263.92
482.79	264.18
483.15	264.49
483.52	264.88
483.88	265.25
484.25	265.63
484.61	266.05
484.98	266.50
485.34	267.09
485.71	267.68
486.07	268.27
486.44	268.86
486.80	269.54
487.17	270.25
487.53	271.04
487.90	271.89
488.26	272.84
488.62	273.86
488.99	274.85
489.35	275.88
489.72	277.05
490.08	278.22
490.44	279.47
490.81	280.80
491.17	282.14
491.54	283.57
491.90	285.11
492.26	286.75
492.63	288.50
492.99	290.28
493.36	292.20
493.72	294.27
494.08	296.38
494.45	298.64
494.81	301.02
495.17	303.45
495.54	306.03
495.90	308.70
496.26	311.50
496.63	314.45
496.99	317.54
497.35	320.79
497.72	324.23
498.08	327.76
498.44	331.46
498.80	335.38
499.17	339.45
499.53	343.61
499.89	348.02
500.26	352.53
500.62	357.21
500.98	362.21
501.34	367.26
501.71	372.58
502.07	378.01
502.43	383.63
502.79	389.49
503.16	395.52
503.52	401.80
503.88	408.20
504.24	414.84
504.60	421.74
504.97	428.86
505.33	436.17
505.69	443.88
506.05	451.67
506.41	459.53
506.78	467.66
507.14	476.15
507.50	484.85
507.86	493.83
508.22	503.00
508.59	512.15
508.95	521.76
509.31	531.56
509.67	541.70
510.03	552.10
510.39	562.58
510.75	573.44
511.12	584.37
511.48	595.64
511.84	607.12
512.20	618.62
512.56	630.56
512.92	642.73
513.28	655.04
513.64	667.48
514.00	680.16
514.37	693.10
514.73	706.15
515.09	719.20
515.45	732.52
515.81	746.14
516.17	760.23
516.53	774.35
516.89	788.57
517.25	802.67
517.61	817.04
517.97	831.62
518.33	846.01
518.69	860.80
519.05	875.89
519.41	890.99
519.77	906.58
520.13	922.08
520.49	937.54
520.85	952.98
521.21	968.76
521.57	985.00
521.93	1000.85
522.29	1017.21
522.65	1033.41
523.01	1049.77
523.37	1065.89
523.73	1081.96
524.09	1098.12
524.45	1114.36
524.81	1131.11
525.17	1147.78
525.53	1164.65
525.89	1181.62
526.25	1198.46
526.61	1214.80
526.97	1231.66
527.33	1248.08
527.68	1264.72
528.04	1281.28
528.40	1297.90
528.76	1314.98
529.12	1331.62
529.48	1348.47
529.84	1364.48
530.20	1381.20
530.56	1398.21
530.91	1415.64
531.27	1432.49
531.63	1449.02
531.99	1465.78
532.35	1481.84
532.71	1497.85
533.07	1514.11
533.42	1529.88
533.78	1546.04
534.14	1562.33
534.50	1577.66
534.86	1593.77
535.21	1608.96
535.57	1624.89
535.93	1640.40
536.29	1655.18
536.65	1670.35
537.00	1685.30
537.36	1700.69
537.72	1715.18
538.08	1729.58
538.44	1743.38
538.79	1757.26
539.15	1770.96
539.51	1784.68
539.87	1799.04
540.22	1812.90
540.58	1826.64
540.94	1840.26
541.29	1853.19
541.65	1866.02
542.01	1879.26
542.37	1891.47
542.72	1903.95
543.08	1915.70
543.44	1928.26
543.79	1939.61
544.15	1950.70
544.51	1962.25
544.87	1973.36
545.22	1984.12
545.58	1994.22
545.94	2003.93
546.29	2013.79
546.65	2023.62
547.01	2032.91
547.36	2041.60
547.72	2050.12
548.07	2058.09
548.43	2066.20
548.79	2074.11
549.14	2081.66
549.50	2089.08
549.86	2096.90
550.21	2104.17
550.57	2111.45
550.92	2117.92
551.28	2124.94
551.64	2131.99
551.99	2138.32
552.35	2144.45
552.70	2150.69
553.06	2156.83
553.41	2163.30
553.77	2169.40
554.13	2175.54
554.48	2181.49
554.84	2186.88
555.19	2192.03
555.55	2197.12
555.90	2201.62
556.26	2206.50
556.61	2211.21
556.97	2215.49
557.32	2219.57
557.68	2223.69
558.03	2228.02
558.39	2231.70
558.74	2236.45
559.10	2240.29
559.45	2244.03
559.81	2248.30
560.16	2252.30
560.52	2255.45
560.87	2258.82
561.23	2261.42
561.58	2264.37
561.94	2267.06
562.29	2269.64
562.64	2272.41
563.00	2275.00
563.35	2278.48
563.71	2281.74
564.06	2284.80
564.42	2287.68
564.77	2290.07
565.12	2292.37
565.48	2294.14
565.83	2295.94
566.19	2297.01
566.54	2297.95
566.89	2299.08
567.25	2299.67
567.60	2300.68
567.96	2302.52
568.31	2303.33
568.66	2304.39
569.02	2304.79
569.37	2305.06
569.72	2305.82
570.08	2305.85
570.43	2306.02
570.78	2305.40
571.14	2303.66
571.49	2302.40
571.84	2301.89
572.20	2300.71
572.55	2299.54
572.90	2297.93
573.26	2296.59
573.61	2294.98
573.96	2293.10
574.31	2290.13
574.67	2286.99
575.02	2283.46
575.37	2279.87
575.72	2276.01
576.08	2272.74
576.43	2269.43
576.78	2265.69
577.13	2262.48
577.49	2259.42
577.84	2255.70
578.19	2251.93
578.54	2248.25
578.90	2243.78
579.25	2238.27
579.60	2233.37
579.95	2228.45
580.30	2223.46
580.66	2218.26
581.01	2213.28
581.36	2208.19
581.71	2203.94
582.06	2199.56
582.42	2195.09
582.77	2189.83
583.12	2185.19
583.47	2180.30
583.82	2175.20
584.17	2169.87
584.53	2164.27
584.88	2158.55
585.23	2152.92
585.58	2147.40
585.93	2141.94
586.28	2137.25
586.63	2132.17
586.98	2127.00
587.34	2122.21
587.69	2117.24
588.04	2111.90
588.39	2106.15
588.74	2099.73
589.09	2093.54
589.44	2086.62
589.79	2080.57
590.14	2074.84
590.49	2068.14
590.84	2061.68
591.19	2055.64
591.54	2049.19
591.89	2041.60
592.25	2034.80
592.60	2027.47
592.95	2019.80
593.30	2012.44
593.65	2004.82
594.00	1997.70
594.35	1990.43
594.70	1982.24
595.05	1975.00
595.40	1967.63
595.75	1959.98
596.10	1953.71
596.45	1946.83
596.80	1940.66
597.15	1933.94
597.50	1926.87
597.85	1920.55
598.19	1913.81
598.54	1906.67
598.89	1899.87
599.24	1894.05
599.59	1887.21
599.94	1880.90
600.29	1874.57
600.64	1867.94
600.99	1860.43
601.34	1853.48
601.69	1846.52
602.04	1839.68
602.39	1832.28
602.74	1825.48
603.08	1818.82
603.43	1812.02
603.78	1804.71
604.13	1797.52
604.48	1790.31
604.83	1783.46
605.18	1776.45
605.53	1768.63
605.87	1760.53
606.22	1753.37
606.57	1745.34
606.92	1738.07
607.27	1730.94
607.62	1723.97
607.96	1716.63
608.31	1710.03
608.66	1702.42
609.01	1694.80
609.36	1687.18
609.70	1679.14
610.05	1670.99
610.40	1663.19
610.75	1654.77
611.10	1647.19
611.44	1638.78
611.79	1630.73
612.14	1622.02
612.49	1612.86
612.83	1604.39
613.18	1596.25
613.53	1588.15
613.88	1579.61
614.22	1571.35
614.57	1562.71
614.92	1554.68
615.27	1547.13
615.61	1538.73
615.96	1530.79
616.31	1523.14
616.65	1515.79
617.00	1508.20
617.35	1500.61
617.70	1492.28
618.04	1483.89
618.39	1475.71
618.74	1467.97
619.08	1459.60
619.43	1451.94
619.78	1445.04
620.12	1437.89
620.47	1430.40
620.82	1422.24
621.16	1414.86
621.51	1407.19
621.85	1399.52
622.20	1390.95
622.55	1382.61
622.89	1374.86
623.24	1367.21
623.59	1359.89
623.93	1352.44
624.28	1345.23
624.62	1337.64
624.97	1330.53
625.32	1323.81
625.66	1316.64
626.01	1309.50
626.35	1302.17
626.70	1294.48
627.04	1286.65
627.39	1278.91
627.73	1271.55
628.08	1264.67
628.43	1257.33
628.77	1249.99
629.12	1242.43
629.46	1235.29
629.81	1227.93
630.15	1220.75
630.50	1213.32
630.84	1205.09
631.19	1197.18
631.53	1189.66
631.88	1182.10
632.22	1174.53
632.57	1167.17
632.91	1159.74
633.26	1152.35
633.60	1144.91
633.95	1137.83
634.29	1130.81
634.64	1124.06
634.98	1116.63
635.32	1109.42
635.67	1102.99
636.01	1096.38
636.36	1089.58
636.70	1083.04
637.05	1076.36
637.39	1069.85
637.73	1063.34
638.08	1057.43
638.42	1051.34
638.77	1044.95
639.11	1038.31
639.45	1031.87
639.80	1025.17
640.14	1018.73
640.49	1012.13
640.83	1005.79
641.17	999.47
641.52	993.12
641.86	986.72
642.20	980.89
642.55	974.63
642.89	968.05
643.23	961.60
643.58	955.79
643.92	949.66
644.26	943.73
644.61	937.69
644.95	931.67
645.29	925.02
645.64	918.31
645.98	911.95
646.32	906.20
646.66	900.12
647.01	894.41
647.35	888.69
647.69	882.85
648.04	877.32
648.38	871.53
648.72	865.50
649.06	859.41
649.41	853.52
649.75	847.48
650.09	841.50
650.43	835.61
650.78	829.50
651.12	823.48
651.46	817.70
651.80	811.90
652.14	806.46
652.49	801.07
652.83	795.88
653.17	790.17
653.51	784.41
653.85	779.05
654.20	773.40
654.54	767.41
654.88	761.75
655.22	755.90
655.56	750.26
655.90	744.83
656.25	739.61
656.59	734.38
656.93	729.36
657.27	724.28
657.61	718.87
657.95	713.75
658.29	708.71
658.64	703.40
658.98	698.14
659.32	692.69
659.66	687.50
660.00	682.14
660.34	677.19
660.68	672.38
661.02	667.32
661.36	662.58
661.70	658.09
662.05	653.71
662.39	649.38
662.73	644.94
663.07	640.56
663.41	636.11
663.75	631.55
664.09	626.95
664.43	622.52
664.77	618.36
665.11	614.08
665.45	609.90
665.79	605.88
666.13	601.78
666.47	597.73
666.81	593.56
667.15	589.50
667.49	585.68
667.83	581.93
668.17	578.07
668.51	573.99
668.85	569.93
669.19	566.12
669.53	562.21
669.87	558.31
670.21	554.63
670.55	550.96
670.89	547.49
671.23	544.13
671.57	540.60
671.91	537.09
672.25	533.64
672.58	530.17
672.92	526.80
673.26	523.64
673.60	520.49
673.94	517.44
674.28	514.51
674.62	511.53
674.96	508.35
675.30	505.39
675.64	502.49
675.97	499.77
676.31	496.88
676.65	494.01
676.99	491.32
677.33	488.45
677.67	485.71
678.01	482.65
678.34	479.63
678.68	476.83
679.02	474.04
679.36	471.24
679.70	468.48
680.04	465.65
680.37	462.78
680.71	460.00
681.05	457.40
681.39	454.70
681.73	452.02
682.06	449.49
682.40	446.96
682.74	444.47
683.08	441.88
683.42	439.30
683.75	436.76
684.09	434.21
684.43	431.78
684.77	429.30
685.10	427.06
685.44	424.76
685.78	422.46
686.12	420.20
686.45	417.93
686.79	415.66
687.13	413.49
687.46	411.33
687.80	409.16
688.14	406.95
688.48	404.92
688.81	402.68
689.15	400.55
689.49	398.39
689.82	396.32
690.16	394.25
690.50	392.29
690.83	390.39
691.17	388.40
691.51	386.52
691.84	384.68
692.18	382.73
692.52	380.78
692.85	378.83
693.19	376.99
693.52	375.19
693.86	373.36
694.20	371.61
694.53	369.80
694.87	367.95
695.21	366.18
695.54	364.36
695.88	362.67
696.21	360.97
696.55	359.29
696.88	357.60
697.22	355.97
697.56	354.40
697.89	352.73
698.23	351.13
698.56	349.47
698.90	347.87
699.23	346.21
699.57	344.65
699.90	343.17
700.24	341.64
700.58	340.15
700.91	338.66
701.25	337.24
701.58	335.89
701.92	334.55
702.25	333.19
702.59	331.82
702.92	330.47
703.26	329.15
703.59	327.89
703.93	326.72
704.26	325.49
704.60	324.14
704.93	322.88
705.26	321.66
705.60	320.53
705.93	319.38
706.27	318.36
706.60	317.31
706.94	316.26
707.27	315.07
707.61	314.01
707.94	313.00
708.27	311.90
708.61	310.83
708.94	309.83
709.28	308.84
709.61	307.89
709.94	306.93
710.28	305.91
710.61	304.98
710.95	303.87
711.28	302.96
711.61	302.02
711.95	301.16
712.28	300.20
712.61	299.21
712.95	298.31
713.28	297.41
713.61	296.54
713.95	295.62
714.28	294.81
714.61	293.91
714.95	293.08
715.28	292.22
715.61	291.32
715.95	290.48
716.28	289.57
716.61	288.75
716.95	287.99
717.28	287.28
717.61	286.44
717.94	285.72
718.28	284.91
718.61	284.22
718.94	283.49
719.27	282.82
719.61	282.19
719.94	281.52
720.27	280.85
720.60	280.15
720.94	279.48
721.27	278.91
721.60	278.36
721.93	277.71
722.27	277.17
722.60	276.60
722.93	276.02
723.26	275.50
723.59	274.91
723.93	274.31
724.26	273.71
724.59	273.17
724.92	272.63
725.25	272.13
725.59	271.57
725.92	271.08
726.25	270.55
726.58	270.04
726.91	269.52
727.24	269.02
727.57	268.53
727.91	268.04
728.24	267.53
728.57	267.01
728.90	266.59
729.23	266.09
729.56	265.66
729.89	265.18
730.22	264.69
730.55	264.23
730.89	263.75
731.22	263.31
731.55	262.87
731.88	262.45
732.21	261.99
732.54	261.55
732.87	261.09
733.20	260.73
733.53	260.35
733.86	259.98
734.19	259.57
734.52	259.17
734.85	258.87
735.18	258.46
735.51	258.12
735.84	257.73
736.17	257.41
736.50	257.00
736.83	256.79
737.16	256.47
737.49	256.17
737.82	255.87
738.15	255.58
738.48	255.27
738.81	254.97
739.14	254.67
739.47	254.38
739.80	254.10
740.13	253.77
740.46	253.43
740.79	253.09
741.12	252.79
741.45	252.49
741.78	252.14
742.11	251.88
742.44	251.52
742.77	251.27
743.10	250.97
743.43	250.71
743.75	250.32
744.08	250.17
744.41	249.89
744.74	249.63
745.07	249.31
745.40	249.08
745.73	248.83
746.06	248.55
746.39	248.30
746.71	248.03
747.04	247.79
747.37	247.53
747.70	247.32
748.03	247.07
748.36	246.86
748.68	246.61
749.01	246.37
749.34	246.20
749.67	245.94
750.00	245.71
750.33	245.55
750.65	245.35
750.98	245.02
751.31	244.79
751.64	244.55
751.97	244.40
752.29	244.15
752.62	243.91
752.95	243.68
753.28	243.46
753.60	243.25
753.93	243.05
754.26	242.84
754.59	242.59
754.91	242.39
755.24	242.18
755.57	242.00
755.90	241.79
756.22	241.56
756.55	241.38
756.88	241.17
757.20	240.92
757.53	240.70
757.86	240.50
758.19	240.35
758.51	240.18
758.84	239.96
759.17	239.77
759.49	239.60
759.82	239.48
760.15	239.33
760.47	239.17
760.80	239.00
761.13	238.86
761.45	238.70
761.78	238.57
762.11	238.39
762.43	238.21
762.76	238.06
763.08	237.95
763.41	237.77
763.74	237.64
764.06	237.49
764.39	237.39
764.71	237.25
765.04	237.11
765.37	237.00
765.69	236.90
766.02	236.78
766.34	236.68
766.67	236.55
767.00	236.43
767.32	236.37
767.65	236.31
767.97	236.21
768.30	236.14
768.62	236.02
768.95	235.94
769.27	235.90
769.60	235.79
769.92	235.67
770.25	235.57
770.57	235.44
770.90	235.34
771.22	235.23
771.55	235.15
771.87	235.05
772.20	234.94
772.52	234.92
772.85	234.97
773.17	234.85
773.50	234.74
773.82	234.65
774.15	234.49
774.47	234.32
774.80	234.24
775.12	234.17
775.45	234.10
775.77	234.01
776.09	233.92
776.42	233.87
776.74	233.82
777.07	233.79
777.39	233.74
777.72	233.67
778.04	233.63
778.36	233.55
778.69	233.52
779.01	233.46
779.33	233.30
779.66	233.12
779.98	233.05
780.31	233.02
780.63	232.99
780.95	232.96
781.28	232.94
781.60	232.89
781.92	232.82
782.25	232.75
782.57	232.67
782.89	232.59
783.22	232.50
783.54	232.46
783.86	232.43
784.19	232.35
784.51	232.33
784.83	232.22
785.16	232.15
785.48	232.09
785.80	232.03
786.12	231.98
786.45	231.93
786.77	231.89
787.09	231.83
