SpectraSuite Data File
++++++++++++++++++++++++++++++++++++
Date: Fri Feb 01 16:25:07 EST 2013
User: group
Dark Spectrum Present: No
Reference Spectrum Present: No
Number of Sampled Component Spectra: 1
Spectrometers: USB2E7196
Integration Time (usec): 35000 (USB2E7196)
Spectra Averaged: 100 (USB2E7196)
Boxcar Smoothing: 10 (USB2E7196)
Correct for Electrical Dark: No (USB2E7196)
Strobe/Lamp Enabled: No (USB2E7196)
Correct for Detector Non-linearity: No (USB2E7196)
Correct for Stray Light: No (USB2E7196)
Number of Pixels in Processed Spectrum: 2048
>>>>>Begin Processed Spectral Data<<<<<
339.09	0.00
339.48	214.03
339.86	215.88
340.24	216.79
340.63	218.37
341.01	221.29
341.39	220.85
341.78	222.43
342.16	223.63
342.54	224.33
342.93	212.61
343.31	223.34
343.69	223.89
344.07	224.36
344.46	224.81
344.84	225.19
345.22	225.43
345.60	225.68
345.99	225.87
346.37	226.01
346.75	226.09
347.13	226.17
347.52	226.22
347.90	226.29
348.28	226.30
348.66	226.35
349.05	226.33
349.43	226.34
349.81	226.36
350.19	226.38
350.57	226.42
350.96	226.47
351.34	226.56
351.72	226.65
352.10	226.72
352.48	226.79
352.87	226.83
353.25	226.89
353.63	226.95
354.01	227.01
354.39	227.05
354.77	227.11
355.15	227.20
355.54	227.24
355.92	227.25
356.30	227.35
356.68	227.48
357.06	227.55
357.44	227.59
357.82	227.64
358.20	227.70
358.58	227.74
358.97	227.83
359.35	227.89
359.73	227.95
360.11	227.99
360.49	228.03
360.87	228.09
361.25	228.14
361.63	228.22
362.01	228.26
362.39	228.31
362.77	228.38
363.15	228.41
363.53	228.46
363.91	228.53
364.29	228.51
364.67	228.42
365.05	228.42
365.43	228.47
365.81	228.51
366.19	228.57
366.57	228.66
366.95	228.66
367.33	228.63
367.71	228.60
368.09	228.62
368.47	228.62
368.85	228.61
369.23	228.59
369.61	228.54
369.99	228.55
370.37	228.54
370.75	228.51
371.13	228.47
371.51	228.42
371.89	228.38
372.27	228.36
372.65	228.33
373.03	228.26
373.41	228.20
373.78	228.11
374.16	227.98
374.54	227.84
374.92	227.77
375.30	227.74
375.68	227.69
376.06	227.63
376.44	227.54
376.82	227.46
377.19	227.40
377.57	227.34
377.95	227.25
378.33	227.19
378.71	227.10
379.09	227.07
379.47	227.03
379.84	226.99
380.22	226.91
380.60	226.84
380.98	226.81
381.36	226.78
381.73	226.73
382.11	226.73
382.49	226.68
382.87	226.64
383.25	226.57
383.62	226.63
384.00	226.60
384.38	226.55
384.76	226.54
385.13	226.49
385.51	226.47
385.89	226.42
386.27	226.36
386.64	226.31
387.02	226.26
387.40	226.19
387.78	226.17
388.15	226.16
388.53	226.13
388.91	226.12
389.29	226.07
389.66	226.08
390.04	226.04
390.42	226.04
390.79	225.99
391.17	225.99
391.55	225.89
391.92	225.84
392.30	225.85
392.68	225.84
393.05	225.87
393.43	225.83
393.81	225.80
394.18	225.80
394.56	225.81
394.94	225.82
395.31	225.84
395.69	225.83
396.06	225.87
396.44	225.91
396.82	225.91
397.19	226.00
397.57	225.98
397.95	226.02
398.32	226.03
398.70	226.10
399.07	226.19
399.45	226.24
399.82	226.28
400.20	226.34
400.58	226.37
400.95	226.39
401.33	226.53
401.70	226.68
402.08	226.76
402.45	226.85
402.83	226.95
403.20	227.01
403.58	227.10
403.95	227.20
404.33	227.32
404.71	227.43
405.08	227.57
405.46	227.71
405.83	227.88
406.21	228.03
406.58	228.18
406.96	228.28
407.33	228.46
407.70	228.66
408.08	228.94
408.45	229.17
408.83	229.41
409.20	229.58
409.58	229.76
409.95	230.03
410.33	230.31
410.70	230.50
411.08	230.82
411.45	231.12
411.82	231.41
412.20	231.74
412.57	232.15
412.95	232.43
413.32	232.84
413.69	233.20
414.07	233.67
414.44	234.14
414.82	234.64
415.19	235.18
415.56	235.70
415.94	236.23
416.31	236.85
416.68	237.47
417.06	238.17
417.43	238.83
417.81	239.55
418.18	240.32
418.55	241.21
418.93	242.07
419.30	242.97
419.67	243.91
420.04	244.90
420.42	245.87
420.79	247.06
421.16	248.18
421.54	249.37
421.91	250.57
422.28	251.84
422.66	253.15
423.03	254.46
423.40	255.82
423.77	257.26
424.15	258.67
424.52	260.16
424.89	261.81
425.26	263.38
425.64	264.88
426.01	266.51
426.38	268.16
426.75	269.84
427.13	271.57
427.50	273.37
427.87	275.23
428.24	277.08
428.61	278.86
428.99	280.82
429.36	282.94
429.73	285.01
430.10	287.03
430.47	289.12
430.85	291.21
431.22	293.45
431.59	295.81
431.96	298.05
432.33	300.51
432.70	302.86
433.08	305.65
433.45	308.29
433.82	310.84
434.19	313.71
434.56	316.51
434.93	319.15
435.30	321.79
435.68	324.70
436.05	327.59
436.42	330.37
436.79	332.93
437.16	335.61
437.53	338.43
437.90	341.17
438.27	343.89
438.64	346.72
439.01	349.27
439.38	351.47
439.75	353.60
440.13	356.13
440.50	358.45
440.87	360.28
441.24	362.18
441.61	364.38
441.98	365.85
442.35	367.62
442.72	369.46
443.09	371.25
443.46	372.20
443.83	372.75
444.20	373.22
444.57	374.01
444.94	374.30
445.31	374.57
445.68	374.96
446.05	375.01
446.42	374.63
446.79	374.25
447.16	373.77
447.53	373.47
447.90	372.28
448.27	371.10
448.64	369.56
449.01	368.40
449.37	366.40
449.74	364.54
450.11	362.34
450.48	359.83
450.85	357.30
451.22	355.15
451.59	353.07
451.96	351.12
452.33	348.53
452.70	346.18
453.07	343.41
453.43	340.46
453.80	337.69
454.17	335.02
454.54	332.43
454.91	329.74
455.28	327.06
455.65	324.62
456.02	322.18
456.38	320.03
456.75	317.41
457.12	315.15
457.49	312.89
457.86	310.69
458.23	308.90
458.59	306.87
458.96	304.83
459.33	303.02
459.70	301.16
460.07	299.66
460.43	297.96
460.80	296.31
461.17	294.92
461.54	293.44
461.91	291.99
462.27	290.55
462.64	289.31
463.01	287.99
463.38	286.66
463.74	285.31
464.11	284.14
464.48	283.11
464.85	282.03
465.21	281.22
465.58	280.35
465.95	279.23
466.32	278.34
466.68	277.42
467.05	276.51
467.42	275.65
467.78	274.72
468.15	273.84
468.52	273.24
468.88	272.41
469.25	271.66
469.62	271.09
469.98	270.46
470.35	269.83
470.72	269.23
471.08	268.60
471.45	268.05
471.82	267.55
472.18	266.95
472.55	266.53
472.92	266.01
473.28	265.51
473.65	265.10
474.02	264.67
474.38	264.32
474.75	264.04
475.11	263.70
475.48	263.46
475.85	263.27
476.21	263.02
476.58	262.86
476.94	262.70
477.31	262.53
477.67	262.43
478.04	262.36
478.41	262.29
478.77	262.35
479.14	262.33
479.50	262.36
479.87	262.48
480.23	262.58
480.60	262.66
480.96	262.82
481.33	263.03
481.69	263.24
482.06	263.43
482.42	263.63
482.79	263.88
483.15	264.21
483.52	264.62
483.88	264.94
484.25	265.31
484.61	265.76
484.98	266.20
485.34	266.69
485.71	267.27
486.07	267.89
486.44	268.47
486.80	269.17
487.17	269.87
487.53	270.67
487.90	271.47
488.26	272.38
488.62	273.34
488.99	274.28
489.35	275.31
489.72	276.47
490.08	277.69
490.44	278.92
490.81	280.22
491.17	281.54
491.54	283.04
491.90	284.56
492.26	286.22
492.63	287.98
492.99	289.78
493.36	291.66
493.72	293.70
494.08	295.79
494.45	298.05
494.81	300.46
495.17	302.88
495.54	305.46
495.90	308.16
496.26	310.93
496.63	313.88
496.99	316.99
497.35	320.22
497.72	323.61
498.08	327.17
498.44	330.83
498.80	334.78
499.17	338.81
499.53	342.97
499.89	347.32
500.26	351.81
500.62	356.50
500.98	361.46
501.34	366.56
501.71	371.89
502.07	377.31
502.43	382.92
502.79	388.77
503.16	394.87
503.52	401.15
503.88	407.60
504.24	414.30
504.60	421.22
504.97	428.38
505.33	435.71
505.69	443.41
506.05	451.25
506.41	459.10
506.78	467.31
507.14	475.78
507.50	484.48
507.86	493.50
508.22	502.70
508.59	511.94
508.95	521.49
509.31	531.33
509.67	541.42
510.03	551.72
510.39	562.26
510.75	573.02
511.12	583.95
511.48	595.28
511.84	606.73
512.20	618.29
512.56	630.24
512.92	642.38
513.28	654.73
513.64	667.17
514.00	679.90
514.37	692.72
514.73	705.84
515.09	718.83
515.45	732.15
515.81	745.69
516.17	759.73
516.53	773.80
516.89	787.94
517.25	802.13
517.61	816.54
517.97	831.01
518.33	845.51
518.69	860.21
519.05	875.01
519.41	890.11
519.77	905.58
520.13	920.99
520.49	936.33
520.85	951.67
521.21	967.41
521.57	983.60
521.93	999.40
522.29	1015.64
522.65	1031.95
523.01	1048.06
523.37	1064.08
523.73	1080.10
524.09	1096.21
524.45	1112.47
524.81	1129.12
525.17	1145.79
525.53	1162.57
525.89	1179.31
526.25	1196.12
526.61	1212.60
526.97	1229.32
527.33	1245.75
527.68	1262.28
528.04	1278.70
528.40	1295.26
528.76	1312.17
529.12	1328.65
529.48	1345.37
529.84	1361.35
530.20	1377.82
530.56	1394.75
530.91	1412.07
531.27	1428.69
531.63	1445.09
531.99	1461.62
532.35	1477.48
532.71	1493.42
533.07	1509.65
533.42	1525.48
533.78	1541.52
534.14	1557.67
534.50	1572.93
534.86	1588.74
535.21	1603.86
535.57	1619.79
535.93	1635.22
536.29	1649.95
536.65	1664.99
537.00	1679.80
537.36	1695.14
537.72	1709.56
538.08	1723.92
538.44	1737.54
538.79	1751.48
539.15	1765.03
539.51	1778.63
539.87	1792.76
540.22	1806.41
540.58	1820.00
540.94	1833.22
541.29	1845.88
541.65	1858.49
542.01	1871.59
542.37	1883.78
542.72	1896.13
543.08	1907.69
543.44	1919.93
543.79	1931.04
544.15	1941.95
544.51	1953.43
544.87	1964.23
545.22	1975.02
545.58	1985.17
545.94	1994.99
546.29	2004.69
546.65	2014.56
547.01	2023.85
547.36	2032.56
547.72	2040.96
548.07	2048.79
548.43	2056.80
548.79	2064.91
549.14	2072.41
549.50	2079.58
549.86	2087.19
550.21	2094.54
550.57	2101.74
550.92	2108.25
551.28	2115.25
551.64	2122.29
551.99	2128.81
552.35	2134.91
552.70	2141.04
553.06	2147.03
553.41	2153.27
553.77	2159.27
554.13	2165.13
554.48	2171.27
554.84	2176.73
555.19	2181.90
555.55	2187.06
555.90	2191.58
556.26	2196.39
556.61	2201.07
556.97	2205.48
557.32	2209.56
557.68	2213.59
558.03	2217.80
558.39	2221.52
558.74	2226.22
559.10	2229.93
559.45	2233.54
559.81	2237.81
560.16	2241.77
560.52	2244.96
560.87	2248.35
561.23	2251.04
561.58	2254.13
561.94	2256.55
562.29	2258.85
562.64	2261.56
563.00	2264.10
563.35	2267.66
563.71	2270.81
564.06	2274.02
564.42	2276.96
564.77	2279.50
565.12	2281.72
565.48	2283.71
565.83	2285.68
566.19	2287.06
566.54	2288.08
566.89	2289.30
567.25	2289.97
567.60	2291.17
567.96	2292.98
568.31	2293.98
568.66	2295.32
569.02	2295.81
569.37	2296.16
569.72	2297.13
570.08	2297.41
570.43	2297.50
570.78	2296.99
571.14	2295.59
571.49	2294.34
571.84	2293.94
572.20	2292.79
572.55	2291.90
572.90	2290.39
573.26	2289.00
573.61	2287.31
573.96	2285.66
574.31	2282.68
574.67	2279.70
575.02	2276.12
575.37	2272.69
575.72	2268.87
576.08	2265.25
576.43	2262.04
576.78	2258.51
577.13	2255.38
577.49	2252.20
577.84	2248.80
578.19	2245.13
578.54	2241.42
578.90	2237.35
579.25	2231.80
579.60	2227.12
579.95	2222.26
580.30	2217.28
580.66	2212.32
581.01	2207.49
581.36	2202.58
581.71	2198.45
582.06	2193.96
582.42	2189.62
582.77	2184.44
583.12	2180.01
583.47	2175.49
583.82	2170.61
584.17	2165.37
584.53	2159.95
584.88	2154.39
585.23	2148.75
585.58	2143.28
585.93	2137.89
586.28	2133.15
586.63	2128.26
586.98	2123.17
587.34	2118.36
587.69	2113.54
588.04	2108.21
588.39	2102.51
588.74	2096.08
589.09	2090.04
589.44	2083.40
589.79	2077.41
590.14	2071.85
590.49	2065.30
590.84	2059.03
591.19	2053.13
591.54	2046.77
591.89	2039.47
592.25	2032.75
592.60	2025.51
592.95	2018.15
593.30	2010.89
593.65	2003.27
594.00	1996.23
594.35	1989.01
594.70	1981.09
595.05	1973.99
595.40	1966.73
595.75	1959.35
596.10	1953.21
596.45	1946.50
596.80	1940.47
597.15	1933.97
597.50	1926.86
597.85	1920.58
598.19	1913.89
598.54	1906.65
598.89	1900.00
599.24	1894.10
599.59	1887.38
599.94	1881.22
600.29	1874.77
600.64	1868.26
600.99	1860.80
601.34	1854.10
601.69	1847.18
602.04	1840.30
602.39	1832.97
602.74	1826.17
603.08	1819.30
603.43	1812.63
603.78	1805.29
604.13	1798.05
604.48	1790.69
604.83	1783.97
605.18	1776.86
605.53	1768.94
605.87	1761.09
606.22	1753.94
606.57	1746.12
606.92	1738.84
607.27	1731.75
607.62	1724.87
607.96	1717.55
608.31	1711.05
608.66	1703.33
609.01	1695.82
609.36	1688.18
609.70	1680.10
610.05	1672.13
610.40	1664.50
610.75	1656.16
611.10	1648.54
611.44	1640.04
611.79	1632.00
612.14	1623.33
612.49	1614.22
612.83	1605.86
613.18	1597.67
613.53	1589.53
613.88	1580.92
614.22	1572.70
614.57	1564.07
614.92	1556.10
615.27	1548.54
615.61	1540.18
615.96	1532.12
616.31	1524.40
616.65	1517.10
617.00	1509.63
617.35	1501.91
617.70	1493.66
618.04	1485.18
618.39	1476.95
618.74	1469.41
619.08	1461.08
619.43	1453.41
619.78	1446.51
620.12	1439.22
620.47	1431.78
620.82	1423.48
621.16	1416.11
621.51	1408.47
621.85	1400.91
622.20	1392.33
622.55	1383.90
622.89	1376.06
623.24	1368.36
623.59	1360.98
623.93	1353.46
624.28	1346.23
624.62	1338.66
624.97	1331.35
625.32	1324.55
625.66	1317.55
626.01	1310.41
626.35	1303.06
626.70	1295.31
627.04	1287.51
627.39	1279.86
627.73	1272.32
628.08	1265.54
628.43	1258.17
628.77	1250.78
629.12	1243.18
629.46	1236.08
629.81	1228.78
630.15	1221.52
630.50	1214.26
630.84	1206.19
631.19	1198.31
631.53	1190.79
631.88	1183.26
632.22	1175.73
632.57	1168.35
632.91	1160.81
633.26	1153.37
633.60	1145.96
633.95	1138.81
634.29	1131.76
634.64	1125.01
634.98	1117.67
635.32	1110.50
635.67	1103.89
636.01	1097.31
636.36	1090.43
636.70	1083.81
637.05	1077.19
637.39	1070.73
637.73	1064.16
638.08	1058.22
638.42	1052.16
638.77	1045.70
639.11	1038.98
639.45	1032.62
639.80	1025.99
640.14	1019.58
640.49	1013.06
640.83	1006.81
641.17	1000.58
641.52	994.23
641.86	987.74
642.20	981.88
642.55	975.60
642.89	969.15
643.23	962.58
643.58	956.82
643.92	950.65
644.26	944.51
644.61	938.52
644.95	932.46
645.29	925.82
645.64	919.05
645.98	912.69
646.32	906.91
646.66	900.89
647.01	895.18
647.35	889.38
647.69	883.52
648.04	877.97
648.38	872.25
648.72	866.29
649.06	860.26
649.41	854.42
649.75	848.36
650.09	842.43
650.43	836.63
650.78	830.48
651.12	824.57
651.46	818.88
651.80	813.09
652.14	807.71
652.49	802.32
652.83	797.19
653.17	791.45
653.51	785.76
653.85	780.23
654.20	774.51
654.54	768.55
654.88	762.87
655.22	756.99
655.56	751.32
655.90	745.89
656.25	740.66
656.59	735.26
656.93	730.23
657.27	725.07
657.61	719.60
657.95	714.54
658.29	709.47
658.64	704.21
658.98	698.90
659.32	693.45
659.66	688.31
660.00	683.04
660.34	678.22
660.68	673.33
661.02	668.42
661.36	663.74
661.70	659.28
662.05	654.94
662.39	650.60
662.73	646.08
663.07	641.74
663.41	637.26
663.75	632.79
664.09	628.22
664.43	623.82
664.77	619.77
665.11	615.47
665.45	611.35
665.79	607.27
666.13	603.15
666.47	599.09
666.81	594.85
667.15	590.71
667.49	586.77
667.83	582.93
668.17	578.97
668.51	574.88
668.85	570.78
669.19	566.85
669.53	563.07
669.87	559.17
670.21	555.46
670.55	551.85
670.89	548.41
671.23	545.01
671.57	541.44
671.91	537.89
672.25	534.37
672.58	530.77
672.92	527.40
673.26	524.20
673.60	521.05
673.94	517.98
674.28	515.02
674.62	512.03
674.96	508.95
675.30	506.04
675.64	503.11
675.97	500.37
676.31	497.53
676.65	494.52
676.99	491.83
677.33	488.91
677.67	486.08
678.01	483.05
678.34	480.06
678.68	477.23
679.02	474.39
679.36	471.60
679.70	468.91
680.04	466.08
680.37	463.17
680.71	460.32
681.05	457.69
681.39	454.94
681.73	452.23
682.06	449.71
682.40	447.14
682.74	444.60
683.08	442.02
683.42	439.39
683.75	436.86
684.09	434.25
684.43	431.83
684.77	429.34
685.10	427.00
685.44	424.66
685.78	422.34
686.12	420.08
686.45	417.83
686.79	415.52
687.13	413.33
687.46	411.19
687.80	409.06
688.14	406.83
688.48	404.78
688.81	402.55
689.15	400.33
689.49	398.15
689.82	396.03
690.16	393.94
690.50	391.96
690.83	390.03
691.17	388.12
691.51	386.18
691.84	384.32
692.18	382.35
692.52	380.35
692.85	378.40
693.19	376.54
693.52	374.69
693.86	372.88
694.20	371.08
694.53	369.29
694.87	367.47
695.21	365.69
695.54	363.83
695.88	362.13
696.21	360.41
696.55	358.72
696.88	357.05
697.22	355.40
697.56	353.78
697.89	352.13
698.23	350.51
698.56	348.91
698.90	347.35
699.23	345.72
699.57	344.17
699.90	342.67
700.24	341.16
700.58	339.67
700.91	338.15
701.25	336.72
701.58	335.32
701.92	333.95
702.25	332.59
702.59	331.27
702.92	329.96
703.26	328.69
703.59	327.41
703.93	326.22
704.26	325.00
704.60	323.69
704.93	322.40
705.26	321.14
705.60	319.94
705.93	318.80
706.27	317.73
706.60	316.67
706.94	315.55
707.27	314.38
707.61	313.29
707.94	312.29
708.27	311.21
708.61	310.15
708.94	309.16
709.28	308.16
709.61	307.21
709.94	306.23
710.28	305.19
710.61	304.26
710.95	303.19
711.28	302.25
711.61	301.33
711.95	300.40
712.28	299.47
712.61	298.46
712.95	297.47
713.28	296.64
713.61	295.77
713.95	294.89
714.28	294.05
714.61	293.18
714.95	292.29
715.28	291.41
715.61	290.56
715.95	289.63
716.28	288.79
716.61	287.96
716.95	287.13
717.28	286.37
717.61	285.59
717.94	284.88
718.28	284.08
718.61	283.35
718.94	282.68
719.27	282.00
719.61	281.40
719.94	280.77
720.27	280.02
720.60	279.34
720.94	278.71
721.27	278.13
721.60	277.55
721.93	276.98
722.27	276.45
722.60	275.86
722.93	275.31
723.26	274.79
723.59	274.17
723.93	273.60
724.26	273.05
724.59	272.51
724.92	271.98
725.25	271.47
725.59	270.95
725.92	270.45
726.25	269.93
726.58	269.44
726.91	268.93
727.24	268.48
727.57	268.03
727.91	267.52
728.24	267.02
728.57	266.51
728.90	266.06
729.23	265.55
729.56	265.14
729.89	264.68
730.22	264.17
730.55	263.72
730.89	263.31
731.22	262.86
731.55	262.41
731.88	261.98
732.21	261.56
732.54	261.11
732.87	260.67
733.20	260.28
733.53	259.89
733.86	259.50
734.19	259.06
734.52	258.70
734.85	258.38
735.18	257.99
735.51	257.62
735.84	257.23
736.17	256.90
736.50	256.49
736.83	256.25
737.16	255.93
737.49	255.62
737.82	255.26
738.15	254.96
738.48	254.57
738.81	254.27
739.14	253.94
739.47	253.61
739.80	253.32
740.13	253.02
740.46	252.69
740.79	252.37
741.12	252.05
741.45	251.71
741.78	251.41
742.11	251.13
742.44	250.84
742.77	250.57
743.10	250.28
743.43	249.98
743.75	249.60
744.08	249.42
744.41	249.14
744.74	248.87
745.07	248.56
745.40	248.37
745.73	248.14
746.06	247.85
746.39	247.61
746.71	247.34
747.04	247.07
747.37	246.79
747.70	246.55
748.03	246.35
748.36	246.09
748.68	245.82
749.01	245.53
749.34	245.29
749.67	245.05
750.00	244.80
750.33	244.66
750.65	244.47
750.98	244.18
751.31	243.97
751.64	243.81
751.97	243.68
752.29	243.46
752.62	243.18
752.95	242.98
753.28	242.76
753.60	242.56
753.93	242.39
754.26	242.18
754.59	241.96
754.91	241.72
755.24	241.55
755.57	241.36
755.90	241.17
756.22	240.98
756.55	240.76
756.88	240.56
757.20	240.31
757.53	240.08
757.86	239.88
758.19	239.72
758.51	239.52
758.84	239.26
759.17	239.09
759.49	238.91
759.82	238.80
760.15	238.63
760.47	238.47
760.80	238.25
761.13	238.17
761.45	238.02
761.78	237.86
762.11	237.73
762.43	237.57
762.76	237.45
763.08	237.31
763.41	237.19
763.74	237.07
764.06	236.93
764.39	236.80
764.71	236.67
765.04	236.52
765.37	236.36
765.69	236.22
766.02	236.06
766.34	235.97
766.67	235.78
767.00	235.69
767.32	235.62
767.65	235.59
767.97	235.43
768.30	235.31
768.62	235.20
768.95	235.07
769.27	234.94
769.60	234.84
769.92	234.74
770.25	234.60
770.57	234.46
770.90	234.33
771.22	234.19
771.55	234.06
771.87	233.95
772.20	233.86
772.52	233.90
772.85	233.93
773.17	233.80
773.50	233.68
773.82	233.58
774.15	233.41
774.47	233.25
774.80	233.16
775.12	233.08
775.45	232.99
775.77	232.90
776.09	232.84
776.42	232.75
776.74	232.71
777.07	232.62
777.39	232.56
777.72	232.51
778.04	232.47
778.36	232.41
778.69	232.35
779.01	232.32
779.33	232.13
779.66	231.93
779.98	231.86
780.31	231.83
780.63	231.80
780.95	231.81
781.28	231.74
781.60	231.68
781.92	231.59
782.25	231.53
782.57	231.49
782.89	231.42
783.22	231.38
783.54	231.27
783.86	231.23
784.19	231.16
784.51	231.17
784.83	231.10
785.16	231.05
785.48	231.01
785.80	230.94
786.12	230.91
786.45	230.86
786.77	230.82
787.09	230.78
