SpectraSuite Data File
++++++++++++++++++++++++++++++++++++
Date: Fri Feb 01 14:57:45 EST 2013
User: group
Dark Spectrum Present: No
Reference Spectrum Present: No
Number of Sampled Component Spectra: 1
Spectrometers: USB2E7196
Integration Time (usec): 35000 (USB2E7196)
Spectra Averaged: 100 (USB2E7196)
Boxcar Smoothing: 10 (USB2E7196)
Correct for Electrical Dark: No (USB2E7196)
Strobe/Lamp Enabled: No (USB2E7196)
Correct for Detector Non-linearity: No (USB2E7196)
Correct for Stray Light: No (USB2E7196)
Number of Pixels in Processed Spectrum: 2048
>>>>>Begin Processed Spectral Data<<<<<
339.09	0.00
339.48	215.37
339.86	216.72
340.24	218.58
340.63	219.43
341.01	222.71
341.39	222.14
341.78	223.57
342.16	224.67
342.54	225.35
342.93	213.55
343.31	224.35
343.69	224.90
344.07	225.37
344.46	225.77
344.84	226.16
345.22	226.38
345.60	226.64
345.99	226.84
346.37	226.98
346.75	227.10
347.13	227.15
347.52	227.24
347.90	227.32
348.28	227.36
348.66	227.43
349.05	227.44
349.43	227.51
349.81	227.57
350.19	227.65
350.57	227.70
350.96	227.79
351.34	227.87
351.72	227.96
352.10	228.04
352.48	228.10
352.87	228.13
353.25	228.23
353.63	228.31
354.01	228.39
354.39	228.46
354.77	228.51
355.15	228.64
355.54	228.70
355.92	228.80
356.30	228.87
356.68	229.00
357.06	229.08
357.44	229.10
357.82	229.16
358.20	229.22
358.58	229.30
358.97	229.36
359.35	229.43
359.73	229.52
360.11	229.59
360.49	229.65
360.87	229.73
361.25	229.75
361.63	229.79
362.01	229.83
362.39	229.86
362.77	229.91
363.15	229.93
363.53	229.95
363.91	229.92
364.29	229.93
364.67	229.85
365.05	229.85
365.43	229.87
365.81	229.87
366.19	229.89
366.57	229.90
366.95	229.89
367.33	229.86
367.71	229.78
368.09	229.74
368.47	229.69
368.85	229.65
369.23	229.64
369.61	229.59
369.99	229.59
370.37	229.56
370.75	229.54
371.13	229.48
371.51	229.39
371.89	229.35
372.27	229.30
372.65	229.21
373.03	229.17
373.41	229.13
373.78	229.06
374.16	228.93
374.54	228.81
374.92	228.73
375.30	228.65
375.68	228.56
376.06	228.56
376.44	228.51
376.82	228.46
377.19	228.37
377.57	228.29
377.95	228.15
378.33	228.07
378.71	227.96
379.09	227.85
379.47	227.84
379.84	227.75
380.22	227.66
380.60	227.59
380.98	227.48
381.36	227.38
381.73	227.28
382.11	227.26
382.49	227.19
382.87	227.13
383.25	227.04
383.62	227.10
384.00	226.96
384.38	226.89
384.76	226.82
385.13	226.80
385.51	226.76
385.89	226.69
386.27	226.65
386.64	226.59
387.02	226.55
387.40	226.48
387.78	226.42
388.15	226.40
388.53	226.33
388.91	226.30
389.29	226.28
389.66	226.25
390.04	226.23
390.42	226.24
390.79	226.21
391.17	226.23
391.55	226.13
391.92	226.12
392.30	226.14
392.68	226.13
393.05	226.15
393.43	226.16
393.81	226.19
394.18	226.19
394.56	226.22
394.94	226.27
395.31	226.29
395.69	226.35
396.06	226.38
396.44	226.44
396.82	226.49
397.19	226.55
397.57	226.66
397.95	226.74
398.32	226.78
398.70	226.83
399.07	226.92
399.45	227.00
399.82	227.08
400.20	227.14
400.58	227.23
400.95	227.28
401.33	227.38
401.70	227.56
402.08	227.65
402.45	227.75
402.83	227.89
403.20	228.02
403.58	228.16
403.95	228.34
404.33	228.53
404.71	228.67
405.08	228.92
405.46	229.01
405.83	229.18
406.21	229.35
406.58	229.57
406.96	229.74
407.33	229.93
407.70	230.12
408.08	230.41
408.45	230.65
408.83	230.86
409.20	231.06
409.58	231.23
409.95	231.51
410.33	231.81
410.70	232.05
411.08	232.38
411.45	232.64
411.82	232.94
412.20	233.29
412.57	233.70
412.95	233.94
413.32	234.35
413.69	234.74
414.07	235.17
414.44	235.61
414.82	236.10
415.19	236.63
415.56	237.22
415.94	237.76
416.31	238.37
416.68	239.02
417.06	239.74
417.43	240.41
417.81	241.17
418.18	241.94
418.55	242.76
418.93	243.61
419.30	244.54
419.67	245.44
420.04	246.39
420.42	247.35
420.79	248.55
421.16	249.73
421.54	250.92
421.91	252.13
422.28	253.41
422.66	254.72
423.03	256.04
423.40	257.36
423.77	258.75
424.15	260.18
424.52	261.62
424.89	263.24
425.26	264.81
425.64	266.26
426.01	267.86
426.38	269.50
426.75	271.17
427.13	272.88
427.50	274.71
427.87	276.58
428.24	278.45
428.61	280.18
428.99	282.11
429.36	284.17
429.73	286.23
430.10	288.26
430.47	290.30
430.85	292.40
431.22	294.60
431.59	297.01
431.96	299.21
432.33	301.72
432.70	304.07
433.08	306.88
433.45	309.52
433.82	312.09
434.19	315.04
434.56	317.84
434.93	320.49
435.30	323.10
435.68	325.98
436.05	328.80
436.42	331.60
436.79	334.15
437.16	336.86
437.53	339.73
437.90	342.54
438.27	345.32
438.64	348.16
439.01	350.80
439.38	353.03
439.75	355.24
440.13	357.77
440.50	360.11
440.87	361.92
441.24	363.88
441.61	366.07
441.98	367.53
442.35	369.38
442.72	371.23
443.09	373.06
443.46	374.08
443.83	374.69
444.20	375.20
444.57	376.05
444.94	376.39
445.31	376.72
445.68	377.04
446.05	377.10
446.42	376.73
446.79	376.31
447.16	375.91
447.53	375.59
447.90	374.44
448.27	373.32
448.64	371.79
449.01	370.64
449.37	368.66
449.74	366.80
450.11	364.54
450.48	362.11
450.85	359.56
451.22	357.44
451.59	355.40
451.96	353.48
452.33	350.88
452.70	348.47
453.07	345.66
453.43	342.81
453.80	340.06
454.17	337.36
454.54	334.79
454.91	332.04
455.28	329.34
455.65	326.84
456.02	324.38
456.38	322.25
456.75	319.60
457.12	317.37
457.49	315.13
457.86	312.94
458.23	311.05
458.59	309.00
458.96	306.91
459.33	305.03
459.70	303.14
460.07	301.62
460.43	299.91
460.80	298.25
461.17	296.80
461.54	295.29
461.91	293.89
462.27	292.47
462.64	291.20
463.01	289.89
463.38	288.63
463.74	287.21
464.11	286.01
464.48	284.95
464.85	283.83
465.21	282.95
465.58	282.04
465.95	280.95
466.32	280.03
466.68	279.10
467.05	278.22
467.42	277.35
467.78	276.36
468.15	275.46
468.52	274.80
468.88	273.90
469.25	273.12
469.62	272.46
469.98	271.73
470.35	271.10
470.72	270.43
471.08	269.73
471.45	269.19
471.82	268.65
472.18	268.04
472.55	267.56
472.92	266.99
473.28	266.48
473.65	266.01
474.02	265.58
474.38	265.19
474.75	264.85
475.11	264.48
475.48	264.22
475.85	263.99
476.21	263.75
476.58	263.55
476.94	263.37
477.31	263.21
477.67	263.08
478.04	262.95
478.41	262.87
478.77	262.89
479.14	262.82
479.50	262.81
479.87	262.88
480.23	262.96
480.60	263.05
480.96	263.15
481.33	263.35
481.69	263.54
482.06	263.72
482.42	263.91
482.79	264.16
483.15	264.44
483.52	264.84
483.88	265.14
484.25	265.55
484.61	265.98
484.98	266.42
485.34	266.91
485.71	267.47
486.07	268.12
486.44	268.65
486.80	269.36
487.17	270.07
487.53	270.86
487.90	271.73
488.26	272.65
488.62	273.63
488.99	274.59
489.35	275.59
489.72	276.73
490.08	277.91
490.44	279.13
490.81	280.45
491.17	281.77
491.54	283.26
491.90	284.76
492.26	286.41
492.63	288.13
492.99	289.92
493.36	291.81
493.72	293.84
494.08	295.96
494.45	298.20
494.81	300.51
495.17	302.97
495.54	305.51
495.90	308.18
496.26	310.94
496.63	313.85
496.99	316.95
497.35	320.17
497.72	323.59
498.08	327.11
498.44	330.78
498.80	334.69
499.17	338.68
499.53	342.82
499.89	347.16
500.26	351.64
500.62	356.34
500.98	361.25
501.34	366.29
501.71	371.64
502.07	377.10
502.43	382.74
502.79	388.50
503.16	394.56
503.52	400.84
503.88	407.24
504.24	413.86
504.60	420.76
504.97	427.87
505.33	435.18
505.69	442.85
506.05	450.63
506.41	458.44
506.78	466.60
507.14	474.99
507.50	483.72
507.86	492.70
508.22	501.84
508.59	511.05
508.95	520.59
509.31	530.30
509.67	540.36
510.03	550.59
510.39	561.12
510.75	571.85
511.12	582.73
511.48	594.00
511.84	605.42
512.20	616.90
512.56	628.84
512.92	640.99
513.28	653.31
513.64	665.77
514.00	678.49
514.37	691.39
514.73	704.51
515.09	717.57
515.45	730.88
515.81	744.48
516.17	758.46
516.53	772.60
516.89	786.79
517.25	800.95
517.61	815.44
517.97	829.87
518.33	844.28
518.69	859.07
519.05	874.17
519.41	889.40
519.77	904.98
520.13	920.46
520.49	935.83
520.85	951.28
521.21	966.98
521.57	983.28
521.93	999.18
522.29	1015.63
522.65	1031.92
523.01	1048.08
523.37	1064.08
523.73	1080.32
524.09	1096.49
524.45	1112.90
524.81	1129.63
525.17	1146.45
525.53	1163.50
525.89	1180.48
526.25	1197.46
526.61	1213.85
526.97	1230.62
527.33	1247.15
527.68	1263.82
528.04	1280.52
528.40	1297.19
528.76	1314.37
529.12	1331.07
529.48	1347.93
529.84	1363.98
530.20	1380.68
530.56	1397.90
530.91	1415.48
531.27	1432.36
531.63	1448.90
531.99	1465.58
532.35	1481.53
532.71	1497.56
533.07	1513.88
533.42	1529.81
533.78	1545.82
534.14	1562.09
534.50	1577.51
534.86	1593.47
535.21	1608.68
535.57	1624.64
535.93	1640.27
536.29	1655.25
536.65	1670.39
537.00	1685.33
537.36	1700.74
537.72	1715.47
538.08	1729.83
538.44	1743.60
538.79	1757.62
539.15	1771.39
539.51	1785.18
539.87	1799.66
540.22	1813.30
540.58	1827.23
540.94	1840.71
541.29	1853.85
541.65	1866.77
542.01	1880.24
542.37	1892.77
542.72	1905.37
543.08	1917.30
543.44	1929.78
543.79	1940.94
544.15	1951.96
544.51	1963.50
544.87	1974.52
545.22	1985.22
545.58	1995.59
545.94	2005.62
546.29	2015.47
546.65	2025.28
547.01	2034.56
547.36	2043.52
547.72	2052.24
548.07	2060.02
548.43	2068.28
548.79	2076.28
549.14	2083.70
549.50	2091.08
549.86	2098.75
550.21	2106.07
550.57	2113.12
550.92	2119.62
551.28	2126.82
551.64	2133.85
551.99	2140.53
552.35	2146.71
552.70	2152.82
553.06	2158.79
553.41	2164.98
553.77	2170.94
554.13	2177.08
554.48	2183.29
554.84	2188.53
555.19	2193.73
555.55	2198.90
555.90	2203.33
556.26	2208.02
556.61	2212.80
556.97	2216.84
557.32	2220.98
557.68	2225.07
558.03	2229.43
558.39	2233.18
558.74	2237.63
559.10	2241.51
559.45	2245.05
559.81	2249.34
560.16	2253.08
560.52	2256.21
560.87	2259.62
561.23	2262.30
561.58	2265.23
561.94	2267.45
562.29	2269.85
562.64	2272.47
563.00	2275.01
563.35	2278.46
563.71	2281.58
564.06	2284.61
564.42	2287.48
564.77	2289.57
565.12	2291.75
565.48	2293.36
565.83	2295.01
566.19	2296.32
566.54	2297.26
566.89	2298.26
567.25	2298.56
567.60	2299.95
567.96	2301.57
568.31	2302.18
568.66	2303.05
569.02	2303.39
569.37	2303.68
569.72	2304.23
570.08	2304.08
570.43	2303.88
570.78	2303.10
571.14	2301.32
571.49	2299.87
571.84	2299.21
572.20	2297.92
572.55	2296.63
572.90	2294.97
573.26	2293.46
573.61	2291.55
573.96	2289.38
574.31	2286.25
574.67	2283.18
575.02	2279.23
575.37	2275.68
575.72	2271.69
576.08	2268.27
576.43	2264.80
576.78	2260.98
577.13	2257.62
577.49	2254.41
577.84	2250.77
578.19	2246.86
578.54	2243.09
578.90	2238.70
579.25	2233.11
579.60	2227.99
579.95	2222.73
580.30	2217.58
580.66	2212.25
581.01	2207.10
581.36	2202.06
581.71	2197.63
582.06	2192.98
582.42	2188.34
582.77	2182.93
583.12	2178.33
583.47	2173.32
583.82	2168.13
584.17	2162.70
584.53	2157.10
584.88	2151.36
585.23	2145.41
585.58	2139.88
585.93	2134.32
586.28	2129.37
586.63	2124.19
586.98	2119.07
587.34	2114.40
587.69	2109.27
588.04	2103.80
588.39	2097.96
588.74	2091.50
589.09	2085.18
589.44	2078.21
589.79	2072.16
590.14	2066.42
590.49	2059.59
590.84	2053.11
591.19	2046.87
591.54	2040.35
591.89	2032.88
592.25	2025.97
592.60	2018.58
592.95	2010.71
593.30	2003.18
593.65	1995.53
594.00	1988.38
594.35	1981.10
594.70	1972.90
595.05	1965.63
595.40	1958.36
595.75	1950.81
596.10	1944.40
596.45	1937.59
596.80	1931.40
597.15	1924.51
597.50	1917.33
597.85	1910.83
598.19	1904.14
598.54	1897.14
598.89	1890.43
599.24	1884.48
599.59	1877.71
599.94	1871.55
600.29	1865.25
600.64	1858.72
600.99	1851.22
601.34	1844.27
601.69	1837.22
602.04	1830.27
602.39	1822.99
602.74	1816.11
603.08	1809.50
603.43	1802.76
603.78	1795.41
604.13	1788.19
604.48	1780.81
604.83	1773.83
605.18	1766.85
605.53	1758.89
605.87	1750.85
606.22	1743.54
606.57	1735.62
606.92	1728.23
607.27	1721.04
607.62	1714.10
607.96	1706.76
608.31	1700.05
608.66	1692.47
609.01	1684.89
609.36	1677.28
609.70	1669.29
610.05	1661.18
610.40	1653.29
610.75	1644.86
611.10	1637.35
611.44	1629.06
611.79	1621.27
612.14	1612.71
612.49	1603.72
612.83	1595.37
613.18	1587.28
613.53	1579.34
613.88	1570.80
614.22	1562.56
614.57	1554.13
614.92	1546.14
615.27	1538.64
615.61	1530.43
615.96	1522.42
616.31	1514.89
616.65	1507.54
617.00	1499.93
617.35	1492.37
617.70	1484.06
618.04	1475.69
618.39	1467.50
618.74	1459.91
619.08	1451.62
619.43	1444.09
619.78	1437.17
620.12	1429.99
620.47	1422.53
620.82	1414.35
621.16	1407.03
621.51	1399.61
621.85	1392.02
622.20	1383.50
622.55	1375.20
622.89	1367.34
623.24	1359.85
623.59	1352.46
623.93	1345.10
624.28	1337.94
624.62	1330.46
624.97	1323.34
625.32	1316.75
625.66	1309.69
626.01	1302.43
626.35	1295.10
626.70	1287.44
627.04	1279.72
627.39	1272.07
627.73	1264.67
628.08	1257.85
628.43	1250.40
628.77	1243.00
629.12	1235.37
629.46	1228.27
629.81	1220.99
630.15	1214.00
630.50	1206.62
630.84	1198.48
631.19	1190.58
631.53	1183.05
631.88	1175.60
632.22	1168.17
632.57	1160.90
632.91	1153.51
633.26	1146.23
633.60	1138.90
633.95	1131.87
634.29	1124.94
634.64	1118.28
634.98	1110.95
635.32	1103.83
635.67	1097.53
636.01	1090.95
636.36	1084.21
636.70	1077.80
637.05	1071.19
637.39	1064.63
637.73	1058.17
638.08	1052.41
638.42	1046.52
638.77	1040.19
639.11	1033.64
639.45	1027.23
639.80	1020.55
640.14	1014.14
640.49	1007.55
640.83	1001.31
641.17	995.11
641.52	988.73
641.86	982.42
642.20	976.67
642.55	970.43
642.89	963.92
643.23	957.45
643.58	951.70
643.92	945.52
644.26	939.45
644.61	933.57
644.95	927.57
645.29	920.95
645.64	914.20
645.98	907.95
646.32	902.09
646.66	896.20
647.01	890.49
647.35	884.81
647.69	879.08
648.04	873.53
648.38	867.75
648.72	861.82
649.06	855.73
649.41	849.90
649.75	843.92
650.09	837.99
650.43	832.24
650.78	826.12
651.12	820.23
651.46	814.49
651.80	808.65
652.14	803.32
652.49	798.03
652.83	792.91
653.17	787.21
653.51	781.55
653.85	776.11
654.20	770.45
654.54	764.50
654.88	758.83
655.22	753.02
655.56	747.30
655.90	741.85
656.25	736.61
656.59	731.26
656.93	726.18
657.27	721.03
657.61	715.58
657.95	710.49
658.29	705.43
658.64	700.25
658.98	695.06
659.32	689.58
659.66	684.35
660.00	679.05
660.34	674.16
660.68	669.28
661.02	664.24
661.36	659.55
661.70	655.03
662.05	650.72
662.39	646.41
662.73	642.11
663.07	637.81
663.41	633.35
663.75	628.84
664.09	624.35
664.43	620.04
664.77	616.00
665.11	611.80
665.45	607.67
665.79	603.76
666.13	599.64
666.47	595.62
666.81	591.52
667.15	587.47
667.49	583.66
667.83	579.87
668.17	575.97
668.51	571.93
668.85	568.00
669.19	564.16
669.53	560.33
669.87	556.43
670.21	552.77
670.55	549.23
670.89	545.82
671.23	542.46
671.57	538.95
671.91	535.43
672.25	532.05
672.58	528.63
672.92	525.19
673.26	522.11
673.60	518.98
673.94	515.89
674.28	513.02
674.62	510.05
674.96	506.95
675.30	504.05
675.64	501.15
675.97	498.41
676.31	495.54
676.65	492.65
676.99	489.98
677.33	487.11
677.67	484.28
678.01	481.30
678.34	478.23
678.68	475.39
679.02	472.60
679.36	469.80
679.70	467.06
680.04	464.29
680.37	461.41
680.71	458.61
681.05	456.04
681.39	453.33
681.73	450.66
682.06	448.19
682.40	445.70
682.74	443.22
683.08	440.71
683.42	438.14
683.75	435.69
684.09	433.11
684.43	430.69
684.77	428.31
685.10	425.97
685.44	423.77
685.78	421.53
686.12	419.30
686.45	417.04
686.79	414.79
687.13	412.68
687.46	410.56
687.80	408.43
688.14	406.25
688.48	404.19
688.81	401.98
689.15	399.85
689.49	397.73
689.82	395.67
690.16	393.61
690.50	391.63
690.83	389.68
691.17	387.74
691.51	385.85
691.84	384.00
692.18	382.09
692.52	380.14
692.85	378.24
693.19	376.36
693.52	374.54
693.86	372.72
694.20	370.89
694.53	369.08
694.87	367.28
695.21	365.52
695.54	363.70
695.88	362.01
696.21	360.24
696.55	358.56
696.88	356.88
697.22	355.21
697.56	353.63
697.89	351.99
698.23	350.39
698.56	348.80
698.90	347.21
699.23	345.54
699.57	343.97
699.90	342.40
700.24	340.89
700.58	339.37
700.91	337.88
701.25	336.41
701.58	335.05
701.92	333.71
702.25	332.35
702.59	331.04
702.92	329.70
703.26	328.47
703.59	327.16
703.93	325.99
704.26	324.79
704.60	323.54
704.93	322.30
705.26	321.08
705.60	319.93
705.93	318.78
706.27	317.82
706.60	316.77
706.94	315.76
707.27	314.68
707.61	313.64
707.94	312.68
708.27	311.65
708.61	310.60
708.94	309.57
709.28	308.59
709.61	307.61
709.94	306.68
710.28	305.70
710.61	304.74
710.95	303.68
711.28	302.76
711.61	301.81
711.95	300.91
712.28	299.98
712.61	298.99
712.95	298.09
713.28	297.19
713.61	296.29
713.95	295.39
714.28	294.50
714.61	293.64
714.95	292.77
715.28	291.92
715.61	291.06
715.95	290.21
716.28	289.38
716.61	288.57
716.95	287.78
717.28	287.03
717.61	286.30
717.94	285.58
718.28	284.80
718.61	284.08
718.94	283.41
719.27	282.81
719.61	282.16
719.94	281.49
720.27	280.76
720.60	280.09
720.94	279.48
721.27	278.90
721.60	278.35
721.93	277.77
722.27	277.23
722.60	276.68
722.93	276.13
723.26	275.58
723.59	275.05
723.93	274.48
724.26	273.92
724.59	273.39
724.92	272.87
725.25	272.37
725.59	271.88
725.92	271.33
726.25	270.82
726.58	270.36
726.91	269.88
727.24	269.44
727.57	268.97
727.91	268.47
728.24	268.01
728.57	267.52
728.90	267.06
729.23	266.58
729.56	266.15
729.89	265.67
730.22	265.19
730.55	264.68
730.89	264.25
731.22	263.80
731.55	263.36
731.88	262.93
732.21	262.45
732.54	261.97
732.87	261.57
733.20	261.12
733.53	260.71
733.86	260.36
734.19	259.97
734.52	259.60
734.85	259.29
735.18	258.90
735.51	258.52
735.84	258.16
736.17	257.79
736.50	257.40
736.83	257.15
737.16	256.84
737.49	256.57
737.82	256.20
738.15	255.87
738.48	255.53
738.81	255.22
739.14	254.92
739.47	254.64
739.80	254.31
740.13	254.01
740.46	253.68
740.79	253.32
741.12	253.01
741.45	252.71
741.78	252.34
742.11	252.04
742.44	251.73
742.77	251.43
743.10	251.12
743.43	250.82
743.75	250.46
744.08	250.31
744.41	250.04
744.74	249.78
745.07	249.48
745.40	249.21
745.73	249.00
746.06	248.75
746.39	248.50
746.71	248.27
747.04	248.02
747.37	247.77
747.70	247.54
748.03	247.27
748.36	247.05
748.68	246.83
749.01	246.59
749.34	246.37
749.67	246.15
750.00	245.92
750.33	245.78
750.65	245.57
750.98	245.25
751.31	245.00
751.64	244.81
751.97	244.67
752.29	244.48
752.62	244.19
752.95	243.95
753.28	243.73
753.60	243.48
753.93	243.31
754.26	243.12
754.59	242.91
754.91	242.72
755.24	242.54
755.57	242.35
755.90	242.19
756.22	241.99
756.55	241.81
756.88	241.65
757.20	241.43
757.53	241.23
757.86	241.06
758.19	240.91
758.51	240.69
758.84	240.48
759.17	240.31
759.49	240.16
759.82	240.05
760.15	239.90
760.47	239.79
760.80	239.59
761.13	239.43
761.45	239.28
761.78	239.15
762.11	239.01
762.43	238.84
762.76	238.69
763.08	238.55
763.41	238.39
763.74	238.22
764.06	238.07
764.39	237.94
764.71	237.81
765.04	237.65
765.37	237.55
765.69	237.40
766.02	237.24
766.34	237.10
766.67	236.96
767.00	236.85
767.32	236.76
767.65	236.72
767.97	236.59
768.30	236.47
768.62	236.31
768.95	236.17
769.27	236.08
769.60	235.98
769.92	235.88
770.25	235.80
770.57	235.72
770.90	235.61
771.22	235.49
771.55	235.38
771.87	235.30
772.20	235.18
772.52	235.19
772.85	235.21
773.17	235.12
773.50	235.03
773.82	234.92
774.15	234.80
774.47	234.65
774.80	234.56
775.12	234.43
775.45	234.38
775.77	234.28
776.09	234.19
776.42	234.11
776.74	234.02
777.07	233.90
777.39	233.82
777.72	233.73
778.04	233.67
778.36	233.57
778.69	233.48
779.01	233.44
779.33	233.27
779.66	233.10
779.98	233.03
780.31	232.96
780.63	232.94
780.95	232.90
781.28	232.84
781.60	232.78
781.92	232.76
782.25	232.67
782.57	232.64
782.89	232.57
783.22	232.49
783.54	232.41
783.86	232.35
784.19	232.30
784.51	232.29
784.83	232.23
785.16	232.20
785.48	232.17
785.80	232.11
786.12	232.08
786.45	232.03
786.77	231.98
787.09	231.91
