SpectraSuite Data File
++++++++++++++++++++++++++++++++++++
Date: Fri Feb 01 17:40:16 EST 2013
User: group
Dark Spectrum Present: No
Reference Spectrum Present: No
Number of Sampled Component Spectra: 1
Spectrometers: USB2E7196
Integration Time (usec): 35000 (USB2E7196)
Spectra Averaged: 100 (USB2E7196)
Boxcar Smoothing: 10 (USB2E7196)
Correct for Electrical Dark: No (USB2E7196)
Strobe/Lamp Enabled: No (USB2E7196)
Correct for Detector Non-linearity: No (USB2E7196)
Correct for Stray Light: No (USB2E7196)
Number of Pixels in Processed Spectrum: 2048
>>>>>Begin Processed Spectral Data<<<<<
339.09	0.00
339.48	213.03
339.86	214.47
340.24	215.87
340.63	217.63
341.01	220.36
341.39	220.12
341.78	220.81
342.16	222.68
342.54	222.28
342.93	211.44
343.31	222.12
343.69	222.67
344.07	223.16
344.46	223.60
344.84	223.95
345.22	224.16
345.60	224.42
345.99	224.63
346.37	224.76
346.75	224.89
347.13	224.96
347.52	225.04
347.90	225.12
348.28	225.14
348.66	225.20
349.05	225.21
349.43	225.24
349.81	225.25
350.19	225.29
350.57	225.32
350.96	225.37
351.34	225.44
351.72	225.51
352.10	225.58
352.48	225.60
352.87	225.70
353.25	225.76
353.63	225.82
354.01	225.88
354.39	225.93
354.77	225.99
355.15	226.07
355.54	226.11
355.92	226.14
356.30	226.21
356.68	226.33
357.06	226.38
357.44	226.43
357.82	226.51
358.20	226.56
358.58	226.63
358.97	226.67
359.35	226.76
359.73	226.80
360.11	226.83
360.49	226.90
360.87	226.89
361.25	226.94
361.63	227.02
362.01	227.06
362.39	227.08
362.77	227.12
363.15	227.15
363.53	227.17
363.91	227.18
364.29	227.19
364.67	227.10
365.05	227.12
365.43	227.10
365.81	227.10
366.19	227.14
366.57	227.19
366.95	227.22
367.33	227.16
367.71	227.16
368.09	227.18
368.47	227.15
368.85	227.14
369.23	227.11
369.61	227.03
369.99	227.04
370.37	227.02
370.75	227.07
371.13	227.00
371.51	226.94
371.89	226.90
372.27	226.88
372.65	226.84
373.03	226.81
373.41	226.76
373.78	226.73
374.16	226.65
374.54	226.54
374.92	226.45
375.30	226.41
375.68	226.31
376.06	226.23
376.44	226.17
376.82	226.13
377.19	226.08
377.57	226.00
377.95	225.90
378.33	225.84
378.71	225.69
379.09	225.64
379.47	225.59
379.84	225.51
380.22	225.43
380.60	225.34
380.98	225.24
381.36	225.19
381.73	225.10
382.11	225.05
382.49	224.98
382.87	224.93
383.25	224.89
383.62	224.99
384.00	224.93
384.38	224.91
384.76	224.85
385.13	224.84
385.51	224.79
385.89	224.71
386.27	224.65
386.64	224.63
387.02	224.57
387.40	224.53
387.78	224.51
388.15	224.47
388.53	224.46
388.91	224.46
389.29	224.40
389.66	224.39
390.04	224.35
390.42	224.37
390.79	224.36
391.17	224.32
391.55	224.16
391.92	224.15
392.30	224.13
392.68	224.10
393.05	224.09
393.43	224.12
393.81	224.13
394.18	224.14
394.56	224.15
394.94	224.19
395.31	224.19
395.69	224.23
396.06	224.29
396.44	224.32
396.82	224.33
397.19	224.43
397.57	224.43
397.95	224.47
398.32	224.46
398.70	224.51
399.07	224.58
399.45	224.66
399.82	224.73
400.20	224.76
400.58	224.84
400.95	224.86
401.33	224.94
401.70	225.10
402.08	225.18
402.45	225.25
402.83	225.36
403.20	225.49
403.58	225.59
403.95	225.68
404.33	225.80
404.71	225.92
405.08	226.11
405.46	226.28
405.83	226.44
406.21	226.61
406.58	226.78
406.96	226.96
407.33	227.14
407.70	227.34
408.08	227.64
408.45	227.86
408.83	228.08
409.20	228.30
409.58	228.49
409.95	228.74
410.33	229.04
410.70	229.29
411.08	229.58
411.45	229.89
411.82	230.22
412.20	230.59
412.57	231.05
412.95	231.35
413.32	231.79
413.69	232.20
414.07	232.67
414.44	233.19
414.82	233.71
415.19	234.29
415.56	234.88
415.94	235.45
416.31	236.16
416.68	236.82
417.06	237.59
417.43	238.32
417.81	239.20
418.18	240.04
418.55	240.98
418.93	241.92
419.30	242.90
419.67	243.89
420.04	244.94
420.42	245.99
420.79	247.29
421.16	248.55
421.54	249.88
421.91	251.26
422.28	252.62
422.66	254.06
423.03	255.50
423.40	256.93
423.77	258.50
424.15	260.04
424.52	261.72
424.89	263.48
425.26	265.20
425.64	266.74
426.01	268.50
426.38	270.31
426.75	272.18
427.13	274.08
427.50	276.10
427.87	278.18
428.24	280.28
428.61	282.18
428.99	284.30
429.36	286.63
429.73	288.86
430.10	291.08
430.47	293.32
430.85	295.66
431.22	298.16
431.59	300.76
431.96	303.24
432.33	305.93
432.70	308.54
433.08	311.60
433.45	314.48
433.82	317.35
434.19	320.47
434.56	323.52
434.93	326.37
435.30	329.25
435.68	332.39
436.05	335.46
436.42	338.55
436.79	341.27
437.16	344.18
437.53	347.25
437.90	350.34
438.27	353.35
438.64	356.41
439.01	359.22
439.38	361.64
439.75	364.04
440.13	366.78
440.50	369.29
440.87	371.34
441.24	373.49
441.61	375.85
441.98	377.53
442.35	379.52
442.72	381.58
443.09	383.56
443.46	384.65
443.83	385.23
444.20	385.79
444.57	386.76
444.94	387.12
445.31	387.54
445.68	387.91
446.05	388.01
446.42	387.66
446.79	387.24
447.16	386.76
447.53	386.43
447.90	385.15
448.27	383.91
448.64	382.17
449.01	380.96
449.37	378.80
449.74	376.73
450.11	374.27
450.48	371.60
450.85	368.83
451.22	366.51
451.59	364.36
451.96	362.22
452.33	359.40
452.70	356.83
453.07	353.73
453.43	350.59
453.80	347.58
454.17	344.63
454.54	341.81
454.91	338.87
455.28	335.92
455.65	333.22
456.02	330.57
456.38	328.22
456.75	325.29
457.12	322.85
457.49	320.42
457.86	318.03
458.23	316.01
458.59	313.79
458.96	311.53
459.33	309.52
459.70	307.48
460.07	305.80
460.43	303.88
460.80	302.09
461.17	300.51
461.54	298.85
461.91	297.26
462.27	295.69
462.64	294.34
463.01	292.84
463.38	291.45
463.74	289.93
464.11	288.66
464.48	287.58
464.85	286.36
465.21	285.42
465.58	284.43
465.95	283.23
466.32	282.25
466.68	281.26
467.05	280.26
467.42	279.29
467.78	278.25
468.15	277.30
468.52	276.60
468.88	275.68
469.25	274.84
469.62	274.17
469.98	273.46
470.35	272.77
470.72	272.11
471.08	271.43
471.45	270.87
471.82	270.30
472.18	269.58
472.55	269.09
472.92	268.47
473.28	267.98
473.65	267.44
474.02	266.92
474.38	266.47
474.75	266.12
475.11	265.76
475.48	265.49
475.85	265.26
476.21	264.99
476.58	264.76
476.94	264.60
477.31	264.38
477.67	264.22
478.04	264.06
478.41	263.97
478.77	263.96
479.14	263.88
479.50	263.87
479.87	263.94
480.23	264.04
480.60	264.13
480.96	264.20
481.33	264.45
481.69	264.66
482.06	264.85
482.42	265.03
482.79	265.29
483.15	265.60
483.52	265.97
483.88	266.32
484.25	266.72
484.61	267.15
484.98	267.60
485.34	268.15
485.71	268.73
486.07	269.36
486.44	269.91
486.80	270.62
487.17	271.33
487.53	272.15
487.90	272.97
488.26	273.91
488.62	274.88
488.99	275.86
489.35	276.89
489.72	278.06
490.08	279.26
490.44	280.47
490.81	281.77
491.17	283.06
491.54	284.52
491.90	286.03
492.26	287.66
492.63	289.40
492.99	291.17
493.36	293.08
493.72	295.11
494.08	297.25
494.45	299.50
494.81	301.88
495.17	304.31
495.54	306.85
495.90	309.50
496.26	312.35
496.63	315.28
496.99	318.42
497.35	321.63
497.72	325.01
498.08	328.57
498.44	332.20
498.80	336.10
499.17	340.18
499.53	344.33
499.89	348.70
500.26	353.20
500.62	357.84
500.98	362.81
501.34	367.86
501.71	373.12
502.07	378.55
502.43	384.15
502.79	389.93
503.16	395.97
503.52	402.17
503.88	408.48
504.24	415.08
504.60	421.91
504.97	429.02
505.33	436.29
505.69	443.92
506.05	451.73
506.41	459.59
506.78	467.65
507.14	476.03
507.50	484.67
507.86	493.57
508.22	502.71
508.59	511.82
508.95	521.26
509.31	531.00
509.67	540.94
510.03	551.13
510.39	561.61
510.75	572.28
511.12	583.18
511.48	594.37
511.84	605.77
512.20	617.20
512.56	628.99
512.92	640.99
513.28	653.20
513.64	665.45
514.00	678.05
514.37	690.89
514.73	703.78
515.09	716.61
515.45	729.81
515.81	743.20
516.17	756.81
516.53	770.79
516.89	784.83
517.25	798.94
517.61	813.25
517.97	827.57
518.33	841.85
518.69	856.48
519.05	871.24
519.41	886.17
519.77	901.44
520.13	916.81
520.49	932.15
520.85	947.36
521.21	962.89
521.57	978.84
521.93	994.41
522.29	1010.60
522.65	1026.77
523.01	1042.70
523.37	1058.62
523.73	1074.72
524.09	1090.75
524.45	1106.85
524.81	1123.20
525.17	1139.63
525.53	1156.23
525.89	1173.05
526.25	1189.71
526.61	1206.03
526.97	1222.66
527.33	1239.01
527.68	1255.35
528.04	1271.66
528.40	1288.05
528.76	1305.03
529.12	1321.49
529.48	1338.32
529.84	1354.34
530.20	1370.85
530.56	1387.75
530.91	1405.06
531.27	1421.83
531.63	1438.20
531.99	1454.65
532.35	1470.68
532.71	1486.76
533.07	1503.08
533.42	1518.99
533.78	1535.14
534.14	1551.40
534.50	1566.76
534.86	1582.68
535.21	1597.92
535.57	1613.86
535.93	1629.60
536.29	1644.50
536.65	1659.81
537.00	1674.55
537.36	1689.90
537.72	1704.51
538.08	1719.14
538.44	1733.00
538.79	1747.11
539.15	1760.78
539.51	1774.64
539.87	1789.16
540.22	1802.85
540.58	1816.83
540.94	1830.17
541.29	1843.13
541.65	1856.07
542.01	1869.39
542.37	1881.99
542.72	1894.65
543.08	1906.84
543.44	1919.38
543.79	1931.01
544.15	1942.24
544.51	1954.20
544.87	1965.52
545.22	1976.74
545.58	1987.38
545.94	1997.60
546.29	2007.92
546.65	2018.22
547.01	2028.06
547.36	2037.20
547.72	2046.27
548.07	2054.69
548.43	2063.37
548.79	2071.75
549.14	2079.77
549.50	2087.66
549.86	2095.73
550.21	2103.55
550.57	2111.16
550.92	2118.37
551.28	2125.95
551.64	2133.58
551.99	2140.62
552.35	2147.34
552.70	2154.04
553.06	2160.49
553.41	2167.33
553.77	2173.67
554.13	2180.42
554.48	2187.13
554.84	2193.38
555.19	2199.11
555.55	2204.88
555.90	2209.82
556.26	2215.53
556.61	2220.67
556.97	2225.71
557.32	2230.44
557.68	2235.18
558.03	2239.95
558.39	2244.18
558.74	2249.19
559.10	2253.59
559.45	2257.75
559.81	2262.46
560.16	2266.81
560.52	2270.67
560.87	2274.62
561.23	2277.87
561.58	2281.02
561.94	2284.10
562.29	2286.76
562.64	2290.32
563.00	2293.20
563.35	2297.24
563.71	2300.96
564.06	2304.71
564.42	2308.04
564.77	2311.24
565.12	2314.28
565.48	2316.87
565.83	2319.34
566.19	2321.60
566.54	2322.94
566.89	2324.69
567.25	2325.97
567.60	2327.69
567.96	2330.09
568.31	2331.56
568.66	2333.37
569.02	2334.78
569.37	2335.69
569.72	2337.15
570.08	2337.66
570.43	2338.13
570.78	2338.16
571.14	2336.99
571.49	2336.10
571.84	2336.31
572.20	2335.64
572.55	2334.99
572.90	2333.60
573.26	2332.57
573.61	2330.83
573.96	2329.86
574.31	2327.44
574.67	2324.92
575.02	2321.76
575.37	2318.59
575.72	2315.27
576.08	2312.03
576.43	2308.87
576.78	2305.63
577.13	2302.63
577.49	2299.71
577.84	2296.85
578.19	2293.54
578.54	2290.42
578.90	2286.67
579.25	2281.48
579.60	2276.99
579.95	2272.34
580.30	2267.84
580.66	2262.98
581.01	2258.52
581.36	2253.72
581.71	2249.85
582.06	2245.75
582.42	2241.63
582.77	2236.65
583.12	2232.29
583.47	2228.15
583.82	2223.55
584.17	2218.40
584.53	2213.29
584.88	2207.99
585.23	2202.42
585.58	2197.06
585.93	2191.68
586.28	2186.96
586.63	2181.90
586.98	2176.70
587.34	2172.07
587.69	2167.25
588.04	2162.31
588.39	2156.71
588.74	2150.22
589.09	2144.01
589.44	2137.32
589.79	2131.12
590.14	2125.56
590.49	2118.89
590.84	2112.33
591.19	2106.50
591.54	2100.18
591.89	2092.88
592.25	2086.20
592.60	2078.99
592.95	2071.55
593.30	2064.14
593.65	2056.49
594.00	2049.43
594.35	2042.36
594.70	2034.18
595.05	2027.10
595.40	2019.62
595.75	2012.11
596.10	2005.92
596.45	1999.38
596.80	1993.03
597.15	1986.68
597.50	1979.73
597.85	1973.30
598.19	1966.76
598.54	1959.86
598.89	1953.25
599.24	1947.28
599.59	1940.78
599.94	1934.41
600.29	1927.94
600.64	1921.22
600.99	1913.82
601.34	1907.08
601.69	1899.90
602.04	1893.04
602.39	1885.49
602.74	1878.69
603.08	1872.04
603.43	1865.19
603.78	1857.57
604.13	1850.23
604.48	1842.91
604.83	1835.95
605.18	1829.13
605.53	1821.02
605.87	1812.64
606.22	1805.17
606.57	1796.99
606.92	1789.02
607.27	1781.80
607.62	1774.86
607.96	1767.58
608.31	1761.10
608.66	1753.41
609.01	1745.81
609.36	1738.19
609.70	1730.02
610.05	1721.62
610.40	1713.70
610.75	1705.27
611.10	1697.47
611.44	1688.85
611.79	1680.40
612.14	1671.40
612.49	1661.81
612.83	1653.03
613.18	1644.44
613.53	1636.02
613.88	1627.30
614.22	1618.96
614.57	1609.93
614.92	1601.45
615.27	1593.78
615.61	1585.05
615.96	1576.63
616.31	1568.48
616.65	1560.72
617.00	1552.97
617.35	1545.12
617.70	1536.48
618.04	1527.64
618.39	1518.92
618.74	1511.13
619.08	1502.58
619.43	1494.65
619.78	1487.42
620.12	1480.15
620.47	1472.45
620.82	1463.86
621.16	1455.90
621.51	1447.88
621.85	1439.93
622.20	1431.22
622.55	1422.35
622.89	1414.09
623.24	1406.05
623.59	1398.38
623.93	1390.54
624.28	1382.94
624.62	1375.15
624.97	1367.52
625.32	1360.43
625.66	1353.24
626.01	1345.77
626.35	1338.17
626.70	1330.04
627.04	1322.04
627.39	1313.82
627.73	1306.05
628.08	1298.88
628.43	1291.50
628.77	1284.05
629.12	1276.24
629.46	1268.85
629.81	1261.02
630.15	1253.49
630.50	1245.86
630.84	1237.47
631.19	1229.13
631.53	1221.24
631.88	1213.28
632.22	1205.43
632.57	1197.79
632.91	1189.87
633.26	1182.20
633.60	1174.48
633.95	1167.08
634.29	1159.59
634.64	1152.64
634.98	1145.10
635.32	1137.71
635.67	1130.83
636.01	1123.78
636.36	1116.82
636.70	1109.95
637.05	1103.13
637.39	1096.44
637.73	1089.76
638.08	1083.62
638.42	1077.50
638.77	1070.85
639.11	1064.06
639.45	1057.48
639.80	1050.76
640.14	1044.27
640.49	1037.55
640.83	1030.96
641.17	1024.60
641.52	1018.23
641.86	1011.56
642.20	1005.48
642.55	998.92
642.89	992.30
643.23	985.43
643.58	979.49
643.92	973.10
644.26	967.06
644.61	960.69
644.95	954.44
645.29	947.77
645.64	940.84
645.98	934.35
646.32	928.22
646.66	921.98
647.01	915.82
647.35	909.89
647.69	903.70
648.04	898.07
648.38	892.05
648.72	885.99
649.06	879.85
649.41	873.71
649.75	867.63
650.09	861.44
650.43	855.58
650.78	849.26
651.12	843.13
651.46	837.09
651.80	831.50
652.14	825.91
652.49	820.33
652.83	814.89
653.17	809.16
653.51	803.42
653.85	797.83
654.20	792.19
654.54	786.05
654.88	780.12
655.22	773.97
655.56	768.09
655.90	762.35
656.25	756.90
656.59	751.43
656.93	746.14
657.27	740.99
657.61	735.31
657.95	729.91
658.29	724.73
658.64	719.27
658.98	713.53
659.32	707.94
659.66	702.53
660.00	697.19
660.34	692.04
660.68	686.95
661.02	681.76
661.36	676.84
661.70	672.24
662.05	667.84
662.39	663.46
662.73	658.87
663.07	654.31
663.41	649.83
663.75	645.24
664.09	640.53
664.43	635.90
664.77	631.79
665.11	627.50
665.45	623.20
665.79	619.12
666.13	614.93
666.47	610.72
666.81	606.48
667.15	602.22
667.49	598.14
667.83	594.14
668.17	590.10
668.51	585.92
668.85	581.74
669.19	577.71
669.53	573.75
669.87	569.79
670.21	565.98
670.55	562.16
670.89	558.68
671.23	555.17
671.57	551.57
671.91	547.93
672.25	544.26
672.58	540.62
672.92	537.03
673.26	533.80
673.60	530.49
673.94	527.26
674.28	524.21
674.62	521.20
674.96	517.98
675.30	514.96
675.64	511.92
675.97	509.03
676.31	506.09
676.65	503.15
676.99	500.39
677.33	497.40
677.67	494.38
678.01	491.24
678.34	488.21
678.68	485.19
679.02	482.25
679.36	479.46
679.70	476.68
680.04	473.88
680.37	470.94
680.71	468.06
681.05	465.37
681.39	462.58
681.73	459.79
682.06	457.23
682.40	454.62
682.74	452.02
683.08	449.36
683.42	446.68
683.75	443.99
684.09	441.30
684.43	438.77
684.77	436.25
685.10	433.77
685.44	431.36
685.78	429.01
686.12	426.65
686.45	424.29
686.79	421.85
687.13	419.56
687.46	417.27
687.80	415.04
688.14	412.72
688.48	410.54
688.81	408.27
689.15	405.99
689.49	403.75
689.82	401.55
690.16	399.35
690.50	397.30
690.83	395.34
691.17	393.30
691.51	391.37
691.84	389.50
692.18	387.59
692.52	385.57
692.85	383.51
693.19	381.64
693.52	379.68
693.86	377.83
694.20	375.98
694.53	374.14
694.87	372.19
695.21	370.29
695.54	368.37
695.88	366.52
696.21	364.78
696.55	363.05
696.88	361.34
697.22	359.58
697.56	357.88
697.89	356.16
698.23	354.52
698.56	352.83
698.90	351.19
699.23	349.44
699.57	347.82
699.90	346.23
700.24	344.55
700.58	343.00
700.91	341.48
701.25	339.95
701.58	338.54
701.92	337.17
702.25	335.82
702.59	334.48
702.92	333.15
703.26	331.78
703.59	330.48
703.93	329.19
704.26	327.99
704.60	326.71
704.93	325.38
705.26	324.05
705.60	322.81
705.93	321.56
706.27	320.48
706.60	319.42
706.94	318.31
707.27	317.17
707.61	316.04
707.94	314.92
708.27	313.76
708.61	312.64
708.94	311.59
709.28	310.52
709.61	309.49
709.94	308.49
710.28	307.43
710.61	306.37
710.95	305.27
711.28	304.26
711.61	303.21
711.95	302.30
712.28	301.32
712.61	300.29
712.95	299.36
713.28	298.44
713.61	297.47
713.95	296.55
714.28	295.67
714.61	294.81
714.95	293.95
715.28	293.11
715.61	292.21
715.95	291.31
716.28	290.43
716.61	289.56
716.95	288.68
717.28	287.88
717.61	287.11
717.94	286.32
718.28	285.50
718.61	284.73
718.94	283.96
719.27	283.29
719.61	282.63
719.94	281.93
720.27	281.17
720.60	280.45
720.94	279.80
721.27	279.17
721.60	278.55
721.93	277.92
722.27	277.33
722.60	276.72
722.93	276.14
723.26	275.57
723.59	274.99
723.93	274.44
724.26	273.90
724.59	273.28
724.92	272.75
725.25	272.28
725.59	271.74
725.92	271.19
726.25	270.65
726.58	270.12
726.91	269.62
727.24	269.12
727.57	268.66
727.91	268.10
728.24	267.58
728.57	267.04
728.90	266.55
729.23	266.01
729.56	265.60
729.89	265.14
730.22	264.65
730.55	264.18
730.89	263.67
731.22	263.18
731.55	262.74
731.88	262.28
732.21	261.78
732.54	261.34
732.87	260.90
733.20	260.48
733.53	260.06
733.86	259.64
734.19	259.24
734.52	258.82
734.85	258.53
735.18	258.11
735.51	257.76
735.84	257.35
736.17	256.97
736.50	256.51
736.83	256.24
737.16	255.90
737.49	255.51
737.82	255.18
738.15	254.84
738.48	254.50
738.81	254.18
739.14	253.85
739.47	253.57
739.80	253.24
740.13	252.93
740.46	252.63
740.79	252.30
741.12	251.98
741.45	251.67
741.78	251.35
742.11	251.04
742.44	250.71
742.77	250.44
743.10	250.17
743.43	249.88
743.75	249.50
744.08	249.32
744.41	249.06
744.74	248.79
745.07	248.49
745.40	248.22
745.73	247.98
746.06	247.71
746.39	247.39
746.71	247.13
747.04	246.81
747.37	246.54
747.70	246.27
748.03	246.03
748.36	245.80
748.68	245.51
749.01	245.28
749.34	245.05
749.67	244.80
750.00	244.59
750.33	244.40
750.65	244.14
750.98	243.83
751.31	243.60
751.64	243.38
751.97	243.26
752.29	243.06
752.62	242.77
752.95	242.58
753.28	242.37
753.60	242.18
753.93	242.01
754.26	241.76
754.59	241.56
754.91	241.33
755.24	241.09
755.57	240.90
755.90	240.70
756.22	240.50
756.55	240.31
756.88	240.09
757.20	239.84
757.53	239.61
757.86	239.42
758.19	239.23
758.51	239.04
758.84	238.76
759.17	238.54
759.49	238.39
759.82	238.21
760.15	238.05
760.47	237.90
760.80	237.69
761.13	237.57
761.45	237.42
761.78	237.25
762.11	237.09
762.43	236.90
762.76	236.73
763.08	236.57
763.41	236.43
763.74	236.29
764.06	236.17
764.39	236.07
764.71	235.92
765.04	235.75
765.37	235.59
765.69	235.49
766.02	235.38
766.34	235.23
766.67	235.08
767.00	234.99
767.32	234.89
767.65	234.84
767.97	234.71
768.30	234.57
768.62	234.46
768.95	234.34
769.27	234.24
769.60	234.14
769.92	234.00
770.25	233.86
770.57	233.72
770.90	233.59
771.22	233.43
771.55	233.33
771.87	233.25
772.20	233.16
772.52	233.12
772.85	233.16
773.17	233.07
773.50	232.98
773.82	232.83
774.15	232.69
774.47	232.52
774.80	232.42
775.12	232.31
775.45	232.20
775.77	232.11
776.09	232.03
776.42	231.92
776.74	231.88
777.07	231.81
777.39	231.72
777.72	231.65
778.04	231.61
778.36	231.52
778.69	231.42
779.01	231.34
779.33	231.20
779.66	231.01
779.98	230.96
780.31	230.91
780.63	230.89
780.95	230.81
781.28	230.75
781.60	230.69
781.92	230.62
782.25	230.62
782.57	230.57
782.89	230.51
783.22	230.46
783.54	230.36
783.86	230.30
784.19	230.23
784.51	230.18
784.83	230.10
785.16	230.05
785.48	230.02
785.80	230.01
786.12	229.97
786.45	229.89
786.77	229.83
