SpectraSuite Data File
++++++++++++++++++++++++++++++++++++
Date: Fri Feb 01 16:21:32 EST 2013
User: group
Dark Spectrum Present: No
Reference Spectrum Present: No
Number of Sampled Component Spectra: 1
Spectrometers: USB2E7196
Integration Time (usec): 35000 (USB2E7196)
Spectra Averaged: 100 (USB2E7196)
Boxcar Smoothing: 10 (USB2E7196)
Correct for Electrical Dark: No (USB2E7196)
Strobe/Lamp Enabled: No (USB2E7196)
Correct for Detector Non-linearity: No (USB2E7196)
Correct for Stray Light: No (USB2E7196)
Number of Pixels in Processed Spectrum: 2048
>>>>>Begin Processed Spectral Data<<<<<
339.09	0.00
339.48	214.59
339.86	215.26
340.24	216.90
340.63	218.62
341.01	221.16
341.39	221.19
341.78	222.68
342.16	223.89
342.54	224.14
342.93	212.56
343.31	223.31
343.69	223.82
344.07	224.30
344.46	224.71
344.84	225.06
345.22	225.30
345.60	225.53
345.99	225.69
346.37	225.81
346.75	225.91
347.13	225.97
347.52	226.00
347.90	226.03
348.28	226.05
348.66	226.11
349.05	226.08
349.43	226.12
349.81	226.13
350.19	226.13
350.57	226.16
350.96	226.22
351.34	226.29
351.72	226.36
352.10	226.44
352.48	226.49
352.87	226.54
353.25	226.60
353.63	226.67
354.01	226.75
354.39	226.79
354.77	226.85
355.15	226.96
355.54	227.05
355.92	227.09
356.30	227.17
356.68	227.29
357.06	227.39
357.44	227.43
357.82	227.50
358.20	227.57
358.58	227.64
358.97	227.68
359.35	227.77
359.73	227.84
360.11	227.93
360.49	228.03
360.87	228.08
361.25	228.13
361.63	228.23
362.01	228.26
362.39	228.30
362.77	228.38
363.15	228.44
363.53	228.44
363.91	228.48
364.29	228.49
364.67	228.42
365.05	228.43
365.43	228.45
365.81	228.48
366.19	228.54
366.57	228.58
366.95	228.59
367.33	228.53
367.71	228.54
368.09	228.52
368.47	228.50
368.85	228.49
369.23	228.48
369.61	228.35
369.99	228.34
370.37	228.33
370.75	228.32
371.13	228.21
371.51	228.15
371.89	228.12
372.27	228.12
372.65	228.08
373.03	228.05
373.41	228.01
373.78	227.95
374.16	227.83
374.54	227.75
374.92	227.70
375.30	227.68
375.68	227.60
376.06	227.54
376.44	227.49
376.82	227.43
377.19	227.38
377.57	227.34
377.95	227.27
378.33	227.21
378.71	227.08
379.09	227.07
379.47	227.08
379.84	227.02
380.22	226.92
380.60	226.85
380.98	226.79
381.36	226.72
381.73	226.65
382.11	226.69
382.49	226.63
382.87	226.56
383.25	226.51
383.62	226.57
384.00	226.50
384.38	226.44
384.76	226.40
385.13	226.38
385.51	226.35
385.89	226.30
386.27	226.27
386.64	226.27
387.02	226.18
387.40	226.11
387.78	226.09
388.15	226.06
388.53	226.03
388.91	226.00
389.29	225.98
389.66	225.95
390.04	225.89
390.42	225.88
390.79	225.85
391.17	225.82
391.55	225.67
391.92	225.65
392.30	225.67
392.68	225.67
393.05	225.68
393.43	225.67
393.81	225.70
394.18	225.68
394.56	225.68
394.94	225.76
395.31	225.76
395.69	225.79
396.06	225.85
396.44	225.86
396.82	225.87
397.19	225.96
397.57	226.02
397.95	226.04
398.32	226.08
398.70	226.18
399.07	226.27
399.45	226.33
399.82	226.42
400.20	226.46
400.58	226.48
400.95	226.50
401.33	226.62
401.70	226.73
402.08	226.83
402.45	226.93
402.83	227.01
403.20	227.11
403.58	227.21
403.95	227.34
404.33	227.47
404.71	227.61
405.08	227.74
405.46	227.81
405.83	227.97
406.21	228.09
406.58	228.21
406.96	228.35
407.33	228.50
407.70	228.70
408.08	228.94
408.45	229.17
408.83	229.39
409.20	229.58
409.58	229.74
409.95	230.01
410.33	230.26
410.70	230.44
411.08	230.72
411.45	230.95
411.82	231.21
412.20	231.54
412.57	231.94
412.95	232.24
413.32	232.64
413.69	233.05
414.07	233.49
414.44	233.96
414.82	234.42
415.19	234.98
415.56	235.50
415.94	236.05
416.31	236.68
416.68	237.34
417.06	238.08
417.43	238.79
417.81	239.52
418.18	240.28
418.55	241.16
418.93	242.04
419.30	243.00
419.67	244.00
420.04	244.96
420.42	245.90
420.79	247.06
421.16	248.26
421.54	249.42
421.91	250.61
422.28	251.88
422.66	253.22
423.03	254.53
423.40	255.86
423.77	257.26
424.15	258.71
424.52	260.13
424.89	261.71
425.26	263.26
425.64	264.71
426.01	266.32
426.38	267.98
426.75	269.66
427.13	271.38
427.50	273.14
427.87	275.03
428.24	276.98
428.61	278.75
428.99	280.71
429.36	282.83
429.73	284.89
430.10	286.86
430.47	288.95
430.85	291.04
431.22	293.28
431.59	295.70
431.96	297.93
432.33	300.43
432.70	302.81
433.08	305.62
433.45	308.29
433.82	310.91
434.19	313.82
434.56	316.63
434.93	319.27
435.30	321.90
435.68	324.76
436.05	327.56
436.42	330.36
436.79	332.88
437.16	335.56
437.53	338.44
437.90	341.27
438.27	343.97
438.64	346.77
439.01	349.38
439.38	351.58
439.75	353.74
440.13	356.26
440.50	358.56
440.87	360.39
441.24	362.34
441.61	364.46
441.98	365.89
442.35	367.67
442.72	369.51
443.09	371.27
443.46	372.26
443.83	372.85
444.20	373.35
444.57	374.14
444.94	374.41
445.31	374.72
445.68	375.08
446.05	375.17
446.42	374.82
446.79	374.35
447.16	373.89
447.53	373.56
447.90	372.33
448.27	371.21
448.64	369.60
449.01	368.42
449.37	366.48
449.74	364.60
450.11	362.34
450.48	359.86
450.85	357.36
451.22	355.26
451.59	353.21
451.96	351.24
452.33	348.62
452.70	346.33
453.07	343.47
453.43	340.59
453.80	337.77
454.17	335.10
454.54	332.59
454.91	329.86
455.28	327.15
455.65	324.69
456.02	322.25
456.38	320.15
456.75	317.49
457.12	315.22
457.49	313.00
457.86	310.86
458.23	309.01
458.59	306.92
458.96	304.82
459.33	302.94
459.70	301.07
460.07	299.59
460.43	297.85
460.80	296.24
461.17	294.78
461.54	293.32
461.91	291.92
462.27	290.47
462.64	289.25
463.01	287.94
463.38	286.66
463.74	285.26
464.11	284.08
464.48	283.09
464.85	281.99
465.21	281.10
465.58	280.18
465.95	279.09
466.32	278.18
466.68	277.27
467.05	276.39
467.42	275.53
467.78	274.60
468.15	273.74
468.52	273.12
468.88	272.28
469.25	271.55
469.62	270.88
469.98	270.23
470.35	269.61
470.72	269.04
471.08	268.40
471.45	267.84
471.82	267.30
472.18	266.71
472.55	266.27
472.92	265.78
473.28	265.33
473.65	264.90
474.02	264.51
474.38	264.17
474.75	263.86
475.11	263.52
475.48	263.32
475.85	263.11
476.21	262.84
476.58	262.69
476.94	262.52
477.31	262.39
477.67	262.23
478.04	262.12
478.41	262.06
478.77	262.13
479.14	262.15
479.50	262.14
479.87	262.21
480.23	262.35
480.60	262.47
480.96	262.57
481.33	262.80
481.69	263.01
482.06	263.23
482.42	263.44
482.79	263.75
483.15	264.03
483.52	264.42
483.88	264.80
484.25	265.17
484.61	265.62
484.98	266.08
485.34	266.67
485.71	267.29
486.07	267.94
486.44	268.51
486.80	269.21
487.17	269.99
487.53	270.83
487.90	271.62
488.26	272.57
488.62	273.54
488.99	274.52
489.35	275.56
489.72	276.68
490.08	277.90
490.44	279.10
490.81	280.46
491.17	281.78
491.54	283.26
491.90	284.82
492.26	286.49
492.63	288.22
492.99	290.03
493.36	291.92
493.72	293.90
494.08	296.00
494.45	298.24
494.81	300.59
495.17	303.02
495.54	305.58
495.90	308.24
496.26	311.07
496.63	314.06
496.99	317.19
497.35	320.43
497.72	323.83
498.08	327.37
498.44	331.00
498.80	334.95
499.17	339.06
499.53	343.20
499.89	347.52
500.26	352.07
500.62	356.74
500.98	361.68
501.34	366.73
501.71	372.07
502.07	377.53
502.43	383.10
502.79	388.94
503.16	395.04
503.52	401.32
503.88	407.70
504.24	414.26
504.60	421.15
504.97	428.33
505.33	435.67
505.69	443.36
506.05	451.16
506.41	459.02
506.78	467.17
507.14	475.69
507.50	484.40
507.86	493.38
508.22	502.58
508.59	511.76
508.95	521.37
509.31	531.25
509.67	541.36
510.03	551.69
510.39	562.11
510.75	572.89
511.12	583.75
511.48	595.06
511.84	606.55
512.20	618.09
512.56	630.01
512.92	642.23
513.28	654.61
513.64	667.08
514.00	679.81
514.37	692.75
514.73	705.72
515.09	718.74
515.45	732.02
515.81	745.60
516.17	759.68
516.53	773.79
516.89	787.89
517.25	802.05
517.61	816.56
517.97	831.13
518.33	845.48
518.69	860.24
519.05	875.17
519.41	890.39
519.77	905.89
520.13	921.30
520.49	936.61
520.85	952.02
521.21	967.69
521.57	983.91
521.93	999.52
522.29	1015.89
522.65	1032.23
523.01	1048.43
523.37	1064.33
523.73	1080.50
524.09	1096.47
524.45	1112.77
524.81	1129.26
525.17	1145.94
525.53	1162.79
525.89	1179.79
526.25	1196.63
526.61	1213.04
526.97	1229.63
527.33	1246.02
527.68	1262.50
528.04	1278.98
528.40	1295.40
528.76	1312.40
529.12	1328.95
529.48	1345.80
529.84	1361.81
530.20	1378.32
530.56	1395.22
530.91	1412.68
531.27	1429.32
531.63	1445.81
531.99	1462.26
532.35	1478.29
532.71	1494.07
533.07	1510.17
533.42	1525.95
533.78	1541.94
534.14	1558.05
534.50	1573.38
534.86	1589.18
535.21	1604.48
535.57	1620.29
535.93	1635.83
536.29	1650.56
536.65	1665.46
537.00	1680.27
537.36	1695.39
537.72	1709.77
538.08	1724.20
538.44	1737.93
538.79	1751.69
539.15	1765.26
539.51	1778.87
539.87	1792.99
540.22	1806.70
540.58	1820.45
540.94	1833.65
541.29	1846.47
541.65	1859.18
542.01	1872.26
542.37	1884.54
542.72	1896.85
543.08	1908.37
543.44	1920.62
543.79	1931.86
544.15	1942.72
544.51	1954.21
544.87	1965.17
545.22	1976.05
545.58	1986.30
545.94	1995.86
546.29	2005.65
546.65	2015.47
547.01	2024.75
547.36	2033.48
547.72	2041.82
548.07	2049.50
548.43	2057.71
548.79	2065.69
549.14	2073.02
549.50	2080.46
549.86	2088.01
550.21	2095.22
550.57	2102.52
550.92	2109.06
551.28	2116.01
551.64	2123.13
551.99	2129.66
552.35	2135.80
552.70	2141.90
553.06	2147.71
553.41	2154.16
553.77	2160.15
554.13	2166.28
554.48	2172.41
554.84	2177.85
555.19	2183.13
555.55	2188.31
555.90	2192.69
556.26	2197.64
556.61	2202.50
556.97	2206.76
557.32	2210.92
557.68	2215.05
558.03	2219.38
558.39	2223.00
558.74	2227.72
559.10	2231.64
559.45	2235.24
559.81	2239.62
560.16	2243.32
560.52	2246.52
560.87	2249.94
561.23	2252.57
561.58	2255.52
561.94	2257.97
562.29	2260.47
562.64	2263.11
563.00	2265.72
563.35	2269.13
563.71	2272.13
564.06	2275.25
564.42	2278.04
564.77	2280.65
565.12	2282.96
565.48	2284.91
565.83	2286.86
566.19	2288.18
566.54	2288.99
566.89	2290.20
567.25	2290.67
567.60	2292.03
567.96	2293.74
568.31	2294.57
568.66	2295.83
569.02	2296.43
569.37	2296.77
569.72	2297.59
570.08	2297.90
570.43	2297.94
570.78	2297.49
571.14	2296.02
571.49	2294.70
571.84	2294.44
572.20	2293.25
572.55	2292.26
572.90	2290.65
573.26	2289.33
573.61	2287.53
573.96	2286.04
574.31	2283.12
574.67	2280.30
575.02	2276.82
575.37	2273.54
575.72	2269.80
576.08	2266.39
576.43	2262.91
576.78	2259.36
577.13	2256.14
577.49	2253.12
577.84	2249.83
578.19	2246.14
578.54	2242.54
578.90	2238.48
579.25	2232.94
579.60	2227.99
579.95	2222.97
580.30	2218.09
580.66	2213.03
581.01	2208.24
581.36	2203.25
581.71	2199.07
582.06	2194.57
582.42	2190.27
582.77	2185.12
583.12	2180.63
583.47	2175.96
583.82	2171.12
584.17	2165.89
584.53	2160.57
584.88	2154.96
585.23	2149.20
585.58	2143.87
585.93	2138.56
586.28	2133.81
586.63	2128.80
586.98	2123.86
587.34	2119.32
587.69	2114.44
588.04	2109.17
588.39	2103.52
588.74	2097.04
589.09	2090.92
589.44	2084.26
589.79	2078.13
590.14	2072.59
590.49	2066.05
590.84	2059.77
591.19	2053.93
591.54	2047.56
591.89	2040.10
592.25	2033.30
592.60	2026.14
592.95	2018.61
593.30	2011.19
593.65	2003.70
594.00	1996.76
594.35	1989.49
594.70	1981.40
595.05	1974.20
595.40	1966.99
595.75	1959.40
596.10	1953.37
596.45	1946.70
596.80	1940.51
597.15	1933.92
597.50	1926.85
597.85	1920.55
598.19	1913.99
598.54	1906.80
598.89	1900.29
599.24	1894.59
599.59	1887.87
599.94	1881.81
600.29	1875.53
600.64	1868.99
600.99	1861.54
601.34	1854.74
601.69	1847.86
602.04	1841.01
602.39	1833.67
602.74	1826.85
603.08	1820.22
603.43	1813.49
603.78	1806.05
604.13	1798.91
604.48	1791.56
604.83	1784.64
605.18	1777.50
605.53	1769.40
605.87	1761.45
606.22	1754.09
606.57	1746.13
606.92	1738.84
607.27	1731.64
607.62	1724.70
607.96	1717.52
608.31	1710.97
608.66	1703.45
609.01	1695.98
609.36	1688.36
609.70	1680.35
610.05	1672.26
610.40	1664.52
610.75	1656.15
611.10	1648.60
611.44	1640.10
611.79	1632.23
612.14	1623.47
612.49	1614.31
612.83	1606.01
613.18	1597.90
613.53	1589.81
613.88	1581.17
614.22	1573.04
614.57	1564.35
614.92	1556.33
615.27	1548.80
615.61	1540.31
615.96	1532.09
616.31	1524.43
616.65	1517.14
617.00	1509.53
617.35	1501.84
617.70	1493.60
618.04	1485.12
618.39	1476.92
618.74	1469.31
619.08	1461.00
619.43	1453.45
619.78	1446.69
620.12	1439.41
620.47	1431.85
620.82	1423.75
621.16	1416.38
621.51	1408.66
621.85	1401.03
622.20	1392.46
622.55	1383.99
622.89	1376.25
623.24	1368.72
623.59	1361.42
623.93	1353.93
624.28	1346.77
624.62	1339.26
624.97	1332.08
625.32	1325.27
625.66	1318.22
626.01	1311.11
626.35	1303.74
626.70	1296.13
627.04	1288.28
627.39	1280.63
627.73	1273.22
628.08	1266.28
628.43	1259.01
628.77	1251.63
629.12	1244.08
629.46	1236.94
629.81	1229.57
630.15	1222.32
630.50	1214.84
630.84	1206.55
631.19	1198.55
631.53	1191.14
631.88	1183.61
632.22	1175.98
632.57	1168.68
632.91	1161.12
633.26	1153.55
633.60	1146.05
633.95	1138.86
634.29	1131.80
634.64	1125.06
634.98	1117.73
635.32	1110.47
635.67	1103.85
636.01	1097.25
636.36	1090.36
636.70	1083.89
637.05	1077.30
637.39	1070.78
637.73	1064.36
638.08	1058.41
638.42	1052.47
638.77	1045.96
639.11	1039.41
639.45	1033.02
639.80	1026.39
640.14	1019.92
640.49	1013.50
640.83	1007.23
641.17	1000.96
641.52	994.60
641.86	988.09
642.20	982.25
642.55	976.01
642.89	969.54
643.23	963.04
643.58	957.28
643.92	951.01
644.26	944.93
644.61	939.00
644.95	932.83
645.29	926.18
645.64	919.40
645.98	913.14
646.32	907.29
646.66	901.20
647.01	895.38
647.35	889.67
647.69	883.80
648.04	878.25
648.38	872.44
648.72	866.44
649.06	860.45
649.41	854.44
649.75	848.47
650.09	842.56
650.43	836.67
650.78	830.52
651.12	824.49
651.46	818.75
651.80	812.90
652.14	807.57
652.49	802.29
652.83	797.12
653.17	791.28
653.51	785.47
653.85	780.10
654.20	774.46
654.54	768.42
654.88	762.68
655.22	756.74
655.56	751.09
655.90	745.64
656.25	740.34
656.59	734.96
656.93	729.88
657.27	724.63
657.61	719.24
657.95	714.20
658.29	709.16
658.64	703.85
658.98	698.55
659.32	693.06
659.66	687.76
660.00	682.40
660.34	677.43
660.68	672.55
661.02	667.50
661.36	662.73
661.70	658.26
662.05	653.86
662.39	649.51
662.73	645.00
663.07	640.69
663.41	636.24
663.75	631.80
664.09	627.21
664.43	622.86
664.77	618.69
665.11	614.40
665.45	610.20
665.79	606.17
666.13	602.02
666.47	597.94
666.81	593.82
667.15	589.69
667.49	585.83
667.83	582.02
668.17	578.05
668.51	574.02
668.85	570.04
669.19	566.29
669.53	562.50
669.87	558.64
670.21	554.93
670.55	551.31
670.89	547.88
671.23	544.46
671.57	540.99
671.91	537.44
672.25	533.95
672.58	530.48
672.92	527.06
673.26	523.90
673.60	520.76
673.94	517.59
674.28	514.74
674.62	511.79
674.96	508.64
675.30	505.71
675.64	502.77
675.97	499.98
676.31	497.05
676.65	494.11
676.99	491.41
677.33	488.52
677.67	485.69
678.01	482.65
678.34	479.65
678.68	476.75
679.02	473.97
679.36	471.15
679.70	468.42
680.04	465.66
680.37	462.77
680.71	459.97
681.05	457.40
681.39	454.71
681.73	452.04
682.06	449.53
682.40	447.02
682.74	444.50
683.08	441.97
683.42	439.35
683.75	436.83
684.09	434.26
684.43	431.83
684.77	429.37
685.10	426.98
685.44	424.69
685.78	422.40
686.12	420.10
686.45	417.84
686.79	415.52
687.13	413.33
687.46	411.17
687.80	408.99
688.14	406.77
688.48	404.66
688.81	402.39
689.15	400.19
689.49	398.02
689.82	395.87
690.16	393.77
690.50	391.84
690.83	389.88
691.17	387.93
691.51	385.98
691.84	384.10
692.18	382.17
692.52	380.15
692.85	378.19
693.19	376.28
693.52	374.43
693.86	372.61
694.20	370.82
694.53	369.09
694.87	367.26
695.21	365.47
695.54	363.69
695.88	361.95
696.21	360.25
696.55	358.58
696.88	356.93
697.22	355.24
697.56	353.64
697.89	352.01
698.23	350.39
698.56	348.82
698.90	347.23
699.23	345.58
699.57	344.05
699.90	342.51
700.24	341.04
700.58	339.50
700.91	338.01
701.25	336.57
701.58	335.10
701.92	333.72
702.25	332.36
702.59	330.95
702.92	329.68
703.26	328.34
703.59	327.07
703.93	325.88
704.26	324.69
704.60	323.33
704.93	322.02
705.26	320.74
705.60	319.51
705.93	318.36
706.27	317.33
706.60	316.28
706.94	315.17
707.27	314.02
707.61	312.97
707.94	311.93
708.27	310.81
708.61	309.73
708.94	308.74
709.28	307.75
709.61	306.80
709.94	305.81
710.28	304.85
710.61	303.87
710.95	302.80
711.28	301.87
711.61	300.98
711.95	300.06
712.28	299.13
712.61	298.16
712.95	297.19
713.28	296.33
713.61	295.39
713.95	294.48
714.28	293.68
714.61	292.83
714.95	291.96
715.28	291.12
715.61	290.28
715.95	289.42
716.28	288.56
716.61	287.73
716.95	286.94
717.28	286.18
717.61	285.42
717.94	284.69
718.28	283.85
718.61	283.10
718.94	282.45
719.27	281.81
719.61	281.17
719.94	280.51
720.27	279.79
720.60	279.16
720.94	278.56
721.27	277.93
721.60	277.34
721.93	276.76
722.27	276.23
722.60	275.67
722.93	275.12
723.26	274.61
723.59	274.03
723.93	273.49
724.26	272.93
724.59	272.38
724.92	271.83
725.25	271.38
725.59	270.86
725.92	270.38
726.25	269.85
726.58	269.31
726.91	268.86
727.24	268.39
727.57	267.94
727.91	267.45
728.24	266.99
728.57	266.52
728.90	266.11
729.23	265.67
729.56	265.27
729.89	264.79
730.22	264.26
730.55	263.82
730.89	263.35
731.22	262.86
731.55	262.44
731.88	262.04
732.21	261.60
732.54	261.19
732.87	260.70
733.20	260.31
733.53	259.95
733.86	259.58
734.19	259.20
734.52	258.81
734.85	258.49
735.18	258.06
735.51	257.70
735.84	257.32
736.17	256.90
736.50	256.50
736.83	256.22
737.16	255.92
737.49	255.59
737.82	255.25
738.15	254.99
738.48	254.65
738.81	254.30
739.14	253.96
739.47	253.62
739.80	253.37
740.13	253.09
740.46	252.75
740.79	252.43
741.12	252.14
741.45	251.81
741.78	251.44
742.11	251.18
742.44	250.82
742.77	250.54
743.10	250.26
743.43	249.91
743.75	249.52
744.08	249.36
744.41	249.09
744.74	248.88
745.07	248.59
745.40	248.33
745.73	248.10
746.06	247.84
746.39	247.59
746.71	247.27
747.04	246.96
747.37	246.70
747.70	246.45
748.03	246.20
748.36	245.96
748.68	245.73
749.01	245.46
749.34	245.24
749.67	245.05
750.00	244.82
750.33	244.68
750.65	244.52
750.98	244.20
751.31	243.97
751.64	243.70
751.97	243.53
752.29	243.30
752.62	243.06
752.95	242.83
753.28	242.64
753.60	242.44
753.93	242.31
754.26	242.11
754.59	241.88
754.91	241.66
755.24	241.46
755.57	241.29
755.90	241.12
756.22	240.91
756.55	240.64
756.88	240.44
757.20	240.24
757.53	240.03
757.86	239.85
758.19	239.68
758.51	239.52
758.84	239.30
759.17	239.13
759.49	238.99
759.82	238.87
760.15	238.72
760.47	238.55
760.80	238.35
761.13	238.22
761.45	238.09
761.78	237.94
762.11	237.81
762.43	237.63
762.76	237.49
763.08	237.40
763.41	237.30
763.74	237.16
764.06	236.98
764.39	236.82
764.71	236.63
765.04	236.51
765.37	236.38
765.69	236.28
766.02	236.13
766.34	235.99
766.67	235.84
767.00	235.72
767.32	235.65
767.65	235.60
767.97	235.50
768.30	235.39
768.62	235.27
768.95	235.12
769.27	235.03
769.60	234.91
769.92	234.77
770.25	234.63
770.57	234.52
770.90	234.45
771.22	234.33
771.55	234.27
771.87	234.17
772.20	234.06
772.52	234.04
772.85	234.06
773.17	233.96
773.50	233.88
773.82	233.77
774.15	233.62
774.47	233.48
774.80	233.36
775.12	233.29
775.45	233.22
775.77	233.15
776.09	233.04
776.42	232.95
776.74	232.91
777.07	232.81
777.39	232.75
777.72	232.64
778.04	232.57
778.36	232.50
778.69	232.40
779.01	232.35
779.33	232.19
779.66	232.00
779.98	231.93
780.31	231.89
780.63	231.87
780.95	231.84
781.28	231.76
781.60	231.67
781.92	231.59
782.25	231.52
782.57	231.48
782.89	231.43
783.22	231.36
783.54	231.28
783.86	231.27
784.19	231.19
784.51	231.17
784.83	231.13
785.16	231.08
785.48	231.05
785.80	231.01
786.12	230.95
786.45	230.92
786.77	230.85
787.09	230.77
