SpectraSuite Data File
++++++++++++++++++++++++++++++++++++
Date: Fri Feb 01 15:25:07 EST 2013
User: group
Dark Spectrum Present: No
Reference Spectrum Present: No
Number of Sampled Component Spectra: 1
Spectrometers: USB2E7196
Integration Time (usec): 35000 (USB2E7196)
Spectra Averaged: 100 (USB2E7196)
Boxcar Smoothing: 10 (USB2E7196)
Correct for Electrical Dark: No (USB2E7196)
Strobe/Lamp Enabled: No (USB2E7196)
Correct for Detector Non-linearity: No (USB2E7196)
Correct for Stray Light: No (USB2E7196)
Number of Pixels in Processed Spectrum: 2048
>>>>>Begin Processed Spectral Data<<<<<
339.09	0.00
339.48	215.05
339.86	217.40
340.24	218.36
340.63	219.63
341.01	222.04
341.39	222.00
341.78	223.25
342.16	224.32
342.54	225.30
342.93	213.56
343.31	224.37
343.69	224.95
344.07	225.41
344.46	225.84
344.84	226.19
345.22	226.44
345.60	226.70
345.99	226.91
346.37	227.04
346.75	227.15
347.13	227.23
347.52	227.29
347.90	227.37
348.28	227.39
348.66	227.45
349.05	227.44
349.43	227.46
349.81	227.51
350.19	227.56
350.57	227.66
350.96	227.71
351.34	227.76
351.72	227.82
352.10	227.90
352.48	227.93
352.87	228.04
353.25	228.10
353.63	228.14
354.01	228.18
354.39	228.28
354.77	228.33
355.15	228.44
355.54	228.49
355.92	228.53
356.30	228.59
356.68	228.70
357.06	228.77
357.44	228.83
357.82	228.88
358.20	228.95
358.58	229.00
358.97	229.08
359.35	229.14
359.73	229.21
360.11	229.24
360.49	229.32
360.87	229.33
361.25	229.37
361.63	229.47
362.01	229.53
362.39	229.53
362.77	229.56
363.15	229.59
363.53	229.61
363.91	229.62
364.29	229.66
364.67	229.59
365.05	229.59
365.43	229.59
365.81	229.61
366.19	229.64
366.57	229.63
366.95	229.61
367.33	229.58
367.71	229.53
368.09	229.56
368.47	229.53
368.85	229.51
369.23	229.49
369.61	229.41
369.99	229.37
370.37	229.37
370.75	229.36
371.13	229.25
371.51	229.21
371.89	229.17
372.27	229.12
372.65	229.11
373.03	229.08
373.41	229.00
373.78	228.94
374.16	228.80
374.54	228.69
374.92	228.62
375.30	228.57
375.68	228.49
376.06	228.38
376.44	228.29
376.82	228.24
377.19	228.16
377.57	228.10
377.95	228.00
378.33	227.90
378.71	227.78
379.09	227.72
379.47	227.63
379.84	227.53
380.22	227.42
380.60	227.30
380.98	227.19
381.36	227.12
381.73	227.05
382.11	227.04
382.49	227.01
382.87	226.92
383.25	226.84
383.62	226.92
384.00	226.86
384.38	226.79
384.76	226.73
385.13	226.72
385.51	226.64
385.89	226.58
386.27	226.54
386.64	226.50
387.02	226.45
387.40	226.41
387.78	226.40
388.15	226.36
388.53	226.30
388.91	226.28
389.29	226.27
389.66	226.28
390.04	226.23
390.42	226.23
390.79	226.21
391.17	226.21
391.55	226.09
391.92	226.08
392.30	226.10
392.68	226.09
393.05	226.09
393.43	226.14
393.81	226.18
394.18	226.16
394.56	226.18
394.94	226.25
395.31	226.28
395.69	226.33
396.06	226.39
396.44	226.47
396.82	226.52
397.19	226.62
397.57	226.66
397.95	226.72
398.32	226.73
398.70	226.80
399.07	226.89
399.45	226.94
399.82	227.01
400.20	227.09
400.58	227.17
400.95	227.21
401.33	227.30
401.70	227.44
402.08	227.56
402.45	227.66
402.83	227.78
403.20	227.87
403.58	227.98
403.95	228.11
404.33	228.25
404.71	228.38
405.08	228.57
405.46	228.69
405.83	228.84
406.21	229.00
406.58	229.18
406.96	229.36
407.33	229.55
407.70	229.75
408.08	230.04
408.45	230.24
408.83	230.50
409.20	230.70
409.58	230.89
409.95	231.18
410.33	231.43
410.70	231.70
411.08	232.04
411.45	232.34
411.82	232.64
412.20	232.99
412.57	233.42
412.95	233.72
413.32	234.12
413.69	234.54
414.07	234.98
414.44	235.45
414.82	235.93
415.19	236.47
415.56	237.01
415.94	237.54
416.31	238.18
416.68	238.77
417.06	239.50
417.43	240.19
417.81	240.95
418.18	241.75
418.55	242.58
418.93	243.45
419.30	244.31
419.67	245.27
420.04	246.24
420.42	247.21
420.79	248.35
421.16	249.52
421.54	250.73
421.91	251.95
422.28	253.20
422.66	254.50
423.03	255.82
423.40	257.14
423.77	258.57
424.15	260.00
424.52	261.49
424.89	263.09
425.26	264.67
425.64	266.11
426.01	267.73
426.38	269.34
426.75	271.00
427.13	272.77
427.50	274.55
427.87	276.48
428.24	278.33
428.61	280.02
428.99	281.96
429.36	284.02
429.73	286.10
430.10	288.13
430.47	290.24
430.85	292.36
431.22	294.64
431.59	297.04
431.96	299.29
432.33	301.79
432.70	304.18
433.08	307.00
433.45	309.65
433.82	312.27
434.19	315.25
434.56	318.10
434.93	320.74
435.30	323.37
435.68	326.24
436.05	329.12
436.42	332.00
436.79	334.53
437.16	337.25
437.53	340.07
437.90	342.91
438.27	345.67
438.64	348.49
439.01	351.08
439.38	353.31
439.75	355.48
440.13	358.00
440.50	360.35
440.87	362.15
441.24	364.12
441.61	366.28
441.98	367.67
442.35	369.46
442.72	371.34
443.09	373.14
443.46	374.13
443.83	374.72
444.20	375.22
444.57	376.10
444.94	376.41
445.31	376.80
445.68	377.14
446.05	377.17
446.42	376.82
446.79	376.40
447.16	375.92
447.53	375.61
447.90	374.42
448.27	373.23
448.64	371.68
449.01	370.45
449.37	368.51
449.74	366.62
450.11	364.32
450.48	361.85
450.85	359.28
451.22	357.09
451.59	355.05
451.96	353.10
452.33	350.48
452.70	348.12
453.07	345.21
453.43	342.29
453.80	339.52
454.17	336.81
454.54	334.28
454.91	331.54
455.28	328.84
455.65	326.35
456.02	323.89
456.38	321.70
456.75	319.09
457.12	316.77
457.49	314.55
457.86	312.39
458.23	310.48
458.59	308.47
458.96	306.42
459.33	304.54
459.70	302.64
460.07	301.12
460.43	299.41
460.80	297.80
461.17	296.35
461.54	294.84
461.91	293.38
462.27	291.91
462.64	290.68
463.01	289.33
463.38	288.04
463.74	286.70
464.11	285.54
464.48	284.49
464.85	283.41
465.21	282.55
465.58	281.64
465.95	280.57
466.32	279.69
466.68	278.75
467.05	277.81
467.42	276.92
467.78	275.96
468.15	275.05
468.52	274.37
468.88	273.52
469.25	272.76
469.62	272.17
469.98	271.51
470.35	270.87
470.72	270.25
471.08	269.60
471.45	269.06
471.82	268.54
472.18	267.97
472.55	267.56
472.92	267.05
473.28	266.60
473.65	266.13
474.02	265.67
474.38	265.37
474.75	265.06
475.11	264.71
475.48	264.45
475.85	264.22
476.21	264.01
476.58	263.84
476.94	263.71
477.31	263.54
477.67	263.40
478.04	263.30
478.41	263.26
478.77	263.29
479.14	263.20
479.50	263.21
479.87	263.27
480.23	263.31
480.60	263.35
480.96	263.40
481.33	263.64
481.69	263.83
482.06	264.00
482.42	264.19
482.79	264.45
483.15	264.80
483.52	265.19
483.88	265.54
484.25	265.93
484.61	266.34
484.98	266.80
485.34	267.33
485.71	267.86
486.07	268.47
486.44	269.06
486.80	269.75
487.17	270.48
487.53	271.29
487.90	272.17
488.26	273.09
488.62	274.11
488.99	275.08
489.35	276.08
489.72	277.20
490.08	278.42
490.44	279.63
490.81	280.95
491.17	282.28
491.54	283.79
491.90	285.30
492.26	286.94
492.63	288.63
492.99	290.37
493.36	292.30
493.72	294.32
494.08	296.45
494.45	298.74
494.81	301.11
495.17	303.48
495.54	306.00
495.90	308.69
496.26	311.46
496.63	314.40
496.99	317.53
497.35	320.75
497.72	324.11
498.08	327.69
498.44	331.32
498.80	335.26
499.17	339.26
499.53	343.41
499.89	347.80
500.26	352.30
500.62	356.96
500.98	361.92
501.34	367.02
501.71	372.26
502.07	377.68
502.43	383.27
502.79	389.15
503.16	395.22
503.52	401.50
503.88	407.91
504.24	414.55
504.60	421.39
504.97	428.56
505.33	435.92
505.69	443.58
506.05	451.40
506.41	459.29
506.78	467.41
507.14	475.87
507.50	484.58
507.86	493.68
508.22	502.86
508.59	512.04
508.95	521.62
509.31	531.44
509.67	541.49
510.03	551.76
510.39	562.29
510.75	573.17
511.12	584.07
511.48	595.45
511.84	606.93
512.20	618.57
512.56	630.44
512.92	642.70
513.28	655.04
513.64	667.46
514.00	680.17
514.37	693.18
514.73	706.28
515.09	719.42
515.45	732.72
515.81	746.44
516.17	760.53
516.53	774.67
516.89	788.88
517.25	803.21
517.61	817.63
517.97	832.21
518.33	846.59
518.69	861.45
519.05	876.37
519.41	891.54
519.77	907.14
520.13	922.63
520.49	937.93
520.85	953.41
521.21	969.31
521.57	985.63
521.93	1001.44
522.29	1017.87
522.65	1034.12
523.01	1050.43
523.37	1066.58
523.73	1082.75
524.09	1098.87
524.45	1115.29
524.81	1131.83
525.17	1148.83
525.53	1165.73
525.89	1182.68
526.25	1199.48
526.61	1216.02
526.97	1232.80
527.33	1249.23
527.68	1265.97
528.04	1282.60
528.40	1299.31
528.76	1316.35
529.12	1332.98
529.48	1349.98
529.84	1366.06
530.20	1382.61
530.56	1399.75
530.91	1417.09
531.27	1433.92
531.63	1450.55
531.99	1467.19
532.35	1483.34
532.71	1499.20
533.07	1515.47
533.42	1531.31
533.78	1547.44
534.14	1563.80
534.50	1579.17
534.86	1595.18
535.21	1610.29
535.57	1626.24
535.93	1641.77
536.29	1656.64
536.65	1671.78
537.00	1686.55
537.36	1701.87
537.72	1716.59
538.08	1730.77
538.44	1744.61
538.79	1758.57
539.15	1772.40
539.51	1786.17
539.87	1800.53
540.22	1814.34
540.58	1828.29
540.94	1841.76
541.29	1854.83
541.65	1867.54
542.01	1880.93
542.37	1893.24
542.72	1905.85
543.08	1917.63
543.44	1930.21
543.79	1941.48
544.15	1952.49
544.51	1964.01
544.87	1975.09
545.22	1985.86
545.58	1996.34
545.94	2006.20
546.29	2016.05
546.65	2025.69
547.01	2034.83
547.36	2043.59
547.72	2052.18
548.07	2060.17
548.43	2068.46
548.79	2076.52
549.14	2084.07
549.50	2091.34
549.86	2099.29
550.21	2106.53
550.57	2113.80
550.92	2120.22
551.28	2127.39
551.64	2134.59
551.99	2141.24
552.35	2147.46
552.70	2153.69
553.06	2159.60
553.41	2165.81
553.77	2171.87
554.13	2178.05
554.48	2184.17
554.84	2189.55
555.19	2194.80
555.55	2199.61
555.90	2203.99
556.26	2208.76
556.61	2213.40
556.97	2217.57
557.32	2221.56
557.68	2225.79
558.03	2230.02
558.39	2233.87
558.74	2238.42
559.10	2242.13
559.45	2245.85
559.81	2250.15
560.16	2254.02
560.52	2257.27
560.87	2260.85
561.23	2263.55
561.58	2266.46
561.94	2269.26
562.29	2271.80
562.64	2274.45
563.00	2277.28
563.35	2280.77
563.71	2284.01
564.06	2287.25
564.42	2290.11
564.77	2292.42
565.12	2294.48
565.48	2296.30
565.83	2298.10
566.19	2299.33
566.54	2300.33
566.89	2301.34
567.25	2301.73
567.60	2303.02
567.96	2304.61
568.31	2305.45
568.66	2306.43
569.02	2307.10
569.37	2307.16
569.72	2307.91
570.08	2308.04
570.43	2307.85
570.78	2307.22
571.14	2305.49
571.49	2304.13
571.84	2303.84
572.20	2302.61
572.55	2301.77
572.90	2300.26
573.26	2298.69
573.61	2296.93
573.96	2295.03
574.31	2291.92
574.67	2288.84
575.02	2285.13
575.37	2281.73
575.72	2277.78
576.08	2274.49
576.43	2271.04
576.78	2267.34
577.13	2264.12
577.49	2261.01
577.84	2257.45
578.19	2253.71
578.54	2249.97
578.90	2245.58
579.25	2240.04
579.60	2234.99
579.95	2229.87
580.30	2224.72
580.66	2219.52
581.01	2214.44
581.36	2209.34
581.71	2205.20
582.06	2200.76
582.42	2196.15
582.77	2190.75
583.12	2186.05
583.47	2181.07
583.82	2175.94
584.17	2170.69
584.53	2165.08
584.88	2159.24
585.23	2153.51
585.58	2147.90
585.93	2142.55
586.28	2137.92
586.63	2132.81
586.98	2127.78
587.34	2123.09
587.69	2118.18
588.04	2112.90
588.39	2107.12
588.74	2100.67
589.09	2094.37
589.44	2087.43
589.79	2081.28
590.14	2075.67
590.49	2069.03
590.84	2062.69
591.19	2056.52
591.54	2049.99
591.89	2042.37
592.25	2035.46
592.60	2028.21
592.95	2020.56
593.30	2013.03
593.65	2005.13
594.00	1997.95
594.35	1990.45
594.70	1982.17
595.05	1974.78
595.40	1967.41
595.75	1959.94
596.10	1953.63
596.45	1946.69
596.80	1940.52
597.15	1933.85
597.50	1926.57
597.85	1920.09
598.19	1913.37
598.54	1906.26
598.89	1899.54
599.24	1893.77
599.59	1887.00
599.94	1880.72
600.29	1874.36
600.64	1867.69
600.99	1860.21
601.34	1853.31
601.69	1846.50
602.04	1839.58
602.39	1832.28
602.74	1825.39
603.08	1818.69
603.43	1812.00
603.78	1804.85
604.13	1797.53
604.48	1790.19
604.83	1783.34
605.18	1776.29
605.53	1768.23
605.87	1760.11
606.22	1752.88
606.57	1744.85
606.92	1737.56
607.27	1730.26
607.62	1723.40
607.96	1716.05
608.31	1709.50
608.66	1701.79
609.01	1694.21
609.36	1686.60
609.70	1678.52
610.05	1670.45
610.40	1662.70
610.75	1654.30
611.10	1646.58
611.44	1638.28
611.79	1630.35
612.14	1621.71
612.49	1612.65
612.83	1604.40
613.18	1596.36
613.53	1588.16
613.88	1579.56
614.22	1571.37
614.57	1562.80
614.92	1554.69
615.27	1547.10
615.61	1538.66
615.96	1530.81
616.31	1523.08
616.65	1515.70
617.00	1508.19
617.35	1500.67
617.70	1492.25
618.04	1483.69
618.39	1475.43
618.74	1467.76
619.08	1459.49
619.43	1451.99
619.78	1445.08
620.12	1437.78
620.47	1430.23
620.82	1422.09
621.16	1414.70
621.51	1407.01
621.85	1399.48
622.20	1391.03
622.55	1382.81
622.89	1375.05
623.24	1367.41
623.59	1360.12
623.93	1352.56
624.28	1345.36
624.62	1337.70
624.97	1330.53
625.32	1323.82
625.66	1316.88
626.01	1309.61
626.35	1302.08
626.70	1294.35
627.04	1286.55
627.39	1278.76
627.73	1271.33
628.08	1264.40
628.43	1257.09
628.77	1249.76
629.12	1241.97
629.46	1234.76
629.81	1227.29
630.15	1220.13
630.50	1212.68
630.84	1204.48
631.19	1196.66
631.53	1189.12
631.88	1181.54
632.22	1173.93
632.57	1166.62
632.91	1159.04
633.26	1151.74
633.60	1144.35
633.95	1137.21
634.29	1130.22
634.64	1123.50
634.98	1116.22
635.32	1109.11
635.67	1102.59
636.01	1095.86
636.36	1089.27
636.70	1082.77
637.05	1076.15
637.39	1069.69
637.73	1063.22
638.08	1057.39
638.42	1051.37
638.77	1044.84
639.11	1038.20
639.45	1031.83
639.80	1025.15
640.14	1018.63
640.49	1012.09
640.83	1005.84
641.17	999.54
641.52	993.25
641.86	986.94
642.20	981.04
642.55	974.81
642.89	968.21
643.23	961.84
643.58	956.04
643.92	949.77
644.26	943.76
644.61	937.67
644.95	931.59
645.29	924.95
645.64	918.22
645.98	911.93
646.32	906.20
646.66	900.22
647.01	894.45
647.35	888.85
647.69	883.09
648.04	877.60
648.38	871.83
648.72	865.80
649.06	859.69
649.41	853.84
649.75	847.74
650.09	841.84
650.43	835.93
650.78	829.71
651.12	823.80
651.46	818.09
651.80	812.32
652.14	806.92
652.49	801.58
652.83	796.43
653.17	790.76
653.51	784.94
653.85	779.49
654.20	773.84
654.54	767.86
654.88	762.14
655.22	756.21
655.56	750.58
655.90	745.12
656.25	739.83
656.59	734.43
656.93	729.45
657.27	724.29
657.61	718.89
657.95	713.77
658.29	708.66
658.64	703.43
658.98	698.16
659.32	692.71
659.66	687.44
660.00	682.12
660.34	677.23
660.68	672.37
661.02	667.38
661.36	662.67
661.70	658.14
662.05	653.80
662.39	649.49
662.73	644.97
663.07	640.60
663.41	636.19
663.75	631.74
664.09	627.17
664.43	622.81
664.77	618.66
665.11	614.47
665.45	610.40
665.79	606.27
666.13	602.15
666.47	598.08
666.81	593.95
667.15	589.86
667.49	585.89
667.83	582.06
668.17	578.05
668.51	573.99
668.85	570.01
669.19	566.19
669.53	562.36
669.87	558.48
670.21	554.81
670.55	551.17
670.89	547.68
671.23	544.20
671.57	540.73
671.91	537.25
672.25	533.71
672.58	530.14
672.92	526.75
673.26	523.67
673.60	520.53
673.94	517.44
674.28	514.55
674.62	511.62
674.96	508.57
675.30	505.71
675.64	502.81
675.97	500.05
676.31	497.11
676.65	494.16
676.99	491.46
677.33	488.59
677.67	485.76
678.01	482.80
678.34	479.85
678.68	476.98
679.02	474.14
679.36	471.44
679.70	468.76
680.04	465.99
680.37	463.04
680.71	460.27
681.05	457.65
681.39	454.92
681.73	452.27
682.06	449.73
682.40	447.22
682.74	444.67
683.08	442.09
683.42	439.50
683.75	437.04
684.09	434.45
684.43	431.95
684.77	429.53
685.10	427.18
685.44	424.89
685.78	422.56
686.12	420.40
686.45	418.13
686.79	415.83
687.13	413.68
687.46	411.58
687.80	409.42
688.14	407.21
688.48	405.17
688.81	402.94
689.15	400.81
689.49	398.66
689.82	396.58
690.16	394.48
690.50	392.56
690.83	390.62
691.17	388.69
691.51	386.80
691.84	384.98
692.18	383.02
692.52	381.05
692.85	379.11
693.19	377.18
693.52	375.34
693.86	373.58
694.20	371.84
694.53	370.05
694.87	368.22
695.21	366.44
695.54	364.60
695.88	362.94
696.21	361.19
696.55	359.51
696.88	357.86
697.22	356.20
697.56	354.58
697.89	352.91
698.23	351.31
698.56	349.70
698.90	348.08
699.23	346.43
699.57	344.89
699.90	343.36
700.24	341.80
700.58	340.27
700.91	338.72
701.25	337.24
701.58	335.88
701.92	334.53
702.25	333.17
702.59	331.78
702.92	330.40
703.26	329.11
703.59	327.78
703.93	326.59
704.26	325.37
704.60	324.05
704.93	322.78
705.26	321.54
705.60	320.37
705.93	319.21
706.27	318.17
706.60	317.12
706.94	316.01
707.27	314.86
707.61	313.81
707.94	312.77
708.27	311.62
708.61	310.49
708.94	309.45
709.28	308.48
709.61	307.51
709.94	306.58
710.28	305.58
710.61	304.63
710.95	303.55
711.28	302.62
711.61	301.65
711.95	300.73
712.28	299.75
712.61	298.74
712.95	297.79
713.28	296.88
713.61	295.97
713.95	295.09
714.28	294.30
714.61	293.41
714.95	292.58
715.28	291.77
715.61	290.87
715.95	290.03
716.28	289.15
716.61	288.34
716.95	287.55
717.28	286.79
717.61	286.03
717.94	285.28
718.28	284.49
718.61	283.82
718.94	283.13
719.27	282.48
719.61	281.83
719.94	281.21
720.27	280.53
720.60	279.88
720.94	279.31
721.27	278.70
721.60	278.16
721.93	277.56
722.27	277.03
722.60	276.50
722.93	275.90
723.26	275.41
723.59	274.88
723.93	274.31
724.26	273.80
724.59	273.24
724.92	272.75
725.25	272.30
725.59	271.76
725.92	271.27
726.25	270.77
726.58	270.32
726.91	269.86
727.24	269.40
727.57	268.95
727.91	268.46
728.24	267.99
728.57	267.51
728.90	267.08
729.23	266.59
729.56	266.18
729.89	265.75
730.22	265.27
730.55	264.82
730.89	264.36
731.22	263.87
731.55	263.46
731.88	263.05
732.21	262.61
732.54	262.19
732.87	261.77
733.20	261.41
733.53	261.01
733.86	260.62
734.19	260.24
734.52	259.85
734.85	259.50
735.18	259.10
735.51	258.76
735.84	258.38
736.17	258.05
736.50	257.62
736.83	257.39
737.16	257.05
737.49	256.69
737.82	256.33
738.15	256.02
738.48	255.66
738.81	255.30
739.14	254.92
739.47	254.59
739.80	254.27
740.13	253.93
740.46	253.59
740.79	253.25
741.12	252.94
741.45	252.64
741.78	252.27
742.11	251.96
742.44	251.61
742.77	251.31
743.10	251.00
743.43	250.72
743.75	250.32
744.08	250.14
744.41	249.85
744.74	249.58
745.07	249.30
745.40	249.07
745.73	248.84
746.06	248.58
746.39	248.31
746.71	248.06
747.04	247.81
747.37	247.57
747.70	247.29
748.03	247.05
748.36	246.81
748.68	246.59
749.01	246.36
749.34	246.14
749.67	245.89
750.00	245.64
750.33	245.49
750.65	245.27
750.98	244.93
751.31	244.72
751.64	244.53
751.97	244.33
752.29	244.11
752.62	243.86
752.95	243.66
753.28	243.42
753.60	243.20
753.93	242.99
754.26	242.76
754.59	242.54
754.91	242.31
755.24	242.11
755.57	241.94
755.90	241.72
756.22	241.53
756.55	241.34
756.88	241.14
757.20	240.93
757.53	240.72
757.86	240.60
758.19	240.42
758.51	240.25
758.84	240.08
759.17	239.93
759.49	239.78
759.82	239.66
760.15	239.55
760.47	239.42
760.80	239.28
761.13	239.19
761.45	239.07
761.78	238.96
762.11	238.84
762.43	238.68
762.76	238.56
763.08	238.41
763.41	238.31
763.74	238.18
764.06	238.01
764.39	237.90
764.71	237.71
765.04	237.62
765.37	237.49
765.69	237.33
766.02	237.18
766.34	237.06
766.67	236.91
767.00	236.81
767.32	236.76
767.65	236.69
767.97	236.55
768.30	236.46
768.62	236.34
768.95	236.23
769.27	236.11
769.60	236.03
769.92	235.92
770.25	235.78
770.57	235.70
770.90	235.63
771.22	235.53
771.55	235.43
771.87	235.33
772.20	235.23
772.52	235.22
772.85	235.26
773.17	235.16
773.50	235.06
773.82	234.98
774.15	234.82
774.47	234.69
774.80	234.59
775.12	234.48
775.45	234.39
775.77	234.33
776.09	234.27
776.42	234.21
776.74	234.18
777.07	234.06
777.39	234.01
777.72	233.90
778.04	233.80
778.36	233.75
778.69	233.69
779.01	233.66
779.33	233.53
779.66	233.35
779.98	233.27
780.31	233.18
780.63	233.15
780.95	233.12
781.28	233.02
781.60	232.95
781.92	232.89
782.25	232.82
782.57	232.76
782.89	232.68
783.22	232.59
783.54	232.51
783.86	232.48
784.19	232.39
784.51	232.38
784.83	232.34
785.16	232.23
785.48	232.15
785.80	232.07
786.12	232.00
786.45	231.92
786.77	231.86
787.09	231.83
