SpectraSuite Data File
++++++++++++++++++++++++++++++++++++
Date: Fri Feb 01 17:12:15 EST 2013
User: group
Dark Spectrum Present: No
Reference Spectrum Present: No
Number of Sampled Component Spectra: 1
Spectrometers: USB2E7196
Integration Time (usec): 35000 (USB2E7196)
Spectra Averaged: 100 (USB2E7196)
Boxcar Smoothing: 10 (USB2E7196)
Correct for Electrical Dark: No (USB2E7196)
Strobe/Lamp Enabled: No (USB2E7196)
Correct for Detector Non-linearity: No (USB2E7196)
Correct for Stray Light: No (USB2E7196)
Number of Pixels in Processed Spectrum: 2048
>>>>>Begin Processed Spectral Data<<<<<
339.09	0.00
339.48	212.84
339.86	214.52
340.24	216.27
340.63	217.83
341.01	220.07
341.39	220.45
341.78	221.26
342.16	222.17
342.54	223.21
342.93	211.69
343.31	222.39
343.69	222.94
344.07	223.40
344.46	223.81
344.84	224.19
345.22	224.44
345.60	224.67
345.99	224.84
346.37	224.99
346.75	225.09
347.13	225.18
347.52	225.22
347.90	225.27
348.28	225.31
348.66	225.35
349.05	225.34
349.43	225.35
349.81	225.41
350.19	225.44
350.57	225.50
350.96	225.54
351.34	225.59
351.72	225.67
352.10	225.79
352.48	225.85
352.87	225.91
353.25	225.97
353.63	226.03
354.01	226.10
354.39	226.20
354.77	226.24
355.15	226.31
355.54	226.38
355.92	226.40
356.30	226.46
356.68	226.59
357.06	226.70
357.44	226.77
357.82	226.81
358.20	226.88
358.58	226.97
358.97	227.06
359.35	227.16
359.73	227.23
360.11	227.26
360.49	227.35
360.87	227.35
361.25	227.39
361.63	227.46
362.01	227.51
362.39	227.53
362.77	227.56
363.15	227.60
363.53	227.66
363.91	227.69
364.29	227.72
364.67	227.63
365.05	227.61
365.43	227.62
365.81	227.64
366.19	227.71
366.57	227.72
366.95	227.73
367.33	227.72
367.71	227.74
368.09	227.74
368.47	227.70
368.85	227.73
369.23	227.77
369.61	227.71
369.99	227.72
370.37	227.70
370.75	227.79
371.13	227.77
371.51	227.71
371.89	227.68
372.27	227.64
372.65	227.64
373.03	227.61
373.41	227.58
373.78	227.51
374.16	227.40
374.54	227.32
374.92	227.22
375.30	227.15
375.68	227.07
376.06	227.04
376.44	226.98
376.82	226.90
377.19	226.82
377.57	226.78
377.95	226.71
378.33	226.66
378.71	226.51
379.09	226.45
379.47	226.41
379.84	226.34
380.22	226.27
380.60	226.18
380.98	226.11
381.36	226.03
381.73	225.99
382.11	225.94
382.49	225.88
382.87	225.83
383.25	225.75
383.62	225.80
384.00	225.71
384.38	225.69
384.76	225.65
385.13	225.66
385.51	225.58
385.89	225.49
386.27	225.43
386.64	225.41
387.02	225.32
387.40	225.27
387.78	225.24
388.15	225.21
388.53	225.18
388.91	225.13
389.29	225.12
389.66	225.08
390.04	225.06
390.42	225.03
390.79	225.02
391.17	225.03
391.55	224.92
391.92	224.94
392.30	224.89
392.68	224.84
393.05	224.78
393.43	224.77
393.81	224.78
394.18	224.78
394.56	224.79
394.94	224.83
395.31	224.84
395.69	224.87
396.06	224.86
396.44	224.89
396.82	224.93
397.19	224.99
397.57	225.00
397.95	225.00
398.32	225.04
398.70	225.10
399.07	225.14
399.45	225.16
399.82	225.16
400.20	225.21
400.58	225.30
400.95	225.31
401.33	225.42
401.70	225.56
402.08	225.66
402.45	225.72
402.83	225.81
403.20	225.86
403.58	225.96
403.95	226.09
404.33	226.20
404.71	226.30
405.08	226.45
405.46	226.56
405.83	226.73
406.21	226.87
406.58	227.00
406.96	227.15
407.33	227.35
407.70	227.58
408.08	227.85
408.45	228.07
408.83	228.33
409.20	228.54
409.58	228.73
409.95	228.94
410.33	229.20
410.70	229.45
411.08	229.79
411.45	230.04
411.82	230.33
412.20	230.71
412.57	231.13
412.95	231.46
413.32	231.87
413.69	232.28
414.07	232.70
414.44	233.16
414.82	233.67
415.19	234.19
415.56	234.72
415.94	235.31
416.31	235.93
416.68	236.55
417.06	237.26
417.43	237.96
417.81	238.74
418.18	239.51
418.55	240.33
418.93	241.18
419.30	242.13
419.67	243.10
420.04	244.06
420.42	245.06
420.79	246.22
421.16	247.37
421.54	248.61
421.91	249.86
422.28	251.17
422.66	252.51
423.03	253.81
423.40	255.18
423.77	256.58
424.15	258.01
424.52	259.52
424.89	261.14
425.26	262.70
425.64	264.21
426.01	265.88
426.38	267.61
426.75	269.34
427.13	271.05
427.50	272.90
427.87	274.80
428.24	276.66
428.61	278.44
428.99	280.44
429.36	282.51
429.73	284.61
430.10	286.63
430.47	288.71
430.85	290.91
431.22	293.19
431.59	295.57
431.96	297.82
432.33	300.34
432.70	302.72
433.08	305.54
433.45	308.17
433.82	310.81
434.19	313.77
434.56	316.61
434.93	319.33
435.30	322.00
435.68	324.92
436.05	327.79
436.42	330.62
436.79	333.17
437.16	335.85
437.53	338.74
437.90	341.54
438.27	344.32
438.64	347.13
439.01	349.71
439.38	352.00
439.75	354.25
440.13	356.77
440.50	359.16
440.87	361.03
441.24	362.98
441.61	365.14
441.98	366.57
442.35	368.36
442.72	370.23
443.09	372.02
443.46	373.01
443.83	373.64
444.20	374.16
444.57	374.99
444.94	375.34
445.31	375.65
445.68	376.07
446.05	376.18
446.42	375.86
446.79	375.42
447.16	374.97
447.53	374.62
447.90	373.44
448.27	372.24
448.64	370.68
449.01	369.59
449.37	367.61
449.74	365.73
450.11	363.47
450.48	361.03
450.85	358.53
451.22	356.38
451.59	354.32
451.96	352.41
452.33	349.82
452.70	347.45
453.07	344.63
453.43	341.69
453.80	338.89
454.17	336.14
454.54	333.61
454.91	330.83
455.28	328.17
455.65	325.69
456.02	323.23
456.38	321.08
456.75	318.36
457.12	316.11
457.49	313.86
457.86	311.66
458.23	309.75
458.59	307.66
458.96	305.56
459.33	303.70
459.70	301.81
460.07	300.28
460.43	298.56
460.80	296.90
461.17	295.47
461.54	293.95
461.91	292.53
462.27	291.07
462.64	289.88
463.01	288.54
463.38	287.17
463.74	285.78
464.11	284.59
464.48	283.57
464.85	282.46
465.21	281.59
465.58	280.63
465.95	279.53
466.32	278.62
466.68	277.75
467.05	276.85
467.42	275.97
467.78	275.02
468.15	274.13
468.52	273.50
468.88	272.63
469.25	271.84
469.62	271.24
469.98	270.55
470.35	269.91
470.72	269.27
471.08	268.65
471.45	268.13
471.82	267.58
472.18	267.00
472.55	266.56
472.92	266.06
473.28	265.64
473.65	265.18
474.02	264.71
474.38	264.27
474.75	263.95
475.11	263.55
475.48	263.28
475.85	263.07
476.21	262.81
476.58	262.64
476.94	262.51
477.31	262.34
477.67	262.19
478.04	262.08
478.41	262.04
478.77	262.10
479.14	262.05
479.50	262.06
479.87	262.11
480.23	262.17
480.60	262.22
480.96	262.28
481.33	262.50
481.69	262.73
482.06	262.96
482.42	263.18
482.79	263.44
483.15	263.75
483.52	264.12
483.88	264.45
484.25	264.81
484.61	265.20
484.98	265.63
485.34	266.19
485.71	266.76
486.07	267.38
486.44	267.94
486.80	268.72
487.17	269.43
487.53	270.27
487.90	271.11
488.26	272.03
488.62	273.04
488.99	273.96
489.35	275.02
489.72	276.14
490.08	277.28
490.44	278.53
490.81	279.84
491.17	281.18
491.54	282.67
491.90	284.20
492.26	285.87
492.63	287.59
492.99	289.39
493.36	291.27
493.72	293.28
494.08	295.40
494.45	297.56
494.81	299.93
495.17	302.37
495.54	304.96
495.90	307.66
496.26	310.42
496.63	313.40
496.99	316.50
497.35	319.75
497.72	323.21
498.08	326.75
498.44	330.48
498.80	334.41
499.17	338.43
499.53	342.65
499.89	347.04
500.26	351.58
500.62	356.20
500.98	361.18
501.34	366.28
501.71	371.57
502.07	376.96
502.43	382.52
502.79	388.29
503.16	394.34
503.52	400.58
503.88	407.02
504.24	413.64
504.60	420.49
504.97	427.59
505.33	434.81
505.69	442.48
506.05	450.14
506.41	457.93
506.78	466.07
507.14	474.44
507.50	483.05
507.86	491.97
508.22	501.11
508.59	510.19
508.95	519.63
509.31	529.36
509.67	539.47
510.03	549.71
510.39	560.12
510.75	570.77
511.12	581.51
511.48	592.60
511.84	603.88
512.20	615.24
512.56	627.05
512.92	639.10
513.28	651.29
513.64	663.63
514.00	676.21
514.37	688.97
514.73	701.82
515.09	714.62
515.45	727.70
515.81	741.08
516.17	754.89
516.53	768.82
516.89	782.72
517.25	796.65
517.61	810.78
517.97	825.10
518.33	839.33
518.69	853.93
519.05	868.64
519.41	883.55
519.77	898.75
520.13	913.81
520.49	928.94
520.85	944.01
521.21	959.46
521.57	975.32
521.93	990.73
522.29	1006.73
522.65	1022.75
523.01	1038.67
523.37	1054.39
523.73	1070.23
524.09	1085.96
524.45	1101.89
524.81	1118.11
525.17	1134.64
525.53	1151.06
525.89	1167.54
526.25	1184.04
526.61	1200.17
526.97	1216.60
527.33	1232.77
527.68	1249.10
528.04	1265.19
528.40	1281.42
528.76	1298.12
529.12	1314.47
529.48	1331.08
529.84	1346.85
530.20	1363.05
530.56	1379.53
530.91	1396.55
531.27	1413.06
531.63	1429.21
531.99	1445.64
532.35	1461.28
532.71	1476.84
533.07	1493.01
533.42	1508.66
533.78	1524.46
534.14	1540.36
534.50	1555.41
534.86	1570.91
535.21	1585.98
535.57	1601.63
535.93	1616.77
536.29	1631.24
536.65	1645.85
537.00	1660.19
537.36	1675.30
537.72	1689.53
538.08	1703.76
538.44	1717.30
538.79	1730.78
539.15	1744.03
539.51	1757.35
539.87	1771.51
540.22	1784.89
540.58	1798.09
540.94	1811.04
541.29	1823.61
541.65	1836.04
542.01	1848.96
542.37	1861.22
542.72	1873.28
543.08	1884.90
543.44	1897.17
543.79	1908.28
544.15	1919.33
544.51	1930.75
544.87	1941.50
545.22	1952.33
545.58	1962.64
545.94	1972.31
546.29	1982.30
546.65	1992.30
547.01	2001.65
547.36	2010.42
547.72	2018.94
548.07	2027.05
548.43	2035.36
548.79	2043.15
549.14	2050.94
549.50	2058.35
549.86	2065.92
550.21	2073.23
550.57	2080.49
550.92	2087.25
551.28	2094.48
551.64	2101.69
551.99	2108.29
552.35	2114.52
552.70	2120.77
553.06	2126.75
553.41	2133.30
553.77	2139.22
554.13	2145.35
554.48	2151.56
554.84	2157.21
555.19	2162.56
555.55	2167.82
555.90	2172.43
556.26	2177.78
556.61	2182.59
556.97	2187.39
557.32	2191.80
557.68	2196.24
558.03	2200.60
558.39	2204.39
558.74	2209.20
559.10	2213.15
559.45	2217.09
559.81	2221.62
560.16	2225.56
560.52	2229.05
560.87	2232.53
561.23	2235.36
561.58	2238.41
561.94	2241.16
562.29	2243.55
562.64	2246.74
563.00	2249.36
563.35	2253.14
563.71	2256.32
564.06	2259.64
564.42	2262.54
564.77	2265.29
565.12	2267.91
565.48	2270.30
565.83	2272.47
566.19	2273.95
566.54	2274.92
566.89	2276.43
567.25	2277.37
567.60	2278.89
567.96	2280.86
568.31	2282.01
568.66	2283.46
569.02	2284.32
569.37	2284.94
569.72	2286.19
570.08	2286.54
570.43	2286.91
570.78	2286.65
571.14	2285.47
571.49	2284.30
571.84	2284.01
572.20	2283.16
572.55	2282.28
572.90	2280.65
573.26	2279.47
573.61	2277.92
573.96	2276.60
574.31	2273.87
574.67	2270.99
575.02	2267.68
575.37	2264.40
575.72	2261.06
576.08	2257.93
576.43	2254.83
576.78	2251.47
577.13	2248.23
577.49	2245.11
577.84	2241.85
578.19	2238.17
578.54	2234.86
578.90	2231.10
579.25	2225.96
579.60	2221.24
579.95	2216.49
580.30	2211.82
580.66	2206.98
581.01	2202.22
581.36	2197.54
581.71	2193.59
582.06	2189.53
582.42	2185.37
582.77	2180.48
583.12	2176.08
583.47	2171.80
583.82	2167.06
584.17	2161.96
584.53	2156.84
584.88	2151.57
585.23	2146.18
585.58	2140.81
585.93	2135.48
586.28	2130.60
586.63	2125.80
586.98	2120.95
587.34	2116.30
587.69	2111.54
588.04	2106.50
588.39	2101.17
588.74	2094.86
589.09	2088.91
589.44	2082.37
589.79	2076.30
590.14	2070.69
590.49	2064.14
590.84	2057.76
591.19	2052.05
591.54	2045.77
591.89	2038.78
592.25	2032.24
592.60	2025.23
592.95	2018.14
593.30	2011.00
593.65	2003.66
594.00	1996.69
594.35	1989.49
594.70	1981.63
595.05	1974.80
595.40	1967.50
595.75	1960.05
596.10	1954.13
596.45	1947.56
596.80	1941.43
597.15	1935.10
597.50	1928.50
597.85	1922.10
598.19	1915.82
598.54	1909.03
598.89	1902.55
599.24	1896.66
599.59	1890.28
599.94	1884.04
600.29	1877.71
600.64	1871.20
600.99	1864.06
601.34	1857.51
601.69	1850.63
602.04	1843.95
602.39	1836.59
602.74	1829.98
603.08	1823.41
603.43	1816.68
603.78	1809.46
604.13	1802.34
604.48	1795.19
604.83	1788.27
605.18	1781.77
605.53	1773.79
605.87	1765.60
606.22	1758.27
606.57	1750.28
606.92	1742.56
607.27	1735.54
607.62	1728.65
607.96	1721.38
608.31	1715.05
608.66	1707.39
609.01	1699.94
609.36	1692.43
609.70	1684.45
610.05	1676.36
610.40	1668.68
610.75	1660.35
611.10	1652.58
611.44	1644.10
611.79	1635.93
612.14	1627.32
612.49	1617.99
612.83	1609.34
613.18	1601.24
613.53	1593.22
613.88	1584.82
614.22	1576.73
614.57	1568.00
614.92	1560.02
615.27	1552.68
615.61	1544.05
615.96	1535.89
616.31	1528.20
616.65	1520.81
617.00	1513.29
617.35	1505.56
617.70	1497.23
618.04	1488.71
618.39	1480.54
618.74	1472.95
619.08	1464.72
619.43	1457.04
619.78	1449.95
620.12	1442.90
620.47	1435.35
620.82	1427.07
621.16	1419.45
621.51	1411.62
621.85	1403.97
622.20	1395.39
622.55	1386.90
622.89	1379.13
623.24	1371.43
623.59	1363.93
623.93	1356.40
624.28	1349.02
624.62	1341.60
624.97	1334.47
625.32	1327.64
625.66	1320.45
626.01	1313.28
626.35	1305.89
626.70	1297.93
627.04	1290.24
627.39	1282.39
627.73	1274.95
628.08	1268.18
628.43	1260.99
628.77	1253.81
629.12	1246.32
629.46	1239.14
629.81	1231.52
630.15	1224.13
630.50	1216.81
630.84	1208.67
631.19	1200.52
631.53	1192.96
631.88	1185.19
632.22	1177.40
632.57	1170.00
632.91	1162.50
633.26	1155.10
633.60	1147.69
633.95	1140.60
634.29	1133.49
634.64	1126.76
634.98	1119.37
635.32	1112.05
635.67	1105.34
636.01	1098.56
636.36	1091.72
636.70	1085.14
637.05	1078.54
637.39	1072.07
637.73	1065.56
638.08	1059.66
638.42	1053.68
638.77	1047.22
639.11	1040.76
639.45	1034.44
639.80	1027.74
640.14	1021.44
640.49	1014.88
640.83	1008.59
641.17	1002.37
641.52	996.05
641.86	989.64
642.20	983.79
642.55	977.41
642.89	971.08
643.23	964.51
643.58	958.74
643.92	952.60
644.26	946.74
644.61	940.70
644.95	934.64
645.29	928.18
645.64	921.41
645.98	915.03
646.32	909.04
646.66	902.99
647.01	897.27
647.35	891.46
647.69	885.47
648.04	879.87
648.38	874.12
648.72	868.18
649.06	862.18
649.41	856.23
649.75	850.34
650.09	844.29
650.43	838.47
650.78	832.28
651.12	826.22
651.46	820.38
651.80	814.68
652.14	809.31
652.49	803.85
652.83	798.71
653.17	793.19
653.51	787.52
653.85	782.04
654.20	776.36
654.54	770.33
654.88	764.59
655.22	758.62
655.56	752.88
655.90	747.38
656.25	742.03
656.59	736.69
656.93	731.56
657.27	726.44
657.61	721.01
657.95	715.93
658.29	710.88
658.64	705.55
658.98	700.09
659.32	694.57
659.66	689.35
660.00	684.14
660.34	679.11
660.68	674.21
661.02	669.17
661.36	664.48
661.70	660.01
662.05	655.72
662.39	651.42
662.73	646.88
663.07	642.43
663.41	638.05
663.75	633.59
664.09	629.03
664.43	624.62
664.77	620.56
665.11	616.29
665.45	612.12
665.79	608.13
666.13	604.05
666.47	599.93
666.81	595.74
667.15	591.49
667.49	587.55
667.83	583.67
668.17	579.71
668.51	575.64
668.85	571.60
669.19	567.60
669.53	563.78
669.87	560.03
670.21	556.32
670.55	552.55
670.89	549.05
671.23	545.58
671.57	541.97
671.91	538.42
672.25	534.84
672.58	531.29
672.92	527.80
673.26	524.60
673.60	521.37
673.94	518.25
674.28	515.32
674.62	512.40
674.96	509.31
675.30	506.42
675.64	503.53
675.97	500.70
676.31	497.88
676.65	494.91
676.99	492.11
677.33	489.26
677.67	486.43
678.01	483.41
678.34	480.49
678.68	477.67
679.02	474.83
679.36	472.05
679.70	469.37
680.04	466.60
680.37	463.77
680.71	460.95
681.05	458.37
681.39	455.69
681.73	453.00
682.06	450.50
682.40	447.96
682.74	445.36
683.08	442.77
683.42	440.17
683.75	437.69
684.09	435.10
684.43	432.64
684.77	430.26
685.10	427.88
685.44	425.52
685.78	423.21
686.12	420.94
686.45	418.63
686.79	416.33
687.13	414.14
687.46	411.95
687.80	409.82
688.14	407.52
688.48	405.49
688.81	403.29
689.15	401.15
689.49	398.96
689.82	396.89
690.16	394.79
690.50	392.80
690.83	390.84
691.17	388.84
691.51	386.90
691.84	385.00
692.18	383.07
692.52	381.12
692.85	379.19
693.19	377.32
693.52	375.49
693.86	373.58
694.20	371.77
694.53	369.99
694.87	368.13
695.21	366.33
695.54	364.38
695.88	362.57
696.21	360.77
696.55	359.09
696.88	357.35
697.22	355.66
697.56	353.99
697.89	352.35
698.23	350.74
698.56	349.14
698.90	347.58
699.23	345.96
699.57	344.41
699.90	342.79
700.24	341.24
700.58	339.71
700.91	338.22
701.25	336.74
701.58	335.31
701.92	333.93
702.25	332.53
702.59	331.17
702.92	329.82
703.26	328.49
703.59	327.17
703.93	325.95
704.26	324.72
704.60	323.46
704.93	322.16
705.26	320.90
705.60	319.66
705.93	318.40
706.27	317.33
706.60	316.20
706.94	315.10
707.27	313.93
707.61	312.81
707.94	311.76
708.27	310.65
708.61	309.52
708.94	308.52
709.28	307.51
709.61	306.56
709.94	305.60
710.28	304.59
710.61	303.61
710.95	302.50
711.28	301.59
711.61	300.60
711.95	299.66
712.28	298.75
712.61	297.76
712.95	296.81
713.28	295.89
713.61	294.99
713.95	294.10
714.28	293.27
714.61	292.42
714.95	291.58
715.28	290.73
715.61	289.90
715.95	289.00
716.28	288.12
716.61	287.28
716.95	286.48
717.28	285.72
717.61	284.96
717.94	284.26
718.28	283.43
718.61	282.69
718.94	282.01
719.27	281.33
719.61	280.66
719.94	280.04
720.27	279.32
720.60	278.62
720.94	278.01
721.27	277.39
721.60	276.82
721.93	276.21
722.27	275.69
722.60	275.11
722.93	274.56
723.26	274.04
723.59	273.47
723.93	272.89
724.26	272.34
724.59	271.76
724.92	271.20
725.25	270.71
725.59	270.18
725.92	269.67
726.25	269.17
726.58	268.69
726.91	268.17
727.24	267.68
727.57	267.26
727.91	266.74
728.24	266.25
728.57	265.73
728.90	265.27
729.23	264.73
729.56	264.31
729.89	263.83
730.22	263.33
730.55	262.88
730.89	262.44
731.22	262.00
731.55	261.57
731.88	261.15
732.21	260.72
732.54	260.26
732.87	259.85
733.20	259.41
733.53	259.03
733.86	258.67
734.19	258.30
734.52	257.91
734.85	257.61
735.18	257.19
735.51	256.88
735.84	256.49
736.17	256.17
736.50	255.77
736.83	255.52
737.16	255.19
737.49	254.86
737.82	254.52
738.15	254.20
738.48	253.86
738.81	253.52
739.14	253.18
739.47	252.93
739.80	252.61
740.13	252.31
740.46	252.02
740.79	251.70
741.12	251.35
741.45	251.04
741.78	250.68
742.11	250.44
742.44	250.08
742.77	249.79
743.10	249.50
743.43	249.22
743.75	248.83
744.08	248.69
744.41	248.40
744.74	248.17
745.07	247.90
745.40	247.65
745.73	247.42
746.06	247.16
746.39	246.87
746.71	246.58
747.04	246.30
747.37	246.02
747.70	245.74
748.03	245.53
748.36	245.28
748.68	245.04
749.01	244.79
749.34	244.64
749.67	244.41
750.00	244.15
750.33	244.00
750.65	243.80
750.98	243.48
751.31	243.25
751.64	243.03
751.97	242.85
752.29	242.61
752.62	242.39
752.95	242.17
753.28	241.97
753.60	241.77
753.93	241.62
754.26	241.40
754.59	241.20
754.91	240.96
755.24	240.76
755.57	240.55
755.90	240.37
756.22	240.14
756.55	239.91
756.88	239.73
757.20	239.48
757.53	239.29
757.86	239.09
758.19	238.93
758.51	238.75
758.84	238.52
759.17	238.36
759.49	238.19
759.82	238.08
760.15	237.92
760.47	237.75
760.80	237.56
761.13	237.43
761.45	237.28
761.78	237.13
762.11	236.98
762.43	236.85
762.76	236.68
763.08	236.55
763.41	236.44
763.74	236.34
764.06	236.18
764.39	236.04
764.71	235.94
765.04	235.78
765.37	235.63
765.69	235.49
766.02	235.38
766.34	235.22
766.67	235.05
767.00	234.96
767.32	234.93
767.65	234.88
767.97	234.76
768.30	234.66
768.62	234.56
768.95	234.44
769.27	234.35
769.60	234.25
769.92	234.10
770.25	234.00
770.57	233.85
770.90	233.75
771.22	233.64
771.55	233.53
771.87	233.46
772.20	233.35
772.52	233.36
772.85	233.35
773.17	233.30
773.50	233.22
773.82	233.12
774.15	232.94
774.47	232.81
774.80	232.72
775.12	232.60
775.45	232.54
775.77	232.46
776.09	232.36
776.42	232.27
776.74	232.25
777.07	232.16
777.39	232.07
777.72	232.00
778.04	231.95
778.36	231.83
778.69	231.77
779.01	231.71
779.33	231.57
779.66	231.38
779.98	231.28
780.31	231.21
780.63	231.17
780.95	231.14
781.28	231.10
781.60	231.05
781.92	231.03
782.25	230.98
782.57	230.93
782.89	230.86
783.22	230.81
783.54	230.73
783.86	230.63
784.19	230.59
784.51	230.58
784.83	230.49
785.16	230.49
785.48	230.43
785.80	230.37
786.12	230.31
786.45	230.27
786.77	230.24
787.09	230.18
