SpectraSuite Data File
++++++++++++++++++++++++++++++++++++
Date: Fri Feb 01 17:21:50 EST 2013
User: group
Dark Spectrum Present: No
Reference Spectrum Present: No
Number of Sampled Component Spectra: 1
Spectrometers: USB2E7196
Integration Time (usec): 35000 (USB2E7196)
Spectra Averaged: 100 (USB2E7196)
Boxcar Smoothing: 10 (USB2E7196)
Correct for Electrical Dark: No (USB2E7196)
Strobe/Lamp Enabled: No (USB2E7196)
Correct for Detector Non-linearity: No (USB2E7196)
Correct for Stray Light: No (USB2E7196)
Number of Pixels in Processed Spectrum: 2048
>>>>>Begin Processed Spectral Data<<<<<
339.09	0.00
339.48	212.68
339.86	214.38
340.24	216.09
340.63	217.47
341.01	219.93
341.39	220.24
341.78	221.34
342.16	222.24
342.54	222.69
342.93	211.30
343.31	221.97
343.69	222.51
344.07	222.97
344.46	223.41
344.84	223.79
345.22	224.00
345.60	224.26
345.99	224.43
346.37	224.57
346.75	224.67
347.13	224.75
347.52	224.78
347.90	224.84
348.28	224.85
348.66	224.89
349.05	224.88
349.43	224.93
349.81	224.93
350.19	224.98
350.57	225.07
350.96	225.15
351.34	225.23
351.72	225.33
352.10	225.43
352.48	225.44
352.87	225.50
353.25	225.59
353.63	225.63
354.01	225.71
354.39	225.80
354.77	225.89
355.15	226.00
355.54	226.09
355.92	226.13
356.30	226.23
356.68	226.37
357.06	226.47
357.44	226.55
357.82	226.63
358.20	226.72
358.58	226.75
358.97	226.80
359.35	226.92
359.73	227.02
360.11	227.07
360.49	227.17
360.87	227.19
361.25	227.24
361.63	227.32
362.01	227.38
362.39	227.39
362.77	227.46
363.15	227.48
363.53	227.51
363.91	227.53
364.29	227.60
364.67	227.54
365.05	227.54
365.43	227.55
365.81	227.57
366.19	227.63
366.57	227.66
366.95	227.65
367.33	227.59
367.71	227.56
368.09	227.56
368.47	227.54
368.85	227.51
369.23	227.50
369.61	227.44
369.99	227.44
370.37	227.40
370.75	227.38
371.13	227.33
371.51	227.28
371.89	227.24
372.27	227.16
372.65	227.12
373.03	227.08
373.41	227.00
373.78	226.97
374.16	226.86
374.54	226.79
374.92	226.76
375.30	226.71
375.68	226.65
376.06	226.62
376.44	226.55
376.82	226.48
377.19	226.44
377.57	226.35
377.95	226.24
378.33	226.18
378.71	226.08
379.09	226.05
379.47	226.03
379.84	225.96
380.22	225.87
380.60	225.78
380.98	225.72
381.36	225.68
381.73	225.58
382.11	225.55
382.49	225.54
382.87	225.44
383.25	225.37
383.62	225.42
384.00	225.34
384.38	225.29
384.76	225.26
385.13	225.25
385.51	225.23
385.89	225.19
386.27	225.14
386.64	225.08
387.02	225.01
387.40	224.96
387.78	224.91
388.15	224.88
388.53	224.86
388.91	224.82
389.29	224.79
389.66	224.75
390.04	224.71
390.42	224.66
390.79	224.65
391.17	224.64
391.55	224.50
391.92	224.51
392.30	224.51
392.68	224.51
393.05	224.47
393.43	224.48
393.81	224.48
394.18	224.49
394.56	224.50
394.94	224.55
395.31	224.54
395.69	224.59
396.06	224.65
396.44	224.67
396.82	224.66
397.19	224.74
397.57	224.77
397.95	224.81
398.32	224.82
398.70	224.90
399.07	224.98
399.45	225.03
399.82	225.07
400.20	225.13
400.58	225.18
400.95	225.18
401.33	225.26
401.70	225.40
402.08	225.46
402.45	225.54
402.83	225.66
403.20	225.77
403.58	225.88
403.95	225.99
404.33	226.08
404.71	226.23
405.08	226.42
405.46	226.54
405.83	226.67
406.21	226.80
406.58	226.98
406.96	227.13
407.33	227.29
407.70	227.48
408.08	227.73
408.45	227.96
408.83	228.22
409.20	228.43
409.58	228.61
409.95	228.90
410.33	229.19
410.70	229.41
411.08	229.73
411.45	230.02
411.82	230.34
412.20	230.75
412.57	231.19
412.95	231.49
413.32	231.92
413.69	232.35
414.07	232.82
414.44	233.27
414.82	233.79
415.19	234.37
415.56	234.93
415.94	235.50
416.31	236.14
416.68	236.78
417.06	237.51
417.43	238.20
417.81	238.98
418.18	239.80
418.55	240.65
418.93	241.53
419.30	242.44
419.67	243.41
420.04	244.39
420.42	245.41
420.79	246.66
421.16	247.85
421.54	249.10
421.91	250.33
422.28	251.62
422.66	253.00
423.03	254.36
423.40	255.76
423.77	257.20
424.15	258.72
424.52	260.25
424.89	261.94
425.26	263.59
425.64	265.09
426.01	266.73
426.38	268.44
426.75	270.22
427.13	272.06
427.50	273.91
427.87	275.82
428.24	277.72
428.61	279.46
428.99	281.49
429.36	283.68
429.73	285.87
430.10	287.97
430.47	290.05
430.85	292.22
431.22	294.48
431.59	296.96
431.96	299.32
432.33	301.90
432.70	304.35
433.08	307.23
433.45	310.01
433.82	312.70
434.19	315.72
434.56	318.59
434.93	321.29
435.30	323.98
435.68	327.04
436.05	329.97
436.42	332.93
436.79	335.51
437.16	338.27
437.53	341.15
437.90	344.05
438.27	346.92
438.64	349.84
439.01	352.55
439.38	354.85
439.75	357.01
440.13	359.54
440.50	361.92
440.87	363.82
441.24	365.76
441.61	367.98
441.98	369.52
442.35	371.40
442.72	373.38
443.09	375.24
443.46	376.19
443.83	376.85
444.20	377.35
444.57	378.22
444.94	378.56
445.31	378.92
445.68	379.31
446.05	379.42
446.42	379.05
446.79	378.67
447.16	378.24
447.53	377.95
447.90	376.77
448.27	375.64
448.64	374.04
449.01	372.91
449.37	370.93
449.74	369.00
450.11	366.68
450.48	364.09
450.85	361.51
451.22	359.34
451.59	357.24
451.96	355.22
452.33	352.57
452.70	350.11
453.07	347.20
453.43	344.19
453.80	341.29
454.17	338.52
454.54	335.86
454.91	333.04
455.28	330.24
455.65	327.71
456.02	325.13
456.38	322.90
456.75	320.13
457.12	317.73
457.49	315.39
457.86	313.13
458.23	311.23
458.59	309.13
458.96	306.99
459.33	305.07
459.70	303.18
460.07	301.62
460.43	299.85
460.80	298.20
461.17	296.73
461.54	295.17
461.91	293.70
462.27	292.15
462.64	290.89
463.01	289.50
463.38	288.17
463.74	286.81
464.11	285.61
464.48	284.56
464.85	283.47
465.21	282.55
465.58	281.64
465.95	280.49
466.32	279.53
466.68	278.55
467.05	277.62
467.42	276.65
467.78	275.68
468.15	274.76
468.52	274.02
468.88	273.13
469.25	272.39
469.62	271.77
469.98	271.09
470.35	270.42
470.72	269.82
471.08	269.16
471.45	268.59
471.82	268.02
472.18	267.38
472.55	266.90
472.92	266.41
473.28	265.92
473.65	265.48
474.02	265.03
474.38	264.68
474.75	264.34
475.11	263.99
475.48	263.70
475.85	263.49
476.21	263.30
476.58	263.13
476.94	262.96
477.31	262.79
477.67	262.69
478.04	262.58
478.41	262.50
478.77	262.52
479.14	262.44
479.50	262.48
479.87	262.57
480.23	262.68
480.60	262.73
480.96	262.80
481.33	263.02
481.69	263.21
482.06	263.47
482.42	263.67
482.79	263.96
483.15	264.31
483.52	264.66
483.88	265.01
484.25	265.41
484.61	265.83
484.98	266.30
485.34	266.82
485.71	267.42
486.07	268.01
486.44	268.59
486.80	269.32
487.17	270.02
487.53	270.85
487.90	271.65
488.26	272.61
488.62	273.61
488.99	274.56
489.35	275.60
489.72	276.67
490.08	277.83
490.44	279.02
490.81	280.34
491.17	281.71
491.54	283.17
491.90	284.65
492.26	286.30
492.63	287.98
492.99	289.74
493.36	291.59
493.72	293.64
494.08	295.69
494.45	297.90
494.81	300.27
495.17	302.70
495.54	305.30
495.90	307.96
496.26	310.71
496.63	313.62
496.99	316.69
497.35	319.95
497.72	323.35
498.08	326.89
498.44	330.54
498.80	334.41
499.17	338.42
499.53	342.55
499.89	346.84
500.26	351.34
500.62	355.96
500.98	360.92
501.34	365.92
501.71	371.21
502.07	376.63
502.43	382.18
502.79	387.87
503.16	393.83
503.52	400.04
503.88	406.34
504.24	412.90
504.60	419.69
504.97	426.71
505.33	433.95
505.69	441.53
506.05	449.16
506.41	456.98
506.78	465.00
507.14	473.36
507.50	481.93
507.86	490.79
508.22	499.90
508.59	508.95
508.95	518.41
509.31	527.97
509.67	537.91
510.03	548.01
510.39	558.41
510.75	569.04
511.12	579.72
511.48	590.85
511.84	602.11
512.20	613.49
512.56	625.18
512.92	637.11
513.28	649.25
513.64	661.52
514.00	673.93
514.37	686.61
514.73	699.41
515.09	712.21
515.45	725.25
515.81	738.44
516.17	752.02
516.53	765.86
516.89	779.81
517.25	793.61
517.61	807.72
517.97	821.89
518.33	836.02
518.69	850.63
519.05	865.22
519.41	880.12
519.77	895.19
520.13	910.36
520.49	925.53
520.85	940.51
521.21	955.82
521.57	971.66
521.93	987.05
522.29	1003.00
522.65	1018.90
523.01	1034.62
523.37	1050.26
523.73	1066.12
524.09	1081.79
524.45	1097.70
524.81	1114.07
525.17	1130.42
525.53	1146.88
525.89	1163.26
526.25	1179.58
526.61	1195.67
526.97	1211.95
527.33	1228.18
527.68	1244.31
528.04	1260.27
528.40	1276.44
528.76	1293.09
529.12	1309.30
529.48	1325.86
529.84	1341.56
530.20	1357.71
530.56	1374.42
530.91	1391.52
531.27	1407.93
531.63	1424.01
531.99	1440.18
532.35	1455.70
532.71	1471.32
533.07	1487.18
533.42	1502.92
533.78	1518.65
534.14	1534.50
534.50	1549.48
534.86	1564.97
535.21	1579.94
535.57	1595.64
535.93	1610.95
536.29	1625.52
536.65	1640.20
537.00	1654.71
537.36	1669.80
537.72	1684.15
538.08	1698.31
538.44	1711.90
538.79	1725.65
539.15	1739.07
539.51	1752.68
539.87	1766.84
540.22	1780.31
540.58	1793.84
540.94	1806.83
541.29	1819.41
541.65	1832.00
542.01	1845.04
542.37	1857.31
542.72	1869.45
543.08	1881.23
543.44	1893.48
543.79	1904.74
544.15	1915.72
544.51	1927.31
544.87	1938.27
545.22	1949.28
545.58	1959.54
545.94	1969.43
546.29	1979.28
546.65	1989.27
547.01	1998.71
547.36	2007.52
547.72	2016.15
548.07	2024.32
548.43	2032.64
548.79	2040.75
549.14	2048.55
549.50	2056.12
549.86	2063.79
550.21	2071.37
550.57	2078.68
550.92	2085.44
551.28	2092.62
551.64	2099.97
551.99	2106.55
552.35	2112.80
552.70	2118.92
553.06	2125.23
553.41	2131.72
553.77	2137.87
554.13	2144.18
554.48	2150.36
554.84	2156.29
555.19	2161.74
555.55	2167.18
555.90	2172.02
556.26	2177.33
556.61	2182.19
556.97	2186.94
557.32	2191.35
557.68	2195.91
558.03	2200.27
558.39	2204.22
558.74	2209.05
559.10	2213.16
559.45	2217.05
559.81	2221.62
560.16	2225.76
560.52	2229.16
560.87	2232.76
561.23	2235.86
561.58	2238.93
561.94	2241.87
562.29	2244.42
562.64	2247.69
563.00	2250.55
563.35	2254.32
563.71	2257.72
564.06	2261.25
564.42	2264.35
564.77	2267.43
565.12	2270.12
565.48	2272.59
565.83	2274.94
566.19	2276.87
566.54	2278.13
566.89	2279.97
567.25	2281.11
567.60	2282.81
567.96	2284.94
568.31	2286.33
568.66	2287.83
569.02	2288.97
569.37	2289.61
569.72	2290.74
570.08	2291.19
570.43	2291.49
570.78	2291.31
571.14	2290.27
571.49	2289.23
571.84	2289.16
572.20	2288.29
572.55	2287.63
572.90	2286.17
573.26	2285.16
573.61	2283.40
573.96	2282.25
574.31	2279.51
574.67	2276.89
575.02	2273.63
575.37	2270.60
575.72	2267.17
576.08	2263.92
576.43	2260.68
576.78	2257.51
577.13	2254.55
577.49	2251.57
577.84	2248.65
578.19	2245.19
578.54	2241.90
578.90	2238.23
579.25	2233.03
579.60	2228.59
579.95	2223.89
580.30	2219.25
580.66	2214.26
581.01	2209.76
581.36	2204.98
581.71	2201.22
582.06	2197.10
582.42	2193.00
582.77	2188.00
583.12	2183.64
583.47	2179.51
583.82	2175.17
584.17	2170.14
584.53	2165.11
584.88	2159.80
585.23	2154.26
585.58	2149.00
585.93	2143.62
586.28	2138.81
586.63	2134.02
586.98	2129.05
587.34	2124.36
587.69	2119.58
588.04	2114.86
588.39	2109.55
588.74	2103.22
589.09	2097.11
589.44	2090.56
589.79	2084.54
590.14	2079.19
590.49	2072.91
590.84	2066.55
591.19	2060.63
591.54	2054.48
591.89	2047.44
592.25	2040.95
592.60	2033.94
592.95	2026.67
593.30	2019.62
593.65	2012.24
594.00	2005.38
594.35	1998.14
594.70	1990.14
595.05	1983.41
595.40	1976.05
595.75	1968.70
596.10	1962.79
596.45	1956.46
596.80	1950.22
597.15	1943.91
597.50	1937.15
597.85	1930.69
598.19	1924.28
598.54	1917.42
598.89	1910.74
599.24	1904.84
599.59	1898.47
599.94	1892.27
600.29	1885.95
600.64	1879.38
600.99	1872.11
601.34	1865.32
601.69	1858.49
602.04	1851.84
602.39	1844.62
602.74	1837.96
603.08	1831.27
603.43	1824.52
603.78	1817.09
604.13	1810.01
604.48	1802.86
604.83	1795.95
605.18	1789.25
605.53	1781.26
605.87	1773.10
606.22	1765.84
606.57	1757.97
606.92	1750.33
607.27	1743.29
607.62	1736.51
607.96	1729.42
608.31	1723.04
608.66	1715.59
609.01	1708.16
609.36	1700.58
609.70	1692.47
610.05	1684.47
610.40	1676.76
610.75	1668.55
611.10	1660.89
611.44	1652.24
611.79	1644.03
612.14	1635.22
612.49	1625.90
612.83	1617.42
613.18	1609.23
613.53	1601.19
613.88	1592.50
614.22	1584.25
614.57	1575.36
614.92	1567.14
615.27	1559.59
615.61	1551.08
615.96	1542.84
616.31	1535.00
616.65	1527.73
617.00	1520.11
617.35	1512.23
617.70	1503.94
618.04	1495.27
618.39	1486.78
618.74	1479.30
619.08	1470.94
619.43	1463.30
619.78	1456.31
620.12	1449.20
620.47	1441.63
620.82	1433.29
621.16	1425.81
621.51	1418.08
621.85	1410.38
622.20	1401.89
622.55	1393.35
622.89	1385.39
623.24	1377.65
623.59	1370.12
623.93	1362.43
624.28	1355.01
624.62	1347.42
624.97	1340.01
625.32	1333.03
625.66	1325.95
626.01	1318.76
626.35	1311.38
626.70	1303.48
627.04	1295.62
627.39	1287.64
627.73	1280.09
628.08	1273.10
628.43	1265.81
628.77	1258.40
629.12	1250.92
629.46	1243.71
629.81	1236.06
630.15	1228.77
630.50	1221.43
630.84	1213.31
631.19	1205.11
631.53	1197.38
631.88	1189.73
632.22	1182.09
632.57	1174.82
632.91	1167.18
633.26	1159.65
633.60	1152.04
633.95	1144.81
634.29	1137.66
634.64	1130.85
634.98	1123.45
635.32	1116.24
635.67	1109.37
636.01	1102.70
636.36	1095.84
636.70	1089.11
637.05	1082.52
637.39	1075.96
637.73	1069.36
638.08	1063.29
638.42	1057.27
638.77	1050.93
639.11	1044.31
639.45	1037.85
639.80	1031.13
640.14	1024.76
640.49	1018.21
640.83	1011.94
641.17	1005.63
641.52	999.21
641.86	992.70
642.20	986.81
642.55	980.38
642.89	973.99
643.23	967.28
643.58	961.43
643.92	955.21
644.26	949.26
644.61	943.15
644.95	937.06
645.29	930.57
645.64	923.90
645.98	917.50
646.32	911.51
646.66	905.45
647.01	899.52
647.35	893.76
647.69	887.78
648.04	882.11
648.38	876.40
648.72	870.50
649.06	864.59
649.41	858.64
649.75	852.70
650.09	846.70
650.43	840.97
650.78	834.79
651.12	828.84
651.46	822.89
651.80	817.27
652.14	811.82
652.49	806.35
652.83	801.12
653.17	795.56
653.51	789.85
653.85	784.38
654.20	778.74
654.54	772.75
654.88	767.02
655.22	761.15
655.56	755.34
655.90	749.74
656.25	744.31
656.59	738.98
656.93	733.84
657.27	728.69
657.61	723.18
657.95	717.99
658.29	712.86
658.64	707.65
658.98	702.19
659.32	696.69
659.66	691.48
660.00	686.17
660.34	681.00
660.68	676.07
661.02	670.99
661.36	666.32
661.70	661.77
662.05	657.38
662.39	653.05
662.73	648.54
663.07	644.15
663.41	639.74
663.75	635.23
664.09	630.64
664.43	626.15
664.77	622.06
665.11	617.81
665.45	613.54
665.79	609.41
666.13	605.28
666.47	601.17
666.81	597.01
667.15	592.80
667.49	588.91
667.83	585.09
668.17	581.18
668.51	577.05
668.85	572.90
669.19	568.97
669.53	565.11
669.87	561.31
670.21	557.64
670.55	553.95
670.89	550.45
671.23	547.04
671.57	543.56
671.91	540.01
672.25	536.43
672.58	532.98
672.92	529.55
673.26	526.38
673.60	523.16
673.94	520.05
674.28	517.11
674.62	514.15
674.96	511.00
675.30	508.06
675.64	505.18
675.97	502.42
676.31	499.57
676.65	496.63
676.99	493.90
677.33	490.99
677.67	488.17
678.01	485.16
678.34	482.17
678.68	479.23
679.02	476.36
679.36	473.62
679.70	470.90
680.04	468.16
680.37	465.22
680.71	462.41
681.05	459.71
681.39	457.04
681.73	454.35
682.06	451.82
682.40	449.27
682.74	446.67
683.08	444.08
683.42	441.47
683.75	438.92
684.09	436.33
684.43	433.82
684.77	431.34
685.10	428.96
685.44	426.61
685.78	424.30
686.12	421.99
686.45	419.65
686.79	417.32
687.13	415.10
687.46	412.93
687.80	410.74
688.14	408.48
688.48	406.38
688.81	404.17
689.15	401.97
689.49	399.75
689.82	397.65
690.16	395.56
690.50	393.58
690.83	391.62
691.17	389.61
691.51	387.68
691.84	385.77
692.18	383.84
692.52	381.81
692.85	379.87
693.19	377.94
693.52	376.10
693.86	374.24
694.20	372.41
694.53	370.60
694.87	368.73
695.21	366.96
695.54	365.12
695.88	363.30
696.21	361.52
696.55	359.83
696.88	358.07
697.22	356.33
697.56	354.65
697.89	352.97
698.23	351.37
698.56	349.75
698.90	348.20
699.23	346.50
699.57	344.93
699.90	343.38
700.24	341.88
700.58	340.33
700.91	338.80
701.25	337.33
701.58	335.95
701.92	334.54
702.25	333.15
702.59	331.75
702.92	330.45
703.26	329.12
703.59	327.88
703.93	326.69
704.26	325.49
704.60	324.19
704.93	322.87
705.26	321.58
705.60	320.35
705.93	319.12
706.27	318.03
706.60	316.97
706.94	315.84
707.27	314.64
707.61	313.55
707.94	312.54
708.27	311.41
708.61	310.28
708.94	309.24
709.28	308.26
709.61	307.26
709.94	306.32
710.28	305.30
710.61	304.28
710.95	303.19
711.28	302.23
711.61	301.23
711.95	300.36
712.28	299.42
712.61	298.46
712.95	297.48
713.28	296.61
713.61	295.70
713.95	294.82
714.28	293.98
714.61	293.09
714.95	292.22
715.28	291.35
715.61	290.49
715.95	289.66
716.28	288.76
716.61	287.90
716.95	287.04
717.28	286.27
717.61	285.47
717.94	284.75
718.28	283.97
718.61	283.21
718.94	282.45
719.27	281.78
719.61	281.12
719.94	280.45
720.27	279.75
720.60	279.07
720.94	278.43
721.27	277.82
721.60	277.27
721.93	276.66
722.27	276.12
722.60	275.53
722.93	274.98
723.26	274.44
723.59	273.92
723.93	273.38
724.26	272.82
724.59	272.24
724.92	271.65
725.25	271.13
725.59	270.64
725.92	270.12
726.25	269.57
726.58	269.08
726.91	268.59
727.24	268.12
727.57	267.65
727.91	267.11
728.24	266.67
728.57	266.13
728.90	265.64
729.23	265.14
729.56	264.71
729.89	264.20
730.22	263.70
730.55	263.22
730.89	262.74
731.22	262.29
731.55	261.88
731.88	261.48
732.21	261.06
732.54	260.59
732.87	260.18
733.20	259.80
733.53	259.42
733.86	259.05
734.19	258.64
734.52	258.24
734.85	257.92
735.18	257.46
735.51	257.10
735.84	256.69
736.17	256.35
736.50	255.94
736.83	255.74
737.16	255.41
737.49	255.06
737.82	254.72
738.15	254.37
738.48	253.97
738.81	253.60
739.14	253.30
739.47	253.01
739.80	252.66
740.13	252.34
740.46	251.98
740.79	251.64
741.12	251.31
741.45	250.99
741.78	250.64
742.11	250.39
742.44	250.07
742.77	249.86
743.10	249.57
743.43	249.28
743.75	248.84
744.08	248.66
744.41	248.38
744.74	248.08
745.07	247.80
745.40	247.60
745.73	247.38
746.06	247.07
746.39	246.80
746.71	246.56
747.04	246.30
747.37	246.02
747.70	245.77
748.03	245.51
748.36	245.27
748.68	245.03
749.01	244.75
749.34	244.52
749.67	244.22
750.00	243.97
750.33	243.85
750.65	243.64
750.98	243.31
751.31	243.07
751.64	242.87
751.97	242.70
752.29	242.46
752.62	242.20
752.95	242.00
753.28	241.79
753.60	241.58
753.93	241.39
754.26	241.19
754.59	240.95
754.91	240.75
755.24	240.53
755.57	240.32
755.90	240.13
756.22	239.90
756.55	239.69
756.88	239.49
757.20	239.17
757.53	238.94
757.86	238.80
758.19	238.64
758.51	238.47
758.84	238.24
759.17	238.08
759.49	237.91
759.82	237.79
760.15	237.62
760.47	237.41
760.80	237.22
761.13	237.10
761.45	236.92
761.78	236.80
762.11	236.67
762.43	236.51
762.76	236.36
763.08	236.24
763.41	236.13
763.74	235.99
764.06	235.90
764.39	235.77
764.71	235.59
765.04	235.43
765.37	235.29
765.69	235.17
766.02	235.01
766.34	234.87
766.67	234.71
767.00	234.60
767.32	234.60
767.65	234.55
767.97	234.42
768.30	234.31
768.62	234.18
768.95	234.05
769.27	233.96
769.60	233.88
769.92	233.77
770.25	233.62
770.57	233.49
770.90	233.38
771.22	233.27
771.55	233.16
771.87	233.09
772.20	232.98
772.52	232.98
772.85	233.02
773.17	232.93
773.50	232.83
773.82	232.73
774.15	232.56
774.47	232.36
774.80	232.25
775.12	232.18
775.45	232.08
775.77	232.02
776.09	231.97
776.42	231.86
776.74	231.81
777.07	231.72
777.39	231.66
777.72	231.59
778.04	231.54
778.36	231.45
778.69	231.40
779.01	231.35
779.33	231.17
779.66	230.98
779.98	230.89
780.31	230.84
780.63	230.80
780.95	230.75
781.28	230.73
781.60	230.68
781.92	230.61
782.25	230.55
782.57	230.46
782.89	230.37
783.22	230.33
783.54	230.24
783.86	230.22
784.19	230.18
784.51	230.15
784.83	230.07
785.16	230.05
785.48	229.97
785.80	229.91
786.12	229.87
786.45	229.82
786.77	229.82
787.09	229.75
