SpectraSuite Data File
++++++++++++++++++++++++++++++++++++
Date: Fri Feb 01 15:07:13 EST 2013
User: group
Dark Spectrum Present: No
Reference Spectrum Present: No
Number of Sampled Component Spectra: 1
Spectrometers: USB2E7196
Integration Time (usec): 35000 (USB2E7196)
Spectra Averaged: 100 (USB2E7196)
Boxcar Smoothing: 10 (USB2E7196)
Correct for Electrical Dark: No (USB2E7196)
Strobe/Lamp Enabled: No (USB2E7196)
Correct for Detector Non-linearity: No (USB2E7196)
Correct for Stray Light: No (USB2E7196)
Number of Pixels in Processed Spectrum: 2048
>>>>>Begin Processed Spectral Data<<<<<
339.09	0.00
339.48	215.18
339.86	216.48
340.24	217.63
340.63	219.31
341.01	222.22
341.39	221.24
341.78	223.52
342.16	224.78
342.54	224.79
342.93	213.38
343.31	224.15
343.69	224.70
344.07	225.18
344.46	225.63
344.84	226.00
345.22	226.20
345.60	226.47
345.99	226.64
346.37	226.76
346.75	226.90
347.13	226.97
347.52	227.01
347.90	227.06
348.28	227.12
348.66	227.15
349.05	227.17
349.43	227.18
349.81	227.23
350.19	227.28
350.57	227.32
350.96	227.41
351.34	227.52
351.72	227.61
352.10	227.71
352.48	227.76
352.87	227.83
353.25	227.98
353.63	228.06
354.01	228.16
354.39	228.23
354.77	228.27
355.15	228.36
355.54	228.46
355.92	228.52
356.30	228.60
356.68	228.78
357.06	228.86
357.44	228.97
357.82	229.04
358.20	229.13
358.58	229.18
358.97	229.23
359.35	229.31
359.73	229.37
360.11	229.44
360.49	229.53
360.87	229.59
361.25	229.61
361.63	229.67
362.01	229.71
362.39	229.76
362.77	229.82
363.15	229.87
363.53	229.90
363.91	229.92
364.29	229.93
364.67	229.81
365.05	229.83
365.43	229.84
365.81	229.83
366.19	229.85
366.57	229.90
366.95	229.85
367.33	229.79
367.71	229.76
368.09	229.72
368.47	229.67
368.85	229.63
369.23	229.60
369.61	229.52
369.99	229.47
370.37	229.43
370.75	229.44
371.13	229.36
371.51	229.30
371.89	229.24
372.27	229.17
372.65	229.13
373.03	229.07
373.41	228.98
373.78	228.90
374.16	228.79
374.54	228.67
374.92	228.61
375.30	228.57
375.68	228.50
376.06	228.42
376.44	228.34
376.82	228.27
377.19	228.21
377.57	228.18
377.95	228.09
378.33	228.01
378.71	227.85
379.09	227.77
379.47	227.72
379.84	227.65
380.22	227.59
380.60	227.50
380.98	227.42
381.36	227.35
381.73	227.27
382.11	227.20
382.49	227.17
382.87	227.10
383.25	227.01
383.62	227.05
384.00	226.96
384.38	226.93
384.76	226.91
385.13	226.87
385.51	226.76
385.89	226.71
386.27	226.63
386.64	226.59
387.02	226.51
387.40	226.42
387.78	226.38
388.15	226.32
388.53	226.24
388.91	226.18
389.29	226.15
389.66	226.12
390.04	226.09
390.42	226.08
390.79	226.07
391.17	226.03
391.55	225.91
391.92	225.91
392.30	225.87
392.68	225.83
393.05	225.82
393.43	225.86
393.81	225.86
394.18	225.88
394.56	225.96
394.94	226.02
395.31	226.06
395.69	226.11
396.06	226.19
396.44	226.29
396.82	226.31
397.19	226.43
397.57	226.50
397.95	226.54
398.32	226.55
398.70	226.63
399.07	226.78
399.45	226.88
399.82	226.98
400.20	227.08
400.58	227.15
400.95	227.19
401.33	227.31
401.70	227.48
402.08	227.56
402.45	227.64
402.83	227.76
403.20	227.89
403.58	228.01
403.95	228.14
404.33	228.27
404.71	228.42
405.08	228.59
405.46	228.75
405.83	228.95
406.21	229.13
406.58	229.29
406.96	229.44
407.33	229.60
407.70	229.80
408.08	230.11
408.45	230.35
408.83	230.63
409.20	230.85
409.58	231.05
409.95	231.40
410.33	231.69
410.70	231.97
411.08	232.28
411.45	232.58
411.82	232.90
412.20	233.26
412.57	233.71
412.95	234.00
413.32	234.44
413.69	234.85
414.07	235.32
414.44	235.81
414.82	236.28
415.19	236.84
415.56	237.38
415.94	237.88
416.31	238.53
416.68	239.18
417.06	239.87
417.43	240.54
417.81	241.25
418.18	242.03
418.55	242.86
418.93	243.75
419.30	244.68
419.67	245.63
420.04	246.58
420.42	247.59
420.79	248.80
421.16	249.96
421.54	251.10
421.91	252.32
422.28	253.57
422.66	254.92
423.03	256.22
423.40	257.62
423.77	259.06
424.15	260.49
424.52	261.95
424.89	263.55
425.26	265.12
425.64	266.56
426.01	268.14
426.38	269.79
426.75	271.44
427.13	273.13
427.50	274.91
427.87	276.80
428.24	278.64
428.61	280.38
428.99	282.32
429.36	284.46
429.73	286.54
430.10	288.54
430.47	290.60
430.85	292.71
431.22	294.91
431.59	297.28
431.96	299.48
432.33	301.97
432.70	304.40
433.08	307.19
433.45	309.87
433.82	312.50
434.19	315.37
434.56	318.21
434.93	320.87
435.30	323.50
435.68	326.39
436.05	329.22
436.42	332.03
436.79	334.51
437.16	337.17
437.53	339.98
437.90	342.84
438.27	345.57
438.64	348.41
439.01	351.02
439.38	353.26
439.75	355.49
440.13	357.99
440.50	360.29
440.87	362.16
441.24	364.07
441.61	366.18
441.98	367.69
442.35	369.47
442.72	371.31
443.09	373.08
443.46	374.06
443.83	374.62
444.20	375.08
444.57	375.90
444.94	376.21
445.31	376.54
445.68	376.89
446.05	376.98
446.42	376.61
446.79	376.10
447.16	375.68
447.53	375.32
447.90	374.11
448.27	372.97
448.64	371.40
449.01	370.22
449.37	368.27
449.74	366.36
450.11	364.10
450.48	361.62
450.85	359.11
451.22	356.99
451.59	355.03
451.96	353.11
452.33	350.54
452.70	348.17
453.07	345.35
453.43	342.39
453.80	339.60
454.17	336.93
454.54	334.47
454.91	331.72
455.28	329.06
455.65	326.61
456.02	324.17
456.38	322.00
456.75	319.35
457.12	317.07
457.49	314.86
457.86	312.73
458.23	310.93
458.59	308.92
458.96	306.85
459.33	304.94
459.70	303.09
460.07	301.57
460.43	299.88
460.80	298.24
461.17	296.86
461.54	295.35
461.91	293.89
462.27	292.41
462.64	291.16
463.01	289.82
463.38	288.53
463.74	287.10
464.11	285.95
464.48	284.93
464.85	283.86
465.21	282.97
465.58	282.02
465.95	280.89
466.32	279.95
466.68	279.01
467.05	278.15
467.42	277.29
467.78	276.33
468.15	275.42
468.52	274.77
468.88	273.88
469.25	273.10
469.62	272.50
469.98	271.81
470.35	271.16
470.72	270.55
471.08	269.88
471.45	269.34
471.82	268.78
472.18	268.19
472.55	267.74
472.92	267.21
473.28	266.73
473.65	266.26
474.02	265.76
474.38	265.39
474.75	265.03
475.11	264.66
475.48	264.40
475.85	264.15
476.21	263.87
476.58	263.65
476.94	263.50
477.31	263.28
477.67	263.14
478.04	263.04
478.41	262.98
478.77	263.02
479.14	262.96
479.50	262.94
479.87	262.98
480.23	263.04
480.60	263.06
480.96	263.15
481.33	263.33
481.69	263.57
482.06	263.74
482.42	263.93
482.79	264.15
483.15	264.45
483.52	264.79
483.88	265.14
484.25	265.54
484.61	265.94
484.98	266.42
485.34	266.98
485.71	267.55
486.07	268.13
486.44	268.67
486.80	269.35
487.17	270.08
487.53	270.88
487.90	271.72
488.26	272.72
488.62	273.69
488.99	274.68
489.35	275.71
489.72	276.81
490.08	278.01
490.44	279.27
490.81	280.60
491.17	281.94
491.54	283.41
491.90	284.94
492.26	286.58
492.63	288.27
492.99	289.99
493.36	291.88
493.72	293.92
494.08	296.05
494.45	298.30
494.81	300.68
495.17	303.10
495.54	305.68
495.90	308.32
496.26	311.06
496.63	314.01
496.99	317.11
497.35	320.37
497.72	323.77
498.08	327.23
498.44	330.86
498.80	334.77
499.17	338.82
499.53	342.99
499.89	347.38
500.26	351.90
500.62	356.59
500.98	361.56
501.34	366.60
501.71	371.90
502.07	377.29
502.43	382.88
502.79	388.72
503.16	394.75
503.52	401.00
503.88	407.48
504.24	414.10
504.60	421.05
504.97	428.17
505.33	435.43
505.69	443.12
506.05	450.91
506.41	458.81
506.78	466.91
507.14	475.33
507.50	484.01
507.86	493.04
508.22	502.18
508.59	511.36
508.95	520.91
509.31	530.68
509.67	540.82
510.03	551.10
510.39	561.68
510.75	572.52
511.12	583.47
511.48	594.77
511.84	606.28
512.20	617.75
512.56	629.64
512.92	641.86
513.28	654.27
513.64	666.77
514.00	679.51
514.37	692.46
514.73	705.51
515.09	718.66
515.45	731.98
515.81	745.51
516.17	759.48
516.53	773.70
516.89	787.97
517.25	802.11
517.61	816.58
517.97	830.96
518.33	845.32
518.69	860.09
519.05	875.14
519.41	890.31
519.77	905.84
520.13	921.40
520.49	936.87
520.85	952.25
521.21	967.97
521.57	984.28
521.93	1000.09
522.29	1016.56
522.65	1032.82
523.01	1049.17
523.37	1065.40
523.73	1081.70
524.09	1097.75
524.45	1114.08
524.81	1130.80
525.17	1147.66
525.53	1164.71
525.89	1181.73
526.25	1198.58
526.61	1214.98
526.97	1231.73
527.33	1248.27
527.68	1264.87
528.04	1281.33
528.40	1298.22
528.76	1315.34
529.12	1331.91
529.48	1348.86
529.84	1364.92
530.20	1381.74
530.56	1398.74
530.91	1416.22
531.27	1433.07
531.63	1449.67
531.99	1466.47
532.35	1482.47
532.71	1498.44
533.07	1514.84
533.42	1530.76
533.78	1546.98
534.14	1563.34
534.50	1578.84
534.86	1594.94
535.21	1610.09
535.57	1626.24
535.93	1641.68
536.29	1656.56
536.65	1671.75
537.00	1686.56
537.36	1701.94
537.72	1716.43
538.08	1730.92
538.44	1744.80
538.79	1758.57
539.15	1772.44
539.51	1786.09
539.87	1800.52
540.22	1814.29
540.58	1828.12
540.94	1841.63
541.29	1854.67
541.65	1867.48
542.01	1880.80
542.37	1892.94
542.72	1905.67
543.08	1917.47
543.44	1929.90
543.79	1941.22
544.15	1952.36
544.51	1964.04
544.87	1975.20
545.22	1986.01
545.58	1996.23
545.94	2005.94
546.29	2016.15
546.65	2025.86
547.01	2035.11
547.36	2043.92
547.72	2052.48
548.07	2060.17
548.43	2068.34
548.79	2076.37
549.14	2083.92
549.50	2091.27
549.86	2099.11
550.21	2106.32
550.57	2113.53
550.92	2119.95
551.28	2127.02
551.64	2134.03
551.99	2140.56
552.35	2146.55
552.70	2152.65
553.06	2158.53
553.41	2164.91
553.77	2170.85
554.13	2176.97
554.48	2183.13
554.84	2188.52
555.19	2193.85
555.55	2199.09
555.90	2203.53
556.26	2208.24
556.61	2212.87
556.97	2216.91
557.32	2221.02
557.68	2225.19
558.03	2229.39
558.39	2233.29
558.74	2237.88
559.10	2241.75
559.45	2245.30
559.81	2249.61
560.16	2253.35
560.52	2256.59
560.87	2260.02
561.23	2262.58
561.58	2265.52
561.94	2268.01
562.29	2270.41
562.64	2272.92
563.00	2275.49
563.35	2279.03
563.71	2282.18
564.06	2285.39
564.42	2288.33
564.77	2290.79
565.12	2292.85
565.48	2294.60
565.83	2296.24
566.19	2297.27
566.54	2298.07
566.89	2299.18
567.25	2299.64
567.60	2300.94
567.96	2302.60
568.31	2303.27
568.66	2304.19
569.02	2304.64
569.37	2304.85
569.72	2305.54
570.08	2305.50
570.43	2305.35
570.78	2304.50
571.14	2302.74
571.49	2301.19
571.84	2300.78
572.20	2299.42
572.55	2298.29
572.90	2296.75
573.26	2295.28
573.61	2293.51
573.96	2291.62
574.31	2288.63
574.67	2285.53
575.02	2281.81
575.37	2278.33
575.72	2274.36
576.08	2270.95
576.43	2267.62
576.78	2263.85
577.13	2260.52
577.49	2257.42
577.84	2253.76
578.19	2250.02
578.54	2246.30
578.90	2242.00
579.25	2236.30
579.60	2231.18
579.95	2226.14
580.30	2221.02
580.66	2215.86
581.01	2210.91
581.36	2205.86
581.71	2201.52
582.06	2196.94
582.42	2192.27
582.77	2186.89
583.12	2182.17
583.47	2177.37
583.82	2171.97
584.17	2166.58
584.53	2161.03
584.88	2155.31
585.23	2149.45
585.58	2143.80
585.93	2138.36
586.28	2133.60
586.63	2128.43
586.98	2123.34
587.34	2118.63
587.69	2113.64
588.04	2108.12
588.39	2102.32
588.74	2095.84
589.09	2089.49
589.44	2082.58
589.79	2076.68
590.14	2071.04
590.49	2064.44
590.84	2057.80
591.19	2051.71
591.54	2045.16
591.89	2037.53
592.25	2030.60
592.60	2023.33
592.95	2015.61
593.30	2008.11
593.65	2000.34
594.00	1993.35
594.35	1986.11
594.70	1977.97
595.05	1970.54
595.40	1963.26
595.75	1955.77
596.10	1949.31
596.45	1942.48
596.80	1936.26
597.15	1929.37
597.50	1922.10
597.85	1915.71
598.19	1909.17
598.54	1902.14
598.89	1895.41
599.24	1889.56
599.59	1882.76
599.94	1876.59
600.29	1870.39
600.64	1863.81
600.99	1856.18
601.34	1849.11
601.69	1842.04
602.04	1835.01
602.39	1827.58
602.74	1820.70
603.08	1814.02
603.43	1807.27
603.78	1799.94
604.13	1792.72
604.48	1785.40
604.83	1778.60
605.18	1771.39
605.53	1763.26
605.87	1755.19
606.22	1748.06
606.57	1740.22
606.92	1733.02
607.27	1725.72
607.62	1718.64
607.96	1711.21
608.31	1704.66
608.66	1697.08
609.01	1689.49
609.36	1681.94
609.70	1674.03
610.05	1665.89
610.40	1658.04
610.75	1649.78
611.10	1642.25
611.44	1633.99
611.79	1626.01
612.14	1617.18
612.49	1608.20
612.83	1599.93
613.18	1591.86
613.53	1583.78
613.88	1575.22
614.22	1566.92
614.57	1558.42
614.92	1550.29
615.27	1542.77
615.61	1534.39
615.96	1526.33
616.31	1518.78
616.65	1511.33
617.00	1503.74
617.35	1496.25
617.70	1487.87
618.04	1479.30
618.39	1471.07
618.74	1463.43
619.08	1455.10
619.43	1447.68
619.78	1440.81
620.12	1433.65
620.47	1426.15
620.82	1417.87
621.16	1410.56
621.51	1403.03
621.85	1395.50
622.20	1387.14
622.55	1378.94
622.89	1371.21
623.24	1363.67
623.59	1356.32
623.93	1348.90
624.28	1341.69
624.62	1334.07
624.97	1327.01
625.32	1320.38
625.66	1313.36
626.01	1306.08
626.35	1298.75
626.70	1290.93
627.04	1283.15
627.39	1275.41
627.73	1267.98
628.08	1261.21
628.43	1253.83
628.77	1246.45
629.12	1238.79
629.46	1231.55
629.81	1224.09
630.15	1216.93
630.50	1209.60
630.84	1201.32
631.19	1193.46
631.53	1186.06
631.88	1178.53
632.22	1170.96
632.57	1163.60
632.91	1156.13
633.26	1148.85
633.60	1141.51
633.95	1134.53
634.29	1127.57
634.64	1120.92
634.98	1113.58
635.32	1106.39
635.67	1099.96
636.01	1093.31
636.36	1086.47
636.70	1080.03
637.05	1073.53
637.39	1066.95
637.73	1060.44
638.08	1054.75
638.42	1048.81
638.77	1042.23
639.11	1035.65
639.45	1029.27
639.80	1022.59
640.14	1016.06
640.49	1009.47
640.83	1003.20
641.17	996.92
641.52	990.57
641.86	984.27
642.20	978.52
642.55	972.22
642.89	965.55
643.23	959.12
643.58	953.40
643.92	947.19
644.26	941.10
644.61	935.20
644.95	929.15
645.29	922.45
645.64	915.62
645.98	909.43
646.32	903.66
646.66	897.61
647.01	891.87
647.35	886.35
647.69	880.61
648.04	875.08
648.38	869.34
648.72	863.43
649.06	857.26
649.41	851.36
649.75	845.36
650.09	839.45
650.43	833.57
650.78	827.40
651.12	821.51
651.46	815.74
651.80	809.96
652.14	804.55
652.49	799.29
652.83	794.14
653.17	788.44
653.51	782.74
653.85	777.49
654.20	771.89
654.54	765.81
654.88	760.07
655.22	754.28
655.56	748.61
655.90	743.12
656.25	737.91
656.59	732.59
656.93	727.55
657.27	722.39
657.61	717.00
657.95	712.00
658.29	706.91
658.64	701.79
658.98	696.58
659.32	691.23
659.66	686.02
660.00	680.77
660.34	675.85
660.68	670.95
661.02	665.89
661.36	661.22
661.70	656.77
662.05	652.41
662.39	648.02
662.73	643.57
663.07	639.21
663.41	634.81
663.75	630.26
664.09	625.80
664.43	621.51
664.77	617.48
665.11	613.24
665.45	609.21
665.79	605.13
666.13	601.00
666.47	596.88
666.81	592.68
667.15	588.61
667.49	584.81
667.83	581.11
668.17	577.17
668.51	573.16
668.85	569.14
669.19	565.35
669.53	561.61
669.87	557.75
670.21	554.07
670.55	550.46
670.89	547.11
671.23	543.67
671.57	540.12
671.91	536.55
672.25	533.06
672.58	529.49
672.92	526.11
673.26	522.98
673.60	519.87
673.94	516.85
674.28	513.94
674.62	510.94
674.96	507.76
675.30	504.87
675.64	501.93
675.97	499.22
676.31	496.30
676.65	493.31
676.99	490.62
677.33	487.79
677.67	484.95
678.01	481.92
678.34	478.93
678.68	476.14
679.02	473.34
679.36	470.61
679.70	467.89
680.04	465.11
680.37	462.21
680.71	459.42
681.05	456.82
681.39	454.16
681.73	451.50
682.06	448.98
682.40	446.42
682.74	443.88
683.08	441.31
683.42	438.74
683.75	436.29
684.09	433.80
684.43	431.28
684.77	428.87
685.10	426.52
685.44	424.24
685.78	421.96
686.12	419.72
686.45	417.49
686.79	415.22
687.13	413.06
687.46	410.96
687.80	408.79
688.14	406.52
688.48	404.43
688.81	402.20
689.15	400.06
689.49	397.93
689.82	395.87
690.16	393.78
690.50	391.78
690.83	389.82
691.17	387.80
691.51	385.89
691.84	384.03
692.18	382.10
692.52	380.12
692.85	378.22
693.19	376.37
693.52	374.55
693.86	372.78
694.20	371.03
694.53	369.21
694.87	367.45
695.21	365.74
695.54	363.90
695.88	362.23
696.21	360.55
696.55	358.93
696.88	357.28
697.22	355.68
697.56	354.15
697.89	352.53
698.23	351.01
698.56	349.45
698.90	347.86
699.23	346.21
699.57	344.66
699.90	343.13
700.24	341.60
700.58	340.04
700.91	338.60
701.25	337.13
701.58	335.78
701.92	334.40
702.25	333.01
702.59	331.69
702.92	330.34
703.26	329.02
703.59	327.73
703.93	326.55
704.26	325.34
704.60	324.05
704.93	322.76
705.26	321.50
705.60	320.37
705.93	319.24
706.27	318.23
706.60	317.21
706.94	316.14
707.27	315.02
707.61	313.94
707.94	312.88
708.27	311.79
708.61	310.71
708.94	309.72
709.28	308.77
709.61	307.78
709.94	306.80
710.28	305.81
710.61	304.84
710.95	303.81
711.28	302.88
711.61	301.93
711.95	301.04
712.28	300.06
712.61	299.05
712.95	298.09
713.28	297.24
713.61	296.33
713.95	295.45
714.28	294.63
714.61	293.79
714.95	292.97
715.28	292.17
715.61	291.31
715.95	290.44
716.28	289.59
716.61	288.77
716.95	288.03
717.28	287.32
717.61	286.52
717.94	285.74
718.28	284.93
718.61	284.24
718.94	283.56
719.27	282.95
719.61	282.32
719.94	281.67
720.27	280.94
720.60	280.29
720.94	279.64
721.27	279.03
721.60	278.45
721.93	277.83
722.27	277.21
722.60	276.64
722.93	276.03
723.26	275.49
723.59	274.94
723.93	274.36
724.26	273.75
724.59	273.21
724.92	272.69
725.25	272.20
725.59	271.65
725.92	271.09
726.25	270.51
726.58	270.01
726.91	269.51
727.24	269.05
727.57	268.59
727.91	268.08
728.24	267.57
728.57	267.06
728.90	266.56
729.23	266.11
729.56	265.69
729.89	265.22
730.22	264.72
730.55	264.27
730.89	263.82
731.22	263.40
731.55	262.95
731.88	262.53
732.21	262.11
732.54	261.69
732.87	261.30
733.20	260.98
733.53	260.60
733.86	260.23
734.19	259.83
734.52	259.44
734.85	259.12
735.18	258.75
735.51	258.41
735.84	258.05
736.17	257.71
736.50	257.30
736.83	257.11
737.16	256.78
737.49	256.47
737.82	256.11
738.15	255.79
738.48	255.48
738.81	255.16
739.14	254.84
739.47	254.51
739.80	254.18
740.13	253.86
740.46	253.49
740.79	253.18
741.12	252.85
741.45	252.59
741.78	252.25
742.11	251.97
742.44	251.64
742.77	251.39
743.10	251.09
743.43	250.81
743.75	250.43
744.08	250.27
744.41	250.01
744.74	249.74
745.07	249.46
745.40	249.23
745.73	248.99
746.06	248.70
746.39	248.46
746.71	248.20
747.04	247.92
747.37	247.74
747.70	247.51
748.03	247.26
748.36	247.01
748.68	246.78
749.01	246.55
749.34	246.36
749.67	246.11
750.00	245.90
750.33	245.76
750.65	245.56
750.98	245.24
751.31	244.99
751.64	244.81
751.97	244.64
752.29	244.41
752.62	244.15
752.95	243.92
753.28	243.70
753.60	243.49
753.93	243.31
754.26	243.11
754.59	242.89
754.91	242.72
755.24	242.52
755.57	242.33
755.90	242.14
756.22	241.93
756.55	241.73
756.88	241.53
757.20	241.29
757.53	241.08
757.86	240.90
758.19	240.75
758.51	240.59
758.84	240.38
759.17	240.22
759.49	240.07
759.82	239.97
760.15	239.82
760.47	239.65
760.80	239.48
761.13	239.31
761.45	239.14
761.78	238.99
762.11	238.83
762.43	238.69
762.76	238.55
763.08	238.43
763.41	238.31
763.74	238.15
764.06	237.95
764.39	237.82
764.71	237.67
765.04	237.54
765.37	237.38
765.69	237.24
766.02	237.10
766.34	236.96
766.67	236.78
767.00	236.69
767.32	236.63
767.65	236.58
767.97	236.45
768.30	236.33
768.62	236.18
768.95	236.07
769.27	235.95
769.60	235.82
769.92	235.70
770.25	235.58
770.57	235.49
770.90	235.44
771.22	235.33
771.55	235.23
771.87	235.09
772.20	235.00
772.52	234.99
772.85	235.00
773.17	234.92
773.50	234.83
773.82	234.72
774.15	234.60
774.47	234.44
774.80	234.36
775.12	234.29
775.45	234.20
775.77	234.13
776.09	234.05
776.42	233.95
776.74	233.91
777.07	233.83
777.39	233.75
777.72	233.68
778.04	233.60
778.36	233.54
778.69	233.50
779.01	233.49
779.33	233.32
779.66	233.18
779.98	233.12
780.31	233.08
780.63	233.07
780.95	233.02
781.28	232.97
781.60	232.92
781.92	232.87
782.25	232.82
782.57	232.74
782.89	232.70
783.22	232.69
783.54	232.62
783.86	232.58
784.19	232.51
784.51	232.48
784.83	232.42
785.16	232.38
785.48	232.30
785.80	232.21
786.12	232.22
786.45	232.17
786.77	232.15
787.09	232.12
