SpectraSuite Data File
++++++++++++++++++++++++++++++++++++
Date: Fri Feb 01 15:30:18 EST 2013
User: group
Dark Spectrum Present: No
Reference Spectrum Present: No
Number of Sampled Component Spectra: 1
Spectrometers: USB2E7196
Integration Time (usec): 35000 (USB2E7196)
Spectra Averaged: 100 (USB2E7196)
Boxcar Smoothing: 10 (USB2E7196)
Correct for Electrical Dark: No (USB2E7196)
Strobe/Lamp Enabled: No (USB2E7196)
Correct for Detector Non-linearity: No (USB2E7196)
Correct for Stray Light: No (USB2E7196)
Number of Pixels in Processed Spectrum: 2048
>>>>>Begin Processed Spectral Data<<<<<
339.09	0.00
339.48	214.42
339.86	216.06
340.24	217.38
340.63	219.96
341.01	221.77
341.39	222.26
341.78	223.11
342.16	224.66
342.54	224.86
342.93	213.37
343.31	224.15
343.69	224.71
344.07	225.22
344.46	225.68
344.84	226.01
345.22	226.28
345.60	226.51
345.99	226.70
346.37	226.81
346.75	226.91
347.13	226.97
347.52	227.03
347.90	227.10
348.28	227.16
348.66	227.22
349.05	227.21
349.43	227.21
349.81	227.20
350.19	227.26
350.57	227.34
350.96	227.39
351.34	227.48
351.72	227.59
352.10	227.66
352.48	227.71
352.87	227.78
353.25	227.82
353.63	227.90
354.01	227.98
354.39	228.08
354.77	228.16
355.15	228.26
355.54	228.32
355.92	228.34
356.30	228.40
356.68	228.55
357.06	228.62
357.44	228.71
357.82	228.79
358.20	228.84
358.58	228.88
358.97	228.96
359.35	229.04
359.73	229.09
360.11	229.13
360.49	229.20
360.87	229.22
361.25	229.28
361.63	229.32
362.01	229.37
362.39	229.38
362.77	229.42
363.15	229.43
363.53	229.46
363.91	229.48
364.29	229.50
364.67	229.35
365.05	229.36
365.43	229.37
365.81	229.40
366.19	229.45
366.57	229.46
366.95	229.41
367.33	229.37
367.71	229.36
368.09	229.35
368.47	229.31
368.85	229.30
369.23	229.30
369.61	229.22
369.99	229.20
370.37	229.17
370.75	229.17
371.13	229.14
371.51	229.08
371.89	229.03
372.27	228.96
372.65	228.92
373.03	228.85
373.41	228.78
373.78	228.73
374.16	228.58
374.54	228.48
374.92	228.41
375.30	228.32
375.68	228.22
376.06	228.16
376.44	228.09
376.82	228.04
377.19	227.96
377.57	227.95
377.95	227.86
378.33	227.78
378.71	227.66
379.09	227.58
379.47	227.53
379.84	227.46
380.22	227.41
380.60	227.36
380.98	227.28
381.36	227.24
381.73	227.13
382.11	227.08
382.49	227.04
382.87	226.99
383.25	226.98
383.62	227.04
384.00	226.95
384.38	226.90
384.76	226.84
385.13	226.82
385.51	226.75
385.89	226.67
386.27	226.65
386.64	226.62
387.02	226.55
387.40	226.49
387.78	226.47
388.15	226.44
388.53	226.40
388.91	226.39
389.29	226.34
389.66	226.37
390.04	226.37
390.42	226.40
390.79	226.41
391.17	226.37
391.55	226.26
391.92	226.27
392.30	226.28
392.68	226.28
393.05	226.25
393.43	226.26
393.81	226.30
394.18	226.28
394.56	226.32
394.94	226.38
395.31	226.40
395.69	226.48
396.06	226.52
396.44	226.57
396.82	226.61
397.19	226.71
397.57	226.73
397.95	226.80
398.32	226.83
398.70	226.88
399.07	227.00
399.45	227.06
399.82	227.16
400.20	227.21
400.58	227.32
400.95	227.36
401.33	227.46
401.70	227.60
402.08	227.75
402.45	227.83
402.83	227.96
403.20	228.11
403.58	228.20
403.95	228.33
404.33	228.47
404.71	228.62
405.08	228.78
405.46	228.93
405.83	229.07
406.21	229.23
406.58	229.39
406.96	229.57
407.33	229.78
407.70	229.96
408.08	230.25
408.45	230.46
408.83	230.72
409.20	230.95
409.58	231.17
409.95	231.43
410.33	231.69
410.70	231.93
411.08	232.23
411.45	232.54
411.82	232.88
412.20	233.23
412.57	233.65
412.95	233.94
413.32	234.35
413.69	234.76
414.07	235.19
414.44	235.66
414.82	236.10
415.19	236.60
415.56	237.14
415.94	237.71
416.31	238.35
416.68	238.97
417.06	239.65
417.43	240.34
417.81	241.08
418.18	241.83
418.55	242.67
418.93	243.50
419.30	244.35
419.67	245.20
420.04	246.12
420.42	247.05
420.79	248.23
421.16	249.35
421.54	250.52
421.91	251.70
422.28	252.97
422.66	254.29
423.03	255.62
423.40	256.93
423.77	258.31
424.15	259.75
424.52	261.27
424.89	262.86
425.26	264.35
425.64	265.79
426.01	267.40
426.38	269.08
426.75	270.74
427.13	272.48
427.50	274.34
427.87	276.24
428.24	278.13
428.61	279.90
428.99	281.86
429.36	283.96
429.73	286.03
430.10	288.04
430.47	290.12
430.85	292.24
431.22	294.50
431.59	296.89
431.96	299.11
432.33	301.61
432.70	304.04
433.08	306.91
433.45	309.58
433.82	312.17
434.19	315.09
434.56	317.90
434.93	320.62
435.30	323.24
435.68	326.16
436.05	329.01
436.42	331.82
436.79	334.30
437.16	337.07
437.53	339.93
437.90	342.77
438.27	345.58
438.64	348.43
439.01	351.04
439.38	353.30
439.75	355.45
440.13	357.90
440.50	360.19
440.87	362.02
441.24	363.94
441.61	366.13
441.98	367.60
442.35	369.48
442.72	371.32
443.09	373.17
443.46	374.19
443.83	374.81
444.20	375.30
444.57	376.19
444.94	376.47
445.31	376.85
445.68	377.17
446.05	377.19
446.42	376.81
446.79	376.38
447.16	375.94
447.53	375.65
447.90	374.51
448.27	373.39
448.64	371.83
449.01	370.74
449.37	368.77
449.74	366.88
450.11	364.58
450.48	362.09
450.85	359.55
451.22	357.41
451.59	355.33
451.96	353.39
452.33	350.79
452.70	348.39
453.07	345.53
453.43	342.64
453.80	339.84
454.17	337.15
454.54	334.60
454.91	331.88
455.28	329.19
455.65	326.68
456.02	324.23
456.38	322.05
456.75	319.36
457.12	317.11
457.49	314.89
457.86	312.70
458.23	310.85
458.59	308.79
458.96	306.67
459.33	304.84
459.70	302.96
460.07	301.42
460.43	299.66
460.80	298.02
461.17	296.58
461.54	295.13
461.91	293.68
462.27	292.20
462.64	290.94
463.01	289.56
463.38	288.29
463.74	286.91
464.11	285.74
464.48	284.66
464.85	283.52
465.21	282.62
465.58	281.70
465.95	280.60
466.32	279.63
466.68	278.72
467.05	277.78
467.42	276.88
467.78	275.92
468.15	275.08
468.52	274.43
468.88	273.57
469.25	272.76
469.62	272.10
469.98	271.40
470.35	270.75
470.72	270.13
471.08	269.45
471.45	268.90
471.82	268.34
472.18	267.75
472.55	267.32
472.92	266.77
473.28	266.30
473.65	265.85
474.02	265.43
474.38	265.05
474.75	264.74
475.11	264.39
475.48	264.14
475.85	263.87
476.21	263.61
476.58	263.42
476.94	263.29
477.31	263.15
477.67	263.00
478.04	262.85
478.41	262.81
478.77	262.83
479.14	262.77
479.50	262.78
479.87	262.85
480.23	262.94
480.60	263.02
480.96	263.11
481.33	263.29
481.69	263.49
482.06	263.70
482.42	263.90
482.79	264.17
483.15	264.50
483.52	264.89
483.88	265.28
484.25	265.66
484.61	266.10
484.98	266.57
485.34	267.15
485.71	267.80
486.07	268.38
486.44	268.96
486.80	269.67
487.17	270.39
487.53	271.22
487.90	272.06
488.26	273.01
488.62	274.00
488.99	274.99
489.35	276.06
489.72	277.20
490.08	278.43
490.44	279.69
490.81	281.05
491.17	282.42
491.54	283.89
491.90	285.42
492.26	287.00
492.63	288.74
492.99	290.53
493.36	292.40
493.72	294.44
494.08	296.58
494.45	298.87
494.81	301.22
495.17	303.62
495.54	306.19
495.90	308.83
496.26	311.61
496.63	314.53
496.99	317.65
497.35	320.88
497.72	324.26
498.08	327.76
498.44	331.41
498.80	335.28
499.17	339.31
499.53	343.46
499.89	347.85
500.26	352.31
500.62	357.02
500.98	361.98
501.34	367.04
501.71	372.30
502.07	377.71
502.43	383.38
502.79	389.15
503.16	395.21
503.52	401.53
503.88	407.96
504.24	414.66
504.60	421.48
504.97	428.61
505.33	435.97
505.69	443.69
506.05	451.43
506.41	459.34
506.78	467.55
507.14	476.01
507.50	484.76
507.86	493.87
508.22	503.03
508.59	512.17
508.95	521.81
509.31	531.64
509.67	541.76
510.03	552.04
510.39	562.71
510.75	573.53
511.12	584.47
511.48	595.79
511.84	607.23
512.20	618.74
512.56	630.75
512.92	642.94
513.28	655.22
513.64	667.75
514.00	680.48
514.37	693.46
514.73	706.55
515.09	719.56
515.45	732.85
515.81	746.48
516.17	760.53
516.53	774.59
516.89	788.74
517.25	802.89
517.61	817.37
517.97	831.84
518.33	846.44
518.69	861.33
519.05	876.35
519.41	891.53
519.77	907.19
520.13	922.63
520.49	938.05
520.85	953.63
521.21	969.44
521.57	985.79
521.93	1001.58
522.29	1018.01
522.65	1034.35
523.01	1050.62
523.37	1066.73
523.73	1082.94
524.09	1099.14
524.45	1115.50
524.81	1132.28
525.17	1149.13
525.53	1166.10
525.89	1182.97
526.25	1199.80
526.61	1216.21
526.97	1233.05
527.33	1249.55
527.68	1266.22
528.04	1282.80
528.40	1299.49
528.76	1316.61
529.12	1333.17
529.48	1350.09
529.84	1366.19
530.20	1382.91
530.56	1400.04
530.91	1417.39
531.27	1434.24
531.63	1450.81
531.99	1467.50
532.35	1483.44
532.71	1499.40
533.07	1515.68
533.42	1531.49
533.78	1547.56
534.14	1563.99
534.50	1579.28
534.86	1595.29
535.21	1610.53
535.57	1626.58
535.93	1642.00
536.29	1656.80
536.65	1672.01
537.00	1686.82
537.36	1702.19
537.72	1716.74
538.08	1731.04
538.44	1744.97
538.79	1758.81
539.15	1772.57
539.51	1786.31
539.87	1800.81
540.22	1814.51
540.58	1828.31
540.94	1841.82
541.29	1854.84
541.65	1867.60
542.01	1880.98
542.37	1893.24
542.72	1905.69
543.08	1917.37
543.44	1929.83
543.79	1941.04
544.15	1952.02
544.51	1963.63
544.87	1974.58
545.22	1985.39
545.58	1995.78
545.94	2005.68
546.29	2015.72
546.65	2025.49
547.01	2034.88
547.36	2043.61
547.72	2052.13
548.07	2060.01
548.43	2068.19
548.79	2076.15
549.14	2083.55
549.50	2090.94
549.86	2098.68
550.21	2106.03
550.57	2113.25
550.92	2119.97
551.28	2127.11
551.64	2134.12
551.99	2140.66
552.35	2146.82
552.70	2152.99
553.06	2158.87
553.41	2165.17
553.77	2171.13
554.13	2177.36
554.48	2183.54
554.84	2188.94
555.19	2194.27
555.55	2199.40
555.90	2203.85
556.26	2208.82
556.61	2213.68
556.97	2217.83
557.32	2221.83
557.68	2225.98
558.03	2230.21
558.39	2233.79
558.74	2238.41
559.10	2242.24
559.45	2245.97
559.81	2250.22
560.16	2254.12
560.52	2257.47
560.87	2260.96
561.23	2263.59
561.58	2266.44
561.94	2268.79
562.29	2271.27
562.64	2273.88
563.00	2276.54
563.35	2279.99
563.71	2283.02
564.06	2286.12
564.42	2289.13
564.77	2291.78
565.12	2294.05
565.48	2296.00
565.83	2297.87
566.19	2299.03
566.54	2300.02
566.89	2301.12
567.25	2301.82
567.60	2303.01
567.96	2304.55
568.31	2305.21
568.66	2306.26
569.02	2306.77
569.37	2307.12
569.72	2307.90
570.08	2308.01
570.43	2308.03
570.78	2307.39
571.14	2305.80
571.49	2304.49
571.84	2304.05
572.20	2302.83
572.55	2301.67
572.90	2300.07
573.26	2298.64
573.61	2297.14
573.96	2295.11
574.31	2292.05
574.67	2288.95
575.02	2285.31
575.37	2282.04
575.72	2278.20
576.08	2274.90
576.43	2271.67
576.78	2268.04
577.13	2264.77
577.49	2261.75
577.84	2258.10
578.19	2254.31
578.54	2250.60
578.90	2246.26
579.25	2240.75
579.60	2235.73
579.95	2230.71
580.30	2225.61
580.66	2220.33
581.01	2215.20
581.36	2210.36
581.71	2206.10
582.06	2201.64
582.42	2197.23
582.77	2191.89
583.12	2187.31
583.47	2182.42
583.82	2177.11
584.17	2171.66
584.53	2166.08
584.88	2160.29
585.23	2154.44
585.58	2148.96
585.93	2143.47
586.28	2138.60
586.63	2133.28
586.98	2128.20
587.34	2123.46
587.69	2118.54
588.04	2113.22
588.39	2107.50
588.74	2101.02
589.09	2094.81
589.44	2087.88
589.79	2081.74
590.14	2075.99
590.49	2069.40
590.84	2063.01
591.19	2057.11
591.54	2050.68
591.89	2043.06
592.25	2036.26
592.60	2029.00
592.95	2021.26
593.30	2013.83
593.65	2006.27
594.00	1999.31
594.35	1992.06
594.70	1983.94
595.05	1976.65
595.40	1969.27
595.75	1961.73
596.10	1955.34
596.45	1948.47
596.80	1942.19
597.15	1935.34
597.50	1928.18
597.85	1921.65
598.19	1915.02
598.54	1907.82
598.89	1901.18
599.24	1895.47
599.59	1888.70
599.94	1882.54
600.29	1876.20
600.64	1869.65
600.99	1862.10
601.34	1855.18
601.69	1848.05
602.04	1841.11
602.39	1833.82
602.74	1827.04
603.08	1820.35
603.43	1813.68
603.78	1806.42
604.13	1799.35
604.48	1792.12
604.83	1785.29
605.18	1778.26
605.53	1770.15
605.87	1762.08
606.22	1754.80
606.57	1746.74
606.92	1739.35
607.27	1732.09
607.62	1725.25
607.96	1717.82
608.31	1711.06
608.66	1703.28
609.01	1695.72
609.36	1688.11
609.70	1679.96
610.05	1671.78
610.40	1663.96
610.75	1655.53
611.10	1647.81
611.44	1639.34
611.79	1631.36
612.14	1622.60
612.49	1613.49
612.83	1605.13
613.18	1597.01
613.53	1588.95
613.88	1580.49
614.22	1572.17
614.57	1563.61
614.92	1555.44
615.27	1547.98
615.61	1539.67
615.96	1531.76
616.31	1524.24
616.65	1516.89
617.00	1509.46
617.35	1501.91
617.70	1493.59
618.04	1485.08
618.39	1476.83
618.74	1469.18
619.08	1460.81
619.43	1453.20
619.78	1446.17
620.12	1438.93
620.47	1431.41
620.82	1423.20
621.16	1415.75
621.51	1408.14
621.85	1400.42
622.20	1392.02
622.55	1383.72
622.89	1375.96
623.24	1368.30
623.59	1360.88
623.93	1353.33
624.28	1345.92
624.62	1338.27
624.97	1331.00
625.32	1324.40
625.66	1317.42
626.01	1310.11
626.35	1302.73
626.70	1294.99
627.04	1287.29
627.39	1279.62
627.73	1272.18
628.08	1265.34
628.43	1257.95
628.77	1250.56
629.12	1242.98
629.46	1235.70
629.81	1228.24
630.15	1220.94
630.50	1213.54
630.84	1205.26
631.19	1197.37
631.53	1189.95
631.88	1182.47
632.22	1174.89
632.57	1167.50
632.91	1159.87
633.26	1152.54
633.60	1145.19
633.95	1138.02
634.29	1130.95
634.64	1124.11
634.98	1116.67
635.32	1109.35
635.67	1102.80
636.01	1096.16
636.36	1089.44
636.70	1083.01
637.05	1076.32
637.39	1069.93
637.73	1063.40
638.08	1057.61
638.42	1051.60
638.77	1045.08
639.11	1038.46
639.45	1032.14
639.80	1025.56
640.14	1019.21
640.49	1012.66
640.83	1006.31
641.17	1000.11
641.52	993.83
641.86	987.54
642.20	981.76
642.55	975.54
642.89	969.01
643.23	962.57
643.58	956.75
643.92	950.41
644.26	944.34
644.61	938.31
644.95	932.25
645.29	925.55
645.64	918.76
645.98	912.45
646.32	906.62
646.66	900.53
647.01	894.74
647.35	889.03
647.69	883.17
648.04	877.61
648.38	871.86
648.72	865.91
649.06	859.85
649.41	853.96
649.75	847.89
650.09	842.00
650.43	836.15
650.78	829.99
651.12	824.15
651.46	818.52
651.80	812.78
652.14	807.50
652.49	802.23
652.83	797.10
653.17	791.38
653.51	785.65
653.85	780.22
654.20	774.50
654.54	768.48
654.88	762.76
655.22	756.88
655.56	751.16
655.90	745.60
656.25	740.32
656.59	735.03
656.93	730.02
657.27	724.84
657.61	719.41
657.95	714.34
658.29	709.21
658.64	704.02
658.98	698.65
659.32	693.14
659.66	687.90
660.00	682.53
660.34	677.59
660.68	672.68
661.02	667.71
661.36	662.99
661.70	658.49
662.05	654.11
662.39	649.79
662.73	645.38
663.07	641.05
663.41	636.61
663.75	632.05
664.09	627.43
664.43	623.03
664.77	618.97
665.11	614.75
665.45	610.60
665.79	606.44
666.13	602.33
666.47	598.21
666.81	594.00
667.15	589.90
667.49	586.05
667.83	582.18
668.17	578.16
668.51	574.11
668.85	570.10
669.19	566.26
669.53	562.36
669.87	558.45
670.21	554.69
670.55	550.97
670.89	547.54
671.23	544.16
671.57	540.66
671.91	537.05
672.25	533.55
672.58	530.04
672.92	526.63
673.26	523.42
673.60	520.31
673.94	517.18
674.28	514.26
674.62	511.28
674.96	508.24
675.30	505.36
675.64	502.47
675.97	499.74
676.31	496.90
676.65	493.98
676.99	491.27
677.33	488.44
677.67	485.68
678.01	482.68
678.34	479.66
678.68	476.78
679.02	473.99
679.36	471.26
679.70	468.53
680.04	465.74
680.37	462.96
680.71	460.16
681.05	457.60
681.39	454.85
681.73	452.22
682.06	449.68
682.40	447.16
682.74	444.55
683.08	441.99
683.42	439.36
683.75	436.91
684.09	434.35
684.43	431.87
684.77	429.36
685.10	427.01
685.44	424.74
685.78	422.53
686.12	420.29
686.45	417.99
686.79	415.72
687.13	413.58
687.46	411.36
687.80	409.21
688.14	406.97
688.48	404.98
688.81	402.74
689.15	400.62
689.49	398.49
689.82	396.47
690.16	394.38
690.50	392.46
690.83	390.57
691.17	388.61
691.51	386.73
691.84	384.97
692.18	383.03
692.52	381.07
692.85	379.10
693.19	377.24
693.52	375.44
693.86	373.69
694.20	371.92
694.53	370.14
694.87	368.33
695.21	366.59
695.54	364.78
695.88	363.04
696.21	361.32
696.55	359.62
696.88	357.96
697.22	356.32
697.56	354.70
697.89	353.03
698.23	351.41
698.56	349.84
698.90	348.21
699.23	346.62
699.57	345.06
699.90	343.51
700.24	341.96
700.58	340.39
700.91	338.85
701.25	337.41
701.58	336.03
701.92	334.68
702.25	333.27
702.59	331.86
702.92	330.55
703.26	329.23
703.59	327.98
703.93	326.80
704.26	325.54
704.60	324.23
704.93	322.98
705.26	321.77
705.60	320.58
705.93	319.46
706.27	318.39
706.60	317.35
706.94	316.25
707.27	315.13
707.61	314.07
707.94	313.03
708.27	311.90
708.61	310.83
708.94	309.80
709.28	308.83
709.61	307.92
709.94	306.94
710.28	305.92
710.61	304.95
710.95	303.83
711.28	302.94
711.61	301.97
711.95	301.02
712.28	300.03
712.61	299.03
712.95	298.04
713.28	297.18
713.61	296.25
713.95	295.38
714.28	294.56
714.61	293.68
714.95	292.81
715.28	291.98
715.61	291.11
715.95	290.26
716.28	289.39
716.61	288.53
716.95	287.75
717.28	287.00
717.61	286.21
717.94	285.50
718.28	284.64
718.61	283.96
718.94	283.25
719.27	282.64
719.61	282.04
719.94	281.41
720.27	280.67
720.60	280.05
720.94	279.45
721.27	278.83
721.60	278.30
721.93	277.73
722.27	277.17
722.60	276.64
722.93	276.09
723.26	275.55
723.59	274.98
723.93	274.41
724.26	273.87
724.59	273.32
724.92	272.83
725.25	272.34
725.59	271.79
725.92	271.34
726.25	270.82
726.58	270.34
726.91	269.82
727.24	269.35
727.57	268.86
727.91	268.31
728.24	267.83
728.57	267.27
728.90	266.82
729.23	266.32
729.56	265.90
729.89	265.40
730.22	264.94
730.55	264.49
730.89	264.05
731.22	263.62
731.55	263.19
731.88	262.73
732.21	262.28
732.54	261.86
732.87	261.40
733.20	261.00
733.53	260.59
733.86	260.25
734.19	259.87
734.52	259.51
734.85	259.23
735.18	258.81
735.51	258.50
735.84	258.12
736.17	257.76
736.50	257.33
736.83	257.10
737.16	256.75
737.49	256.43
737.82	256.09
738.15	255.79
738.48	255.46
738.81	255.12
739.14	254.84
739.47	254.51
739.80	254.20
740.13	253.90
740.46	253.54
740.79	253.17
741.12	252.83
741.45	252.51
741.78	252.15
742.11	251.87
742.44	251.52
742.77	251.23
743.10	250.92
743.43	250.65
743.75	250.29
744.08	250.17
744.41	249.91
744.74	249.63
745.07	249.33
745.40	249.09
745.73	248.88
746.06	248.64
746.39	248.38
746.71	248.15
747.04	247.84
747.37	247.60
747.70	247.39
748.03	247.15
748.36	246.91
748.68	246.66
749.01	246.41
749.34	246.18
749.67	245.95
750.00	245.72
750.33	245.55
750.65	245.30
750.98	244.96
751.31	244.72
751.64	244.49
751.97	244.30
752.29	244.08
752.62	243.82
752.95	243.56
753.28	243.35
753.60	243.13
753.93	242.95
754.26	242.77
754.59	242.55
754.91	242.35
755.24	242.19
755.57	242.02
755.90	241.81
756.22	241.65
756.55	241.44
756.88	241.29
757.20	241.06
757.53	240.90
757.86	240.70
758.19	240.56
758.51	240.41
758.84	240.24
759.17	240.06
759.49	239.91
759.82	239.84
760.15	239.72
760.47	239.58
760.80	239.40
761.13	239.27
761.45	239.13
761.78	239.01
762.11	238.83
762.43	238.67
762.76	238.56
763.08	238.45
763.41	238.32
763.74	238.17
764.06	237.99
764.39	237.81
764.71	237.68
765.04	237.54
765.37	237.40
765.69	237.25
766.02	237.15
766.34	237.00
766.67	236.84
767.00	236.72
767.32	236.67
767.65	236.64
767.97	236.50
768.30	236.39
768.62	236.26
768.95	236.12
769.27	236.02
769.60	235.95
769.92	235.80
770.25	235.71
770.57	235.59
770.90	235.53
771.22	235.47
771.55	235.43
771.87	235.34
772.20	235.26
772.52	235.25
772.85	235.25
773.17	235.17
773.50	235.07
773.82	234.96
774.15	234.81
774.47	234.66
774.80	234.59
775.12	234.50
775.45	234.40
775.77	234.34
776.09	234.29
776.42	234.19
776.74	234.16
777.07	234.10
777.39	234.01
777.72	233.91
778.04	233.84
778.36	233.75
778.69	233.65
779.01	233.56
779.33	233.39
779.66	233.22
779.98	233.16
780.31	233.12
780.63	233.07
780.95	233.01
781.28	232.93
781.60	232.83
781.92	232.76
782.25	232.70
782.57	232.65
782.89	232.56
783.22	232.49
783.54	232.38
783.86	232.29
784.19	232.23
784.51	232.23
784.83	232.16
785.16	232.12
785.48	232.07
785.80	232.03
786.12	232.01
786.45	231.97
786.77	231.91
787.09	231.83
