SpectraSuite Data File
++++++++++++++++++++++++++++++++++++
Date: Fri Feb 01 16:51:09 EST 2013
User: group
Dark Spectrum Present: No
Reference Spectrum Present: No
Number of Sampled Component Spectra: 1
Spectrometers: USB2E7196
Integration Time (usec): 35000 (USB2E7196)
Spectra Averaged: 100 (USB2E7196)
Boxcar Smoothing: 10 (USB2E7196)
Correct for Electrical Dark: No (USB2E7196)
Strobe/Lamp Enabled: No (USB2E7196)
Correct for Detector Non-linearity: No (USB2E7196)
Correct for Stray Light: No (USB2E7196)
Number of Pixels in Processed Spectrum: 2048
>>>>>Begin Processed Spectral Data<<<<<
339.09	0.00
339.48	212.85
339.86	215.11
340.24	216.64
340.63	217.39
341.01	220.22
341.39	220.18
341.78	222.05
342.16	222.47
342.54	222.93
342.93	211.63
343.31	222.33
343.69	222.91
344.07	223.34
344.46	223.73
344.84	224.13
345.22	224.37
345.60	224.64
345.99	224.80
346.37	224.95
346.75	225.06
347.13	225.07
347.52	225.16
347.90	225.23
348.28	225.27
348.66	225.29
349.05	225.27
349.43	225.31
349.81	225.34
350.19	225.37
350.57	225.45
350.96	225.50
351.34	225.58
351.72	225.64
352.10	225.76
352.48	225.81
352.87	225.83
353.25	225.89
353.63	225.94
354.01	226.00
354.39	226.06
354.77	226.16
355.15	226.29
355.54	226.34
355.92	226.42
356.30	226.52
356.68	226.66
357.06	226.73
357.44	226.77
357.82	226.82
358.20	226.91
358.58	226.92
358.97	227.02
359.35	227.08
359.73	227.12
360.11	227.16
360.49	227.22
360.87	227.28
361.25	227.36
361.63	227.40
362.01	227.48
362.39	227.52
362.77	227.56
363.15	227.57
363.53	227.60
363.91	227.61
364.29	227.58
364.67	227.52
365.05	227.57
365.43	227.61
365.81	227.67
366.19	227.73
366.57	227.79
366.95	227.76
367.33	227.76
367.71	227.77
368.09	227.79
368.47	227.80
368.85	227.77
369.23	227.76
369.61	227.71
369.99	227.68
370.37	227.66
370.75	227.69
371.13	227.69
371.51	227.66
371.89	227.62
372.27	227.62
372.65	227.60
373.03	227.51
373.41	227.47
373.78	227.40
374.16	227.28
374.54	227.18
374.92	227.14
375.30	227.06
375.68	226.99
376.06	226.91
376.44	226.85
376.82	226.78
377.19	226.73
377.57	226.67
377.95	226.58
378.33	226.53
378.71	226.38
379.09	226.35
379.47	226.30
379.84	226.26
380.22	226.20
380.60	226.11
380.98	226.08
381.36	226.01
381.73	225.90
382.11	225.89
382.49	225.86
382.87	225.81
383.25	225.78
383.62	225.86
384.00	225.79
384.38	225.75
384.76	225.73
385.13	225.71
385.51	225.68
385.89	225.64
386.27	225.57
386.64	225.54
387.02	225.46
387.40	225.39
387.78	225.33
388.15	225.30
388.53	225.31
388.91	225.27
389.29	225.23
389.66	225.24
390.04	225.19
390.42	225.15
390.79	225.12
391.17	225.08
391.55	224.97
391.92	225.01
392.30	224.98
392.68	224.96
393.05	224.94
393.43	224.94
393.81	224.94
394.18	224.91
394.56	224.93
394.94	225.01
395.31	225.02
395.69	225.07
396.06	225.10
396.44	225.10
396.82	225.11
397.19	225.20
397.57	225.26
397.95	225.31
398.32	225.32
398.70	225.37
399.07	225.42
399.45	225.45
399.82	225.49
400.20	225.57
400.58	225.63
400.95	225.68
401.33	225.76
401.70	225.89
402.08	226.03
402.45	226.12
402.83	226.18
403.20	226.28
403.58	226.35
403.95	226.47
404.33	226.59
404.71	226.72
405.08	226.89
405.46	227.01
405.83	227.14
406.21	227.29
406.58	227.48
406.96	227.66
407.33	227.81
407.70	228.00
408.08	228.21
408.45	228.41
408.83	228.63
409.20	228.86
409.58	229.06
409.95	229.29
410.33	229.57
410.70	229.82
411.08	230.13
411.45	230.43
411.82	230.71
412.20	231.03
412.57	231.44
412.95	231.70
413.32	232.08
413.69	232.50
414.07	232.93
414.44	233.34
414.82	233.82
415.19	234.35
415.56	234.87
415.94	235.43
416.31	236.10
416.68	236.71
417.06	237.42
417.43	238.10
417.81	238.87
418.18	239.62
418.55	240.43
418.93	241.29
419.30	242.19
419.67	243.14
420.04	244.10
420.42	245.06
420.79	246.26
421.16	247.43
421.54	248.58
421.91	249.78
422.28	251.05
422.66	252.34
423.03	253.68
423.40	255.04
423.77	256.46
424.15	257.83
424.52	259.31
424.89	260.86
425.26	262.35
425.64	263.77
426.01	265.35
426.38	266.99
426.75	268.65
427.13	270.36
427.50	272.16
427.87	274.05
428.24	275.89
428.61	277.63
428.99	279.55
429.36	281.66
429.73	283.71
430.10	285.73
430.47	287.80
430.85	289.90
431.22	292.10
431.59	294.45
431.96	296.72
432.33	299.17
432.70	301.51
433.08	304.33
433.45	306.95
433.82	309.50
434.19	312.40
434.56	315.18
434.93	317.86
435.30	320.41
435.68	323.28
436.05	326.12
436.42	328.86
436.79	331.35
437.16	334.01
437.53	336.82
437.90	339.58
438.27	342.33
438.64	345.14
439.01	347.72
439.38	349.94
439.75	352.08
440.13	354.54
440.50	356.85
440.87	358.67
441.24	360.59
441.61	362.75
441.98	364.21
442.35	365.97
442.72	367.75
443.09	369.58
443.46	370.52
443.83	371.11
444.20	371.61
444.57	372.45
444.94	372.73
445.31	373.07
445.68	373.41
446.05	373.46
446.42	373.01
446.79	372.60
447.16	372.19
447.53	371.85
447.90	370.74
448.27	369.61
448.64	368.10
449.01	367.00
449.37	365.09
449.74	363.23
450.11	361.05
450.48	358.61
450.85	356.04
451.22	353.98
451.59	351.95
451.96	350.03
452.33	347.50
452.70	345.16
453.07	342.33
453.43	339.50
453.80	336.71
454.17	334.11
454.54	331.59
454.91	328.83
455.28	326.17
455.65	323.70
456.02	321.30
456.38	319.12
456.75	316.44
457.12	314.20
457.49	311.99
457.86	309.85
458.23	308.02
458.59	306.04
458.96	303.95
459.33	302.10
459.70	300.27
460.07	298.75
460.43	297.04
460.80	295.46
461.17	294.06
461.54	292.61
461.91	291.21
462.27	289.77
462.64	288.56
463.01	287.25
463.38	285.98
463.74	284.62
464.11	283.47
464.48	282.48
464.85	281.35
465.21	280.46
465.58	279.52
465.95	278.43
466.32	277.55
466.68	276.67
467.05	275.79
467.42	274.91
467.78	273.99
468.15	273.14
468.52	272.50
468.88	271.59
469.25	270.81
469.62	270.18
469.98	269.53
470.35	268.88
470.72	268.30
471.08	267.65
471.45	267.11
471.82	266.55
472.18	265.97
472.55	265.53
472.92	265.07
473.28	264.63
473.65	264.21
474.02	263.74
474.38	263.42
474.75	263.12
475.11	262.77
475.48	262.49
475.85	262.28
476.21	262.06
476.58	261.93
476.94	261.80
477.31	261.66
477.67	261.52
478.04	261.46
478.41	261.43
478.77	261.45
479.14	261.39
479.50	261.42
479.87	261.53
480.23	261.65
480.60	261.76
480.96	261.88
481.33	262.09
481.69	262.30
482.06	262.49
482.42	262.68
482.79	262.93
483.15	263.27
483.52	263.64
483.88	263.98
484.25	264.35
484.61	264.84
484.98	265.28
485.34	265.85
485.71	266.42
486.07	266.99
486.44	267.57
486.80	268.31
487.17	269.05
487.53	269.83
487.90	270.66
488.26	271.52
488.62	272.46
488.99	273.46
489.35	274.50
489.72	275.58
490.08	276.78
490.44	278.06
490.81	279.40
491.17	280.73
491.54	282.22
491.90	283.76
492.26	285.34
492.63	287.04
492.99	288.83
493.36	290.73
493.72	292.78
494.08	294.89
494.45	297.17
494.81	299.56
495.17	302.00
495.54	304.57
495.90	307.28
496.26	310.10
496.63	313.02
496.99	316.10
497.35	319.37
497.72	322.77
498.08	326.27
498.44	329.91
498.80	333.84
499.17	337.89
499.53	342.06
499.89	346.42
500.26	350.94
500.62	355.55
500.98	360.46
501.34	365.52
501.71	370.82
502.07	376.17
502.43	381.77
502.79	387.59
503.16	393.64
503.52	399.89
503.88	406.21
504.24	412.82
504.60	419.74
504.97	426.82
505.33	434.16
505.69	441.85
506.05	449.58
506.41	457.50
506.78	465.55
507.14	473.85
507.50	482.59
507.86	491.55
508.22	500.76
508.59	510.03
508.95	519.57
509.31	529.38
509.67	539.45
510.03	549.69
510.39	560.13
510.75	570.79
511.12	581.65
511.48	592.97
511.84	604.34
512.20	615.74
512.56	627.58
512.92	639.64
513.28	651.89
513.64	664.27
514.00	676.77
514.37	689.69
514.73	702.73
515.09	715.59
515.45	728.74
515.81	742.14
516.17	755.94
516.53	769.92
516.89	783.90
517.25	797.92
517.61	812.17
517.97	826.53
518.33	840.86
518.69	855.54
519.05	870.31
519.41	885.33
519.77	900.65
520.13	915.94
520.49	931.08
520.85	946.24
521.21	961.75
521.57	977.78
521.93	993.30
522.29	1009.48
522.65	1025.59
523.01	1041.55
523.37	1057.41
523.73	1073.39
524.09	1089.25
524.45	1105.34
524.81	1121.74
525.17	1138.24
525.53	1154.79
525.89	1171.54
526.25	1188.08
526.61	1204.28
526.97	1220.85
527.33	1237.11
527.68	1253.40
528.04	1269.72
528.40	1286.07
528.76	1303.06
529.12	1319.41
529.48	1336.07
529.84	1351.83
530.20	1368.27
530.56	1385.13
530.91	1402.42
531.27	1418.91
531.63	1435.16
531.99	1451.45
532.35	1467.12
532.71	1482.85
533.07	1498.93
533.42	1514.55
533.78	1530.46
534.14	1546.49
534.50	1561.60
534.86	1577.32
535.21	1592.35
535.57	1608.16
535.93	1623.35
536.29	1637.82
536.65	1652.70
537.00	1667.19
537.36	1682.27
537.72	1696.48
538.08	1710.66
538.44	1724.09
538.79	1737.81
539.15	1751.14
539.51	1764.68
539.87	1778.91
540.22	1792.47
540.58	1805.97
540.94	1818.96
541.29	1831.50
541.65	1843.93
542.01	1856.88
542.37	1868.96
542.72	1881.20
543.08	1892.59
543.44	1904.92
543.79	1916.03
544.15	1926.79
544.51	1938.29
544.87	1949.06
545.22	1959.82
545.58	1969.99
545.94	1979.74
546.29	1989.39
546.65	1999.26
547.01	2008.34
547.36	2016.96
547.72	2025.37
548.07	2033.23
548.43	2041.19
548.79	2049.04
549.14	2056.49
549.50	2063.65
549.86	2071.14
550.21	2078.49
550.57	2085.68
550.92	2092.20
551.28	2099.12
551.64	2106.26
551.99	2112.79
552.35	2119.06
552.70	2125.11
553.06	2131.00
553.41	2137.16
553.77	2143.25
554.13	2149.37
554.48	2155.65
554.84	2161.33
555.19	2166.58
555.55	2171.79
555.90	2176.51
556.26	2181.65
556.61	2186.45
556.97	2190.90
557.32	2195.06
557.68	2199.09
558.03	2203.53
558.39	2207.24
558.74	2211.96
559.10	2215.84
559.45	2219.34
559.81	2223.47
560.16	2227.40
560.52	2230.70
560.87	2234.22
561.23	2236.80
561.58	2239.65
561.94	2242.09
562.29	2244.14
562.64	2246.92
563.00	2249.31
563.35	2252.73
563.71	2255.74
564.06	2258.94
564.42	2261.97
564.77	2264.70
565.12	2267.16
565.48	2269.12
565.83	2271.12
566.19	2272.52
566.54	2273.40
566.89	2274.80
567.25	2275.62
567.60	2276.91
567.96	2278.71
568.31	2279.48
568.66	2280.78
569.02	2281.68
569.37	2282.31
569.72	2283.54
570.08	2283.77
570.43	2284.14
570.78	2283.88
571.14	2282.53
571.49	2281.26
571.84	2280.97
572.20	2280.08
572.55	2279.19
572.90	2277.69
573.26	2276.54
573.61	2275.00
573.96	2273.37
574.31	2270.57
574.67	2267.72
575.02	2264.32
575.37	2261.08
575.72	2257.61
576.08	2254.18
576.43	2250.78
576.78	2247.30
577.13	2244.15
577.49	2241.12
577.84	2237.79
578.19	2234.29
578.54	2230.99
578.90	2227.09
579.25	2221.75
579.60	2216.89
579.95	2211.97
580.30	2206.99
580.66	2201.82
581.01	2196.92
581.36	2192.29
581.71	2188.23
582.06	2184.00
582.42	2179.60
582.77	2174.63
583.12	2170.29
583.47	2165.95
583.82	2161.29
584.17	2156.17
584.53	2150.76
584.88	2145.28
585.23	2139.71
585.58	2134.18
585.93	2128.71
586.28	2123.99
586.63	2119.05
586.98	2114.24
587.34	2109.67
587.69	2104.99
588.04	2100.03
588.39	2094.50
588.74	2088.14
589.09	2082.20
589.44	2075.59
589.79	2069.71
590.14	2064.12
590.49	2057.54
590.84	2051.22
591.19	2045.16
591.54	2038.84
591.89	2031.81
592.25	2025.19
592.60	2018.11
592.95	2010.65
593.30	2003.54
593.65	1996.10
594.00	1989.12
594.35	1981.86
594.70	1973.88
595.05	1966.94
595.40	1959.69
595.75	1952.46
596.10	1946.45
596.45	1939.86
596.80	1933.70
597.15	1927.26
597.50	1920.40
597.85	1914.07
598.19	1907.69
598.54	1900.78
598.89	1894.20
599.24	1888.28
599.59	1881.84
599.94	1875.63
600.29	1869.52
600.64	1862.99
600.99	1855.74
601.34	1848.96
601.69	1841.96
602.04	1835.36
602.39	1827.99
602.74	1821.30
603.08	1814.59
603.43	1807.84
603.78	1800.44
604.13	1793.36
604.48	1786.16
604.83	1779.28
605.18	1772.51
605.53	1764.54
605.87	1756.56
606.22	1749.37
606.57	1741.45
606.92	1734.11
607.27	1727.12
607.62	1720.20
607.96	1713.08
608.31	1706.61
608.66	1699.15
609.01	1691.83
609.36	1684.22
609.70	1676.28
610.05	1668.19
610.40	1660.51
610.75	1652.25
611.10	1644.75
611.44	1636.44
611.79	1628.48
612.14	1619.85
612.49	1610.72
612.83	1602.33
613.18	1594.29
613.53	1586.20
613.88	1577.77
614.22	1569.45
614.57	1560.87
614.92	1552.89
615.27	1545.20
615.61	1536.83
615.96	1528.78
616.31	1521.17
616.65	1513.83
617.00	1506.29
617.35	1498.79
617.70	1490.59
618.04	1482.12
618.39	1473.87
618.74	1466.15
619.08	1457.88
619.43	1450.26
619.78	1443.31
620.12	1436.10
620.47	1428.56
620.82	1420.44
621.16	1413.02
621.51	1405.47
621.85	1397.82
622.20	1389.31
622.55	1380.99
622.89	1373.09
623.24	1365.37
623.59	1357.89
623.93	1350.37
624.28	1343.22
624.62	1335.65
624.97	1328.40
625.32	1321.57
625.66	1314.52
626.01	1307.50
626.35	1300.15
626.70	1292.36
627.04	1284.72
627.39	1277.06
627.73	1269.70
628.08	1262.78
628.43	1255.56
628.77	1248.26
629.12	1240.74
629.46	1233.64
629.81	1226.17
630.15	1219.06
630.50	1211.82
630.84	1203.74
631.19	1195.80
631.53	1188.19
631.88	1180.71
632.22	1173.14
632.57	1165.84
632.91	1158.34
633.26	1150.81
633.60	1143.39
633.95	1136.28
634.29	1129.15
634.64	1122.41
634.98	1115.06
635.32	1107.98
635.67	1101.26
636.01	1094.53
636.36	1087.76
636.70	1081.24
637.05	1074.72
637.39	1068.13
637.73	1061.67
638.08	1055.75
638.42	1049.73
638.77	1043.37
639.11	1036.72
639.45	1030.34
639.80	1023.82
640.14	1017.51
640.49	1011.11
640.83	1004.85
641.17	998.75
641.52	992.44
641.86	986.04
642.20	980.22
642.55	973.83
642.89	967.48
643.23	960.98
643.58	955.15
643.92	948.90
644.26	942.99
644.61	936.95
644.95	930.90
645.29	924.39
645.64	917.71
645.98	911.33
646.32	905.53
646.66	899.60
647.01	893.77
647.35	888.03
647.69	882.14
648.04	876.51
648.38	870.66
648.72	864.77
649.06	858.78
649.41	852.90
649.75	846.96
650.09	841.07
650.43	835.28
650.78	829.19
651.12	823.25
651.46	817.43
651.80	811.82
652.14	806.41
652.49	800.96
652.83	795.76
653.17	790.13
653.51	784.37
653.85	778.88
654.20	773.23
654.54	767.20
654.88	761.37
655.22	755.55
655.56	749.86
655.90	744.31
656.25	739.00
656.59	733.59
656.93	728.50
657.27	723.26
657.61	717.82
657.95	712.74
658.29	707.64
658.64	702.36
658.98	696.96
659.32	691.56
659.66	686.42
660.00	681.12
660.34	676.20
660.68	671.28
661.02	666.23
661.36	661.51
661.70	657.01
662.05	652.84
662.39	648.46
662.73	644.05
663.07	639.77
663.41	635.34
663.75	630.92
664.09	626.39
664.43	622.01
664.77	617.90
665.11	613.59
665.45	609.51
665.79	605.51
666.13	601.43
666.47	597.35
666.81	593.12
667.15	589.09
667.49	585.15
667.83	581.29
668.17	577.35
668.51	573.30
668.85	569.31
669.19	565.35
669.53	561.54
669.87	557.68
670.21	553.91
670.55	550.23
670.89	546.77
671.23	543.35
671.57	539.82
671.91	536.33
672.25	532.87
672.58	529.32
672.92	525.86
673.26	522.70
673.60	519.48
673.94	516.41
674.28	513.38
674.62	510.51
674.96	507.46
675.30	504.64
675.64	501.78
675.97	498.97
676.31	496.11
676.65	493.17
676.99	490.44
677.33	487.55
677.67	484.77
678.01	481.77
678.34	478.74
678.68	475.89
679.02	473.08
679.36	470.37
679.70	467.66
680.04	464.91
680.37	462.05
680.71	459.23
681.05	456.61
681.39	454.00
681.73	451.26
682.06	448.75
682.40	446.15
682.74	443.59
683.08	440.98
683.42	438.43
683.75	435.93
684.09	433.36
684.43	430.95
684.77	428.51
685.10	426.15
685.44	423.85
685.78	421.53
686.12	419.29
686.45	416.92
686.79	414.66
687.13	412.53
687.46	410.34
687.80	408.24
688.14	405.99
688.48	403.91
688.81	401.71
689.15	399.57
689.49	397.38
689.82	395.32
690.16	393.31
690.50	391.35
690.83	389.50
691.17	387.55
691.51	385.69
691.84	383.87
692.18	381.98
692.52	380.01
692.85	378.09
693.19	376.15
693.52	374.32
693.86	372.48
694.20	370.65
694.53	368.85
694.87	366.94
695.21	365.17
695.54	363.31
695.88	361.58
696.21	359.89
696.55	358.25
696.88	356.54
697.22	354.83
697.56	353.18
697.89	351.49
698.23	349.90
698.56	348.29
698.90	346.66
699.23	344.99
699.57	343.48
699.90	341.94
700.24	340.39
700.58	338.91
700.91	337.42
701.25	335.99
701.58	334.64
701.92	333.32
702.25	331.97
702.59	330.64
702.92	329.30
703.26	327.93
703.59	326.63
703.93	325.42
704.26	324.19
704.60	322.90
704.93	321.59
705.26	320.32
705.60	319.08
705.93	317.94
706.27	316.89
706.60	315.83
706.94	314.78
707.27	313.63
707.61	312.49
707.94	311.47
708.27	310.36
708.61	309.24
708.94	308.19
709.28	307.19
709.61	306.18
709.94	305.25
710.28	304.25
710.61	303.29
710.95	302.26
711.28	301.36
711.61	300.40
711.95	299.48
712.28	298.53
712.61	297.60
712.95	296.63
713.28	295.80
713.61	294.88
713.95	293.98
714.28	293.19
714.61	292.36
714.95	291.48
715.28	290.60
715.61	289.78
715.95	288.98
716.28	288.12
716.61	287.30
716.95	286.44
717.28	285.72
717.61	284.94
717.94	284.16
718.28	283.34
718.61	282.60
718.94	281.92
719.27	281.29
719.61	280.60
719.94	279.96
720.27	279.20
720.60	278.50
720.94	277.80
721.27	277.19
721.60	276.62
721.93	276.04
722.27	275.56
722.60	274.97
722.93	274.36
723.26	273.81
723.59	273.26
723.93	272.76
724.26	272.16
724.59	271.61
724.92	271.09
725.25	270.60
725.59	270.09
725.92	269.58
726.25	269.03
726.58	268.55
726.91	268.03
727.24	267.56
727.57	267.11
727.91	266.64
728.24	266.20
728.57	265.68
728.90	265.18
729.23	264.68
729.56	264.27
729.89	263.80
730.22	263.34
730.55	262.87
730.89	262.40
731.22	261.94
731.55	261.49
731.88	261.03
732.21	260.61
732.54	260.19
732.87	259.77
733.20	259.40
733.53	259.01
733.86	258.65
734.19	258.25
734.52	257.89
734.85	257.58
735.18	257.16
735.51	256.85
735.84	256.48
736.17	256.09
736.50	255.69
736.83	255.46
737.16	255.12
737.49	254.77
737.82	254.45
738.15	254.12
738.48	253.79
738.81	253.49
739.14	253.19
739.47	252.87
739.80	252.56
740.13	252.23
740.46	251.88
740.79	251.56
741.12	251.26
741.45	250.96
741.78	250.60
742.11	250.28
742.44	249.92
742.77	249.62
743.10	249.33
743.43	249.03
743.75	248.62
744.08	248.48
744.41	248.20
744.74	247.90
745.07	247.61
745.40	247.35
745.73	247.14
746.06	246.83
746.39	246.57
746.71	246.33
747.04	246.07
747.37	245.82
747.70	245.55
748.03	245.28
748.36	245.06
748.68	244.83
749.01	244.61
749.34	244.41
749.67	244.19
750.00	243.98
750.33	243.82
750.65	243.62
750.98	243.28
751.31	243.03
751.64	242.82
751.97	242.67
752.29	242.46
752.62	242.18
752.95	241.96
753.28	241.76
753.60	241.54
753.93	241.36
754.26	241.15
754.59	240.95
754.91	240.73
755.24	240.49
755.57	240.27
755.90	240.04
756.22	239.85
756.55	239.64
756.88	239.45
757.20	239.22
757.53	239.03
757.86	238.87
758.19	238.76
758.51	238.57
758.84	238.34
759.17	238.21
759.49	238.07
759.82	237.96
760.15	237.81
760.47	237.64
760.80	237.46
761.13	237.36
761.45	237.22
761.78	237.08
762.11	236.97
762.43	236.87
762.76	236.76
763.08	236.64
763.41	236.55
763.74	236.42
764.06	236.26
764.39	236.12
764.71	235.98
765.04	235.84
765.37	235.70
765.69	235.57
766.02	235.42
766.34	235.28
766.67	235.12
767.00	235.02
767.32	234.94
767.65	234.88
767.97	234.73
768.30	234.60
768.62	234.46
768.95	234.36
769.27	234.20
769.60	234.10
769.92	233.97
770.25	233.85
770.57	233.69
770.90	233.61
771.22	233.50
771.55	233.41
771.87	233.29
772.20	233.21
772.52	233.21
772.85	233.26
773.17	233.17
773.50	233.07
773.82	232.97
774.15	232.84
774.47	232.69
774.80	232.61
775.12	232.55
775.45	232.49
775.77	232.39
776.09	232.30
776.42	232.22
776.74	232.17
777.07	232.11
777.39	232.10
777.72	232.05
778.04	231.99
778.36	231.90
778.69	231.87
779.01	231.81
779.33	231.68
779.66	231.50
779.98	231.43
780.31	231.38
780.63	231.35
780.95	231.31
781.28	231.25
781.60	231.20
781.92	231.14
782.25	231.07
782.57	230.99
782.89	230.95
783.22	230.87
783.54	230.78
783.86	230.68
784.19	230.59
784.51	230.53
784.83	230.50
785.16	230.42
785.48	230.33
785.80	230.26
786.12	230.25
786.45	230.16
786.77	230.11
787.09	230.07
