SpectraSuite Data File
++++++++++++++++++++++++++++++++++++
Date: Fri Feb 01 15:28:20 EST 2013
User: group
Dark Spectrum Present: No
Reference Spectrum Present: No
Number of Sampled Component Spectra: 1
Spectrometers: USB2E7196
Integration Time (usec): 35000 (USB2E7196)
Spectra Averaged: 100 (USB2E7196)
Boxcar Smoothing: 10 (USB2E7196)
Correct for Electrical Dark: No (USB2E7196)
Strobe/Lamp Enabled: No (USB2E7196)
Correct for Detector Non-linearity: No (USB2E7196)
Correct for Stray Light: No (USB2E7196)
Number of Pixels in Processed Spectrum: 2048
>>>>>Begin Processed Spectral Data<<<<<
339.09	0.00
339.48	215.32
339.86	216.44
340.24	217.44
340.63	218.66
341.01	222.13
341.39	221.46
341.78	222.81
342.16	224.39
342.54	225.13
342.93	213.17
343.31	223.96
343.69	224.48
344.07	224.92
344.46	225.34
344.84	225.75
345.22	225.95
345.60	226.21
345.99	226.40
346.37	226.54
346.75	226.60
347.13	226.64
347.52	226.70
347.90	226.76
348.28	226.76
348.66	226.83
349.05	226.82
349.43	226.88
349.81	226.92
350.19	227.01
350.57	227.09
350.96	227.16
351.34	227.23
351.72	227.34
352.10	227.47
352.48	227.57
352.87	227.64
353.25	227.73
353.63	227.79
354.01	227.85
354.39	227.88
354.77	227.97
355.15	228.08
355.54	228.16
355.92	228.16
356.30	228.24
356.68	228.37
357.06	228.43
357.44	228.47
357.82	228.56
358.20	228.60
358.58	228.65
358.97	228.72
359.35	228.78
359.73	228.85
360.11	228.88
360.49	228.94
360.87	228.94
361.25	229.01
361.63	229.09
362.01	229.13
362.39	229.19
362.77	229.23
363.15	229.25
363.53	229.27
363.91	229.34
364.29	229.34
364.67	229.26
365.05	229.28
365.43	229.32
365.81	229.34
366.19	229.37
366.57	229.42
366.95	229.40
367.33	229.37
367.71	229.32
368.09	229.32
368.47	229.31
368.85	229.30
369.23	229.29
369.61	229.24
369.99	229.27
370.37	229.23
370.75	229.25
371.13	229.21
371.51	229.14
371.89	229.10
372.27	229.09
372.65	229.04
373.03	229.02
373.41	228.96
373.78	228.90
374.16	228.82
374.54	228.73
374.92	228.67
375.30	228.61
375.68	228.55
376.06	228.50
376.44	228.43
376.82	228.37
377.19	228.27
377.57	228.21
377.95	228.08
378.33	228.01
378.71	227.87
379.09	227.81
379.47	227.79
379.84	227.70
380.22	227.61
380.60	227.54
380.98	227.46
381.36	227.39
381.73	227.28
382.11	227.23
382.49	227.16
382.87	227.08
383.25	227.04
383.62	227.07
384.00	226.98
384.38	226.95
384.76	226.90
385.13	226.93
385.51	226.89
385.89	226.87
386.27	226.83
386.64	226.79
387.02	226.73
387.40	226.68
387.78	226.65
388.15	226.58
388.53	226.55
388.91	226.49
389.29	226.42
389.66	226.40
390.04	226.36
390.42	226.36
390.79	226.36
391.17	226.32
391.55	226.20
391.92	226.21
392.30	226.19
392.68	226.20
393.05	226.17
393.43	226.16
393.81	226.14
394.18	226.16
394.56	226.17
394.94	226.23
395.31	226.24
395.69	226.27
396.06	226.35
396.44	226.39
396.82	226.44
397.19	226.54
397.57	226.60
397.95	226.67
398.32	226.65
398.70	226.72
399.07	226.81
399.45	226.89
399.82	226.93
400.20	226.99
400.58	227.06
400.95	227.09
401.33	227.20
401.70	227.36
402.08	227.44
402.45	227.54
402.83	227.63
403.20	227.74
403.58	227.86
403.95	227.99
404.33	228.11
404.71	228.26
405.08	228.43
405.46	228.58
405.83	228.72
406.21	228.94
406.58	229.08
406.96	229.26
407.33	229.42
407.70	229.64
408.08	229.89
408.45	230.11
408.83	230.37
409.20	230.58
409.58	230.74
409.95	231.04
410.33	231.32
410.70	231.54
411.08	231.82
411.45	232.13
411.82	232.47
412.20	232.83
412.57	233.23
412.95	233.55
413.32	233.96
413.69	234.36
414.07	234.78
414.44	235.26
414.82	235.75
415.19	236.31
415.56	236.85
415.94	237.37
416.31	238.01
416.68	238.57
417.06	239.30
417.43	240.01
417.81	240.75
418.18	241.51
418.55	242.38
418.93	243.28
419.30	244.18
419.67	245.07
420.04	246.05
420.42	247.02
420.79	248.19
421.16	249.34
421.54	250.55
421.91	251.79
422.28	253.08
422.66	254.39
423.03	255.69
423.40	257.02
423.77	258.45
424.15	259.88
424.52	261.41
424.89	263.00
425.26	264.54
425.64	266.00
426.01	267.62
426.38	269.28
426.75	270.99
427.13	272.72
427.50	274.55
427.87	276.42
428.24	278.29
428.61	280.05
428.99	281.99
429.36	284.08
429.73	286.15
430.10	288.15
430.47	290.20
430.85	292.33
431.22	294.62
431.59	297.04
431.96	299.29
432.33	301.75
432.70	304.13
433.08	306.97
433.45	309.59
433.82	312.21
434.19	315.11
434.56	317.87
434.93	320.51
435.30	323.13
435.68	326.03
436.05	328.90
436.42	331.67
436.79	334.18
437.16	336.90
437.53	339.72
437.90	342.54
438.27	345.31
438.64	348.19
439.01	350.73
439.38	352.95
439.75	355.12
440.13	357.64
440.50	359.98
440.87	361.81
441.24	363.81
441.61	365.99
441.98	367.46
442.35	369.36
442.72	371.20
443.09	373.04
443.46	374.00
443.83	374.57
444.20	375.09
444.57	375.93
444.94	376.24
445.31	376.58
445.68	376.97
446.05	377.01
446.42	376.58
446.79	376.22
447.16	375.75
447.53	375.43
447.90	374.28
448.27	373.12
448.64	371.53
449.01	370.37
449.37	368.40
449.74	366.50
450.11	364.20
450.48	361.72
450.85	359.18
451.22	357.05
451.59	355.04
451.96	353.10
452.33	350.51
452.70	348.10
453.07	345.25
453.43	342.32
453.80	339.57
454.17	336.91
454.54	334.34
454.91	331.68
455.28	329.00
455.65	326.51
456.02	324.10
456.38	321.96
456.75	319.33
457.12	317.08
457.49	314.87
457.86	312.74
458.23	310.88
458.59	308.81
458.96	306.74
459.33	304.85
459.70	302.99
460.07	301.47
460.43	299.76
460.80	298.12
461.17	296.71
461.54	295.22
461.91	293.77
462.27	292.31
462.64	291.03
463.01	289.65
463.38	288.37
463.74	286.95
464.11	285.79
464.48	284.74
464.85	283.61
465.21	282.71
465.58	281.73
465.95	280.63
466.32	279.73
466.68	278.81
467.05	277.92
467.42	277.02
467.78	276.09
468.15	275.23
468.52	274.56
468.88	273.69
469.25	272.90
469.62	272.31
469.98	271.63
470.35	270.96
470.72	270.38
471.08	269.70
471.45	269.16
471.82	268.62
472.18	267.97
472.55	267.53
472.92	267.00
473.28	266.54
473.65	266.11
474.02	265.64
474.38	265.26
474.75	264.89
475.11	264.55
475.48	264.29
475.85	264.03
476.21	263.81
476.58	263.62
476.94	263.47
477.31	263.24
477.67	263.10
478.04	262.98
478.41	262.92
478.77	262.93
479.14	262.86
479.50	262.84
479.87	262.92
480.23	262.96
480.60	263.05
480.96	263.12
481.33	263.29
481.69	263.49
482.06	263.69
482.42	263.91
482.79	264.10
483.15	264.38
483.52	264.75
483.88	265.08
484.25	265.43
484.61	265.84
484.98	266.28
485.34	266.78
485.71	267.37
486.07	267.96
486.44	268.51
486.80	269.20
487.17	269.91
487.53	270.76
487.90	271.62
488.26	272.51
488.62	273.50
488.99	274.50
489.35	275.54
489.72	276.66
490.08	277.85
490.44	279.14
490.81	280.46
491.17	281.85
491.54	283.34
491.90	284.88
492.26	286.53
492.63	288.30
492.99	290.15
493.36	292.04
493.72	294.06
494.08	296.19
494.45	298.41
494.81	300.78
495.17	303.18
495.54	305.74
495.90	308.45
496.26	311.25
496.63	314.20
496.99	317.29
497.35	320.52
497.72	323.96
498.08	327.48
498.44	331.20
498.80	335.06
499.17	339.09
499.53	343.30
499.89	347.66
500.26	352.16
500.62	356.81
500.98	361.76
501.34	366.76
501.71	372.13
502.07	377.59
502.43	383.24
502.79	389.06
503.16	395.15
503.52	401.41
503.88	407.83
504.24	414.48
504.60	421.38
504.97	428.63
505.33	435.93
505.69	443.66
506.05	451.43
506.41	459.38
506.78	467.59
507.14	476.07
507.50	484.81
507.86	493.85
508.22	503.06
508.59	512.32
508.95	522.02
509.31	531.79
509.67	541.93
510.03	552.27
510.39	562.81
510.75	573.66
511.12	584.66
511.48	595.98
511.84	607.49
512.20	619.04
512.56	630.93
512.92	643.08
513.28	655.47
513.64	668.02
514.00	680.70
514.37	693.60
514.73	706.72
515.09	719.79
515.45	733.09
515.81	746.71
516.17	760.77
516.53	774.92
516.89	789.11
517.25	803.31
517.61	817.71
517.97	832.24
518.33	846.70
518.69	861.55
519.05	876.58
519.41	891.79
519.77	907.43
520.13	922.95
520.49	938.52
520.85	953.90
521.21	969.65
521.57	985.98
521.93	1001.90
522.29	1018.27
522.65	1034.53
523.01	1050.87
523.37	1066.99
523.73	1083.22
524.09	1099.36
524.45	1115.84
524.81	1132.58
525.17	1149.49
525.53	1166.47
525.89	1183.33
526.25	1200.07
526.61	1216.57
526.97	1233.35
527.33	1249.85
527.68	1266.54
528.04	1282.91
528.40	1299.58
528.76	1316.68
529.12	1333.32
529.48	1350.17
529.84	1366.25
530.20	1383.05
530.56	1400.04
530.91	1417.47
531.27	1434.18
531.63	1450.68
531.99	1467.27
532.35	1483.21
532.71	1499.07
533.07	1515.41
533.42	1531.43
533.78	1547.71
534.14	1563.97
534.50	1579.27
534.86	1595.29
535.21	1610.40
535.57	1626.60
535.93	1642.14
536.29	1656.72
536.65	1671.84
537.00	1686.67
537.36	1702.05
537.72	1716.51
538.08	1730.96
538.44	1744.69
538.79	1758.68
539.15	1772.45
539.51	1786.21
539.87	1800.66
540.22	1814.40
540.58	1828.09
540.94	1841.43
541.29	1854.31
541.65	1867.01
542.01	1880.32
542.37	1892.52
542.72	1905.03
543.08	1916.73
543.44	1929.17
543.79	1940.69
544.15	1951.72
544.51	1963.34
544.87	1974.26
545.22	1985.26
545.58	1995.42
545.94	2005.42
546.29	2015.28
546.65	2025.00
547.01	2034.27
547.36	2042.98
547.72	2051.58
548.07	2059.61
548.43	2067.86
548.79	2075.92
549.14	2083.49
549.50	2090.96
549.86	2098.84
550.21	2106.14
550.57	2113.46
550.92	2120.17
551.28	2127.26
551.64	2134.11
551.99	2140.73
552.35	2146.99
552.70	2153.07
553.06	2159.09
553.41	2165.35
553.77	2171.47
554.13	2177.65
554.48	2183.91
554.84	2189.41
555.19	2194.93
555.55	2199.97
555.90	2204.40
556.26	2209.19
556.61	2214.00
556.97	2218.17
557.32	2222.19
557.68	2226.31
558.03	2230.46
558.39	2234.06
558.74	2238.67
559.10	2242.76
559.45	2246.35
559.81	2250.69
560.16	2254.58
560.52	2257.89
560.87	2261.45
561.23	2264.06
561.58	2267.02
561.94	2269.56
562.29	2271.91
562.64	2274.38
563.00	2277.17
563.35	2280.69
563.71	2283.79
564.06	2286.93
564.42	2289.86
564.77	2292.55
565.12	2294.89
565.48	2296.70
565.83	2298.58
566.19	2299.96
566.54	2300.87
566.89	2301.94
567.25	2302.40
567.60	2303.73
567.96	2305.53
568.31	2306.11
568.66	2307.28
569.02	2307.86
569.37	2308.14
569.72	2308.91
570.08	2309.02
570.43	2308.79
570.78	2308.17
571.14	2306.59
571.49	2305.21
571.84	2304.85
572.20	2303.46
572.55	2302.28
572.90	2300.92
573.26	2299.50
573.61	2297.73
573.96	2295.87
574.31	2292.89
574.67	2289.83
575.02	2286.00
575.37	2282.36
575.72	2278.56
576.08	2275.20
576.43	2271.92
576.78	2268.18
577.13	2265.03
577.49	2261.90
577.84	2258.51
578.19	2254.68
578.54	2250.87
578.90	2246.70
579.25	2241.05
579.60	2236.02
579.95	2230.97
580.30	2225.64
580.66	2220.41
581.01	2215.31
581.36	2210.30
581.71	2205.98
582.06	2201.45
582.42	2196.96
582.77	2191.64
583.12	2186.92
583.47	2182.11
583.82	2176.77
584.17	2171.35
584.53	2165.74
584.88	2159.96
585.23	2154.01
585.58	2148.52
585.93	2143.13
586.28	2138.25
586.63	2132.99
586.98	2127.74
587.34	2123.08
587.69	2118.12
588.04	2112.76
588.39	2107.08
588.74	2100.57
589.09	2094.42
589.44	2087.55
589.79	2081.45
590.14	2075.82
590.49	2069.24
590.84	2062.69
591.19	2056.59
591.54	2050.06
591.89	2042.51
592.25	2035.73
592.60	2028.49
592.95	2020.71
593.30	2013.30
593.65	2005.65
594.00	1998.69
594.35	1991.52
594.70	1983.40
595.05	1976.21
595.40	1968.91
595.75	1961.31
596.10	1954.98
596.45	1948.02
596.80	1941.84
597.15	1935.04
597.50	1927.88
597.85	1921.34
598.19	1914.66
598.54	1907.47
598.89	1901.02
599.24	1895.27
599.59	1888.42
599.94	1882.17
600.29	1875.89
600.64	1869.33
600.99	1861.77
601.34	1854.69
601.69	1847.71
602.04	1840.73
602.39	1833.39
602.74	1826.54
603.08	1819.75
603.43	1812.99
603.78	1805.89
604.13	1798.60
604.48	1791.32
604.83	1784.41
605.18	1777.38
605.53	1769.27
605.87	1761.33
606.22	1753.79
606.57	1745.65
606.92	1738.31
607.27	1730.96
607.62	1723.96
607.96	1716.57
608.31	1709.88
608.66	1702.30
609.01	1694.58
609.36	1686.92
609.70	1678.77
610.05	1670.59
610.40	1662.84
610.75	1654.47
611.10	1646.73
611.44	1638.29
611.79	1630.28
612.14	1621.60
612.49	1612.58
612.83	1604.26
613.18	1596.28
613.53	1588.17
613.88	1579.67
614.22	1571.45
614.57	1563.02
614.92	1555.08
615.27	1547.51
615.61	1539.24
615.96	1531.30
616.31	1523.80
616.65	1516.49
617.00	1508.83
617.35	1501.21
617.70	1492.86
618.04	1484.35
618.39	1476.04
618.74	1468.44
619.08	1460.16
619.43	1452.49
619.78	1445.55
620.12	1438.38
620.47	1430.83
620.82	1422.70
621.16	1415.23
621.51	1407.62
621.85	1399.92
622.20	1391.40
622.55	1383.06
622.89	1375.20
623.24	1367.59
623.59	1360.16
623.93	1352.65
624.28	1345.50
624.62	1337.88
624.97	1330.70
625.32	1323.88
625.66	1316.86
626.01	1309.62
626.35	1302.15
626.70	1294.54
627.04	1286.70
627.39	1278.80
627.73	1271.28
628.08	1264.34
628.43	1257.08
628.77	1249.64
629.12	1242.02
629.46	1234.76
629.81	1227.35
630.15	1220.11
630.50	1212.71
630.84	1204.39
631.19	1196.40
631.53	1188.96
631.88	1181.36
632.22	1173.89
632.57	1166.74
632.91	1159.23
633.26	1151.91
633.60	1144.58
633.95	1137.45
634.29	1130.46
634.64	1123.82
634.98	1116.56
635.32	1109.40
635.67	1102.85
636.01	1096.22
636.36	1089.50
636.70	1083.03
637.05	1076.45
637.39	1070.06
637.73	1063.46
638.08	1057.73
638.42	1051.86
638.77	1045.45
639.11	1038.95
639.45	1032.48
639.80	1025.83
640.14	1019.36
640.49	1012.80
640.83	1006.47
641.17	1000.23
641.52	993.94
641.86	987.54
642.20	981.65
642.55	975.46
642.89	968.95
643.23	962.49
643.58	956.69
643.92	950.37
644.26	944.29
644.61	938.19
644.95	932.21
645.29	925.58
645.64	918.79
645.98	912.34
646.32	906.49
646.66	900.46
647.01	894.65
647.35	889.00
647.69	883.19
648.04	877.71
648.38	871.90
648.72	865.84
649.06	859.81
649.41	853.94
649.75	847.81
650.09	841.87
650.43	835.98
650.78	829.76
651.12	823.91
651.46	818.13
651.80	812.39
652.14	807.01
652.49	801.70
652.83	796.54
653.17	790.89
653.51	785.17
653.85	779.76
654.20	774.08
654.54	768.04
654.88	762.32
655.22	756.43
655.56	750.80
655.90	745.32
656.25	740.03
656.59	734.69
656.93	729.67
657.27	724.47
657.61	719.10
657.95	714.07
658.29	708.91
658.64	703.73
658.98	698.41
659.32	692.89
659.66	687.61
660.00	682.25
660.34	677.37
660.68	672.50
661.02	667.48
661.36	662.75
661.70	658.25
662.05	653.91
662.39	649.60
662.73	645.12
663.07	640.78
663.41	636.34
663.75	631.76
664.09	627.19
664.43	622.87
664.77	618.77
665.11	614.52
665.45	610.45
665.79	606.39
666.13	602.24
666.47	598.18
666.81	594.00
667.15	589.91
667.49	585.93
667.83	582.08
668.17	578.12
668.51	574.05
668.85	570.01
669.19	566.16
669.53	562.32
669.87	558.39
670.21	554.64
670.55	551.04
670.89	547.69
671.23	544.27
671.57	540.74
671.91	537.20
672.25	533.74
672.58	530.21
672.92	526.83
673.26	523.75
673.60	520.62
673.94	517.53
674.28	514.58
674.62	511.67
674.96	508.54
675.30	505.70
675.64	502.82
675.97	500.09
676.31	497.27
676.65	494.27
676.99	491.68
677.33	488.85
677.67	486.05
678.01	482.98
678.34	480.00
678.68	477.18
679.02	474.34
679.36	471.50
679.70	468.77
680.04	465.97
680.37	463.05
680.71	460.26
681.05	457.68
681.39	454.96
681.73	452.36
682.06	449.86
682.40	447.26
682.74	444.71
683.08	442.16
683.42	439.53
683.75	437.03
684.09	434.40
684.43	431.95
684.77	429.47
685.10	427.17
685.44	424.86
685.78	422.54
686.12	420.31
686.45	418.07
686.79	415.77
687.13	413.64
687.46	411.49
687.80	409.35
688.14	407.12
688.48	405.08
688.81	402.82
689.15	400.67
689.49	398.55
689.82	396.50
690.16	394.40
690.50	392.42
690.83	390.51
691.17	388.56
691.51	386.68
691.84	384.83
692.18	382.87
692.52	380.92
692.85	378.99
693.19	377.15
693.52	375.32
693.86	373.57
694.20	371.75
694.53	369.96
694.87	368.11
695.21	366.32
695.54	364.50
695.88	362.78
696.21	361.03
696.55	359.36
696.88	357.69
697.22	356.04
697.56	354.46
697.89	352.81
698.23	351.24
698.56	349.60
698.90	347.99
699.23	346.34
699.57	344.75
699.90	343.22
700.24	341.65
700.58	340.10
700.91	338.55
701.25	337.09
701.58	335.73
701.92	334.38
702.25	332.99
702.59	331.66
702.92	330.34
703.26	329.09
703.59	327.80
703.93	326.56
704.26	325.35
704.60	323.99
704.93	322.70
705.26	321.42
705.60	320.26
705.93	319.13
706.27	318.10
706.60	317.05
706.94	315.92
707.27	314.78
707.61	313.71
707.94	312.70
708.27	311.60
708.61	310.54
708.94	309.50
709.28	308.55
709.61	307.54
709.94	306.61
710.28	305.58
710.61	304.62
710.95	303.57
711.28	302.65
711.61	301.75
711.95	300.83
712.28	299.88
712.61	298.91
712.95	297.95
713.28	297.07
713.61	296.19
713.95	295.34
714.28	294.51
714.61	293.67
714.95	292.89
715.28	292.07
715.61	291.16
715.95	290.29
716.28	289.46
716.61	288.64
716.95	287.81
717.28	287.05
717.61	286.25
717.94	285.53
718.28	284.72
718.61	284.00
718.94	283.33
719.27	282.70
719.61	282.04
719.94	281.39
720.27	280.67
720.60	280.02
720.94	279.37
721.27	278.77
721.60	278.19
721.93	277.56
722.27	277.01
722.60	276.49
722.93	275.96
723.26	275.39
723.59	274.91
723.93	274.36
724.26	273.83
724.59	273.29
724.92	272.74
725.25	272.25
725.59	271.72
725.92	271.20
726.25	270.67
726.58	270.18
726.91	269.71
727.24	269.24
727.57	268.77
727.91	268.30
728.24	267.84
728.57	267.37
728.90	266.93
729.23	266.40
729.56	266.00
729.89	265.54
730.22	265.07
730.55	264.57
730.89	264.12
731.22	263.64
731.55	263.21
731.88	262.80
732.21	262.35
732.54	261.92
732.87	261.52
733.20	261.09
733.53	260.70
733.86	260.30
734.19	259.88
734.52	259.50
734.85	259.18
735.18	258.76
735.51	258.38
735.84	257.98
736.17	257.67
736.50	257.26
736.83	256.99
737.16	256.63
737.49	256.25
737.82	255.89
738.15	255.55
738.48	255.19
738.81	254.87
739.14	254.56
739.47	254.24
739.80	253.91
740.13	253.64
740.46	253.29
740.79	252.96
741.12	252.66
741.45	252.35
741.78	251.99
742.11	251.72
742.44	251.39
742.77	251.11
743.10	250.78
743.43	250.48
743.75	250.10
744.08	249.96
744.41	249.68
744.74	249.43
745.07	249.15
745.40	248.91
745.73	248.66
746.06	248.37
746.39	248.09
746.71	247.84
747.04	247.55
747.37	247.30
747.70	247.04
748.03	246.82
748.36	246.58
748.68	246.33
749.01	246.08
749.34	245.88
749.67	245.64
750.00	245.43
750.33	245.27
750.65	245.08
750.98	244.75
751.31	244.53
751.64	244.31
751.97	244.15
752.29	243.95
752.62	243.69
752.95	243.52
753.28	243.30
753.60	243.08
753.93	242.92
754.26	242.77
754.59	242.56
754.91	242.34
755.24	242.15
755.57	241.98
755.90	241.81
756.22	241.60
756.55	241.39
756.88	241.19
757.20	240.94
757.53	240.73
757.86	240.58
758.19	240.47
758.51	240.30
758.84	240.12
759.17	239.95
759.49	239.82
759.82	239.68
760.15	239.57
760.47	239.44
760.80	239.25
761.13	239.10
761.45	238.96
761.78	238.81
762.11	238.67
762.43	238.49
762.76	238.32
763.08	238.19
763.41	238.08
763.74	237.92
764.06	237.80
764.39	237.65
764.71	237.47
765.04	237.29
765.37	237.17
765.69	237.01
766.02	236.89
766.34	236.76
766.67	236.60
767.00	236.47
767.32	236.41
767.65	236.37
767.97	236.21
768.30	236.11
768.62	235.98
768.95	235.87
769.27	235.78
769.60	235.72
769.92	235.62
770.25	235.49
770.57	235.39
770.90	235.27
771.22	235.18
771.55	235.13
771.87	235.04
772.20	234.92
772.52	234.95
772.85	234.96
773.17	234.85
773.50	234.75
773.82	234.61
774.15	234.47
774.47	234.29
774.80	234.21
775.12	234.11
775.45	234.04
775.77	233.97
776.09	233.92
776.42	233.81
776.74	233.71
777.07	233.63
777.39	233.56
777.72	233.49
778.04	233.43
778.36	233.36
778.69	233.28
779.01	233.25
779.33	233.07
779.66	232.90
779.98	232.83
780.31	232.80
780.63	232.80
780.95	232.75
781.28	232.72
781.60	232.67
781.92	232.61
782.25	232.58
782.57	232.50
782.89	232.40
783.22	232.33
783.54	232.30
783.86	232.26
784.19	232.22
784.51	232.18
784.83	232.10
785.16	232.02
785.48	231.98
785.80	231.93
786.12	231.90
786.45	231.87
786.77	231.86
787.09	231.78
