SpectraSuite Data File
++++++++++++++++++++++++++++++++++++
Date: Fri Feb 01 15:29:12 EST 2013
User: group
Dark Spectrum Present: No
Reference Spectrum Present: No
Number of Sampled Component Spectra: 1
Spectrometers: USB2E7196
Integration Time (usec): 35000 (USB2E7196)
Spectra Averaged: 100 (USB2E7196)
Boxcar Smoothing: 10 (USB2E7196)
Correct for Electrical Dark: No (USB2E7196)
Strobe/Lamp Enabled: No (USB2E7196)
Correct for Detector Non-linearity: No (USB2E7196)
Correct for Stray Light: No (USB2E7196)
Number of Pixels in Processed Spectrum: 2048
>>>>>Begin Processed Spectral Data<<<<<
339.09	0.00
339.48	214.83
339.86	216.16
340.24	218.53
340.63	219.40
341.01	222.29
341.39	221.96
341.78	222.80
342.16	224.05
342.54	225.09
342.93	213.25
343.31	224.02
343.69	224.57
344.07	225.03
344.46	225.45
344.84	225.81
345.22	226.04
345.60	226.26
345.99	226.47
346.37	226.59
346.75	226.70
347.13	226.78
347.52	226.84
347.90	226.93
348.28	226.93
348.66	226.99
349.05	226.97
349.43	227.03
349.81	227.09
350.19	227.14
350.57	227.20
350.96	227.28
351.34	227.35
351.72	227.41
352.10	227.53
352.48	227.57
352.87	227.65
353.25	227.74
353.63	227.82
354.01	227.92
354.39	228.01
354.77	228.06
355.15	228.15
355.54	228.23
355.92	228.26
356.30	228.35
356.68	228.49
357.06	228.59
357.44	228.61
357.82	228.66
358.20	228.72
358.58	228.81
358.97	228.87
359.35	228.96
359.73	229.08
360.11	229.11
360.49	229.15
360.87	229.20
361.25	229.27
361.63	229.34
362.01	229.36
362.39	229.37
362.77	229.44
363.15	229.44
363.53	229.47
363.91	229.51
364.29	229.54
364.67	229.44
365.05	229.45
365.43	229.50
365.81	229.51
366.19	229.53
366.57	229.55
366.95	229.55
367.33	229.54
367.71	229.47
368.09	229.50
368.47	229.47
368.85	229.43
369.23	229.40
369.61	229.36
369.99	229.36
370.37	229.40
370.75	229.40
371.13	229.36
371.51	229.30
371.89	229.29
372.27	229.27
372.65	229.22
373.03	229.17
373.41	229.09
373.78	229.03
374.16	228.95
374.54	228.86
374.92	228.78
375.30	228.71
375.68	228.65
376.06	228.59
376.44	228.54
376.82	228.47
377.19	228.36
377.57	228.28
377.95	228.18
378.33	228.09
378.71	227.93
379.09	227.87
379.47	227.81
379.84	227.70
380.22	227.61
380.60	227.59
380.98	227.52
381.36	227.44
381.73	227.37
382.11	227.32
382.49	227.27
382.87	227.22
383.25	227.17
383.62	227.23
384.00	227.16
384.38	227.11
384.76	227.09
385.13	227.08
385.51	227.01
385.89	226.96
386.27	226.91
386.64	226.91
387.02	226.84
387.40	226.76
387.78	226.73
388.15	226.69
388.53	226.64
388.91	226.60
389.29	226.57
389.66	226.54
390.04	226.48
390.42	226.47
390.79	226.40
391.17	226.38
391.55	226.24
391.92	226.22
392.30	226.22
392.68	226.19
393.05	226.21
393.43	226.28
393.81	226.33
394.18	226.36
394.56	226.34
394.94	226.42
395.31	226.47
395.69	226.53
396.06	226.57
396.44	226.56
396.82	226.59
397.19	226.68
397.57	226.75
397.95	226.85
398.32	226.86
398.70	226.95
399.07	227.03
399.45	227.11
399.82	227.17
400.20	227.22
400.58	227.29
400.95	227.35
401.33	227.39
401.70	227.52
402.08	227.60
402.45	227.74
402.83	227.84
403.20	227.93
403.58	228.01
403.95	228.17
404.33	228.35
404.71	228.50
405.08	228.70
405.46	228.81
405.83	228.96
406.21	229.12
406.58	229.30
406.96	229.50
407.33	229.68
407.70	229.87
408.08	230.18
408.45	230.42
408.83	230.66
409.20	230.90
409.58	231.05
409.95	231.31
410.33	231.54
410.70	231.80
411.08	232.11
411.45	232.44
411.82	232.72
412.20	233.08
412.57	233.49
412.95	233.81
413.32	234.22
413.69	234.63
414.07	235.08
414.44	235.57
414.82	235.99
415.19	236.56
415.56	237.14
415.94	237.66
416.31	238.25
416.68	238.83
417.06	239.52
417.43	240.18
417.81	240.97
418.18	241.76
418.55	242.60
418.93	243.48
419.30	244.35
419.67	245.28
420.04	246.17
420.42	247.13
420.79	248.32
421.16	249.48
421.54	250.69
421.91	251.91
422.28	253.13
422.66	254.45
423.03	255.74
423.40	257.08
423.77	258.48
424.15	259.96
424.52	261.49
424.89	263.11
425.26	264.70
425.64	266.11
426.01	267.75
426.38	269.42
426.75	271.07
427.13	272.82
427.50	274.65
427.87	276.57
428.24	278.49
428.61	280.21
428.99	282.14
429.36	284.25
429.73	286.29
430.10	288.33
430.47	290.43
430.85	292.52
431.22	294.71
431.59	297.10
431.96	299.32
432.33	301.81
432.70	304.18
433.08	306.98
433.45	309.60
433.82	312.17
434.19	315.07
434.56	317.92
434.93	320.59
435.30	323.26
435.68	326.14
436.05	328.94
436.42	331.79
436.79	334.29
437.16	336.97
437.53	339.79
437.90	342.63
438.27	345.35
438.64	348.22
439.01	350.83
439.38	353.10
439.75	355.27
440.13	357.79
440.50	360.13
440.87	361.98
441.24	363.98
441.61	366.13
441.98	367.60
442.35	369.39
442.72	371.25
443.09	373.00
443.46	374.00
443.83	374.60
444.20	375.07
444.57	375.93
444.94	376.23
445.31	376.62
445.68	376.96
446.05	377.02
446.42	376.65
446.79	376.24
447.16	375.78
447.53	375.42
447.90	374.23
448.27	373.06
448.64	371.48
449.01	370.28
449.37	368.30
449.74	366.39
450.11	364.13
450.48	361.64
450.85	359.11
451.22	356.96
451.59	354.94
451.96	353.00
452.33	350.38
452.70	348.00
453.07	345.15
453.43	342.25
453.80	339.50
454.17	336.75
454.54	334.20
454.91	331.48
455.28	328.83
455.65	326.32
456.02	323.86
456.38	321.75
456.75	319.14
457.12	316.88
457.49	314.65
457.86	312.46
458.23	310.59
458.59	308.52
458.96	306.45
459.33	304.60
459.70	302.68
460.07	301.21
460.43	299.47
460.80	297.85
461.17	296.43
461.54	294.93
461.91	293.54
462.27	292.09
462.64	290.81
463.01	289.47
463.38	288.15
463.74	286.79
464.11	285.57
464.48	284.55
464.85	283.48
465.21	282.59
465.58	281.64
465.95	280.52
466.32	279.60
466.68	278.65
467.05	277.73
467.42	276.86
467.78	275.88
468.15	275.04
468.52	274.32
468.88	273.44
469.25	272.65
469.62	272.01
469.98	271.29
470.35	270.64
470.72	270.00
471.08	269.36
471.45	268.82
471.82	268.29
472.18	267.66
472.55	267.21
472.92	266.71
473.28	266.30
473.65	265.87
474.02	265.45
474.38	265.06
474.75	264.74
475.11	264.36
475.48	264.10
475.85	263.83
476.21	263.62
476.58	263.43
476.94	263.29
477.31	263.14
477.67	263.01
478.04	262.93
478.41	262.93
478.77	262.96
479.14	262.89
479.50	262.87
479.87	262.94
480.23	263.01
480.60	263.06
480.96	263.15
481.33	263.36
481.69	263.54
482.06	263.78
482.42	263.96
482.79	264.23
483.15	264.60
483.52	265.03
483.88	265.39
484.25	265.77
484.61	266.21
484.98	266.65
485.34	267.17
485.71	267.74
486.07	268.31
486.44	268.89
486.80	269.60
487.17	270.35
487.53	271.16
487.90	272.04
488.26	273.00
488.62	273.98
488.99	275.00
489.35	276.07
489.72	277.21
490.08	278.42
490.44	279.68
490.81	280.97
491.17	282.30
491.54	283.79
491.90	285.33
492.26	286.97
492.63	288.71
492.99	290.52
493.36	292.45
493.72	294.50
494.08	296.60
494.45	298.89
494.81	301.26
495.17	303.68
495.54	306.22
495.90	308.90
496.26	311.68
496.63	314.62
496.99	317.74
497.35	320.94
497.72	324.37
498.08	327.89
498.44	331.59
498.80	335.54
499.17	339.51
499.53	343.66
499.89	348.02
500.26	352.52
500.62	357.22
500.98	362.22
501.34	367.30
501.71	372.65
502.07	378.05
502.43	383.63
502.79	389.45
503.16	395.54
503.52	401.79
503.88	408.25
504.24	414.88
504.60	421.76
504.97	428.91
505.33	436.23
505.69	443.90
506.05	451.69
506.41	459.53
506.78	467.78
507.14	476.29
507.50	485.03
507.86	494.06
508.22	503.19
508.59	512.35
508.95	521.96
509.31	531.73
509.67	541.81
510.03	552.16
510.39	562.78
510.75	573.55
511.12	584.52
511.48	595.79
511.84	607.20
512.20	618.80
512.56	630.76
512.92	642.94
513.28	655.24
513.64	667.71
514.00	680.44
514.37	693.43
514.73	706.52
515.09	719.60
515.45	732.97
515.81	746.61
516.17	760.50
516.53	774.58
516.89	788.86
517.25	803.01
517.61	817.42
517.97	831.93
518.33	846.43
518.69	861.28
519.05	876.26
519.41	891.53
519.77	907.02
520.13	922.53
520.49	937.94
520.85	953.44
521.21	969.20
521.57	985.53
521.93	1001.24
522.29	1017.61
522.65	1033.86
523.01	1050.12
523.37	1066.26
523.73	1082.59
524.09	1098.81
524.45	1115.23
524.81	1131.98
525.17	1148.89
525.53	1165.86
525.89	1182.83
526.25	1199.69
526.61	1216.19
526.97	1232.98
527.33	1249.47
527.68	1266.17
528.04	1282.78
528.40	1299.40
528.76	1316.49
529.12	1333.10
529.48	1350.23
529.84	1366.41
530.20	1383.18
530.56	1400.30
530.91	1417.64
531.27	1434.44
531.63	1450.98
531.99	1467.45
532.35	1483.65
532.71	1499.63
533.07	1515.95
533.42	1531.79
533.78	1547.91
534.14	1564.20
534.50	1579.53
534.86	1595.50
535.21	1610.65
535.57	1626.53
535.93	1642.22
536.29	1657.13
536.65	1672.25
537.00	1686.97
537.36	1702.23
537.72	1716.75
538.08	1731.17
538.44	1745.14
538.79	1759.07
539.15	1772.81
539.51	1786.68
539.87	1800.98
540.22	1814.77
540.58	1828.47
540.94	1841.92
541.29	1854.90
541.65	1867.64
542.01	1881.06
542.37	1893.49
542.72	1906.11
543.08	1917.96
543.44	1930.27
543.79	1941.50
544.15	1952.54
544.51	1964.08
544.87	1975.02
545.22	1985.84
545.58	1996.13
545.94	2005.95
546.29	2015.80
546.65	2025.65
547.01	2034.99
547.36	2043.84
547.72	2052.44
548.07	2060.48
548.43	2068.65
548.79	2076.62
549.14	2084.26
549.50	2091.70
549.86	2099.39
550.21	2106.56
550.57	2113.87
550.92	2120.47
551.28	2127.66
551.64	2134.71
551.99	2141.37
552.35	2147.68
552.70	2153.75
553.06	2159.58
553.41	2165.87
553.77	2172.00
554.13	2178.05
554.48	2184.04
554.84	2189.19
555.19	2194.44
555.55	2199.31
555.90	2203.86
556.26	2208.87
556.61	2213.58
556.97	2217.68
557.32	2221.78
557.68	2225.97
558.03	2230.24
558.39	2233.99
558.74	2238.52
559.10	2242.45
559.45	2246.00
559.81	2250.22
560.16	2254.08
560.52	2257.36
560.87	2260.88
561.23	2263.51
561.58	2266.50
561.94	2269.15
562.29	2271.71
562.64	2274.29
563.00	2277.11
563.35	2280.55
563.71	2283.48
564.06	2286.73
564.42	2289.57
564.77	2292.09
565.12	2294.31
565.48	2296.13
565.83	2297.97
566.19	2299.25
566.54	2300.16
566.89	2301.41
567.25	2301.99
567.60	2303.38
567.96	2305.03
568.31	2305.73
568.66	2306.92
569.02	2307.38
569.37	2307.70
569.72	2308.63
570.08	2308.85
570.43	2308.79
570.78	2308.19
571.14	2306.82
571.49	2305.44
571.84	2305.10
572.20	2303.86
572.55	2302.85
572.90	2301.21
573.26	2299.75
573.61	2298.02
573.96	2296.15
574.31	2292.88
574.67	2289.83
575.02	2286.14
575.37	2282.55
575.72	2278.64
576.08	2275.17
576.43	2271.89
576.78	2268.14
577.13	2264.85
577.49	2261.63
577.84	2258.08
578.19	2254.18
578.54	2250.31
578.90	2246.07
579.25	2240.49
579.60	2235.49
579.95	2230.33
580.30	2225.27
580.66	2220.04
581.01	2214.94
581.36	2209.90
581.71	2205.67
582.06	2201.17
582.42	2196.53
582.77	2191.43
583.12	2186.74
583.47	2181.87
583.82	2176.69
584.17	2171.26
584.53	2165.59
584.88	2159.69
585.23	2153.74
585.58	2148.34
585.93	2142.89
586.28	2137.99
586.63	2132.84
586.98	2127.76
587.34	2122.99
587.69	2118.09
588.04	2112.88
588.39	2107.13
588.74	2100.58
589.09	2094.48
589.44	2087.62
589.79	2081.63
590.14	2075.93
590.49	2069.48
590.84	2063.14
591.19	2057.07
591.54	2050.55
591.89	2043.12
592.25	2036.37
592.60	2029.25
592.95	2021.50
593.30	2014.08
593.65	2006.22
594.00	1999.13
594.35	1991.79
594.70	1983.80
595.05	1976.47
595.40	1968.97
595.75	1961.55
596.10	1955.31
596.45	1948.49
596.80	1942.25
597.15	1935.50
597.50	1928.28
597.85	1921.76
598.19	1914.99
598.54	1907.81
598.89	1901.21
599.24	1895.40
599.59	1888.54
599.94	1882.39
600.29	1876.05
600.64	1869.26
600.99	1861.85
601.34	1854.84
601.69	1847.79
602.04	1840.65
602.39	1833.24
602.74	1826.50
603.08	1819.74
603.43	1813.00
603.78	1805.72
604.13	1798.47
604.48	1791.15
604.83	1784.34
605.18	1777.34
605.53	1769.30
605.87	1761.23
606.22	1753.95
606.57	1745.79
606.92	1738.55
607.27	1731.13
607.62	1724.17
607.96	1716.99
608.31	1710.48
608.66	1702.81
609.01	1695.26
609.36	1687.79
609.70	1679.77
610.05	1671.68
610.40	1663.88
610.75	1655.49
611.10	1647.84
611.44	1639.52
611.79	1631.68
612.14	1623.02
612.49	1613.89
612.83	1605.40
613.18	1597.29
613.53	1589.17
613.88	1580.73
614.22	1572.46
614.57	1563.98
614.92	1556.04
615.27	1548.41
615.61	1539.97
615.96	1532.04
616.31	1524.34
616.65	1516.88
617.00	1509.44
617.35	1501.87
617.70	1493.53
618.04	1485.05
618.39	1476.74
618.74	1469.06
619.08	1460.62
619.43	1452.96
619.78	1445.98
620.12	1438.88
620.47	1431.40
620.82	1423.14
621.16	1415.65
621.51	1408.10
621.85	1400.39
622.20	1391.72
622.55	1383.41
622.89	1375.59
623.24	1367.92
623.59	1360.62
623.93	1353.24
624.28	1345.83
624.62	1338.24
624.97	1331.02
625.32	1324.27
625.66	1317.27
626.01	1310.04
626.35	1302.62
626.70	1294.78
627.04	1286.97
627.39	1279.13
627.73	1271.73
628.08	1264.82
628.43	1257.57
628.77	1250.00
629.12	1242.35
629.46	1235.30
629.81	1227.88
630.15	1220.59
630.50	1213.28
630.84	1204.95
631.19	1197.05
631.53	1189.64
631.88	1182.07
632.22	1174.38
632.57	1167.05
632.91	1159.43
633.26	1152.05
633.60	1144.69
633.95	1137.75
634.29	1130.77
634.64	1124.09
634.98	1116.73
635.32	1109.64
635.67	1103.00
636.01	1096.54
636.36	1089.83
636.70	1083.27
637.05	1076.76
637.39	1070.33
637.73	1063.78
638.08	1057.98
638.42	1051.89
638.77	1045.37
639.11	1038.71
639.45	1032.43
639.80	1025.73
640.14	1019.29
640.49	1012.76
640.83	1006.49
641.17	1000.15
641.52	993.84
641.86	987.49
642.20	981.68
642.55	975.41
642.89	968.88
643.23	962.27
643.58	956.51
643.92	950.24
644.26	944.06
644.61	938.02
644.95	932.03
645.29	925.42
645.64	918.72
645.98	912.35
646.32	906.56
646.66	900.52
647.01	894.77
647.35	889.08
647.69	883.18
648.04	877.62
648.38	871.83
648.72	865.83
649.06	859.74
649.41	853.79
649.75	847.75
650.09	841.86
650.43	836.06
650.78	829.82
651.12	823.92
651.46	818.27
651.80	812.61
652.14	807.17
652.49	801.83
652.83	796.62
653.17	791.03
653.51	785.26
653.85	779.82
654.20	774.18
654.54	768.25
654.88	762.51
655.22	756.62
655.56	750.96
655.90	745.53
656.25	740.29
656.59	734.96
656.93	729.97
657.27	724.75
657.61	719.30
657.95	714.28
658.29	709.19
658.64	703.91
658.98	698.57
659.32	693.16
659.66	687.92
660.00	682.65
660.34	677.73
660.68	672.82
661.02	667.83
661.36	663.12
661.70	658.62
662.05	654.31
662.39	649.96
662.73	645.53
663.07	641.17
663.41	636.69
663.75	632.16
664.09	627.47
664.43	623.10
664.77	619.01
665.11	614.80
665.45	610.71
665.79	606.59
666.13	602.43
666.47	598.23
666.81	594.10
667.15	589.94
667.49	586.00
667.83	582.12
668.17	578.20
668.51	574.14
668.85	570.08
669.19	566.16
669.53	562.32
669.87	558.43
670.21	554.67
670.55	551.00
670.89	547.60
671.23	544.19
671.57	540.70
671.91	537.22
672.25	533.67
672.58	530.09
672.92	526.71
673.26	523.50
673.60	520.41
673.94	517.35
674.28	514.46
674.62	511.51
674.96	508.47
675.30	505.51
675.64	502.60
675.97	499.83
676.31	497.00
676.65	494.06
676.99	491.32
677.33	488.46
677.67	485.66
678.01	482.62
678.34	479.68
678.68	476.83
679.02	474.02
679.36	471.26
679.70	468.57
680.04	465.81
680.37	462.99
680.71	460.22
681.05	457.59
681.39	454.90
681.73	452.23
682.06	449.72
682.40	447.15
682.74	444.60
683.08	442.05
683.42	439.51
683.75	437.02
684.09	434.48
684.43	432.03
684.77	429.58
685.10	427.23
685.44	424.91
685.78	422.65
686.12	420.37
686.45	418.10
686.79	415.78
687.13	413.59
687.46	411.44
687.80	409.29
688.14	407.06
688.48	405.03
688.81	402.77
689.15	400.56
689.49	398.45
689.82	396.37
690.16	394.29
690.50	392.30
690.83	390.36
691.17	388.41
691.51	386.51
691.84	384.68
692.18	382.77
692.52	380.84
692.85	378.86
693.19	377.00
693.52	375.16
693.86	373.38
694.20	371.59
694.53	369.79
694.87	367.96
695.21	366.19
695.54	364.31
695.88	362.65
696.21	360.96
696.55	359.34
696.88	357.66
697.22	356.03
697.56	354.41
697.89	352.73
698.23	351.13
698.56	349.50
698.90	347.90
699.23	346.25
699.57	344.66
699.90	343.15
700.24	341.60
700.58	340.09
700.91	338.59
701.25	337.15
701.58	335.77
701.92	334.38
702.25	332.99
702.59	331.61
702.92	330.27
703.26	328.94
703.59	327.65
703.93	326.48
704.26	325.27
704.60	323.96
704.93	322.72
705.26	321.48
705.60	320.36
705.93	319.18
706.27	318.14
706.60	317.14
706.94	316.04
707.27	314.92
707.61	313.81
707.94	312.80
708.27	311.73
708.61	310.66
708.94	309.70
709.28	308.71
709.61	307.77
709.94	306.88
710.28	305.86
710.61	304.86
710.95	303.75
711.28	302.82
711.61	301.90
711.95	300.96
712.28	300.04
712.61	299.05
712.95	298.14
713.28	297.27
713.61	296.34
713.95	295.46
714.28	294.61
714.61	293.81
714.95	292.97
715.28	292.11
715.61	291.24
715.95	290.32
716.28	289.48
716.61	288.65
716.95	287.79
717.28	287.07
717.61	286.32
717.94	285.59
718.28	284.76
718.61	284.04
718.94	283.36
719.27	282.69
719.61	282.01
719.94	281.35
720.27	280.61
720.60	279.96
720.94	279.34
721.27	278.76
721.60	278.16
721.93	277.57
722.27	277.02
722.60	276.48
722.93	275.94
723.26	275.43
723.59	274.88
723.93	274.35
724.26	273.81
724.59	273.25
724.92	272.74
725.25	272.24
725.59	271.70
725.92	271.22
726.25	270.73
726.58	270.28
726.91	269.81
727.24	269.34
727.57	268.87
727.91	268.38
728.24	267.90
728.57	267.41
728.90	266.94
729.23	266.44
729.56	266.03
729.89	265.56
730.22	265.07
730.55	264.60
730.89	264.11
731.22	263.67
731.55	263.23
731.88	262.81
732.21	262.44
732.54	262.04
732.87	261.63
733.20	261.23
733.53	260.85
733.86	260.48
734.19	260.13
734.52	259.76
734.85	259.41
735.18	259.01
735.51	258.68
735.84	258.36
736.17	258.02
736.50	257.60
736.83	257.36
737.16	257.05
737.49	256.73
737.82	256.40
738.15	256.09
738.48	255.78
738.81	255.45
739.14	255.10
739.47	254.77
739.80	254.44
740.13	254.11
740.46	253.76
740.79	253.40
741.12	253.07
741.45	252.76
741.78	252.43
742.11	252.15
742.44	251.83
742.77	251.53
743.10	251.20
743.43	250.90
743.75	250.52
744.08	250.35
744.41	250.06
744.74	249.80
745.07	249.47
745.40	249.21
745.73	248.97
746.06	248.66
746.39	248.40
746.71	248.13
747.04	247.87
747.37	247.59
747.70	247.36
748.03	247.12
748.36	246.89
748.68	246.63
749.01	246.35
749.34	246.09
749.67	245.83
750.00	245.63
750.33	245.43
750.65	245.22
750.98	244.85
751.31	244.64
751.64	244.42
751.97	244.29
752.29	244.04
752.62	243.76
752.95	243.56
753.28	243.34
753.60	243.09
753.93	242.92
754.26	242.72
754.59	242.51
754.91	242.29
755.24	242.08
755.57	241.83
755.90	241.67
756.22	241.45
756.55	241.28
756.88	241.07
757.20	240.84
757.53	240.62
757.86	240.46
758.19	240.28
758.51	240.11
758.84	239.86
759.17	239.68
759.49	239.51
759.82	239.40
760.15	239.23
760.47	239.09
760.80	238.92
761.13	238.77
761.45	238.58
761.78	238.42
762.11	238.28
762.43	238.20
762.76	238.05
763.08	237.95
763.41	237.78
763.74	237.64
764.06	237.51
764.39	237.43
764.71	237.29
765.04	237.17
765.37	237.04
765.69	236.93
766.02	236.85
766.34	236.74
766.67	236.57
767.00	236.49
767.32	236.43
767.65	236.39
767.97	236.27
768.30	236.21
768.62	236.14
768.95	236.02
769.27	235.92
769.60	235.82
769.92	235.69
770.25	235.58
770.57	235.48
770.90	235.38
771.22	235.23
771.55	235.14
771.87	235.05
772.20	234.95
772.52	234.97
772.85	235.01
773.17	234.93
773.50	234.85
773.82	234.76
774.15	234.67
774.47	234.47
774.80	234.42
775.12	234.32
775.45	234.25
775.77	234.16
776.09	234.08
776.42	234.02
776.74	233.98
777.07	233.92
777.39	233.86
777.72	233.81
778.04	233.82
778.36	233.76
778.69	233.70
779.01	233.66
779.33	233.48
779.66	233.24
779.98	233.16
780.31	233.11
780.63	233.05
780.95	233.00
781.28	232.94
781.60	232.87
781.92	232.81
782.25	232.70
782.57	232.65
782.89	232.56
783.22	232.49
783.54	232.42
783.86	232.32
784.19	232.28
784.51	232.22
784.83	232.11
785.16	232.02
785.48	231.94
785.80	231.87
786.12	231.83
786.45	231.82
786.77	231.82
787.09	231.75
