SpectraSuite Data File
++++++++++++++++++++++++++++++++++++
Date: Fri Feb 01 17:44:07 EST 2013
User: group
Dark Spectrum Present: No
Reference Spectrum Present: No
Number of Sampled Component Spectra: 1
Spectrometers: USB2E7196
Integration Time (usec): 35000 (USB2E7196)
Spectra Averaged: 100 (USB2E7196)
Boxcar Smoothing: 10 (USB2E7196)
Correct for Electrical Dark: No (USB2E7196)
Strobe/Lamp Enabled: No (USB2E7196)
Correct for Detector Non-linearity: No (USB2E7196)
Correct for Stray Light: No (USB2E7196)
Number of Pixels in Processed Spectrum: 2048
>>>>>Begin Processed Spectral Data<<<<<
339.09	0.00
339.48	212.04
339.86	213.32
340.24	215.19
340.63	216.60
341.01	219.17
341.39	218.93
341.78	220.74
342.16	221.59
342.54	222.37
342.93	210.63
343.31	221.28
343.69	221.82
344.07	222.31
344.46	222.72
344.84	223.09
345.22	223.35
345.60	223.63
345.99	223.81
346.37	223.94
346.75	224.05
347.13	224.12
347.52	224.16
347.90	224.25
348.28	224.32
348.66	224.38
349.05	224.43
349.43	224.48
349.81	224.53
350.19	224.61
350.57	224.70
350.96	224.79
351.34	224.91
351.72	225.04
352.10	225.14
352.48	225.25
352.87	225.34
353.25	225.41
353.63	225.47
354.01	225.56
354.39	225.68
354.77	225.76
355.15	225.84
355.54	225.92
355.92	225.95
356.30	226.05
356.68	226.22
357.06	226.28
357.44	226.36
357.82	226.47
358.20	226.52
358.58	226.57
358.97	226.66
359.35	226.74
359.73	226.83
360.11	226.90
360.49	226.95
360.87	227.03
361.25	227.13
361.63	227.21
362.01	227.26
362.39	227.27
362.77	227.33
363.15	227.37
363.53	227.43
363.91	227.51
364.29	227.53
364.67	227.45
365.05	227.47
365.43	227.50
365.81	227.54
366.19	227.60
366.57	227.65
366.95	227.66
367.33	227.61
367.71	227.60
368.09	227.57
368.47	227.55
368.85	227.53
369.23	227.48
369.61	227.44
369.99	227.46
370.37	227.44
370.75	227.48
371.13	227.43
371.51	227.36
371.89	227.28
372.27	227.23
372.65	227.20
373.03	227.17
373.41	227.11
373.78	227.05
374.16	226.97
374.54	226.91
374.92	226.81
375.30	226.78
375.68	226.69
376.06	226.66
376.44	226.61
376.82	226.55
377.19	226.51
377.57	226.43
377.95	226.28
378.33	226.21
378.71	226.07
379.09	226.01
379.47	225.95
379.84	225.87
380.22	225.80
380.60	225.70
380.98	225.61
381.36	225.48
381.73	225.41
382.11	225.36
382.49	225.27
382.87	225.22
383.25	225.10
383.62	225.13
384.00	225.06
384.38	225.01
384.76	224.94
385.13	224.87
385.51	224.79
385.89	224.75
386.27	224.71
386.64	224.66
387.02	224.58
387.40	224.48
387.78	224.47
388.15	224.46
388.53	224.43
388.91	224.41
389.29	224.40
389.66	224.37
390.04	224.31
390.42	224.34
390.79	224.27
391.17	224.31
391.55	224.19
391.92	224.19
392.30	224.18
392.68	224.18
393.05	224.22
393.43	224.24
393.81	224.26
394.18	224.22
394.56	224.27
394.94	224.33
395.31	224.39
395.69	224.44
396.06	224.45
396.44	224.45
396.82	224.45
397.19	224.56
397.57	224.58
397.95	224.64
398.32	224.64
398.70	224.74
399.07	224.78
399.45	224.85
399.82	224.90
400.20	224.96
400.58	225.00
400.95	225.01
401.33	225.11
401.70	225.25
402.08	225.38
402.45	225.45
402.83	225.57
403.20	225.69
403.58	225.80
403.95	225.95
404.33	226.11
404.71	226.25
405.08	226.42
405.46	226.58
405.83	226.74
406.21	226.88
406.58	227.11
406.96	227.30
407.33	227.51
407.70	227.73
408.08	228.03
408.45	228.28
408.83	228.58
409.20	228.81
409.58	229.05
409.95	229.37
410.33	229.67
410.70	229.94
411.08	230.27
411.45	230.63
411.82	230.96
412.20	231.38
412.57	231.90
412.95	232.27
413.32	232.76
413.69	233.25
414.07	233.81
414.44	234.33
414.82	234.93
415.19	235.56
415.56	236.24
415.94	236.92
416.31	237.68
416.68	238.42
417.06	239.32
417.43	240.15
417.81	241.07
418.18	242.02
418.55	243.07
418.93	244.14
419.30	245.21
419.67	246.36
420.04	247.50
420.42	248.70
420.79	250.10
421.16	251.51
421.54	252.99
421.91	254.43
422.28	255.99
422.66	257.60
423.03	259.22
423.40	260.80
423.77	262.50
424.15	264.27
424.52	266.10
424.89	268.08
425.26	269.95
425.64	271.73
426.01	273.69
426.38	275.69
426.75	277.78
427.13	279.89
427.50	282.15
427.87	284.48
428.24	286.79
428.61	289.01
428.99	291.35
429.36	293.92
429.73	296.45
430.10	298.92
430.47	301.46
430.85	304.05
431.22	306.83
431.59	309.74
431.96	312.50
432.33	315.58
432.70	318.43
433.08	321.87
433.45	325.10
433.82	328.30
434.19	331.86
434.56	335.28
434.93	338.52
435.30	341.70
435.68	345.21
436.05	348.66
436.42	352.07
436.79	355.15
437.16	358.42
437.53	361.96
437.90	365.42
438.27	368.78
438.64	372.26
439.01	375.42
439.38	378.19
439.75	380.86
440.13	383.89
440.50	386.85
440.87	389.15
441.24	391.52
441.61	394.19
441.98	396.00
442.35	398.19
442.72	400.52
443.09	402.77
443.46	404.01
443.83	404.77
444.20	405.39
444.57	406.48
444.94	406.89
445.31	407.30
445.68	407.72
446.05	407.84
446.42	407.40
446.79	406.92
447.16	406.43
447.53	406.03
447.90	404.65
448.27	403.19
448.64	401.27
449.01	399.91
449.37	397.52
449.74	395.25
450.11	392.50
450.48	389.51
450.85	386.40
451.22	383.79
451.59	381.29
451.96	378.94
452.33	375.76
452.70	372.87
453.07	369.41
453.43	365.90
453.80	362.53
454.17	359.23
454.54	356.10
454.91	352.72
455.28	349.49
455.65	346.46
456.02	343.37
456.38	340.74
456.75	337.45
457.12	334.65
457.49	331.91
457.86	329.27
458.23	326.99
458.59	324.49
458.96	321.92
459.33	319.63
459.70	317.30
460.07	315.39
460.43	313.27
460.80	311.25
461.17	309.43
461.54	307.52
461.91	305.79
462.27	304.02
462.64	302.47
463.01	300.74
463.38	299.07
463.74	297.46
464.11	296.00
464.48	294.71
464.85	293.37
465.21	292.28
465.58	291.17
465.95	289.78
466.32	288.64
466.68	287.55
467.05	286.43
467.42	285.34
467.78	284.20
468.15	283.10
468.52	282.25
468.88	281.19
469.25	280.26
469.62	279.49
469.98	278.66
470.35	277.87
470.72	277.14
471.08	276.36
471.45	275.67
471.82	274.95
472.18	274.25
472.55	273.68
472.92	273.03
473.28	272.42
473.65	271.85
474.02	271.32
474.38	270.80
474.75	270.40
475.11	269.95
475.48	269.63
475.85	269.34
476.21	269.04
476.58	268.82
476.94	268.58
477.31	268.31
477.67	268.07
478.04	267.85
478.41	267.73
478.77	267.73
479.14	267.60
479.50	267.62
479.87	267.67
480.23	267.72
480.60	267.77
480.96	267.79
481.33	267.97
481.69	268.15
482.06	268.34
482.42	268.50
482.79	268.75
483.15	269.04
483.52	269.40
483.88	269.74
484.25	270.08
484.61	270.50
484.98	270.92
485.34	271.50
485.71	272.13
486.07	272.74
486.44	273.28
486.80	274.00
487.17	274.71
487.53	275.49
487.90	276.32
488.26	277.27
488.62	278.27
488.99	279.25
489.35	280.29
489.72	281.44
490.08	282.67
490.44	283.94
490.81	285.31
491.17	286.69
491.54	288.20
491.90	289.76
492.26	291.43
492.63	293.26
492.99	295.06
493.36	296.97
493.72	299.08
494.08	301.24
494.45	303.55
494.81	305.99
495.17	308.50
495.54	311.13
495.90	313.84
496.26	316.74
496.63	319.81
496.99	323.06
497.35	326.40
497.72	329.89
498.08	333.53
498.44	337.32
498.80	341.35
499.17	345.51
499.53	349.85
499.89	354.40
500.26	359.01
500.62	363.83
500.98	368.98
501.34	374.18
501.71	379.67
502.07	385.29
502.43	391.08
502.79	397.08
503.16	403.38
503.52	409.86
503.88	416.42
504.24	423.27
504.60	430.26
504.97	437.66
505.33	445.22
505.69	453.16
506.05	461.18
506.41	469.28
506.78	477.69
507.14	486.39
507.50	495.29
507.86	504.65
508.22	514.16
508.59	523.67
508.95	533.57
509.31	543.74
509.67	554.15
510.03	564.82
510.39	575.80
510.75	586.97
511.12	598.27
511.48	609.93
511.84	621.83
512.20	633.82
512.56	646.14
512.92	658.76
513.28	671.66
513.64	684.60
514.00	697.86
514.37	711.32
514.73	724.99
515.09	738.61
515.45	752.37
515.81	766.46
516.17	780.94
516.53	795.67
516.89	810.47
517.25	825.14
517.61	840.14
517.97	855.09
518.33	870.11
518.69	885.56
519.05	901.22
519.41	916.99
519.77	933.11
520.13	949.28
520.49	965.39
520.85	981.37
521.21	997.67
521.57	1014.61
521.93	1031.06
522.29	1048.00
522.65	1065.06
523.01	1082.02
523.37	1098.98
523.73	1116.08
524.09	1132.94
524.45	1150.04
524.81	1167.63
525.17	1185.27
525.53	1203.11
525.89	1220.95
526.25	1238.72
526.61	1256.09
526.97	1273.86
527.33	1291.32
527.68	1308.84
528.04	1326.36
528.40	1343.88
528.76	1362.06
529.12	1379.60
529.48	1397.60
529.84	1414.76
530.20	1432.41
530.56	1450.49
530.91	1468.90
531.27	1486.80
531.63	1504.32
531.99	1522.01
532.35	1539.14
532.71	1556.26
533.07	1573.60
533.42	1590.68
533.78	1608.00
534.14	1625.32
534.50	1641.72
534.86	1658.82
535.21	1675.18
535.57	1692.14
535.93	1708.86
536.29	1724.88
536.65	1741.20
537.00	1757.04
537.36	1773.63
537.72	1789.46
538.08	1805.14
538.44	1820.10
538.79	1835.26
539.15	1850.26
539.51	1865.28
539.87	1880.90
540.22	1895.84
540.58	1911.06
540.94	1925.51
541.29	1939.51
541.65	1953.60
542.01	1968.32
542.37	1982.08
542.72	1995.90
543.08	2009.19
543.44	2023.12
543.79	2035.84
544.15	2048.11
544.51	2061.15
544.87	2073.46
545.22	2085.61
545.58	2097.22
545.94	2108.50
546.29	2119.83
546.65	2131.09
547.01	2141.88
547.36	2152.13
547.72	2161.91
548.07	2171.21
548.43	2180.80
548.79	2190.05
549.14	2199.18
549.50	2207.65
549.86	2216.55
550.21	2225.25
550.57	2233.76
550.92	2241.59
551.28	2249.88
551.64	2258.46
551.99	2266.13
552.35	2273.53
552.70	2280.88
553.06	2288.25
553.41	2295.96
553.77	2303.13
554.13	2310.46
554.48	2317.63
554.84	2324.48
555.19	2330.93
555.55	2337.32
555.90	2343.08
556.26	2349.44
556.61	2355.16
556.97	2360.90
557.32	2366.25
557.68	2371.46
558.03	2376.72
558.39	2381.49
558.74	2387.13
559.10	2392.06
559.45	2396.94
559.81	2402.35
560.16	2407.28
560.52	2411.65
560.87	2415.98
561.23	2419.40
561.58	2423.12
561.94	2426.65
562.29	2429.64
562.64	2433.58
563.00	2437.02
563.35	2441.51
563.71	2445.53
564.06	2449.52
564.42	2453.30
564.77	2456.89
565.12	2460.32
565.48	2463.27
565.83	2466.06
566.19	2468.49
566.54	2470.08
566.89	2472.10
567.25	2473.51
567.60	2475.60
567.96	2478.13
568.31	2479.77
568.66	2481.75
569.02	2483.27
569.37	2484.31
569.72	2485.99
570.08	2486.78
570.43	2487.30
570.78	2487.31
571.14	2486.34
571.49	2485.45
571.84	2485.50
572.20	2484.70
572.55	2483.97
572.90	2482.61
573.26	2481.81
573.61	2480.17
573.96	2479.01
574.31	2476.49
574.67	2473.82
575.02	2470.37
575.37	2466.99
575.72	2463.31
576.08	2460.13
576.43	2456.80
576.78	2453.43
577.13	2450.32
577.49	2447.16
577.84	2443.98
578.19	2440.28
578.54	2436.73
578.90	2432.85
579.25	2427.26
579.60	2422.54
579.95	2417.49
580.30	2412.57
580.66	2407.17
581.01	2402.30
581.36	2397.17
581.71	2393.04
582.06	2388.66
582.42	2384.30
582.77	2379.07
583.12	2374.43
583.47	2369.77
583.82	2364.94
584.17	2359.52
584.53	2353.99
584.88	2348.34
585.23	2342.47
585.58	2336.88
585.93	2331.22
586.28	2326.10
586.63	2321.04
586.98	2315.61
587.34	2310.67
587.69	2305.46
588.04	2300.24
588.39	2294.37
588.74	2287.50
589.09	2280.88
589.44	2273.62
589.79	2267.01
590.14	2260.77
590.49	2253.89
590.84	2246.88
591.19	2240.39
591.54	2233.57
591.89	2225.77
592.25	2218.63
592.60	2210.83
592.95	2202.88
593.30	2194.93
593.65	2186.87
594.00	2179.04
594.35	2171.26
594.70	2162.52
595.05	2155.09
595.40	2146.97
595.75	2138.87
596.10	2132.33
596.45	2125.16
596.80	2118.46
597.15	2111.43
597.50	2104.25
597.85	2097.24
598.19	2090.20
598.54	2082.83
598.89	2075.61
599.24	2069.16
599.59	2062.14
599.94	2055.20
600.29	2048.16
600.64	2040.92
600.99	2032.88
601.34	2025.63
601.69	2017.85
602.04	2010.58
602.39	2002.42
602.74	1994.91
603.08	1987.56
603.43	1980.11
603.78	1972.05
604.13	1964.22
604.48	1956.42
604.83	1948.70
605.18	1941.26
605.53	1932.62
605.87	1923.58
606.22	1915.54
606.57	1906.75
606.92	1898.24
607.27	1890.57
607.62	1882.96
607.96	1875.12
608.31	1867.97
608.66	1859.59
609.01	1851.39
609.36	1843.03
609.70	1834.23
610.05	1825.56
610.40	1817.10
610.75	1808.00
611.10	1799.48
611.44	1790.00
611.79	1780.87
612.14	1771.41
612.49	1761.14
612.83	1751.81
613.18	1742.78
613.53	1733.79
613.88	1724.38
614.22	1715.15
614.57	1705.40
614.92	1696.52
615.27	1688.33
615.61	1679.08
615.96	1670.12
616.31	1661.50
616.65	1653.29
617.00	1644.94
617.35	1636.26
617.70	1627.01
618.04	1617.51
618.39	1608.34
618.74	1600.05
619.08	1590.97
619.43	1582.49
619.78	1574.68
620.12	1566.81
620.47	1558.40
620.82	1549.19
621.16	1540.68
621.51	1532.21
621.85	1523.69
622.20	1514.26
622.55	1504.76
622.89	1495.96
623.24	1487.30
623.59	1478.97
623.93	1470.55
624.28	1462.38
624.62	1454.10
624.97	1446.02
625.32	1438.37
625.66	1430.53
626.01	1422.63
626.35	1414.64
626.70	1405.86
627.04	1397.38
627.39	1388.56
627.73	1380.31
628.08	1372.74
628.43	1364.85
628.77	1356.83
629.12	1348.60
629.46	1340.56
629.81	1332.05
630.15	1323.91
630.50	1315.86
630.84	1306.83
631.19	1297.93
631.53	1289.47
631.88	1280.93
632.22	1272.43
632.57	1264.28
632.91	1255.79
633.26	1247.47
633.60	1239.02
633.95	1231.00
634.29	1222.97
634.64	1215.46
634.98	1207.24
635.32	1199.24
635.67	1191.84
636.01	1184.29
636.36	1176.66
636.70	1169.25
637.05	1162.11
637.39	1154.93
637.73	1147.69
638.08	1141.21
638.42	1134.59
638.77	1127.43
639.11	1120.29
639.45	1113.20
639.80	1105.87
640.14	1098.89
640.49	1091.65
640.83	1084.63
641.17	1077.87
641.52	1071.12
641.86	1063.95
642.20	1057.53
642.55	1050.46
642.89	1043.41
643.23	1036.21
643.58	1029.86
643.92	1023.12
644.26	1016.52
644.61	1009.83
644.95	1003.25
645.29	996.05
645.64	988.66
645.98	981.66
646.32	974.96
646.66	968.48
647.01	962.11
647.35	955.82
647.69	949.31
648.04	943.21
648.38	936.86
648.72	930.22
649.06	923.63
649.41	917.10
649.75	910.66
650.09	904.04
650.43	897.61
650.78	890.81
651.12	884.27
651.46	877.92
651.80	871.69
652.14	865.54
652.49	859.62
652.83	853.90
653.17	847.75
653.51	841.64
653.85	835.50
654.20	829.31
654.54	822.65
654.88	816.32
655.22	809.78
655.56	803.39
655.90	797.27
656.25	791.43
656.59	785.60
656.93	779.93
657.27	774.23
657.61	768.26
657.95	762.61
658.29	756.99
658.64	751.15
658.98	745.11
659.32	739.17
659.66	733.42
660.00	727.59
660.34	722.09
660.68	716.69
661.02	711.16
661.36	706.03
661.70	701.15
662.05	696.39
662.39	691.69
662.73	686.85
663.07	682.01
663.41	677.13
663.75	672.21
664.09	667.18
664.43	662.31
664.77	657.86
665.11	653.30
665.45	648.74
665.79	644.33
666.13	639.94
666.47	635.41
666.81	630.88
667.15	626.31
667.49	622.06
667.83	617.72
668.17	613.45
668.51	608.95
668.85	604.49
669.19	600.20
669.53	595.92
669.87	591.72
670.21	587.70
670.55	583.67
670.89	579.89
671.23	576.14
671.57	572.28
671.91	568.40
672.25	564.46
672.58	560.67
672.92	556.87
673.26	553.32
673.60	549.86
673.94	546.47
674.28	543.26
674.62	540.02
674.96	536.70
675.30	533.51
675.64	530.35
675.97	527.28
676.31	524.11
676.65	520.94
676.99	517.91
677.33	514.70
677.67	511.63
678.01	508.31
678.34	505.10
678.68	501.98
679.02	498.88
679.36	495.88
679.70	492.83
680.04	489.82
680.37	486.75
680.71	483.72
681.05	480.79
681.39	477.81
681.73	474.93
682.06	472.12
682.40	469.34
682.74	466.50
683.08	463.67
683.42	460.84
683.75	458.12
684.09	455.30
684.43	452.61
684.77	449.91
685.10	447.29
685.44	444.64
685.78	442.15
686.12	439.65
686.45	437.10
686.79	434.60
687.13	432.19
687.46	429.73
687.80	427.34
688.14	424.84
688.48	422.58
688.81	420.16
689.15	417.77
689.49	415.33
689.82	412.98
690.16	410.67
690.50	408.51
690.83	406.36
691.17	404.15
691.51	402.04
691.84	400.00
692.18	397.89
692.52	395.78
692.85	393.55
693.19	391.46
693.52	389.40
693.86	387.35
694.20	385.36
694.53	383.44
694.87	381.38
695.21	379.41
695.54	377.33
695.88	375.33
696.21	373.45
696.55	371.60
696.88	369.75
697.22	367.90
697.56	366.08
697.89	364.24
698.23	362.49
698.56	360.72
698.90	359.02
699.23	357.22
699.57	355.53
699.90	353.85
700.24	352.13
700.58	350.51
700.91	348.87
701.25	347.24
701.58	345.68
701.92	344.16
702.25	342.69
702.59	341.23
702.92	339.83
703.26	338.41
703.59	337.01
703.93	335.69
704.26	334.34
704.60	332.92
704.93	331.55
705.26	330.19
705.60	328.91
705.93	327.60
706.27	326.41
706.60	325.23
706.94	324.00
707.27	322.77
707.61	321.52
707.94	320.37
708.27	319.17
708.61	317.98
708.94	316.84
709.28	315.69
709.61	314.58
709.94	313.51
710.28	312.33
710.61	311.21
710.95	310.04
711.28	309.02
711.61	307.98
711.95	306.98
712.28	305.94
712.61	304.83
712.95	303.80
713.28	302.82
713.61	301.76
713.95	300.81
714.28	299.90
714.61	298.97
714.95	298.04
715.28	297.17
715.61	296.20
715.95	295.26
716.28	294.33
716.61	293.43
716.95	292.46
717.28	291.66
717.61	290.81
717.94	289.98
718.28	289.08
718.61	288.28
718.94	287.46
719.27	286.71
719.61	285.98
719.94	285.23
720.27	284.44
720.60	283.74
720.94	283.06
721.27	282.37
721.60	281.75
721.93	281.08
722.27	280.41
722.60	279.84
722.93	279.22
723.26	278.64
723.59	278.02
723.93	277.45
724.26	276.78
724.59	276.16
724.92	275.61
725.25	275.05
725.59	274.47
725.92	273.88
726.25	273.33
726.58	272.77
726.91	272.23
727.24	271.69
727.57	271.14
727.91	270.56
728.24	270.06
728.57	269.46
728.90	268.96
729.23	268.41
729.56	267.89
729.89	267.39
730.22	266.81
730.55	266.28
730.89	265.79
731.22	265.31
731.55	264.80
731.88	264.29
732.21	263.80
732.54	263.29
732.87	262.83
733.20	262.39
733.53	261.95
733.86	261.52
734.19	261.08
734.52	260.68
734.85	260.33
735.18	259.82
735.51	259.45
735.84	259.00
736.17	258.65
736.50	258.21
736.83	257.90
737.16	257.53
737.49	257.16
737.82	256.75
738.15	256.38
738.48	256.04
738.81	255.71
739.14	255.35
739.47	255.00
739.80	254.65
740.13	254.30
740.46	253.92
740.79	253.54
741.12	253.20
741.45	252.83
741.78	252.44
742.11	252.14
742.44	251.75
742.77	251.45
743.10	251.09
743.43	250.74
743.75	250.38
744.08	250.21
744.41	249.93
744.74	249.62
745.07	249.33
745.40	249.09
745.73	248.82
746.06	248.56
746.39	248.26
746.71	247.96
747.04	247.62
747.37	247.35
747.70	247.10
748.03	246.81
748.36	246.58
748.68	246.34
749.01	246.09
749.34	245.86
749.67	245.63
750.00	245.38
750.33	245.20
750.65	244.92
750.98	244.54
751.31	244.28
751.64	244.03
751.97	243.87
752.29	243.56
752.62	243.30
752.95	243.06
753.28	242.83
753.60	242.58
753.93	242.38
754.26	242.15
754.59	241.90
754.91	241.69
755.24	241.44
755.57	241.23
755.90	241.01
756.22	240.79
756.55	240.51
756.88	240.31
757.20	240.04
757.53	239.82
757.86	239.68
758.19	239.51
758.51	239.33
758.84	239.06
759.17	238.89
759.49	238.70
759.82	238.55
760.15	238.40
760.47	238.27
760.80	238.09
761.13	237.96
761.45	237.80
761.78	237.62
762.11	237.48
762.43	237.30
762.76	237.13
763.08	237.00
763.41	236.91
763.74	236.71
764.06	236.56
764.39	236.42
764.71	236.23
765.04	236.10
765.37	235.96
765.69	235.79
766.02	235.65
766.34	235.49
766.67	235.32
767.00	235.18
767.32	235.12
767.65	235.07
767.97	234.89
768.30	234.79
768.62	234.68
768.95	234.54
769.27	234.44
769.60	234.31
769.92	234.17
770.25	234.03
770.57	233.91
770.90	233.81
771.22	233.71
771.55	233.59
771.87	233.44
772.20	233.32
772.52	233.33
772.85	233.32
773.17	233.21
773.50	233.10
773.82	233.02
774.15	232.86
774.47	232.70
774.80	232.63
775.12	232.50
775.45	232.39
775.77	232.29
776.09	232.17
776.42	232.08
776.74	232.03
777.07	231.94
777.39	231.86
777.72	231.74
778.04	231.66
778.36	231.60
778.69	231.52
779.01	231.50
779.33	231.36
779.66	231.22
779.98	231.18
780.31	231.12
780.63	231.04
780.95	230.98
781.28	230.91
781.60	230.83
781.92	230.77
782.25	230.72
782.57	230.65
782.89	230.62
783.22	230.55
783.54	230.44
783.86	230.41
784.19	230.39
784.51	230.37
784.83	230.31
785.16	230.20
785.48	230.21
785.80	230.14
786.12	230.07
786.45	230.00
786.77	229.94
