SpectraSuite Data File
++++++++++++++++++++++++++++++++++++
Date: Fri Feb 01 16:11:52 EST 2013
User: group
Dark Spectrum Present: No
Reference Spectrum Present: No
Number of Sampled Component Spectra: 1
Spectrometers: USB2E7196
Integration Time (usec): 35000 (USB2E7196)
Spectra Averaged: 100 (USB2E7196)
Boxcar Smoothing: 10 (USB2E7196)
Correct for Electrical Dark: No (USB2E7196)
Strobe/Lamp Enabled: No (USB2E7196)
Correct for Detector Non-linearity: No (USB2E7196)
Correct for Stray Light: No (USB2E7196)
Number of Pixels in Processed Spectrum: 2048
>>>>>Begin Processed Spectral Data<<<<<
339.09	0.00
339.48	214.61
339.86	215.84
340.24	216.95
340.63	218.19
341.01	221.99
341.39	221.04
341.78	222.99
342.16	224.25
342.54	224.19
342.93	212.74
343.31	223.49
343.69	223.99
344.07	224.46
344.46	224.91
344.84	225.28
345.22	225.49
345.60	225.75
345.99	225.93
346.37	226.03
346.75	226.14
347.13	226.18
347.52	226.20
347.90	226.21
348.28	226.26
348.66	226.31
349.05	226.27
349.43	226.30
349.81	226.36
350.19	226.42
350.57	226.47
350.96	226.57
351.34	226.64
351.72	226.73
352.10	226.81
352.48	226.87
352.87	226.96
353.25	227.01
353.63	227.07
354.01	227.13
354.39	227.18
354.77	227.26
355.15	227.43
355.54	227.49
355.92	227.56
356.30	227.61
356.68	227.73
357.06	227.82
357.44	227.91
357.82	227.96
358.20	228.04
358.58	228.14
358.97	228.20
359.35	228.27
359.73	228.40
360.11	228.48
360.49	228.55
360.87	228.60
361.25	228.66
361.63	228.71
362.01	228.78
362.39	228.85
362.77	228.88
363.15	228.88
363.53	228.94
363.91	228.99
364.29	229.02
364.67	228.95
365.05	228.99
365.43	229.01
365.81	229.05
366.19	229.10
366.57	229.11
366.95	229.07
367.33	229.07
367.71	229.01
368.09	229.00
368.47	228.98
368.85	228.98
369.23	228.99
369.61	228.99
369.99	228.94
370.37	228.92
370.75	228.93
371.13	228.85
371.51	228.78
371.89	228.72
372.27	228.68
372.65	228.63
373.03	228.59
373.41	228.53
373.78	228.44
374.16	228.32
374.54	228.20
374.92	228.14
375.30	228.08
375.68	228.03
376.06	227.96
376.44	227.87
376.82	227.78
377.19	227.69
377.57	227.62
377.95	227.55
378.33	227.47
378.71	227.35
379.09	227.33
379.47	227.29
379.84	227.24
380.22	227.17
380.60	227.10
380.98	227.01
381.36	226.91
381.73	226.84
382.11	226.82
382.49	226.79
382.87	226.75
383.25	226.70
383.62	226.75
384.00	226.66
384.38	226.62
384.76	226.58
385.13	226.56
385.51	226.50
385.89	226.46
386.27	226.40
386.64	226.36
387.02	226.27
387.40	226.22
387.78	226.14
388.15	226.09
388.53	226.07
388.91	226.02
389.29	226.02
389.66	226.04
390.04	225.98
390.42	225.95
390.79	225.96
391.17	225.93
391.55	225.77
391.92	225.79
392.30	225.78
392.68	225.75
393.05	225.74
393.43	225.73
393.81	225.75
394.18	225.76
394.56	225.77
394.94	225.84
395.31	225.85
395.69	225.93
396.06	225.99
396.44	226.00
396.82	226.02
397.19	226.10
397.57	226.11
397.95	226.17
398.32	226.21
398.70	226.22
399.07	226.30
399.45	226.37
399.82	226.42
400.20	226.48
400.58	226.55
400.95	226.61
401.33	226.73
401.70	226.86
402.08	226.94
402.45	227.02
402.83	227.14
403.20	227.24
403.58	227.32
403.95	227.42
404.33	227.53
404.71	227.70
405.08	227.87
405.46	228.03
405.83	228.17
406.21	228.31
406.58	228.50
406.96	228.66
407.33	228.89
407.70	229.08
408.08	229.38
408.45	229.60
408.83	229.82
409.20	230.04
409.58	230.23
409.95	230.47
410.33	230.77
410.70	230.98
411.08	231.29
411.45	231.60
411.82	231.92
412.20	232.28
412.57	232.66
412.95	232.93
413.32	233.33
413.69	233.75
414.07	234.19
414.44	234.67
414.82	235.14
415.19	235.64
415.56	236.18
415.94	236.73
416.31	237.39
416.68	238.03
417.06	238.73
417.43	239.43
417.81	240.22
418.18	241.01
418.55	241.86
418.93	242.72
419.30	243.67
419.67	244.61
420.04	245.59
420.42	246.61
420.79	247.79
421.16	248.93
421.54	250.09
421.91	251.31
422.28	252.55
422.66	253.88
423.03	255.19
423.40	256.52
423.77	257.90
424.15	259.32
424.52	260.78
424.89	262.37
425.26	263.90
425.64	265.36
426.01	266.93
426.38	268.60
426.75	270.27
427.13	271.93
427.50	273.68
427.87	275.51
428.24	277.33
428.61	279.09
428.99	281.03
429.36	283.11
429.73	285.13
430.10	287.14
430.47	289.20
430.85	291.33
431.22	293.53
431.59	295.91
431.96	298.12
432.33	300.63
432.70	302.97
433.08	305.74
433.45	308.31
433.82	310.89
434.19	313.79
434.56	316.60
434.93	319.26
435.30	321.88
435.68	324.81
436.05	327.63
436.42	330.45
436.79	332.94
437.16	335.60
437.53	338.43
437.90	341.22
438.27	343.90
438.64	346.71
439.01	349.28
439.38	351.51
439.75	353.66
440.13	356.07
440.50	358.38
440.87	360.25
441.24	362.19
441.61	364.34
441.98	365.80
442.35	367.55
442.72	369.42
443.09	371.26
443.46	372.22
443.83	372.82
444.20	373.28
444.57	374.10
444.94	374.42
445.31	374.77
445.68	375.16
446.05	375.24
446.42	374.86
446.79	374.49
447.16	374.05
447.53	373.74
447.90	372.57
448.27	371.42
448.64	369.83
449.01	368.72
449.37	366.77
449.74	364.86
450.11	362.66
450.48	360.15
450.85	357.62
451.22	355.52
451.59	353.49
451.96	351.57
452.33	348.99
452.70	346.66
453.07	343.81
453.43	340.87
453.80	338.18
454.17	335.50
454.54	332.94
454.91	330.23
455.28	327.59
455.65	325.18
456.02	322.79
456.38	320.66
456.75	317.99
457.12	315.74
457.49	313.51
457.86	311.37
458.23	309.53
458.59	307.48
458.96	305.39
459.33	303.57
459.70	301.67
460.07	300.19
460.43	298.52
460.80	296.95
461.17	295.53
461.54	294.04
461.91	292.59
462.27	291.20
462.64	289.95
463.01	288.59
463.38	287.27
463.74	285.93
464.11	284.76
464.48	283.76
464.85	282.70
465.21	281.88
465.58	280.93
465.95	279.86
466.32	278.99
466.68	278.11
467.05	277.22
467.42	276.38
467.78	275.46
468.15	274.56
468.52	273.90
468.88	273.05
469.25	272.25
469.62	271.69
469.98	270.99
470.35	270.34
470.72	269.74
471.08	269.11
471.45	268.55
471.82	267.98
472.18	267.38
472.55	266.92
472.92	266.37
473.28	265.94
473.65	265.48
474.02	265.02
474.38	264.64
474.75	264.28
475.11	263.92
475.48	263.65
475.85	263.43
476.21	263.17
476.58	262.98
476.94	262.83
477.31	262.65
477.67	262.50
478.04	262.43
478.41	262.36
478.77	262.41
479.14	262.37
479.50	262.39
479.87	262.48
480.23	262.56
480.60	262.62
480.96	262.69
481.33	262.91
481.69	263.08
482.06	263.22
482.42	263.44
482.79	263.69
483.15	263.95
483.52	264.32
483.88	264.66
484.25	265.02
484.61	265.40
484.98	265.81
485.34	266.34
485.71	266.88
486.07	267.47
486.44	268.00
486.80	268.65
487.17	269.39
487.53	270.18
487.90	271.03
488.26	271.97
488.62	272.95
488.99	273.87
489.35	274.94
489.72	276.10
490.08	277.31
490.44	278.55
490.81	279.94
491.17	281.29
491.54	282.80
491.90	284.36
492.26	286.05
492.63	287.86
492.99	289.68
493.36	291.59
493.72	293.63
494.08	295.76
494.45	298.09
494.81	300.47
495.17	302.95
495.54	305.57
495.90	308.27
496.26	311.10
496.63	314.14
496.99	317.26
497.35	320.57
497.72	323.99
498.08	327.51
498.44	331.22
498.80	335.18
499.17	339.26
499.53	343.43
499.89	347.85
500.26	352.32
500.62	357.00
500.98	361.98
501.34	367.12
501.71	372.47
502.07	377.93
502.43	383.54
502.79	389.35
503.16	395.40
503.52	401.69
503.88	408.14
504.24	414.78
504.60	421.69
504.97	428.81
505.33	436.16
505.69	443.86
506.05	451.61
506.41	459.46
506.78	467.62
507.14	476.12
507.50	484.90
507.86	494.01
508.22	503.26
508.59	512.52
508.95	522.06
509.31	531.89
509.67	541.96
510.03	552.24
510.39	562.82
510.75	573.59
511.12	584.50
511.48	595.81
511.84	607.24
512.20	618.77
512.56	630.70
512.92	642.85
513.28	655.27
513.64	667.72
514.00	680.45
514.37	693.38
514.73	706.37
515.09	719.34
515.45	732.63
515.81	746.14
516.17	760.04
516.53	774.22
516.89	788.34
517.25	802.51
517.61	816.92
517.97	831.27
518.33	845.74
518.69	860.61
519.05	875.49
519.41	890.64
519.77	906.15
520.13	921.49
520.49	936.91
520.85	952.34
521.21	968.05
521.57	984.23
521.93	999.95
522.29	1016.37
522.65	1032.55
523.01	1048.63
523.37	1064.79
523.73	1080.93
524.09	1096.97
524.45	1113.15
524.81	1129.78
525.17	1146.45
525.53	1163.35
525.89	1180.17
526.25	1196.91
526.61	1213.34
526.97	1230.05
527.33	1246.43
527.68	1263.09
528.04	1279.43
528.40	1295.93
528.76	1312.98
529.12	1329.57
529.48	1346.44
529.84	1362.40
530.20	1379.01
530.56	1395.95
530.91	1413.08
531.27	1429.90
531.63	1446.30
531.99	1462.96
532.35	1478.78
532.71	1494.65
533.07	1510.94
533.42	1526.89
533.78	1542.83
534.14	1558.99
534.50	1574.32
534.86	1590.16
535.21	1605.25
535.57	1621.06
535.93	1636.24
536.29	1650.92
536.65	1665.91
537.00	1680.53
537.36	1695.68
537.72	1710.06
538.08	1724.40
538.44	1738.09
538.79	1751.68
539.15	1765.03
539.51	1778.55
539.87	1792.80
540.22	1806.47
540.58	1820.05
540.94	1833.03
541.29	1845.73
541.65	1858.17
542.01	1871.07
542.37	1883.31
542.72	1895.54
543.08	1907.34
543.44	1919.80
543.79	1930.90
544.15	1941.60
544.51	1953.13
544.87	1963.94
545.22	1974.80
545.58	1984.89
545.94	1994.72
546.29	2004.58
546.65	2014.63
547.01	2023.94
547.36	2032.66
547.72	2041.17
548.07	2048.95
548.43	2057.22
548.79	2065.05
549.14	2072.80
549.50	2080.19
549.86	2087.79
550.21	2095.23
550.57	2102.39
550.92	2109.03
551.28	2116.17
551.64	2123.36
551.99	2129.93
552.35	2136.25
552.70	2142.39
553.06	2148.51
553.41	2154.73
553.77	2160.91
554.13	2166.81
554.48	2172.94
554.84	2178.52
555.19	2183.71
555.55	2189.05
555.90	2193.60
556.26	2198.84
556.61	2203.48
556.97	2207.79
557.32	2211.90
557.68	2216.00
558.03	2220.25
558.39	2223.86
558.74	2228.58
559.10	2232.51
559.45	2236.05
559.81	2240.26
560.16	2244.01
560.52	2247.23
560.87	2250.69
561.23	2253.27
561.58	2256.17
561.94	2258.65
562.29	2260.99
562.64	2263.77
563.00	2266.22
563.35	2269.59
563.71	2272.51
564.06	2275.64
564.42	2278.62
564.77	2281.33
565.12	2283.69
565.48	2285.70
565.83	2287.63
566.19	2288.95
566.54	2289.85
566.89	2291.23
567.25	2291.95
567.60	2293.15
567.96	2294.75
568.31	2295.55
568.66	2296.80
569.02	2297.63
569.37	2298.00
569.72	2298.85
570.08	2298.99
570.43	2299.16
570.78	2298.63
571.14	2297.22
571.49	2295.93
571.84	2295.50
572.20	2294.33
572.55	2293.28
572.90	2291.55
573.26	2290.22
573.61	2288.32
573.96	2286.64
574.31	2283.63
574.67	2280.65
575.02	2277.08
575.37	2273.78
575.72	2270.29
576.08	2266.59
576.43	2263.10
576.78	2259.49
577.13	2256.31
577.49	2253.03
577.84	2249.55
578.19	2245.85
578.54	2242.35
578.90	2238.38
579.25	2233.05
579.60	2228.07
579.95	2223.13
580.30	2218.23
580.66	2213.00
581.01	2208.14
581.36	2203.34
581.71	2199.14
582.06	2194.69
582.42	2190.40
582.77	2185.28
583.12	2180.65
583.47	2176.25
583.82	2171.38
584.17	2166.29
584.53	2160.85
584.88	2155.48
585.23	2149.70
585.58	2144.31
585.93	2138.79
586.28	2133.85
586.63	2128.75
586.98	2123.69
587.34	2119.00
587.69	2114.09
588.04	2109.13
588.39	2103.53
588.74	2096.97
589.09	2090.83
589.44	2084.15
589.79	2078.06
590.14	2072.50
590.49	2065.83
590.84	2059.43
591.19	2053.38
591.54	2046.92
591.89	2039.64
592.25	2032.86
592.60	2025.64
592.95	2017.95
593.30	2010.61
593.65	2003.00
594.00	1996.03
594.35	1988.82
594.70	1980.72
595.05	1973.71
595.40	1966.34
595.75	1958.91
596.10	1952.80
596.45	1946.08
596.80	1939.88
597.15	1933.37
597.50	1926.27
597.85	1920.01
598.19	1913.35
598.54	1906.45
598.89	1899.74
599.24	1893.77
599.59	1887.18
599.94	1881.01
600.29	1874.81
600.64	1868.33
600.99	1860.86
601.34	1853.91
601.69	1846.92
602.04	1840.19
602.39	1832.72
602.74	1825.84
603.08	1819.05
603.43	1812.30
603.78	1805.07
604.13	1797.95
604.48	1790.68
604.83	1783.82
605.18	1776.90
605.53	1769.01
605.87	1760.92
606.22	1753.55
606.57	1745.47
606.92	1737.92
607.27	1730.71
607.62	1723.79
607.96	1716.43
608.31	1709.94
608.66	1702.35
609.01	1694.92
609.36	1687.25
609.70	1679.27
610.05	1671.21
610.40	1663.52
610.75	1655.13
611.10	1647.29
611.44	1638.71
611.79	1630.71
612.14	1622.08
612.49	1612.63
612.83	1604.21
613.18	1596.05
613.53	1588.07
613.88	1579.69
614.22	1571.59
614.57	1562.93
614.92	1554.94
615.27	1547.55
615.61	1539.29
615.96	1531.36
616.31	1523.62
616.65	1516.33
617.00	1508.82
617.35	1501.04
617.70	1492.85
618.04	1484.35
618.39	1476.27
618.74	1468.75
619.08	1460.40
619.43	1452.77
619.78	1446.03
620.12	1438.92
620.47	1431.41
620.82	1423.16
621.16	1415.54
621.51	1407.91
621.85	1400.42
622.20	1391.91
622.55	1383.44
622.89	1375.59
623.24	1367.81
623.59	1360.33
623.93	1352.78
624.28	1345.49
624.62	1338.17
624.97	1330.89
625.32	1324.05
625.66	1317.01
626.01	1309.84
626.35	1302.36
626.70	1294.59
627.04	1286.82
627.39	1278.99
627.73	1271.61
628.08	1264.75
628.43	1257.70
628.77	1250.32
629.12	1242.75
629.46	1235.65
629.81	1228.19
630.15	1220.92
630.50	1213.65
630.84	1205.58
631.19	1197.52
631.53	1190.00
631.88	1182.36
632.22	1174.73
632.57	1167.57
632.91	1160.04
633.26	1152.65
633.60	1145.34
633.95	1138.16
634.29	1131.10
634.64	1124.36
634.98	1117.06
635.32	1109.95
635.67	1103.29
636.01	1096.72
636.36	1090.03
636.70	1083.47
637.05	1076.91
637.39	1070.44
637.73	1063.91
638.08	1058.00
638.42	1052.07
638.77	1045.71
639.11	1039.17
639.45	1032.85
639.80	1026.18
640.14	1019.78
640.49	1013.27
640.83	1007.03
641.17	1000.90
641.52	994.63
641.86	988.17
642.20	982.31
642.55	975.99
642.89	969.53
643.23	962.97
643.58	957.15
643.92	950.88
644.26	944.93
644.61	938.88
644.95	932.90
645.29	926.38
645.64	919.71
645.98	913.29
646.32	907.45
646.66	901.34
647.01	895.58
647.35	889.93
647.69	884.06
648.04	878.49
648.38	872.72
648.72	866.78
649.06	860.72
649.41	854.84
649.75	848.87
650.09	842.86
650.43	837.09
650.78	830.79
651.12	824.91
651.46	819.11
651.80	813.40
652.14	808.04
652.49	802.63
652.83	797.46
653.17	791.87
653.51	786.20
653.85	780.79
654.20	775.10
654.54	769.05
654.88	763.32
655.22	757.36
655.56	751.57
655.90	746.04
656.25	740.82
656.59	735.39
656.93	730.40
657.27	725.27
657.61	719.73
657.95	714.71
658.29	709.59
658.64	704.33
658.98	698.90
659.32	693.35
659.66	688.13
660.00	682.76
660.34	677.79
660.68	672.78
661.02	667.74
661.36	662.98
661.70	658.49
662.05	654.14
662.39	649.86
662.73	645.35
663.07	640.99
663.41	636.56
663.75	632.10
664.09	627.46
664.43	623.12
664.77	619.06
665.11	614.79
665.45	610.66
665.79	606.57
666.13	602.54
666.47	598.45
666.81	594.32
667.15	590.28
667.49	586.30
667.83	582.47
668.17	578.59
668.51	574.55
668.85	570.48
669.19	566.60
669.53	562.80
669.87	559.03
670.21	555.33
670.55	551.68
670.89	548.25
671.23	544.83
671.57	541.35
671.91	537.76
672.25	534.25
672.58	530.70
672.92	527.23
673.26	524.06
673.60	520.94
673.94	517.79
674.28	514.81
674.62	511.89
674.96	508.81
675.30	505.86
675.64	502.87
675.97	500.06
676.31	497.19
676.65	494.20
676.99	491.47
677.33	488.54
677.67	485.75
678.01	482.70
678.34	479.74
678.68	476.78
679.02	473.96
679.36	471.17
679.70	468.46
680.04	465.79
680.37	462.92
680.71	460.11
681.05	457.56
681.39	454.87
681.73	452.19
682.06	449.62
682.40	447.07
682.74	444.54
683.08	442.00
683.42	439.37
683.75	436.89
684.09	434.32
684.43	431.86
684.77	429.37
685.10	427.06
685.44	424.71
685.78	422.47
686.12	420.24
686.45	417.97
686.79	415.67
687.13	413.45
687.46	411.27
687.80	409.09
688.14	406.84
688.48	404.78
688.81	402.54
689.15	400.44
689.49	398.26
689.82	396.20
690.16	394.14
690.50	392.20
690.83	390.30
691.17	388.31
691.51	386.47
691.84	384.64
692.18	382.74
692.52	380.80
692.85	378.84
693.19	376.93
693.52	375.10
693.86	373.27
694.20	371.49
694.53	369.70
694.87	367.85
695.21	366.08
695.54	364.21
695.88	362.55
696.21	360.84
696.55	359.19
696.88	357.52
697.22	355.87
697.56	354.27
697.89	352.60
698.23	351.01
698.56	349.35
698.90	347.73
699.23	346.05
699.57	344.49
699.90	342.95
700.24	341.45
700.58	339.95
700.91	338.46
701.25	337.04
701.58	335.64
701.92	334.24
702.25	332.84
702.59	331.49
702.92	330.11
703.26	328.81
703.59	327.54
703.93	326.34
704.26	325.08
704.60	323.77
704.93	322.51
705.26	321.24
705.60	320.05
705.93	318.91
706.27	317.87
706.60	316.82
706.94	315.76
707.27	314.65
707.61	313.55
707.94	312.54
708.27	311.41
708.61	310.35
708.94	309.36
709.28	308.38
709.61	307.45
709.94	306.49
710.28	305.43
710.61	304.46
710.95	303.40
711.28	302.49
711.61	301.50
711.95	300.59
712.28	299.65
712.61	298.70
712.95	297.72
713.28	296.80
713.61	295.87
713.95	294.94
714.28	294.04
714.61	293.19
714.95	292.33
715.28	291.50
715.61	290.62
715.95	289.74
716.28	288.88
716.61	288.00
716.95	287.18
717.28	286.45
717.61	285.66
717.94	284.87
718.28	284.04
718.61	283.32
718.94	282.61
719.27	281.98
719.61	281.28
719.94	280.62
720.27	279.90
720.60	279.23
720.94	278.61
721.27	278.05
721.60	277.46
721.93	276.85
722.27	276.28
722.60	275.75
722.93	275.21
723.26	274.70
723.59	274.14
723.93	273.61
724.26	273.06
724.59	272.47
724.92	271.95
725.25	271.44
725.59	270.95
725.92	270.41
726.25	269.88
726.58	269.43
726.91	268.95
727.24	268.49
727.57	268.03
727.91	267.52
728.24	267.04
728.57	266.49
728.90	266.02
729.23	265.52
729.56	265.10
729.89	264.63
730.22	264.09
730.55	263.67
730.89	263.24
731.22	262.79
731.55	262.40
731.88	261.99
732.21	261.60
732.54	261.13
732.87	260.76
733.20	260.38
733.53	259.99
733.86	259.64
734.19	259.26
734.52	258.93
734.85	258.67
735.18	258.26
735.51	257.99
735.84	257.67
736.17	257.36
736.50	256.95
736.83	256.76
737.16	256.47
737.49	256.13
737.82	255.78
738.15	255.46
738.48	255.13
738.81	254.83
739.14	254.57
739.47	254.33
739.80	253.99
740.13	253.69
740.46	253.39
740.79	253.08
741.12	252.79
741.45	252.48
741.78	252.11
742.11	251.84
742.44	251.53
742.77	251.24
743.10	250.95
743.43	250.65
743.75	250.24
744.08	250.10
744.41	249.83
744.74	249.59
745.07	249.32
745.40	249.09
745.73	248.87
746.06	248.58
746.39	248.27
746.71	248.00
747.04	247.75
747.37	247.47
747.70	247.21
748.03	246.97
748.36	246.69
748.68	246.50
749.01	246.25
749.34	246.01
749.67	245.77
750.00	245.53
750.33	245.41
750.65	245.18
750.98	244.83
751.31	244.61
751.64	244.39
751.97	244.21
752.29	243.98
752.62	243.72
752.95	243.49
753.28	243.29
753.60	243.09
753.93	242.90
754.26	242.71
754.59	242.51
754.91	242.27
755.24	242.05
755.57	241.79
755.90	241.58
756.22	241.38
756.55	241.18
756.88	240.99
757.20	240.73
757.53	240.53
757.86	240.38
758.19	240.21
758.51	240.06
758.84	239.84
759.17	239.64
759.49	239.45
759.82	239.32
760.15	239.16
760.47	238.99
760.80	238.78
761.13	238.65
761.45	238.48
761.78	238.34
762.11	238.23
762.43	238.07
762.76	237.92
763.08	237.78
763.41	237.64
763.74	237.49
764.06	237.34
764.39	237.22
764.71	237.05
765.04	236.89
765.37	236.73
765.69	236.59
766.02	236.46
766.34	236.36
766.67	236.19
767.00	236.08
767.32	236.01
767.65	235.93
767.97	235.78
768.30	235.67
768.62	235.56
768.95	235.45
769.27	235.36
769.60	235.27
769.92	235.15
770.25	235.04
770.57	234.95
770.90	234.85
771.22	234.73
771.55	234.65
771.87	234.57
772.20	234.47
772.52	234.48
772.85	234.52
773.17	234.39
773.50	234.30
773.82	234.19
774.15	234.08
774.47	233.96
774.80	233.86
775.12	233.76
775.45	233.69
775.77	233.60
776.09	233.53
776.42	233.47
776.74	233.43
777.07	233.38
777.39	233.29
777.72	233.22
778.04	233.17
778.36	233.10
778.69	233.03
779.01	232.97
779.33	232.85
779.66	232.64
779.98	232.57
780.31	232.54
780.63	232.52
780.95	232.47
781.28	232.42
781.60	232.38
781.92	232.35
782.25	232.29
782.57	232.23
782.89	232.19
783.22	232.13
783.54	232.07
783.86	231.98
784.19	231.90
784.51	231.87
784.83	231.83
785.16	231.77
785.48	231.74
785.80	231.72
786.12	231.67
786.45	231.64
786.77	231.64
787.09	231.60
