SpectraSuite Data File
++++++++++++++++++++++++++++++++++++
Date: Fri Feb 01 16:13:15 EST 2013
User: group
Dark Spectrum Present: No
Reference Spectrum Present: No
Number of Sampled Component Spectra: 1
Spectrometers: USB2E7196
Integration Time (usec): 35000 (USB2E7196)
Spectra Averaged: 100 (USB2E7196)
Boxcar Smoothing: 10 (USB2E7196)
Correct for Electrical Dark: No (USB2E7196)
Strobe/Lamp Enabled: No (USB2E7196)
Correct for Detector Non-linearity: No (USB2E7196)
Correct for Stray Light: No (USB2E7196)
Number of Pixels in Processed Spectrum: 2048
>>>>>Begin Processed Spectral Data<<<<<
339.09	0.00
339.48	214.55
339.86	215.87
340.24	217.59
340.63	218.52
341.01	221.18
341.39	221.45
341.78	223.00
342.16	223.72
342.54	223.98
342.93	212.84
343.31	223.60
343.69	224.15
344.07	224.63
344.46	225.07
344.84	225.47
345.22	225.75
345.60	226.01
345.99	226.21
346.37	226.36
346.75	226.50
347.13	226.57
347.52	226.59
347.90	226.67
348.28	226.71
348.66	226.74
349.05	226.74
349.43	226.78
349.81	226.85
350.19	226.92
350.57	226.94
350.96	226.99
351.34	227.07
351.72	227.15
352.10	227.24
352.48	227.30
352.87	227.33
353.25	227.37
353.63	227.42
354.01	227.44
354.39	227.53
354.77	227.58
355.15	227.66
355.54	227.73
355.92	227.75
356.30	227.83
356.68	227.97
357.06	228.04
357.44	228.07
357.82	228.11
358.20	228.17
358.58	228.26
358.97	228.32
359.35	228.38
359.73	228.42
360.11	228.44
360.49	228.47
360.87	228.51
361.25	228.57
361.63	228.65
362.01	228.70
362.39	228.70
362.77	228.73
363.15	228.77
363.53	228.78
363.91	228.82
364.29	228.80
364.67	228.73
365.05	228.69
365.43	228.70
365.81	228.73
366.19	228.73
366.57	228.74
366.95	228.72
367.33	228.69
367.71	228.68
368.09	228.71
368.47	228.67
368.85	228.63
369.23	228.61
369.61	228.52
369.99	228.52
370.37	228.49
370.75	228.51
371.13	228.43
371.51	228.35
371.89	228.29
372.27	228.24
372.65	228.19
373.03	228.18
373.41	228.11
373.78	228.02
374.16	227.92
374.54	227.85
374.92	227.79
375.30	227.74
375.68	227.67
376.06	227.57
376.44	227.53
376.82	227.47
377.19	227.40
377.57	227.30
377.95	227.18
378.33	227.12
378.71	226.98
379.09	226.94
379.47	226.89
379.84	226.81
380.22	226.74
380.60	226.67
380.98	226.60
381.36	226.56
381.73	226.51
382.11	226.45
382.49	226.36
382.87	226.28
383.25	226.20
383.62	226.26
384.00	226.16
384.38	226.10
384.76	226.08
385.13	226.08
385.51	226.07
385.89	226.02
386.27	226.01
386.64	225.97
387.02	225.92
387.40	225.88
387.78	225.88
388.15	225.86
388.53	225.83
388.91	225.81
389.29	225.75
389.66	225.72
390.04	225.69
390.42	225.73
390.79	225.75
391.17	225.73
391.55	225.61
391.92	225.65
392.30	225.67
392.68	225.63
393.05	225.62
393.43	225.64
393.81	225.68
394.18	225.65
394.56	225.69
394.94	225.75
395.31	225.79
395.69	225.84
396.06	225.88
396.44	225.91
396.82	225.97
397.19	226.08
397.57	226.14
397.95	226.20
398.32	226.20
398.70	226.25
399.07	226.35
399.45	226.42
399.82	226.49
400.20	226.53
400.58	226.63
400.95	226.65
401.33	226.73
401.70	226.84
402.08	226.92
402.45	227.01
402.83	227.11
403.20	227.19
403.58	227.29
403.95	227.43
404.33	227.57
404.71	227.67
405.08	227.84
405.46	227.97
405.83	228.15
406.21	228.32
406.58	228.48
406.96	228.62
407.33	228.79
407.70	228.97
408.08	229.27
408.45	229.47
408.83	229.72
409.20	229.94
409.58	230.13
409.95	230.39
410.33	230.67
410.70	230.94
411.08	231.23
411.45	231.51
411.82	231.79
412.20	232.16
412.57	232.56
412.95	232.85
413.32	233.25
413.69	233.64
414.07	234.09
414.44	234.55
414.82	235.00
415.19	235.56
415.56	236.08
415.94	236.62
416.31	237.28
416.68	237.90
417.06	238.60
417.43	239.27
417.81	240.03
418.18	240.80
418.55	241.60
418.93	242.48
419.30	243.37
419.67	244.29
420.04	245.21
420.42	246.20
420.79	247.38
421.16	248.54
421.54	249.72
421.91	250.92
422.28	252.20
422.66	253.54
423.03	254.83
423.40	256.17
423.77	257.53
424.15	258.93
424.52	260.40
424.89	262.00
425.26	263.52
425.64	264.97
426.01	266.55
426.38	268.18
426.75	269.86
427.13	271.57
427.50	273.39
427.87	275.27
428.24	277.13
428.61	278.86
428.99	280.78
429.36	282.83
429.73	284.89
430.10	286.90
430.47	288.92
430.85	291.01
431.22	293.27
431.59	295.65
431.96	297.91
432.33	300.38
432.70	302.76
433.08	305.59
433.45	308.20
433.82	310.78
434.19	313.67
434.56	316.51
434.93	319.18
435.30	321.74
435.68	324.61
436.05	327.42
436.42	330.24
436.79	332.73
437.16	335.45
437.53	338.26
437.90	341.00
438.27	343.81
438.64	346.64
439.01	349.23
439.38	351.48
439.75	353.65
440.13	356.12
440.50	358.42
440.87	360.26
441.24	362.25
441.61	364.44
441.98	365.92
442.35	367.69
442.72	369.55
443.09	371.32
443.46	372.35
443.83	372.93
444.20	373.41
444.57	374.26
444.94	374.54
445.31	374.92
445.68	375.34
446.05	375.38
446.42	374.97
446.79	374.52
447.16	374.08
447.53	373.74
447.90	372.65
448.27	371.51
448.64	369.95
449.01	368.81
449.37	366.84
449.74	364.95
450.11	362.75
450.48	360.32
450.85	357.89
451.22	355.73
451.59	353.74
451.96	351.83
452.33	349.22
452.70	346.86
453.07	344.03
453.43	341.14
453.80	338.38
454.17	335.78
454.54	333.26
454.91	330.56
455.28	327.90
455.65	325.42
456.02	322.99
456.38	320.81
456.75	318.18
457.12	315.93
457.49	313.70
457.86	311.51
458.23	309.65
458.59	307.57
458.96	305.49
459.33	303.67
459.70	301.81
460.07	300.35
460.43	298.66
460.80	297.05
461.17	295.62
461.54	294.16
461.91	292.71
462.27	291.26
462.64	290.02
463.01	288.68
463.38	287.37
463.74	286.04
464.11	284.91
464.48	283.88
464.85	282.80
465.21	281.93
465.58	281.01
465.95	279.89
466.32	279.02
466.68	278.10
467.05	277.15
467.42	276.29
467.78	275.37
468.15	274.47
468.52	273.78
468.88	272.91
469.25	272.13
469.62	271.53
469.98	270.89
470.35	270.24
470.72	269.62
471.08	268.93
471.45	268.34
471.82	267.80
472.18	267.22
472.55	266.79
472.92	266.28
473.28	265.84
473.65	265.40
474.02	264.96
474.38	264.60
474.75	264.27
475.11	263.86
475.48	263.57
475.85	263.30
476.21	263.09
476.58	262.93
476.94	262.76
477.31	262.55
477.67	262.39
478.04	262.25
478.41	262.20
478.77	262.27
479.14	262.24
479.50	262.26
479.87	262.33
480.23	262.40
480.60	262.47
480.96	262.55
481.33	262.76
481.69	262.95
482.06	263.18
482.42	263.42
482.79	263.73
483.15	264.06
483.52	264.48
483.88	264.83
484.25	265.22
484.61	265.69
484.98	266.13
485.34	266.68
485.71	267.30
486.07	267.92
486.44	268.49
486.80	269.20
487.17	269.90
487.53	270.73
487.90	271.57
488.26	272.53
488.62	273.54
488.99	274.51
489.35	275.61
489.72	276.71
490.08	277.90
490.44	279.17
490.81	280.54
491.17	281.88
491.54	283.39
491.90	284.96
492.26	286.59
492.63	288.39
492.99	290.22
493.36	292.11
493.72	294.25
494.08	296.39
494.45	298.66
494.81	301.06
495.17	303.45
495.54	306.01
495.90	308.70
496.26	311.51
496.63	314.54
496.99	317.64
497.35	320.95
497.72	324.37
498.08	327.88
498.44	331.52
498.80	335.49
499.17	339.52
499.53	343.70
499.89	348.11
500.26	352.59
500.62	357.28
500.98	362.28
501.34	367.29
501.71	372.59
502.07	378.03
502.43	383.61
502.79	389.44
503.16	395.53
503.52	401.80
503.88	408.18
504.24	414.73
504.60	421.65
504.97	428.75
505.33	436.05
505.69	443.78
506.05	451.55
506.41	459.47
506.78	467.66
507.14	476.13
507.50	484.82
507.86	493.82
508.22	502.95
508.59	512.20
508.95	521.71
509.31	531.60
509.67	541.69
510.03	552.00
510.39	562.61
510.75	573.39
511.12	584.31
511.48	595.58
511.84	607.01
512.20	618.52
512.56	630.46
512.92	642.63
513.28	654.94
513.64	667.44
514.00	680.11
514.37	693.02
514.73	706.03
515.09	719.09
515.45	732.42
515.81	746.02
516.17	759.85
516.53	774.03
516.89	788.11
517.25	802.27
517.61	816.60
517.97	830.97
518.33	845.38
518.69	860.21
519.05	875.15
519.41	890.47
519.77	905.93
520.13	921.34
520.49	936.74
520.85	952.08
521.21	967.77
521.57	983.88
521.93	999.59
522.29	1015.91
522.65	1032.09
523.01	1048.19
523.37	1064.12
523.73	1080.34
524.09	1096.35
524.45	1112.60
524.81	1129.17
525.17	1145.91
525.53	1162.79
525.89	1179.60
526.25	1196.38
526.61	1212.77
526.97	1229.36
527.33	1245.76
527.68	1262.28
528.04	1278.74
528.40	1295.29
528.76	1312.26
529.12	1328.90
529.48	1345.71
529.84	1361.66
530.20	1378.28
530.56	1395.21
530.91	1412.59
531.27	1429.43
531.63	1445.83
531.99	1462.46
532.35	1478.40
532.71	1494.32
533.07	1510.51
533.42	1526.37
533.78	1542.28
534.14	1558.49
534.50	1573.76
534.86	1589.49
535.21	1604.63
535.57	1620.42
535.93	1635.86
536.29	1650.62
536.65	1665.51
537.00	1680.15
537.36	1695.50
537.72	1709.89
538.08	1724.26
538.44	1737.98
538.79	1751.65
539.15	1765.18
539.51	1778.91
539.87	1793.14
540.22	1806.87
540.58	1820.48
540.94	1833.67
541.29	1846.52
541.65	1859.13
542.01	1872.34
542.37	1884.80
542.72	1897.14
543.08	1908.96
543.44	1921.28
543.79	1932.42
544.15	1943.41
544.51	1955.08
544.87	1965.86
545.22	1976.57
545.58	1986.83
545.94	1996.55
546.29	2006.37
546.65	2016.34
547.01	2025.40
547.36	2034.06
547.72	2042.48
548.07	2050.36
548.43	2058.57
548.79	2066.40
549.14	2073.99
549.50	2081.15
549.86	2088.72
550.21	2095.97
550.57	2103.02
550.92	2109.61
551.28	2116.68
551.64	2123.73
551.99	2130.10
552.35	2136.23
552.70	2142.33
553.06	2148.17
553.41	2154.48
553.77	2160.42
554.13	2166.36
554.48	2172.52
554.84	2178.20
555.19	2183.28
555.55	2188.37
555.90	2192.77
556.26	2197.75
556.61	2202.29
556.97	2206.88
557.32	2210.91
557.68	2215.14
558.03	2219.25
558.39	2222.74
558.74	2227.43
559.10	2231.22
559.45	2234.79
559.81	2239.01
560.16	2242.95
560.52	2246.34
560.87	2249.95
561.23	2252.67
561.58	2255.52
561.94	2258.03
562.29	2260.31
562.64	2263.25
563.00	2265.93
563.35	2269.54
563.71	2272.59
564.06	2275.84
564.42	2278.48
564.77	2281.06
565.12	2283.38
565.48	2285.47
565.83	2287.51
566.19	2288.83
566.54	2289.70
566.89	2290.97
567.25	2291.61
567.60	2292.95
567.96	2294.66
568.31	2295.23
568.66	2296.41
569.02	2297.19
569.37	2297.47
569.72	2298.38
570.08	2298.51
570.43	2298.55
570.78	2297.97
571.14	2296.55
571.49	2295.11
571.84	2294.85
572.20	2293.77
572.55	2292.64
572.90	2291.06
573.26	2289.74
573.61	2287.93
573.96	2286.32
574.31	2283.41
574.67	2280.50
575.02	2276.88
575.37	2273.37
575.72	2269.81
576.08	2266.26
576.43	2262.81
576.78	2259.25
577.13	2255.87
577.49	2252.64
577.84	2249.13
578.19	2245.45
578.54	2242.03
578.90	2238.04
579.25	2232.45
579.60	2227.71
579.95	2222.83
580.30	2217.75
580.66	2212.49
581.01	2207.60
581.36	2202.76
581.71	2198.80
582.06	2194.61
582.42	2190.22
582.77	2185.08
583.12	2180.54
583.47	2176.11
583.82	2171.26
584.17	2166.10
584.53	2160.67
584.88	2155.13
585.23	2149.45
585.58	2143.89
585.93	2138.23
586.28	2133.33
586.63	2128.43
586.98	2123.29
587.34	2118.57
587.69	2113.78
588.04	2108.78
588.39	2103.09
588.74	2096.59
589.09	2090.38
589.44	2083.57
589.79	2077.47
590.14	2071.89
590.49	2065.27
590.84	2058.73
591.19	2052.72
591.54	2046.26
591.89	2039.10
592.25	2032.45
592.60	2025.36
592.95	2017.98
593.30	2010.83
593.65	2003.35
594.00	1996.29
594.35	1988.92
594.70	1980.85
595.05	1973.84
595.40	1966.59
595.75	1959.27
596.10	1953.20
596.45	1946.39
596.80	1940.24
597.15	1933.68
597.50	1926.72
597.85	1920.22
598.19	1913.80
598.54	1906.75
598.89	1900.10
599.24	1894.29
599.59	1887.69
599.94	1881.33
600.29	1875.02
600.64	1868.32
600.99	1860.90
601.34	1854.11
601.69	1847.29
602.04	1840.41
602.39	1832.98
602.74	1826.15
603.08	1819.42
603.43	1812.67
603.78	1805.44
604.13	1798.12
604.48	1790.92
604.83	1784.01
605.18	1777.36
605.53	1769.30
605.87	1761.28
606.22	1754.09
606.57	1745.98
606.92	1738.51
607.27	1731.58
607.62	1724.54
607.96	1717.26
608.31	1710.90
608.66	1703.29
609.01	1695.75
609.36	1688.35
609.70	1680.30
610.05	1672.36
610.40	1664.68
610.75	1656.33
611.10	1648.68
611.44	1640.31
611.79	1632.21
612.14	1623.57
612.49	1614.27
612.83	1605.96
613.18	1597.82
613.53	1589.76
613.88	1581.31
614.22	1573.11
614.57	1564.33
614.92	1556.39
615.27	1549.02
615.61	1540.58
615.96	1532.47
616.31	1524.76
616.65	1517.31
617.00	1509.86
617.35	1502.08
617.70	1493.68
618.04	1485.18
618.39	1476.98
618.74	1469.51
619.08	1461.26
619.43	1453.60
619.78	1446.68
620.12	1439.51
620.47	1432.07
620.82	1423.75
621.16	1416.23
621.51	1408.49
621.85	1400.95
622.20	1392.43
622.55	1383.95
622.89	1376.08
623.24	1368.48
623.59	1361.04
623.93	1353.46
624.28	1346.25
624.62	1338.78
624.97	1331.60
625.32	1324.86
625.66	1317.83
626.01	1310.56
626.35	1303.23
626.70	1295.55
627.04	1287.72
627.39	1279.93
627.73	1272.50
628.08	1265.63
628.43	1258.48
628.77	1251.20
629.12	1243.58
629.46	1236.55
629.81	1228.96
630.15	1221.64
630.50	1214.27
630.84	1206.16
631.19	1198.25
631.53	1190.59
631.88	1182.95
632.22	1175.34
632.57	1168.01
632.91	1160.42
633.26	1152.96
633.60	1145.48
633.95	1138.20
634.29	1131.20
634.64	1124.44
634.98	1117.05
635.32	1109.97
635.67	1103.28
636.01	1096.61
636.36	1089.87
636.70	1083.20
637.05	1076.85
637.39	1070.41
637.73	1063.95
638.08	1058.02
638.42	1052.08
638.77	1045.76
639.11	1039.24
639.45	1032.88
639.80	1026.07
640.14	1019.68
640.49	1013.21
640.83	1006.90
641.17	1000.84
641.52	994.52
641.86	988.03
642.20	982.19
642.55	975.76
642.89	969.28
643.23	962.65
643.58	956.78
643.92	950.57
644.26	944.52
644.61	938.43
644.95	932.38
645.29	925.87
645.64	919.19
645.98	912.80
646.32	906.80
646.66	900.73
647.01	895.00
647.35	889.24
647.69	883.28
648.04	877.71
648.38	871.87
648.72	865.96
649.06	859.92
649.41	854.01
649.75	848.11
650.09	842.13
650.43	836.47
650.78	830.35
651.12	824.36
651.46	818.60
651.80	813.00
652.14	807.62
652.49	802.20
652.83	796.96
653.17	791.25
653.51	785.58
653.85	780.23
654.20	774.72
654.54	768.70
654.88	763.06
655.22	757.15
655.56	751.46
655.90	745.95
656.25	740.68
656.59	735.30
656.93	730.19
657.27	725.10
657.61	719.62
657.95	714.54
658.29	709.52
658.64	704.21
658.98	698.84
659.32	693.34
659.66	688.13
660.00	682.86
660.34	677.94
660.68	672.98
661.02	667.89
661.36	663.09
661.70	658.67
662.05	654.27
662.39	649.98
662.73	645.50
663.07	641.09
663.41	636.69
663.75	632.21
664.09	627.63
664.43	623.18
664.77	619.05
665.11	614.83
665.45	610.60
665.79	606.55
666.13	602.41
666.47	598.29
666.81	594.15
667.15	589.97
667.49	586.11
667.83	582.31
668.17	578.36
668.51	574.26
668.85	570.18
669.19	566.27
669.53	562.39
669.87	558.52
670.21	554.83
670.55	551.18
670.89	547.78
671.23	544.37
671.57	540.88
671.91	537.36
672.25	533.81
672.58	530.30
672.92	526.84
673.26	523.68
673.60	520.53
673.94	517.46
674.28	514.51
674.62	511.48
674.96	508.42
675.30	505.50
675.64	502.64
675.97	499.89
676.31	497.06
676.65	494.17
676.99	491.50
677.33	488.61
677.67	485.80
678.01	482.77
678.34	479.79
678.68	476.90
679.02	474.06
679.36	471.36
679.70	468.70
680.04	466.01
680.37	463.20
680.71	460.39
681.05	457.73
681.39	455.05
681.73	452.42
682.06	449.88
682.40	447.39
682.74	444.79
683.08	442.21
683.42	439.57
683.75	437.04
684.09	434.43
684.43	431.96
684.77	429.51
685.10	427.14
685.44	424.82
685.78	422.57
686.12	420.30
686.45	417.96
686.79	415.62
687.13	413.40
687.46	411.14
687.80	408.93
688.14	406.71
688.48	404.66
688.81	402.42
689.15	400.28
689.49	398.08
689.82	396.02
690.16	393.92
690.50	391.99
690.83	390.09
691.17	388.11
691.51	386.19
691.84	384.28
692.18	382.34
692.52	380.35
692.85	378.37
693.19	376.49
693.52	374.63
693.86	372.81
694.20	371.02
694.53	369.24
694.87	367.44
695.21	365.64
695.54	363.82
695.88	362.10
696.21	360.36
696.55	358.70
696.88	357.00
697.22	355.33
697.56	353.71
697.89	352.06
698.23	350.46
698.56	348.85
698.90	347.28
699.23	345.67
699.57	344.14
699.90	342.61
700.24	341.08
700.58	339.60
700.91	338.15
701.25	336.72
701.58	335.34
701.92	334.01
702.25	332.69
702.59	331.31
702.92	329.97
703.26	328.66
703.59	327.40
703.93	326.23
704.26	324.99
704.60	323.68
704.93	322.42
705.26	321.18
705.60	320.00
705.93	318.87
706.27	317.83
706.60	316.78
706.94	315.73
707.27	314.61
707.61	313.54
707.94	312.50
708.27	311.41
708.61	310.32
708.94	309.26
709.28	308.26
709.61	307.27
709.94	306.32
710.28	305.33
710.61	304.31
710.95	303.22
711.28	302.30
711.61	301.36
711.95	300.43
712.28	299.49
712.61	298.53
712.95	297.60
713.28	296.71
713.61	295.83
713.95	294.93
714.28	294.09
714.61	293.22
714.95	292.38
715.28	291.51
715.61	290.67
715.95	289.83
716.28	288.98
716.61	288.12
716.95	287.32
717.28	286.55
717.61	285.77
717.94	285.09
718.28	284.30
718.61	283.62
718.94	282.92
719.27	282.29
719.61	281.62
719.94	280.93
720.27	280.21
720.60	279.52
720.94	278.88
721.27	278.29
721.60	277.70
721.93	277.13
722.27	276.59
722.60	276.03
722.93	275.49
723.26	274.93
723.59	274.38
723.93	273.83
724.26	273.29
724.59	272.72
724.92	272.16
725.25	271.65
725.59	271.09
725.92	270.57
726.25	270.04
726.58	269.57
726.91	269.12
727.24	268.65
727.57	268.17
727.91	267.66
728.24	267.17
728.57	266.69
728.90	266.20
729.23	265.66
729.56	265.22
729.89	264.76
730.22	264.27
730.55	263.82
730.89	263.35
731.22	262.87
731.55	262.44
731.88	262.01
732.21	261.57
732.54	261.14
732.87	260.72
733.20	260.31
733.53	259.89
733.86	259.49
734.19	259.07
734.52	258.69
734.85	258.35
735.18	257.94
735.51	257.54
735.84	257.18
736.17	256.88
736.50	256.49
736.83	256.22
737.16	255.85
737.49	255.54
737.82	255.19
738.15	254.90
738.48	254.57
738.81	254.25
739.14	253.94
739.47	253.62
739.80	253.30
740.13	252.98
740.46	252.66
740.79	252.35
741.12	252.05
741.45	251.73
741.78	251.43
742.11	251.17
742.44	250.86
742.77	250.57
743.10	250.24
743.43	249.95
743.75	249.59
744.08	249.47
744.41	249.17
744.74	248.92
745.07	248.61
745.40	248.35
745.73	248.10
746.06	247.81
746.39	247.59
746.71	247.33
747.04	247.09
747.37	246.81
747.70	246.56
748.03	246.31
748.36	246.12
748.68	245.87
749.01	245.63
749.34	245.42
749.67	245.22
750.00	245.02
750.33	244.86
750.65	244.63
750.98	244.30
751.31	244.06
751.64	243.86
751.97	243.69
752.29	243.47
752.62	243.25
752.95	243.07
753.28	242.80
753.60	242.56
753.93	242.39
754.26	242.20
754.59	241.96
754.91	241.81
755.24	241.57
755.57	241.36
755.90	241.14
756.22	240.95
756.55	240.70
756.88	240.47
757.20	240.22
757.53	240.02
757.86	239.85
758.19	239.70
758.51	239.55
758.84	239.36
759.17	239.21
759.49	239.04
759.82	238.95
760.15	238.82
760.47	238.70
760.80	238.52
761.13	238.40
761.45	238.28
761.78	238.12
762.11	238.00
762.43	237.85
762.76	237.70
763.08	237.56
763.41	237.45
763.74	237.37
764.06	237.22
764.39	237.09
764.71	236.93
765.04	236.77
765.37	236.65
765.69	236.49
766.02	236.37
766.34	236.25
766.67	236.06
767.00	235.96
767.32	235.90
767.65	235.80
767.97	235.69
768.30	235.59
768.62	235.46
768.95	235.32
769.27	235.23
769.60	235.16
769.92	235.03
770.25	234.92
770.57	234.79
770.90	234.68
771.22	234.59
771.55	234.51
771.87	234.45
772.20	234.32
772.52	234.31
772.85	234.34
773.17	234.23
773.50	234.14
773.82	234.03
774.15	233.88
774.47	233.74
774.80	233.63
775.12	233.50
775.45	233.40
775.77	233.35
776.09	233.25
776.42	233.16
776.74	233.15
777.07	233.08
777.39	233.01
777.72	232.97
778.04	232.95
778.36	232.86
778.69	232.81
779.01	232.74
779.33	232.62
779.66	232.43
779.98	232.36
780.31	232.32
780.63	232.29
780.95	232.26
781.28	232.22
781.60	232.15
781.92	232.11
782.25	232.06
782.57	231.97
782.89	231.91
783.22	231.86
783.54	231.77
783.86	231.72
784.19	231.65
784.51	231.61
784.83	231.53
785.16	231.49
785.48	231.42
785.80	231.36
786.12	231.30
786.45	231.26
786.77	231.22
787.09	231.14
