SpectraSuite Data File
++++++++++++++++++++++++++++++++++++
Date: Fri Feb 01 15:03:27 EST 2013
User: group
Dark Spectrum Present: No
Reference Spectrum Present: No
Number of Sampled Component Spectra: 1
Spectrometers: USB2E7196
Integration Time (usec): 35000 (USB2E7196)
Spectra Averaged: 100 (USB2E7196)
Boxcar Smoothing: 10 (USB2E7196)
Correct for Electrical Dark: No (USB2E7196)
Strobe/Lamp Enabled: No (USB2E7196)
Correct for Detector Non-linearity: No (USB2E7196)
Correct for Stray Light: No (USB2E7196)
Number of Pixels in Processed Spectrum: 2048
>>>>>Begin Processed Spectral Data<<<<<
339.09	0.00
339.48	215.26
339.86	216.56
340.24	218.11
340.63	219.59
341.01	222.43
341.39	222.74
341.78	223.33
342.16	224.50
342.54	224.82
342.93	213.48
343.31	224.25
343.69	224.78
344.07	225.26
344.46	225.66
344.84	226.02
345.22	226.24
345.60	226.45
345.99	226.63
346.37	226.73
346.75	226.86
347.13	226.97
347.52	227.01
347.90	227.06
348.28	227.10
348.66	227.12
349.05	227.15
349.43	227.20
349.81	227.28
350.19	227.33
350.57	227.42
350.96	227.49
351.34	227.62
351.72	227.70
352.10	227.76
352.48	227.85
352.87	227.92
353.25	227.99
353.63	228.08
354.01	228.14
354.39	228.24
354.77	228.32
355.15	228.41
355.54	228.47
355.92	228.51
356.30	228.55
356.68	228.69
357.06	228.72
357.44	228.75
357.82	228.81
358.20	228.87
358.58	228.93
358.97	228.98
359.35	229.01
359.73	229.10
360.11	229.16
360.49	229.21
360.87	229.22
361.25	229.28
361.63	229.33
362.01	229.37
362.39	229.41
362.77	229.41
363.15	229.42
363.53	229.44
363.91	229.47
364.29	229.52
364.67	229.45
365.05	229.46
365.43	229.48
365.81	229.47
366.19	229.47
366.57	229.49
366.95	229.46
367.33	229.46
367.71	229.43
368.09	229.45
368.47	229.40
368.85	229.38
369.23	229.37
369.61	229.28
369.99	229.27
370.37	229.23
370.75	229.22
371.13	229.14
371.51	229.09
371.89	229.06
372.27	228.99
372.65	228.94
373.03	228.91
373.41	228.82
373.78	228.76
374.16	228.69
374.54	228.59
374.92	228.54
375.30	228.47
375.68	228.36
376.06	228.30
376.44	228.23
376.82	228.17
377.19	228.11
377.57	228.04
377.95	227.92
378.33	227.89
378.71	227.77
379.09	227.73
379.47	227.70
379.84	227.61
380.22	227.54
380.60	227.45
380.98	227.35
381.36	227.31
381.73	227.20
382.11	227.11
382.49	227.03
382.87	226.92
383.25	226.84
383.62	226.91
384.00	226.81
384.38	226.76
384.76	226.73
385.13	226.68
385.51	226.63
385.89	226.56
386.27	226.47
386.64	226.45
387.02	226.37
387.40	226.31
387.78	226.26
388.15	226.21
388.53	226.13
388.91	226.11
389.29	226.07
389.66	226.07
390.04	226.07
390.42	226.08
390.79	226.06
391.17	226.04
391.55	225.93
391.92	225.94
392.30	225.95
392.68	225.92
393.05	225.94
393.43	225.95
393.81	225.98
394.18	226.03
394.56	226.04
394.94	226.08
395.31	226.11
395.69	226.19
396.06	226.25
396.44	226.33
396.82	226.35
397.19	226.44
397.57	226.50
397.95	226.54
398.32	226.59
398.70	226.66
399.07	226.74
399.45	226.79
399.82	226.85
400.20	226.93
400.58	227.03
400.95	227.09
401.33	227.21
401.70	227.36
402.08	227.45
402.45	227.55
402.83	227.73
403.20	227.82
403.58	227.92
403.95	228.09
404.33	228.25
404.71	228.39
405.08	228.60
405.46	228.71
405.83	228.90
406.21	229.07
406.58	229.25
406.96	229.44
407.33	229.64
407.70	229.86
408.08	230.14
408.45	230.36
408.83	230.59
409.20	230.81
409.58	231.02
409.95	231.29
410.33	231.59
410.70	231.83
411.08	232.13
411.45	232.45
411.82	232.74
412.20	233.08
412.57	233.53
412.95	233.82
413.32	234.25
413.69	234.64
414.07	235.10
414.44	235.59
414.82	236.05
415.19	236.55
415.56	237.12
415.94	237.65
416.31	238.29
416.68	238.94
417.06	239.65
417.43	240.31
417.81	241.07
418.18	241.83
418.55	242.66
418.93	243.55
419.30	244.46
419.67	245.40
420.04	246.35
420.42	247.30
420.79	248.49
421.16	249.64
421.54	250.84
421.91	252.05
422.28	253.28
422.66	254.67
423.03	256.02
423.40	257.35
423.77	258.71
424.15	260.12
424.52	261.61
424.89	263.24
425.26	264.83
425.64	266.28
426.01	267.86
426.38	269.50
426.75	271.17
427.13	272.85
427.50	274.64
427.87	276.53
428.24	278.44
428.61	280.16
428.99	282.10
429.36	284.16
429.73	286.22
430.10	288.25
430.47	290.28
430.85	292.36
431.22	294.62
431.59	297.00
431.96	299.26
432.33	301.75
432.70	304.11
433.08	306.91
433.45	309.58
433.82	312.17
434.19	315.07
434.56	317.89
434.93	320.57
435.30	323.20
435.68	326.08
436.05	328.88
436.42	331.70
436.79	334.22
437.16	336.98
437.53	339.81
437.90	342.66
438.27	345.42
438.64	348.30
439.01	350.86
439.38	353.15
439.75	355.31
440.13	357.80
440.50	360.12
440.87	361.96
441.24	363.85
441.61	366.02
441.98	367.54
442.35	369.31
442.72	371.17
443.09	372.96
443.46	373.97
443.83	374.54
444.20	375.05
444.57	375.91
444.94	376.17
445.31	376.54
445.68	376.85
446.05	376.88
446.42	376.49
446.79	376.12
447.16	375.59
447.53	375.27
447.90	374.12
448.27	372.96
448.64	371.39
449.01	370.27
449.37	368.29
449.74	366.36
450.11	364.16
450.48	361.73
450.85	359.22
451.22	357.08
451.59	355.03
451.96	353.07
452.33	350.44
452.70	348.10
453.07	345.21
453.43	342.35
453.80	339.61
454.17	336.94
454.54	334.36
454.91	331.71
455.28	329.05
455.65	326.56
456.02	324.14
456.38	321.99
456.75	319.34
457.12	317.12
457.49	314.94
457.86	312.72
458.23	310.82
458.59	308.75
458.96	306.69
459.33	304.87
459.70	303.03
460.07	301.54
460.43	299.80
460.80	298.21
461.17	296.75
461.54	295.28
461.91	293.83
462.27	292.39
462.64	291.12
463.01	289.76
463.38	288.41
463.74	287.04
464.11	285.86
464.48	284.84
464.85	283.71
465.21	282.77
465.58	281.86
465.95	280.77
466.32	279.82
466.68	278.89
467.05	278.02
467.42	277.07
467.78	276.13
468.15	275.25
468.52	274.56
468.88	273.68
469.25	272.87
469.62	272.23
469.98	271.60
470.35	270.93
470.72	270.26
471.08	269.60
471.45	269.02
471.82	268.45
472.18	267.79
472.55	267.36
472.92	266.85
473.28	266.36
473.65	265.92
474.02	265.49
474.38	265.10
474.75	264.72
475.11	264.38
475.48	264.12
475.85	263.89
476.21	263.65
476.58	263.47
476.94	263.28
477.31	263.07
477.67	262.87
478.04	262.77
478.41	262.74
478.77	262.79
479.14	262.73
479.50	262.74
479.87	262.82
480.23	262.92
480.60	262.98
480.96	263.08
481.33	263.27
481.69	263.45
482.06	263.65
482.42	263.86
482.79	264.09
483.15	264.42
483.52	264.77
483.88	265.07
484.25	265.46
484.61	265.88
484.98	266.33
485.34	266.87
485.71	267.44
486.07	268.06
486.44	268.62
486.80	269.31
487.17	270.03
487.53	270.86
487.90	271.68
488.26	272.59
488.62	273.55
488.99	274.51
489.35	275.53
489.72	276.62
490.08	277.78
490.44	278.97
490.81	280.23
491.17	281.60
491.54	283.09
491.90	284.60
492.26	286.26
492.63	288.00
492.99	289.73
493.36	291.61
493.72	293.62
494.08	295.69
494.45	297.94
494.81	300.29
495.17	302.67
495.54	305.20
495.90	307.85
496.26	310.67
496.63	313.66
496.99	316.77
497.35	320.04
497.72	323.44
498.08	327.01
498.44	330.65
498.80	334.56
499.17	338.59
499.53	342.76
499.89	347.12
500.26	351.61
500.62	356.32
500.98	361.25
501.34	366.31
501.71	371.62
502.07	377.01
502.43	382.63
502.79	388.38
503.16	394.44
503.52	400.67
503.88	407.07
504.24	413.68
504.60	420.56
504.97	427.68
505.33	435.04
505.69	442.71
506.05	450.53
506.41	458.40
506.78	466.53
507.14	474.90
507.50	483.59
507.86	492.60
508.22	501.76
508.59	511.02
508.95	520.61
509.31	530.39
509.67	540.52
510.03	550.78
510.39	561.43
510.75	572.26
511.12	583.21
511.48	594.55
511.84	605.97
512.20	617.42
512.56	629.36
512.92	641.47
513.28	653.77
513.64	666.27
514.00	678.94
514.37	691.84
514.73	704.94
515.09	718.02
515.45	731.35
515.81	744.98
516.17	758.97
516.53	772.99
516.89	787.17
517.25	801.39
517.61	815.89
517.97	830.39
518.33	844.79
518.69	859.61
519.05	874.52
519.41	889.75
519.77	905.39
520.13	920.92
520.49	936.37
520.85	951.97
521.21	967.71
521.57	984.03
521.93	999.93
522.29	1016.40
522.65	1032.66
523.01	1048.95
523.37	1064.95
523.73	1081.10
524.09	1097.29
524.45	1113.73
524.81	1130.44
525.17	1147.36
525.53	1164.25
525.89	1181.23
526.25	1198.14
526.61	1214.67
526.97	1231.47
527.33	1248.04
527.68	1264.68
528.04	1281.19
528.40	1297.74
528.76	1314.79
529.12	1331.36
529.48	1348.20
529.84	1364.34
530.20	1381.14
530.56	1398.19
530.91	1415.72
531.27	1432.51
531.63	1449.08
531.99	1465.68
532.35	1481.70
532.71	1497.57
533.07	1514.01
533.42	1530.01
533.78	1546.02
534.14	1562.32
534.50	1577.82
534.86	1593.68
535.21	1608.86
535.57	1624.94
535.93	1640.53
536.29	1655.43
536.65	1670.70
537.00	1685.67
537.36	1701.00
537.72	1715.58
538.08	1730.16
538.44	1744.10
538.79	1758.23
539.15	1772.12
539.51	1786.04
539.87	1800.42
540.22	1814.20
540.58	1828.01
540.94	1841.53
541.29	1854.64
541.65	1867.48
542.01	1880.74
542.37	1893.13
542.72	1905.70
543.08	1917.49
543.44	1930.04
543.79	1941.44
544.15	1952.57
544.51	1964.21
544.87	1975.26
545.22	1985.95
545.58	1996.18
545.94	2005.92
546.29	2015.81
546.65	2025.64
547.01	2034.88
547.36	2043.67
547.72	2052.21
548.07	2059.97
548.43	2068.08
548.79	2076.13
549.14	2083.69
549.50	2090.98
549.86	2098.77
550.21	2106.05
550.57	2113.33
550.92	2119.83
551.28	2126.89
551.64	2134.01
551.99	2140.48
552.35	2146.63
552.70	2152.91
553.06	2158.70
553.41	2165.15
553.77	2171.11
554.13	2177.12
554.48	2183.18
554.84	2188.55
555.19	2193.92
555.55	2199.12
555.90	2203.50
556.26	2208.22
556.61	2212.82
556.97	2216.90
557.32	2221.01
557.68	2225.24
558.03	2229.48
558.39	2233.32
558.74	2237.92
559.10	2241.49
559.45	2244.99
559.81	2249.36
560.16	2252.97
560.52	2256.36
560.87	2259.64
561.23	2262.27
561.58	2265.35
561.94	2267.81
562.29	2270.25
562.64	2272.92
563.00	2275.42
563.35	2278.93
563.71	2282.07
564.06	2285.24
564.42	2288.19
564.77	2290.60
565.12	2292.65
565.48	2294.36
565.83	2296.10
566.19	2297.14
566.54	2298.08
566.89	2299.23
567.25	2299.68
567.60	2301.21
567.96	2302.71
568.31	2303.35
568.66	2304.34
569.02	2304.68
569.37	2305.02
569.72	2305.63
570.08	2305.46
570.43	2305.35
570.78	2304.58
571.14	2302.96
571.49	2301.50
571.84	2301.07
572.20	2299.79
572.55	2298.59
572.90	2297.10
573.26	2295.48
573.61	2293.79
573.96	2291.94
574.31	2288.81
574.67	2285.65
575.02	2281.69
575.37	2278.13
575.72	2274.33
576.08	2270.85
576.43	2267.45
576.78	2263.66
577.13	2260.50
577.49	2257.41
577.84	2253.91
578.19	2250.12
578.54	2246.27
578.90	2241.88
579.25	2236.26
579.60	2231.15
579.95	2226.09
580.30	2220.84
580.66	2215.62
581.01	2210.50
581.36	2205.36
581.71	2201.09
582.06	2196.42
582.42	2191.85
582.77	2186.47
583.12	2181.67
583.47	2176.84
583.82	2171.64
584.17	2166.12
584.53	2160.38
584.88	2154.59
585.23	2148.54
585.58	2143.02
585.93	2137.48
586.28	2132.67
586.63	2127.37
586.98	2122.04
587.34	2117.38
587.69	2112.35
588.04	2106.94
588.39	2101.08
588.74	2094.56
589.09	2088.23
589.44	2081.30
589.79	2075.11
590.14	2069.56
590.49	2063.09
590.84	2056.53
591.19	2050.39
591.54	2043.89
591.89	2036.29
592.25	2029.45
592.60	2022.15
592.95	2014.39
593.30	2006.87
593.65	1999.19
594.00	1992.16
594.35	1985.00
594.70	1976.63
595.05	1969.25
595.40	1961.83
595.75	1954.33
596.10	1947.94
596.45	1941.12
596.80	1934.86
597.15	1928.06
597.50	1920.63
597.85	1913.95
598.19	1907.30
598.54	1900.14
598.89	1893.50
599.24	1887.66
599.59	1880.75
599.94	1874.57
600.29	1868.15
600.64	1861.67
600.99	1854.11
601.34	1847.13
601.69	1840.15
602.04	1833.17
602.39	1825.84
602.74	1818.99
603.08	1812.29
603.43	1805.62
603.78	1798.26
604.13	1791.03
604.48	1783.82
604.83	1777.07
605.18	1770.10
605.53	1762.01
605.87	1753.91
606.22	1746.56
606.57	1738.67
606.92	1731.50
607.27	1724.32
607.62	1717.46
607.96	1710.03
608.31	1703.35
608.66	1695.62
609.01	1688.08
609.36	1680.71
609.70	1672.65
610.05	1664.55
610.40	1656.74
610.75	1648.39
611.10	1640.79
611.44	1632.39
611.79	1624.43
612.14	1615.71
612.49	1606.69
612.83	1598.35
613.18	1590.33
613.53	1582.31
613.88	1573.77
614.22	1565.52
614.57	1556.98
614.92	1548.87
615.27	1541.38
615.61	1533.06
615.96	1525.15
616.31	1517.47
616.65	1510.08
617.00	1502.60
617.35	1495.05
617.70	1486.70
618.04	1478.28
618.39	1470.11
618.74	1462.57
619.08	1454.32
619.43	1446.72
619.78	1439.71
620.12	1432.62
620.47	1425.08
620.82	1417.00
621.16	1409.54
621.51	1401.85
621.85	1394.19
622.20	1385.68
622.55	1377.54
622.89	1369.84
623.24	1362.29
623.59	1355.02
623.93	1347.40
624.28	1340.25
624.62	1332.64
624.97	1325.58
625.32	1318.79
625.66	1311.78
626.01	1304.64
626.35	1297.17
626.70	1289.56
627.04	1281.70
627.39	1274.01
627.73	1266.54
628.08	1259.58
628.43	1252.32
628.77	1244.98
629.12	1237.40
629.46	1230.32
629.81	1222.87
630.15	1215.63
630.50	1208.29
630.84	1200.08
631.19	1192.34
631.53	1184.85
631.88	1177.34
632.22	1169.73
632.57	1162.44
632.91	1154.94
633.26	1147.55
633.60	1140.28
633.95	1133.27
634.29	1126.40
634.64	1119.79
634.98	1112.57
635.32	1105.38
635.67	1099.02
636.01	1092.41
636.36	1085.71
636.70	1079.27
637.05	1072.58
637.39	1066.23
637.73	1059.78
638.08	1054.04
638.42	1048.19
638.77	1041.79
639.11	1035.29
639.45	1029.02
639.80	1022.38
640.14	1015.95
640.49	1009.48
640.83	1003.26
641.17	996.97
641.52	990.74
641.86	984.36
642.20	978.58
642.55	972.44
642.89	965.77
643.23	959.28
643.58	953.57
643.92	947.30
644.26	941.31
644.61	935.29
644.95	929.30
645.29	922.64
645.64	915.77
645.98	909.46
646.32	903.62
646.66	897.53
647.01	891.85
647.35	886.24
647.69	880.46
648.04	874.91
648.38	869.24
648.72	863.17
649.06	857.03
649.41	851.09
649.75	845.03
650.09	839.15
650.43	833.33
650.78	827.11
651.12	821.26
651.46	815.56
651.80	809.70
652.14	804.33
652.49	798.96
652.83	793.85
653.17	788.15
653.51	782.44
653.85	777.06
654.20	771.37
654.54	765.37
654.88	759.66
655.22	753.81
655.56	748.12
655.90	742.77
656.25	737.49
656.59	732.19
656.93	727.14
657.27	722.01
657.61	716.62
657.95	711.61
658.29	706.52
658.64	701.36
658.98	696.18
659.32	690.71
659.66	685.52
660.00	680.14
660.34	675.23
660.68	670.34
661.02	665.35
661.36	660.64
661.70	656.19
662.05	651.78
662.39	647.44
662.73	643.03
663.07	638.67
663.41	634.25
663.75	629.75
664.09	625.23
664.43	620.88
664.77	616.78
665.11	612.47
665.45	608.38
665.79	604.31
666.13	600.18
666.47	596.12
666.81	592.01
667.15	587.91
667.49	584.03
667.83	580.26
668.17	576.33
668.51	572.33
668.85	568.30
669.19	564.53
669.53	560.67
669.87	556.71
670.21	553.01
670.55	549.37
670.89	546.03
671.23	542.69
671.57	539.19
671.91	535.69
672.25	532.32
672.58	528.83
672.92	525.45
673.26	522.30
673.60	519.16
673.94	516.02
674.28	513.24
674.62	510.26
674.96	507.20
675.30	504.34
675.64	501.39
675.97	498.65
676.31	495.76
676.65	492.89
676.99	490.22
677.33	487.36
677.67	484.63
678.01	481.53
678.34	478.49
678.68	475.64
679.02	472.85
679.36	470.11
679.70	467.37
680.04	464.56
680.37	461.69
680.71	458.91
681.05	456.35
681.39	453.65
681.73	451.05
682.06	448.53
682.40	445.98
682.74	443.50
683.08	440.94
683.42	438.35
683.75	435.93
684.09	433.42
684.43	431.02
684.77	428.55
685.10	426.33
685.44	424.08
685.78	421.84
686.12	419.65
686.45	417.37
686.79	415.14
687.13	413.02
687.46	410.90
687.80	408.79
688.14	406.54
688.48	404.49
688.81	402.32
689.15	400.19
689.49	398.06
689.82	396.02
690.16	393.94
690.50	392.04
690.83	390.08
691.17	388.12
691.51	386.22
691.84	384.42
692.18	382.43
692.52	380.43
692.85	378.55
693.19	376.63
693.52	374.79
693.86	372.98
694.20	371.18
694.53	369.42
694.87	367.58
695.21	365.84
695.54	364.02
695.88	362.23
696.21	360.49
696.55	358.82
696.88	357.17
697.22	355.55
697.56	353.93
697.89	352.26
698.23	350.64
698.56	349.04
698.90	347.44
699.23	345.80
699.57	344.32
699.90	342.75
700.24	341.21
700.58	339.67
700.91	338.15
701.25	336.73
701.58	335.34
701.92	333.97
702.25	332.60
702.59	331.22
702.92	329.94
703.26	328.66
703.59	327.39
703.93	326.18
704.26	324.93
704.60	323.67
704.93	322.43
705.26	321.22
705.60	320.02
705.93	318.86
706.27	317.82
706.60	316.72
706.94	315.67
707.27	314.55
707.61	313.52
707.94	312.50
708.27	311.42
708.61	310.35
708.94	309.36
709.28	308.38
709.61	307.44
709.94	306.47
710.28	305.48
710.61	304.50
710.95	303.44
711.28	302.53
711.61	301.57
711.95	300.68
712.28	299.75
712.61	298.79
712.95	297.88
713.28	297.05
713.61	296.17
713.95	295.23
714.28	294.42
714.61	293.59
714.95	292.78
715.28	291.93
715.61	291.06
715.95	290.22
716.28	289.41
716.61	288.60
716.95	287.80
717.28	287.05
717.61	286.28
717.94	285.57
718.28	284.78
718.61	284.07
718.94	283.39
719.27	282.71
719.61	282.06
719.94	281.41
720.27	280.67
720.60	280.04
720.94	279.43
721.27	278.86
721.60	278.26
721.93	277.65
722.27	277.10
722.60	276.53
722.93	275.98
723.26	275.44
723.59	274.89
723.93	274.36
724.26	273.81
724.59	273.27
724.92	272.74
725.25	272.23
725.59	271.70
725.92	271.17
726.25	270.69
726.58	270.20
726.91	269.71
727.24	269.31
727.57	268.82
727.91	268.32
728.24	267.83
728.57	267.32
728.90	266.88
729.23	266.40
729.56	265.99
729.89	265.52
730.22	265.02
730.55	264.56
730.89	264.12
731.22	263.64
731.55	263.21
731.88	262.77
732.21	262.36
732.54	261.94
732.87	261.53
733.20	261.11
733.53	260.74
733.86	260.38
734.19	259.93
734.52	259.57
734.85	259.26
735.18	258.86
735.51	258.55
735.84	258.17
736.17	257.81
736.50	257.39
736.83	257.14
737.16	256.84
737.49	256.52
737.82	256.16
738.15	255.84
738.48	255.47
738.81	255.15
739.14	254.85
739.47	254.53
739.80	254.21
740.13	253.91
740.46	253.57
740.79	253.23
741.12	252.91
741.45	252.55
741.78	252.18
742.11	251.90
742.44	251.56
742.77	251.23
743.10	250.91
743.43	250.64
743.75	250.25
744.08	250.08
744.41	249.78
744.74	249.51
745.07	249.23
745.40	249.03
745.73	248.82
746.06	248.52
746.39	248.28
746.71	248.01
747.04	247.73
747.37	247.46
747.70	247.20
748.03	246.97
748.36	246.76
748.68	246.54
749.01	246.27
749.34	246.04
749.67	245.83
750.00	245.64
750.33	245.46
750.65	245.26
750.98	244.90
751.31	244.69
751.64	244.46
751.97	244.32
752.29	244.07
752.62	243.82
752.95	243.62
753.28	243.40
753.60	243.20
753.93	243.05
754.26	242.89
754.59	242.70
754.91	242.49
755.24	242.31
755.57	242.13
755.90	241.97
756.22	241.83
756.55	241.69
756.88	241.50
757.20	241.25
757.53	241.05
757.86	240.92
758.19	240.72
758.51	240.59
758.84	240.39
759.17	240.26
759.49	240.09
759.82	240.02
760.15	239.89
760.47	239.78
760.80	239.63
761.13	239.46
761.45	239.31
761.78	239.18
762.11	239.02
762.43	238.88
762.76	238.73
763.08	238.59
763.41	238.43
763.74	238.29
764.06	238.20
764.39	238.09
764.71	237.97
765.04	237.90
765.37	237.78
765.69	237.65
766.02	237.50
766.34	237.40
766.67	237.22
767.00	237.12
767.32	237.03
767.65	236.95
767.97	236.86
768.30	236.76
768.62	236.65
768.95	236.55
769.27	236.45
769.60	236.36
769.92	236.22
770.25	236.10
770.57	236.00
770.90	235.88
771.22	235.75
771.55	235.63
771.87	235.53
772.20	235.43
772.52	235.39
772.85	235.41
773.17	235.30
773.50	235.21
773.82	235.04
774.15	234.90
774.47	234.76
774.80	234.63
775.12	234.52
775.45	234.44
775.77	234.32
776.09	234.19
776.42	234.11
776.74	234.06
777.07	233.96
777.39	233.87
777.72	233.79
778.04	233.70
778.36	233.61
778.69	233.52
779.01	233.44
779.33	233.27
779.66	233.10
779.98	233.00
780.31	232.93
780.63	232.91
780.95	232.86
781.28	232.77
781.60	232.70
781.92	232.63
782.25	232.55
782.57	232.50
782.89	232.46
783.22	232.36
783.54	232.26
783.86	232.19
784.19	232.11
784.51	232.09
784.83	232.06
785.16	232.03
785.48	231.97
785.80	231.91
786.12	231.90
786.45	231.84
786.77	231.83
787.09	231.78
