SpectraSuite Data File
++++++++++++++++++++++++++++++++++++
Date: Fri Feb 01 15:05:53 EST 2013
User: group
Dark Spectrum Present: No
Reference Spectrum Present: No
Number of Sampled Component Spectra: 1
Spectrometers: USB2E7196
Integration Time (usec): 35000 (USB2E7196)
Spectra Averaged: 100 (USB2E7196)
Boxcar Smoothing: 10 (USB2E7196)
Correct for Electrical Dark: No (USB2E7196)
Strobe/Lamp Enabled: No (USB2E7196)
Correct for Detector Non-linearity: No (USB2E7196)
Correct for Stray Light: No (USB2E7196)
Number of Pixels in Processed Spectrum: 2048
>>>>>Begin Processed Spectral Data<<<<<
339.09	0.00
339.48	215.42
339.86	216.86
340.24	217.75
340.63	219.89
341.01	222.44
341.39	221.34
341.78	223.49
342.16	224.62
342.54	225.11
342.93	213.51
343.31	224.30
343.69	224.85
344.07	225.29
344.46	225.73
344.84	226.04
345.22	226.26
345.60	226.57
345.99	226.74
346.37	226.88
346.75	226.97
347.13	227.04
347.52	227.04
347.90	227.11
348.28	227.14
348.66	227.18
349.05	227.20
349.43	227.24
349.81	227.25
350.19	227.32
350.57	227.37
350.96	227.44
351.34	227.50
351.72	227.56
352.10	227.63
352.48	227.71
352.87	227.79
353.25	227.86
353.63	227.88
354.01	227.96
354.39	228.03
354.77	228.11
355.15	228.18
355.54	228.28
355.92	228.30
356.30	228.41
356.68	228.52
357.06	228.57
357.44	228.61
357.82	228.67
358.20	228.72
358.58	228.76
358.97	228.80
359.35	228.87
359.73	228.93
360.11	229.00
360.49	229.04
360.87	229.09
361.25	229.12
361.63	229.21
362.01	229.24
362.39	229.25
362.77	229.30
363.15	229.33
363.53	229.33
363.91	229.38
364.29	229.38
364.67	229.29
365.05	229.31
365.43	229.32
365.81	229.40
366.19	229.42
366.57	229.49
366.95	229.49
367.33	229.47
367.71	229.46
368.09	229.48
368.47	229.46
368.85	229.45
369.23	229.42
369.61	229.35
369.99	229.32
370.37	229.28
370.75	229.27
371.13	229.22
371.51	229.17
371.89	229.11
372.27	229.08
372.65	229.05
373.03	228.98
373.41	228.93
373.78	228.85
374.16	228.74
374.54	228.63
374.92	228.58
375.30	228.54
375.68	228.46
376.06	228.39
376.44	228.28
376.82	228.19
377.19	228.17
377.57	228.10
377.95	228.01
378.33	227.94
378.71	227.81
379.09	227.72
379.47	227.68
379.84	227.60
380.22	227.49
380.60	227.40
380.98	227.32
381.36	227.24
381.73	227.14
382.11	227.09
382.49	227.03
382.87	226.93
383.25	226.85
383.62	226.87
384.00	226.79
384.38	226.75
384.76	226.68
385.13	226.64
385.51	226.58
385.89	226.55
386.27	226.53
386.64	226.50
387.02	226.45
387.40	226.39
387.78	226.35
388.15	226.32
388.53	226.29
388.91	226.29
389.29	226.24
389.66	226.24
390.04	226.23
390.42	226.22
390.79	226.23
391.17	226.18
391.55	226.11
391.92	226.09
392.30	226.11
392.68	226.12
393.05	226.12
393.43	226.14
393.81	226.17
394.18	226.15
394.56	226.14
394.94	226.20
395.31	226.24
395.69	226.34
396.06	226.39
396.44	226.43
396.82	226.45
397.19	226.57
397.57	226.58
397.95	226.64
398.32	226.69
398.70	226.74
399.07	226.88
399.45	226.92
399.82	227.00
400.20	227.04
400.58	227.16
400.95	227.20
401.33	227.32
401.70	227.49
402.08	227.62
402.45	227.74
402.83	227.85
403.20	227.97
403.58	228.05
403.95	228.20
404.33	228.32
404.71	228.47
405.08	228.65
405.46	228.79
405.83	228.95
406.21	229.09
406.58	229.27
406.96	229.41
407.33	229.61
407.70	229.83
408.08	230.11
408.45	230.31
408.83	230.54
409.20	230.71
409.58	230.87
409.95	231.11
410.33	231.35
410.70	231.61
411.08	231.88
411.45	232.20
411.82	232.50
412.20	232.85
412.57	233.25
412.95	233.52
413.32	233.95
413.69	234.35
414.07	234.81
414.44	235.25
414.82	235.74
415.19	236.28
415.56	236.83
415.94	237.38
416.31	238.04
416.68	238.69
417.06	239.44
417.43	240.15
417.81	240.92
418.18	241.74
418.55	242.58
418.93	243.44
419.30	244.33
419.67	245.26
420.04	246.23
420.42	247.18
420.79	248.37
421.16	249.54
421.54	250.74
421.91	251.94
422.28	253.21
422.66	254.53
423.03	255.82
423.40	257.15
423.77	258.56
424.15	259.96
424.52	261.44
424.89	263.05
425.26	264.56
425.64	266.03
426.01	267.62
426.38	269.28
426.75	270.97
427.13	272.69
427.50	274.50
427.87	276.38
428.24	278.26
428.61	280.03
428.99	281.99
429.36	284.09
429.73	286.14
430.10	288.17
430.47	290.25
430.85	292.41
431.22	294.65
431.59	297.04
431.96	299.32
432.33	301.83
432.70	304.20
433.08	307.02
433.45	309.68
433.82	312.30
434.19	315.18
434.56	318.01
434.93	320.72
435.30	323.33
435.68	326.25
436.05	329.10
436.42	331.90
436.79	334.37
437.16	337.08
437.53	339.93
437.90	342.75
438.27	345.52
438.64	348.37
439.01	350.98
439.38	353.24
439.75	355.44
440.13	357.93
440.50	360.26
440.87	362.15
441.24	364.04
441.61	366.26
441.98	367.75
442.35	369.56
442.72	371.40
443.09	373.21
443.46	374.20
443.83	374.83
444.20	375.35
444.57	376.22
444.94	376.51
445.31	376.86
445.68	377.23
446.05	377.26
446.42	376.82
446.79	376.43
447.16	375.93
447.53	375.54
447.90	374.35
448.27	373.23
448.64	371.68
449.01	370.55
449.37	368.49
449.74	366.60
450.11	364.32
450.48	361.87
450.85	359.35
451.22	357.23
451.59	355.18
451.96	353.19
452.33	350.58
452.70	348.24
453.07	345.41
453.43	342.50
453.80	339.71
454.17	337.07
454.54	334.49
454.91	331.80
455.28	329.16
455.65	326.73
456.02	324.24
456.38	322.02
456.75	319.37
457.12	317.16
457.49	314.94
457.86	312.76
458.23	310.91
458.59	308.84
458.96	306.74
459.33	304.85
459.70	303.02
460.07	301.53
460.43	299.76
460.80	298.14
461.17	296.71
461.54	295.21
461.91	293.75
462.27	292.30
462.64	291.03
463.01	289.65
463.38	288.34
463.74	286.97
464.11	285.84
464.48	284.80
464.85	283.68
465.21	282.79
465.58	281.91
465.95	280.79
466.32	279.90
466.68	278.98
467.05	278.08
467.42	277.20
467.78	276.26
468.15	275.41
468.52	274.71
468.88	273.77
469.25	273.01
469.62	272.39
469.98	271.72
470.35	271.11
470.72	270.52
471.08	269.80
471.45	269.27
471.82	268.69
472.18	268.07
472.55	267.59
472.92	267.08
473.28	266.55
473.65	266.10
474.02	265.63
474.38	265.26
474.75	264.92
475.11	264.52
475.48	264.23
475.85	263.98
476.21	263.73
476.58	263.59
476.94	263.45
477.31	263.29
477.67	263.12
478.04	262.99
478.41	262.88
478.77	262.94
479.14	262.86
479.50	262.84
479.87	262.92
480.23	263.04
480.60	263.09
480.96	263.18
481.33	263.40
481.69	263.60
482.06	263.78
482.42	264.01
482.79	264.28
483.15	264.60
483.52	264.99
483.88	265.34
484.25	265.72
484.61	266.14
484.98	266.56
485.34	267.13
485.71	267.68
486.07	268.31
486.44	268.86
486.80	269.54
487.17	270.29
487.53	271.10
487.90	271.91
488.26	272.84
488.62	273.85
488.99	274.79
489.35	275.78
489.72	276.91
490.08	278.10
490.44	279.34
490.81	280.68
491.17	282.01
491.54	283.49
491.90	284.99
492.26	286.63
492.63	288.35
492.99	290.08
493.36	291.98
493.72	293.98
494.08	296.04
494.45	298.28
494.81	300.64
495.17	303.05
495.54	305.66
495.90	308.29
496.26	311.06
496.63	313.98
496.99	317.08
497.35	320.30
497.72	323.68
498.08	327.17
498.44	330.79
498.80	334.68
499.17	338.72
499.53	342.84
499.89	347.15
500.26	351.64
500.62	356.31
500.98	361.29
501.34	366.37
501.71	371.75
502.07	377.17
502.43	382.78
502.79	388.57
503.16	394.62
503.52	400.89
503.88	407.33
504.24	413.99
504.60	420.85
504.97	427.95
505.33	435.26
505.69	442.96
506.05	450.77
506.41	458.57
506.78	466.64
507.14	475.13
507.50	483.89
507.86	492.89
508.22	502.05
508.59	511.26
508.95	520.90
509.31	530.62
509.67	540.65
510.03	550.87
510.39	561.46
510.75	572.19
511.12	583.17
511.48	594.38
511.84	605.84
512.20	617.36
512.56	629.31
512.92	641.49
513.28	653.75
513.64	666.14
514.00	678.89
514.37	691.87
514.73	704.82
515.09	717.84
515.45	731.12
515.81	744.75
516.17	758.74
516.53	772.80
516.89	786.96
517.25	801.16
517.61	815.72
517.97	830.11
518.33	844.62
518.69	859.33
519.05	874.43
519.41	889.61
519.77	905.17
520.13	920.71
520.49	936.20
520.85	951.78
521.21	967.57
521.57	983.94
521.93	999.79
522.29	1016.37
522.65	1032.66
523.01	1048.88
523.37	1064.92
523.73	1081.08
524.09	1097.25
524.45	1113.66
524.81	1130.40
525.17	1147.23
525.53	1164.34
525.89	1181.24
526.25	1198.09
526.61	1214.42
526.97	1231.24
527.33	1247.85
527.68	1264.47
528.04	1280.92
528.40	1297.52
528.76	1314.67
529.12	1331.24
529.48	1348.23
529.84	1364.27
530.20	1381.00
530.56	1398.22
530.91	1415.80
531.27	1432.68
531.63	1449.20
531.99	1465.86
532.35	1481.87
532.71	1497.74
533.07	1513.98
533.42	1529.86
533.78	1545.97
534.14	1562.44
534.50	1577.69
534.86	1593.58
535.21	1608.80
535.57	1624.87
535.93	1640.45
536.29	1655.37
536.65	1670.56
537.00	1685.51
537.36	1700.93
537.72	1715.57
538.08	1730.00
538.44	1743.76
538.79	1757.72
539.15	1771.54
539.51	1785.50
539.87	1800.01
540.22	1813.84
540.58	1827.70
540.94	1841.35
541.29	1854.36
541.65	1867.11
542.01	1880.63
542.37	1892.90
542.72	1905.47
543.08	1917.35
543.44	1929.79
543.79	1941.04
544.15	1952.08
544.51	1963.52
544.87	1974.53
545.22	1985.40
545.58	1995.57
545.94	2005.38
546.29	2015.43
546.65	2025.19
547.01	2034.31
547.36	2043.04
547.72	2051.55
548.07	2059.47
548.43	2067.66
548.79	2075.75
549.14	2083.30
549.50	2090.66
549.86	2098.62
550.21	2105.93
550.57	2112.97
550.92	2119.60
551.28	2126.77
551.64	2133.83
551.99	2140.45
552.35	2146.51
552.70	2152.52
553.06	2158.53
553.41	2164.99
553.77	2170.92
554.13	2177.11
554.48	2183.17
554.84	2188.52
555.19	2193.97
555.55	2198.93
555.90	2203.24
556.26	2208.18
556.61	2212.90
556.97	2217.04
557.32	2221.15
557.68	2225.23
558.03	2229.55
558.39	2233.36
558.74	2237.87
559.10	2241.58
559.45	2245.20
559.81	2249.65
560.16	2253.45
560.52	2256.56
560.87	2259.87
561.23	2262.41
561.58	2265.27
561.94	2267.85
562.29	2270.33
562.64	2272.85
563.00	2275.59
563.35	2279.16
563.71	2282.11
564.06	2285.20
564.42	2288.02
564.77	2290.27
565.12	2292.42
565.48	2293.98
565.83	2295.48
566.19	2296.59
566.54	2297.63
566.89	2298.63
567.25	2298.94
567.60	2300.23
567.96	2301.92
568.31	2302.61
568.66	2303.65
569.02	2304.04
569.37	2304.26
569.72	2304.84
570.08	2304.76
570.43	2304.61
570.78	2303.69
571.14	2302.05
571.49	2300.58
571.84	2300.02
572.20	2298.76
572.55	2297.68
572.90	2296.24
573.26	2294.77
573.61	2293.04
573.96	2291.04
574.31	2287.81
574.67	2284.67
575.02	2280.89
575.37	2277.46
575.72	2273.46
576.08	2269.97
576.43	2266.75
576.78	2263.05
577.13	2259.90
577.49	2256.78
577.84	2253.19
578.19	2249.17
578.54	2245.32
578.90	2240.81
579.25	2235.33
579.60	2230.31
579.95	2225.20
580.30	2220.03
580.66	2214.86
581.01	2209.77
581.36	2204.71
581.71	2200.57
582.06	2196.11
582.42	2191.58
582.77	2186.14
583.12	2181.43
583.47	2176.43
583.82	2171.03
584.17	2165.61
584.53	2159.93
584.88	2154.02
585.23	2148.01
585.58	2142.63
585.93	2137.09
586.28	2132.42
586.63	2127.09
586.98	2121.90
587.34	2116.96
587.69	2112.09
588.04	2106.68
588.39	2100.92
588.74	2094.44
589.09	2088.17
589.44	2081.16
589.79	2075.07
590.14	2069.43
590.49	2062.77
590.84	2056.44
591.19	2050.30
591.54	2043.73
591.89	2036.13
592.25	2029.32
592.60	2022.18
592.95	2014.55
593.30	2007.10
593.65	1999.33
594.00	1992.24
594.35	1984.88
594.70	1976.93
595.05	1969.58
595.40	1962.19
595.75	1954.63
596.10	1948.24
596.45	1941.29
596.80	1935.18
597.15	1928.53
597.50	1921.29
597.85	1914.98
598.19	1908.18
598.54	1901.20
598.89	1894.53
599.24	1888.61
599.59	1881.83
599.94	1875.41
600.29	1869.07
600.64	1862.52
600.99	1855.02
601.34	1848.11
601.69	1841.18
602.04	1834.09
602.39	1826.61
602.74	1819.79
603.08	1813.02
603.43	1806.22
603.78	1798.96
604.13	1791.58
604.48	1784.11
604.83	1777.39
605.18	1770.28
605.53	1762.29
605.87	1754.23
606.22	1746.88
606.57	1738.95
606.92	1731.66
607.27	1724.44
607.62	1717.37
607.96	1709.99
608.31	1703.53
608.66	1695.87
609.01	1688.25
609.36	1680.72
609.70	1672.80
610.05	1664.77
610.40	1657.09
610.75	1648.82
611.10	1641.20
611.44	1632.91
611.79	1625.03
612.14	1616.25
612.49	1607.12
612.83	1598.79
613.18	1590.68
613.53	1582.69
613.88	1574.24
614.22	1566.01
614.57	1557.55
614.92	1549.63
615.27	1542.04
615.61	1533.63
615.96	1525.67
616.31	1518.12
616.65	1510.83
617.00	1503.26
617.35	1495.48
617.70	1487.07
618.04	1478.50
618.39	1470.24
618.74	1462.66
619.08	1454.25
619.43	1446.71
619.78	1439.88
620.12	1432.69
620.47	1425.11
620.82	1416.89
621.16	1409.47
621.51	1401.86
621.85	1394.31
622.20	1385.77
622.55	1377.53
622.89	1369.68
623.24	1362.13
623.59	1354.83
623.93	1347.22
624.28	1340.03
624.62	1332.63
624.97	1325.53
625.32	1318.92
625.66	1311.95
626.01	1304.73
626.35	1297.30
626.70	1289.57
627.04	1281.83
627.39	1274.21
627.73	1266.90
628.08	1260.02
628.43	1252.73
628.77	1245.38
629.12	1237.79
629.46	1230.62
629.81	1223.39
630.15	1216.17
630.50	1208.85
630.84	1200.60
631.19	1192.82
631.53	1185.35
631.88	1177.82
632.22	1170.29
632.57	1163.01
632.91	1155.58
633.26	1148.24
633.60	1140.98
633.95	1133.93
634.29	1126.95
634.64	1120.25
634.98	1112.85
635.32	1105.88
635.67	1099.37
636.01	1092.78
636.36	1086.04
636.70	1079.71
637.05	1073.12
637.39	1066.70
637.73	1060.22
638.08	1054.45
638.42	1048.47
638.77	1042.00
639.11	1035.41
639.45	1029.06
639.80	1022.28
640.14	1015.85
640.49	1009.34
640.83	1003.04
641.17	996.81
641.52	990.48
641.86	984.12
642.20	978.44
642.55	972.14
642.89	965.61
643.23	959.12
643.58	953.30
643.92	947.03
644.26	940.93
644.61	935.01
644.95	928.95
645.29	922.31
645.64	915.55
645.98	909.31
646.32	903.53
646.66	897.53
647.01	891.79
647.35	886.14
647.69	880.34
648.04	874.94
648.38	869.13
648.72	863.13
649.06	857.02
649.41	851.13
649.75	845.13
650.09	839.25
650.43	833.46
650.78	827.37
651.12	821.51
651.46	815.83
651.80	810.00
652.14	804.66
652.49	799.32
652.83	794.19
653.17	788.47
653.51	782.73
653.85	777.40
654.20	771.81
654.54	765.80
654.88	760.07
655.22	754.08
655.56	748.40
655.90	743.00
656.25	737.82
656.59	732.42
656.93	727.41
657.27	722.20
657.61	716.84
657.95	711.77
658.29	706.71
658.64	701.46
658.98	696.17
659.32	690.77
659.66	685.57
660.00	680.24
660.34	675.36
660.68	670.51
661.02	665.43
661.36	660.80
661.70	656.36
662.05	652.00
662.39	647.79
662.73	643.45
663.07	639.12
663.41	634.66
663.75	630.18
664.09	625.55
664.43	621.32
664.77	617.22
665.11	612.95
665.45	608.76
665.79	604.69
666.13	600.61
666.47	596.50
666.81	592.35
667.15	588.28
667.49	584.38
667.83	580.63
668.17	576.74
668.51	572.66
668.85	568.58
669.19	564.76
669.53	560.91
669.87	557.01
670.21	553.34
670.55	549.69
670.89	546.30
671.23	542.87
671.57	539.29
671.91	535.71
672.25	532.20
672.58	528.74
672.92	525.43
673.26	522.32
673.60	519.21
673.94	516.16
674.28	513.30
674.62	510.39
674.96	507.25
675.30	504.34
675.64	501.44
675.97	498.75
676.31	495.92
676.65	493.02
676.99	490.33
677.33	487.42
677.67	484.66
678.01	481.69
678.34	478.67
678.68	475.86
679.02	473.13
679.36	470.48
679.70	467.75
680.04	464.94
680.37	462.09
680.71	459.34
681.05	456.75
681.39	454.04
681.73	451.37
682.06	448.89
682.40	446.40
682.74	443.95
683.08	441.41
683.42	438.88
683.75	436.39
684.09	433.89
684.43	431.48
684.77	429.05
685.10	426.74
685.44	424.55
685.78	422.30
686.12	420.04
686.45	417.79
686.79	415.54
687.13	413.41
687.46	411.26
687.80	409.11
688.14	406.91
688.48	404.88
688.81	402.68
689.15	400.53
689.49	398.38
689.82	396.29
690.16	394.19
690.50	392.20
690.83	390.24
691.17	388.22
691.51	386.33
691.84	384.51
692.18	382.55
692.52	380.59
692.85	378.66
693.19	376.79
693.52	374.95
693.86	373.17
694.20	371.38
694.53	369.57
694.87	367.74
695.21	365.91
695.54	364.05
695.88	362.32
696.21	360.60
696.55	358.93
696.88	357.24
697.22	355.60
697.56	354.00
697.89	352.38
698.23	350.79
698.56	349.13
698.90	347.49
699.23	345.83
699.57	344.26
699.90	342.74
700.24	341.19
700.58	339.67
700.91	338.13
701.25	336.74
701.58	335.35
701.92	334.00
702.25	332.65
702.59	331.32
702.92	329.99
703.26	328.69
703.59	327.42
703.93	326.23
704.26	324.99
704.60	323.67
704.93	322.42
705.26	321.18
705.60	320.04
705.93	318.88
706.27	317.86
706.60	316.80
706.94	315.73
707.27	314.61
707.61	313.55
707.94	312.52
708.27	311.42
708.61	310.36
708.94	309.36
709.28	308.37
709.61	307.42
709.94	306.49
710.28	305.44
710.61	304.46
710.95	303.38
711.28	302.50
711.61	301.56
711.95	300.62
712.28	299.70
712.61	298.70
712.95	297.77
713.28	296.91
713.61	296.02
713.95	295.12
714.28	294.31
714.61	293.45
714.95	292.64
715.28	291.81
715.61	290.95
715.95	290.09
716.28	289.23
716.61	288.40
716.95	287.59
717.28	286.87
717.61	286.06
717.94	285.39
718.28	284.58
718.61	283.90
718.94	283.19
719.27	282.52
719.61	281.92
719.94	281.29
720.27	280.57
720.60	279.94
720.94	279.31
721.27	278.71
721.60	278.14
721.93	277.53
722.27	277.00
722.60	276.47
722.93	275.91
723.26	275.41
723.59	274.84
723.93	274.28
724.26	273.76
724.59	273.29
724.92	272.74
725.25	272.23
725.59	271.70
725.92	271.24
726.25	270.74
726.58	270.24
726.91	269.74
727.24	269.26
727.57	268.82
727.91	268.33
728.24	267.84
728.57	267.35
728.90	266.95
729.23	266.46
729.56	266.04
729.89	265.60
730.22	265.11
730.55	264.68
730.89	264.30
731.22	263.84
731.55	263.36
731.88	262.94
732.21	262.54
732.54	262.11
732.87	261.68
733.20	261.28
733.53	260.88
733.86	260.50
734.19	260.10
734.52	259.66
734.85	259.33
735.18	258.94
735.51	258.60
735.84	258.19
736.17	257.83
736.50	257.41
736.83	257.14
737.16	256.83
737.49	256.48
737.82	256.10
738.15	255.78
738.48	255.40
738.81	255.05
739.14	254.71
739.47	254.39
739.80	254.08
740.13	253.77
740.46	253.45
740.79	253.12
741.12	252.84
741.45	252.51
741.78	252.18
742.11	251.86
742.44	251.53
742.77	251.23
743.10	250.90
743.43	250.63
743.75	250.25
744.08	250.08
744.41	249.82
744.74	249.55
745.07	249.24
745.40	249.02
745.73	248.79
746.06	248.49
746.39	248.24
746.71	247.96
747.04	247.69
747.37	247.43
747.70	247.20
748.03	246.93
748.36	246.73
748.68	246.48
749.01	246.21
749.34	245.97
749.67	245.73
750.00	245.50
750.33	245.32
750.65	245.07
750.98	244.70
751.31	244.44
751.64	244.22
751.97	244.07
752.29	243.84
752.62	243.57
752.95	243.38
753.28	243.16
753.60	242.95
753.93	242.79
754.26	242.57
754.59	242.35
754.91	242.14
755.24	241.94
755.57	241.75
755.90	241.57
756.22	241.40
756.55	241.20
756.88	240.99
757.20	240.72
757.53	240.58
757.86	240.44
758.19	240.29
758.51	240.13
758.84	239.93
759.17	239.78
759.49	239.64
759.82	239.53
760.15	239.40
760.47	239.25
760.80	239.05
761.13	238.96
761.45	238.81
761.78	238.69
762.11	238.55
762.43	238.43
762.76	238.29
763.08	238.17
763.41	238.09
763.74	237.98
764.06	237.85
764.39	237.69
764.71	237.58
765.04	237.48
765.37	237.36
765.69	237.24
766.02	237.09
766.34	236.98
766.67	236.83
767.00	236.75
767.32	236.71
767.65	236.67
767.97	236.55
768.30	236.45
768.62	236.35
768.95	236.24
769.27	236.14
769.60	236.08
769.92	235.98
770.25	235.84
770.57	235.75
770.90	235.69
771.22	235.63
771.55	235.52
771.87	235.41
772.20	235.31
772.52	235.32
772.85	235.40
773.17	235.31
773.50	235.23
773.82	235.09
774.15	234.95
774.47	234.81
774.80	234.72
775.12	234.65
775.45	234.55
775.77	234.50
776.09	234.44
776.42	234.33
776.74	234.26
777.07	234.19
777.39	234.08
777.72	234.00
778.04	233.94
778.36	233.86
778.69	233.83
779.01	233.77
779.33	233.63
779.66	233.45
779.98	233.37
780.31	233.30
780.63	233.28
780.95	233.23
781.28	233.14
781.60	233.07
781.92	233.00
782.25	232.91
782.57	232.85
782.89	232.73
783.22	232.68
783.54	232.59
783.86	232.52
784.19	232.46
784.51	232.44
784.83	232.37
785.16	232.30
785.48	232.21
785.80	232.15
786.12	232.06
786.45	232.00
786.77	231.94
787.09	231.88
