SpectraSuite Data File
++++++++++++++++++++++++++++++++++++
Date: Fri Feb 01 17:58:31 EST 2013
User: group
Dark Spectrum Present: No
Reference Spectrum Present: No
Number of Sampled Component Spectra: 1
Spectrometers: USB2E7196
Integration Time (usec): 35000 (USB2E7196)
Spectra Averaged: 100 (USB2E7196)
Boxcar Smoothing: 10 (USB2E7196)
Correct for Electrical Dark: No (USB2E7196)
Strobe/Lamp Enabled: No (USB2E7196)
Correct for Detector Non-linearity: No (USB2E7196)
Correct for Stray Light: No (USB2E7196)
Number of Pixels in Processed Spectrum: 2048
>>>>>Begin Processed Spectral Data<<<<<
339.09	0.00
339.48	212.61
339.86	214.06
340.24	215.29
340.63	216.61
341.01	220.07
341.39	219.57
341.78	221.30
342.16	222.24
342.54	222.60
342.93	211.15
343.31	221.83
343.69	222.36
344.07	222.82
344.46	223.26
344.84	223.67
345.22	223.90
345.60	224.14
345.99	224.34
346.37	224.47
346.75	224.59
347.13	224.63
347.52	224.73
347.90	224.81
348.28	224.85
348.66	224.86
349.05	224.85
349.43	224.88
349.81	224.91
350.19	224.97
350.57	224.99
350.96	225.09
351.34	225.19
351.72	225.28
352.10	225.39
352.48	225.45
352.87	225.47
353.25	225.53
353.63	225.62
354.01	225.66
354.39	225.74
354.77	225.79
355.15	225.92
355.54	225.96
355.92	225.99
356.30	226.04
356.68	226.19
357.06	226.28
357.44	226.33
357.82	226.44
358.20	226.53
358.58	226.61
358.97	226.68
359.35	226.74
359.73	226.86
360.11	226.91
360.49	227.01
360.87	227.09
361.25	227.17
361.63	227.22
362.01	227.27
362.39	227.27
362.77	227.35
363.15	227.36
363.53	227.41
363.91	227.45
364.29	227.48
364.67	227.43
365.05	227.45
365.43	227.46
365.81	227.48
366.19	227.53
366.57	227.57
366.95	227.56
367.33	227.53
367.71	227.51
368.09	227.52
368.47	227.48
368.85	227.48
369.23	227.48
369.61	227.45
369.99	227.45
370.37	227.48
370.75	227.50
371.13	227.45
371.51	227.40
371.89	227.37
372.27	227.36
372.65	227.32
373.03	227.27
373.41	227.25
373.78	227.16
374.16	227.06
374.54	226.98
374.92	226.91
375.30	226.83
375.68	226.73
376.06	226.67
376.44	226.61
376.82	226.53
377.19	226.46
377.57	226.39
377.95	226.31
378.33	226.21
378.71	226.06
379.09	226.02
379.47	225.98
379.84	225.93
380.22	225.86
380.60	225.81
380.98	225.76
381.36	225.68
381.73	225.61
382.11	225.55
382.49	225.49
382.87	225.43
383.25	225.42
383.62	225.49
384.00	225.41
384.38	225.36
384.76	225.33
385.13	225.30
385.51	225.24
385.89	225.17
386.27	225.15
386.64	225.14
387.02	225.09
387.40	225.02
387.78	224.94
388.15	224.89
388.53	224.86
388.91	224.83
389.29	224.81
389.66	224.83
390.04	224.79
390.42	224.78
390.79	224.77
391.17	224.74
391.55	224.59
391.92	224.62
392.30	224.63
392.68	224.60
393.05	224.61
393.43	224.63
393.81	224.66
394.18	224.63
394.56	224.64
394.94	224.67
395.31	224.67
395.69	224.77
396.06	224.80
396.44	224.80
396.82	224.84
397.19	224.92
397.57	224.94
397.95	224.98
398.32	224.97
398.70	225.03
399.07	225.10
399.45	225.18
399.82	225.21
400.20	225.23
400.58	225.32
400.95	225.33
401.33	225.41
401.70	225.58
402.08	225.71
402.45	225.80
402.83	225.90
403.20	226.02
403.58	226.12
403.95	226.26
404.33	226.41
404.71	226.54
405.08	226.73
405.46	226.88
405.83	227.07
406.21	227.27
406.58	227.48
406.96	227.70
407.33	227.91
407.70	228.14
408.08	228.50
408.45	228.78
408.83	229.09
409.20	229.37
409.58	229.59
409.95	229.89
410.33	230.23
410.70	230.57
411.08	230.97
411.45	231.38
411.82	231.76
412.20	232.22
412.57	232.73
412.95	233.15
413.32	233.69
413.69	234.27
414.07	234.86
414.44	235.48
414.82	236.07
415.19	236.80
415.56	237.56
415.94	238.27
416.31	239.10
416.68	239.91
417.06	240.88
417.43	241.77
417.81	242.80
418.18	243.84
418.55	244.95
418.93	246.11
419.30	247.28
419.67	248.54
420.04	249.82
420.42	251.17
420.79	252.69
421.16	254.21
421.54	255.74
421.91	257.37
422.28	259.04
422.66	260.83
423.03	262.56
423.40	264.33
423.77	266.25
424.15	268.17
424.52	270.18
424.89	272.32
425.26	274.45
425.64	276.42
426.01	278.58
426.38	280.78
426.75	283.02
427.13	285.36
427.50	287.83
427.87	290.34
428.24	292.87
428.61	295.23
428.99	297.89
429.36	300.75
429.73	303.54
430.10	306.27
430.47	309.01
430.85	311.88
431.22	314.90
431.59	318.06
431.96	321.06
432.33	324.38
432.70	327.59
433.08	331.32
433.45	334.84
433.82	338.27
434.19	342.16
434.56	345.94
434.93	349.49
435.30	352.96
435.68	356.92
436.05	360.70
436.42	364.48
436.79	367.82
437.16	371.43
437.53	375.28
437.90	379.04
438.27	382.76
438.64	386.54
439.01	389.98
439.38	393.02
439.75	395.93
440.13	399.29
440.50	402.43
440.87	404.92
441.24	407.52
441.61	410.47
441.98	412.51
442.35	414.96
442.72	417.46
443.09	419.94
443.46	421.22
443.83	421.98
444.20	422.67
444.57	423.81
444.94	424.20
445.31	424.62
445.68	425.06
446.05	425.17
446.42	424.68
446.79	424.15
447.16	423.56
447.53	423.13
447.90	421.58
448.27	420.02
448.64	417.87
449.01	416.37
449.37	413.73
449.74	411.16
450.11	408.11
450.48	404.78
450.85	401.31
451.22	398.44
451.59	395.76
451.96	393.12
452.33	389.66
452.70	386.48
453.07	382.66
453.43	378.78
453.80	375.07
454.17	371.47
454.54	368.05
454.91	364.38
455.28	360.79
455.65	357.47
456.02	354.12
456.38	351.25
456.75	347.62
457.12	344.63
457.49	341.63
457.86	338.72
458.23	336.22
458.59	333.46
458.96	330.65
459.33	328.11
459.70	325.59
460.07	323.51
460.43	321.15
460.80	318.95
461.17	316.99
461.54	314.96
461.91	313.06
462.27	311.10
462.64	309.35
463.01	307.53
463.38	305.72
463.74	303.91
464.11	302.32
464.48	300.93
464.85	299.43
465.21	298.24
465.58	296.96
465.95	295.48
466.32	294.27
466.68	293.03
467.05	291.79
467.42	290.58
467.78	289.30
468.15	288.15
468.52	287.21
468.88	286.07
469.25	285.02
469.62	284.13
469.98	283.19
470.35	282.35
470.72	281.51
471.08	280.67
471.45	279.90
471.82	279.15
472.18	278.36
472.55	277.72
472.92	276.99
473.28	276.38
473.65	275.74
474.02	275.14
474.38	274.60
474.75	274.17
475.11	273.71
475.48	273.34
475.85	272.99
476.21	272.64
476.58	272.31
476.94	272.06
477.31	271.73
477.67	271.49
478.04	271.28
478.41	271.12
478.77	271.04
479.14	270.90
479.50	270.86
479.87	270.87
480.23	270.90
480.60	270.90
480.96	270.91
481.33	271.07
481.69	271.24
482.06	271.40
482.42	271.53
482.79	271.74
483.15	272.02
483.52	272.41
483.88	272.73
484.25	273.12
484.61	273.52
484.98	274.02
485.34	274.60
485.71	275.19
486.07	275.82
486.44	276.40
486.80	277.13
487.17	277.84
487.53	278.64
487.90	279.51
488.26	280.49
488.62	281.51
488.99	282.51
489.35	283.53
489.72	284.69
490.08	285.94
490.44	287.27
490.81	288.64
491.17	290.02
491.54	291.63
491.90	293.27
492.26	294.99
492.63	296.77
492.99	298.61
493.36	300.62
493.72	302.76
494.08	305.01
494.45	307.37
494.81	309.87
495.17	312.50
495.54	315.19
495.90	317.97
496.26	320.93
496.63	324.04
496.99	327.34
497.35	330.78
497.72	334.42
498.08	338.14
498.44	342.03
498.80	346.23
499.17	350.46
499.53	354.87
499.89	359.56
500.26	364.35
500.62	369.31
500.98	374.58
501.34	379.97
501.71	385.57
502.07	391.37
502.43	397.26
502.79	403.38
503.16	409.84
503.52	416.53
503.88	423.33
504.24	430.44
504.60	437.74
504.97	445.32
505.33	453.04
505.69	461.19
506.05	469.49
506.41	477.87
506.78	486.54
507.14	495.55
507.50	504.78
507.86	514.37
508.22	524.11
508.59	533.89
508.95	544.10
509.31	554.65
509.67	565.43
510.03	576.46
510.39	587.75
510.75	599.25
511.12	610.97
511.48	623.02
511.84	635.28
512.20	647.63
512.56	660.40
512.92	673.50
513.28	686.87
513.64	700.26
514.00	713.94
514.37	727.88
514.73	741.87
515.09	755.95
515.45	770.20
515.81	784.85
516.17	799.93
516.53	815.29
516.89	830.60
517.25	845.94
517.61	861.59
517.97	877.28
518.33	892.95
518.69	908.87
519.05	925.09
519.41	941.51
519.77	958.41
520.13	975.21
520.49	991.95
520.85	1008.55
521.21	1025.61
521.57	1043.26
521.93	1060.38
522.29	1078.25
522.65	1096.00
523.01	1113.76
523.37	1131.42
523.73	1149.10
524.09	1166.66
524.45	1184.42
524.81	1202.77
525.17	1221.11
525.53	1239.69
525.89	1258.31
526.25	1276.89
526.61	1295.03
526.97	1313.51
527.33	1331.66
527.68	1350.01
528.04	1368.29
528.40	1386.71
528.76	1405.57
529.12	1423.97
529.48	1442.80
529.84	1460.73
530.20	1479.28
530.56	1498.14
530.91	1517.43
531.27	1536.22
531.63	1554.70
531.99	1573.35
532.35	1591.16
532.71	1609.11
533.07	1627.39
533.42	1645.29
533.78	1663.45
534.14	1681.82
534.50	1699.21
534.86	1717.21
535.21	1734.64
535.57	1752.61
535.93	1770.22
536.29	1787.18
536.65	1804.35
537.00	1821.28
537.36	1838.78
537.72	1855.36
538.08	1872.15
538.44	1888.08
538.79	1904.18
539.15	1919.82
539.51	1935.69
539.87	1952.22
540.22	1968.13
540.58	1984.10
540.94	1999.56
541.29	2014.57
541.65	2029.43
542.01	2045.05
542.37	2059.66
542.72	2074.09
543.08	2088.26
543.44	2103.04
543.79	2116.53
544.15	2129.74
544.51	2143.43
544.87	2156.52
545.22	2169.57
545.58	2181.95
545.94	2193.75
546.29	2205.80
546.65	2217.90
547.01	2229.27
547.36	2240.17
547.72	2250.61
548.07	2260.55
548.43	2270.82
548.79	2280.80
549.14	2290.47
549.50	2299.53
549.86	2309.12
550.21	2318.49
550.57	2327.51
550.92	2336.00
551.28	2344.95
551.64	2354.07
551.99	2362.55
552.35	2370.66
552.70	2378.83
553.06	2386.59
553.41	2394.94
553.77	2402.77
554.13	2410.66
554.48	2418.70
554.84	2426.02
555.19	2433.17
555.55	2440.11
555.90	2446.32
556.26	2453.12
556.61	2459.43
556.97	2465.57
557.32	2471.33
557.68	2477.07
558.03	2483.04
558.39	2488.18
558.74	2494.50
559.10	2499.90
559.45	2505.01
559.81	2510.74
560.16	2515.98
560.52	2520.75
560.87	2525.65
561.23	2529.52
561.58	2533.83
561.94	2537.75
562.29	2541.23
562.64	2545.38
563.00	2549.13
563.35	2553.94
563.71	2558.33
564.06	2562.88
564.42	2567.09
564.77	2570.91
565.12	2574.61
565.48	2577.63
565.83	2580.85
566.19	2583.32
566.54	2585.16
566.89	2587.50
567.25	2589.24
567.60	2591.44
567.96	2594.17
568.31	2595.95
568.66	2598.28
569.02	2599.85
569.37	2601.02
569.72	2602.85
570.08	2603.76
570.43	2604.61
570.78	2604.78
571.14	2603.76
571.49	2602.99
571.84	2603.11
572.20	2602.59
572.55	2602.01
572.90	2600.85
573.26	2599.88
573.61	2598.56
573.96	2597.32
574.31	2594.65
574.67	2591.86
575.02	2588.53
575.37	2585.24
575.72	2581.63
576.08	2578.22
576.43	2574.91
576.78	2571.39
577.13	2568.19
577.49	2564.99
577.84	2561.52
578.19	2557.81
578.54	2554.37
578.90	2550.14
579.25	2544.42
579.60	2539.20
579.95	2533.97
580.30	2528.75
580.66	2523.39
581.01	2518.02
581.36	2512.87
581.71	2508.56
582.06	2503.96
582.42	2499.16
582.77	2493.57
583.12	2488.72
583.47	2483.86
583.82	2478.57
584.17	2472.94
584.53	2467.21
584.88	2461.21
585.23	2455.09
585.58	2449.03
585.93	2442.96
586.28	2437.62
586.63	2432.15
586.98	2426.62
587.34	2421.44
587.69	2416.02
588.04	2410.23
588.39	2404.04
588.74	2396.72
589.09	2389.81
589.44	2382.20
589.79	2375.44
590.14	2369.09
590.49	2361.61
590.84	2354.42
591.19	2347.71
591.54	2340.42
591.89	2332.11
592.25	2324.56
592.60	2316.30
592.95	2307.86
593.30	2299.77
593.65	2291.15
594.00	2283.15
594.35	2274.85
594.70	2265.58
595.05	2257.68
595.40	2249.24
595.75	2240.67
596.10	2233.75
596.45	2226.06
596.80	2219.08
597.15	2211.71
597.50	2203.92
597.85	2196.48
598.19	2188.88
598.54	2180.88
598.89	2173.23
599.24	2166.59
599.59	2159.16
599.94	2152.10
600.29	2144.90
600.64	2137.06
600.99	2128.61
601.34	2120.71
601.69	2112.79
602.04	2105.04
602.39	2096.40
602.74	2088.53
603.08	2080.69
603.43	2072.91
603.78	2064.42
604.13	2056.03
604.48	2047.66
604.83	2039.59
605.18	2031.68
605.53	2022.45
605.87	2013.05
606.22	2004.59
606.57	1995.20
606.92	1986.31
607.27	1977.88
607.62	1969.73
607.96	1961.35
608.31	1953.73
608.66	1944.97
609.01	1936.15
609.36	1927.31
609.70	1917.92
610.05	1908.64
610.40	1899.85
610.75	1890.07
611.10	1881.09
611.44	1871.12
611.79	1861.63
612.14	1851.51
612.49	1840.84
612.83	1830.96
613.18	1821.41
613.53	1811.88
613.88	1801.90
614.22	1792.29
614.57	1782.14
614.92	1772.79
615.27	1764.05
615.61	1754.32
615.96	1744.87
616.31	1735.85
616.65	1727.12
617.00	1718.34
617.35	1709.11
617.70	1699.25
618.04	1689.29
618.39	1679.55
618.74	1670.69
619.08	1660.92
619.43	1651.92
619.78	1643.60
620.12	1635.16
620.47	1626.36
620.82	1616.80
621.16	1608.05
621.51	1598.97
621.85	1590.00
622.20	1579.87
622.55	1569.82
622.89	1560.43
623.24	1551.37
623.59	1542.56
623.93	1533.82
624.28	1525.17
624.62	1516.42
624.97	1507.96
625.32	1499.88
625.66	1491.74
626.01	1483.34
626.35	1474.57
626.70	1465.40
627.04	1456.42
627.39	1447.21
627.73	1438.40
628.08	1430.21
628.43	1421.62
628.77	1413.00
629.12	1404.33
629.46	1395.87
629.81	1387.11
630.15	1378.63
630.50	1369.85
630.84	1360.39
631.19	1350.99
631.53	1342.20
631.88	1333.29
632.22	1324.42
632.57	1315.95
632.91	1307.09
633.26	1298.32
633.60	1289.68
633.95	1281.38
634.29	1273.07
634.64	1265.23
634.98	1256.64
635.32	1248.25
635.67	1240.46
636.01	1232.74
636.36	1224.74
636.70	1217.03
637.05	1209.46
637.39	1201.89
637.73	1194.41
638.08	1187.43
638.42	1180.41
638.77	1172.96
639.11	1165.46
639.45	1157.91
639.80	1150.08
640.14	1142.60
640.49	1135.08
640.83	1127.72
641.17	1120.44
641.52	1113.16
641.86	1105.63
642.20	1098.84
642.55	1091.46
642.89	1084.00
643.23	1076.26
643.58	1069.52
643.92	1062.49
644.26	1055.42
644.61	1048.40
644.95	1041.42
645.29	1033.83
645.64	1025.95
645.98	1018.49
646.32	1011.51
646.66	1004.53
647.01	997.79
647.35	991.08
647.69	984.17
648.04	977.75
648.38	971.17
648.72	964.18
649.06	957.18
649.41	950.35
649.75	943.54
650.09	936.68
650.43	930.12
650.78	923.04
651.12	916.12
651.46	909.57
651.80	902.95
652.14	896.64
652.49	890.49
652.83	884.58
653.17	878.06
653.51	871.54
653.85	865.20
654.20	858.74
654.54	851.91
654.88	845.31
655.22	838.48
655.56	831.76
655.90	825.42
656.25	819.46
656.59	813.28
656.93	807.34
657.27	801.40
657.61	795.01
657.95	789.09
658.29	783.17
658.64	777.02
658.98	770.88
659.32	764.66
659.66	758.57
660.00	752.43
660.34	746.73
660.68	741.07
661.02	735.33
661.36	729.84
661.70	724.63
662.05	719.58
662.39	714.61
662.73	709.46
663.07	704.48
663.41	699.25
663.75	694.06
664.09	688.80
664.43	683.67
664.77	679.05
665.11	674.13
665.45	669.31
665.79	664.61
666.13	659.88
666.47	655.10
666.81	650.30
667.15	645.56
667.49	641.01
667.83	636.50
668.17	631.96
668.51	627.25
668.85	622.56
669.19	618.10
669.53	613.63
669.87	609.19
670.21	604.82
670.55	600.65
670.89	596.67
671.23	592.75
671.57	588.74
671.91	584.62
672.25	580.48
672.58	576.55
672.92	572.60
673.26	568.91
673.60	565.26
673.94	561.71
674.28	558.36
674.62	554.92
674.96	551.36
675.30	548.03
675.64	544.65
675.97	541.43
676.31	538.14
676.65	534.83
676.99	531.69
677.33	528.40
677.67	525.13
678.01	521.70
678.34	518.28
678.68	514.91
679.02	511.66
679.36	508.53
679.70	505.34
680.04	502.19
680.37	498.93
680.71	495.74
681.05	492.75
681.39	489.61
681.73	486.62
682.06	483.74
682.40	480.85
682.74	477.95
683.08	475.05
683.42	472.07
683.75	469.12
684.09	466.18
684.43	463.33
684.77	460.50
685.10	457.75
685.44	455.03
685.78	452.40
686.12	449.82
686.45	447.17
686.79	444.53
687.13	441.95
687.46	439.40
687.80	436.86
688.14	434.26
688.48	431.92
688.81	429.30
689.15	426.85
689.49	424.34
689.82	421.94
690.16	419.49
690.50	417.22
690.83	415.01
691.17	412.71
691.51	410.55
691.84	408.43
692.18	406.18
692.52	403.92
692.85	401.62
693.19	399.39
693.52	397.22
693.86	395.15
694.20	393.09
694.53	391.03
694.87	388.88
695.21	386.77
695.54	384.58
695.88	382.55
696.21	380.47
696.55	378.53
696.88	376.52
697.22	374.59
697.56	372.72
697.89	370.80
698.23	368.96
698.56	367.10
698.90	365.26
699.23	363.38
699.57	361.59
699.90	359.83
700.24	358.04
700.58	356.36
700.91	354.57
701.25	352.86
701.58	351.25
701.92	349.68
702.25	348.11
702.59	346.58
702.92	345.07
703.26	343.55
703.59	342.03
703.93	340.68
704.26	339.26
704.60	337.75
704.93	336.30
705.26	334.82
705.60	333.40
705.93	332.04
706.27	330.78
706.60	329.54
706.94	328.31
707.27	327.00
707.61	325.73
707.94	324.55
708.27	323.29
708.61	322.02
708.94	320.84
709.28	319.66
709.61	318.49
709.94	317.34
710.28	316.18
710.61	315.06
710.95	313.81
711.28	312.75
711.61	311.65
711.95	310.59
712.28	309.51
712.61	308.40
712.95	307.30
713.28	306.31
713.61	305.25
713.95	304.23
714.28	303.29
714.61	302.32
714.95	301.33
715.28	300.35
715.61	299.40
715.95	298.42
716.28	297.47
716.61	296.53
716.95	295.64
717.28	294.76
717.61	293.83
717.94	293.01
718.28	292.02
718.61	291.19
718.94	290.40
719.27	289.62
719.61	288.89
719.94	288.15
720.27	287.29
720.60	286.52
720.94	285.80
721.27	285.10
721.60	284.43
721.93	283.76
722.27	283.12
722.60	282.47
722.93	281.84
723.26	281.25
723.59	280.62
723.93	279.92
724.26	279.28
724.59	278.64
724.92	278.01
725.25	277.49
725.59	276.88
725.92	276.27
726.25	275.67
726.58	275.05
726.91	274.51
727.24	273.98
727.57	273.45
727.91	272.85
728.24	272.30
728.57	271.73
728.90	271.16
729.23	270.57
729.56	270.05
729.89	269.45
730.22	268.84
730.55	268.27
730.89	267.76
731.22	267.25
731.55	266.76
731.88	266.25
732.21	265.74
732.54	265.21
732.87	264.70
733.20	264.26
733.53	263.84
733.86	263.38
734.19	262.92
734.52	262.47
734.85	262.12
735.18	261.66
735.51	261.21
735.84	260.79
736.17	260.39
736.50	259.92
736.83	259.61
737.16	259.22
737.49	258.81
737.82	258.41
738.15	258.02
738.48	257.62
738.81	257.24
739.14	256.85
739.47	256.47
739.80	256.13
740.13	255.73
740.46	255.33
740.79	254.94
741.12	254.59
741.45	254.22
741.78	253.77
742.11	253.43
742.44	253.04
742.77	252.69
743.10	252.32
743.43	251.98
743.75	251.58
744.08	251.37
744.41	251.07
744.74	250.76
745.07	250.43
745.40	250.13
745.73	249.86
746.06	249.53
746.39	249.27
746.71	248.93
747.04	248.64
747.37	248.35
747.70	248.06
748.03	247.73
748.36	247.46
748.68	247.19
749.01	246.85
749.34	246.62
749.67	246.33
750.00	246.11
750.33	245.95
750.65	245.72
750.98	245.39
751.31	245.12
751.64	244.90
751.97	244.72
752.29	244.48
752.62	244.19
752.95	243.94
753.28	243.65
753.60	243.41
753.93	243.19
754.26	242.97
754.59	242.72
754.91	242.48
755.24	242.26
755.57	242.07
755.90	241.88
756.22	241.69
756.55	241.47
756.88	241.26
757.20	240.96
757.53	240.71
757.86	240.51
758.19	240.36
758.51	240.16
758.84	239.91
759.17	239.73
759.49	239.57
759.82	239.45
760.15	239.29
760.47	239.15
760.80	238.95
761.13	238.79
761.45	238.62
761.78	238.48
762.11	238.31
762.43	238.12
762.76	237.96
763.08	237.80
763.41	237.68
763.74	237.50
764.06	237.34
764.39	237.19
764.71	237.02
765.04	236.83
765.37	236.67
765.69	236.54
766.02	236.41
766.34	236.25
766.67	236.10
767.00	236.03
767.32	235.93
767.65	235.85
767.97	235.72
768.30	235.55
768.62	235.45
768.95	235.33
769.27	235.17
769.60	235.06
769.92	234.87
770.25	234.71
770.57	234.60
770.90	234.49
771.22	234.39
771.55	234.27
771.87	234.17
772.20	234.09
772.52	234.05
772.85	234.02
773.17	233.90
773.50	233.75
773.82	233.58
774.15	233.44
774.47	233.27
774.80	233.15
775.12	233.09
775.45	232.97
775.77	232.89
776.09	232.83
776.42	232.73
776.74	232.67
777.07	232.57
777.39	232.46
777.72	232.37
778.04	232.28
778.36	232.18
778.69	232.11
779.01	231.99
779.33	231.82
779.66	231.64
779.98	231.55
780.31	231.49
780.63	231.44
780.95	231.37
781.28	231.31
781.60	231.22
781.92	231.14
782.25	231.07
782.57	230.97
782.89	230.92
783.22	230.86
783.54	230.78
783.86	230.76
784.19	230.71
784.51	230.67
784.83	230.60
785.16	230.52
785.48	230.47
785.80	230.41
786.12	230.36
786.45	230.31
