SpectraSuite Data File
++++++++++++++++++++++++++++++++++++
Date: Fri Feb 01 15:13:31 EST 2013
User: group
Dark Spectrum Present: No
Reference Spectrum Present: No
Number of Sampled Component Spectra: 1
Spectrometers: USB2E7196
Integration Time (usec): 35000 (USB2E7196)
Spectra Averaged: 100 (USB2E7196)
Boxcar Smoothing: 10 (USB2E7196)
Correct for Electrical Dark: No (USB2E7196)
Strobe/Lamp Enabled: No (USB2E7196)
Correct for Detector Non-linearity: No (USB2E7196)
Correct for Stray Light: No (USB2E7196)
Number of Pixels in Processed Spectrum: 2048
>>>>>Begin Processed Spectral Data<<<<<
339.09	0.00
339.48	215.44
339.86	215.99
340.24	217.81
340.63	219.00
341.01	221.67
341.39	221.73
341.78	223.40
342.16	224.93
342.54	224.60
342.93	213.39
343.31	224.18
343.69	224.72
344.07	225.20
344.46	225.63
344.84	226.01
345.22	226.28
345.60	226.54
345.99	226.73
346.37	226.81
346.75	226.92
347.13	227.01
347.52	227.02
347.90	227.09
348.28	227.14
348.66	227.20
349.05	227.23
349.43	227.27
349.81	227.29
350.19	227.33
350.57	227.39
350.96	227.45
351.34	227.53
351.72	227.57
352.10	227.69
352.48	227.76
352.87	227.82
353.25	227.91
353.63	227.96
354.01	228.08
354.39	228.18
354.77	228.30
355.15	228.37
355.54	228.45
355.92	228.48
356.30	228.56
356.68	228.67
357.06	228.70
357.44	228.75
357.82	228.79
358.20	228.84
358.58	228.92
358.97	228.98
359.35	229.06
359.73	229.18
360.11	229.20
360.49	229.23
360.87	229.29
361.25	229.32
361.63	229.39
362.01	229.38
362.39	229.43
362.77	229.45
363.15	229.49
363.53	229.54
363.91	229.57
364.29	229.60
364.67	229.51
365.05	229.55
365.43	229.58
365.81	229.62
366.19	229.66
366.57	229.67
366.95	229.65
367.33	229.64
367.71	229.60
368.09	229.60
368.47	229.62
368.85	229.59
369.23	229.58
369.61	229.53
369.99	229.53
370.37	229.49
370.75	229.48
371.13	229.45
371.51	229.38
371.89	229.36
372.27	229.29
372.65	229.29
373.03	229.27
373.41	229.18
373.78	229.10
374.16	228.99
374.54	228.90
374.92	228.83
375.30	228.74
375.68	228.65
376.06	228.59
376.44	228.48
376.82	228.41
377.19	228.32
377.57	228.23
377.95	228.11
378.33	228.04
378.71	227.92
379.09	227.84
379.47	227.80
379.84	227.70
380.22	227.62
380.60	227.52
380.98	227.43
381.36	227.37
381.73	227.30
382.11	227.27
382.49	227.20
382.87	227.13
383.25	227.07
383.62	227.11
384.00	227.05
384.38	227.01
384.76	226.99
385.13	226.99
385.51	226.92
385.89	226.88
386.27	226.82
386.64	226.78
387.02	226.69
387.40	226.61
387.78	226.55
388.15	226.52
388.53	226.49
388.91	226.46
389.29	226.41
389.66	226.42
390.04	226.37
390.42	226.38
390.79	226.37
391.17	226.34
391.55	226.24
391.92	226.22
392.30	226.22
392.68	226.18
393.05	226.16
393.43	226.19
393.81	226.19
394.18	226.21
394.56	226.22
394.94	226.30
395.31	226.35
395.69	226.43
396.06	226.46
396.44	226.51
396.82	226.52
397.19	226.64
397.57	226.68
397.95	226.75
398.32	226.75
398.70	226.85
399.07	226.95
399.45	227.03
399.82	227.12
400.20	227.19
400.58	227.29
400.95	227.36
401.33	227.47
401.70	227.63
402.08	227.74
402.45	227.83
402.83	227.95
403.20	228.06
403.58	228.14
403.95	228.31
404.33	228.45
404.71	228.59
405.08	228.76
405.46	228.93
405.83	229.10
406.21	229.29
406.58	229.47
406.96	229.63
407.33	229.81
407.70	230.00
408.08	230.28
408.45	230.50
408.83	230.77
409.20	231.00
409.58	231.21
409.95	231.48
410.33	231.75
410.70	232.02
411.08	232.30
411.45	232.61
411.82	232.89
412.20	233.24
412.57	233.65
412.95	233.95
413.32	234.33
413.69	234.73
414.07	235.15
414.44	235.57
414.82	236.05
415.19	236.61
415.56	237.16
415.94	237.69
416.31	238.35
416.68	238.93
417.06	239.65
417.43	240.31
417.81	241.08
418.18	241.88
418.55	242.70
418.93	243.59
419.30	244.48
419.67	245.45
420.04	246.40
420.42	247.35
420.79	248.51
421.16	249.65
421.54	250.84
421.91	252.09
422.28	253.39
422.66	254.73
423.03	256.02
423.40	257.36
423.77	258.75
424.15	260.17
424.52	261.65
424.89	263.21
425.26	264.75
425.64	266.18
426.01	267.77
426.38	269.42
426.75	271.08
427.13	272.80
427.50	274.58
427.87	276.49
428.24	278.42
428.61	280.20
428.99	282.16
429.36	284.26
429.73	286.31
430.10	288.27
430.47	290.31
430.85	292.41
431.22	294.66
431.59	297.04
431.96	299.30
432.33	301.84
432.70	304.27
433.08	307.11
433.45	309.76
433.82	312.36
434.19	315.25
434.56	318.10
434.93	320.77
435.30	323.39
435.68	326.25
436.05	329.04
436.42	331.82
436.79	334.33
437.16	337.07
437.53	339.89
437.90	342.73
438.27	345.46
438.64	348.27
439.01	350.86
439.38	353.14
439.75	355.27
440.13	357.74
440.50	360.05
440.87	361.87
441.24	363.84
441.61	366.01
441.98	367.53
442.35	369.35
442.72	371.18
443.09	373.00
443.46	374.00
443.83	374.59
444.20	375.06
444.57	375.94
444.94	376.14
445.31	376.50
445.68	376.84
446.05	376.91
446.42	376.52
446.79	376.04
447.16	375.56
447.53	375.23
447.90	374.05
448.27	372.87
448.64	371.27
449.01	370.10
449.37	368.12
449.74	366.20
450.11	363.90
450.48	361.40
450.85	358.85
451.22	356.76
451.59	354.72
451.96	352.78
452.33	350.12
452.70	347.80
453.07	344.95
453.43	342.03
453.80	339.28
454.17	336.63
454.54	334.14
454.91	331.41
455.28	328.72
455.65	326.22
456.02	323.81
456.38	321.69
456.75	319.06
457.12	316.78
457.49	314.52
457.86	312.34
458.23	310.53
458.59	308.47
458.96	306.33
459.33	304.51
459.70	302.66
460.07	301.16
460.43	299.42
460.80	297.82
461.17	296.40
461.54	294.92
461.91	293.46
462.27	291.99
462.64	290.72
463.01	289.41
463.38	288.08
463.74	286.68
464.11	285.48
464.48	284.42
464.85	283.35
465.21	282.50
465.58	281.58
465.95	280.49
466.32	279.59
466.68	278.70
467.05	277.74
467.42	276.82
467.78	275.88
468.15	275.00
468.52	274.31
468.88	273.46
469.25	272.72
469.62	272.11
469.98	271.44
470.35	270.80
470.72	270.17
471.08	269.53
471.45	269.00
471.82	268.45
472.18	267.83
472.55	267.38
472.92	266.86
473.28	266.41
473.65	265.93
474.02	265.51
474.38	265.13
474.75	264.83
475.11	264.51
475.48	264.25
475.85	264.02
476.21	263.80
476.58	263.60
476.94	263.41
477.31	263.23
477.67	263.07
478.04	262.97
478.41	262.93
478.77	262.95
479.14	262.89
479.50	262.90
479.87	262.99
480.23	263.05
480.60	263.10
480.96	263.16
481.33	263.40
481.69	263.58
482.06	263.76
482.42	263.95
482.79	264.15
483.15	264.46
483.52	264.83
483.88	265.20
484.25	265.59
484.61	266.02
484.98	266.46
485.34	267.03
485.71	267.61
486.07	268.22
486.44	268.80
486.80	269.47
487.17	270.17
487.53	271.02
487.90	271.84
488.26	272.77
488.62	273.76
488.99	274.67
489.35	275.69
489.72	276.80
490.08	278.01
490.44	279.29
490.81	280.61
491.17	281.96
491.54	283.38
491.90	284.90
492.26	286.54
492.63	288.29
492.99	290.06
493.36	291.94
493.72	293.95
494.08	296.06
494.45	298.33
494.81	300.69
495.17	303.08
495.54	305.68
495.90	308.37
496.26	311.21
496.63	314.21
496.99	317.32
497.35	320.58
497.72	323.95
498.08	327.48
498.44	331.13
498.80	335.05
499.17	339.04
499.53	343.17
499.89	347.55
500.26	352.05
500.62	356.74
500.98	361.67
501.34	366.78
501.71	372.07
502.07	377.54
502.43	383.15
502.79	388.99
503.16	395.06
503.52	401.28
503.88	407.70
504.24	414.32
504.60	421.16
504.97	428.31
505.33	435.67
505.69	443.30
506.05	451.10
506.41	458.96
506.78	467.14
507.14	475.63
507.50	484.30
507.86	493.30
508.22	502.48
508.59	511.72
508.95	521.29
509.31	531.15
509.67	541.19
510.03	551.45
510.39	561.88
510.75	572.67
511.12	583.65
511.48	594.90
511.84	606.36
512.20	617.93
512.56	629.92
512.92	642.05
513.28	654.40
513.64	666.81
514.00	679.53
514.37	692.53
514.73	705.55
515.09	718.63
515.45	731.91
515.81	745.51
516.17	759.53
516.53	773.67
516.89	787.90
517.25	802.12
517.61	816.55
517.97	831.15
518.33	845.59
518.69	860.39
519.05	875.40
519.41	890.60
519.77	906.23
520.13	921.72
520.49	937.14
520.85	952.63
521.21	968.43
521.57	984.77
521.93	1000.61
522.29	1017.04
522.65	1033.49
523.01	1049.81
523.37	1065.90
523.73	1082.11
524.09	1098.29
524.45	1114.61
524.81	1131.32
525.17	1148.23
525.53	1165.21
525.89	1182.23
526.25	1199.08
526.61	1215.64
526.97	1232.41
527.33	1248.82
527.68	1265.52
528.04	1282.08
528.40	1298.79
528.76	1315.96
529.12	1332.58
529.48	1349.56
529.84	1365.66
530.20	1382.24
530.56	1399.43
530.91	1416.85
531.27	1433.68
531.63	1450.24
531.99	1466.80
532.35	1482.83
532.71	1498.90
533.07	1515.21
533.42	1531.10
533.78	1547.18
534.14	1563.44
534.50	1578.85
534.86	1594.85
535.21	1609.91
535.57	1625.87
535.93	1641.33
536.29	1656.11
536.65	1671.26
537.00	1686.03
537.36	1701.52
537.72	1716.08
538.08	1730.45
538.44	1744.25
538.79	1758.30
539.15	1772.19
539.51	1786.06
539.87	1800.45
540.22	1814.14
540.58	1828.06
540.94	1841.51
541.29	1854.60
541.65	1867.47
542.01	1880.92
542.37	1893.29
542.72	1905.79
543.08	1917.77
543.44	1930.35
543.79	1941.69
544.15	1952.70
544.51	1964.27
544.87	1975.18
545.22	1986.16
545.58	1996.42
545.94	2006.38
546.29	2016.21
546.65	2025.86
547.01	2035.19
547.36	2044.19
547.72	2052.70
548.07	2060.51
548.43	2068.73
548.79	2076.72
549.14	2084.16
549.50	2091.55
549.86	2099.36
550.21	2106.77
550.57	2113.97
550.92	2120.56
551.28	2127.76
551.64	2134.89
551.99	2141.43
552.35	2147.62
552.70	2153.76
553.06	2159.71
553.41	2166.11
553.77	2172.14
554.13	2178.25
554.48	2184.26
554.84	2189.41
555.19	2194.75
555.55	2199.94
555.90	2204.30
556.26	2209.07
556.61	2213.86
556.97	2217.86
557.32	2221.91
557.68	2226.14
558.03	2230.46
558.39	2234.20
558.74	2238.74
559.10	2242.66
559.45	2246.36
559.81	2250.78
560.16	2254.48
560.52	2257.70
560.87	2260.90
561.23	2263.44
561.58	2266.52
561.94	2269.11
562.29	2271.52
562.64	2274.21
563.00	2276.74
563.35	2280.33
563.71	2283.61
564.06	2286.88
564.42	2289.87
564.77	2292.31
565.12	2294.40
565.48	2296.07
565.83	2297.66
566.19	2298.95
566.54	2299.79
566.89	2300.87
567.25	2301.33
567.60	2302.58
567.96	2304.14
568.31	2305.00
568.66	2306.06
569.02	2306.48
569.37	2306.64
569.72	2307.31
570.08	2307.35
570.43	2307.20
570.78	2306.41
571.14	2304.75
571.49	2303.25
571.84	2302.83
572.20	2301.48
572.55	2300.26
572.90	2298.72
573.26	2297.26
573.61	2295.52
573.96	2293.60
574.31	2290.42
574.67	2287.27
575.02	2283.55
575.37	2280.09
575.72	2276.08
576.08	2272.71
576.43	2269.39
576.78	2265.67
577.13	2262.61
577.49	2259.33
577.84	2255.93
578.19	2252.17
578.54	2248.28
578.90	2243.90
579.25	2238.26
579.60	2233.26
579.95	2228.31
580.30	2223.12
580.66	2218.02
581.01	2212.86
581.36	2207.85
581.71	2203.58
582.06	2199.05
582.42	2194.48
582.77	2189.13
583.12	2184.56
583.47	2179.55
583.82	2174.28
584.17	2168.95
584.53	2163.26
584.88	2157.56
585.23	2151.50
585.58	2145.96
585.93	2140.53
586.28	2135.70
586.63	2130.44
586.98	2125.30
587.34	2120.48
587.69	2115.45
588.04	2109.97
588.39	2104.16
588.74	2097.58
589.09	2091.38
589.44	2084.47
589.79	2078.44
590.14	2072.80
590.49	2066.08
590.84	2059.74
591.19	2053.66
591.54	2047.17
591.89	2039.60
592.25	2032.68
592.60	2025.43
592.95	2017.75
593.30	2010.26
593.65	2002.54
594.00	1995.51
594.35	1988.35
594.70	1980.23
595.05	1972.92
595.40	1965.59
595.75	1958.12
596.10	1951.69
596.45	1944.90
596.80	1938.55
597.15	1931.60
597.50	1924.37
597.85	1917.96
598.19	1911.14
598.54	1903.92
598.89	1897.19
599.24	1891.35
599.59	1884.67
599.94	1878.55
600.29	1872.25
600.64	1865.63
600.99	1858.09
601.34	1851.21
601.69	1843.99
602.04	1837.01
602.39	1829.72
602.74	1822.87
603.08	1816.10
603.43	1809.42
603.78	1802.10
604.13	1794.93
604.48	1787.80
604.83	1780.96
605.18	1773.83
605.53	1765.91
605.87	1757.90
606.22	1750.63
606.57	1742.72
606.92	1735.30
607.27	1727.92
607.62	1720.78
607.96	1713.45
608.31	1706.81
608.66	1699.07
609.01	1691.60
609.36	1684.16
609.70	1676.23
610.05	1668.13
610.40	1660.30
610.75	1652.01
611.10	1644.35
611.44	1635.98
611.79	1627.92
612.14	1619.23
612.49	1610.26
612.83	1601.99
613.18	1593.83
613.53	1585.80
613.88	1577.23
614.22	1569.08
614.57	1560.57
614.92	1552.62
615.27	1545.06
615.61	1536.78
615.96	1528.78
616.31	1521.17
616.65	1513.69
617.00	1506.06
617.35	1498.33
617.70	1489.97
618.04	1481.35
618.39	1473.12
618.74	1465.51
619.08	1457.24
619.43	1449.64
619.78	1442.65
620.12	1435.39
620.47	1427.93
620.82	1419.73
621.16	1412.38
621.51	1404.61
621.85	1396.98
622.20	1388.47
622.55	1380.22
622.89	1372.43
623.24	1364.94
623.59	1357.58
623.93	1350.02
624.28	1342.81
624.62	1335.44
624.97	1328.26
625.32	1321.69
625.66	1314.70
626.01	1307.48
626.35	1300.01
626.70	1292.35
627.04	1284.63
627.39	1276.84
627.73	1269.42
628.08	1262.51
628.43	1255.04
628.77	1247.76
629.12	1240.16
629.46	1232.95
629.81	1225.59
630.15	1218.29
630.50	1210.83
630.84	1202.64
631.19	1194.82
631.53	1187.35
631.88	1179.84
632.22	1172.31
632.57	1164.99
632.91	1157.39
633.26	1150.07
633.60	1142.81
633.95	1135.71
634.29	1128.75
634.64	1122.22
634.98	1114.88
635.32	1107.76
635.67	1101.42
636.01	1094.78
636.36	1088.05
636.70	1081.59
637.05	1075.03
637.39	1068.60
637.73	1062.01
638.08	1056.21
638.42	1050.23
638.77	1043.69
639.11	1037.07
639.45	1030.76
639.80	1024.08
640.14	1017.70
640.49	1011.16
640.83	1004.86
641.17	998.62
641.52	992.24
641.86	985.76
642.20	979.95
642.55	973.71
642.89	967.14
643.23	960.60
643.58	954.87
643.92	948.64
644.26	942.49
644.61	936.51
644.95	930.64
645.29	923.91
645.64	917.15
645.98	910.89
646.32	905.07
646.66	899.01
647.01	893.23
647.35	887.61
647.69	881.82
648.04	876.30
648.38	870.45
648.72	864.41
649.06	858.31
649.41	852.41
649.75	846.41
650.09	840.42
650.43	834.64
650.78	828.50
651.12	822.59
651.46	816.90
651.80	811.10
652.14	805.65
652.49	800.39
652.83	795.24
653.17	789.48
653.51	783.74
653.85	778.40
654.20	772.75
654.54	766.69
654.88	760.96
655.22	755.13
655.56	749.54
655.90	744.19
656.25	738.97
656.59	733.66
656.93	728.47
657.27	723.34
657.61	718.01
657.95	712.90
658.29	707.86
658.64	702.60
658.98	697.38
659.32	691.96
659.66	686.69
660.00	681.42
660.34	676.53
660.68	671.61
661.02	666.55
661.36	661.83
661.70	657.34
662.05	653.02
662.39	648.65
662.73	644.13
663.07	639.78
663.41	635.38
663.75	630.82
664.09	626.36
664.43	622.05
664.77	617.87
665.11	613.62
665.45	609.51
665.79	605.47
666.13	601.31
666.47	597.18
666.81	593.09
667.15	588.89
667.49	585.08
667.83	581.34
668.17	577.48
668.51	573.45
668.85	569.44
669.19	565.57
669.53	561.73
669.87	557.94
670.21	554.19
670.55	550.54
670.89	547.20
671.23	543.79
671.57	540.25
671.91	536.74
672.25	533.32
672.58	529.75
672.92	526.35
673.26	523.23
673.60	520.16
673.94	517.04
674.28	514.24
674.62	511.24
674.96	508.11
675.30	505.21
675.64	502.31
675.97	499.58
676.31	496.72
676.65	493.78
676.99	491.03
677.33	488.22
677.67	485.44
678.01	482.40
678.34	479.42
678.68	476.62
679.02	473.83
679.36	471.00
679.70	468.29
680.04	465.54
680.37	462.63
680.71	459.86
681.05	457.31
681.39	454.58
681.73	451.93
682.06	449.42
682.40	446.83
682.74	444.32
683.08	441.76
683.42	439.18
683.75	436.70
684.09	434.22
684.43	431.74
684.77	429.26
685.10	426.93
685.44	424.62
685.78	422.28
686.12	420.03
686.45	417.80
686.79	415.54
687.13	413.32
687.46	411.24
687.80	409.03
688.14	406.80
688.48	404.75
688.81	402.47
689.15	400.33
689.49	398.17
689.82	396.13
690.16	394.04
690.50	392.12
690.83	390.18
691.17	388.24
691.51	386.33
691.84	384.48
692.18	382.58
692.52	380.64
692.85	378.72
693.19	376.79
693.52	374.94
693.86	373.17
694.20	371.44
694.53	369.58
694.87	367.78
695.21	366.00
695.54	364.15
695.88	362.42
696.21	360.68
696.55	359.03
696.88	357.33
697.22	355.73
697.56	354.10
697.89	352.47
698.23	350.83
698.56	349.23
698.90	347.59
699.23	345.91
699.57	344.32
699.90	342.84
700.24	341.37
700.58	339.85
700.91	338.34
701.25	336.83
701.58	335.53
701.92	334.15
702.25	332.76
702.59	331.42
702.92	330.16
703.26	328.85
703.59	327.59
703.93	326.43
704.26	325.17
704.60	323.86
704.93	322.60
705.26	321.40
705.60	320.23
705.93	319.09
706.27	318.09
706.60	317.02
706.94	315.93
707.27	314.76
707.61	313.71
707.94	312.70
708.27	311.67
708.61	310.58
708.94	309.58
709.28	308.62
709.61	307.68
709.94	306.73
710.28	305.72
710.61	304.78
710.95	303.71
711.28	302.80
711.61	301.90
711.95	300.95
712.28	299.98
712.61	299.04
712.95	298.11
713.28	297.23
713.61	296.40
713.95	295.50
714.28	294.69
714.61	293.82
714.95	292.98
715.28	292.15
715.61	291.23
715.95	290.40
716.28	289.58
716.61	288.75
716.95	287.92
717.28	287.23
717.61	286.42
717.94	285.65
718.28	284.84
718.61	284.08
718.94	283.40
719.27	282.71
719.61	282.09
719.94	281.44
720.27	280.71
720.60	280.02
720.94	279.40
721.27	278.80
721.60	278.24
721.93	277.62
722.27	277.08
722.60	276.54
722.93	275.95
723.26	275.39
723.59	274.85
723.93	274.32
724.26	273.76
724.59	273.22
724.92	272.71
725.25	272.23
725.59	271.76
725.92	271.26
726.25	270.80
726.58	270.29
726.91	269.79
727.24	269.31
727.57	268.84
727.91	268.32
728.24	267.85
728.57	267.35
728.90	266.91
729.23	266.40
729.56	265.96
729.89	265.50
730.22	264.96
730.55	264.49
730.89	264.04
731.22	263.58
731.55	263.16
731.88	262.71
732.21	262.26
732.54	261.81
732.87	261.38
733.20	260.96
733.53	260.57
733.86	260.22
734.19	259.83
734.52	259.45
734.85	259.20
735.18	258.78
735.51	258.42
735.84	258.02
736.17	257.70
736.50	257.30
736.83	257.10
737.16	256.85
737.49	256.51
737.82	256.18
738.15	255.84
738.48	255.46
738.81	255.13
739.14	254.81
739.47	254.51
739.80	254.20
740.13	253.88
740.46	253.57
740.79	253.21
741.12	252.92
741.45	252.59
741.78	252.23
742.11	251.96
742.44	251.65
742.77	251.37
743.10	251.05
743.43	250.78
743.75	250.38
744.08	250.22
744.41	249.94
744.74	249.64
745.07	249.36
745.40	249.16
745.73	248.94
746.06	248.69
746.39	248.41
746.71	248.14
747.04	247.86
747.37	247.57
747.70	247.37
748.03	247.13
748.36	246.94
748.68	246.66
749.01	246.42
749.34	246.21
749.67	246.01
750.00	245.78
750.33	245.64
750.65	245.45
750.98	245.08
751.31	244.90
751.64	244.70
751.97	244.55
752.29	244.31
752.62	244.07
752.95	243.89
753.28	243.72
753.60	243.53
753.93	243.39
754.26	243.20
754.59	242.96
754.91	242.74
755.24	242.56
755.57	242.40
755.90	242.23
756.22	242.01
756.55	241.81
756.88	241.62
757.20	241.38
757.53	241.16
757.86	241.01
758.19	240.83
758.51	240.65
758.84	240.42
759.17	240.27
759.49	240.10
759.82	239.96
760.15	239.79
760.47	239.61
760.80	239.41
761.13	239.27
761.45	239.10
761.78	238.94
762.11	238.76
762.43	238.60
762.76	238.48
763.08	238.35
763.41	238.23
763.74	238.09
764.06	237.96
764.39	237.84
764.71	237.69
765.04	237.54
765.37	237.43
765.69	237.31
766.02	237.22
766.34	237.10
766.67	236.94
767.00	236.85
767.32	236.81
767.65	236.78
767.97	236.66
768.30	236.60
768.62	236.49
768.95	236.36
769.27	236.23
769.60	236.12
769.92	236.02
770.25	235.87
770.57	235.77
770.90	235.66
771.22	235.55
771.55	235.45
771.87	235.36
772.20	235.23
772.52	235.22
772.85	235.20
773.17	235.11
773.50	234.99
773.82	234.86
774.15	234.71
774.47	234.54
774.80	234.45
775.12	234.33
775.45	234.24
775.77	234.17
776.09	234.13
776.42	234.03
776.74	233.96
777.07	233.89
777.39	233.78
777.72	233.69
778.04	233.60
778.36	233.53
778.69	233.45
779.01	233.42
779.33	233.27
779.66	233.08
779.98	233.01
780.31	232.96
780.63	232.92
780.95	232.86
781.28	232.80
781.60	232.74
781.92	232.72
782.25	232.68
782.57	232.60
782.89	232.51
783.22	232.43
783.54	232.37
783.86	232.32
784.19	232.28
784.51	232.25
784.83	232.17
785.16	232.10
785.48	232.04
785.80	232.00
786.12	231.97
786.45	231.93
786.77	231.90
787.09	231.86
