SpectraSuite Data File
++++++++++++++++++++++++++++++++++++
Date: Fri Feb 01 15:46:53 EST 2013
User: group
Dark Spectrum Present: No
Reference Spectrum Present: No
Number of Sampled Component Spectra: 1
Spectrometers: USB2E7196
Integration Time (usec): 35000 (USB2E7196)
Spectra Averaged: 100 (USB2E7196)
Boxcar Smoothing: 10 (USB2E7196)
Correct for Electrical Dark: No (USB2E7196)
Strobe/Lamp Enabled: No (USB2E7196)
Correct for Detector Non-linearity: No (USB2E7196)
Correct for Stray Light: No (USB2E7196)
Number of Pixels in Processed Spectrum: 2048
>>>>>Begin Processed Spectral Data<<<<<
339.09	0.00
339.48	215.01
339.86	216.70
340.24	217.85
340.63	219.67
341.01	221.68
341.39	222.24
341.78	223.19
342.16	224.45
342.54	224.73
342.93	213.47
343.31	224.28
343.69	224.84
344.07	225.30
344.46	225.72
344.84	226.10
345.22	226.35
345.60	226.59
345.99	226.79
346.37	226.92
346.75	227.07
347.13	227.16
347.52	227.20
347.90	227.26
348.28	227.24
348.66	227.32
349.05	227.28
349.43	227.28
349.81	227.31
350.19	227.36
350.57	227.42
350.96	227.46
351.34	227.52
351.72	227.57
352.10	227.65
352.48	227.73
352.87	227.76
353.25	227.80
353.63	227.88
354.01	227.94
354.39	228.02
354.77	228.07
355.15	228.17
355.54	228.22
355.92	228.26
356.30	228.36
356.68	228.43
357.06	228.48
357.44	228.57
357.82	228.60
358.20	228.67
358.58	228.71
358.97	228.78
359.35	228.85
359.73	228.95
360.11	229.00
360.49	229.04
360.87	229.08
361.25	229.18
361.63	229.21
362.01	229.26
362.39	229.25
362.77	229.26
363.15	229.26
363.53	229.26
363.91	229.29
364.29	229.30
364.67	229.28
365.05	229.31
365.43	229.34
365.81	229.38
366.19	229.42
366.57	229.44
366.95	229.41
367.33	229.38
367.71	229.37
368.09	229.37
368.47	229.36
368.85	229.32
369.23	229.28
369.61	229.24
369.99	229.23
370.37	229.25
370.75	229.27
371.13	229.18
371.51	229.15
371.89	229.10
372.27	229.06
372.65	228.98
373.03	228.94
373.41	228.82
373.78	228.76
374.16	228.67
374.54	228.59
374.92	228.54
375.30	228.48
375.68	228.40
376.06	228.30
376.44	228.22
376.82	228.18
377.19	228.11
377.57	228.02
377.95	227.91
378.33	227.82
378.71	227.70
379.09	227.68
379.47	227.63
379.84	227.53
380.22	227.42
380.60	227.34
380.98	227.29
381.36	227.26
381.73	227.18
382.11	227.10
382.49	227.03
382.87	226.95
383.25	226.89
383.62	226.92
384.00	226.85
384.38	226.80
384.76	226.77
385.13	226.73
385.51	226.71
385.89	226.65
386.27	226.58
386.64	226.54
387.02	226.50
387.40	226.44
387.78	226.43
388.15	226.42
388.53	226.39
388.91	226.34
389.29	226.27
389.66	226.27
390.04	226.24
390.42	226.24
390.79	226.23
391.17	226.20
391.55	226.10
391.92	226.09
392.30	226.08
392.68	226.04
393.05	226.05
393.43	226.03
393.81	226.06
394.18	226.08
394.56	226.08
394.94	226.13
395.31	226.17
395.69	226.21
396.06	226.24
396.44	226.29
396.82	226.29
397.19	226.39
397.57	226.41
397.95	226.46
398.32	226.50
398.70	226.59
399.07	226.68
399.45	226.74
399.82	226.84
400.20	226.92
400.58	227.00
400.95	227.04
401.33	227.17
401.70	227.32
402.08	227.43
402.45	227.55
402.83	227.65
403.20	227.73
403.58	227.82
403.95	227.97
404.33	228.08
404.71	228.24
405.08	228.44
405.46	228.61
405.83	228.79
406.21	228.93
406.58	229.10
406.96	229.25
407.33	229.41
407.70	229.61
408.08	229.84
408.45	230.10
408.83	230.34
409.20	230.53
409.58	230.69
409.95	230.93
410.33	231.20
410.70	231.47
411.08	231.78
411.45	232.10
411.82	232.41
412.20	232.77
412.57	233.19
412.95	233.45
413.32	233.84
413.69	234.26
414.07	234.72
414.44	235.19
414.82	235.67
415.19	236.23
415.56	236.76
415.94	237.34
416.31	237.97
416.68	238.60
417.06	239.34
417.43	240.04
417.81	240.83
418.18	241.61
418.55	242.43
418.93	243.27
419.30	244.19
419.67	245.13
420.04	246.08
420.42	247.08
420.79	248.30
421.16	249.46
421.54	250.64
421.91	251.86
422.28	253.10
422.66	254.42
423.03	255.77
423.40	257.11
423.77	258.52
424.15	259.90
424.52	261.38
424.89	262.99
425.26	264.53
425.64	266.01
426.01	267.59
426.38	269.24
426.75	270.96
427.13	272.65
427.50	274.44
427.87	276.34
428.24	278.19
428.61	279.89
428.99	281.82
429.36	283.90
429.73	285.94
430.10	287.95
430.47	290.00
430.85	292.07
431.22	294.30
431.59	296.64
431.96	298.89
432.33	301.37
432.70	303.77
433.08	306.59
433.45	309.22
433.82	311.86
434.19	314.75
434.56	317.51
434.93	320.18
435.30	322.82
435.68	325.70
436.05	328.54
436.42	331.34
436.79	333.88
437.16	336.57
437.53	339.42
437.90	342.25
438.27	344.97
438.64	347.81
439.01	350.42
439.38	352.70
439.75	354.87
440.13	357.36
440.50	359.64
440.87	361.45
441.24	363.40
441.61	365.52
441.98	367.01
442.35	368.84
442.72	370.67
443.09	372.43
443.46	373.44
443.83	373.99
444.20	374.48
444.57	375.33
444.94	375.61
445.31	375.93
445.68	376.31
446.05	376.47
446.42	376.09
446.79	375.61
447.16	375.11
447.53	374.79
447.90	373.64
448.27	372.51
448.64	370.93
449.01	369.78
449.37	367.83
449.74	365.94
450.11	363.65
450.48	361.18
450.85	358.67
451.22	356.52
451.59	354.50
451.96	352.58
452.33	349.96
452.70	347.60
453.07	344.79
453.43	341.82
453.80	339.00
454.17	336.31
454.54	333.79
454.91	331.10
455.28	328.46
455.65	325.97
456.02	323.51
456.38	321.38
456.75	318.72
457.12	316.42
457.49	314.19
457.86	312.05
458.23	310.21
458.59	308.17
458.96	306.11
459.33	304.26
459.70	302.39
460.07	300.88
460.43	299.16
460.80	297.54
461.17	296.11
461.54	294.63
461.91	293.25
462.27	291.82
462.64	290.57
463.01	289.21
463.38	287.92
463.74	286.53
464.11	285.40
464.48	284.39
464.85	283.32
465.21	282.47
465.58	281.61
465.95	280.50
466.32	279.61
466.68	278.66
467.05	277.79
467.42	276.91
467.78	275.95
468.15	275.11
468.52	274.44
468.88	273.60
469.25	272.80
469.62	272.17
469.98	271.53
470.35	270.91
470.72	270.31
471.08	269.62
471.45	269.11
471.82	268.54
472.18	267.92
472.55	267.48
472.92	266.97
473.28	266.44
473.65	265.99
474.02	265.55
474.38	265.19
474.75	264.86
475.11	264.49
475.48	264.24
475.85	263.99
476.21	263.73
476.58	263.58
476.94	263.45
477.31	263.26
477.67	263.10
478.04	263.01
478.41	262.96
478.77	263.02
479.14	262.95
479.50	262.97
479.87	263.05
480.23	263.12
480.60	263.20
480.96	263.35
481.33	263.55
481.69	263.76
482.06	263.98
482.42	264.16
482.79	264.44
483.15	264.80
483.52	265.18
483.88	265.55
484.25	265.93
484.61	266.37
484.98	266.84
485.34	267.38
485.71	267.95
486.07	268.55
486.44	269.12
486.80	269.83
487.17	270.55
487.53	271.34
487.90	272.20
488.26	273.13
488.62	274.09
488.99	275.05
489.35	276.09
489.72	277.22
490.08	278.42
490.44	279.67
490.81	281.00
491.17	282.36
491.54	283.88
491.90	285.39
492.26	287.02
492.63	288.74
492.99	290.50
493.36	292.34
493.72	294.38
494.08	296.49
494.45	298.73
494.81	301.05
495.17	303.51
495.54	306.10
495.90	308.74
496.26	311.59
496.63	314.57
496.99	317.63
497.35	320.91
497.72	324.33
498.08	327.87
498.44	331.46
498.80	335.41
499.17	339.39
499.53	343.61
499.89	347.94
500.26	352.44
500.62	357.10
500.98	362.10
501.34	367.20
501.71	372.53
502.07	378.02
502.43	383.65
502.79	389.44
503.16	395.46
503.52	401.73
503.88	408.13
504.24	414.79
504.60	421.72
504.97	428.84
505.33	436.19
505.69	443.82
506.05	451.63
506.41	459.45
506.78	467.66
507.14	476.08
507.50	484.92
507.86	493.96
508.22	503.21
508.59	512.38
508.95	521.98
509.31	531.80
509.67	541.88
510.03	552.14
510.39	562.75
510.75	573.52
511.12	584.42
511.48	595.71
511.84	607.06
512.20	618.53
512.56	630.56
512.92	642.75
513.28	655.19
513.64	667.71
514.00	680.48
514.37	693.37
514.73	706.47
515.09	719.45
515.45	732.67
515.81	746.30
516.17	760.35
516.53	774.43
516.89	788.61
517.25	802.84
517.61	817.32
517.97	831.83
518.33	846.34
518.69	861.18
519.05	876.20
519.41	891.51
519.77	907.16
520.13	922.44
520.49	937.84
520.85	953.27
521.21	969.09
521.57	985.20
521.93	1001.06
522.29	1017.52
522.65	1033.72
523.01	1050.10
523.37	1066.15
523.73	1082.27
524.09	1098.33
524.45	1114.66
524.81	1131.30
525.17	1148.19
525.53	1165.06
525.89	1181.98
526.25	1198.76
526.61	1215.11
526.97	1231.81
527.33	1248.18
527.68	1264.94
528.04	1281.37
528.40	1297.88
528.76	1314.83
529.12	1331.65
529.48	1348.40
529.84	1364.38
530.20	1381.14
530.56	1398.15
530.91	1415.51
531.27	1432.32
531.63	1448.92
531.99	1465.46
532.35	1481.39
532.71	1497.19
533.07	1513.51
533.42	1529.38
533.78	1545.50
534.14	1561.81
534.50	1577.21
534.86	1593.25
535.21	1608.38
535.57	1624.39
535.93	1640.05
536.29	1654.77
536.65	1669.74
537.00	1684.51
537.36	1699.74
537.72	1714.27
538.08	1728.64
538.44	1742.37
538.79	1756.36
539.15	1770.03
539.51	1783.73
539.87	1798.06
540.22	1811.77
540.58	1825.50
540.94	1838.83
541.29	1851.65
541.65	1864.39
542.01	1877.65
542.37	1889.86
542.72	1902.28
543.08	1913.99
543.44	1926.27
543.79	1937.65
544.15	1948.75
544.51	1960.39
544.87	1971.48
545.22	1982.15
545.58	1992.29
545.94	2002.10
546.29	2011.82
546.65	2021.57
547.01	2030.95
547.36	2039.64
547.72	2048.22
548.07	2055.96
548.43	2064.06
548.79	2072.25
549.14	2079.60
549.50	2086.78
549.86	2094.57
550.21	2101.84
550.57	2108.96
550.92	2115.49
551.28	2122.42
551.64	2129.43
551.99	2135.87
552.35	2141.97
552.70	2148.05
553.06	2154.02
553.41	2160.35
553.77	2166.43
554.13	2172.62
554.48	2178.66
554.84	2184.05
555.19	2189.39
555.55	2194.61
555.90	2199.20
556.26	2203.85
556.61	2208.74
556.97	2213.12
557.32	2217.07
557.68	2221.35
558.03	2225.61
558.39	2229.42
558.74	2234.14
559.10	2237.96
559.45	2241.73
559.81	2246.05
560.16	2250.05
560.52	2253.38
560.87	2256.86
561.23	2259.55
561.58	2262.52
561.94	2265.07
562.29	2267.47
562.64	2270.07
563.00	2272.78
563.35	2276.17
563.71	2279.46
564.06	2282.68
564.42	2285.40
564.77	2288.04
565.12	2290.23
565.48	2292.28
565.83	2294.19
566.19	2295.43
566.54	2296.22
566.89	2297.29
567.25	2297.78
567.60	2299.06
567.96	2300.70
568.31	2301.51
568.66	2302.54
569.02	2303.03
569.37	2303.42
569.72	2304.36
570.08	2304.45
570.43	2304.31
570.78	2303.66
571.14	2302.03
571.49	2300.69
571.84	2300.48
572.20	2299.17
572.55	2298.20
572.90	2296.56
573.26	2295.03
573.61	2293.27
573.96	2291.54
574.31	2288.74
574.67	2285.70
575.02	2282.10
575.37	2278.60
575.72	2274.60
576.08	2271.28
576.43	2267.99
576.78	2264.22
577.13	2261.10
577.49	2258.01
577.84	2254.54
578.19	2250.92
578.54	2247.15
578.90	2242.72
579.25	2237.07
579.60	2232.20
579.95	2227.02
580.30	2222.02
580.66	2216.95
581.01	2212.13
581.36	2207.27
581.71	2202.95
582.06	2198.52
582.42	2193.91
582.77	2188.86
583.12	2184.46
583.47	2179.63
583.82	2174.52
584.17	2169.30
584.53	2163.70
584.88	2157.99
585.23	2152.17
585.58	2146.69
585.93	2141.44
586.28	2136.79
586.63	2131.69
586.98	2126.51
587.34	2121.84
587.69	2116.93
588.04	2111.57
588.39	2105.86
588.74	2099.28
589.09	2093.16
589.44	2086.33
589.79	2080.48
590.14	2074.73
590.49	2068.07
590.84	2061.88
591.19	2055.88
591.54	2049.37
591.89	2041.92
592.25	2035.19
592.60	2027.94
592.95	2020.28
593.30	2012.89
593.65	2005.36
594.00	1998.41
594.35	1991.32
594.70	1983.29
595.05	1976.02
595.40	1968.73
595.75	1961.31
596.10	1955.18
596.45	1948.35
596.80	1942.30
597.15	1935.48
597.50	1928.32
597.85	1922.03
598.19	1915.21
598.54	1908.07
598.89	1901.51
599.24	1895.69
599.59	1888.80
599.94	1882.67
600.29	1876.42
600.64	1869.78
600.99	1862.21
601.34	1855.42
601.69	1848.36
602.04	1841.47
602.39	1834.03
602.74	1827.21
603.08	1820.38
603.43	1813.53
603.78	1806.23
604.13	1798.85
604.48	1791.55
604.83	1784.69
605.18	1777.56
605.53	1769.59
605.87	1761.58
606.22	1754.31
606.57	1746.33
606.92	1739.16
607.27	1731.92
607.62	1724.94
607.96	1717.69
608.31	1711.02
608.66	1703.22
609.01	1695.76
609.36	1688.12
609.70	1680.17
610.05	1671.99
610.40	1664.10
610.75	1655.73
611.10	1648.01
611.44	1639.57
611.79	1631.63
612.14	1622.89
612.49	1613.70
612.83	1605.26
613.18	1597.03
613.53	1588.80
613.88	1580.21
614.22	1571.92
614.57	1563.33
614.92	1555.25
615.27	1547.62
615.61	1539.23
615.96	1531.31
616.31	1523.52
616.65	1516.16
617.00	1508.63
617.35	1501.05
617.70	1492.79
618.04	1484.34
618.39	1476.18
618.74	1468.64
619.08	1460.36
619.43	1452.90
619.78	1446.00
620.12	1438.89
620.47	1431.39
620.82	1423.32
621.16	1415.98
621.51	1408.38
621.85	1400.80
622.20	1392.22
622.55	1383.87
622.89	1376.07
623.24	1368.48
623.59	1361.16
623.93	1353.57
624.28	1346.42
624.62	1338.85
624.97	1331.75
625.32	1325.06
625.66	1318.11
626.01	1310.90
626.35	1303.43
626.70	1295.61
627.04	1287.89
627.39	1280.13
627.73	1272.78
628.08	1265.83
628.43	1258.39
628.77	1250.98
629.12	1243.44
629.46	1236.35
629.81	1228.95
630.15	1221.75
630.50	1214.26
630.84	1206.07
631.19	1198.21
631.53	1190.63
631.88	1183.12
632.22	1175.45
632.57	1168.10
632.91	1160.47
633.26	1153.04
633.60	1145.69
633.95	1138.61
634.29	1131.62
634.64	1124.89
634.98	1117.52
635.32	1110.38
635.67	1103.87
636.01	1097.17
636.36	1090.37
636.70	1083.88
637.05	1077.31
637.39	1070.85
637.73	1064.37
638.08	1058.45
638.42	1052.37
638.77	1045.88
639.11	1039.17
639.45	1032.81
639.80	1026.14
640.14	1019.72
640.49	1013.17
640.83	1006.81
641.17	1000.57
641.52	994.16
641.86	987.76
642.20	981.84
642.55	975.61
642.89	969.11
643.23	962.66
643.58	956.82
643.92	950.56
644.26	944.41
644.61	938.40
644.95	932.34
645.29	925.65
645.64	918.95
645.98	912.63
646.32	906.88
646.66	900.78
647.01	894.99
647.35	889.23
647.69	883.42
648.04	877.90
648.38	872.08
648.72	866.05
649.06	860.00
649.41	854.20
649.75	848.19
650.09	842.24
650.43	836.39
650.78	830.17
651.12	824.27
651.46	818.60
651.80	812.79
652.14	807.46
652.49	802.12
652.83	796.98
653.17	791.24
653.51	785.54
653.85	780.22
654.20	774.54
654.54	768.57
654.88	762.88
655.22	757.00
655.56	751.35
655.90	745.95
656.25	740.66
656.59	735.25
656.93	730.16
657.27	724.98
657.61	719.60
657.95	714.57
658.29	709.46
658.64	704.26
658.98	699.00
659.32	693.42
659.66	688.29
660.00	682.94
660.34	678.02
660.68	673.08
661.02	668.01
661.36	663.31
661.70	658.81
662.05	654.36
662.39	650.02
662.73	645.57
663.07	641.20
663.41	636.76
663.75	632.24
664.09	627.61
664.43	623.16
664.77	618.99
665.11	614.71
665.45	610.54
665.79	606.40
666.13	602.23
666.47	598.21
666.81	594.04
667.15	590.03
667.49	586.12
667.83	582.32
668.17	578.38
668.51	574.28
668.85	570.31
669.19	566.53
669.53	562.70
669.87	558.73
670.21	555.06
670.55	551.43
670.89	547.99
671.23	544.58
671.57	541.10
671.91	537.56
672.25	534.06
672.58	530.55
672.92	527.18
673.26	524.06
673.60	520.95
673.94	517.84
674.28	514.91
674.62	511.96
674.96	508.82
675.30	505.95
675.64	503.00
675.97	500.22
676.31	497.33
676.65	494.45
676.99	491.78
677.33	488.87
677.67	485.99
678.01	482.95
678.34	479.95
678.68	477.11
679.02	474.30
679.36	471.54
679.70	468.87
680.04	466.09
680.37	463.15
680.71	460.32
681.05	457.77
681.39	454.99
681.73	452.41
682.06	449.89
682.40	447.33
682.74	444.86
683.08	442.28
683.42	439.69
683.75	437.14
684.09	434.61
684.43	432.14
684.77	429.73
685.10	427.45
685.44	425.24
685.78	422.93
686.12	420.70
686.45	418.41
686.79	416.08
687.13	413.85
687.46	411.72
687.80	409.60
688.14	407.30
688.48	405.24
688.81	402.95
689.15	400.79
689.49	398.61
689.82	396.54
690.16	394.46
690.50	392.52
690.83	390.58
691.17	388.64
691.51	386.73
691.84	384.86
692.18	382.92
692.52	380.91
692.85	379.04
693.19	377.12
693.52	375.32
693.86	373.55
694.20	371.79
694.53	369.98
694.87	368.12
695.21	366.30
695.54	364.50
695.88	362.81
696.21	361.09
696.55	359.45
696.88	357.74
697.22	356.07
697.56	354.44
697.89	352.76
698.23	351.10
698.56	349.49
698.90	347.88
699.23	346.23
699.57	344.63
699.90	343.07
700.24	341.53
700.58	339.95
700.91	338.44
701.25	337.01
701.58	335.66
701.92	334.31
702.25	332.98
702.59	331.63
702.92	330.26
703.26	328.98
703.59	327.67
703.93	326.50
704.26	325.28
704.60	323.96
704.93	322.67
705.26	321.44
705.60	320.30
705.93	319.17
706.27	318.16
706.60	317.12
706.94	316.05
707.27	314.93
707.61	313.89
707.94	312.84
708.27	311.74
708.61	310.65
708.94	309.65
709.28	308.68
709.61	307.71
709.94	306.78
710.28	305.74
710.61	304.78
710.95	303.70
711.28	302.77
711.61	301.82
711.95	300.93
712.28	299.96
712.61	298.96
712.95	297.99
713.28	297.09
713.61	296.20
713.95	295.31
714.28	294.46
714.61	293.62
714.95	292.76
715.28	291.90
715.61	291.01
715.95	290.15
716.28	289.30
716.61	288.49
716.95	287.68
717.28	286.94
717.61	286.16
717.94	285.43
718.28	284.64
718.61	283.92
718.94	283.22
719.27	282.56
719.61	281.94
719.94	281.28
720.27	280.56
720.60	279.90
720.94	279.27
721.27	278.67
721.60	278.07
721.93	277.52
722.27	276.98
722.60	276.43
722.93	275.85
723.26	275.32
723.59	274.76
723.93	274.19
724.26	273.65
724.59	273.11
724.92	272.58
725.25	272.11
725.59	271.61
725.92	271.12
726.25	270.64
726.58	270.14
726.91	269.67
727.24	269.21
727.57	268.75
727.91	268.26
728.24	267.81
728.57	267.33
728.90	266.87
729.23	266.37
729.56	265.97
729.89	265.51
730.22	264.99
730.55	264.51
730.89	264.09
731.22	263.62
731.55	263.21
731.88	262.80
732.21	262.36
732.54	261.95
732.87	261.54
733.20	261.09
733.53	260.70
733.86	260.33
734.19	259.96
734.52	259.54
734.85	259.22
735.18	258.78
735.51	258.41
735.84	258.06
736.17	257.71
736.50	257.27
736.83	257.02
737.16	256.71
737.49	256.37
737.82	256.00
738.15	255.69
738.48	255.33
738.81	254.96
739.14	254.65
739.47	254.28
739.80	253.97
740.13	253.71
740.46	253.40
740.79	253.04
741.12	252.71
741.45	252.39
741.78	252.05
742.11	251.81
742.44	251.47
742.77	251.19
743.10	250.88
743.43	250.62
743.75	250.25
744.08	250.11
744.41	249.82
744.74	249.55
745.07	249.25
745.40	249.01
745.73	248.81
746.06	248.52
746.39	248.29
746.71	247.99
747.04	247.68
747.37	247.40
747.70	247.20
748.03	246.97
748.36	246.80
748.68	246.56
749.01	246.30
749.34	246.09
749.67	245.86
750.00	245.66
750.33	245.49
750.65	245.26
750.98	244.88
751.31	244.71
751.64	244.48
751.97	244.32
752.29	244.08
752.62	243.82
752.95	243.63
753.28	243.41
753.60	243.23
753.93	243.07
754.26	242.89
754.59	242.65
754.91	242.42
755.24	242.18
755.57	242.02
755.90	241.85
756.22	241.65
756.55	241.45
756.88	241.28
757.20	241.06
757.53	240.86
757.86	240.70
758.19	240.51
758.51	240.35
758.84	240.13
759.17	240.00
759.49	239.86
759.82	239.72
760.15	239.59
760.47	239.47
760.80	239.29
761.13	239.16
761.45	239.02
761.78	238.87
762.11	238.72
762.43	238.54
762.76	238.40
763.08	238.30
763.41	238.19
763.74	238.01
764.06	237.90
764.39	237.80
764.71	237.68
765.04	237.58
765.37	237.43
765.69	237.31
766.02	237.16
766.34	237.01
766.67	236.86
767.00	236.77
767.32	236.69
767.65	236.63
767.97	236.50
768.30	236.40
768.62	236.31
768.95	236.20
769.27	236.11
769.60	236.04
769.92	235.89
770.25	235.76
770.57	235.67
770.90	235.51
771.22	235.40
771.55	235.29
771.87	235.19
772.20	235.08
772.52	235.08
772.85	235.09
773.17	235.02
773.50	234.92
773.82	234.78
774.15	234.64
774.47	234.50
774.80	234.42
775.12	234.31
775.45	234.25
775.77	234.17
776.09	234.08
776.42	233.94
776.74	233.87
777.07	233.75
777.39	233.65
777.72	233.59
778.04	233.49
778.36	233.36
778.69	233.29
779.01	233.25
779.33	233.07
779.66	232.88
779.98	232.80
780.31	232.73
780.63	232.72
780.95	232.64
781.28	232.59
781.60	232.50
781.92	232.44
782.25	232.33
782.57	232.26
782.89	232.20
783.22	232.19
783.54	232.12
783.86	232.10
784.19	232.06
784.51	232.03
784.83	231.98
785.16	231.96
785.48	231.89
785.80	231.82
786.12	231.80
786.45	231.75
786.77	231.72
787.09	231.67
