SpectraSuite Data File
++++++++++++++++++++++++++++++++++++
Date: Fri Feb 01 16:01:20 EST 2013
User: group
Dark Spectrum Present: No
Reference Spectrum Present: No
Number of Sampled Component Spectra: 1
Spectrometers: USB2E7196
Integration Time (usec): 35000 (USB2E7196)
Spectra Averaged: 100 (USB2E7196)
Boxcar Smoothing: 10 (USB2E7196)
Correct for Electrical Dark: No (USB2E7196)
Strobe/Lamp Enabled: No (USB2E7196)
Correct for Detector Non-linearity: No (USB2E7196)
Correct for Stray Light: No (USB2E7196)
Number of Pixels in Processed Spectrum: 2048
>>>>>Begin Processed Spectral Data<<<<<
339.09	0.00
339.48	214.29
339.86	215.91
340.24	217.52
340.63	219.15
341.01	221.89
341.39	221.30
341.78	222.86
342.16	224.03
342.54	224.20
342.93	213.02
343.31	223.79
343.69	224.34
344.07	224.81
344.46	225.22
344.84	225.60
345.22	225.81
345.60	226.07
345.99	226.26
346.37	226.37
346.75	226.50
347.13	226.58
347.52	226.60
347.90	226.66
348.28	226.70
348.66	226.76
349.05	226.72
349.43	226.77
349.81	226.80
350.19	226.87
350.57	226.91
350.96	226.95
351.34	227.00
351.72	227.10
352.10	227.20
352.48	227.28
352.87	227.32
353.25	227.42
353.63	227.49
354.01	227.56
354.39	227.66
354.77	227.71
355.15	227.81
355.54	227.84
355.92	227.88
356.30	227.95
356.68	228.08
357.06	228.20
357.44	228.25
357.82	228.33
358.20	228.39
358.58	228.48
358.97	228.57
359.35	228.69
359.73	228.74
360.11	228.77
360.49	228.87
360.87	228.90
361.25	228.97
361.63	229.05
362.01	229.09
362.39	229.13
362.77	229.19
363.15	229.22
363.53	229.27
363.91	229.29
364.29	229.31
364.67	229.22
365.05	229.22
365.43	229.26
365.81	229.28
366.19	229.33
366.57	229.38
366.95	229.39
367.33	229.35
367.71	229.36
368.09	229.38
368.47	229.37
368.85	229.35
369.23	229.35
369.61	229.27
369.99	229.27
370.37	229.25
370.75	229.24
371.13	229.19
371.51	229.12
371.89	229.09
372.27	229.05
372.65	229.01
373.03	228.96
373.41	228.87
373.78	228.80
374.16	228.66
374.54	228.57
374.92	228.46
375.30	228.38
375.68	228.29
376.06	228.21
376.44	228.11
376.82	228.06
377.19	227.94
377.57	227.85
377.95	227.75
378.33	227.65
378.71	227.51
379.09	227.47
379.47	227.41
379.84	227.35
380.22	227.26
380.60	227.17
380.98	227.09
381.36	227.03
381.73	226.95
382.11	226.91
382.49	226.84
382.87	226.75
383.25	226.71
383.62	226.77
384.00	226.72
384.38	226.65
384.76	226.59
385.13	226.58
385.51	226.54
385.89	226.51
386.27	226.49
386.64	226.45
387.02	226.38
387.40	226.35
387.78	226.30
388.15	226.26
388.53	226.24
388.91	226.20
389.29	226.16
389.66	226.16
390.04	226.14
390.42	226.15
390.79	226.14
391.17	226.10
391.55	225.95
391.92	225.93
392.30	225.92
392.68	225.93
393.05	225.92
393.43	226.00
393.81	225.99
394.18	225.98
394.56	226.05
394.94	226.10
395.31	226.10
395.69	226.16
396.06	226.21
396.44	226.23
396.82	226.27
397.19	226.37
397.57	226.41
397.95	226.48
398.32	226.47
398.70	226.55
399.07	226.66
399.45	226.73
399.82	226.82
400.20	226.91
400.58	226.96
400.95	227.00
401.33	227.04
401.70	227.19
402.08	227.29
402.45	227.34
402.83	227.44
403.20	227.57
403.58	227.63
403.95	227.79
404.33	227.93
404.71	228.04
405.08	228.23
405.46	228.38
405.83	228.52
406.21	228.69
406.58	228.85
406.96	229.00
407.33	229.21
407.70	229.38
408.08	229.68
408.45	229.92
408.83	230.15
409.20	230.38
409.58	230.53
409.95	230.79
410.33	231.08
410.70	231.35
411.08	231.67
411.45	232.03
411.82	232.35
412.20	232.71
412.57	233.15
412.95	233.44
413.32	233.83
413.69	234.24
414.07	234.68
414.44	235.19
414.82	235.64
415.19	236.20
415.56	236.75
415.94	237.25
416.31	237.88
416.68	238.53
417.06	239.24
417.43	239.96
417.81	240.74
418.18	241.50
418.55	242.36
418.93	243.22
419.30	244.05
419.67	244.93
420.04	245.88
420.42	246.88
420.79	248.07
421.16	249.18
421.54	250.36
421.91	251.56
422.28	252.79
422.66	254.17
423.03	255.45
423.40	256.80
423.77	258.24
424.15	259.66
424.52	261.15
424.89	262.76
425.26	264.30
425.64	265.73
426.01	267.33
426.38	268.95
426.75	270.58
427.13	272.30
427.50	274.15
427.87	276.00
428.24	277.84
428.61	279.56
428.99	281.55
429.36	283.64
429.73	285.75
430.10	287.79
430.47	289.83
430.85	291.90
431.22	294.10
431.59	296.50
431.96	298.75
432.33	301.22
432.70	303.59
433.08	306.37
433.45	309.00
433.82	311.55
434.19	314.41
434.56	317.26
434.93	319.94
435.30	322.53
435.68	325.42
436.05	328.26
436.42	331.03
436.79	333.54
437.16	336.25
437.53	339.09
437.90	341.86
438.27	344.61
438.64	347.44
439.01	350.03
439.38	352.25
439.75	354.40
440.13	356.90
440.50	359.20
440.87	361.06
441.24	362.98
441.61	365.18
441.98	366.72
442.35	368.52
442.72	370.38
443.09	372.19
443.46	373.15
443.83	373.70
444.20	374.23
444.57	375.05
444.94	375.31
445.31	375.61
445.68	375.98
446.05	376.04
446.42	375.63
446.79	375.20
447.16	374.75
447.53	374.39
447.90	373.22
448.27	372.07
448.64	370.45
449.01	369.31
449.37	367.39
449.74	365.44
450.11	363.20
450.48	360.75
450.85	358.22
451.22	356.12
451.59	354.14
451.96	352.20
452.33	349.63
452.70	347.24
453.07	344.41
453.43	341.48
453.80	338.70
454.17	336.09
454.54	333.56
454.91	330.82
455.28	328.16
455.65	325.68
456.02	323.25
456.38	321.15
456.75	318.49
457.12	316.20
457.49	314.04
457.86	311.86
458.23	309.98
458.59	307.94
458.96	305.87
459.33	303.98
459.70	302.13
460.07	300.60
460.43	298.93
460.80	297.31
461.17	295.90
461.54	294.47
461.91	293.09
462.27	291.65
462.64	290.45
463.01	289.12
463.38	287.87
463.74	286.57
464.11	285.43
464.48	284.47
464.85	283.40
465.21	282.53
465.58	281.59
465.95	280.53
466.32	279.63
466.68	278.71
467.05	277.82
467.42	276.95
467.78	276.05
468.15	275.23
468.52	274.59
468.88	273.73
469.25	272.91
469.62	272.22
469.98	271.58
470.35	270.93
470.72	270.32
471.08	269.62
471.45	269.03
471.82	268.48
472.18	267.84
472.55	267.37
472.92	266.83
473.28	266.40
473.65	265.95
474.02	265.48
474.38	265.12
474.75	264.84
475.11	264.49
475.48	264.19
475.85	263.88
476.21	263.61
476.58	263.47
476.94	263.32
477.31	263.20
477.67	263.02
478.04	262.91
478.41	262.85
478.77	262.90
479.14	262.84
479.50	262.85
479.87	262.94
480.23	263.01
480.60	263.06
480.96	263.14
481.33	263.32
481.69	263.58
482.06	263.78
482.42	263.96
482.79	264.21
483.15	264.52
483.52	264.93
483.88	265.29
484.25	265.67
484.61	266.11
484.98	266.55
485.34	267.11
485.71	267.68
486.07	268.26
486.44	268.79
486.80	269.49
487.17	270.20
487.53	270.98
487.90	271.79
488.26	272.73
488.62	273.72
488.99	274.67
489.35	275.66
489.72	276.80
490.08	277.99
490.44	279.20
490.81	280.57
491.17	281.89
491.54	283.35
491.90	284.88
492.26	286.52
492.63	288.24
492.99	290.02
493.36	291.97
493.72	294.05
494.08	296.17
494.45	298.44
494.81	300.84
495.17	303.29
495.54	305.91
495.90	308.61
496.26	311.38
496.63	314.37
496.99	317.50
497.35	320.78
497.72	324.21
498.08	327.80
498.44	331.48
498.80	335.44
499.17	339.47
499.53	343.64
499.89	348.05
500.26	352.58
500.62	357.28
500.98	362.23
501.34	367.31
501.71	372.66
502.07	378.14
502.43	383.76
502.79	389.59
503.16	395.71
503.52	402.06
503.88	408.49
504.24	415.14
504.60	422.10
504.97	429.27
505.33	436.63
505.69	444.30
506.05	452.12
506.41	460.06
506.78	468.27
507.14	476.79
507.50	485.51
507.86	494.56
508.22	503.77
508.59	513.00
508.95	522.59
509.31	532.44
509.67	542.51
510.03	552.81
510.39	563.49
510.75	574.29
511.12	585.22
511.48	596.54
511.84	608.04
512.20	619.53
512.56	631.42
512.92	643.56
513.28	655.90
513.64	668.33
514.00	680.99
514.37	693.94
514.73	706.96
515.09	720.00
515.45	733.24
515.81	746.82
516.17	760.80
516.53	774.95
516.89	789.05
517.25	803.28
517.61	817.66
517.97	832.04
518.33	846.47
518.69	861.27
519.05	876.23
519.41	891.29
519.77	906.84
520.13	922.30
520.49	937.74
520.85	953.20
521.21	968.89
521.57	985.17
521.93	1000.86
522.29	1017.18
522.65	1033.43
523.01	1049.67
523.37	1065.67
523.73	1081.85
524.09	1097.86
524.45	1114.23
524.81	1130.74
525.17	1147.50
525.53	1164.33
525.89	1181.15
526.25	1197.98
526.61	1214.38
526.97	1231.16
527.33	1247.55
527.68	1264.07
528.04	1280.45
528.40	1297.02
528.76	1314.01
529.12	1330.48
529.48	1347.43
529.84	1363.40
530.20	1380.03
530.56	1397.01
530.91	1414.35
531.27	1431.05
531.63	1447.51
531.99	1464.01
532.35	1479.90
532.71	1495.72
533.07	1511.89
533.42	1527.68
533.78	1543.58
534.14	1559.69
534.50	1575.03
534.86	1590.86
535.21	1606.09
535.57	1621.95
535.93	1637.42
536.29	1652.33
536.65	1667.32
537.00	1681.99
537.36	1697.32
537.72	1711.64
538.08	1725.94
538.44	1739.75
538.79	1753.48
539.15	1767.05
539.51	1780.65
539.87	1795.07
540.22	1808.89
540.58	1822.63
540.94	1835.87
541.29	1848.72
541.65	1861.47
542.01	1874.52
542.37	1886.82
542.72	1899.08
543.08	1910.91
543.44	1923.35
543.79	1934.45
544.15	1945.58
544.51	1957.14
544.87	1968.10
545.22	1979.01
545.58	1989.25
545.94	1998.97
546.29	2008.88
546.65	2018.77
547.01	2028.11
547.36	2036.73
547.72	2045.19
548.07	2053.03
548.43	2061.26
548.79	2069.31
549.14	2076.75
549.50	2084.19
549.86	2091.83
550.21	2099.24
550.57	2106.39
550.92	2112.79
551.28	2119.86
551.64	2126.76
551.99	2133.29
552.35	2139.39
552.70	2145.57
553.06	2151.54
553.41	2157.91
553.77	2163.94
554.13	2169.98
554.48	2176.22
554.84	2181.82
555.19	2187.00
555.55	2192.25
555.90	2196.69
556.26	2201.53
556.61	2206.38
556.97	2210.64
557.32	2214.84
557.68	2218.97
558.03	2223.13
558.39	2226.79
558.74	2231.36
559.10	2235.32
559.45	2238.91
559.81	2243.34
560.16	2247.16
560.52	2250.33
560.87	2253.66
561.23	2256.30
561.58	2259.24
561.94	2261.62
562.29	2263.84
562.64	2266.56
563.00	2269.10
563.35	2272.70
563.71	2275.89
564.06	2279.08
564.42	2281.86
564.77	2284.31
565.12	2286.64
565.48	2288.66
565.83	2290.60
566.19	2291.92
566.54	2292.65
566.89	2293.76
567.25	2294.16
567.60	2295.40
567.96	2297.13
568.31	2297.89
568.66	2299.00
569.02	2299.61
569.37	2300.01
569.72	2301.04
570.08	2301.24
570.43	2301.24
570.78	2300.56
571.14	2298.90
571.49	2297.50
571.84	2297.25
572.20	2296.19
572.55	2295.04
572.90	2293.49
573.26	2292.17
573.61	2290.53
573.96	2288.79
574.31	2285.94
574.67	2282.97
575.02	2279.52
575.37	2276.18
575.72	2272.46
576.08	2269.30
576.43	2266.13
576.78	2262.29
577.13	2259.03
577.49	2255.87
577.84	2252.36
578.19	2248.67
578.54	2245.12
578.90	2240.85
579.25	2235.29
579.60	2230.40
579.95	2225.43
580.30	2220.50
580.66	2215.30
581.01	2210.50
581.36	2205.71
581.71	2201.62
582.06	2197.20
582.42	2192.60
582.77	2187.30
583.12	2182.86
583.47	2177.99
583.82	2172.84
584.17	2167.81
584.53	2162.35
584.88	2156.86
585.23	2151.07
585.58	2145.70
585.93	2140.24
586.28	2135.50
586.63	2130.44
586.98	2125.33
587.34	2120.66
587.69	2115.73
588.04	2110.54
588.39	2104.73
588.74	2098.18
589.09	2092.01
589.44	2085.16
589.79	2079.29
590.14	2073.82
590.49	2067.26
590.84	2060.83
591.19	2054.86
591.54	2048.41
591.89	2041.12
592.25	2034.19
592.60	2027.15
592.95	2019.57
593.30	2012.29
593.65	2004.89
594.00	1997.96
594.35	1990.69
594.70	1982.75
595.05	1975.50
595.40	1968.30
595.75	1960.77
596.10	1954.76
596.45	1948.02
596.80	1942.04
597.15	1935.33
597.50	1928.23
597.85	1921.89
598.19	1915.36
598.54	1908.21
598.89	1901.51
599.24	1895.58
599.59	1888.88
599.94	1882.56
600.29	1876.21
600.64	1869.65
600.99	1862.26
601.34	1855.41
601.69	1848.45
602.04	1841.53
602.39	1834.12
602.74	1827.20
603.08	1820.64
603.43	1813.75
603.78	1806.43
604.13	1799.25
604.48	1791.98
604.83	1785.13
605.18	1778.01
605.53	1769.97
605.87	1762.01
606.22	1754.73
606.57	1746.82
606.92	1739.53
607.27	1732.43
607.62	1725.46
607.96	1718.08
608.31	1711.33
608.66	1703.74
609.01	1696.23
609.36	1688.71
609.70	1680.78
610.05	1672.75
610.40	1664.84
610.75	1656.56
611.10	1648.81
611.44	1640.36
611.79	1632.27
612.14	1623.46
612.49	1614.41
612.83	1606.16
613.18	1598.07
613.53	1590.03
613.88	1581.39
614.22	1573.07
614.57	1564.54
614.92	1556.54
615.27	1549.01
615.61	1540.58
615.96	1532.59
616.31	1524.96
616.65	1517.46
617.00	1509.78
617.35	1502.05
617.70	1493.82
618.04	1485.25
618.39	1477.03
618.74	1469.40
619.08	1461.21
619.43	1453.70
619.78	1446.65
620.12	1439.27
620.47	1431.65
620.82	1423.38
621.16	1415.96
621.51	1408.40
621.85	1400.72
622.20	1392.12
622.55	1383.77
622.89	1376.03
623.24	1368.27
623.59	1360.81
623.93	1353.35
624.28	1346.30
624.62	1338.68
624.97	1331.54
625.32	1324.87
625.66	1317.88
626.01	1310.72
626.35	1303.19
626.70	1295.35
627.04	1287.71
627.39	1280.00
627.73	1272.57
628.08	1265.80
628.43	1258.42
628.77	1250.97
629.12	1243.34
629.46	1236.27
629.81	1228.88
630.15	1221.55
630.50	1214.15
630.84	1205.89
631.19	1197.91
631.53	1190.32
631.88	1182.88
632.22	1175.30
632.57	1167.91
632.91	1160.42
633.26	1152.90
633.60	1145.55
633.95	1138.53
634.29	1131.37
634.64	1124.76
634.98	1117.51
635.32	1110.30
635.67	1103.89
636.01	1097.33
636.36	1090.60
636.70	1083.96
637.05	1077.26
637.39	1070.78
637.73	1064.29
638.08	1058.48
638.42	1052.58
638.77	1046.15
639.11	1039.39
639.45	1032.94
639.80	1026.32
640.14	1019.88
640.49	1013.39
640.83	1007.11
641.17	1000.88
641.52	994.53
641.86	988.10
642.20	982.16
642.55	975.89
642.89	969.34
643.23	962.79
643.58	957.01
643.92	950.86
644.26	944.90
644.61	938.94
644.95	932.93
645.29	926.37
645.64	919.52
645.98	913.12
646.32	907.35
646.66	901.24
647.01	895.43
647.35	889.71
647.69	883.89
648.04	878.34
648.38	872.49
648.72	866.55
649.06	860.49
649.41	854.63
649.75	848.61
650.09	842.69
650.43	836.88
650.78	830.63
651.12	824.69
651.46	818.95
651.80	813.12
652.14	807.70
652.49	802.34
652.83	797.22
653.17	791.61
653.51	785.98
653.85	780.63
654.20	774.96
654.54	768.93
654.88	763.27
655.22	757.31
655.56	751.62
655.90	746.15
656.25	740.88
656.59	735.49
656.93	730.37
657.27	725.19
657.61	719.75
657.95	714.71
658.29	709.68
658.64	704.45
658.98	699.22
659.32	693.75
659.66	688.48
660.00	683.14
660.34	678.11
660.68	673.11
661.02	668.03
661.36	663.34
661.70	658.87
662.05	654.44
662.39	650.11
662.73	645.64
663.07	641.25
663.41	636.84
663.75	632.33
664.09	627.83
664.43	623.40
664.77	619.32
665.11	615.07
665.45	610.92
665.79	606.80
666.13	602.69
666.47	598.57
666.81	594.45
667.15	590.29
667.49	586.36
667.83	582.57
668.17	578.71
668.51	574.58
668.85	570.53
669.19	566.70
669.53	562.85
669.87	558.96
670.21	555.27
670.55	551.54
670.89	548.16
671.23	544.70
671.57	541.21
671.91	537.62
672.25	534.09
672.58	530.57
672.92	527.15
673.26	523.97
673.60	520.87
673.94	517.74
674.28	514.85
674.62	511.98
674.96	508.82
675.30	505.91
675.64	502.99
675.97	500.21
676.31	497.31
676.65	494.43
676.99	491.74
677.33	488.91
677.67	486.04
678.01	482.99
678.34	480.01
678.68	477.12
679.02	474.35
679.36	471.65
679.70	468.94
680.04	466.16
680.37	463.20
680.71	460.39
681.05	457.77
681.39	455.06
681.73	452.39
682.06	449.92
682.40	447.34
682.74	444.91
683.08	442.30
683.42	439.71
683.75	437.18
684.09	434.62
684.43	432.10
684.77	429.73
685.10	427.38
685.44	425.06
685.78	422.83
686.12	420.59
686.45	418.32
686.79	415.96
687.13	413.81
687.46	411.74
687.80	409.59
688.14	407.34
688.48	405.27
688.81	402.99
689.15	400.86
689.49	398.69
689.82	396.61
690.16	394.58
690.50	392.67
690.83	390.72
691.17	388.77
691.51	386.86
691.84	384.95
692.18	383.05
692.52	381.07
692.85	379.07
693.19	377.13
693.52	375.25
693.86	373.42
694.20	371.69
694.53	369.87
694.87	368.04
695.21	366.26
695.54	364.48
695.88	362.75
696.21	361.00
696.55	359.38
696.88	357.67
697.22	356.00
697.56	354.31
697.89	352.67
698.23	351.04
698.56	349.50
698.90	347.94
699.23	346.28
699.57	344.76
699.90	343.26
700.24	341.75
700.58	340.21
700.91	338.74
701.25	337.30
701.58	335.91
701.92	334.53
702.25	333.20
702.59	331.80
702.92	330.52
703.26	329.21
703.59	327.91
703.93	326.72
704.26	325.50
704.60	324.23
704.93	323.00
705.26	321.73
705.60	320.52
705.93	319.38
706.27	318.33
706.60	317.28
706.94	316.17
707.27	315.06
707.61	313.97
707.94	312.91
708.27	311.78
708.61	310.71
708.94	309.72
709.28	308.71
709.61	307.75
709.94	306.76
710.28	305.73
710.61	304.73
710.95	303.65
711.28	302.72
711.61	301.77
711.95	300.82
712.28	299.88
712.61	298.88
712.95	297.91
713.28	296.99
713.61	296.02
713.95	295.13
714.28	294.28
714.61	293.45
714.95	292.60
715.28	291.73
715.61	290.83
715.95	289.98
716.28	289.15
716.61	288.34
716.95	287.50
717.28	286.74
717.61	285.95
717.94	285.22
718.28	284.43
718.61	283.70
718.94	283.01
719.27	282.34
719.61	281.71
719.94	281.07
720.27	280.35
720.60	279.72
720.94	279.09
721.27	278.48
721.60	277.90
721.93	277.33
722.27	276.81
722.60	276.27
722.93	275.70
723.26	275.13
723.59	274.53
723.93	274.00
724.26	273.43
724.59	272.85
724.92	272.29
725.25	271.81
725.59	271.29
725.92	270.80
726.25	270.30
726.58	269.80
726.91	269.30
727.24	268.84
727.57	268.36
727.91	267.87
728.24	267.41
728.57	266.92
728.90	266.49
729.23	266.04
729.56	265.65
729.89	265.16
730.22	264.68
730.55	264.23
730.89	263.80
731.22	263.43
731.55	263.01
731.88	262.58
732.21	262.12
732.54	261.68
732.87	261.25
733.20	260.85
733.53	260.46
733.86	260.09
734.19	259.70
734.52	259.33
734.85	259.01
735.18	258.63
735.51	258.25
735.84	257.86
736.17	257.46
736.50	257.02
736.83	256.80
737.16	256.47
737.49	256.14
737.82	255.79
738.15	255.43
738.48	255.11
738.81	254.80
739.14	254.49
739.47	254.19
739.80	253.88
740.13	253.57
740.46	253.26
740.79	252.94
741.12	252.61
741.45	252.30
741.78	251.97
742.11	251.65
742.44	251.34
742.77	251.06
743.10	250.73
743.43	250.43
743.75	250.06
744.08	249.90
744.41	249.64
744.74	249.38
745.07	249.13
745.40	248.91
745.73	248.70
746.06	248.44
746.39	248.17
746.71	247.93
747.04	247.65
747.37	247.39
747.70	247.16
748.03	246.97
748.36	246.78
748.68	246.53
749.01	246.31
749.34	246.11
749.67	245.87
750.00	245.67
750.33	245.53
750.65	245.31
750.98	244.99
751.31	244.77
751.64	244.56
751.97	244.38
752.29	244.11
752.62	243.88
752.95	243.63
753.28	243.41
753.60	243.16
753.93	243.00
754.26	242.80
754.59	242.56
754.91	242.30
755.24	242.05
755.57	241.87
755.90	241.65
756.22	241.42
756.55	241.20
756.88	240.99
757.20	240.73
757.53	240.50
757.86	240.31
758.19	240.16
758.51	239.95
758.84	239.73
759.17	239.58
759.49	239.39
759.82	239.33
760.15	239.20
760.47	239.06
760.80	238.86
761.13	238.69
761.45	238.53
761.78	238.39
762.11	238.25
762.43	238.07
762.76	237.93
763.08	237.84
763.41	237.70
763.74	237.61
764.06	237.47
764.39	237.36
764.71	237.20
765.04	237.06
765.37	236.92
765.69	236.81
766.02	236.66
766.34	236.52
766.67	236.34
767.00	236.23
767.32	236.10
767.65	236.08
767.97	235.99
768.30	235.85
768.62	235.77
768.95	235.68
769.27	235.58
769.60	235.51
769.92	235.36
770.25	235.26
770.57	235.12
770.90	235.04
771.22	234.93
771.55	234.84
771.87	234.74
772.20	234.64
772.52	234.62
772.85	234.65
773.17	234.58
773.50	234.48
773.82	234.39
774.15	234.30
774.47	234.15
774.80	234.04
775.12	233.93
775.45	233.85
775.77	233.76
776.09	233.70
776.42	233.61
776.74	233.57
777.07	233.51
777.39	233.44
777.72	233.33
778.04	233.27
778.36	233.20
778.69	233.12
779.01	233.08
779.33	232.94
779.66	232.79
779.98	232.69
780.31	232.61
780.63	232.59
780.95	232.52
781.28	232.45
781.60	232.36
781.92	232.35
782.25	232.29
782.57	232.20
782.89	232.16
783.22	232.11
783.54	232.04
783.86	231.98
784.19	231.91
784.51	231.89
784.83	231.83
785.16	231.81
785.48	231.80
785.80	231.74
786.12	231.69
786.45	231.64
786.77	231.64
787.09	231.60
