SpectraSuite Data File
++++++++++++++++++++++++++++++++++++
Date: Fri Feb 01 18:01:34 EST 2013
User: group
Dark Spectrum Present: No
Reference Spectrum Present: No
Number of Sampled Component Spectra: 1
Spectrometers: USB2E7196
Integration Time (usec): 35000 (USB2E7196)
Spectra Averaged: 100 (USB2E7196)
Boxcar Smoothing: 10 (USB2E7196)
Correct for Electrical Dark: No (USB2E7196)
Strobe/Lamp Enabled: No (USB2E7196)
Correct for Detector Non-linearity: No (USB2E7196)
Correct for Stray Light: No (USB2E7196)
Number of Pixels in Processed Spectrum: 2048
>>>>>Begin Processed Spectral Data<<<<<
339.09	0.00
339.48	212.83
339.86	214.45
340.24	215.58
340.63	216.56
341.01	219.58
341.39	220.30
341.78	221.42
342.16	221.93
342.54	222.58
342.93	211.25
343.31	221.92
343.69	222.46
344.07	222.92
344.46	223.36
344.84	223.75
345.22	224.01
345.60	224.25
345.99	224.45
346.37	224.61
346.75	224.72
347.13	224.76
347.52	224.81
347.90	224.92
348.28	224.98
348.66	225.04
349.05	225.02
349.43	225.07
349.81	225.14
350.19	225.20
350.57	225.28
350.96	225.34
351.34	225.42
351.72	225.53
352.10	225.65
352.48	225.71
352.87	225.78
353.25	225.86
353.63	225.90
354.01	225.96
354.39	226.04
354.77	226.15
355.15	226.31
355.54	226.38
355.92	226.43
356.30	226.51
356.68	226.64
357.06	226.72
357.44	226.77
357.82	226.77
358.20	226.85
358.58	226.89
358.97	226.97
359.35	227.07
359.73	227.13
360.11	227.17
360.49	227.24
360.87	227.31
361.25	227.36
361.63	227.46
362.01	227.49
362.39	227.51
362.77	227.53
363.15	227.53
363.53	227.57
363.91	227.58
364.29	227.59
364.67	227.49
365.05	227.51
365.43	227.54
365.81	227.59
366.19	227.61
366.57	227.64
366.95	227.63
367.33	227.63
367.71	227.64
368.09	227.64
368.47	227.63
368.85	227.64
369.23	227.60
369.61	227.51
369.99	227.52
370.37	227.51
370.75	227.51
371.13	227.44
371.51	227.36
371.89	227.33
372.27	227.30
372.65	227.28
373.03	227.25
373.41	227.20
373.78	227.13
374.16	227.02
374.54	226.94
374.92	226.87
375.30	226.80
375.68	226.69
376.06	226.66
376.44	226.60
376.82	226.51
377.19	226.44
377.57	226.38
377.95	226.31
378.33	226.22
378.71	226.13
379.09	226.10
379.47	226.07
379.84	225.99
380.22	225.90
380.60	225.86
380.98	225.78
381.36	225.72
381.73	225.66
382.11	225.62
382.49	225.57
382.87	225.50
383.25	225.43
383.62	225.49
384.00	225.38
384.38	225.33
384.76	225.29
385.13	225.29
385.51	225.27
385.89	225.20
386.27	225.16
386.64	225.12
387.02	225.05
387.40	224.99
387.78	224.96
388.15	224.96
388.53	224.89
388.91	224.86
389.29	224.81
389.66	224.82
390.04	224.78
390.42	224.80
390.79	224.78
391.17	224.77
391.55	224.65
391.92	224.64
392.30	224.63
392.68	224.59
393.05	224.57
393.43	224.57
393.81	224.57
394.18	224.58
394.56	224.58
394.94	224.62
395.31	224.63
395.69	224.70
396.06	224.74
396.44	224.78
396.82	224.83
397.19	224.92
397.57	224.94
397.95	225.00
398.32	224.98
398.70	225.07
399.07	225.14
399.45	225.19
399.82	225.27
400.20	225.34
400.58	225.42
400.95	225.45
401.33	225.56
401.70	225.70
402.08	225.82
402.45	225.89
402.83	226.03
403.20	226.15
403.58	226.25
403.95	226.36
404.33	226.49
404.71	226.60
405.08	226.82
405.46	226.97
405.83	227.15
406.21	227.33
406.58	227.52
406.96	227.70
407.33	227.92
407.70	228.13
408.08	228.44
408.45	228.70
408.83	228.98
409.20	229.24
409.58	229.47
409.95	229.78
410.33	230.13
410.70	230.42
411.08	230.81
411.45	231.20
411.82	231.61
412.20	232.06
412.57	232.59
412.95	232.94
413.32	233.47
413.69	234.02
414.07	234.64
414.44	235.25
414.82	235.88
415.19	236.64
415.56	237.38
415.94	238.11
416.31	238.97
416.68	239.84
417.06	240.75
417.43	241.66
417.81	242.67
418.18	243.76
418.55	244.90
418.93	246.07
419.30	247.28
419.67	248.54
420.04	249.81
420.42	251.17
420.79	252.77
421.16	254.32
421.54	255.87
421.91	257.45
422.28	259.17
422.66	260.95
423.03	262.67
423.40	264.45
423.77	266.35
424.15	268.29
424.52	270.31
424.89	272.50
425.26	274.60
425.64	276.57
426.01	278.71
426.38	280.93
426.75	283.17
427.13	285.52
427.50	287.93
427.87	290.49
428.24	293.01
428.61	295.37
428.99	297.97
429.36	300.85
429.73	303.69
430.10	306.39
430.47	309.20
430.85	312.10
431.22	315.18
431.59	318.38
431.96	321.42
432.33	324.74
432.70	327.93
433.08	331.74
433.45	335.32
433.82	338.85
434.19	342.75
434.56	346.54
434.93	350.09
435.30	353.68
435.68	357.63
436.05	361.48
436.42	365.27
436.79	368.69
437.16	372.35
437.53	376.17
437.90	380.01
438.27	383.71
438.64	387.50
439.01	390.94
439.38	394.02
439.75	396.94
440.13	400.33
440.50	403.53
440.87	406.04
441.24	408.72
441.61	411.65
441.98	413.69
442.35	416.15
442.72	418.73
443.09	421.17
443.46	422.49
443.83	423.31
444.20	423.96
444.57	425.14
444.94	425.50
445.31	425.94
445.68	426.37
446.05	426.47
446.42	426.00
446.79	425.47
447.16	424.84
447.53	424.39
447.90	422.84
448.27	421.33
448.64	419.18
449.01	417.63
449.37	414.91
449.74	412.36
450.11	409.29
450.48	405.93
450.85	402.54
451.22	399.65
451.59	396.90
451.96	394.29
452.33	390.77
452.70	387.60
453.07	383.80
453.43	379.92
453.80	376.23
454.17	372.60
454.54	369.16
454.91	365.50
455.28	361.86
455.65	358.51
456.02	355.12
456.38	352.20
456.75	348.58
457.12	345.57
457.49	342.53
457.86	339.62
458.23	337.05
458.59	334.22
458.96	331.38
459.33	328.83
459.70	326.30
460.07	324.19
460.43	321.85
460.80	319.59
461.17	317.60
461.54	315.52
461.91	313.56
462.27	311.58
462.64	309.83
463.01	308.01
463.38	306.20
463.74	304.36
464.11	302.76
464.48	301.33
464.85	299.77
465.21	298.55
465.58	297.25
465.95	295.77
466.32	294.56
466.68	293.33
467.05	292.13
467.42	290.90
467.78	289.66
468.15	288.47
468.52	287.57
468.88	286.44
469.25	285.35
469.62	284.48
469.98	283.59
470.35	282.71
470.72	281.90
471.08	281.04
471.45	280.28
471.82	279.50
472.18	278.70
472.55	278.13
472.92	277.43
473.28	276.81
473.65	276.20
474.02	275.53
474.38	274.98
474.75	274.48
475.11	273.98
475.48	273.57
475.85	273.19
476.21	272.83
476.58	272.50
476.94	272.26
477.31	271.96
477.67	271.71
478.04	271.54
478.41	271.38
478.77	271.34
479.14	271.21
479.50	271.17
479.87	271.15
480.23	271.15
480.60	271.14
480.96	271.18
481.33	271.29
481.69	271.47
482.06	271.68
482.42	271.83
482.79	272.04
483.15	272.32
483.52	272.66
483.88	272.99
484.25	273.32
484.61	273.69
484.98	274.17
485.34	274.70
485.71	275.27
486.07	275.84
486.44	276.40
486.80	277.07
487.17	277.79
487.53	278.66
487.90	279.55
488.26	280.52
488.62	281.52
488.99	282.59
489.35	283.66
489.72	284.77
490.08	286.03
490.44	287.35
490.81	288.75
491.17	290.18
491.54	291.73
491.90	293.36
492.26	295.09
492.63	296.88
492.99	298.74
493.36	300.77
493.72	302.99
494.08	305.22
494.45	307.63
494.81	310.17
495.17	312.70
495.54	315.38
495.90	318.22
496.26	321.17
496.63	324.26
496.99	327.55
497.35	331.01
497.72	334.61
498.08	338.34
498.44	342.22
498.80	346.36
499.17	350.62
499.53	355.05
499.89	359.74
500.26	364.54
500.62	369.52
500.98	374.75
501.34	380.11
501.71	385.77
502.07	391.54
502.43	397.45
502.79	403.66
503.16	410.05
503.52	416.71
503.88	423.55
504.24	430.62
504.60	437.97
504.97	445.56
505.33	453.40
505.69	461.60
506.05	469.89
506.41	478.24
506.78	486.95
507.14	495.97
507.50	505.28
507.86	514.92
508.22	524.73
508.59	534.55
508.95	544.76
509.31	555.21
509.67	566.00
510.03	577.00
510.39	588.32
510.75	599.92
511.12	611.68
511.48	623.77
511.84	636.05
512.20	648.37
512.56	661.20
512.92	674.20
513.28	687.42
513.64	700.90
514.00	714.71
514.37	728.62
514.73	742.66
515.09	756.69
515.45	771.00
515.81	785.61
516.17	800.70
516.53	815.97
516.89	831.24
517.25	846.58
517.61	862.21
517.97	877.93
518.33	893.54
518.69	909.52
519.05	925.75
519.41	942.28
519.77	959.22
520.13	976.00
520.49	992.80
520.85	1009.63
521.21	1026.66
521.57	1044.31
521.93	1061.56
522.29	1079.47
522.65	1097.31
523.01	1115.09
523.37	1132.76
523.73	1150.57
524.09	1168.32
524.45	1186.31
524.81	1204.55
525.17	1223.07
525.53	1241.62
525.89	1260.25
526.25	1278.85
526.61	1296.93
526.97	1315.45
527.33	1333.65
527.68	1351.98
528.04	1370.26
528.40	1388.63
528.76	1407.66
529.12	1426.20
529.48	1445.02
529.84	1462.87
530.20	1481.35
530.56	1500.26
530.91	1519.73
531.27	1538.51
531.63	1556.88
531.99	1575.47
532.35	1593.61
532.71	1611.55
533.07	1629.84
533.42	1647.93
533.78	1666.08
534.14	1684.66
534.50	1702.08
534.86	1720.17
535.21	1737.45
535.57	1755.45
535.93	1773.15
536.29	1790.09
536.65	1807.32
537.00	1824.19
537.36	1841.98
537.72	1858.70
538.08	1875.39
538.44	1891.34
538.79	1907.39
539.15	1923.17
539.51	1938.95
539.87	1955.56
540.22	1971.51
540.58	1987.59
540.94	2003.07
541.29	2018.20
541.65	2033.06
542.01	2048.73
542.37	2063.28
542.72	2078.06
543.08	2092.16
543.44	2106.95
543.79	2120.42
544.15	2133.57
544.51	2147.40
544.87	2160.53
545.22	2173.68
545.58	2186.23
545.94	2198.11
546.29	2210.14
546.65	2222.41
547.01	2233.97
547.36	2244.59
547.72	2255.23
548.07	2265.10
548.43	2275.24
548.79	2285.30
549.14	2294.97
549.50	2304.22
549.86	2313.89
550.21	2323.27
550.57	2332.53
550.92	2341.13
551.28	2350.16
551.64	2359.21
551.99	2367.75
552.35	2375.81
552.70	2383.77
553.06	2391.53
553.41	2400.03
553.77	2407.70
554.13	2415.50
554.48	2423.69
554.84	2431.14
555.19	2438.09
555.55	2445.09
555.90	2451.45
556.26	2458.37
556.61	2464.64
556.97	2470.65
557.32	2476.48
557.68	2482.20
558.03	2488.12
558.39	2493.21
558.74	2499.60
559.10	2505.24
559.45	2510.50
559.81	2516.29
560.16	2521.65
560.52	2526.36
560.87	2530.95
561.23	2535.17
561.58	2539.45
561.94	2543.23
562.29	2546.87
562.64	2551.06
563.00	2555.03
563.35	2559.96
563.71	2564.29
564.06	2568.82
564.42	2572.84
564.77	2576.63
565.12	2580.24
565.48	2583.44
565.83	2586.59
566.19	2589.10
566.54	2590.72
566.89	2593.00
567.25	2594.60
567.60	2597.02
567.96	2599.83
568.31	2601.56
568.66	2603.81
569.02	2605.36
569.37	2606.63
569.72	2608.55
570.08	2609.40
570.43	2610.25
570.78	2610.22
571.14	2609.14
571.49	2608.44
571.84	2608.89
572.20	2608.49
572.55	2608.07
572.90	2606.77
573.26	2606.04
573.61	2604.55
573.96	2603.46
574.31	2600.69
574.67	2597.98
575.02	2594.45
575.37	2591.23
575.72	2587.82
576.08	2584.34
576.43	2581.13
576.78	2577.63
577.13	2574.32
577.49	2571.35
577.84	2567.80
578.19	2564.26
578.54	2560.75
578.90	2556.76
579.25	2550.97
579.60	2545.74
579.95	2540.42
580.30	2535.29
580.66	2529.60
581.01	2524.33
581.36	2519.12
581.71	2514.76
582.06	2510.14
582.42	2505.49
582.77	2499.79
583.12	2494.88
583.47	2490.12
583.82	2484.94
584.17	2479.15
584.53	2473.39
584.88	2467.32
585.23	2461.03
585.58	2455.02
585.93	2449.00
586.28	2443.51
586.63	2437.97
586.98	2432.38
587.34	2427.18
587.69	2421.73
588.04	2416.04
588.39	2409.83
588.74	2402.45
589.09	2395.62
589.44	2388.11
589.79	2381.29
590.14	2374.85
590.49	2367.43
590.84	2360.15
591.19	2353.29
591.54	2346.10
591.89	2337.91
592.25	2330.23
592.60	2322.20
592.95	2313.74
593.30	2305.51
593.65	2296.92
594.00	2288.99
594.35	2280.67
594.70	2271.44
595.05	2263.48
595.40	2255.11
595.75	2246.55
596.10	2239.65
596.45	2231.96
596.80	2224.81
597.15	2217.38
597.50	2209.42
597.85	2201.94
598.19	2194.37
598.54	2186.24
598.89	2178.70
599.24	2171.86
599.59	2164.16
599.94	2156.97
600.29	2149.47
600.64	2141.76
600.99	2133.30
601.34	2125.35
601.69	2117.32
602.04	2109.53
602.39	2100.77
602.74	2092.99
603.08	2085.15
603.43	2077.27
603.78	2068.74
604.13	2060.31
604.48	2051.84
604.83	2043.97
605.18	2035.99
605.53	2026.69
605.87	2017.36
606.22	2008.71
606.57	1999.26
606.92	1990.69
607.27	1982.27
607.62	1974.17
607.96	1965.66
608.31	1957.97
608.66	1949.03
609.01	1940.20
609.36	1931.24
609.70	1921.86
610.05	1912.36
610.40	1903.39
610.75	1893.65
611.10	1884.80
611.44	1874.72
611.79	1865.25
612.14	1855.20
612.49	1844.43
612.83	1834.42
613.18	1824.83
613.53	1815.32
613.88	1805.35
614.22	1795.57
614.57	1785.43
614.92	1775.98
615.27	1767.17
615.61	1757.24
615.96	1747.73
616.31	1738.83
616.65	1730.27
617.00	1721.37
617.35	1712.34
617.70	1702.56
618.04	1692.51
618.39	1682.56
618.74	1673.83
619.08	1664.04
619.43	1654.98
619.78	1646.89
620.12	1638.57
620.47	1629.78
620.82	1620.15
621.16	1611.36
621.51	1602.30
621.85	1593.33
622.20	1583.43
622.55	1573.57
622.89	1564.28
623.24	1555.32
623.59	1546.37
623.93	1537.44
624.28	1528.98
624.62	1520.10
624.97	1511.65
625.32	1503.70
625.66	1495.55
626.01	1487.02
626.35	1478.48
626.70	1469.33
627.04	1460.15
627.39	1451.02
627.73	1442.33
628.08	1434.19
628.43	1425.77
628.77	1417.29
629.12	1408.31
629.46	1399.78
629.81	1390.97
630.15	1382.42
630.50	1373.71
630.84	1364.14
631.19	1354.72
631.53	1345.87
631.88	1336.96
632.22	1327.96
632.57	1319.33
632.91	1310.35
633.26	1301.65
633.60	1292.79
633.95	1284.45
634.29	1276.18
634.64	1268.19
634.98	1259.50
635.32	1251.08
635.67	1243.21
636.01	1235.40
636.36	1227.58
636.70	1219.87
637.05	1212.18
637.39	1204.66
637.73	1196.97
638.08	1190.07
638.42	1183.08
638.77	1175.57
639.11	1167.91
639.45	1160.45
639.80	1152.66
640.14	1145.31
640.49	1137.77
640.83	1130.35
641.17	1123.03
641.52	1115.55
641.86	1108.05
642.20	1101.22
642.55	1093.81
642.89	1086.35
643.23	1078.53
643.58	1071.78
643.92	1064.59
644.26	1057.64
644.61	1050.50
644.95	1043.51
645.29	1035.92
645.64	1027.99
645.98	1020.46
646.32	1013.56
646.66	1006.54
647.01	999.77
647.35	993.04
647.69	986.10
648.04	979.64
648.38	972.95
648.72	966.13
649.06	959.13
649.41	952.21
649.75	945.41
650.09	938.44
650.43	931.88
650.78	924.72
651.12	917.83
651.46	911.06
651.80	904.51
652.14	898.38
652.49	892.13
652.83	886.24
653.17	879.79
653.51	873.22
653.85	866.93
654.20	860.48
654.54	853.56
654.88	846.92
655.22	840.12
655.56	833.44
655.90	827.02
656.25	820.94
656.59	814.74
656.93	808.78
657.27	802.87
657.61	796.51
657.95	790.56
658.29	784.69
658.64	778.62
658.98	772.42
659.32	765.91
659.66	759.94
660.00	753.79
660.34	748.03
660.68	742.27
661.02	736.45
661.36	730.95
661.70	725.71
662.05	720.75
662.39	715.78
662.73	710.57
663.07	705.58
663.41	700.41
663.75	695.27
664.09	689.95
664.43	684.80
664.77	680.09
665.11	675.18
665.45	670.31
665.79	665.54
666.13	660.82
666.47	656.19
666.81	651.38
667.15	646.58
667.49	642.04
667.83	637.68
668.17	633.17
668.51	628.46
668.85	623.80
669.19	619.22
669.53	614.80
669.87	610.40
670.21	606.05
670.55	601.84
670.89	597.90
671.23	593.94
671.57	589.90
671.91	585.80
672.25	581.71
672.58	577.68
672.92	573.75
673.26	570.00
673.60	566.26
673.94	562.61
674.28	559.26
674.62	555.88
674.96	552.26
675.30	548.84
675.64	545.44
675.97	542.29
676.31	539.05
676.65	535.64
676.99	532.49
677.33	529.20
677.67	525.97
678.01	522.44
678.34	519.04
678.68	515.67
679.02	512.41
679.36	509.24
679.70	506.09
680.04	502.95
680.37	499.67
680.71	496.44
681.05	493.43
681.39	490.35
681.73	487.24
682.06	484.33
682.40	481.42
682.74	478.52
683.08	475.52
683.42	472.50
683.75	469.60
684.09	466.58
684.43	463.68
684.77	460.80
685.10	458.08
685.44	455.40
685.78	452.72
686.12	450.10
686.45	447.45
686.79	444.81
687.13	442.24
687.46	439.73
687.80	437.29
688.14	434.70
688.48	432.27
688.81	429.69
689.15	427.20
689.49	424.70
689.82	422.26
690.16	419.79
690.50	417.51
690.83	415.30
691.17	413.02
691.51	410.85
691.84	408.69
692.18	406.45
692.52	404.16
692.85	401.94
693.19	399.78
693.52	397.58
693.86	395.43
694.20	393.33
694.53	391.20
694.87	388.98
695.21	386.89
695.54	384.76
695.88	382.73
696.21	380.68
696.55	378.71
696.88	376.73
697.22	374.79
697.56	372.91
697.89	370.96
698.23	369.10
698.56	367.22
698.90	365.34
699.23	363.45
699.57	361.65
699.90	359.87
700.24	358.03
700.58	356.30
700.91	354.56
701.25	352.91
701.58	351.31
701.92	349.81
702.25	348.21
702.59	346.62
702.92	345.09
703.26	343.62
703.59	342.13
703.93	340.77
704.26	339.39
704.60	337.89
704.93	336.46
705.26	335.05
705.60	333.68
705.93	332.34
706.27	331.16
706.60	329.92
706.94	328.68
707.27	327.38
707.61	326.16
707.94	324.99
708.27	323.69
708.61	322.44
708.94	321.20
709.28	320.08
709.61	318.93
709.94	317.82
710.28	316.60
710.61	315.49
710.95	314.24
711.28	313.16
711.61	312.10
711.95	310.99
712.28	309.89
712.61	308.77
712.95	307.71
713.28	306.65
713.61	305.63
713.95	304.59
714.28	303.64
714.61	302.65
714.95	301.69
715.28	300.75
715.61	299.76
715.95	298.79
716.28	297.80
716.61	296.86
716.95	295.89
717.28	295.03
717.61	294.13
717.94	293.27
718.28	292.33
718.61	291.49
718.94	290.68
719.27	289.92
719.61	289.18
719.94	288.39
720.27	287.53
720.60	286.78
720.94	286.04
721.27	285.33
721.60	284.69
721.93	283.98
722.27	283.33
722.60	282.72
722.93	282.07
723.26	281.46
723.59	280.80
723.93	280.15
724.26	279.52
724.59	278.83
724.92	278.24
725.25	277.66
725.59	277.02
725.92	276.43
726.25	275.77
726.58	275.19
726.91	274.59
727.24	274.08
727.57	273.50
727.91	272.90
728.24	272.39
728.57	271.75
728.90	271.22
729.23	270.63
729.56	270.09
729.89	269.52
730.22	268.94
730.55	268.38
730.89	267.86
731.22	267.31
731.55	266.85
731.88	266.31
732.21	265.82
732.54	265.32
732.87	264.83
733.20	264.38
733.53	263.90
733.86	263.49
734.19	263.00
734.52	262.57
734.85	262.22
735.18	261.74
735.51	261.32
735.84	260.87
736.17	260.46
736.50	259.98
736.83	259.70
737.16	259.32
737.49	258.95
737.82	258.55
738.15	258.22
738.48	257.82
738.81	257.43
739.14	257.06
739.47	256.70
739.80	256.35
740.13	256.02
740.46	255.61
740.79	255.25
741.12	254.90
741.45	254.54
741.78	254.11
742.11	253.78
742.44	253.44
742.77	253.11
743.10	252.76
743.43	252.40
743.75	251.98
744.08	251.79
744.41	251.47
744.74	251.18
745.07	250.86
745.40	250.59
745.73	250.34
746.06	250.01
746.39	249.68
746.71	249.34
747.04	248.98
747.37	248.71
747.70	248.41
748.03	248.11
748.36	247.85
748.68	247.55
749.01	247.24
749.34	246.96
749.67	246.69
750.00	246.43
750.33	246.24
750.65	245.99
750.98	245.62
751.31	245.36
751.64	245.13
751.97	244.91
752.29	244.64
752.62	244.37
752.95	244.13
753.28	243.89
753.60	243.65
753.93	243.47
754.26	243.26
754.59	242.99
754.91	242.75
755.24	242.49
755.57	242.28
755.90	242.07
756.22	241.82
756.55	241.61
756.88	241.41
757.20	241.14
757.53	240.94
757.86	240.73
758.19	240.54
758.51	240.30
758.84	240.04
759.17	239.86
759.49	239.66
759.82	239.51
760.15	239.36
760.47	239.24
760.80	239.02
761.13	238.86
761.45	238.68
761.78	238.51
762.11	238.36
762.43	238.21
762.76	238.05
763.08	237.92
763.41	237.74
763.74	237.58
764.06	237.43
764.39	237.27
764.71	237.09
765.04	236.92
765.37	236.81
765.69	236.68
766.02	236.50
766.34	236.36
766.67	236.19
767.00	236.07
767.32	235.94
767.65	235.89
767.97	235.77
768.30	235.66
768.62	235.55
768.95	235.41
769.27	235.27
769.60	235.13
769.92	235.01
770.25	234.88
770.57	234.70
770.90	234.59
771.22	234.41
771.55	234.30
771.87	234.19
772.20	234.05
772.52	234.01
772.85	234.03
773.17	233.92
773.50	233.82
773.82	233.67
774.15	233.52
774.47	233.33
774.80	233.19
775.12	233.09
775.45	232.97
775.77	232.85
776.09	232.75
776.42	232.66
776.74	232.57
777.07	232.48
777.39	232.40
777.72	232.33
778.04	232.31
778.36	232.23
778.69	232.14
779.01	232.09
779.33	231.91
779.66	231.74
779.98	231.63
780.31	231.54
780.63	231.52
780.95	231.45
781.28	231.37
781.60	231.28
781.92	231.19
782.25	231.11
782.57	231.05
782.89	230.98
783.22	230.91
783.54	230.83
783.86	230.75
784.19	230.71
784.51	230.64
784.83	230.57
785.16	230.49
785.48	230.43
785.80	230.38
786.12	230.34
786.45	230.25
