SpectraSuite Data File
++++++++++++++++++++++++++++++++++++
Date: Fri Feb 01 15:33:23 EST 2013
User: group
Dark Spectrum Present: No
Reference Spectrum Present: No
Number of Sampled Component Spectra: 1
Spectrometers: USB2E7196
Integration Time (usec): 35000 (USB2E7196)
Spectra Averaged: 100 (USB2E7196)
Boxcar Smoothing: 10 (USB2E7196)
Correct for Electrical Dark: No (USB2E7196)
Strobe/Lamp Enabled: No (USB2E7196)
Correct for Detector Non-linearity: No (USB2E7196)
Correct for Stray Light: No (USB2E7196)
Number of Pixels in Processed Spectrum: 2048
>>>>>Begin Processed Spectral Data<<<<<
339.09	0.00
339.48	214.85
339.86	216.51
340.24	217.93
340.63	218.82
341.01	221.79
341.39	221.66
341.78	223.46
342.16	224.43
342.54	225.05
342.93	213.16
343.31	223.93
343.69	224.46
344.07	224.94
344.46	225.35
344.84	225.72
345.22	225.97
345.60	226.22
345.99	226.38
346.37	226.48
346.75	226.56
347.13	226.62
347.52	226.67
347.90	226.78
348.28	226.82
348.66	226.86
349.05	226.85
349.43	226.87
349.81	226.93
350.19	226.99
350.57	227.06
350.96	227.11
351.34	227.20
351.72	227.30
352.10	227.38
352.48	227.47
352.87	227.53
353.25	227.60
353.63	227.69
354.01	227.77
354.39	227.86
354.77	227.95
355.15	228.08
355.54	228.17
355.92	228.21
356.30	228.30
356.68	228.46
357.06	228.52
357.44	228.58
357.82	228.65
358.20	228.74
358.58	228.83
358.97	228.91
359.35	228.98
359.73	229.08
360.11	229.14
360.49	229.17
360.87	229.22
361.25	229.27
361.63	229.35
362.01	229.39
362.39	229.43
362.77	229.47
363.15	229.50
363.53	229.54
363.91	229.57
364.29	229.58
364.67	229.51
365.05	229.59
365.43	229.64
365.81	229.66
366.19	229.72
366.57	229.77
366.95	229.74
367.33	229.71
367.71	229.68
368.09	229.69
368.47	229.72
368.85	229.72
369.23	229.73
369.61	229.66
369.99	229.65
370.37	229.64
370.75	229.68
371.13	229.59
371.51	229.51
371.89	229.49
372.27	229.44
372.65	229.42
373.03	229.34
373.41	229.29
373.78	229.21
374.16	229.06
374.54	228.92
374.92	228.89
375.30	228.85
375.68	228.74
376.06	228.66
376.44	228.57
376.82	228.51
377.19	228.43
377.57	228.37
377.95	228.28
378.33	228.22
378.71	228.03
379.09	228.00
379.47	227.95
379.84	227.85
380.22	227.78
380.60	227.66
380.98	227.58
381.36	227.50
381.73	227.45
382.11	227.39
382.49	227.34
382.87	227.26
383.25	227.15
383.62	227.21
384.00	227.10
384.38	227.03
384.76	227.00
385.13	226.98
385.51	226.93
385.89	226.83
386.27	226.77
386.64	226.77
387.02	226.68
387.40	226.61
387.78	226.58
388.15	226.54
388.53	226.50
388.91	226.46
389.29	226.38
389.66	226.36
390.04	226.31
390.42	226.30
390.79	226.31
391.17	226.31
391.55	226.19
391.92	226.20
392.30	226.23
392.68	226.17
393.05	226.16
393.43	226.17
393.81	226.21
394.18	226.18
394.56	226.20
394.94	226.28
395.31	226.35
395.69	226.38
396.06	226.44
396.44	226.45
396.82	226.48
397.19	226.58
397.57	226.64
397.95	226.72
398.32	226.73
398.70	226.77
399.07	226.89
399.45	226.93
399.82	227.00
400.20	227.09
400.58	227.16
400.95	227.19
401.33	227.31
401.70	227.44
402.08	227.56
402.45	227.62
402.83	227.71
403.20	227.79
403.58	227.90
403.95	228.01
404.33	228.16
404.71	228.31
405.08	228.51
405.46	228.62
405.83	228.76
406.21	228.87
406.58	229.05
406.96	229.20
407.33	229.38
407.70	229.58
408.08	229.80
408.45	230.03
408.83	230.24
409.20	230.44
409.58	230.64
409.95	230.91
410.33	231.22
410.70	231.49
411.08	231.81
411.45	232.13
411.82	232.46
412.20	232.80
412.57	233.21
412.95	233.52
413.32	233.94
413.69	234.36
414.07	234.83
414.44	235.33
414.82	235.82
415.19	236.39
415.56	236.94
415.94	237.50
416.31	238.14
416.68	238.80
417.06	239.51
417.43	240.20
417.81	240.97
418.18	241.75
418.55	242.60
418.93	243.48
419.30	244.36
419.67	245.30
420.04	246.30
420.42	247.26
420.79	248.42
421.16	249.57
421.54	250.75
421.91	251.97
422.28	253.20
422.66	254.51
423.03	255.82
423.40	257.16
423.77	258.58
424.15	260.02
424.52	261.49
424.89	263.14
425.26	264.74
425.64	266.20
426.01	267.80
426.38	269.46
426.75	271.14
427.13	272.84
427.50	274.62
427.87	276.49
428.24	278.33
428.61	280.04
428.99	281.98
429.36	284.08
429.73	286.16
430.10	288.16
430.47	290.23
430.85	292.35
431.22	294.64
431.59	297.07
431.96	299.28
432.33	301.81
432.70	304.16
433.08	306.93
433.45	309.52
433.82	312.16
434.19	315.02
434.56	317.82
434.93	320.53
435.30	323.17
435.68	326.08
436.05	328.94
436.42	331.76
436.79	334.26
437.16	337.00
437.53	339.84
437.90	342.66
438.27	345.42
438.64	348.26
439.01	350.79
439.38	352.96
439.75	355.17
440.13	357.64
440.50	359.93
440.87	361.80
441.24	363.79
441.61	365.90
441.98	367.40
442.35	369.20
442.72	371.05
443.09	372.85
443.46	373.83
443.83	374.38
444.20	374.92
444.57	375.75
444.94	376.00
445.31	376.33
445.68	376.69
446.05	376.78
446.42	376.41
446.79	375.97
447.16	375.52
447.53	375.22
447.90	374.08
448.27	372.95
448.64	371.33
449.01	370.15
449.37	368.15
449.74	366.27
450.11	364.01
450.48	361.49
450.85	358.95
451.22	356.79
451.59	354.84
451.96	352.91
452.33	350.33
452.70	347.95
453.07	345.09
453.43	342.16
453.80	339.34
454.17	336.62
454.54	334.11
454.91	331.41
455.28	328.66
455.65	326.12
456.02	323.67
456.38	321.53
456.75	318.85
457.12	316.64
457.49	314.41
457.86	312.25
458.23	310.40
458.59	308.37
458.96	306.27
459.33	304.35
459.70	302.50
460.07	300.98
460.43	299.28
460.80	297.68
461.17	296.24
461.54	294.77
461.91	293.38
462.27	291.91
462.64	290.66
463.01	289.36
463.38	288.08
463.74	286.73
464.11	285.56
464.48	284.58
464.85	283.44
465.21	282.53
465.58	281.59
465.95	280.51
466.32	279.60
466.68	278.72
467.05	277.87
467.42	276.98
467.78	276.07
468.15	275.20
468.52	274.54
468.88	273.69
469.25	272.94
469.62	272.28
469.98	271.65
470.35	271.02
470.72	270.42
471.08	269.78
471.45	269.18
471.82	268.65
472.18	268.05
472.55	267.62
472.92	267.13
473.28	266.65
473.65	266.19
474.02	265.79
474.38	265.40
474.75	265.04
475.11	264.70
475.48	264.43
475.85	264.21
476.21	263.98
476.58	263.80
476.94	263.64
477.31	263.46
477.67	263.26
478.04	263.15
478.41	263.04
478.77	263.06
479.14	263.02
479.50	263.04
479.87	263.09
480.23	263.17
480.60	263.24
480.96	263.34
481.33	263.53
481.69	263.70
482.06	263.92
482.42	264.11
482.79	264.34
483.15	264.63
483.52	264.98
483.88	265.30
484.25	265.68
484.61	266.07
484.98	266.53
485.34	267.12
485.71	267.69
486.07	268.31
486.44	268.88
486.80	269.60
487.17	270.32
487.53	271.13
487.90	271.96
488.26	272.87
488.62	273.88
488.99	274.87
489.35	275.90
489.72	276.98
490.08	278.20
490.44	279.42
490.81	280.76
491.17	282.13
491.54	283.66
491.90	285.20
492.26	286.86
492.63	288.57
492.99	290.31
493.36	292.21
493.72	294.25
494.08	296.36
494.45	298.58
494.81	300.92
495.17	303.32
495.54	305.94
495.90	308.62
496.26	311.40
496.63	314.34
496.99	317.44
497.35	320.70
497.72	324.07
498.08	327.56
498.44	331.20
498.80	335.08
499.17	339.12
499.53	343.29
499.89	347.66
500.26	352.16
500.62	356.84
500.98	361.76
501.34	366.82
501.71	372.13
502.07	377.57
502.43	383.18
502.79	389.06
503.16	395.08
503.52	401.39
503.88	407.77
504.24	414.36
504.60	421.29
504.97	428.43
505.33	435.79
505.69	443.51
506.05	451.30
506.41	459.24
506.78	467.39
507.14	475.85
507.50	484.60
507.86	493.60
508.22	502.84
508.59	512.13
508.95	521.76
509.31	531.59
509.67	541.67
510.03	551.94
510.39	562.42
510.75	573.27
511.12	584.17
511.48	595.56
511.84	607.08
512.20	618.61
512.56	630.60
512.92	642.75
513.28	655.06
513.64	667.58
514.00	680.23
514.37	693.19
514.73	706.32
515.09	719.41
515.45	732.81
515.81	746.37
516.17	760.35
516.53	774.43
516.89	788.64
517.25	802.89
517.61	817.38
517.97	831.94
518.33	846.37
518.69	861.27
519.05	876.24
519.41	891.49
519.77	907.04
520.13	922.48
520.49	937.94
520.85	953.49
521.21	969.25
521.57	985.54
521.93	1001.26
522.29	1017.69
522.65	1033.83
523.01	1050.10
523.37	1066.27
523.73	1082.50
524.09	1098.66
524.45	1115.03
524.81	1131.71
525.17	1148.65
525.53	1165.62
525.89	1182.59
526.25	1199.36
526.61	1215.80
526.97	1232.57
527.33	1249.08
527.68	1265.85
528.04	1282.40
528.40	1298.99
528.76	1316.15
529.12	1332.82
529.48	1349.79
529.84	1365.82
530.20	1382.57
530.56	1399.56
530.91	1416.92
531.27	1433.73
531.63	1450.27
531.99	1466.92
532.35	1482.94
532.71	1498.81
533.07	1515.05
533.42	1530.91
533.78	1547.09
534.14	1563.37
534.50	1578.74
534.86	1594.66
535.21	1609.71
535.57	1625.67
535.93	1641.28
536.29	1656.03
536.65	1671.23
537.00	1686.11
537.36	1701.47
537.72	1716.04
538.08	1730.44
538.44	1744.28
538.79	1758.25
539.15	1771.92
539.51	1785.65
539.87	1799.99
540.22	1813.66
540.58	1827.56
540.94	1840.86
541.29	1853.84
541.65	1866.60
542.01	1879.84
542.37	1892.33
542.72	1904.96
543.08	1916.76
543.44	1929.05
543.79	1940.27
544.15	1951.17
544.51	1962.69
544.87	1973.66
545.22	1984.55
545.58	1994.77
545.94	2004.52
546.29	2014.41
546.65	2024.21
547.01	2033.57
547.36	2042.31
547.72	2050.91
548.07	2058.68
548.43	2067.00
548.79	2074.90
549.14	2082.36
549.50	2089.78
549.86	2097.41
550.21	2104.58
550.57	2111.75
550.92	2118.47
551.28	2125.63
551.64	2132.66
551.99	2139.20
552.35	2145.39
552.70	2151.57
553.06	2157.63
553.41	2163.99
553.77	2169.96
554.13	2176.17
554.48	2182.23
554.84	2187.63
555.19	2192.98
555.55	2198.19
555.90	2202.76
556.26	2207.60
556.61	2212.46
556.97	2216.70
557.32	2220.87
557.68	2225.05
558.03	2229.43
558.39	2233.11
558.74	2237.79
559.10	2241.68
559.45	2245.37
559.81	2249.75
560.16	2253.61
560.52	2256.85
560.87	2260.30
561.23	2263.01
561.58	2266.11
561.94	2268.64
562.29	2271.10
562.64	2273.75
563.00	2276.42
563.35	2279.78
563.71	2282.97
564.06	2286.18
564.42	2289.01
564.77	2291.50
565.12	2293.73
565.48	2295.57
565.83	2297.43
566.19	2298.63
566.54	2299.44
566.89	2300.53
567.25	2301.00
567.60	2302.15
567.96	2303.84
568.31	2304.71
568.66	2305.77
569.02	2306.09
569.37	2306.36
569.72	2307.15
570.08	2307.08
570.43	2307.02
570.78	2306.34
571.14	2304.74
571.49	2303.23
571.84	2302.84
572.20	2301.54
572.55	2300.53
572.90	2298.97
573.26	2297.53
573.61	2295.86
573.96	2294.26
574.31	2291.27
574.67	2288.15
575.02	2284.46
575.37	2281.04
575.72	2277.20
576.08	2273.74
576.43	2270.42
576.78	2266.68
577.13	2263.59
577.49	2260.69
577.84	2257.11
578.19	2253.36
578.54	2249.61
578.90	2245.23
579.25	2239.75
579.60	2234.76
579.95	2229.70
580.30	2224.59
580.66	2219.39
581.01	2214.34
581.36	2209.18
581.71	2204.91
582.06	2200.43
582.42	2196.18
582.77	2190.93
583.12	2186.24
583.47	2181.36
583.82	2176.20
584.17	2171.05
584.53	2165.51
584.88	2159.74
585.23	2153.89
585.58	2148.36
585.93	2142.93
586.28	2138.37
586.63	2133.11
586.98	2128.06
587.34	2123.26
587.69	2118.35
588.04	2113.02
588.39	2107.34
588.74	2100.97
589.09	2094.82
589.44	2088.04
589.79	2081.84
590.14	2076.08
590.49	2069.46
590.84	2063.28
591.19	2057.26
591.54	2050.58
591.89	2043.06
592.25	2036.24
592.60	2028.95
592.95	2021.25
593.30	2013.74
593.65	2006.02
594.00	1998.98
594.35	1991.60
594.70	1983.49
595.05	1976.07
595.40	1968.76
595.75	1961.08
596.10	1954.77
596.45	1947.96
596.80	1941.71
597.15	1934.94
597.50	1927.71
597.85	1921.21
598.19	1914.30
598.54	1907.12
598.89	1900.55
599.24	1894.64
599.59	1887.80
599.94	1881.60
600.29	1875.26
600.64	1868.73
600.99	1861.22
601.34	1854.30
601.69	1847.36
602.04	1840.33
602.39	1833.01
602.74	1826.20
603.08	1819.48
603.43	1812.66
603.78	1805.25
604.13	1797.95
604.48	1790.70
604.83	1783.90
605.18	1776.93
605.53	1768.90
605.87	1760.90
606.22	1753.55
606.57	1745.52
606.92	1738.18
607.27	1730.97
607.62	1724.10
607.96	1716.75
608.31	1710.06
608.66	1702.41
609.01	1694.84
609.36	1687.30
609.70	1679.28
610.05	1671.02
610.40	1663.36
610.75	1655.06
611.10	1647.38
611.44	1639.08
611.79	1631.08
612.14	1622.37
612.49	1613.18
612.83	1604.76
613.18	1596.62
613.53	1588.46
613.88	1579.97
614.22	1571.83
614.57	1563.25
614.92	1555.13
615.27	1547.62
615.61	1539.40
615.96	1531.39
616.31	1523.72
616.65	1516.43
617.00	1508.90
617.35	1501.25
617.70	1492.77
618.04	1484.20
618.39	1476.09
618.74	1468.43
619.08	1460.00
619.43	1452.44
619.78	1445.57
620.12	1438.50
620.47	1430.99
620.82	1422.90
621.16	1415.45
621.51	1407.78
621.85	1400.10
622.20	1391.61
622.55	1383.18
622.89	1375.34
623.24	1367.77
623.59	1360.47
623.93	1352.95
624.28	1345.73
624.62	1338.24
624.97	1331.24
625.32	1324.61
625.66	1317.50
626.01	1310.26
626.35	1302.87
626.70	1295.16
627.04	1287.45
627.39	1279.75
627.73	1272.29
628.08	1265.39
628.43	1258.05
628.77	1250.60
629.12	1243.14
629.46	1235.98
629.81	1228.65
630.15	1221.40
630.50	1213.97
630.84	1205.70
631.19	1197.76
631.53	1190.22
631.88	1182.66
632.22	1174.94
632.57	1167.63
632.91	1160.12
633.26	1152.75
633.60	1145.41
633.95	1138.31
634.29	1131.22
634.64	1124.49
634.98	1117.16
635.32	1110.04
635.67	1103.47
636.01	1096.88
636.36	1089.99
636.70	1083.54
637.05	1076.99
637.39	1070.46
637.73	1063.91
638.08	1058.10
638.42	1052.14
638.77	1045.75
639.11	1039.16
639.45	1032.77
639.80	1026.01
640.14	1019.58
640.49	1013.02
640.83	1006.73
641.17	1000.42
641.52	994.12
641.86	987.70
642.20	981.90
642.55	975.50
642.89	969.00
643.23	962.44
643.58	956.64
643.92	950.41
644.26	944.29
644.61	938.33
644.95	932.33
645.29	925.64
645.64	918.85
645.98	912.48
646.32	906.66
646.66	900.68
647.01	894.97
647.35	889.27
647.69	883.37
648.04	877.79
648.38	871.97
648.72	865.87
649.06	859.79
649.41	853.83
649.75	847.88
650.09	841.94
650.43	836.11
650.78	829.99
651.12	824.00
651.46	818.35
651.80	812.63
652.14	807.20
652.49	801.85
652.83	796.74
653.17	791.03
653.51	785.31
653.85	779.90
654.20	774.15
654.54	768.10
654.88	762.49
655.22	756.57
655.56	750.86
655.90	745.51
656.25	740.21
656.59	734.86
656.93	729.84
657.27	724.68
657.61	719.24
657.95	714.13
658.29	709.02
658.64	703.71
658.98	698.40
659.32	692.92
659.66	687.72
660.00	682.32
660.34	677.40
660.68	672.53
661.02	667.48
661.36	662.89
661.70	658.44
662.05	654.02
662.39	649.70
662.73	645.37
663.07	640.98
663.41	636.54
663.75	632.09
664.09	627.46
664.43	623.07
664.77	618.95
665.11	614.68
665.45	610.63
665.79	606.51
666.13	602.38
666.47	598.31
666.81	594.14
667.15	590.04
667.49	586.16
667.83	582.35
668.17	578.40
668.51	574.27
668.85	570.23
669.19	566.44
669.53	562.59
669.87	558.60
670.21	554.87
670.55	551.27
670.89	547.85
671.23	544.47
671.57	540.97
671.91	537.48
672.25	534.04
672.58	530.51
672.92	527.19
673.26	524.01
673.60	520.85
673.94	517.70
674.28	514.86
674.62	511.87
674.96	508.75
675.30	505.86
675.64	502.95
675.97	500.25
676.31	497.36
676.65	494.48
676.99	491.84
677.33	489.00
677.67	486.22
678.01	483.13
678.34	480.09
678.68	477.25
679.02	474.46
679.36	471.74
679.70	469.05
680.04	466.22
680.37	463.31
680.71	460.59
681.05	457.97
681.39	455.22
681.73	452.58
682.06	450.00
682.40	447.44
682.74	444.90
683.08	442.31
683.42	439.70
683.75	437.16
684.09	434.60
684.43	432.17
684.77	429.68
685.10	427.39
685.44	425.14
685.78	422.83
686.12	420.55
686.45	418.27
686.79	415.92
687.13	413.69
687.46	411.57
687.80	409.40
688.14	407.25
688.48	405.21
688.81	402.95
689.15	400.83
689.49	398.69
689.82	396.60
690.16	394.57
690.50	392.66
690.83	390.72
691.17	388.74
691.51	386.79
691.84	384.92
692.18	382.94
692.52	380.93
692.85	379.01
693.19	377.11
693.52	375.29
693.86	373.51
694.20	371.77
694.53	369.96
694.87	368.14
695.21	366.36
695.54	364.51
695.88	362.80
696.21	361.09
696.55	359.40
696.88	357.72
697.22	356.02
697.56	354.37
697.89	352.71
698.23	351.10
698.56	349.51
698.90	347.92
699.23	346.31
699.57	344.81
699.90	343.26
700.24	341.78
700.58	340.19
700.91	338.67
701.25	337.20
701.58	335.83
701.92	334.43
702.25	333.00
702.59	331.64
702.92	330.30
703.26	329.00
703.59	327.74
703.93	326.56
704.26	325.32
704.60	324.02
704.93	322.79
705.26	321.55
705.60	320.39
705.93	319.24
706.27	318.24
706.60	317.18
706.94	316.11
707.27	314.97
707.61	313.95
707.94	312.99
708.27	311.94
708.61	310.83
708.94	309.82
709.28	308.91
709.61	307.96
709.94	307.03
710.28	306.04
710.61	305.05
710.95	303.97
711.28	303.09
711.61	302.15
711.95	301.25
712.28	300.31
712.61	299.31
712.95	298.37
713.28	297.44
713.61	296.54
713.95	295.67
714.28	294.79
714.61	293.90
714.95	293.04
715.28	292.17
715.61	291.33
715.95	290.50
716.28	289.63
716.61	288.79
716.95	287.98
717.28	287.24
717.61	286.49
717.94	285.74
718.28	284.91
718.61	284.18
718.94	283.46
719.27	282.79
719.61	282.12
719.94	281.48
720.27	280.75
720.60	280.06
720.94	279.44
721.27	278.88
721.60	278.26
721.93	277.66
722.27	277.15
722.60	276.59
722.93	276.00
723.26	275.46
723.59	274.89
723.93	274.35
724.26	273.81
724.59	273.22
724.92	272.71
725.25	272.22
725.59	271.70
725.92	271.20
726.25	270.70
726.58	270.20
726.91	269.67
727.24	269.20
727.57	268.75
727.91	268.21
728.24	267.72
728.57	267.25
728.90	266.77
729.23	266.24
729.56	265.78
729.89	265.30
730.22	264.81
730.55	264.33
730.89	263.89
731.22	263.38
731.55	262.93
731.88	262.48
732.21	262.04
732.54	261.59
732.87	261.16
733.20	260.72
733.53	260.37
733.86	260.00
734.19	259.58
734.52	259.20
734.85	258.85
735.18	258.46
735.51	258.04
735.84	257.65
736.17	257.29
736.50	256.90
736.83	256.65
737.16	256.29
737.49	255.97
737.82	255.57
738.15	255.26
738.48	254.95
738.81	254.65
739.14	254.34
739.47	254.02
739.80	253.66
740.13	253.34
740.46	253.00
740.79	252.66
741.12	252.37
741.45	252.05
741.78	251.71
742.11	251.38
742.44	251.11
742.77	250.86
743.10	250.56
743.43	250.27
743.75	249.87
744.08	249.73
744.41	249.48
744.74	249.24
745.07	248.96
745.40	248.69
745.73	248.48
746.06	248.20
746.39	247.95
746.71	247.72
747.04	247.52
747.37	247.26
747.70	247.05
748.03	246.80
748.36	246.56
748.68	246.33
749.01	246.11
749.34	245.89
749.67	245.64
750.00	245.46
750.33	245.30
750.65	245.14
750.98	244.79
751.31	244.57
751.64	244.38
751.97	244.23
752.29	244.05
752.62	243.82
752.95	243.60
753.28	243.41
753.60	243.24
753.93	243.02
754.26	242.87
754.59	242.67
754.91	242.52
755.24	242.32
755.57	242.15
755.90	241.97
756.22	241.78
756.55	241.62
756.88	241.40
757.20	241.20
757.53	241.06
757.86	240.93
758.19	240.78
758.51	240.66
758.84	240.47
759.17	240.28
759.49	240.11
759.82	240.02
760.15	239.87
760.47	239.70
760.80	239.57
761.13	239.43
761.45	239.26
761.78	239.10
762.11	239.00
762.43	238.86
762.76	238.71
763.08	238.62
763.41	238.51
763.74	238.39
764.06	238.24
764.39	238.05
764.71	237.88
765.04	237.75
765.37	237.57
765.69	237.44
766.02	237.34
766.34	237.22
766.67	237.09
767.00	237.01
767.32	236.93
767.65	236.85
767.97	236.71
768.30	236.58
768.62	236.45
768.95	236.32
769.27	236.21
769.60	236.13
769.92	235.95
770.25	235.81
770.57	235.69
770.90	235.58
771.22	235.47
771.55	235.32
771.87	235.19
772.20	235.10
772.52	235.09
772.85	235.08
773.17	234.96
773.50	234.85
773.82	234.68
774.15	234.55
774.47	234.42
774.80	234.31
775.12	234.24
775.45	234.11
775.77	234.06
776.09	233.97
776.42	233.86
776.74	233.80
777.07	233.69
777.39	233.61
777.72	233.53
778.04	233.49
778.36	233.45
778.69	233.39
779.01	233.30
779.33	233.12
779.66	232.90
779.98	232.81
780.31	232.71
780.63	232.70
780.95	232.64
781.28	232.55
781.60	232.47
781.92	232.40
782.25	232.39
782.57	232.30
782.89	232.21
783.22	232.11
783.54	232.08
783.86	232.04
784.19	231.96
784.51	231.91
784.83	231.81
785.16	231.75
785.48	231.70
785.80	231.64
786.12	231.56
786.45	231.53
786.77	231.46
787.09	231.40
