SpectraSuite Data File
++++++++++++++++++++++++++++++++++++
Date: Fri Feb 01 17:47:50 EST 2013
User: group
Dark Spectrum Present: No
Reference Spectrum Present: No
Number of Sampled Component Spectra: 1
Spectrometers: USB2E7196
Integration Time (usec): 35000 (USB2E7196)
Spectra Averaged: 100 (USB2E7196)
Boxcar Smoothing: 10 (USB2E7196)
Correct for Electrical Dark: No (USB2E7196)
Strobe/Lamp Enabled: No (USB2E7196)
Correct for Detector Non-linearity: No (USB2E7196)
Correct for Stray Light: No (USB2E7196)
Number of Pixels in Processed Spectrum: 2048
>>>>>Begin Processed Spectral Data<<<<<
339.09	0.00
339.48	212.33
339.86	214.23
340.24	215.43
340.63	216.30
341.01	219.36
341.39	219.73
341.78	220.85
342.16	222.11
342.54	222.22
342.93	210.94
343.31	221.61
343.69	222.19
344.07	222.65
344.46	223.08
344.84	223.50
345.22	223.77
345.60	224.01
345.99	224.20
346.37	224.36
346.75	224.49
347.13	224.54
347.52	224.62
347.90	224.70
348.28	224.71
348.66	224.76
349.05	224.76
349.43	224.83
349.81	224.89
350.19	224.95
350.57	225.02
350.96	225.12
351.34	225.18
351.72	225.22
352.10	225.30
352.48	225.36
352.87	225.38
353.25	225.43
353.63	225.49
354.01	225.55
354.39	225.60
354.77	225.67
355.15	225.77
355.54	225.81
355.92	225.82
356.30	225.90
356.68	226.01
357.06	226.09
357.44	226.16
357.82	226.23
358.20	226.29
358.58	226.36
358.97	226.35
359.35	226.46
359.73	226.55
360.11	226.60
360.49	226.67
360.87	226.75
361.25	226.83
361.63	226.88
362.01	226.90
362.39	226.93
362.77	226.97
363.15	227.02
363.53	227.06
363.91	227.08
364.29	227.14
364.67	227.07
365.05	227.10
365.43	227.13
365.81	227.14
366.19	227.15
366.57	227.19
366.95	227.25
367.33	227.23
367.71	227.24
368.09	227.26
368.47	227.26
368.85	227.23
369.23	227.23
369.61	227.21
369.99	227.28
370.37	227.29
370.75	227.30
371.13	227.25
371.51	227.23
371.89	227.24
372.27	227.20
372.65	227.19
373.03	227.16
373.41	227.08
373.78	227.04
374.16	226.94
374.54	226.87
374.92	226.81
375.30	226.75
375.68	226.66
376.06	226.60
376.44	226.52
376.82	226.45
377.19	226.35
377.57	226.30
377.95	226.17
378.33	226.08
378.71	225.96
379.09	225.90
379.47	225.84
379.84	225.77
380.22	225.70
380.60	225.60
380.98	225.52
381.36	225.47
381.73	225.39
382.11	225.38
382.49	225.33
382.87	225.24
383.25	225.18
383.62	225.25
384.00	225.18
384.38	225.17
384.76	225.18
385.13	225.20
385.51	225.12
385.89	225.07
386.27	225.05
386.64	225.01
387.02	224.96
387.40	224.93
387.78	224.87
388.15	224.84
388.53	224.83
388.91	224.82
389.29	224.78
389.66	224.79
390.04	224.76
390.42	224.75
390.79	224.76
391.17	224.75
391.55	224.63
391.92	224.62
392.30	224.58
392.68	224.50
393.05	224.48
393.43	224.50
393.81	224.51
394.18	224.49
394.56	224.49
394.94	224.54
395.31	224.52
395.69	224.58
396.06	224.61
396.44	224.66
396.82	224.68
397.19	224.78
397.57	224.80
397.95	224.85
398.32	224.87
398.70	224.91
399.07	224.94
399.45	225.02
399.82	225.06
400.20	225.13
400.58	225.22
400.95	225.26
401.33	225.37
401.70	225.53
402.08	225.60
402.45	225.73
402.83	225.83
403.20	225.94
403.58	226.03
403.95	226.16
404.33	226.29
404.71	226.40
405.08	226.58
405.46	226.75
405.83	226.89
406.21	227.05
406.58	227.27
406.96	227.45
407.33	227.62
407.70	227.87
408.08	228.19
408.45	228.46
408.83	228.73
409.20	229.01
409.58	229.27
409.95	229.61
410.33	229.95
410.70	230.25
411.08	230.63
411.45	231.05
411.82	231.43
412.20	231.87
412.57	232.41
412.95	232.81
413.32	233.31
413.69	233.83
414.07	234.41
414.44	234.97
414.82	235.59
415.19	236.28
415.56	236.99
415.94	237.70
416.31	238.52
416.68	239.37
417.06	240.24
417.43	241.09
417.81	242.06
418.18	243.00
418.55	244.09
418.93	245.19
419.30	246.28
419.67	247.46
420.04	248.64
420.42	249.88
420.79	251.37
421.16	252.84
421.54	254.38
421.91	255.92
422.28	257.56
422.66	259.29
423.03	260.96
423.40	262.66
423.77	264.48
424.15	266.29
424.52	268.11
424.89	270.17
425.26	272.14
425.64	274.02
426.01	276.10
426.38	278.25
426.75	280.41
427.13	282.66
427.50	284.99
427.87	287.47
428.24	289.90
428.61	292.16
428.99	294.62
429.36	297.31
429.73	299.96
430.10	302.53
430.47	305.17
430.85	307.92
431.22	310.80
431.59	313.76
431.96	316.68
432.33	319.88
432.70	322.95
433.08	326.58
433.45	329.99
433.82	333.34
434.19	337.01
434.56	340.59
434.93	343.98
435.30	347.36
435.68	351.04
436.05	354.63
436.42	358.20
436.79	361.46
437.16	364.93
437.53	368.58
437.90	372.23
438.27	375.76
438.64	379.42
439.01	382.75
439.38	385.66
439.75	388.40
440.13	391.64
440.50	394.68
440.87	397.10
441.24	399.53
441.61	402.26
441.98	404.21
442.35	406.54
442.72	408.97
443.09	411.27
443.46	412.53
443.83	413.34
444.20	414.05
444.57	415.12
444.94	415.54
445.31	415.99
445.68	416.38
446.05	416.49
446.42	416.00
446.79	415.55
447.16	415.03
447.53	414.69
447.90	413.20
448.27	411.66
448.64	409.59
449.01	408.19
449.37	405.71
449.74	403.33
450.11	400.47
450.48	397.29
450.85	394.07
451.22	391.35
451.59	388.77
451.96	386.31
452.33	383.00
452.70	379.91
453.07	376.28
453.43	372.61
453.80	369.06
454.17	365.55
454.54	362.20
454.91	358.69
455.28	355.25
455.65	352.06
456.02	348.90
456.38	346.15
456.75	342.70
457.12	339.79
457.49	336.86
457.86	334.09
458.23	331.68
458.59	329.06
458.96	326.38
459.33	323.95
459.70	321.49
460.07	319.53
460.43	317.33
460.80	315.19
461.17	313.32
461.54	311.35
461.91	309.53
462.27	307.64
462.64	305.97
463.01	304.20
463.38	302.52
463.74	300.74
464.11	299.22
464.48	297.88
464.85	296.42
465.21	295.28
465.58	294.05
465.95	292.60
466.32	291.38
466.68	290.17
467.05	288.99
467.42	287.84
467.78	286.63
468.15	285.49
468.52	284.66
468.88	283.53
469.25	282.52
469.62	281.71
469.98	280.82
470.35	280.02
470.72	279.22
471.08	278.37
471.45	277.70
471.82	276.93
472.18	276.14
472.55	275.57
472.92	274.90
473.28	274.26
473.65	273.70
474.02	273.16
474.38	272.64
474.75	272.21
475.11	271.67
475.48	271.31
475.85	270.94
476.21	270.60
476.58	270.31
476.94	270.09
477.31	269.83
477.67	269.62
478.04	269.44
478.41	269.30
478.77	269.28
479.14	269.14
479.50	269.13
479.87	269.16
480.23	269.22
480.60	269.26
480.96	269.30
481.33	269.43
481.69	269.59
482.06	269.84
482.42	269.99
482.79	270.25
483.15	270.50
483.52	270.91
483.88	271.23
484.25	271.61
484.61	272.05
484.98	272.46
485.34	272.96
485.71	273.55
486.07	274.15
486.44	274.69
486.80	275.39
487.17	276.11
487.53	276.93
487.90	277.78
488.26	278.73
488.62	279.75
488.99	280.81
489.35	281.80
489.72	282.90
490.08	284.17
490.44	285.46
490.81	286.90
491.17	288.26
491.54	289.82
491.90	291.41
492.26	293.10
492.63	294.93
492.99	296.87
493.36	298.83
493.72	300.97
494.08	303.21
494.45	305.54
494.81	308.04
495.17	310.62
495.54	313.29
495.90	316.06
496.26	319.03
496.63	322.08
496.99	325.38
497.35	328.81
497.72	332.38
498.08	336.07
498.44	339.88
498.80	343.99
499.17	348.24
499.53	352.62
499.89	357.24
500.26	361.96
500.62	366.83
500.98	372.06
501.34	377.39
501.71	382.97
502.07	388.69
502.43	394.59
502.79	400.66
503.16	407.03
503.52	413.64
503.88	420.37
504.24	427.35
504.60	434.61
504.97	442.08
505.33	449.68
505.69	457.74
506.05	465.91
506.41	474.12
506.78	482.68
507.14	491.50
507.50	500.67
507.86	510.18
508.22	519.87
508.59	529.55
508.95	539.56
509.31	549.83
509.67	560.49
510.03	571.25
510.39	582.37
510.75	593.78
511.12	605.31
511.48	617.14
511.84	629.21
512.20	641.30
512.56	653.86
512.92	666.83
513.28	679.97
513.64	693.16
514.00	706.72
514.37	720.31
514.73	734.22
515.09	747.96
515.45	761.95
515.81	776.39
516.17	791.12
516.53	806.24
516.89	821.31
517.25	836.42
517.61	851.84
517.97	867.25
518.33	882.56
518.69	898.27
519.05	914.28
519.41	930.50
519.77	947.05
520.13	963.67
520.49	980.12
520.85	996.54
521.21	1013.20
521.57	1030.44
521.93	1047.41
522.29	1064.91
522.65	1082.39
523.01	1099.86
523.37	1117.08
523.73	1134.54
524.09	1151.72
524.45	1169.18
524.81	1187.02
525.17	1205.00
525.53	1223.16
525.89	1241.37
526.25	1259.57
526.61	1277.32
526.97	1295.44
527.33	1313.29
527.68	1331.15
528.04	1348.96
528.40	1366.96
528.76	1385.54
529.12	1403.73
529.48	1422.16
529.84	1439.68
530.20	1457.82
530.56	1476.37
530.91	1495.38
531.27	1513.71
531.63	1531.72
531.99	1550.00
532.35	1567.63
532.71	1585.17
533.07	1603.09
533.42	1620.79
533.78	1638.46
534.14	1656.34
534.50	1673.24
534.86	1690.84
535.21	1707.84
535.57	1725.57
535.93	1742.82
536.29	1759.34
536.65	1776.05
537.00	1792.43
537.36	1809.60
537.72	1825.86
538.08	1842.10
538.44	1857.60
538.79	1873.34
539.15	1888.84
539.51	1904.38
539.87	1920.44
540.22	1935.88
540.58	1951.47
540.94	1966.49
541.29	1981.18
541.65	1995.77
542.01	2011.00
542.37	2025.16
542.72	2039.25
543.08	2052.85
543.44	2067.17
543.79	2080.37
544.15	2093.31
544.51	2106.81
544.87	2119.39
545.22	2131.95
545.58	2144.01
545.94	2155.46
546.29	2167.03
546.65	2178.72
547.01	2189.85
547.36	2200.35
547.72	2210.76
548.07	2220.45
548.43	2230.38
548.79	2240.09
549.14	2249.32
549.50	2258.13
549.86	2267.46
550.21	2276.41
550.57	2285.22
550.92	2293.34
551.28	2301.83
551.64	2310.46
551.99	2318.53
552.35	2326.39
552.70	2334.26
553.06	2341.76
553.41	2349.85
553.77	2357.35
554.13	2364.92
554.48	2372.49
554.84	2379.71
555.19	2386.35
555.55	2393.05
555.90	2398.90
556.26	2405.38
556.61	2411.51
556.97	2417.47
557.32	2423.05
557.68	2428.64
558.03	2434.27
558.39	2439.26
558.74	2445.47
559.10	2450.70
559.45	2455.72
559.81	2461.32
560.16	2466.43
560.52	2470.87
560.87	2475.39
561.23	2479.31
561.58	2483.37
561.94	2487.18
562.29	2490.46
562.64	2494.47
563.00	2498.14
563.35	2502.77
563.71	2506.93
564.06	2511.19
564.42	2515.14
564.77	2518.86
565.12	2522.35
565.48	2525.27
565.83	2528.21
566.19	2530.44
566.54	2532.05
566.89	2534.09
567.25	2535.45
567.60	2537.53
567.96	2540.35
568.31	2541.98
568.66	2543.99
569.02	2545.42
569.37	2546.48
569.72	2548.11
570.08	2548.93
570.43	2549.55
570.78	2549.66
571.14	2548.73
571.49	2547.81
571.84	2547.96
572.20	2547.32
572.55	2546.65
572.90	2545.35
573.26	2544.52
573.61	2543.10
573.96	2542.04
574.31	2539.24
574.67	2536.64
575.02	2533.19
575.37	2529.76
575.72	2526.32
576.08	2523.09
576.43	2519.83
576.78	2516.31
577.13	2513.15
577.49	2510.00
577.84	2506.52
578.19	2502.95
578.54	2499.46
578.90	2495.39
579.25	2489.68
579.60	2484.66
579.95	2479.51
580.30	2474.51
580.66	2469.12
581.01	2464.02
581.36	2458.79
581.71	2454.73
582.06	2450.18
582.42	2445.70
582.77	2440.18
583.12	2435.32
583.47	2430.53
583.82	2425.51
584.17	2419.98
584.53	2414.19
584.88	2408.29
585.23	2402.36
585.58	2396.40
585.93	2390.52
586.28	2385.33
586.63	2380.04
586.98	2374.47
587.34	2369.39
587.69	2364.15
588.04	2358.52
588.39	2352.44
588.74	2345.40
589.09	2338.65
589.44	2331.24
589.79	2324.49
590.14	2318.35
590.49	2311.13
590.84	2303.91
591.19	2297.18
591.54	2290.16
591.89	2282.29
592.25	2274.92
592.60	2266.84
592.95	2258.59
593.30	2250.42
593.65	2242.15
594.00	2234.15
594.35	2226.07
594.70	2217.08
595.05	2209.22
595.40	2201.00
595.75	2192.58
596.10	2185.71
596.45	2178.36
596.80	2171.42
597.15	2164.14
597.50	2156.45
597.85	2149.19
598.19	2141.88
598.54	2134.18
598.89	2126.69
599.24	2119.93
599.59	2112.60
599.94	2105.62
600.29	2098.48
600.64	2090.98
600.99	2082.68
601.34	2075.07
601.69	2067.21
602.04	2059.71
602.39	2051.40
602.74	2043.78
603.08	2036.42
603.43	2028.78
603.78	2020.41
604.13	2012.39
604.48	2004.20
604.83	1996.41
605.18	1988.75
605.53	1979.72
605.87	1970.50
606.22	1962.29
606.57	1953.29
606.92	1944.66
607.27	1936.69
607.62	1928.72
607.96	1920.59
608.31	1913.16
608.66	1904.61
609.01	1896.10
609.36	1887.48
609.70	1878.33
610.05	1869.13
610.40	1860.28
610.75	1850.79
611.10	1842.05
611.44	1832.40
611.79	1823.21
612.14	1813.33
612.49	1802.86
612.83	1793.31
613.18	1783.98
613.53	1774.66
613.88	1764.98
614.22	1755.73
614.57	1745.67
614.92	1736.55
615.27	1727.96
615.61	1718.47
615.96	1709.27
616.31	1700.59
616.65	1692.14
617.00	1683.50
617.35	1674.70
617.70	1665.30
618.04	1655.59
618.39	1646.14
618.74	1637.40
619.08	1627.92
619.43	1619.14
619.78	1611.09
620.12	1602.89
620.47	1594.30
620.82	1584.88
621.16	1576.25
621.51	1567.39
621.85	1558.62
622.20	1548.87
622.55	1539.24
622.89	1530.09
623.24	1521.29
623.59	1512.61
623.93	1503.92
624.28	1495.66
624.62	1487.05
624.97	1478.61
625.32	1470.71
625.66	1462.62
626.01	1454.50
626.35	1446.21
626.70	1437.38
627.04	1428.46
627.39	1419.48
627.73	1411.01
628.08	1403.14
628.43	1394.88
628.77	1386.54
629.12	1377.97
629.46	1369.71
629.81	1361.03
630.15	1352.72
630.50	1344.24
630.84	1335.04
631.19	1325.86
631.53	1317.08
631.88	1308.44
632.22	1299.85
632.57	1291.56
632.91	1282.92
633.26	1274.40
633.60	1265.64
633.95	1257.27
634.29	1249.28
634.64	1241.56
634.98	1233.16
635.32	1224.88
635.67	1217.21
636.01	1209.55
636.36	1201.87
636.70	1194.39
637.05	1187.01
637.39	1179.63
637.73	1172.21
638.08	1165.37
638.42	1158.57
638.77	1151.33
639.11	1143.86
639.45	1136.54
639.80	1129.01
640.14	1121.80
640.49	1114.32
640.83	1107.22
641.17	1100.31
641.52	1093.00
641.86	1085.68
642.20	1079.04
642.55	1071.83
642.89	1064.57
643.23	1057.07
643.58	1050.46
643.92	1043.44
644.26	1036.57
644.61	1029.77
644.95	1022.98
645.29	1015.55
645.64	1007.94
645.98	1000.69
646.32	993.92
646.66	987.06
647.01	980.40
647.35	973.92
647.69	967.23
648.04	960.96
648.38	954.46
648.72	947.88
649.06	941.03
649.41	934.27
649.75	927.58
650.09	920.80
650.43	914.31
650.78	907.32
651.12	900.68
651.46	894.18
651.80	887.67
652.14	881.52
652.49	875.46
652.83	869.64
653.17	863.28
653.51	856.89
653.85	850.73
654.20	844.44
654.54	837.63
654.88	831.21
655.22	824.52
655.56	818.07
655.90	811.81
656.25	805.92
656.59	799.94
656.93	794.27
657.27	788.53
657.61	782.38
657.95	776.68
658.29	770.89
658.64	764.94
658.98	758.89
659.32	752.66
659.66	746.80
660.00	740.84
660.34	735.23
660.68	729.67
661.02	723.99
661.36	718.68
661.70	713.63
662.05	708.77
662.39	703.95
662.73	698.82
663.07	693.93
663.41	688.88
663.75	683.87
664.09	678.62
664.43	673.60
664.77	669.04
665.11	664.32
665.45	659.62
665.79	655.05
666.13	650.44
666.47	645.93
666.81	641.30
667.15	636.62
667.49	632.23
667.83	627.90
668.17	623.55
668.51	618.97
668.85	614.45
669.19	610.07
669.53	605.76
669.87	601.51
670.21	597.30
670.55	593.19
670.89	589.29
671.23	585.49
671.57	581.52
671.91	577.53
672.25	573.47
672.58	569.53
672.92	565.68
673.26	562.06
673.60	558.43
673.94	554.91
674.28	551.60
674.62	548.31
674.96	544.86
675.30	541.60
675.64	538.32
675.97	535.16
676.31	531.92
676.65	528.62
676.99	525.52
677.33	522.26
677.67	519.10
678.01	515.71
678.34	512.39
678.68	509.17
679.02	505.96
679.36	502.85
679.70	499.78
680.04	496.71
680.37	493.56
680.71	490.45
681.05	487.48
681.39	484.46
681.73	481.42
682.06	478.62
682.40	475.71
682.74	472.83
683.08	469.93
683.42	466.96
683.75	464.16
684.09	461.27
684.43	458.48
684.77	455.67
685.10	453.00
685.44	450.37
685.78	447.73
686.12	445.15
686.45	442.52
686.79	439.91
687.13	437.33
687.46	434.84
687.80	432.33
688.14	429.80
688.48	427.44
688.81	424.90
689.15	422.47
689.49	420.04
689.82	417.62
690.16	415.22
690.50	413.01
690.83	410.76
691.17	408.50
691.51	406.37
691.84	404.29
692.18	402.10
692.52	399.88
692.85	397.71
693.19	395.60
693.52	393.53
693.86	391.42
694.20	389.47
694.53	387.40
694.87	385.31
695.21	383.25
695.54	381.15
695.88	379.17
696.21	377.20
696.55	375.27
696.88	373.36
697.22	371.44
697.56	369.57
697.89	367.70
698.23	365.86
698.56	363.99
698.90	362.20
699.23	360.32
699.57	358.52
699.90	356.78
700.24	355.03
700.58	353.31
700.91	351.64
701.25	349.94
701.58	348.43
701.92	346.93
702.25	345.38
702.59	343.89
702.92	342.40
703.26	340.89
703.59	339.45
703.93	338.12
704.26	336.77
704.60	335.32
704.93	333.87
705.26	332.46
705.60	331.16
705.93	329.84
706.27	328.67
706.60	327.49
706.94	326.28
707.27	325.00
707.61	323.82
707.94	322.65
708.27	321.42
708.61	320.16
708.94	318.99
709.28	317.91
709.61	316.77
709.94	315.71
710.28	314.55
710.61	313.41
710.95	312.20
711.28	311.09
711.61	310.00
711.95	308.99
712.28	307.93
712.61	306.84
712.95	305.81
713.28	304.78
713.61	303.77
713.95	302.75
714.28	301.80
714.61	300.80
714.95	299.82
715.28	298.90
715.61	297.93
715.95	296.98
716.28	295.99
716.61	295.03
716.95	294.08
717.28	293.21
717.61	292.34
717.94	291.55
718.28	290.69
718.61	289.87
718.94	289.06
719.27	288.35
719.61	287.58
719.94	286.82
720.27	286.02
720.60	285.23
720.94	284.50
721.27	283.83
721.60	283.13
721.93	282.51
722.27	281.86
722.60	281.24
722.93	280.58
723.26	279.97
723.59	279.37
723.93	278.75
724.26	278.14
724.59	277.50
724.92	276.81
725.25	276.28
725.59	275.65
725.92	275.04
726.25	274.43
726.58	273.86
726.91	273.31
727.24	272.75
727.57	272.21
727.91	271.61
728.24	271.04
728.57	270.46
728.90	269.91
729.23	269.36
729.56	268.85
729.89	268.29
730.22	267.74
730.55	267.17
730.89	266.67
731.22	266.15
731.55	265.69
731.88	265.25
732.21	264.70
732.54	264.24
732.87	263.76
733.20	263.27
733.53	262.83
733.86	262.35
734.19	261.89
734.52	261.45
734.85	261.12
735.18	260.65
735.51	260.24
735.84	259.82
736.17	259.39
736.50	258.91
736.83	258.62
737.16	258.20
737.49	257.80
737.82	257.37
738.15	257.00
738.48	256.57
738.81	256.14
739.14	255.79
739.47	255.44
739.80	255.09
740.13	254.76
740.46	254.38
740.79	254.00
741.12	253.66
741.45	253.32
741.78	252.91
742.11	252.59
742.44	252.25
742.77	251.93
743.10	251.62
743.43	251.30
743.75	250.87
744.08	250.75
744.41	250.45
744.74	250.17
745.07	249.85
745.40	249.62
745.73	249.35
746.06	249.02
746.39	248.69
746.71	248.38
747.04	248.09
747.37	247.77
747.70	247.53
748.03	247.25
748.36	247.03
748.68	246.78
749.01	246.47
749.34	246.20
749.67	245.94
750.00	245.67
750.33	245.48
750.65	245.27
750.98	244.85
751.31	244.62
751.64	244.37
751.97	244.16
752.29	243.89
752.62	243.63
752.95	243.39
753.28	243.19
753.60	243.00
753.93	242.79
754.26	242.63
754.59	242.39
754.91	242.14
755.24	241.87
755.57	241.63
755.90	241.45
756.22	241.26
756.55	241.02
756.88	240.80
757.20	240.54
757.53	240.33
757.86	240.12
758.19	239.95
758.51	239.76
758.84	239.55
759.17	239.38
759.49	239.24
759.82	239.11
760.15	238.93
760.47	238.72
760.80	238.51
761.13	238.36
761.45	238.16
761.78	238.03
762.11	237.86
762.43	237.72
762.76	237.57
763.08	237.43
763.41	237.31
763.74	237.16
764.06	236.99
764.39	236.81
764.71	236.66
765.04	236.49
765.37	236.34
765.69	236.21
766.02	236.04
766.34	235.87
766.67	235.71
767.00	235.62
767.32	235.57
767.65	235.51
767.97	235.37
768.30	235.26
768.62	235.12
768.95	235.02
769.27	234.89
769.60	234.81
769.92	234.66
770.25	234.49
770.57	234.37
770.90	234.29
771.22	234.17
771.55	234.07
771.87	233.98
772.20	233.87
772.52	233.81
772.85	233.79
773.17	233.72
773.50	233.59
773.82	233.43
774.15	233.26
774.47	233.09
774.80	232.97
775.12	232.85
775.45	232.73
775.77	232.65
776.09	232.54
776.42	232.44
776.74	232.38
777.07	232.31
777.39	232.25
777.72	232.18
778.04	232.12
778.36	232.05
778.69	231.97
779.01	231.92
779.33	231.78
779.66	231.63
779.98	231.54
780.31	231.49
780.63	231.47
780.95	231.42
781.28	231.38
781.60	231.30
781.92	231.25
782.25	231.20
782.57	231.10
782.89	231.05
783.22	230.97
783.54	230.88
783.86	230.81
784.19	230.72
784.51	230.67
784.83	230.57
785.16	230.52
785.48	230.46
785.80	230.37
786.12	230.30
786.45	230.26
786.77	230.25
