SpectraSuite Data File
++++++++++++++++++++++++++++++++++++
Date: Fri Feb 01 16:01:24 EST 2013
User: group
Dark Spectrum Present: No
Reference Spectrum Present: No
Number of Sampled Component Spectra: 1
Spectrometers: USB2E7196
Integration Time (usec): 35000 (USB2E7196)
Spectra Averaged: 100 (USB2E7196)
Boxcar Smoothing: 10 (USB2E7196)
Correct for Electrical Dark: No (USB2E7196)
Strobe/Lamp Enabled: No (USB2E7196)
Correct for Detector Non-linearity: No (USB2E7196)
Correct for Stray Light: No (USB2E7196)
Number of Pixels in Processed Spectrum: 2048
>>>>>Begin Processed Spectral Data<<<<<
339.09	0.00
339.48	215.12
339.86	216.16
340.24	217.59
340.63	219.26
341.01	222.27
341.39	221.92
341.78	222.58
342.16	224.65
342.54	224.53
342.93	213.16
343.31	223.96
343.69	224.49
344.07	224.96
344.46	225.38
344.84	225.76
345.22	225.96
345.60	226.22
345.99	226.44
346.37	226.57
346.75	226.68
347.13	226.75
347.52	226.82
347.90	226.93
348.28	227.00
348.66	227.04
349.05	227.05
349.43	227.08
349.81	227.13
350.19	227.17
350.57	227.22
350.96	227.28
351.34	227.33
351.72	227.41
352.10	227.48
352.48	227.57
352.87	227.60
353.25	227.72
353.63	227.78
354.01	227.83
354.39	227.91
354.77	227.99
355.15	228.09
355.54	228.16
355.92	228.15
356.30	228.19
356.68	228.32
357.06	228.38
357.44	228.42
357.82	228.46
358.20	228.52
358.58	228.58
358.97	228.62
359.35	228.72
359.73	228.79
360.11	228.86
360.49	228.89
360.87	228.92
361.25	228.96
361.63	229.00
362.01	229.04
362.39	229.02
362.77	229.06
363.15	229.07
363.53	229.09
363.91	229.12
364.29	229.16
364.67	229.07
365.05	229.09
365.43	229.13
365.81	229.16
366.19	229.20
366.57	229.23
366.95	229.24
367.33	229.18
367.71	229.19
368.09	229.15
368.47	229.16
368.85	229.17
369.23	229.14
369.61	229.06
369.99	229.05
370.37	229.05
370.75	229.05
371.13	229.00
371.51	228.95
371.89	228.91
372.27	228.88
372.65	228.86
373.03	228.81
373.41	228.75
373.78	228.68
374.16	228.60
374.54	228.54
374.92	228.49
375.30	228.46
375.68	228.35
376.06	228.34
376.44	228.28
376.82	228.20
377.19	228.12
377.57	228.05
377.95	227.93
378.33	227.87
378.71	227.77
379.09	227.69
379.47	227.63
379.84	227.55
380.22	227.45
380.60	227.37
380.98	227.31
381.36	227.23
381.73	227.13
382.11	227.07
382.49	226.97
382.87	226.90
383.25	226.81
383.62	226.86
384.00	226.76
384.38	226.70
384.76	226.68
385.13	226.66
385.51	226.62
385.89	226.58
386.27	226.52
386.64	226.49
387.02	226.43
387.40	226.39
387.78	226.36
388.15	226.32
388.53	226.26
388.91	226.25
389.29	226.23
389.66	226.23
390.04	226.24
390.42	226.23
390.79	226.21
391.17	226.23
391.55	226.11
391.92	226.11
392.30	226.12
392.68	226.10
393.05	226.12
393.43	226.14
393.81	226.15
394.18	226.14
394.56	226.15
394.94	226.16
395.31	226.18
395.69	226.25
396.06	226.29
396.44	226.34
396.82	226.35
397.19	226.45
397.57	226.49
397.95	226.51
398.32	226.56
398.70	226.61
399.07	226.67
399.45	226.73
399.82	226.78
400.20	226.81
400.58	226.85
400.95	226.90
401.33	227.01
401.70	227.17
402.08	227.27
402.45	227.38
402.83	227.54
403.20	227.64
403.58	227.74
403.95	227.87
404.33	228.01
404.71	228.14
405.08	228.28
405.46	228.41
405.83	228.57
406.21	228.69
406.58	228.89
406.96	229.04
407.33	229.23
407.70	229.45
408.08	229.74
408.45	229.98
408.83	230.23
409.20	230.44
409.58	230.60
409.95	230.86
410.33	231.11
410.70	231.33
411.08	231.60
411.45	231.91
411.82	232.22
412.20	232.53
412.57	232.93
412.95	233.24
413.32	233.66
413.69	234.09
414.07	234.53
414.44	234.94
414.82	235.43
415.19	235.97
415.56	236.49
415.94	237.03
416.31	237.65
416.68	238.26
417.06	238.96
417.43	239.66
417.81	240.43
418.18	241.21
418.55	242.08
418.93	243.02
419.30	243.92
419.67	244.87
420.04	245.85
420.42	246.84
420.79	248.00
421.16	249.16
421.54	250.33
421.91	251.54
422.28	252.81
422.66	254.13
423.03	255.40
423.40	256.74
423.77	258.14
424.15	259.58
424.52	261.06
424.89	262.66
425.26	264.21
425.64	265.66
426.01	267.22
426.38	268.85
426.75	270.46
427.13	272.20
427.50	274.04
427.87	275.94
428.24	277.82
428.61	279.53
428.99	281.42
429.36	283.54
429.73	285.58
430.10	287.65
430.47	289.72
430.85	291.88
431.22	294.13
431.59	296.51
431.96	298.75
432.33	301.25
432.70	303.63
433.08	306.44
433.45	309.07
433.82	311.70
434.19	314.62
434.56	317.43
434.93	320.07
435.30	322.67
435.68	325.52
436.05	328.31
436.42	331.13
436.79	333.65
437.16	336.37
437.53	339.22
437.90	342.00
438.27	344.69
438.64	347.55
439.01	350.14
439.38	352.35
439.75	354.49
440.13	356.91
440.50	359.22
440.87	361.05
441.24	362.96
441.61	365.12
441.98	366.59
442.35	368.38
442.72	370.23
443.09	372.03
443.46	373.04
443.83	373.69
444.20	374.21
444.57	375.07
444.94	375.30
445.31	375.63
445.68	375.97
446.05	376.05
446.42	375.65
446.79	375.20
447.16	374.77
447.53	374.47
447.90	373.38
448.27	372.25
448.64	370.69
449.01	369.56
449.37	367.54
449.74	365.64
450.11	363.37
450.48	360.86
450.85	358.27
451.22	356.10
451.59	354.03
451.96	352.07
452.33	349.43
452.70	347.10
453.07	344.28
453.43	341.35
453.80	338.62
454.17	335.94
454.54	333.38
454.91	330.66
455.28	327.97
455.65	325.46
456.02	323.01
456.38	320.84
456.75	318.23
457.12	315.99
457.49	313.78
457.86	311.67
458.23	309.83
458.59	307.80
458.96	305.71
459.33	303.88
459.70	302.02
460.07	300.53
460.43	298.79
460.80	297.21
461.17	295.80
461.54	294.32
461.91	292.88
462.27	291.43
462.64	290.18
463.01	288.82
463.38	287.52
463.74	286.14
464.11	284.99
464.48	283.91
464.85	282.85
465.21	281.99
465.58	281.08
465.95	280.00
466.32	279.10
466.68	278.21
467.05	277.32
467.42	276.43
467.78	275.52
468.15	274.68
468.52	274.00
468.88	273.12
469.25	272.33
469.62	271.72
469.98	271.10
470.35	270.52
470.72	269.94
471.08	269.29
471.45	268.78
471.82	268.22
472.18	267.64
472.55	267.19
472.92	266.67
473.28	266.16
473.65	265.71
474.02	265.27
474.38	264.92
474.75	264.58
475.11	264.25
475.48	264.00
475.85	263.80
476.21	263.55
476.58	263.38
476.94	263.22
477.31	263.02
477.67	262.87
478.04	262.74
478.41	262.72
478.77	262.77
479.14	262.70
479.50	262.73
479.87	262.83
480.23	262.94
480.60	263.01
480.96	263.11
481.33	263.34
481.69	263.55
482.06	263.76
482.42	263.95
482.79	264.19
483.15	264.46
483.52	264.82
483.88	265.17
484.25	265.53
484.61	265.96
484.98	266.43
485.34	266.98
485.71	267.57
486.07	268.15
486.44	268.71
486.80	269.43
487.17	270.15
487.53	270.98
487.90	271.80
488.26	272.75
488.62	273.74
488.99	274.69
489.35	275.75
489.72	276.86
490.08	278.08
490.44	279.35
490.81	280.71
491.17	282.03
491.54	283.54
491.90	285.10
492.26	286.78
492.63	288.51
492.99	290.29
493.36	292.17
493.72	294.21
494.08	296.32
494.45	298.54
494.81	300.94
495.17	303.35
495.54	305.91
495.90	308.57
496.26	311.36
496.63	314.30
496.99	317.38
497.35	320.69
497.72	324.11
498.08	327.64
498.44	331.31
498.80	335.26
499.17	339.30
499.53	343.47
499.89	347.85
500.26	352.38
500.62	357.05
500.98	362.02
501.34	367.10
501.71	372.47
502.07	377.99
502.43	383.58
502.79	389.45
503.16	395.54
503.52	401.85
503.88	408.31
504.24	414.98
504.60	421.87
504.97	428.95
505.33	436.25
505.69	443.97
506.05	451.71
506.41	459.67
506.78	467.78
507.14	476.29
507.50	485.01
507.86	494.01
508.22	503.25
508.59	512.46
508.95	522.05
509.31	531.87
509.67	541.96
510.03	552.26
510.39	562.82
510.75	573.63
511.12	584.55
511.48	595.84
511.84	607.27
512.20	618.76
512.56	630.79
512.92	643.03
513.28	655.32
513.64	667.90
514.00	680.45
514.37	693.39
514.73	706.48
515.09	719.50
515.45	732.86
515.81	746.46
516.17	760.48
516.53	774.52
516.89	788.66
517.25	802.79
517.61	817.19
517.97	831.62
518.33	846.06
518.69	860.78
519.05	875.75
519.41	890.94
519.77	906.52
520.13	921.92
520.49	937.24
520.85	952.61
521.21	968.21
521.57	984.50
521.93	1000.27
522.29	1016.65
522.65	1032.80
523.01	1048.87
523.37	1064.95
523.73	1081.07
524.09	1097.19
524.45	1113.57
524.81	1130.20
525.17	1147.01
525.53	1163.83
525.89	1180.64
526.25	1197.45
526.61	1213.86
526.97	1230.62
527.33	1247.06
527.68	1263.68
528.04	1280.11
528.40	1296.67
528.76	1313.76
529.12	1330.33
529.48	1347.19
529.84	1363.18
530.20	1379.92
530.56	1397.07
530.91	1414.37
531.27	1431.08
531.63	1447.50
531.99	1464.01
532.35	1480.01
532.71	1495.91
533.07	1512.22
533.42	1528.08
533.78	1544.15
534.14	1560.28
534.50	1575.55
534.86	1591.36
535.21	1606.46
535.57	1622.43
535.93	1638.01
536.29	1652.80
536.65	1667.88
537.00	1682.64
537.36	1697.96
537.72	1712.48
538.08	1726.79
538.44	1740.53
538.79	1754.43
539.15	1768.13
539.51	1781.81
539.87	1796.01
540.22	1809.75
540.58	1823.40
540.94	1836.73
541.29	1849.60
541.65	1862.29
542.01	1875.45
542.37	1887.77
542.72	1900.17
543.08	1911.92
543.44	1924.37
543.79	1935.46
544.15	1946.36
544.51	1957.81
544.87	1968.56
545.22	1979.21
545.58	1989.36
545.94	1999.19
546.29	2009.07
546.65	2018.84
547.01	2028.07
547.36	2036.75
547.72	2045.15
548.07	2053.01
548.43	2061.18
548.79	2069.12
549.14	2076.67
549.50	2083.95
549.86	2091.53
550.21	2098.86
550.57	2105.94
550.92	2112.32
551.28	2119.36
551.64	2126.45
551.99	2133.02
552.35	2139.30
552.70	2145.45
553.06	2151.59
553.41	2157.82
553.77	2163.75
554.13	2169.91
554.48	2176.08
554.84	2181.60
555.19	2186.94
555.55	2192.16
555.90	2196.58
556.26	2201.46
556.61	2206.23
556.97	2210.57
557.32	2214.86
557.68	2218.96
558.03	2223.25
558.39	2227.10
558.74	2231.81
559.10	2235.69
559.45	2239.36
559.81	2243.65
560.16	2247.56
560.52	2250.56
560.87	2253.99
561.23	2256.66
561.58	2259.66
561.94	2262.11
562.29	2264.35
562.64	2266.98
563.00	2269.53
563.35	2273.08
563.71	2276.33
564.06	2279.63
564.42	2282.38
564.77	2284.80
565.12	2287.10
565.48	2289.01
565.83	2290.91
566.19	2292.25
566.54	2293.13
566.89	2294.20
567.25	2294.64
567.60	2295.96
567.96	2297.76
568.31	2298.63
568.66	2299.78
569.02	2300.26
569.37	2300.58
569.72	2301.51
570.08	2301.78
570.43	2301.79
570.78	2301.10
571.14	2299.43
571.49	2298.04
571.84	2297.83
572.20	2296.70
572.55	2295.66
572.90	2294.15
573.26	2292.62
573.61	2290.97
573.96	2289.17
574.31	2286.29
574.67	2283.46
575.02	2279.76
575.37	2276.38
575.72	2272.59
576.08	2269.28
576.43	2265.99
576.78	2262.43
577.13	2259.30
577.49	2256.09
577.84	2252.56
578.19	2249.04
578.54	2245.38
578.90	2241.15
579.25	2235.59
579.60	2230.66
579.95	2225.61
580.30	2220.58
580.66	2215.51
581.01	2210.60
581.36	2205.82
581.71	2201.58
582.06	2197.12
582.42	2192.78
582.77	2187.55
583.12	2182.88
583.47	2178.16
583.82	2173.20
584.17	2167.99
584.53	2162.55
584.88	2156.90
585.23	2151.12
585.58	2145.51
585.93	2140.31
586.28	2135.47
586.63	2130.48
586.98	2125.51
587.34	2120.87
587.69	2116.16
588.04	2110.81
588.39	2105.15
588.74	2098.74
589.09	2092.64
589.44	2085.79
589.79	2079.84
590.14	2074.16
590.49	2067.77
590.84	2061.42
591.19	2055.33
591.54	2048.83
591.89	2041.43
592.25	2034.66
592.60	2027.55
592.95	2019.95
593.30	2012.33
593.65	2004.81
594.00	1997.63
594.35	1990.31
594.70	1982.33
595.05	1974.94
595.40	1967.77
595.75	1960.25
596.10	1953.95
596.45	1947.26
596.80	1941.19
597.15	1934.50
597.50	1927.51
597.85	1921.04
598.19	1914.23
598.54	1907.01
598.89	1900.40
599.24	1894.42
599.59	1887.68
599.94	1881.47
600.29	1875.24
600.64	1868.87
600.99	1861.46
601.34	1854.68
601.69	1847.79
602.04	1840.80
602.39	1833.50
602.74	1826.65
603.08	1819.90
603.43	1813.16
603.78	1805.86
604.13	1798.53
604.48	1791.11
604.83	1784.27
605.18	1777.28
605.53	1769.35
605.87	1761.39
606.22	1754.22
606.57	1746.37
606.92	1739.15
607.27	1731.94
607.62	1725.06
607.96	1717.68
608.31	1711.05
608.66	1703.46
609.01	1695.90
609.36	1688.46
609.70	1680.40
610.05	1672.34
610.40	1664.60
610.75	1656.31
611.10	1648.58
611.44	1640.27
611.79	1632.30
612.14	1623.64
612.49	1614.48
612.83	1606.24
613.18	1598.12
613.53	1589.87
613.88	1581.23
614.22	1572.92
614.57	1564.40
614.92	1556.26
615.27	1548.72
615.61	1540.33
615.96	1532.36
616.31	1524.65
616.65	1517.14
617.00	1509.64
617.35	1501.83
617.70	1493.51
618.04	1485.00
618.39	1476.82
618.74	1469.19
619.08	1460.95
619.43	1453.29
619.78	1446.37
620.12	1439.07
620.47	1431.66
620.82	1423.52
621.16	1416.17
621.51	1408.61
621.85	1400.89
622.20	1392.37
622.55	1384.06
622.89	1376.29
623.24	1368.73
623.59	1361.41
623.93	1353.94
624.28	1346.64
624.62	1339.22
624.97	1332.05
625.32	1325.33
625.66	1318.34
626.01	1311.13
626.35	1303.63
626.70	1295.87
627.04	1288.11
627.39	1280.40
627.73	1272.91
628.08	1265.98
628.43	1258.65
628.77	1251.19
629.12	1243.73
629.46	1236.60
629.81	1229.18
630.15	1222.00
630.50	1214.44
630.84	1206.22
631.19	1198.25
631.53	1190.73
631.88	1183.16
632.22	1175.52
632.57	1168.09
632.91	1160.53
633.26	1153.12
633.60	1145.84
633.95	1138.74
634.29	1131.68
634.64	1124.92
634.98	1117.57
635.32	1110.40
635.67	1103.92
636.01	1097.22
636.36	1090.35
636.70	1083.78
637.05	1077.15
637.39	1070.60
637.73	1064.06
638.08	1058.15
638.42	1052.20
638.77	1045.78
639.11	1039.21
639.45	1032.86
639.80	1026.25
640.14	1019.86
640.49	1013.32
640.83	1006.98
641.17	1000.77
641.52	994.43
641.86	987.98
642.20	982.16
642.55	975.89
642.89	969.34
643.23	962.90
643.58	957.12
643.92	951.00
644.26	944.93
644.61	938.94
644.95	932.92
645.29	926.35
645.64	919.52
645.98	913.17
646.32	907.33
646.66	901.28
647.01	895.45
647.35	889.72
647.69	883.90
648.04	878.34
648.38	872.49
648.72	866.50
649.06	860.53
649.41	854.66
649.75	848.62
650.09	842.69
650.43	836.82
650.78	830.68
651.12	824.67
651.46	818.98
651.80	813.16
652.14	807.81
652.49	802.44
652.83	797.31
653.17	791.61
653.51	785.88
653.85	780.48
654.20	774.81
654.54	768.75
654.88	763.06
655.22	757.21
655.56	751.55
655.90	746.15
656.25	740.90
656.59	735.48
656.93	730.48
657.27	725.33
657.61	719.92
657.95	714.83
658.29	709.73
658.64	704.40
658.98	699.12
659.32	693.68
659.66	688.48
660.00	683.18
660.34	678.27
660.68	673.35
661.02	668.37
661.36	663.66
661.70	659.20
662.05	654.81
662.39	650.40
662.73	645.99
663.07	641.55
663.41	637.01
663.75	632.48
664.09	627.92
664.43	623.53
664.77	619.48
665.11	615.20
665.45	611.10
665.79	607.01
666.13	602.89
666.47	598.83
666.81	594.65
667.15	590.57
667.49	586.70
667.83	582.85
668.17	578.86
668.51	574.82
668.85	570.74
669.19	566.91
669.53	563.09
669.87	559.12
670.21	555.36
670.55	551.79
670.89	548.39
671.23	544.97
671.57	541.42
671.91	537.81
672.25	534.32
672.58	530.81
672.92	527.42
673.26	524.26
673.60	521.04
673.94	517.90
674.28	514.96
674.62	511.95
674.96	508.87
675.30	505.95
675.64	503.02
675.97	500.25
676.31	497.35
676.65	494.44
676.99	491.77
677.33	488.97
677.67	486.08
678.01	483.06
678.34	480.04
678.68	477.12
679.02	474.31
679.36	471.54
679.70	468.81
680.04	466.06
680.37	463.18
680.71	460.40
681.05	457.84
681.39	455.12
681.73	452.48
682.06	449.92
682.40	447.37
682.74	444.86
683.08	442.33
683.42	439.72
683.75	437.22
684.09	434.68
684.43	432.23
684.77	429.78
685.10	427.43
685.44	425.13
685.78	422.91
686.12	420.66
686.45	418.40
686.79	416.13
687.13	413.93
687.46	411.73
687.80	409.52
688.14	407.24
688.48	405.17
688.81	402.90
689.15	400.71
689.49	398.60
689.82	396.52
690.16	394.36
690.50	392.42
690.83	390.45
691.17	388.45
691.51	386.53
691.84	384.69
692.18	382.69
692.52	380.74
692.85	378.76
693.19	376.86
693.52	375.03
693.86	373.22
694.20	371.42
694.53	369.63
694.87	367.85
695.21	366.05
695.54	364.24
695.88	362.51
696.21	360.82
696.55	359.10
696.88	357.42
697.22	355.80
697.56	354.19
697.89	352.57
698.23	350.97
698.56	349.37
698.90	347.76
699.23	346.14
699.57	344.57
699.90	343.05
700.24	341.52
700.58	339.97
700.91	338.40
701.25	336.96
701.58	335.58
701.92	334.23
702.25	332.87
702.59	331.51
702.92	330.21
703.26	328.92
703.59	327.66
703.93	326.46
704.26	325.28
704.60	323.99
704.93	322.71
705.26	321.48
705.60	320.32
705.93	319.21
706.27	318.18
706.60	317.13
706.94	316.07
707.27	314.94
707.61	313.89
707.94	312.98
708.27	311.88
708.61	310.83
708.94	309.81
709.28	308.83
709.61	307.86
709.94	306.86
710.28	305.86
710.61	304.89
710.95	303.85
711.28	302.88
711.61	301.93
711.95	301.00
712.28	300.06
712.61	299.05
712.95	298.10
713.28	297.24
713.61	296.35
713.95	295.43
714.28	294.58
714.61	293.71
714.95	292.80
715.28	291.94
715.61	291.05
715.95	290.15
716.28	289.31
716.61	288.52
716.95	287.75
717.28	287.01
717.61	286.26
717.94	285.50
718.28	284.69
718.61	283.97
718.94	283.24
719.27	282.57
719.61	281.94
719.94	281.27
720.27	280.55
720.60	279.86
720.94	279.23
721.27	278.63
721.60	278.08
721.93	277.48
722.27	276.93
722.60	276.37
722.93	275.85
723.26	275.29
723.59	274.71
723.93	274.17
724.26	273.60
724.59	273.00
724.92	272.45
725.25	271.96
725.59	271.45
725.92	270.96
726.25	270.45
726.58	269.93
726.91	269.44
727.24	268.98
727.57	268.54
727.91	268.02
728.24	267.53
728.57	267.00
728.90	266.53
729.23	266.02
729.56	265.60
729.89	265.12
730.22	264.67
730.55	264.18
730.89	263.70
731.22	263.26
731.55	262.83
731.88	262.39
732.21	261.96
732.54	261.53
732.87	261.11
733.20	260.72
733.53	260.37
733.86	259.98
734.19	259.57
734.52	259.20
734.85	258.92
735.18	258.55
735.51	258.21
735.84	257.81
736.17	257.50
736.50	257.06
736.83	256.84
737.16	256.49
737.49	256.20
737.82	255.87
738.15	255.55
738.48	255.20
738.81	254.87
739.14	254.59
739.47	254.26
739.80	253.96
740.13	253.64
740.46	253.32
740.79	252.96
741.12	252.66
741.45	252.31
741.78	251.96
742.11	251.65
742.44	251.32
742.77	251.05
743.10	250.74
743.43	250.46
743.75	250.06
744.08	249.90
744.41	249.63
744.74	249.35
745.07	249.04
745.40	248.82
745.73	248.60
746.06	248.27
746.39	248.03
746.71	247.77
747.04	247.50
747.37	247.21
747.70	247.01
748.03	246.76
748.36	246.58
748.68	246.35
749.01	246.10
749.34	245.90
749.67	245.68
750.00	245.44
750.33	245.32
750.65	245.10
750.98	244.78
751.31	244.53
751.64	244.32
751.97	244.20
752.29	243.95
752.62	243.70
752.95	243.52
753.28	243.30
753.60	243.08
753.93	242.92
754.26	242.73
754.59	242.53
754.91	242.30
755.24	242.07
755.57	241.85
755.90	241.68
756.22	241.45
756.55	241.25
756.88	241.07
757.20	240.84
757.53	240.69
757.86	240.50
758.19	240.36
758.51	240.18
758.84	239.92
759.17	239.79
759.49	239.67
759.82	239.55
760.15	239.38
760.47	239.23
760.80	239.04
761.13	238.90
761.45	238.70
761.78	238.58
762.11	238.44
762.43	238.30
762.76	238.17
763.08	238.03
763.41	237.88
763.74	237.76
764.06	237.59
764.39	237.41
764.71	237.27
765.04	237.11
765.37	236.97
765.69	236.87
766.02	236.74
766.34	236.57
766.67	236.39
767.00	236.30
767.32	236.25
767.65	236.18
767.97	236.08
768.30	236.04
768.62	235.94
768.95	235.82
769.27	235.72
769.60	235.60
769.92	235.51
770.25	235.42
770.57	235.28
770.90	235.20
771.22	235.09
771.55	235.01
771.87	234.95
772.20	234.87
772.52	234.84
772.85	234.83
773.17	234.75
773.50	234.66
773.82	234.51
774.15	234.37
774.47	234.24
774.80	234.10
775.12	233.99
775.45	233.88
775.77	233.82
776.09	233.73
776.42	233.67
776.74	233.61
777.07	233.55
777.39	233.48
777.72	233.40
778.04	233.37
778.36	233.30
778.69	233.23
779.01	233.18
779.33	233.03
779.66	232.86
779.98	232.78
780.31	232.74
780.63	232.74
780.95	232.67
781.28	232.63
781.60	232.55
781.92	232.48
782.25	232.46
782.57	232.35
782.89	232.28
783.22	232.23
783.54	232.16
783.86	232.09
784.19	232.10
784.51	232.08
784.83	232.01
785.16	231.95
785.48	231.87
785.80	231.84
786.12	231.80
786.45	231.76
786.77	231.76
787.09	231.71
