SpectraSuite Data File
++++++++++++++++++++++++++++++++++++
Date: Fri Feb 01 17:11:27 EST 2013
User: group
Dark Spectrum Present: No
Reference Spectrum Present: No
Number of Sampled Component Spectra: 1
Spectrometers: USB2E7196
Integration Time (usec): 35000 (USB2E7196)
Spectra Averaged: 100 (USB2E7196)
Boxcar Smoothing: 10 (USB2E7196)
Correct for Electrical Dark: No (USB2E7196)
Strobe/Lamp Enabled: No (USB2E7196)
Correct for Detector Non-linearity: No (USB2E7196)
Correct for Stray Light: No (USB2E7196)
Number of Pixels in Processed Spectrum: 2048
>>>>>Begin Processed Spectral Data<<<<<
339.09	0.00
339.48	213.19
339.86	214.40
340.24	216.27
340.63	217.49
341.01	220.46
341.39	220.63
341.78	221.65
342.16	222.62
342.54	223.51
342.93	211.72
343.31	222.43
343.69	222.99
344.07	223.46
344.46	223.90
344.84	224.28
345.22	224.50
345.60	224.73
345.99	224.90
346.37	225.03
346.75	225.11
347.13	225.17
347.52	225.18
347.90	225.23
348.28	225.29
348.66	225.34
349.05	225.34
349.43	225.39
349.81	225.41
350.19	225.47
350.57	225.52
350.96	225.58
351.34	225.66
351.72	225.74
352.10	225.86
352.48	225.88
352.87	225.93
353.25	226.02
353.63	226.06
354.01	226.12
354.39	226.23
354.77	226.30
355.15	226.43
355.54	226.50
355.92	226.55
356.30	226.63
356.68	226.78
357.06	226.87
357.44	226.92
357.82	226.99
358.20	227.06
358.58	227.12
358.97	227.16
359.35	227.23
359.73	227.31
360.11	227.34
360.49	227.46
360.87	227.51
361.25	227.56
361.63	227.67
362.01	227.73
362.39	227.75
362.77	227.80
363.15	227.82
363.53	227.85
363.91	227.89
364.29	227.90
364.67	227.81
365.05	227.82
365.43	227.85
365.81	227.91
366.19	227.94
366.57	227.99
366.95	227.99
367.33	227.96
367.71	227.94
368.09	227.97
368.47	227.92
368.85	227.93
369.23	227.93
369.61	227.85
369.99	227.84
370.37	227.83
370.75	227.85
371.13	227.78
371.51	227.75
371.89	227.72
372.27	227.70
372.65	227.65
373.03	227.60
373.41	227.53
373.78	227.47
374.16	227.36
374.54	227.26
374.92	227.20
375.30	227.14
375.68	227.06
376.06	226.99
376.44	226.92
376.82	226.85
377.19	226.76
377.57	226.71
377.95	226.62
378.33	226.55
378.71	226.39
379.09	226.35
379.47	226.29
379.84	226.22
380.22	226.16
380.60	226.08
380.98	225.97
381.36	225.88
381.73	225.81
382.11	225.77
382.49	225.71
382.87	225.65
383.25	225.58
383.62	225.62
384.00	225.56
384.38	225.50
384.76	225.44
385.13	225.42
385.51	225.35
385.89	225.32
386.27	225.24
386.64	225.24
387.02	225.19
387.40	225.14
387.78	225.10
388.15	225.05
388.53	225.03
388.91	225.01
389.29	225.00
389.66	224.98
390.04	224.92
390.42	224.92
390.79	224.89
391.17	224.91
391.55	224.79
391.92	224.74
392.30	224.73
392.68	224.73
393.05	224.72
393.43	224.75
393.81	224.72
394.18	224.70
394.56	224.69
394.94	224.69
395.31	224.69
395.69	224.76
396.06	224.77
396.44	224.79
396.82	224.80
397.19	224.86
397.57	224.86
397.95	224.92
398.32	224.93
398.70	224.98
399.07	225.02
399.45	225.02
399.82	225.10
400.20	225.15
400.58	225.20
400.95	225.22
401.33	225.26
401.70	225.40
402.08	225.52
402.45	225.59
402.83	225.72
403.20	225.82
403.58	225.89
403.95	226.00
404.33	226.14
404.71	226.28
405.08	226.45
405.46	226.59
405.83	226.73
406.21	226.90
406.58	227.08
406.96	227.21
407.33	227.41
407.70	227.59
408.08	227.85
408.45	228.05
408.83	228.26
409.20	228.51
409.58	228.69
409.95	228.97
410.33	229.24
410.70	229.48
411.08	229.81
411.45	230.11
411.82	230.42
412.20	230.77
412.57	231.17
412.95	231.46
413.32	231.85
413.69	232.26
414.07	232.70
414.44	233.16
414.82	233.64
415.19	234.22
415.56	234.79
415.94	235.36
416.31	236.05
416.68	236.69
417.06	237.41
417.43	238.12
417.81	238.89
418.18	239.64
418.55	240.50
418.93	241.36
419.30	242.27
419.67	243.23
420.04	244.17
420.42	245.18
420.79	246.40
421.16	247.56
421.54	248.74
421.91	249.99
422.28	251.25
422.66	252.63
423.03	253.94
423.40	255.26
423.77	256.71
424.15	258.11
424.52	259.62
424.89	261.21
425.26	262.77
425.64	264.22
426.01	265.84
426.38	267.50
426.75	269.18
427.13	270.90
427.50	272.75
427.87	274.70
428.24	276.56
428.61	278.30
428.99	280.26
429.36	282.36
429.73	284.40
430.10	286.40
430.47	288.46
430.85	290.54
431.22	292.82
431.59	295.19
431.96	297.44
432.33	299.93
432.70	302.33
433.08	305.14
433.45	307.78
433.82	310.42
434.19	313.35
434.56	316.16
434.93	318.86
435.30	321.49
435.68	324.35
436.05	327.22
436.42	330.03
436.79	332.57
437.16	335.30
437.53	338.11
437.90	341.00
438.27	343.80
438.64	346.70
439.01	349.31
439.38	351.58
439.75	353.76
440.13	356.27
440.50	358.68
440.87	360.56
441.24	362.53
441.61	364.70
441.98	366.18
442.35	368.05
442.72	369.93
443.09	371.75
443.46	372.77
443.83	373.34
444.20	373.89
444.57	374.78
444.94	375.06
445.31	375.47
445.68	375.82
446.05	375.88
446.42	375.51
446.79	375.06
447.16	374.60
447.53	374.32
447.90	373.13
448.27	371.90
448.64	370.30
449.01	369.15
449.37	367.17
449.74	365.28
450.11	362.99
450.48	360.50
450.85	357.94
451.22	355.84
451.59	353.83
451.96	351.86
452.33	349.20
452.70	346.88
453.07	344.03
453.43	341.10
453.80	338.32
454.17	335.63
454.54	333.10
454.91	330.38
455.28	327.72
455.65	325.26
456.02	322.80
456.38	320.63
456.75	317.95
457.12	315.69
457.49	313.43
457.86	311.27
458.23	309.42
458.59	307.35
458.96	305.22
459.33	303.36
459.70	301.49
460.07	300.01
460.43	298.26
460.80	296.64
461.17	295.21
461.54	293.66
461.91	292.21
462.27	290.74
462.64	289.47
463.01	288.10
463.38	286.81
463.74	285.46
464.11	284.30
464.48	283.29
464.85	282.22
465.21	281.38
465.58	280.44
465.95	279.33
466.32	278.40
466.68	277.50
467.05	276.63
467.42	275.72
467.78	274.76
468.15	273.87
468.52	273.20
468.88	272.32
469.25	271.59
469.62	270.99
469.98	270.34
470.35	269.70
470.72	269.07
471.08	268.40
471.45	267.86
471.82	267.33
472.18	266.79
472.55	266.35
472.92	265.84
473.28	265.36
473.65	264.93
474.02	264.50
474.38	264.14
474.75	263.79
475.11	263.47
475.48	263.23
475.85	263.01
476.21	262.80
476.58	262.65
476.94	262.52
477.31	262.33
477.67	262.18
478.04	262.10
478.41	262.06
478.77	262.10
479.14	262.09
479.50	262.11
479.87	262.13
480.23	262.19
480.60	262.22
480.96	262.30
481.33	262.50
481.69	262.70
482.06	262.90
482.42	263.10
482.79	263.34
483.15	263.62
483.52	263.98
483.88	264.32
484.25	264.65
484.61	265.04
484.98	265.52
485.34	266.06
485.71	266.61
486.07	267.20
486.44	267.77
486.80	268.42
487.17	269.12
487.53	269.88
487.90	270.75
488.26	271.66
488.62	272.67
488.99	273.63
489.35	274.66
489.72	275.78
490.08	276.97
490.44	278.22
490.81	279.55
491.17	280.92
491.54	282.37
491.90	283.96
492.26	285.62
492.63	287.34
492.99	289.16
493.36	291.09
493.72	293.15
494.08	295.28
494.45	297.55
494.81	299.97
495.17	302.46
495.54	305.05
495.90	307.72
496.26	310.54
496.63	313.50
496.99	316.66
497.35	319.93
497.72	323.34
498.08	326.88
498.44	330.58
498.80	334.51
499.17	338.57
499.53	342.71
499.89	347.10
500.26	351.57
500.62	356.20
500.98	361.15
501.34	366.19
501.71	371.45
502.07	376.89
502.43	382.46
502.79	388.24
503.16	394.18
503.52	400.44
503.88	406.76
504.24	413.37
504.60	420.17
504.97	427.27
505.33	434.55
505.69	442.18
506.05	449.87
506.41	457.62
506.78	465.68
507.14	474.09
507.50	482.70
507.86	491.62
508.22	500.70
508.59	509.80
508.95	519.31
509.31	529.00
509.67	538.92
510.03	549.02
510.39	559.49
510.75	570.15
511.12	581.00
511.48	592.18
511.84	603.44
512.20	614.80
512.56	626.62
512.92	638.55
513.28	650.77
513.64	663.07
514.00	675.72
514.37	688.58
514.73	701.40
515.09	714.20
515.45	727.32
515.81	740.77
516.17	754.55
516.53	768.47
516.89	782.47
517.25	796.50
517.61	810.67
517.97	824.90
518.33	839.13
518.69	853.66
519.05	868.41
519.41	883.40
519.77	898.62
520.13	913.68
520.49	928.85
520.85	943.94
521.21	959.32
521.57	975.23
521.93	990.59
522.29	1006.67
522.65	1022.68
523.01	1038.49
523.37	1054.17
523.73	1069.97
524.09	1085.69
524.45	1101.61
524.81	1117.94
525.17	1134.41
525.53	1150.84
525.89	1167.34
526.25	1183.87
526.61	1199.98
526.97	1216.34
527.33	1232.57
527.68	1248.93
528.04	1265.11
528.40	1281.18
528.76	1297.99
529.12	1314.18
529.48	1330.87
529.84	1346.41
530.20	1362.74
530.56	1379.45
530.91	1396.52
531.27	1413.08
531.63	1429.27
531.99	1445.65
532.35	1461.23
532.71	1476.94
533.07	1493.00
533.42	1508.76
533.78	1524.48
534.14	1540.27
534.50	1555.28
534.86	1570.75
535.21	1585.58
535.57	1601.10
535.93	1616.41
536.29	1630.76
536.65	1645.53
537.00	1659.81
537.36	1674.93
537.72	1689.04
538.08	1703.22
538.44	1716.64
538.79	1730.12
539.15	1743.23
539.51	1756.58
539.87	1770.63
540.22	1783.94
540.58	1797.24
540.94	1810.11
541.29	1822.53
541.65	1835.02
542.01	1847.96
542.37	1860.09
542.72	1872.23
543.08	1883.94
543.44	1896.10
543.79	1907.31
544.15	1918.02
544.51	1929.57
544.87	1940.37
545.22	1951.12
545.58	1961.25
545.94	1971.01
546.29	1980.85
546.65	1990.93
547.01	2000.26
547.36	2008.92
547.72	2017.48
548.07	2025.56
548.43	2033.62
548.79	2041.60
549.14	2049.26
549.50	2056.58
549.86	2064.07
550.21	2071.41
550.57	2078.53
550.92	2085.36
551.28	2092.55
551.64	2099.82
551.99	2106.26
552.35	2112.57
552.70	2118.82
553.06	2124.91
553.41	2131.36
553.77	2137.40
554.13	2143.45
554.48	2149.55
554.84	2155.28
555.19	2160.56
555.55	2165.80
555.90	2170.61
556.26	2175.86
556.61	2180.70
556.97	2185.34
557.32	2189.86
557.68	2194.18
558.03	2198.63
558.39	2202.25
558.74	2206.91
559.10	2210.88
559.45	2214.73
559.81	2218.99
560.16	2223.00
560.52	2226.38
560.87	2229.94
561.23	2232.82
561.58	2235.85
561.94	2238.52
562.29	2240.94
562.64	2244.00
563.00	2246.60
563.35	2250.26
563.71	2253.58
564.06	2256.81
564.42	2259.83
564.77	2262.68
565.12	2265.32
565.48	2267.55
565.83	2269.77
566.19	2271.49
566.54	2272.50
566.89	2274.04
567.25	2275.03
567.60	2276.51
567.96	2278.42
568.31	2279.55
568.66	2280.94
569.02	2281.90
569.37	2282.57
569.72	2283.74
570.08	2284.18
570.43	2284.53
570.78	2284.25
571.14	2282.94
571.49	2281.85
571.84	2281.62
572.20	2280.77
572.55	2279.84
572.90	2278.34
573.26	2277.18
573.61	2275.42
573.96	2274.06
574.31	2271.30
574.67	2268.63
575.02	2265.25
575.37	2262.10
575.72	2258.59
576.08	2255.32
576.43	2252.07
576.78	2248.70
577.13	2245.46
577.49	2242.29
577.84	2239.19
578.19	2235.55
578.54	2232.22
578.90	2228.37
579.25	2223.19
579.60	2218.38
579.95	2213.63
580.30	2208.84
580.66	2203.93
581.01	2199.17
581.36	2194.40
581.71	2190.51
582.06	2186.40
582.42	2182.27
582.77	2177.39
583.12	2172.99
583.47	2168.62
583.82	2164.17
584.17	2159.23
584.53	2154.04
584.88	2148.77
585.23	2143.22
585.58	2137.92
585.93	2132.55
586.28	2127.73
586.63	2122.83
586.98	2117.95
587.34	2113.34
587.69	2108.57
588.04	2103.64
588.39	2098.24
588.74	2091.93
589.09	2085.90
589.44	2079.36
589.79	2073.31
590.14	2067.63
590.49	2061.23
590.84	2054.87
591.19	2048.98
591.54	2042.59
591.89	2035.62
592.25	2029.17
592.60	2022.12
592.95	2014.88
593.30	2007.70
593.65	2000.42
594.00	1993.51
594.35	1986.47
594.70	1978.52
595.05	1971.77
595.40	1964.67
595.75	1957.36
596.10	1951.54
596.45	1945.12
596.80	1938.94
597.15	1932.66
597.50	1926.00
597.85	1919.66
598.19	1913.35
598.54	1906.52
598.89	1900.07
599.24	1894.34
599.59	1887.94
599.94	1881.85
600.29	1875.50
600.64	1869.03
600.99	1861.93
601.34	1855.32
601.69	1848.23
602.04	1841.69
602.39	1834.37
602.74	1827.60
603.08	1820.99
603.43	1814.25
603.78	1806.83
604.13	1799.67
604.48	1792.51
604.83	1785.71
605.18	1779.04
605.53	1771.04
605.87	1762.86
606.22	1755.45
606.57	1747.28
606.92	1739.58
607.27	1732.47
607.62	1725.72
607.96	1718.59
608.31	1712.06
608.66	1704.47
609.01	1697.09
609.36	1689.58
609.70	1681.47
610.05	1673.33
610.40	1665.67
610.75	1657.33
611.10	1649.67
611.44	1641.26
611.79	1633.16
612.14	1624.41
612.49	1615.08
612.83	1606.63
613.18	1598.49
613.53	1590.54
613.88	1582.20
614.22	1574.09
614.57	1565.33
614.92	1557.31
615.27	1549.83
615.61	1541.46
615.96	1533.34
616.31	1525.72
616.65	1518.37
617.00	1510.96
617.35	1503.30
617.70	1495.03
618.04	1486.67
618.39	1478.50
618.74	1471.04
619.08	1462.78
619.43	1455.20
619.78	1448.28
620.12	1441.23
620.47	1433.77
620.82	1425.58
621.16	1418.18
621.51	1410.51
621.85	1402.81
622.20	1394.26
622.55	1385.83
622.89	1377.94
623.24	1370.34
623.59	1362.78
623.93	1355.13
624.28	1347.76
624.62	1340.29
624.97	1333.04
625.32	1326.14
625.66	1319.09
626.01	1311.73
626.35	1304.33
626.70	1296.45
627.04	1288.82
627.39	1281.14
627.73	1273.58
628.08	1266.64
628.43	1259.52
628.77	1252.23
629.12	1244.86
629.46	1237.64
629.81	1230.01
630.15	1222.70
630.50	1215.27
630.84	1207.21
631.19	1199.24
631.53	1191.70
631.88	1184.12
632.22	1176.53
632.57	1169.24
632.91	1161.64
633.26	1154.28
633.60	1146.71
633.95	1139.60
634.29	1132.35
634.64	1125.46
634.98	1118.17
635.32	1111.00
635.67	1104.13
636.01	1097.35
636.36	1090.53
636.70	1083.98
637.05	1077.58
637.39	1071.10
637.73	1064.64
638.08	1058.79
638.42	1052.84
638.77	1046.45
639.11	1039.92
639.45	1033.56
639.80	1026.93
640.14	1020.56
640.49	1014.09
640.83	1007.96
641.17	1001.80
641.52	995.58
641.86	989.15
642.20	983.29
642.55	976.87
642.89	970.43
643.23	963.78
643.58	958.02
643.92	951.90
644.26	945.93
644.61	939.75
644.95	933.68
645.29	927.03
645.64	920.23
645.98	913.92
646.32	907.81
646.66	901.65
647.01	895.77
647.35	889.96
647.69	884.01
648.04	878.39
648.38	872.48
648.72	866.53
649.06	860.46
649.41	854.47
649.75	848.61
650.09	842.64
650.43	836.99
650.78	830.80
651.12	824.79
651.46	818.96
651.80	813.42
652.14	808.00
652.49	802.69
652.83	797.45
653.17	791.89
653.51	786.40
653.85	780.95
654.20	775.33
654.54	769.38
654.88	763.70
655.22	757.78
655.56	752.12
655.90	746.53
656.25	741.29
656.59	736.03
656.93	730.90
657.27	725.78
657.61	720.33
657.95	715.17
658.29	710.04
658.64	704.73
658.98	699.28
659.32	693.79
659.66	688.56
660.00	683.43
660.34	678.32
660.68	673.30
661.02	668.33
661.36	663.63
661.70	659.15
662.05	654.74
662.39	650.34
662.73	645.86
663.07	641.48
663.41	637.09
663.75	632.61
664.09	628.00
664.43	623.62
664.77	619.52
665.11	615.37
665.45	611.27
665.79	607.23
666.13	603.14
666.47	599.09
666.81	594.96
667.15	590.74
667.49	586.79
667.83	582.95
668.17	579.00
668.51	574.91
668.85	570.84
669.19	566.95
669.53	563.24
669.87	559.38
670.21	555.71
670.55	552.03
670.89	548.57
671.23	545.21
671.57	541.63
671.91	538.09
672.25	534.51
672.58	530.99
672.92	527.53
673.26	524.37
673.60	521.16
673.94	518.05
674.28	515.10
674.62	512.19
674.96	509.13
675.30	506.26
675.64	503.37
675.97	500.56
676.31	497.64
676.65	494.65
676.99	491.93
677.33	489.03
677.67	486.16
678.01	483.19
678.34	480.22
678.68	477.38
679.02	474.54
679.36	471.74
679.70	469.00
680.04	466.25
680.37	463.39
680.71	460.60
681.05	457.91
681.39	455.22
681.73	452.54
682.06	450.01
682.40	447.39
682.74	444.83
683.08	442.28
683.42	439.72
683.75	437.21
684.09	434.60
684.43	432.10
684.77	429.60
685.10	427.21
685.44	424.88
685.78	422.55
686.12	420.29
686.45	418.01
686.79	415.75
687.13	413.54
687.46	411.34
687.80	409.14
688.14	406.92
688.48	404.85
688.81	402.58
689.15	400.39
689.49	398.21
689.82	396.12
690.16	394.02
690.50	392.06
690.83	390.11
691.17	388.12
691.51	386.18
691.84	384.35
692.18	382.42
692.52	380.42
692.85	378.48
693.19	376.64
693.52	374.78
693.86	372.89
694.20	371.11
694.53	369.36
694.87	367.56
695.21	365.75
695.54	363.91
695.88	362.21
696.21	360.49
696.55	358.83
696.88	357.15
697.22	355.45
697.56	353.78
697.89	352.15
698.23	350.59
698.56	349.02
698.90	347.47
699.23	345.83
699.57	344.29
699.90	342.75
700.24	341.13
700.58	339.62
700.91	338.15
701.25	336.66
701.58	335.28
701.92	333.86
702.25	332.51
702.59	331.12
702.92	329.81
703.26	328.44
703.59	327.14
703.93	325.93
704.26	324.72
704.60	323.45
704.93	322.13
705.26	320.87
705.60	319.68
705.93	318.46
706.27	317.40
706.60	316.35
706.94	315.21
707.27	314.11
707.61	313.04
707.94	312.01
708.27	310.94
708.61	309.83
708.94	308.81
709.28	307.81
709.61	306.85
709.94	305.87
710.28	304.92
710.61	303.95
710.95	302.89
711.28	301.98
711.61	301.09
711.95	300.23
712.28	299.29
712.61	298.30
712.95	297.38
713.28	296.48
713.61	295.52
713.95	294.65
714.28	293.79
714.61	292.92
714.95	292.08
715.28	291.18
715.61	290.29
715.95	289.43
716.28	288.54
716.61	287.71
716.95	286.87
717.28	286.10
717.61	285.33
717.94	284.56
718.28	283.72
718.61	282.93
718.94	282.17
719.27	281.49
719.61	280.85
719.94	280.18
720.27	279.47
720.60	278.83
720.94	278.20
721.27	277.64
721.60	277.06
721.93	276.48
722.27	275.95
722.60	275.38
722.93	274.85
723.26	274.34
723.59	273.77
723.93	273.23
724.26	272.65
724.59	272.09
724.92	271.54
725.25	271.06
725.59	270.54
725.92	270.03
726.25	269.55
726.58	269.01
726.91	268.54
727.24	268.06
727.57	267.61
727.91	267.07
728.24	266.59
728.57	266.11
728.90	265.57
729.23	265.05
729.56	264.64
729.89	264.13
730.22	263.64
730.55	263.17
730.89	262.72
731.22	262.26
731.55	261.82
731.88	261.42
732.21	260.96
732.54	260.55
732.87	260.13
733.20	259.67
733.53	259.31
733.86	258.93
734.19	258.57
734.52	258.21
734.85	257.90
735.18	257.49
735.51	257.12
735.84	256.81
736.17	256.48
736.50	256.08
736.83	255.87
737.16	255.53
737.49	255.20
737.82	254.87
738.15	254.58
738.48	254.25
738.81	253.95
739.14	253.61
739.47	253.29
739.80	253.00
740.13	252.71
740.46	252.38
740.79	252.03
741.12	251.73
741.45	251.41
741.78	251.07
742.11	250.77
742.44	250.46
742.77	250.16
743.10	249.86
743.43	249.56
743.75	249.17
744.08	249.00
744.41	248.72
744.74	248.43
745.07	248.14
745.40	247.90
745.73	247.64
746.06	247.40
746.39	247.12
746.71	246.83
747.04	246.56
747.37	246.32
747.70	246.04
748.03	245.73
748.36	245.46
748.68	245.23
749.01	245.00
749.34	244.79
749.67	244.56
750.00	244.35
750.33	244.20
750.65	243.94
750.98	243.61
751.31	243.40
751.64	243.22
751.97	243.04
752.29	242.78
752.62	242.50
752.95	242.25
753.28	242.02
753.60	241.82
753.93	241.65
754.26	241.46
754.59	241.27
754.91	241.06
755.24	240.88
755.57	240.66
755.90	240.47
756.22	240.20
756.55	239.99
756.88	239.79
757.20	239.54
757.53	239.34
757.86	239.16
758.19	238.94
758.51	238.73
758.84	238.52
759.17	238.36
759.49	238.17
759.82	238.08
760.15	237.93
760.47	237.79
760.80	237.57
761.13	237.43
761.45	237.27
761.78	237.12
762.11	236.94
762.43	236.77
762.76	236.59
763.08	236.47
763.41	236.32
763.74	236.15
764.06	235.98
764.39	235.86
764.71	235.71
765.04	235.59
765.37	235.47
765.69	235.32
766.02	235.21
766.34	235.12
766.67	234.92
767.00	234.86
767.32	234.76
767.65	234.72
767.97	234.59
768.30	234.50
768.62	234.40
768.95	234.28
769.27	234.22
769.60	234.14
769.92	234.02
770.25	233.93
770.57	233.84
770.90	233.76
771.22	233.65
771.55	233.58
771.87	233.47
772.20	233.41
772.52	233.43
772.85	233.43
773.17	233.34
773.50	233.25
773.82	233.14
774.15	233.00
774.47	232.86
774.80	232.75
775.12	232.62
775.45	232.54
775.77	232.49
776.09	232.41
776.42	232.34
776.74	232.32
777.07	232.21
777.39	232.13
777.72	232.07
778.04	232.00
778.36	231.90
778.69	231.87
779.01	231.76
779.33	231.57
779.66	231.39
779.98	231.29
780.31	231.27
780.63	231.25
780.95	231.22
781.28	231.18
781.60	231.10
781.92	231.07
782.25	231.01
782.57	230.93
782.89	230.85
783.22	230.77
783.54	230.68
783.86	230.65
784.19	230.60
784.51	230.58
784.83	230.54
785.16	230.53
785.48	230.48
785.80	230.43
786.12	230.42
786.45	230.37
786.77	230.36
787.09	230.28
