SpectraSuite Data File
++++++++++++++++++++++++++++++++++++
Date: Fri Feb 01 14:53:02 EST 2013
User: group
Dark Spectrum Present: No
Reference Spectrum Present: No
Number of Sampled Component Spectra: 1
Spectrometers: USB2E7196
Integration Time (usec): 35000 (USB2E7196)
Spectra Averaged: 100 (USB2E7196)
Boxcar Smoothing: 10 (USB2E7196)
Correct for Electrical Dark: No (USB2E7196)
Strobe/Lamp Enabled: No (USB2E7196)
Correct for Detector Non-linearity: No (USB2E7196)
Correct for Stray Light: No (USB2E7196)
Number of Pixels in Processed Spectrum: 2048
>>>>>Begin Processed Spectral Data<<<<<
339.09	0.00
339.48	216.01
339.86	216.80
340.24	218.59
340.63	219.76
341.01	222.71
341.39	221.70
341.78	223.50
342.16	224.84
342.54	225.10
342.93	213.83
343.31	224.61
343.69	225.15
344.07	225.61
344.46	226.00
344.84	226.40
345.22	226.65
345.60	226.93
345.99	227.11
346.37	227.26
346.75	227.40
347.13	227.50
347.52	227.58
347.90	227.62
348.28	227.63
348.66	227.66
349.05	227.65
349.43	227.70
349.81	227.75
350.19	227.78
350.57	227.81
350.96	227.91
351.34	228.04
351.72	228.11
352.10	228.21
352.48	228.32
352.87	228.35
353.25	228.41
353.63	228.48
354.01	228.55
354.39	228.61
354.77	228.67
355.15	228.78
355.54	228.85
355.92	228.92
356.30	229.00
356.68	229.14
357.06	229.18
357.44	229.26
357.82	229.27
358.20	229.35
358.58	229.43
358.97	229.49
359.35	229.51
359.73	229.58
360.11	229.65
360.49	229.67
360.87	229.73
361.25	229.79
361.63	229.85
362.01	229.96
362.39	229.98
362.77	230.01
363.15	230.03
363.53	230.03
363.91	230.06
364.29	230.07
364.67	229.95
365.05	229.96
365.43	229.96
365.81	230.02
366.19	230.08
366.57	230.11
366.95	230.09
367.33	230.08
367.71	230.09
368.09	230.08
368.47	230.06
368.85	230.01
369.23	229.98
369.61	229.92
369.99	229.84
370.37	229.82
370.75	229.82
371.13	229.77
371.51	229.73
371.89	229.70
372.27	229.65
372.65	229.60
373.03	229.56
373.41	229.47
373.78	229.38
374.16	229.25
374.54	229.15
374.92	229.06
375.30	228.95
375.68	228.84
376.06	228.76
376.44	228.69
376.82	228.66
377.19	228.58
377.57	228.51
377.95	228.42
378.33	228.35
378.71	228.20
379.09	228.10
379.47	228.02
379.84	227.91
380.22	227.81
380.60	227.73
380.98	227.66
381.36	227.63
381.73	227.53
382.11	227.47
382.49	227.39
382.87	227.29
383.25	227.25
383.62	227.28
384.00	227.22
384.38	227.14
384.76	227.07
385.13	227.01
385.51	226.92
385.89	226.88
386.27	226.79
386.64	226.74
387.02	226.69
387.40	226.64
387.78	226.58
388.15	226.54
388.53	226.50
388.91	226.48
389.29	226.40
389.66	226.42
390.04	226.37
390.42	226.39
390.79	226.40
391.17	226.41
391.55	226.31
391.92	226.29
392.30	226.31
392.68	226.31
393.05	226.32
393.43	226.31
393.81	226.32
394.18	226.36
394.56	226.42
394.94	226.48
395.31	226.51
395.69	226.60
396.06	226.68
396.44	226.74
396.82	226.75
397.19	226.85
397.57	226.87
397.95	226.98
398.32	226.99
398.70	227.07
399.07	227.12
399.45	227.18
399.82	227.25
400.20	227.34
400.58	227.45
400.95	227.51
401.33	227.68
401.70	227.81
402.08	227.91
402.45	228.02
402.83	228.15
403.20	228.29
403.58	228.43
403.95	228.58
404.33	228.74
404.71	228.93
405.08	229.11
405.46	229.29
405.83	229.43
406.21	229.60
406.58	229.79
406.96	230.00
407.33	230.19
407.70	230.38
408.08	230.66
408.45	230.89
408.83	231.16
409.20	231.35
409.58	231.58
409.95	231.88
410.33	232.14
410.70	232.39
411.08	232.68
411.45	232.97
411.82	233.27
412.20	233.62
412.57	234.03
412.95	234.34
413.32	234.74
413.69	235.17
414.07	235.61
414.44	236.04
414.82	236.50
415.19	237.05
415.56	237.64
415.94	238.15
416.31	238.76
416.68	239.36
417.06	240.11
417.43	240.76
417.81	241.55
418.18	242.32
418.55	243.16
418.93	244.02
419.30	244.92
419.67	245.84
420.04	246.82
420.42	247.76
420.79	248.93
421.16	250.05
421.54	251.21
421.91	252.40
422.28	253.66
422.66	254.98
423.03	256.28
423.40	257.55
423.77	258.98
424.15	260.43
424.52	261.90
424.89	263.46
425.26	265.00
425.64	266.42
426.01	267.95
426.38	269.56
426.75	271.25
427.13	272.96
427.50	274.75
427.87	276.60
428.24	278.44
428.61	280.17
428.99	282.12
429.36	284.21
429.73	286.25
430.10	288.26
430.47	290.36
430.85	292.48
431.22	294.73
431.59	297.09
431.96	299.32
432.33	301.84
432.70	304.23
433.08	307.04
433.45	309.64
433.82	312.34
434.19	315.25
434.56	318.03
434.93	320.66
435.30	323.29
435.68	326.17
436.05	329.00
436.42	331.81
436.79	334.31
437.16	337.05
437.53	339.95
437.90	342.80
438.27	345.50
438.64	348.35
439.01	350.98
439.38	353.23
439.75	355.40
440.13	357.85
440.50	360.18
440.87	362.06
441.24	364.03
441.61	366.16
441.98	367.68
442.35	369.48
442.72	371.37
443.09	373.18
443.46	374.17
443.83	374.80
444.20	375.35
444.57	376.24
444.94	376.45
445.31	376.75
445.68	377.09
446.05	377.23
446.42	376.84
446.79	376.42
447.16	375.99
447.53	375.66
447.90	374.55
448.27	373.39
448.64	371.79
449.01	370.68
449.37	368.74
449.74	366.84
450.11	364.63
450.48	362.14
450.85	359.63
451.22	357.52
451.59	355.46
451.96	353.52
452.33	350.90
452.70	348.62
453.07	345.82
453.43	342.92
453.80	340.14
454.17	337.50
454.54	334.97
454.91	332.28
455.28	329.65
455.65	327.18
456.02	324.73
456.38	322.60
456.75	319.94
457.12	317.69
457.49	315.48
457.86	313.28
458.23	311.48
458.59	309.44
458.96	307.37
459.33	305.52
459.70	303.63
460.07	302.08
460.43	300.33
460.80	298.70
461.17	297.23
461.54	295.72
461.91	294.25
462.27	292.74
462.64	291.47
463.01	290.07
463.38	288.73
463.74	287.41
464.11	286.23
464.48	285.17
464.85	284.00
465.21	283.13
465.58	282.22
465.95	281.07
466.32	280.16
466.68	279.23
467.05	278.30
467.42	277.38
467.78	276.48
468.15	275.61
468.52	274.95
468.88	274.10
469.25	273.31
469.62	272.66
469.98	271.99
470.35	271.33
470.72	270.72
471.08	270.09
471.45	269.49
471.82	268.93
472.18	268.33
472.55	267.90
472.92	267.36
473.28	266.83
473.65	266.36
474.02	265.87
474.38	265.47
474.75	265.17
475.11	264.81
475.48	264.51
475.85	264.24
476.21	264.00
476.58	263.79
476.94	263.61
477.31	263.43
477.67	263.23
478.04	263.07
478.41	262.98
478.77	262.96
479.14	262.88
479.50	262.88
479.87	262.93
480.23	262.97
480.60	262.98
480.96	263.09
481.33	263.30
481.69	263.49
482.06	263.71
482.42	263.87
482.79	264.14
483.15	264.46
483.52	264.85
483.88	265.16
484.25	265.55
484.61	265.98
484.98	266.44
485.34	267.00
485.71	267.62
486.07	268.24
486.44	268.79
486.80	269.49
487.17	270.23
487.53	271.04
487.90	271.90
488.26	272.90
488.62	273.85
488.99	274.81
489.35	275.87
489.72	276.96
490.08	278.16
490.44	279.40
490.81	280.70
491.17	282.03
491.54	283.53
491.90	285.04
492.26	286.67
492.63	288.41
492.99	290.18
493.36	292.08
493.72	294.11
494.08	296.22
494.45	298.44
494.81	300.79
495.17	303.21
495.54	305.76
495.90	308.40
496.26	311.20
496.63	314.14
496.99	317.24
497.35	320.50
497.72	323.88
498.08	327.34
498.44	330.97
498.80	334.87
499.17	338.83
499.53	343.00
499.89	347.36
500.26	351.80
500.62	356.43
500.98	361.34
501.34	366.34
501.71	371.61
502.07	377.01
502.43	382.53
502.79	388.29
503.16	394.27
503.52	400.50
503.88	406.85
504.24	413.41
504.60	420.19
504.97	427.26
505.33	434.50
505.69	442.23
506.05	450.01
506.41	457.81
506.78	465.96
507.14	474.37
507.50	483.01
507.86	491.99
508.22	501.19
508.59	510.30
508.95	519.79
509.31	529.58
509.67	539.67
510.03	549.95
510.39	560.47
510.75	571.25
511.12	582.12
511.48	593.37
511.84	604.78
512.20	616.29
512.56	628.20
512.92	640.30
513.28	652.54
513.64	664.96
514.00	677.76
514.37	690.62
514.73	703.61
515.09	716.56
515.45	729.76
515.81	743.31
516.17	757.30
516.53	771.49
516.89	785.64
517.25	799.84
517.61	814.30
517.97	828.78
518.33	843.26
518.69	858.06
519.05	873.08
519.41	888.29
519.77	903.86
520.13	919.27
520.49	934.76
520.85	950.17
521.21	965.93
521.57	982.13
521.93	997.95
522.29	1014.32
522.65	1030.67
523.01	1047.04
523.37	1063.15
523.73	1079.43
524.09	1095.55
524.45	1111.94
524.81	1128.56
525.17	1145.47
525.53	1162.34
525.89	1179.31
526.25	1196.18
526.61	1212.63
526.97	1229.51
527.33	1246.08
527.68	1262.76
528.04	1279.30
528.40	1296.06
528.76	1313.22
529.12	1329.92
529.48	1346.87
529.84	1362.98
530.20	1379.74
530.56	1396.75
530.91	1414.05
531.27	1430.87
531.63	1447.39
531.99	1464.05
532.35	1480.20
532.71	1496.11
533.07	1512.57
533.42	1528.53
533.78	1544.57
534.14	1560.87
534.50	1576.08
534.86	1591.94
535.21	1607.19
535.57	1623.37
535.93	1638.85
536.29	1653.58
536.65	1668.76
537.00	1683.63
537.36	1699.06
537.72	1713.63
538.08	1728.16
538.44	1742.09
538.79	1756.05
539.15	1769.89
539.51	1783.80
539.87	1798.29
540.22	1812.05
540.58	1825.88
540.94	1839.36
541.29	1852.28
541.65	1865.08
542.01	1878.45
542.37	1890.79
542.72	1903.36
543.08	1915.06
543.44	1927.50
543.79	1938.80
544.15	1949.75
544.51	1961.35
544.87	1972.41
545.22	1983.30
545.58	1993.50
545.94	2003.40
546.29	2013.42
546.65	2023.24
547.01	2032.40
547.36	2041.03
547.72	2049.49
548.07	2057.40
548.43	2065.46
548.79	2073.51
549.14	2081.23
549.50	2088.72
549.86	2096.39
550.21	2103.57
550.57	2110.76
550.92	2117.37
551.28	2124.60
551.64	2131.62
551.99	2138.18
552.35	2144.32
552.70	2150.38
553.06	2156.36
553.41	2162.55
553.77	2168.28
554.13	2174.25
554.48	2180.21
554.84	2185.55
555.19	2190.86
555.55	2195.76
555.90	2200.21
556.26	2205.21
556.61	2209.67
556.97	2213.79
557.32	2217.86
557.68	2222.01
558.03	2226.04
558.39	2229.68
558.74	2234.12
559.10	2237.74
559.45	2241.18
559.81	2245.27
560.16	2248.94
560.52	2252.04
560.87	2255.49
561.23	2258.09
561.58	2260.97
561.94	2263.48
562.29	2265.82
562.64	2268.35
563.00	2270.97
563.35	2274.31
563.71	2277.14
564.06	2280.25
564.42	2283.03
564.77	2285.56
565.12	2287.72
565.48	2289.50
565.83	2291.14
566.19	2292.30
566.54	2293.33
566.89	2294.46
567.25	2295.02
567.60	2296.26
567.96	2297.75
568.31	2298.26
568.66	2299.14
569.02	2299.48
569.37	2299.67
569.72	2300.35
570.08	2300.26
570.43	2300.11
570.78	2299.20
571.14	2297.40
571.49	2295.82
571.84	2295.20
572.20	2293.62
572.55	2292.15
572.90	2290.33
573.26	2288.68
573.61	2286.71
573.96	2284.66
574.31	2281.46
574.67	2278.16
575.02	2274.24
575.37	2270.67
575.72	2266.81
576.08	2263.29
576.43	2259.76
576.78	2255.90
577.13	2252.34
577.49	2249.04
577.84	2245.48
578.19	2241.54
578.54	2237.78
578.90	2233.30
579.25	2227.57
579.60	2222.67
579.95	2217.68
580.30	2212.57
580.66	2207.22
581.01	2202.11
581.36	2197.02
581.71	2192.60
582.06	2187.91
582.42	2183.43
582.77	2178.02
583.12	2173.17
583.47	2168.43
583.82	2163.31
584.17	2157.93
584.53	2152.29
584.88	2146.58
585.23	2140.50
585.58	2134.95
585.93	2129.38
586.28	2124.58
586.63	2119.27
586.98	2114.07
587.34	2109.25
587.69	2104.15
588.04	2098.87
588.39	2093.00
588.74	2086.32
589.09	2080.06
589.44	2073.15
589.79	2066.80
590.14	2060.81
590.49	2054.12
590.84	2047.36
591.19	2041.11
591.54	2034.43
591.89	2026.95
592.25	2019.99
592.60	2012.65
592.95	2004.89
593.30	1997.35
593.65	1989.46
594.00	1982.39
594.35	1974.95
594.70	1966.68
595.05	1959.50
595.40	1952.11
595.75	1944.55
596.10	1938.26
596.45	1931.46
596.80	1925.22
597.15	1918.63
597.50	1911.77
597.85	1905.32
598.19	1898.82
598.54	1891.82
598.89	1885.20
599.24	1879.29
599.59	1872.52
599.94	1866.14
600.29	1859.81
600.64	1853.10
600.99	1845.66
601.34	1838.84
601.69	1831.71
602.04	1824.78
602.39	1817.42
602.74	1810.61
603.08	1803.97
603.43	1797.21
603.78	1789.95
604.13	1782.74
604.48	1775.41
604.83	1768.57
605.18	1761.56
605.53	1753.56
605.87	1745.52
606.22	1738.24
606.57	1730.33
606.92	1723.10
607.27	1716.05
607.62	1709.13
607.96	1702.08
608.31	1695.57
608.66	1687.92
609.01	1680.50
609.36	1673.14
609.70	1665.15
610.05	1657.21
610.40	1649.57
610.75	1641.31
611.10	1633.62
611.44	1625.23
611.79	1617.39
612.14	1608.69
612.49	1599.60
612.83	1591.26
613.18	1583.13
613.53	1575.13
613.88	1566.60
614.22	1558.42
614.57	1549.92
614.92	1542.12
615.27	1534.71
615.61	1526.48
615.96	1518.57
616.31	1510.95
616.65	1503.59
617.00	1496.09
617.35	1488.27
617.70	1480.06
618.04	1471.63
618.39	1463.49
618.74	1456.03
619.08	1447.83
619.43	1440.40
619.78	1433.74
620.12	1426.81
620.47	1419.41
620.82	1411.32
621.16	1403.92
621.51	1396.11
621.85	1388.51
622.20	1380.07
622.55	1371.72
622.89	1363.90
623.24	1356.40
623.59	1349.26
623.93	1341.79
624.28	1334.63
624.62	1327.27
624.97	1320.07
625.32	1313.31
625.66	1306.31
626.01	1299.18
626.35	1291.77
626.70	1283.99
627.04	1276.27
627.39	1268.39
627.73	1261.05
628.08	1254.13
628.43	1246.99
628.77	1239.95
629.12	1232.50
629.46	1225.40
629.81	1218.05
630.15	1210.98
630.50	1203.55
630.84	1195.25
631.19	1187.45
631.53	1180.01
631.88	1172.56
632.22	1165.01
632.57	1157.87
632.91	1150.48
633.26	1143.15
633.60	1135.72
633.95	1128.71
634.29	1121.65
634.64	1115.02
634.98	1107.76
635.32	1100.86
635.67	1094.31
636.01	1087.68
636.36	1081.01
636.70	1074.50
637.05	1068.03
637.39	1061.62
637.73	1055.35
638.08	1049.60
638.42	1043.75
638.77	1037.45
639.11	1031.01
639.45	1024.73
639.80	1018.08
640.14	1011.70
640.49	1005.23
640.83	999.03
641.17	992.96
641.52	986.71
641.86	980.37
642.20	974.62
642.55	968.32
642.89	961.92
643.23	955.42
643.58	949.71
643.92	943.55
644.26	937.56
644.61	931.63
644.95	925.59
645.29	919.13
645.64	912.38
645.98	906.06
646.32	900.22
646.66	894.22
647.01	888.56
647.35	882.91
647.69	877.16
648.04	871.74
648.38	865.95
648.72	860.08
649.06	854.05
649.41	848.15
649.75	842.18
650.09	836.29
650.43	830.60
650.78	824.43
651.12	818.60
651.46	812.92
651.80	807.15
652.14	801.78
652.49	796.44
652.83	791.27
653.17	785.61
653.51	779.96
653.85	774.52
654.20	768.87
654.54	762.96
654.88	757.22
655.22	751.42
655.56	745.77
655.90	740.26
656.25	735.10
656.59	729.82
656.93	724.83
657.27	719.74
657.61	714.39
657.95	709.37
658.29	704.33
658.64	699.09
658.98	693.88
659.32	688.48
659.66	683.29
660.00	678.05
660.34	673.16
660.68	668.27
661.02	663.42
661.36	658.86
661.70	654.36
662.05	650.18
662.39	645.82
662.73	641.45
663.07	637.14
663.41	632.74
663.75	628.34
664.09	623.84
664.43	619.50
664.77	615.37
665.11	611.19
665.45	607.09
665.79	603.08
666.13	598.96
666.47	594.91
666.81	590.79
667.15	586.72
667.49	582.87
667.83	579.09
668.17	575.12
668.51	571.06
668.85	567.08
669.19	563.24
669.53	559.50
669.87	555.65
670.21	552.09
670.55	548.53
670.89	545.08
671.23	541.64
671.57	538.20
671.91	534.70
672.25	531.25
672.58	527.77
672.92	524.45
673.26	521.39
673.60	518.23
673.94	515.27
674.28	512.44
674.62	509.64
674.96	506.58
675.30	503.76
675.64	500.87
675.97	498.19
676.31	495.35
676.65	492.50
676.99	489.86
677.33	486.97
677.67	484.16
678.01	481.17
678.34	478.19
678.68	475.32
679.02	472.56
679.36	469.77
679.70	467.09
680.04	464.35
680.37	461.51
680.71	458.82
681.05	456.17
681.39	453.45
681.73	450.76
682.06	448.28
682.40	445.73
682.74	443.20
683.08	440.68
683.42	438.08
683.75	435.58
684.09	433.04
684.43	430.57
684.77	428.17
685.10	425.87
685.44	423.68
685.78	421.40
686.12	419.20
686.45	417.00
686.79	414.70
687.13	412.56
687.46	410.43
687.80	408.28
688.14	406.10
688.48	404.11
688.81	401.91
689.15	399.79
689.49	397.72
689.82	395.66
690.16	393.54
690.50	391.64
690.83	389.69
691.17	387.68
691.51	385.84
691.84	383.96
692.18	382.08
692.52	380.12
692.85	378.21
693.19	376.32
693.52	374.46
693.86	372.69
694.20	370.88
694.53	369.08
694.87	367.23
695.21	365.40
695.54	363.56
695.88	361.84
696.21	360.09
696.55	358.41
696.88	356.80
697.22	355.20
697.56	353.55
697.89	351.96
698.23	350.37
698.56	348.76
698.90	347.15
699.23	345.47
699.57	343.92
699.90	342.43
700.24	340.92
700.58	339.41
700.91	337.93
701.25	336.51
701.58	335.17
701.92	333.84
702.25	332.59
702.59	331.29
702.92	329.97
703.26	328.68
703.59	327.39
703.93	326.19
704.26	324.96
704.60	323.69
704.93	322.43
705.26	321.19
705.60	320.06
705.93	318.98
706.27	317.95
706.60	316.93
706.94	315.91
707.27	314.81
707.61	313.78
707.94	312.76
708.27	311.71
708.61	310.62
708.94	309.62
709.28	308.57
709.61	307.56
709.94	306.65
710.28	305.67
710.61	304.71
710.95	303.66
711.28	302.76
711.61	301.86
711.95	300.92
712.28	300.02
712.61	299.05
712.95	298.08
713.28	297.22
713.61	296.34
713.95	295.43
714.28	294.57
714.61	293.71
714.95	292.90
715.28	292.04
715.61	291.20
715.95	290.35
716.28	289.54
716.61	288.73
716.95	287.88
717.28	287.16
717.61	286.43
717.94	285.69
718.28	284.90
718.61	284.18
718.94	283.50
719.27	282.85
719.61	282.21
719.94	281.60
720.27	280.92
720.60	280.24
720.94	279.63
721.27	279.11
721.60	278.56
721.93	277.96
722.27	277.40
722.60	276.85
722.93	276.27
723.26	275.74
723.59	275.18
723.93	274.66
724.26	274.13
724.59	273.55
724.92	273.06
725.25	272.56
725.59	272.02
725.92	271.57
726.25	271.10
726.58	270.60
726.91	270.10
727.24	269.61
727.57	269.15
727.91	268.62
728.24	268.15
728.57	267.66
728.90	267.21
729.23	266.75
729.56	266.33
729.89	265.90
730.22	265.39
730.55	264.91
730.89	264.47
731.22	263.99
731.55	263.60
731.88	263.16
732.21	262.73
732.54	262.34
732.87	261.90
733.20	261.45
733.53	261.03
733.86	260.70
734.19	260.31
734.52	259.90
734.85	259.59
735.18	259.14
735.51	258.78
735.84	258.41
736.17	258.08
736.50	257.67
736.83	257.45
737.16	257.08
737.49	256.78
737.82	256.42
738.15	256.13
738.48	255.77
738.81	255.46
739.14	255.15
739.47	254.85
739.80	254.54
740.13	254.26
740.46	253.98
740.79	253.64
741.12	253.32
741.45	253.04
741.78	252.73
742.11	252.46
742.44	252.12
742.77	251.85
743.10	251.51
743.43	251.22
743.75	250.80
744.08	250.69
744.41	250.43
744.74	250.18
745.07	249.88
745.40	249.63
745.73	249.38
746.06	249.10
746.39	248.81
746.71	248.54
747.04	248.26
747.37	247.97
747.70	247.71
748.03	247.46
748.36	247.23
748.68	246.97
749.01	246.72
749.34	246.53
749.67	246.28
750.00	246.08
750.33	245.93
750.65	245.73
750.98	245.40
751.31	245.17
751.64	244.94
751.97	244.78
752.29	244.56
752.62	244.34
752.95	244.12
753.28	243.91
753.60	243.69
753.93	243.51
754.26	243.33
754.59	243.10
754.91	242.91
755.24	242.72
755.57	242.54
755.90	242.39
756.22	242.17
756.55	241.99
756.88	241.77
757.20	241.54
757.53	241.36
757.86	241.16
758.19	241.03
758.51	240.87
758.84	240.67
759.17	240.49
759.49	240.31
759.82	240.22
760.15	240.07
760.47	239.94
760.80	239.80
761.13	239.67
761.45	239.54
761.78	239.39
762.11	239.24
762.43	239.10
762.76	238.93
763.08	238.83
763.41	238.68
763.74	238.57
764.06	238.44
764.39	238.31
764.71	238.19
765.04	238.04
765.37	237.89
765.69	237.74
766.02	237.64
766.34	237.52
766.67	237.40
767.00	237.30
767.32	237.22
767.65	237.13
767.97	237.00
768.30	236.88
768.62	236.77
768.95	236.67
769.27	236.53
769.60	236.45
769.92	236.32
770.25	236.23
770.57	236.10
770.90	236.01
771.22	235.91
771.55	235.81
771.87	235.71
772.20	235.65
772.52	235.67
772.85	235.68
773.17	235.59
773.50	235.46
773.82	235.37
774.15	235.23
774.47	235.11
774.80	235.04
775.12	234.95
775.45	234.89
775.77	234.79
776.09	234.73
776.42	234.64
776.74	234.58
777.07	234.49
777.39	234.43
777.72	234.33
778.04	234.28
778.36	234.19
778.69	234.15
779.01	234.09
779.33	233.89
779.66	233.72
779.98	233.64
780.31	233.60
780.63	233.54
780.95	233.47
781.28	233.41
781.60	233.34
781.92	233.28
782.25	233.18
782.57	233.10
782.89	233.05
783.22	232.97
783.54	232.90
783.86	232.85
784.19	232.78
784.51	232.76
784.83	232.66
785.16	232.60
785.48	232.50
785.80	232.43
786.12	232.41
786.45	232.33
786.77	232.24
787.09	232.16
