SpectraSuite Data File
++++++++++++++++++++++++++++++++++++
Date: Fri Feb 01 15:06:54 EST 2013
User: group
Dark Spectrum Present: No
Reference Spectrum Present: No
Number of Sampled Component Spectra: 1
Spectrometers: USB2E7196
Integration Time (usec): 35000 (USB2E7196)
Spectra Averaged: 100 (USB2E7196)
Boxcar Smoothing: 10 (USB2E7196)
Correct for Electrical Dark: No (USB2E7196)
Strobe/Lamp Enabled: No (USB2E7196)
Correct for Detector Non-linearity: No (USB2E7196)
Correct for Stray Light: No (USB2E7196)
Number of Pixels in Processed Spectrum: 2048
>>>>>Begin Processed Spectral Data<<<<<
339.09	0.00
339.48	215.11
339.86	217.02
340.24	217.69
340.63	219.20
341.01	221.95
341.39	221.97
341.78	223.91
342.16	224.48
342.54	225.32
342.93	213.50
343.31	224.28
343.69	224.79
344.07	225.25
344.46	225.68
344.84	226.08
345.22	226.32
345.60	226.60
345.99	226.78
346.37	226.91
346.75	226.99
347.13	227.05
347.52	227.10
347.90	227.18
348.28	227.20
348.66	227.28
349.05	227.23
349.43	227.26
349.81	227.28
350.19	227.31
350.57	227.35
350.96	227.45
351.34	227.53
351.72	227.63
352.10	227.70
352.48	227.78
352.87	227.83
353.25	227.91
353.63	227.93
354.01	227.99
354.39	228.09
354.77	228.19
355.15	228.33
355.54	228.41
355.92	228.44
356.30	228.51
356.68	228.64
357.06	228.67
357.44	228.72
357.82	228.80
358.20	228.86
358.58	228.94
358.97	229.00
359.35	229.08
359.73	229.18
360.11	229.25
360.49	229.31
360.87	229.36
361.25	229.42
361.63	229.53
362.01	229.56
362.39	229.55
362.77	229.58
363.15	229.57
363.53	229.61
363.91	229.62
364.29	229.65
364.67	229.55
365.05	229.60
365.43	229.62
365.81	229.61
366.19	229.65
366.57	229.68
366.95	229.64
367.33	229.58
367.71	229.53
368.09	229.55
368.47	229.49
368.85	229.41
369.23	229.37
369.61	229.28
369.99	229.26
370.37	229.26
370.75	229.23
371.13	229.18
371.51	229.09
371.89	229.06
372.27	229.00
372.65	229.00
373.03	228.93
373.41	228.89
373.78	228.83
374.16	228.73
374.54	228.65
374.92	228.59
375.30	228.55
375.68	228.47
376.06	228.39
376.44	228.32
376.82	228.29
377.19	228.23
377.57	228.16
377.95	228.06
378.33	227.97
378.71	227.87
379.09	227.76
379.47	227.73
379.84	227.65
380.22	227.60
380.60	227.48
380.98	227.42
381.36	227.31
381.73	227.22
382.11	227.18
382.49	227.15
382.87	227.05
383.25	226.99
383.62	227.04
384.00	226.93
384.38	226.90
384.76	226.86
385.13	226.82
385.51	226.79
385.89	226.72
386.27	226.63
386.64	226.61
387.02	226.57
387.40	226.52
387.78	226.47
388.15	226.41
388.53	226.40
388.91	226.37
389.29	226.37
389.66	226.37
390.04	226.34
390.42	226.30
390.79	226.27
391.17	226.26
391.55	226.13
391.92	226.12
392.30	226.10
392.68	226.10
393.05	226.13
393.43	226.15
393.81	226.19
394.18	226.23
394.56	226.24
394.94	226.30
395.31	226.32
395.69	226.40
396.06	226.45
396.44	226.47
396.82	226.51
397.19	226.58
397.57	226.63
397.95	226.70
398.32	226.72
398.70	226.82
399.07	226.91
399.45	227.00
399.82	227.12
400.20	227.19
400.58	227.26
400.95	227.28
401.33	227.40
401.70	227.59
402.08	227.67
402.45	227.77
402.83	227.89
403.20	228.02
403.58	228.11
403.95	228.26
404.33	228.41
404.71	228.57
405.08	228.78
405.46	228.92
405.83	229.08
406.21	229.24
406.58	229.42
406.96	229.58
407.33	229.78
407.70	229.97
408.08	230.25
408.45	230.51
408.83	230.76
409.20	230.97
409.58	231.11
409.95	231.38
410.33	231.70
410.70	231.93
411.08	232.22
411.45	232.53
411.82	232.86
412.20	233.20
412.57	233.60
412.95	233.89
413.32	234.27
413.69	234.69
414.07	235.13
414.44	235.63
414.82	236.10
415.19	236.65
415.56	237.23
415.94	237.79
416.31	238.39
416.68	239.03
417.06	239.73
417.43	240.40
417.81	241.18
418.18	241.96
418.55	242.83
418.93	243.72
419.30	244.62
419.67	245.54
420.04	246.46
420.42	247.47
420.79	248.67
421.16	249.85
421.54	251.02
421.91	252.21
422.28	253.44
422.66	254.80
423.03	256.06
423.40	257.37
423.77	258.77
424.15	260.19
424.52	261.65
424.89	263.30
425.26	264.85
425.64	266.32
426.01	267.90
426.38	269.55
426.75	271.21
427.13	272.97
427.50	274.76
427.87	276.69
428.24	278.52
428.61	280.22
428.99	282.15
429.36	284.25
429.73	286.32
430.10	288.31
430.47	290.34
430.85	292.52
431.22	294.76
431.59	297.15
431.96	299.44
432.33	301.94
432.70	304.28
433.08	307.09
433.45	309.72
433.82	312.30
434.19	315.19
434.56	318.00
434.93	320.66
435.30	323.29
435.68	326.16
436.05	328.99
436.42	331.82
436.79	334.39
437.16	337.09
437.53	339.94
437.90	342.76
438.27	345.54
438.64	348.35
439.01	350.93
439.38	353.16
439.75	355.28
440.13	357.78
440.50	360.08
440.87	361.95
441.24	363.87
441.61	366.08
441.98	367.52
442.35	369.30
442.72	371.15
443.09	372.98
443.46	373.99
443.83	374.60
444.20	375.10
444.57	375.90
444.94	376.18
445.31	376.51
445.68	376.88
446.05	376.93
446.42	376.55
446.79	376.15
447.16	375.73
447.53	375.40
447.90	374.26
448.27	373.15
448.64	371.57
449.01	370.46
449.37	368.47
449.74	366.57
450.11	364.38
450.48	361.88
450.85	359.32
451.22	357.12
451.59	355.09
451.96	353.14
452.33	350.53
452.70	348.13
453.07	345.34
453.43	342.46
453.80	339.66
454.17	336.94
454.54	334.38
454.91	331.60
455.28	328.93
455.65	326.43
456.02	323.99
456.38	321.82
456.75	319.16
457.12	316.90
457.49	314.70
457.86	312.50
458.23	310.65
458.59	308.64
458.96	306.61
459.33	304.77
459.70	302.90
460.07	301.39
460.43	299.75
460.80	298.10
461.17	296.65
461.54	295.18
461.91	293.78
462.27	292.31
462.64	291.09
463.01	289.78
463.38	288.46
463.74	287.10
464.11	285.97
464.48	284.93
464.85	283.80
465.21	282.96
465.58	282.03
465.95	280.91
466.32	279.98
466.68	279.07
467.05	278.16
467.42	277.26
467.78	276.33
468.15	275.43
468.52	274.77
468.88	273.88
469.25	273.13
469.62	272.50
469.98	271.86
470.35	271.18
470.72	270.56
471.08	269.90
471.45	269.32
471.82	268.71
472.18	268.09
472.55	267.64
472.92	267.10
473.28	266.60
473.65	266.14
474.02	265.67
474.38	265.26
474.75	264.91
475.11	264.56
475.48	264.27
475.85	263.99
476.21	263.76
476.58	263.59
476.94	263.42
477.31	263.25
477.67	263.06
478.04	262.96
478.41	262.89
478.77	262.92
479.14	262.84
479.50	262.86
479.87	262.92
480.23	262.97
480.60	263.03
480.96	263.10
481.33	263.27
481.69	263.46
482.06	263.66
482.42	263.87
482.79	264.13
483.15	264.43
483.52	264.78
483.88	265.11
484.25	265.47
484.61	265.86
484.98	266.27
485.34	266.81
485.71	267.44
486.07	268.04
486.44	268.61
486.80	269.33
487.17	270.06
487.53	270.87
487.90	271.73
488.26	272.68
488.62	273.70
488.99	274.70
489.35	275.74
489.72	276.86
490.08	278.04
490.44	279.28
490.81	280.62
491.17	281.99
491.54	283.45
491.90	284.97
492.26	286.60
492.63	288.35
492.99	290.14
493.36	291.98
493.72	293.99
494.08	296.08
494.45	298.29
494.81	300.64
495.17	303.07
495.54	305.64
495.90	308.30
496.26	311.08
496.63	314.02
496.99	317.12
497.35	320.36
497.72	323.73
498.08	327.23
498.44	330.92
498.80	334.84
499.17	338.88
499.53	343.03
499.89	347.43
500.26	351.97
500.62	356.60
500.98	361.57
501.34	366.63
501.71	371.96
502.07	377.38
502.43	382.96
502.79	388.77
503.16	394.84
503.52	401.13
503.88	407.49
504.24	414.08
504.60	420.94
504.97	428.07
505.33	435.42
505.69	443.08
506.05	450.80
506.41	458.65
506.78	466.77
507.14	475.17
507.50	483.84
507.86	492.82
508.22	502.07
508.59	511.21
508.95	520.84
509.31	530.62
509.67	540.74
510.03	551.00
510.39	561.51
510.75	572.29
511.12	583.15
511.48	594.47
511.84	605.98
512.20	617.53
512.56	629.50
512.92	641.70
513.28	654.10
513.64	666.58
514.00	679.25
514.37	692.23
514.73	705.38
515.09	718.45
515.45	731.72
515.81	745.33
516.17	759.37
516.53	773.44
516.89	787.66
517.25	801.86
517.61	816.30
517.97	830.87
518.33	845.32
518.69	860.12
519.05	875.16
519.41	890.29
519.77	905.97
520.13	921.39
520.49	936.77
520.85	952.18
521.21	968.03
521.57	984.44
521.93	1000.26
522.29	1016.67
522.65	1032.95
523.01	1049.27
523.37	1065.31
523.73	1081.59
524.09	1097.73
524.45	1114.12
524.81	1130.79
525.17	1147.73
525.53	1164.60
525.89	1181.40
526.25	1198.31
526.61	1214.80
526.97	1231.63
527.33	1248.04
527.68	1264.73
528.04	1281.28
528.40	1297.97
528.76	1315.01
529.12	1331.57
529.48	1348.44
529.84	1364.54
530.20	1381.22
530.56	1398.26
530.91	1415.77
531.27	1432.47
531.63	1449.05
531.99	1465.55
532.35	1481.64
532.71	1497.57
533.07	1513.89
533.42	1529.94
533.78	1546.00
534.14	1562.31
534.50	1577.77
534.86	1593.74
535.21	1608.86
535.57	1624.87
535.93	1640.50
536.29	1655.37
536.65	1670.59
537.00	1685.53
537.36	1700.95
537.72	1715.61
538.08	1730.13
538.44	1743.95
538.79	1758.01
539.15	1771.81
539.51	1785.77
539.87	1800.27
540.22	1814.02
540.58	1827.91
540.94	1841.55
541.29	1854.57
541.65	1867.45
542.01	1880.81
542.37	1893.23
542.72	1905.86
543.08	1917.78
543.44	1930.25
543.79	1941.65
544.15	1952.55
544.51	1964.16
544.87	1975.14
545.22	1986.08
545.58	1996.29
545.94	2006.15
546.29	2016.09
546.65	2025.93
547.01	2035.19
547.36	2043.85
547.72	2052.47
548.07	2060.24
548.43	2068.39
548.79	2076.44
549.14	2083.85
549.50	2091.13
549.86	2098.85
550.21	2106.14
550.57	2113.28
550.92	2119.85
551.28	2126.93
551.64	2134.18
551.99	2140.65
552.35	2146.79
552.70	2152.90
553.06	2158.85
553.41	2165.14
553.77	2171.04
554.13	2177.05
554.48	2183.07
554.84	2188.41
555.19	2193.80
555.55	2199.03
555.90	2203.31
556.26	2208.19
556.61	2212.99
556.97	2217.09
557.32	2221.30
557.68	2225.45
558.03	2229.76
558.39	2233.28
558.74	2237.74
559.10	2241.53
559.45	2245.29
559.81	2249.62
560.16	2253.34
560.52	2256.60
560.87	2260.02
561.23	2262.72
561.58	2265.73
561.94	2268.41
562.29	2270.92
562.64	2273.42
563.00	2275.97
563.35	2279.64
563.71	2282.70
564.06	2285.85
564.42	2288.76
564.77	2290.97
565.12	2293.18
565.48	2294.93
565.83	2296.82
566.19	2298.11
566.54	2299.00
566.89	2300.03
567.25	2300.45
567.60	2301.81
567.96	2303.32
568.31	2304.06
568.66	2305.03
569.02	2305.51
569.37	2305.63
569.72	2306.25
570.08	2306.21
570.43	2306.14
570.78	2305.27
571.14	2303.55
571.49	2302.05
571.84	2301.59
572.20	2300.35
572.55	2299.15
572.90	2297.49
573.26	2295.96
573.61	2294.17
573.96	2292.23
574.31	2289.03
574.67	2285.88
575.02	2282.03
575.37	2278.57
575.72	2274.65
576.08	2271.30
576.43	2267.85
576.78	2264.05
577.13	2260.79
577.49	2257.61
577.84	2253.96
578.19	2250.10
578.54	2246.32
578.90	2241.94
579.25	2236.27
579.60	2231.21
579.95	2226.08
580.30	2220.99
580.66	2215.74
581.01	2210.67
581.36	2205.63
581.71	2201.33
582.06	2196.73
582.42	2191.99
582.77	2186.73
583.12	2182.07
583.47	2177.11
583.82	2171.99
584.17	2166.64
584.53	2161.00
584.88	2155.27
585.23	2149.37
585.58	2143.74
585.93	2138.26
586.28	2133.37
586.63	2128.19
586.98	2122.97
587.34	2118.15
587.69	2113.11
588.04	2107.72
588.39	2101.94
588.74	2095.38
589.09	2089.08
589.44	2082.28
589.79	2076.34
590.14	2070.61
590.49	2063.89
590.84	2057.41
591.19	2051.22
591.54	2044.59
591.89	2036.92
592.25	2029.96
592.60	2022.64
592.95	2015.02
593.30	2007.67
593.65	2000.08
594.00	1992.97
594.35	1985.73
594.70	1977.65
595.05	1970.25
595.40	1962.82
595.75	1955.20
596.10	1948.77
596.45	1941.96
596.80	1935.65
597.15	1928.84
597.50	1921.59
597.85	1915.24
598.19	1908.51
598.54	1901.37
598.89	1894.72
599.24	1888.85
599.59	1882.13
599.94	1876.04
600.29	1869.71
600.64	1862.97
600.99	1855.44
601.34	1848.61
601.69	1841.64
602.04	1834.72
602.39	1827.42
602.74	1820.61
603.08	1813.88
603.43	1807.25
603.78	1800.01
604.13	1792.75
604.48	1785.32
604.83	1778.53
605.18	1771.26
605.53	1763.16
605.87	1755.12
606.22	1747.93
606.57	1740.12
606.92	1732.81
607.27	1725.50
607.62	1718.59
607.96	1711.35
608.31	1704.65
608.66	1697.05
609.01	1689.40
609.36	1681.77
609.70	1673.67
610.05	1665.58
610.40	1657.84
610.75	1649.53
611.10	1641.89
611.44	1633.70
611.79	1625.90
612.14	1617.15
612.49	1608.05
612.83	1599.84
613.18	1591.72
613.53	1583.62
613.88	1575.11
614.22	1566.86
614.57	1558.26
614.92	1550.13
615.27	1542.48
615.61	1534.28
615.96	1526.27
616.31	1518.64
616.65	1511.30
617.00	1503.74
617.35	1496.15
617.70	1487.79
618.04	1479.26
618.39	1470.95
618.74	1463.29
619.08	1454.95
619.43	1447.36
619.78	1440.55
620.12	1433.33
620.47	1425.84
620.82	1417.72
621.16	1410.50
621.51	1402.93
621.85	1395.27
622.20	1386.84
622.55	1378.58
622.89	1370.71
623.24	1363.10
623.59	1355.90
623.93	1348.42
624.28	1341.34
624.62	1333.79
624.97	1326.64
625.32	1319.96
625.66	1312.94
626.01	1305.67
626.35	1298.31
626.70	1290.68
627.04	1282.96
627.39	1275.22
627.73	1267.87
628.08	1260.92
628.43	1253.41
628.77	1246.09
629.12	1238.68
629.46	1231.55
629.81	1224.16
630.15	1216.90
630.50	1209.48
630.84	1201.22
631.19	1193.40
631.53	1185.91
631.88	1178.42
632.22	1170.86
632.57	1163.57
632.91	1156.15
633.26	1148.72
633.60	1141.44
633.95	1134.38
634.29	1127.43
634.64	1120.81
634.98	1113.40
635.32	1106.29
635.67	1099.86
636.01	1093.22
636.36	1086.38
636.70	1079.93
637.05	1073.37
637.39	1066.95
637.73	1060.59
638.08	1054.78
638.42	1048.80
638.77	1042.40
639.11	1035.82
639.45	1029.47
639.80	1022.81
640.14	1016.35
640.49	1009.89
640.83	1003.54
641.17	997.26
641.52	990.99
641.86	984.59
642.20	978.91
642.55	972.67
642.89	966.15
643.23	959.64
643.58	953.85
643.92	947.67
644.26	941.58
644.61	935.64
644.95	929.47
645.29	922.82
645.64	916.06
645.98	909.73
646.32	903.98
646.66	897.99
647.01	892.21
647.35	886.61
647.69	880.92
648.04	875.48
648.38	869.72
648.72	863.69
649.06	857.59
649.41	851.69
649.75	845.65
650.09	839.69
650.43	833.92
650.78	827.83
651.12	821.89
651.46	816.26
651.80	810.50
652.14	805.18
652.49	799.86
652.83	794.75
653.17	789.13
653.51	783.37
653.85	777.99
654.20	772.35
654.54	766.34
654.88	760.59
655.22	754.75
655.56	749.10
655.90	743.63
656.25	738.41
656.59	733.04
656.93	727.99
657.27	722.85
657.61	717.42
657.95	712.31
658.29	707.22
658.64	702.00
658.98	696.76
659.32	691.33
659.66	686.12
660.00	680.79
660.34	675.87
660.68	670.97
661.02	665.93
661.36	661.21
661.70	656.71
662.05	652.28
662.39	647.89
662.73	643.42
663.07	639.07
663.41	634.64
663.75	630.16
664.09	625.63
664.43	621.27
664.77	617.16
665.11	612.93
665.45	608.84
665.79	604.75
666.13	600.60
666.47	596.50
666.81	592.40
667.15	588.40
667.49	584.46
667.83	580.73
668.17	576.83
668.51	572.78
668.85	568.77
669.19	564.97
669.53	561.13
669.87	557.24
670.21	553.55
670.55	549.93
670.89	546.44
671.23	543.04
671.57	539.50
671.91	535.99
672.25	532.54
672.58	529.03
672.92	525.64
673.26	522.51
673.60	519.38
673.94	516.25
674.28	513.35
674.62	510.45
674.96	507.26
675.30	504.38
675.64	501.47
675.97	498.78
676.31	495.95
676.65	493.06
676.99	490.42
677.33	487.57
677.67	484.75
678.01	481.80
678.34	478.82
678.68	476.06
679.02	473.28
679.36	470.55
679.70	467.88
680.04	465.13
680.37	462.28
680.71	459.58
681.05	457.03
681.39	454.29
681.73	451.61
682.06	449.19
682.40	446.63
682.74	444.16
683.08	441.60
683.42	439.04
683.75	436.58
684.09	434.06
684.43	431.64
684.77	429.23
685.10	426.93
685.44	424.70
685.78	422.42
686.12	420.15
686.45	417.85
686.79	415.57
687.13	413.45
687.46	411.32
687.80	409.16
688.14	406.96
688.48	404.83
688.81	402.62
689.15	400.46
689.49	398.36
689.82	396.30
690.16	394.21
690.50	392.28
690.83	390.37
691.17	388.37
691.51	386.45
691.84	384.68
692.18	382.71
692.52	380.73
692.85	378.78
693.19	376.96
693.52	375.18
693.86	373.35
694.20	371.54
694.53	369.70
694.87	367.83
695.21	366.03
695.54	364.28
695.88	362.58
696.21	360.86
696.55	359.18
696.88	357.45
697.22	355.83
697.56	354.22
697.89	352.53
698.23	350.94
698.56	349.35
698.90	347.71
699.23	346.10
699.57	344.56
699.90	343.06
700.24	341.48
700.58	339.91
700.91	338.44
701.25	337.00
701.58	335.65
701.92	334.32
702.25	332.96
702.59	331.56
702.92	330.23
703.26	328.91
703.59	327.65
703.93	326.49
704.26	325.23
704.60	323.92
704.93	322.61
705.26	321.37
705.60	320.20
705.93	319.02
706.27	317.99
706.60	316.92
706.94	315.80
707.27	314.71
707.61	313.72
707.94	312.73
708.27	311.67
708.61	310.64
708.94	309.63
709.28	308.65
709.61	307.73
709.94	306.78
710.28	305.82
710.61	304.82
710.95	303.72
711.28	302.81
711.61	301.88
711.95	300.97
712.28	300.01
712.61	299.02
712.95	298.11
713.28	297.24
713.61	296.36
713.95	295.46
714.28	294.61
714.61	293.70
714.95	292.83
715.28	291.96
715.61	291.05
715.95	290.19
716.28	289.30
716.61	288.48
716.95	287.66
717.28	286.88
717.61	286.12
717.94	285.42
718.28	284.62
718.61	283.90
718.94	283.25
719.27	282.62
719.61	281.99
719.94	281.33
720.27	280.63
720.60	279.98
720.94	279.37
721.27	278.81
721.60	278.24
721.93	277.66
722.27	277.12
722.60	276.56
722.93	276.00
723.26	275.52
723.59	274.94
723.93	274.40
724.26	273.82
724.59	273.30
724.92	272.78
725.25	272.30
725.59	271.81
725.92	271.32
726.25	270.82
726.58	270.33
726.91	269.85
727.24	269.34
727.57	268.84
727.91	268.36
728.24	267.90
728.57	267.40
728.90	266.97
729.23	266.47
729.56	266.04
729.89	265.59
730.22	265.08
730.55	264.64
730.89	264.22
731.22	263.83
731.55	263.42
731.88	263.00
732.21	262.54
732.54	262.12
732.87	261.70
733.20	261.30
733.53	260.90
733.86	260.50
734.19	260.13
734.52	259.78
734.85	259.47
735.18	259.01
735.51	258.63
735.84	258.23
736.17	257.91
736.50	257.51
736.83	257.26
737.16	256.91
737.49	256.58
737.82	256.23
738.15	255.89
738.48	255.54
738.81	255.23
739.14	254.90
739.47	254.58
739.80	254.25
740.13	253.94
740.46	253.64
740.79	253.34
741.12	253.00
741.45	252.69
741.78	252.30
742.11	252.06
742.44	251.75
742.77	251.48
743.10	251.15
743.43	250.86
743.75	250.45
744.08	250.30
744.41	250.02
744.74	249.71
745.07	249.42
745.40	249.13
745.73	248.87
746.06	248.58
746.39	248.32
746.71	248.05
747.04	247.76
747.37	247.46
747.70	247.20
748.03	246.93
748.36	246.68
748.68	246.48
749.01	246.18
749.34	245.96
749.67	245.70
750.00	245.46
750.33	245.33
750.65	245.10
750.98	244.78
751.31	244.55
751.64	244.37
751.97	244.22
752.29	243.97
752.62	243.70
752.95	243.51
753.28	243.26
753.60	243.04
753.93	242.87
754.26	242.66
754.59	242.46
754.91	242.26
755.24	242.07
755.57	241.92
755.90	241.76
756.22	241.56
756.55	241.38
756.88	241.20
757.20	240.94
757.53	240.77
757.86	240.63
758.19	240.44
758.51	240.27
758.84	240.06
759.17	239.92
759.49	239.81
759.82	239.69
760.15	239.58
760.47	239.44
760.80	239.28
761.13	239.16
761.45	239.03
761.78	238.89
762.11	238.78
762.43	238.62
762.76	238.49
763.08	238.39
763.41	238.28
763.74	238.18
764.06	238.05
764.39	237.95
764.71	237.82
765.04	237.72
765.37	237.58
765.69	237.46
766.02	237.34
766.34	237.21
766.67	237.06
767.00	236.98
767.32	236.94
767.65	236.88
767.97	236.81
768.30	236.68
768.62	236.57
768.95	236.45
769.27	236.31
769.60	236.19
769.92	236.06
770.25	235.93
770.57	235.79
770.90	235.71
771.22	235.60
771.55	235.51
771.87	235.43
772.20	235.36
772.52	235.36
772.85	235.38
773.17	235.31
773.50	235.23
773.82	235.07
774.15	234.94
774.47	234.80
774.80	234.69
775.12	234.63
775.45	234.55
775.77	234.45
776.09	234.38
776.42	234.30
776.74	234.27
777.07	234.19
777.39	234.12
777.72	234.02
778.04	233.94
778.36	233.83
778.69	233.75
779.01	233.68
779.33	233.50
779.66	233.35
779.98	233.29
780.31	233.24
780.63	233.24
780.95	233.20
781.28	233.14
781.60	233.06
781.92	233.02
782.25	232.95
782.57	232.92
782.89	232.84
783.22	232.80
783.54	232.73
783.86	232.67
784.19	232.63
784.51	232.62
784.83	232.54
785.16	232.49
785.48	232.44
785.80	232.37
786.12	232.35
786.45	232.27
786.77	232.22
787.09	232.16
