SpectraSuite Data File
++++++++++++++++++++++++++++++++++++
Date: Fri Feb 01 15:34:18 EST 2013
User: group
Dark Spectrum Present: No
Reference Spectrum Present: No
Number of Sampled Component Spectra: 1
Spectrometers: USB2E7196
Integration Time (usec): 35000 (USB2E7196)
Spectra Averaged: 100 (USB2E7196)
Boxcar Smoothing: 10 (USB2E7196)
Correct for Electrical Dark: No (USB2E7196)
Strobe/Lamp Enabled: No (USB2E7196)
Correct for Detector Non-linearity: No (USB2E7196)
Correct for Stray Light: No (USB2E7196)
Number of Pixels in Processed Spectrum: 2048
>>>>>Begin Processed Spectral Data<<<<<
339.09	0.00
339.48	214.36
339.86	216.39
340.24	217.95
340.63	219.18
341.01	221.88
341.39	221.82
341.78	223.04
342.16	224.89
342.54	224.94
342.93	213.32
343.31	224.09
343.69	224.70
344.07	225.16
344.46	225.60
344.84	225.96
345.22	226.19
345.60	226.46
345.99	226.66
346.37	226.76
346.75	226.84
347.13	226.92
347.52	226.97
347.90	227.01
348.28	227.03
348.66	227.09
349.05	227.11
349.43	227.14
349.81	227.17
350.19	227.18
350.57	227.24
350.96	227.29
351.34	227.37
351.72	227.41
352.10	227.51
352.48	227.57
352.87	227.65
353.25	227.71
353.63	227.75
354.01	227.77
354.39	227.84
354.77	227.92
355.15	227.98
355.54	228.03
355.92	228.06
356.30	228.13
356.68	228.24
357.06	228.29
357.44	228.30
357.82	228.35
358.20	228.42
358.58	228.45
358.97	228.55
359.35	228.62
359.73	228.68
360.11	228.73
360.49	228.77
360.87	228.81
361.25	228.87
361.63	228.93
362.01	229.02
362.39	229.06
362.77	229.14
363.15	229.17
363.53	229.18
363.91	229.20
364.29	229.22
364.67	229.13
365.05	229.15
365.43	229.20
365.81	229.23
366.19	229.29
366.57	229.34
366.95	229.32
367.33	229.26
367.71	229.24
368.09	229.26
368.47	229.25
368.85	229.21
369.23	229.20
369.61	229.14
369.99	229.13
370.37	229.10
370.75	229.10
371.13	229.03
371.51	229.00
371.89	228.99
372.27	228.97
372.65	228.95
373.03	228.87
373.41	228.81
373.78	228.77
374.16	228.63
374.54	228.55
374.92	228.45
375.30	228.41
375.68	228.33
376.06	228.24
376.44	228.15
376.82	228.09
377.19	227.99
377.57	227.93
377.95	227.83
378.33	227.75
378.71	227.62
379.09	227.59
379.47	227.53
379.84	227.46
380.22	227.38
380.60	227.31
380.98	227.29
381.36	227.24
381.73	227.17
382.11	227.14
382.49	227.08
382.87	226.99
383.25	226.96
383.62	227.03
384.00	226.97
384.38	226.92
384.76	226.90
385.13	226.89
385.51	226.90
385.89	226.88
386.27	226.83
386.64	226.79
387.02	226.73
387.40	226.68
387.78	226.64
388.15	226.59
388.53	226.53
388.91	226.49
389.29	226.45
389.66	226.40
390.04	226.38
390.42	226.36
390.79	226.39
391.17	226.38
391.55	226.26
391.92	226.24
392.30	226.25
392.68	226.23
393.05	226.24
393.43	226.21
393.81	226.19
394.18	226.19
394.56	226.20
394.94	226.25
395.31	226.29
395.69	226.35
396.06	226.41
396.44	226.47
396.82	226.51
397.19	226.61
397.57	226.68
397.95	226.76
398.32	226.80
398.70	226.88
399.07	226.96
399.45	227.03
399.82	227.08
400.20	227.18
400.58	227.29
400.95	227.32
401.33	227.40
401.70	227.56
402.08	227.68
402.45	227.80
402.83	227.93
403.20	228.03
403.58	228.12
403.95	228.25
404.33	228.37
404.71	228.52
405.08	228.70
405.46	228.83
405.83	228.94
406.21	229.12
406.58	229.26
406.96	229.36
407.33	229.58
407.70	229.81
408.08	230.03
408.45	230.21
408.83	230.46
409.20	230.70
409.58	230.86
409.95	231.09
410.33	231.31
410.70	231.56
411.08	231.87
411.45	232.16
411.82	232.49
412.20	232.85
412.57	233.26
412.95	233.53
413.32	233.93
413.69	234.36
414.07	234.78
414.44	235.27
414.82	235.79
415.19	236.31
415.56	236.87
415.94	237.42
416.31	238.04
416.68	238.64
417.06	239.36
417.43	240.03
417.81	240.82
418.18	241.62
418.55	242.47
418.93	243.34
419.30	244.25
419.67	245.16
420.04	246.10
420.42	247.08
420.79	248.29
421.16	249.45
421.54	250.66
421.91	251.85
422.28	253.10
422.66	254.40
423.03	255.70
423.40	257.06
423.77	258.48
424.15	259.93
424.52	261.41
424.89	263.00
425.26	264.58
425.64	266.03
426.01	267.63
426.38	269.24
426.75	270.94
427.13	272.67
427.50	274.52
427.87	276.35
428.24	278.21
428.61	279.94
428.99	281.90
429.36	284.01
429.73	286.08
430.10	288.12
430.47	290.18
430.85	292.27
431.22	294.46
431.59	296.85
431.96	299.12
432.33	301.66
432.70	304.04
433.08	306.84
433.45	309.47
433.82	312.09
434.19	314.97
434.56	317.80
434.93	320.46
435.30	323.07
435.68	326.02
436.05	328.88
436.42	331.70
436.79	334.16
437.16	336.84
437.53	339.68
437.90	342.50
438.27	345.30
438.64	348.16
439.01	350.77
439.38	353.01
439.75	355.18
440.13	357.64
440.50	359.97
440.87	361.81
441.24	363.78
441.61	365.96
441.98	367.52
442.35	369.29
442.72	371.12
443.09	372.93
443.46	373.93
443.83	374.52
444.20	374.97
444.57	375.90
444.94	376.20
445.31	376.60
445.68	376.96
446.05	377.02
446.42	376.66
446.79	376.25
447.16	375.77
447.53	375.39
447.90	374.22
448.27	373.06
448.64	371.49
449.01	370.33
449.37	368.35
449.74	366.40
450.11	364.14
450.48	361.66
450.85	359.10
451.22	356.93
451.59	354.87
451.96	352.96
452.33	350.31
452.70	347.94
453.07	345.03
453.43	342.08
453.80	339.27
454.17	336.59
454.54	334.01
454.91	331.34
455.28	328.68
455.65	326.23
456.02	323.74
456.38	321.57
456.75	318.90
457.12	316.65
457.49	314.42
457.86	312.25
458.23	310.39
458.59	308.33
458.96	306.27
459.33	304.43
459.70	302.56
460.07	301.03
460.43	299.28
460.80	297.67
461.17	296.25
461.54	294.74
461.91	293.28
462.27	291.80
462.64	290.51
463.01	289.17
463.38	287.88
463.74	286.53
464.11	285.40
464.48	284.38
464.85	283.29
465.21	282.40
465.58	281.42
465.95	280.32
466.32	279.40
466.68	278.52
467.05	277.65
467.42	276.74
467.78	275.79
468.15	274.91
468.52	274.25
468.88	273.38
469.25	272.66
469.62	272.06
469.98	271.43
470.35	270.77
470.72	270.15
471.08	269.49
471.45	268.97
471.82	268.38
472.18	267.77
472.55	267.33
472.92	266.81
473.28	266.45
473.65	266.00
474.02	265.60
474.38	265.19
474.75	264.80
475.11	264.46
475.48	264.23
475.85	264.05
476.21	263.82
476.58	263.64
476.94	263.45
477.31	263.26
477.67	263.09
478.04	263.00
478.41	262.95
478.77	262.98
479.14	262.90
479.50	262.94
479.87	262.99
480.23	263.04
480.60	263.11
480.96	263.14
481.33	263.35
481.69	263.54
482.06	263.71
482.42	263.93
482.79	264.20
483.15	264.50
483.52	264.85
483.88	265.21
484.25	265.58
484.61	266.03
484.98	266.49
485.34	267.08
485.71	267.63
486.07	268.26
486.44	268.81
486.80	269.50
487.17	270.23
487.53	271.04
487.90	271.91
488.26	272.86
488.62	273.87
488.99	274.87
489.35	275.89
489.72	277.07
490.08	278.25
490.44	279.52
490.81	280.85
491.17	282.18
491.54	283.69
491.90	285.23
492.26	286.84
492.63	288.58
492.99	290.35
493.36	292.24
493.72	294.28
494.08	296.44
494.45	298.70
494.81	301.06
495.17	303.49
495.54	306.05
495.90	308.73
496.26	311.55
496.63	314.47
496.99	317.61
497.35	320.80
497.72	324.20
498.08	327.68
498.44	331.35
498.80	335.30
499.17	339.28
499.53	343.42
499.89	347.81
500.26	352.30
500.62	356.99
500.98	361.96
501.34	367.03
501.71	372.33
502.07	377.72
502.43	383.32
502.79	389.12
503.16	395.21
503.52	401.48
503.88	407.87
504.24	414.54
504.60	421.43
504.97	428.64
505.33	435.99
505.69	443.73
506.05	451.49
506.41	459.38
506.78	467.58
507.14	476.07
507.50	484.84
507.86	493.85
508.22	503.01
508.59	512.23
508.95	521.82
509.31	531.63
509.67	541.84
510.03	552.20
510.39	562.78
510.75	573.60
511.12	584.53
511.48	595.87
511.84	607.28
512.20	618.74
512.56	630.63
512.92	642.83
513.28	655.12
513.64	667.63
514.00	680.28
514.37	693.24
514.73	706.34
515.09	719.31
515.45	732.63
515.81	746.23
516.17	760.28
516.53	774.38
516.89	788.56
517.25	802.75
517.61	817.19
517.97	831.64
518.33	846.04
518.69	860.83
519.05	875.79
519.41	891.00
519.77	906.69
520.13	922.13
520.49	937.50
520.85	953.01
521.21	968.79
521.57	985.08
521.93	1000.77
522.29	1017.21
522.65	1033.54
523.01	1049.82
523.37	1065.85
523.73	1082.03
524.09	1098.22
524.45	1114.64
524.81	1131.26
525.17	1148.12
525.53	1165.14
525.89	1182.07
526.25	1199.01
526.61	1215.47
526.97	1232.28
527.33	1248.72
527.68	1265.50
528.04	1281.94
528.40	1298.56
528.76	1315.56
529.12	1332.20
529.48	1349.24
529.84	1365.28
530.20	1381.97
530.56	1399.11
530.91	1416.58
531.27	1433.41
531.63	1449.98
531.99	1466.62
532.35	1482.59
532.71	1498.51
533.07	1514.80
533.42	1530.66
533.78	1546.63
534.14	1562.98
534.50	1578.28
534.86	1594.17
535.21	1609.37
535.57	1625.46
535.93	1640.97
536.29	1655.84
536.65	1670.90
537.00	1685.63
537.36	1701.03
537.72	1715.53
538.08	1729.89
538.44	1743.78
538.79	1757.55
539.15	1771.24
539.51	1785.05
539.87	1799.42
540.22	1813.16
540.58	1826.90
540.94	1840.32
541.29	1853.37
541.65	1866.21
542.01	1879.60
542.37	1891.88
542.72	1904.35
543.08	1916.15
543.44	1928.48
543.79	1939.73
544.15	1950.89
544.51	1962.50
544.87	1973.33
545.22	1984.21
545.58	1994.49
545.94	2004.29
546.29	2014.17
546.65	2023.94
547.01	2033.06
547.36	2041.88
547.72	2050.44
548.07	2058.36
548.43	2066.51
548.79	2074.45
549.14	2081.88
549.50	2089.30
549.86	2097.03
550.21	2104.22
550.57	2111.43
550.92	2118.19
551.28	2125.31
551.64	2132.40
551.99	2138.97
552.35	2145.18
552.70	2151.32
553.06	2157.27
553.41	2163.47
553.77	2169.73
554.13	2175.92
554.48	2182.22
554.84	2187.69
555.19	2193.03
555.55	2198.09
555.90	2202.58
556.26	2207.36
556.61	2212.11
556.97	2216.21
557.32	2220.54
557.68	2224.71
558.03	2228.99
558.39	2232.70
558.74	2237.19
559.10	2240.94
559.45	2244.53
559.81	2248.91
560.16	2252.79
560.52	2255.99
560.87	2259.59
561.23	2262.08
561.58	2265.05
561.94	2267.48
562.29	2269.82
562.64	2272.39
563.00	2274.99
563.35	2278.61
563.71	2281.86
564.06	2285.15
564.42	2288.11
564.77	2290.49
565.12	2292.86
565.48	2294.58
565.83	2296.36
566.19	2297.65
566.54	2298.54
566.89	2299.66
567.25	2300.18
567.60	2301.56
567.96	2303.26
568.31	2304.03
568.66	2305.17
569.02	2305.69
569.37	2305.87
569.72	2306.71
570.08	2306.74
570.43	2306.73
570.78	2306.09
571.14	2304.59
571.49	2303.19
571.84	2302.68
572.20	2301.39
572.55	2300.22
572.90	2298.86
573.26	2297.51
573.61	2295.94
573.96	2294.09
574.31	2291.14
574.67	2288.01
575.02	2284.15
575.37	2280.71
575.72	2276.87
576.08	2273.60
576.43	2270.25
576.78	2266.68
577.13	2263.49
577.49	2260.52
577.84	2257.00
578.19	2253.20
578.54	2249.50
578.90	2245.14
579.25	2239.63
579.60	2234.70
579.95	2229.65
580.30	2224.53
580.66	2219.32
581.01	2214.21
581.36	2209.30
581.71	2205.15
582.06	2200.76
582.42	2196.24
582.77	2190.97
583.12	2186.35
583.47	2181.54
583.82	2176.34
584.17	2170.93
584.53	2165.34
584.88	2159.46
585.23	2153.60
585.58	2148.11
585.93	2142.57
586.28	2137.82
586.63	2132.66
586.98	2127.55
587.34	2122.82
587.69	2117.84
588.04	2112.44
588.39	2106.72
588.74	2100.21
589.09	2093.98
589.44	2087.17
589.79	2081.19
590.14	2075.59
590.49	2068.93
590.84	2062.43
591.19	2056.44
591.54	2049.95
591.89	2042.52
592.25	2035.74
592.60	2028.70
592.95	2020.98
593.30	2013.52
593.65	2005.74
594.00	1998.72
594.35	1991.65
594.70	1983.70
595.05	1976.26
595.40	1968.97
595.75	1961.53
596.10	1955.25
596.45	1948.47
596.80	1942.31
597.15	1935.51
597.50	1928.19
597.85	1921.74
598.19	1914.99
598.54	1907.82
598.89	1901.27
599.24	1895.33
599.59	1888.58
599.94	1882.26
600.29	1875.92
600.64	1869.42
600.99	1861.93
601.34	1855.00
601.69	1847.89
602.04	1840.87
602.39	1833.63
602.74	1826.74
603.08	1820.09
603.43	1813.35
603.78	1805.95
604.13	1798.69
604.48	1791.50
604.83	1784.76
605.18	1777.78
605.53	1769.81
605.87	1761.84
606.22	1754.54
606.57	1746.60
606.92	1739.37
607.27	1732.10
607.62	1725.26
607.96	1717.81
608.31	1711.11
608.66	1703.47
609.01	1695.76
609.36	1688.16
609.70	1680.12
610.05	1672.01
610.40	1664.18
610.75	1655.84
611.10	1648.23
611.44	1639.83
611.79	1631.76
612.14	1623.03
612.49	1613.89
612.83	1605.37
613.18	1597.22
613.53	1589.16
613.88	1580.54
614.22	1572.13
614.57	1563.55
614.92	1555.38
615.27	1547.77
615.61	1539.57
615.96	1531.48
616.31	1523.89
616.65	1516.52
617.00	1508.97
617.35	1501.37
617.70	1492.93
618.04	1484.33
618.39	1476.00
618.74	1468.19
619.08	1460.00
619.43	1452.35
619.78	1445.33
620.12	1438.20
620.47	1430.55
620.82	1422.34
621.16	1415.01
621.51	1407.46
621.85	1399.88
622.20	1391.33
622.55	1383.04
622.89	1375.10
623.24	1367.64
623.59	1360.17
623.93	1352.63
624.28	1345.51
624.62	1337.91
624.97	1330.75
625.32	1324.02
625.66	1317.00
626.01	1309.88
626.35	1302.28
626.70	1294.53
627.04	1286.76
627.39	1278.97
627.73	1271.66
628.08	1264.59
628.43	1257.15
628.77	1249.76
629.12	1242.06
629.46	1234.98
629.81	1227.64
630.15	1220.51
630.50	1213.01
630.84	1204.83
631.19	1196.83
631.53	1189.19
631.88	1181.70
632.22	1174.13
632.57	1166.71
632.91	1159.25
633.26	1151.85
633.60	1144.54
633.95	1137.51
634.29	1130.57
634.64	1124.05
634.98	1116.58
635.32	1109.55
635.67	1103.01
636.01	1096.38
636.36	1089.62
636.70	1083.05
637.05	1076.48
637.39	1069.96
637.73	1063.54
638.08	1057.74
638.42	1051.83
638.77	1045.36
639.11	1038.72
639.45	1032.39
639.80	1025.88
640.14	1019.39
640.49	1012.84
640.83	1006.63
641.17	1000.38
641.52	994.01
641.86	987.56
642.20	981.78
642.55	975.50
642.89	969.00
643.23	962.54
643.58	956.80
643.92	950.60
644.26	944.51
644.61	938.58
644.95	932.54
645.29	925.85
645.64	919.08
645.98	912.79
646.32	907.01
646.66	900.97
647.01	895.15
647.35	889.51
647.69	883.70
648.04	878.12
648.38	872.33
648.72	866.31
649.06	860.17
649.41	854.26
649.75	848.23
650.09	842.29
650.43	836.46
650.78	830.31
651.12	824.34
651.46	818.65
651.80	812.71
652.14	807.28
652.49	801.94
652.83	796.76
653.17	791.04
653.51	785.27
653.85	779.84
654.20	774.15
654.54	768.12
654.88	762.37
655.22	756.43
655.56	750.68
655.90	745.19
656.25	739.95
656.59	734.66
656.93	729.57
657.27	724.45
657.61	718.93
657.95	713.85
658.29	708.77
658.64	703.51
658.98	698.23
659.32	692.71
659.66	687.49
660.00	682.27
660.34	677.38
660.68	672.49
661.02	667.43
661.36	662.78
661.70	658.29
662.05	653.90
662.39	649.67
662.73	645.28
663.07	640.96
663.41	636.54
663.75	632.00
664.09	627.42
664.43	623.03
664.77	618.93
665.11	614.61
665.45	610.47
665.79	606.37
666.13	602.33
666.47	598.32
666.81	594.16
667.15	589.95
667.49	586.03
667.83	582.22
668.17	578.30
668.51	574.28
668.85	570.26
669.19	566.46
669.53	562.60
669.87	558.69
670.21	555.01
670.55	551.33
670.89	547.89
671.23	544.45
671.57	540.95
671.91	537.44
672.25	534.01
672.58	530.51
672.92	527.19
673.26	523.95
673.60	520.80
673.94	517.70
674.28	514.83
674.62	511.90
674.96	508.80
675.30	505.92
675.64	502.90
675.97	500.14
676.31	497.28
676.65	494.28
676.99	491.59
677.33	488.72
677.67	485.91
678.01	482.89
678.34	479.94
678.68	477.12
679.02	474.30
679.36	471.57
679.70	468.88
680.04	466.08
680.37	463.24
680.71	460.47
681.05	457.85
681.39	455.11
681.73	452.48
682.06	449.91
682.40	447.33
682.74	444.86
683.08	442.34
683.42	439.72
683.75	437.27
684.09	434.76
684.43	432.26
684.77	429.79
685.10	427.48
685.44	425.15
685.78	422.82
686.12	420.59
686.45	418.23
686.79	415.93
687.13	413.75
687.46	411.61
687.80	409.42
688.14	407.23
688.48	405.18
688.81	402.90
689.15	400.82
689.49	398.69
689.82	396.61
690.16	394.50
690.50	392.55
690.83	390.58
691.17	388.57
691.51	386.66
691.84	384.84
692.18	382.90
692.52	380.94
692.85	379.02
693.19	377.15
693.52	375.35
693.86	373.50
694.20	371.68
694.53	369.85
694.87	367.97
695.21	366.17
695.54	364.33
695.88	362.62
696.21	360.84
696.55	359.17
696.88	357.45
697.22	355.75
697.56	354.14
697.89	352.50
698.23	350.86
698.56	349.28
698.90	347.68
699.23	346.04
699.57	344.43
699.90	342.90
700.24	341.32
700.58	339.78
700.91	338.28
701.25	336.86
701.58	335.52
701.92	334.18
702.25	332.81
702.59	331.45
702.92	330.14
703.26	328.84
703.59	327.57
703.93	326.46
704.26	325.23
704.60	323.92
704.93	322.66
705.26	321.46
705.60	320.28
705.93	319.08
706.27	318.05
706.60	317.07
706.94	315.99
707.27	314.90
707.61	313.87
707.94	312.88
708.27	311.76
708.61	310.65
708.94	309.63
709.28	308.65
709.61	307.71
709.94	306.72
710.28	305.71
710.61	304.71
710.95	303.61
711.28	302.70
711.61	301.77
711.95	300.83
712.28	299.85
712.61	298.84
712.95	297.97
713.28	297.07
713.61	296.17
713.95	295.26
714.28	294.43
714.61	293.53
714.95	292.67
715.28	291.83
715.61	290.97
715.95	290.17
716.28	289.33
716.61	288.49
716.95	287.73
717.28	286.98
717.61	286.24
717.94	285.47
718.28	284.67
718.61	283.99
718.94	283.34
719.27	282.71
719.61	282.09
719.94	281.42
720.27	280.74
720.60	280.10
720.94	279.49
721.27	278.87
721.60	278.33
721.93	277.75
722.27	277.21
722.60	276.67
722.93	276.08
723.26	275.54
723.59	274.99
723.93	274.41
724.26	273.86
724.59	273.31
724.92	272.80
725.25	272.32
725.59	271.80
725.92	271.29
726.25	270.78
726.58	270.32
726.91	269.81
727.24	269.32
727.57	268.82
727.91	268.34
728.24	267.88
728.57	267.35
728.90	266.93
729.23	266.42
729.56	266.02
729.89	265.56
730.22	265.08
730.55	264.63
730.89	264.22
731.22	263.79
731.55	263.34
731.88	262.92
732.21	262.48
732.54	262.03
732.87	261.59
733.20	261.21
733.53	260.83
733.86	260.47
734.19	260.06
734.52	259.70
734.85	259.41
735.18	258.99
735.51	258.65
735.84	258.26
736.17	257.92
736.50	257.52
736.83	257.25
737.16	256.92
737.49	256.57
737.82	256.19
738.15	255.85
738.48	255.54
738.81	255.21
739.14	254.89
739.47	254.55
739.80	254.23
740.13	253.90
740.46	253.57
740.79	253.23
741.12	252.91
741.45	252.60
741.78	252.19
742.11	251.92
742.44	251.61
742.77	251.33
743.10	251.02
743.43	250.72
743.75	250.33
744.08	250.17
744.41	249.88
744.74	249.62
745.07	249.32
745.40	249.07
745.73	248.84
746.06	248.56
746.39	248.29
746.71	248.03
747.04	247.74
747.37	247.47
747.70	247.23
748.03	246.97
748.36	246.71
748.68	246.46
749.01	246.20
749.34	245.99
749.67	245.70
750.00	245.45
750.33	245.31
750.65	245.10
750.98	244.72
751.31	244.51
751.64	244.29
751.97	244.16
752.29	243.92
752.62	243.64
752.95	243.41
753.28	243.21
753.60	242.99
753.93	242.82
754.26	242.62
754.59	242.38
754.91	242.18
755.24	242.00
755.57	241.84
755.90	241.64
756.22	241.42
756.55	241.24
756.88	241.08
757.20	240.84
757.53	240.63
757.86	240.46
758.19	240.30
758.51	240.14
758.84	239.88
759.17	239.71
759.49	239.56
759.82	239.44
760.15	239.29
760.47	239.12
760.80	238.95
761.13	238.82
761.45	238.68
761.78	238.54
762.11	238.43
762.43	238.27
762.76	238.14
763.08	238.02
763.41	237.90
763.74	237.77
764.06	237.64
764.39	237.51
764.71	237.43
765.04	237.30
765.37	237.17
765.69	237.09
766.02	237.01
766.34	236.86
766.67	236.73
767.00	236.63
767.32	236.58
767.65	236.54
767.97	236.42
768.30	236.34
768.62	236.24
768.95	236.16
769.27	236.08
769.60	235.99
769.92	235.89
770.25	235.81
770.57	235.70
770.90	235.60
771.22	235.50
771.55	235.38
771.87	235.30
772.20	235.21
772.52	235.19
772.85	235.21
773.17	235.16
773.50	235.04
773.82	234.96
774.15	234.79
774.47	234.64
774.80	234.55
775.12	234.45
775.45	234.40
775.77	234.26
776.09	234.19
776.42	234.12
776.74	234.07
777.07	233.98
777.39	233.91
777.72	233.81
778.04	233.77
778.36	233.73
778.69	233.67
779.01	233.62
779.33	233.48
779.66	233.30
779.98	233.22
780.31	233.19
780.63	233.18
780.95	233.17
781.28	233.09
781.60	233.03
781.92	232.98
782.25	232.89
782.57	232.83
782.89	232.78
783.22	232.70
783.54	232.61
783.86	232.56
784.19	232.50
784.51	232.48
784.83	232.39
785.16	232.33
785.48	232.26
785.80	232.18
786.12	232.12
786.45	232.06
786.77	232.05
787.09	231.97
