SpectraSuite Data File
++++++++++++++++++++++++++++++++++++
Date: Fri Feb 01 15:13:57 EST 2013
User: group
Dark Spectrum Present: No
Reference Spectrum Present: No
Number of Sampled Component Spectra: 1
Spectrometers: USB2E7196
Integration Time (usec): 35000 (USB2E7196)
Spectra Averaged: 100 (USB2E7196)
Boxcar Smoothing: 10 (USB2E7196)
Correct for Electrical Dark: No (USB2E7196)
Strobe/Lamp Enabled: No (USB2E7196)
Correct for Detector Non-linearity: No (USB2E7196)
Correct for Stray Light: No (USB2E7196)
Number of Pixels in Processed Spectrum: 2048
>>>>>Begin Processed Spectral Data<<<<<
339.09	0.00
339.48	215.20
339.86	215.92
340.24	217.65
340.63	219.70
341.01	222.44
341.39	221.65
341.78	223.39
342.16	224.52
342.54	225.38
342.93	213.49
343.31	224.27
343.69	224.82
344.07	225.31
344.46	225.77
344.84	226.13
345.22	226.38
345.60	226.65
345.99	226.85
346.37	226.99
346.75	227.10
347.13	227.14
347.52	227.17
347.90	227.24
348.28	227.26
348.66	227.30
349.05	227.29
349.43	227.35
349.81	227.40
350.19	227.45
350.57	227.49
350.96	227.54
351.34	227.63
351.72	227.67
352.10	227.79
352.48	227.83
352.87	227.90
353.25	227.97
353.63	228.02
354.01	228.09
354.39	228.16
354.77	228.22
355.15	228.34
355.54	228.42
355.92	228.44
356.30	228.54
356.68	228.65
357.06	228.76
357.44	228.79
357.82	228.86
358.20	228.96
358.58	229.01
358.97	229.06
359.35	229.14
359.73	229.27
360.11	229.32
360.49	229.38
360.87	229.38
361.25	229.42
361.63	229.49
362.01	229.52
362.39	229.53
362.77	229.55
363.15	229.57
363.53	229.60
363.91	229.65
364.29	229.63
364.67	229.56
365.05	229.54
365.43	229.56
365.81	229.58
366.19	229.60
366.57	229.65
366.95	229.68
367.33	229.61
367.71	229.54
368.09	229.54
368.47	229.52
368.85	229.51
369.23	229.50
369.61	229.43
369.99	229.40
370.37	229.36
370.75	229.39
371.13	229.32
371.51	229.25
371.89	229.20
372.27	229.17
372.65	229.10
373.03	229.05
373.41	228.99
373.78	228.90
374.16	228.77
374.54	228.67
374.92	228.57
375.30	228.51
375.68	228.44
376.06	228.37
376.44	228.29
376.82	228.24
377.19	228.16
377.57	228.07
377.95	227.99
378.33	227.91
378.71	227.76
379.09	227.69
379.47	227.62
379.84	227.53
380.22	227.42
380.60	227.35
380.98	227.29
381.36	227.20
381.73	227.15
382.11	227.09
382.49	227.01
382.87	226.92
383.25	226.85
383.62	226.94
384.00	226.87
384.38	226.83
384.76	226.74
385.13	226.73
385.51	226.67
385.89	226.61
386.27	226.58
386.64	226.55
387.02	226.50
387.40	226.46
387.78	226.44
388.15	226.44
388.53	226.41
388.91	226.40
389.29	226.37
389.66	226.34
390.04	226.31
390.42	226.33
390.79	226.33
391.17	226.34
391.55	226.20
391.92	226.20
392.30	226.20
392.68	226.22
393.05	226.22
393.43	226.27
393.81	226.30
394.18	226.29
394.56	226.29
394.94	226.35
395.31	226.38
395.69	226.47
396.06	226.53
396.44	226.57
396.82	226.58
397.19	226.70
397.57	226.74
397.95	226.83
398.32	226.88
398.70	226.95
399.07	227.05
399.45	227.12
399.82	227.18
400.20	227.27
400.58	227.39
400.95	227.43
401.33	227.53
401.70	227.68
402.08	227.77
402.45	227.90
402.83	228.03
403.20	228.13
403.58	228.22
403.95	228.32
404.33	228.46
404.71	228.57
405.08	228.74
405.46	228.90
405.83	229.03
406.21	229.18
406.58	229.38
406.96	229.52
407.33	229.72
407.70	229.94
408.08	230.19
408.45	230.40
408.83	230.64
409.20	230.84
409.58	231.05
409.95	231.34
410.33	231.60
410.70	231.83
411.08	232.16
411.45	232.47
411.82	232.76
412.20	233.13
412.57	233.57
412.95	233.82
413.32	234.21
413.69	234.61
414.07	235.02
414.44	235.44
414.82	235.93
415.19	236.45
415.56	236.98
415.94	237.51
416.31	238.14
416.68	238.76
417.06	239.50
417.43	240.16
417.81	240.91
418.18	241.73
418.55	242.57
418.93	243.45
419.30	244.36
419.67	245.30
420.04	246.29
420.42	247.31
420.79	248.53
421.16	249.69
421.54	250.90
421.91	252.16
422.28	253.43
422.66	254.74
423.03	256.05
423.40	257.36
423.77	258.79
424.15	260.21
424.52	261.70
424.89	263.31
425.26	264.84
425.64	266.32
426.01	267.91
426.38	269.58
426.75	271.24
427.13	272.97
427.50	274.74
427.87	276.60
428.24	278.42
428.61	280.16
428.99	282.13
429.36	284.23
429.73	286.29
430.10	288.34
430.47	290.41
430.85	292.53
431.22	294.76
431.59	297.17
431.96	299.40
432.33	301.88
432.70	304.23
433.08	307.04
433.45	309.65
433.82	312.25
434.19	315.13
434.56	317.94
434.93	320.61
435.30	323.23
435.68	326.10
436.05	328.98
436.42	331.82
436.79	334.29
437.16	337.00
437.53	339.83
437.90	342.66
438.27	345.42
438.64	348.29
439.01	350.94
439.38	353.19
439.75	355.40
440.13	357.91
440.50	360.27
440.87	362.19
441.24	364.17
441.61	366.37
441.98	367.82
442.35	369.62
442.72	371.43
443.09	373.28
443.46	374.25
443.83	374.81
444.20	375.32
444.57	376.18
444.94	376.49
445.31	376.80
445.68	377.12
446.05	377.21
446.42	376.82
446.79	376.36
447.16	375.91
447.53	375.50
447.90	374.32
448.27	373.16
448.64	371.52
449.01	370.35
449.37	368.33
449.74	366.44
450.11	364.25
450.48	361.82
450.85	359.26
451.22	357.16
451.59	355.15
451.96	353.16
452.33	350.60
452.70	348.22
453.07	345.39
453.43	342.50
453.80	339.70
454.17	336.97
454.54	334.44
454.91	331.71
455.28	329.09
455.65	326.61
456.02	324.15
456.38	322.02
456.75	319.36
457.12	317.11
457.49	314.90
457.86	312.66
458.23	310.77
458.59	308.75
458.96	306.65
459.33	304.76
459.70	302.93
460.07	301.38
460.43	299.65
460.80	298.05
461.17	296.59
461.54	295.09
461.91	293.70
462.27	292.25
462.64	290.98
463.01	289.60
463.38	288.30
463.74	286.91
464.11	285.72
464.48	284.68
464.85	283.57
465.21	282.70
465.58	281.80
465.95	280.72
466.32	279.79
466.68	278.90
467.05	277.95
467.42	277.03
467.78	276.10
468.15	275.22
468.52	274.54
468.88	273.67
469.25	272.90
469.62	272.23
469.98	271.53
470.35	270.89
470.72	270.29
471.08	269.62
471.45	269.09
471.82	268.57
472.18	267.98
472.55	267.56
472.92	267.05
473.28	266.56
473.65	266.10
474.02	265.67
474.38	265.28
474.75	264.99
475.11	264.64
475.48	264.40
475.85	264.15
476.21	263.89
476.58	263.72
476.94	263.59
477.31	263.39
477.67	263.25
478.04	263.13
478.41	263.07
478.77	263.10
479.14	263.03
479.50	263.06
479.87	263.10
480.23	263.13
480.60	263.18
480.96	263.29
481.33	263.48
481.69	263.68
482.06	263.86
482.42	264.04
482.79	264.30
483.15	264.57
483.52	264.97
483.88	265.29
484.25	265.69
484.61	266.11
484.98	266.59
485.34	267.15
485.71	267.71
486.07	268.32
486.44	268.91
486.80	269.60
487.17	270.28
487.53	271.10
487.90	271.95
488.26	272.91
488.62	273.88
488.99	274.84
489.35	275.86
489.72	277.00
490.08	278.21
490.44	279.45
490.81	280.81
491.17	282.14
491.54	283.65
491.90	285.16
492.26	286.79
492.63	288.51
492.99	290.26
493.36	292.18
493.72	294.21
494.08	296.28
494.45	298.48
494.81	300.85
495.17	303.24
495.54	305.77
495.90	308.45
496.26	311.19
496.63	314.17
496.99	317.27
497.35	320.48
497.72	323.88
498.08	327.39
498.44	331.05
498.80	334.93
499.17	338.94
499.53	343.08
499.89	347.42
500.26	351.89
500.62	356.58
500.98	361.52
501.34	366.59
501.71	371.89
502.07	377.33
502.43	382.95
502.79	388.80
503.16	394.89
503.52	401.12
503.88	407.53
504.24	414.09
504.60	421.04
504.97	428.20
505.33	435.49
505.69	443.18
506.05	450.89
506.41	458.82
506.78	466.98
507.14	475.40
507.50	484.16
507.86	493.24
508.22	502.40
508.59	511.58
508.95	521.14
509.31	530.94
509.67	541.04
510.03	551.28
510.39	561.82
510.75	572.65
511.12	583.63
511.48	594.96
511.84	606.48
512.20	618.00
512.56	629.90
512.92	642.07
513.28	654.43
513.64	666.93
514.00	679.57
514.37	692.47
514.73	705.65
515.09	718.69
515.45	731.99
515.81	745.59
516.17	759.59
516.53	773.75
516.89	787.93
517.25	802.11
517.61	816.68
517.97	831.20
518.33	845.61
518.69	860.35
519.05	875.35
519.41	890.55
519.77	906.04
520.13	921.56
520.49	936.97
520.85	952.40
521.21	968.19
521.57	984.65
521.93	1000.50
522.29	1016.88
522.65	1033.25
523.01	1049.55
523.37	1065.68
523.73	1081.90
524.09	1098.10
524.45	1114.54
524.81	1131.27
525.17	1148.15
525.53	1165.10
525.89	1182.03
526.25	1199.00
526.61	1215.38
526.97	1232.14
527.33	1248.64
527.68	1265.36
528.04	1282.02
528.40	1298.72
528.76	1315.75
529.12	1332.25
529.48	1349.26
529.84	1365.36
530.20	1382.02
530.56	1399.15
530.91	1416.62
531.27	1433.50
531.63	1450.01
531.99	1466.60
532.35	1482.61
532.71	1498.45
533.07	1514.69
533.42	1530.68
533.78	1546.74
534.14	1563.15
534.50	1578.56
534.86	1594.61
535.21	1609.78
535.57	1625.70
535.93	1641.12
536.29	1656.11
536.65	1671.27
537.00	1686.16
537.36	1701.58
537.72	1716.15
538.08	1730.61
538.44	1744.39
538.79	1758.32
539.15	1772.13
539.51	1785.97
539.87	1800.29
540.22	1814.15
540.58	1828.05
540.94	1841.55
541.29	1854.58
541.65	1867.40
542.01	1880.74
542.37	1893.02
542.72	1905.58
543.08	1917.41
543.44	1929.95
543.79	1941.23
544.15	1952.33
544.51	1963.82
544.87	1974.87
545.22	1985.57
545.58	1995.72
545.94	2005.66
546.29	2015.57
546.65	2025.32
547.01	2034.66
547.36	2043.58
547.72	2052.12
548.07	2059.91
548.43	2068.10
548.79	2076.18
549.14	2083.78
549.50	2091.27
549.86	2099.24
550.21	2106.54
550.57	2113.84
550.92	2120.44
551.28	2127.50
551.64	2134.56
551.99	2141.20
552.35	2147.16
552.70	2153.51
553.06	2159.45
553.41	2165.74
553.77	2171.72
554.13	2177.94
554.48	2183.97
554.84	2189.39
555.19	2194.63
555.55	2199.74
555.90	2204.20
556.26	2208.85
556.61	2213.55
556.97	2217.58
557.32	2221.56
557.68	2225.62
558.03	2229.82
558.39	2233.63
558.74	2238.33
559.10	2242.12
559.45	2245.78
559.81	2250.18
560.16	2253.98
560.52	2257.29
560.87	2260.77
561.23	2263.42
561.58	2266.30
561.94	2268.85
562.29	2271.27
562.64	2273.94
563.00	2276.74
563.35	2280.24
563.71	2283.56
564.06	2286.61
564.42	2289.31
564.77	2291.68
565.12	2293.85
565.48	2295.75
565.83	2297.32
566.19	2298.43
566.54	2299.42
566.89	2300.37
567.25	2300.88
567.60	2302.20
567.96	2303.82
568.31	2304.63
568.66	2305.63
569.02	2306.06
569.37	2306.33
569.72	2307.05
570.08	2307.11
570.43	2306.88
570.78	2306.04
571.14	2304.33
571.49	2303.09
571.84	2302.91
572.20	2301.63
572.55	2300.49
572.90	2298.74
573.26	2297.34
573.61	2295.66
573.96	2293.67
574.31	2290.68
574.67	2287.61
575.02	2283.76
575.37	2280.08
575.72	2276.05
576.08	2272.62
576.43	2269.11
576.78	2265.44
577.13	2262.21
577.49	2259.07
577.84	2255.47
578.19	2251.74
578.54	2248.02
578.90	2243.43
579.25	2237.69
579.60	2232.76
579.95	2227.83
580.30	2222.74
580.66	2217.59
581.01	2212.43
581.36	2207.37
581.71	2202.98
582.06	2198.37
582.42	2193.79
582.77	2188.53
583.12	2183.98
583.47	2179.27
583.82	2174.21
584.17	2168.83
584.53	2163.17
584.88	2157.33
585.23	2151.42
585.58	2145.88
585.93	2140.32
586.28	2135.59
586.63	2130.43
586.98	2125.21
587.34	2120.39
587.69	2115.43
588.04	2110.04
588.39	2104.28
588.74	2097.78
589.09	2091.49
589.44	2084.70
589.79	2078.64
590.14	2073.07
590.49	2066.37
590.84	2059.91
591.19	2053.71
591.54	2047.12
591.89	2039.44
592.25	2032.56
592.60	2025.41
592.95	2017.70
593.30	2010.28
593.65	2002.57
594.00	1995.50
594.35	1988.25
594.70	1980.11
595.05	1972.75
595.40	1965.38
595.75	1957.88
596.10	1951.60
596.45	1944.82
596.80	1938.55
597.15	1931.84
597.50	1924.54
597.85	1918.02
598.19	1911.20
598.54	1904.11
598.89	1897.51
599.24	1891.77
599.59	1884.97
599.94	1878.76
600.29	1872.43
600.64	1865.89
600.99	1858.49
601.34	1851.58
601.69	1844.53
602.04	1837.56
602.39	1830.25
602.74	1823.36
603.08	1816.64
603.43	1809.91
603.78	1802.70
604.13	1795.44
604.48	1787.96
604.83	1781.16
605.18	1774.14
605.53	1766.20
605.87	1758.21
606.22	1750.79
606.57	1742.81
606.92	1735.57
607.27	1728.27
607.62	1721.21
607.96	1713.82
608.31	1707.05
608.66	1699.44
609.01	1691.88
609.36	1684.26
609.70	1676.25
610.05	1668.13
610.40	1660.26
610.75	1651.87
611.10	1644.22
611.44	1635.87
611.79	1627.98
612.14	1619.25
612.49	1610.14
612.83	1601.77
613.18	1593.78
613.53	1585.75
613.88	1577.22
614.22	1568.91
614.57	1560.37
614.92	1552.38
615.27	1544.66
615.61	1536.45
615.96	1528.42
616.31	1520.82
616.65	1513.51
617.00	1505.92
617.35	1498.34
617.70	1490.05
618.04	1481.63
618.39	1473.35
618.74	1465.73
619.08	1457.47
619.43	1449.99
619.78	1443.03
620.12	1435.72
620.47	1428.17
620.82	1420.05
621.16	1412.65
621.51	1405.05
621.85	1397.37
622.20	1388.82
622.55	1380.57
622.89	1372.65
623.24	1365.09
623.59	1357.67
623.93	1350.06
624.28	1342.88
624.62	1335.45
624.97	1328.19
625.32	1321.50
625.66	1314.41
626.01	1307.23
626.35	1299.82
626.70	1292.09
627.04	1284.30
627.39	1276.58
627.73	1269.13
628.08	1262.14
628.43	1254.79
628.77	1247.48
629.12	1239.94
629.46	1232.86
629.81	1225.44
630.15	1218.29
630.50	1210.82
630.84	1202.67
631.19	1194.82
631.53	1187.26
631.88	1179.59
632.22	1172.16
632.57	1164.79
632.91	1157.28
633.26	1149.86
633.60	1142.50
633.95	1135.36
634.29	1128.36
634.64	1121.71
634.98	1114.36
635.32	1107.31
635.67	1100.86
636.01	1094.22
636.36	1087.46
636.70	1080.92
637.05	1074.40
637.39	1067.97
637.73	1061.41
638.08	1055.60
638.42	1049.58
638.77	1043.11
639.11	1036.51
639.45	1030.16
639.80	1023.46
640.14	1017.03
640.49	1010.51
640.83	1004.18
641.17	997.99
641.52	991.74
641.86	985.42
642.20	979.57
642.55	973.30
642.89	966.64
643.23	960.12
643.58	954.29
643.92	948.05
644.26	941.96
644.61	935.91
644.95	930.01
645.29	923.38
645.64	916.69
645.98	910.48
646.32	904.79
646.66	898.68
647.01	893.01
647.35	887.37
647.69	881.56
648.04	876.16
648.38	870.39
648.72	864.33
649.06	858.20
649.41	852.32
649.75	846.22
650.09	840.43
650.43	834.63
650.78	828.58
651.12	822.69
651.46	817.01
651.80	811.36
652.14	806.01
652.49	800.67
652.83	795.47
653.17	789.75
653.51	783.97
653.85	778.69
654.20	772.90
654.54	766.94
654.88	761.23
655.22	755.33
655.56	749.57
655.90	744.23
656.25	739.08
656.59	733.76
656.93	728.76
657.27	723.60
657.61	718.19
657.95	713.07
658.29	708.03
658.64	702.85
658.98	697.44
659.32	691.96
659.66	686.80
660.00	681.58
660.34	676.68
660.68	671.79
661.02	666.71
661.36	662.08
661.70	657.63
662.05	653.23
662.39	648.85
662.73	644.47
663.07	640.04
663.41	635.56
663.75	631.09
664.09	626.56
664.43	622.20
664.77	618.09
665.11	613.87
665.45	609.76
665.79	605.67
666.13	601.63
666.47	597.54
666.81	593.33
667.15	589.19
667.49	585.34
667.83	581.57
668.17	577.62
668.51	573.55
668.85	569.47
669.19	565.62
669.53	561.76
669.87	557.83
670.21	554.13
670.55	550.43
670.89	546.96
671.23	543.54
671.57	540.00
671.91	536.46
672.25	533.02
672.58	529.49
672.92	526.09
673.26	522.93
673.60	519.81
673.94	516.72
674.28	513.84
674.62	510.85
674.96	507.68
675.30	504.79
675.64	501.90
675.97	499.17
676.31	496.32
676.65	493.45
676.99	490.78
677.33	487.94
677.67	485.19
678.01	482.16
678.34	479.15
678.68	476.28
679.02	473.43
679.36	470.66
679.70	467.96
680.04	465.18
680.37	462.27
680.71	459.42
681.05	456.80
681.39	454.08
681.73	451.47
682.06	448.93
682.40	446.36
682.74	443.80
683.08	441.29
683.42	438.69
683.75	436.24
684.09	433.72
684.43	431.23
684.77	428.72
685.10	426.44
685.44	424.22
685.78	421.93
686.12	419.77
686.45	417.47
686.79	415.21
687.13	413.06
687.46	410.88
687.80	408.77
688.14	406.60
688.48	404.56
688.81	402.28
689.15	400.19
689.49	398.11
689.82	396.06
690.16	393.97
690.50	392.07
690.83	390.08
691.17	388.13
691.51	386.34
691.84	384.58
692.18	382.63
692.52	380.63
692.85	378.79
693.19	376.91
693.52	375.09
693.86	373.30
694.20	371.55
694.53	369.80
694.87	368.01
695.21	366.24
695.54	364.40
695.88	362.73
696.21	361.01
696.55	359.31
696.88	357.64
697.22	356.04
697.56	354.43
697.89	352.84
698.23	351.25
698.56	349.60
698.90	347.98
699.23	346.37
699.57	344.86
699.90	343.32
700.24	341.77
700.58	340.24
700.91	338.73
701.25	337.26
701.58	335.89
701.92	334.56
702.25	333.21
702.59	331.87
702.92	330.58
703.26	329.35
703.59	328.11
703.93	326.97
704.26	325.68
704.60	324.39
704.93	323.11
705.26	321.82
705.60	320.65
705.93	319.48
706.27	318.44
706.60	317.34
706.94	316.25
707.27	315.08
707.61	314.00
707.94	312.98
708.27	311.92
708.61	310.87
708.94	309.82
709.28	308.82
709.61	307.90
709.94	306.92
710.28	305.87
710.61	304.85
710.95	303.77
711.28	302.87
711.61	301.90
711.95	300.97
712.28	300.04
712.61	299.05
712.95	298.14
713.28	297.26
713.61	296.37
713.95	295.44
714.28	294.63
714.61	293.79
714.95	292.95
715.28	292.08
715.61	291.20
715.95	290.35
716.28	289.51
716.61	288.64
716.95	287.83
717.28	287.06
717.61	286.31
717.94	285.56
718.28	284.77
718.61	284.04
718.94	283.38
719.27	282.72
719.61	282.10
719.94	281.43
720.27	280.75
720.60	280.07
720.94	279.46
721.27	278.87
721.60	278.27
721.93	277.67
722.27	277.12
722.60	276.56
722.93	276.01
723.26	275.44
723.59	274.89
723.93	274.30
724.26	273.75
724.59	273.21
724.92	272.70
725.25	272.18
725.59	271.62
725.92	271.10
726.25	270.61
726.58	270.11
726.91	269.59
727.24	269.12
727.57	268.65
727.91	268.16
728.24	267.66
728.57	267.21
728.90	266.78
729.23	266.27
729.56	265.83
729.89	265.36
730.22	264.87
730.55	264.39
730.89	263.97
731.22	263.55
731.55	263.13
731.88	262.70
732.21	262.29
732.54	261.90
732.87	261.48
733.20	261.06
733.53	260.66
733.86	260.34
734.19	259.93
734.52	259.59
734.85	259.25
735.18	258.88
735.51	258.56
735.84	258.18
736.17	257.82
736.50	257.43
736.83	257.19
737.16	256.88
737.49	256.60
737.82	256.25
738.15	255.92
738.48	255.56
738.81	255.25
739.14	254.94
739.47	254.64
739.80	254.29
740.13	253.99
740.46	253.68
740.79	253.31
741.12	253.03
741.45	252.68
741.78	252.35
742.11	252.05
742.44	251.69
742.77	251.42
743.10	251.14
743.43	250.87
743.75	250.51
744.08	250.37
744.41	250.07
744.74	249.79
745.07	249.49
745.40	249.28
745.73	249.03
746.06	248.74
746.39	248.47
746.71	248.18
747.04	247.89
747.37	247.62
747.70	247.39
748.03	247.15
748.36	246.96
748.68	246.69
749.01	246.44
749.34	246.20
749.67	245.96
750.00	245.71
750.33	245.55
750.65	245.36
750.98	245.01
751.31	244.73
751.64	244.54
751.97	244.40
752.29	244.15
752.62	243.91
752.95	243.68
753.28	243.46
753.60	243.28
753.93	243.14
754.26	242.97
754.59	242.74
754.91	242.49
755.24	242.26
755.57	242.08
755.90	241.91
756.22	241.74
756.55	241.54
756.88	241.34
757.20	241.07
757.53	240.85
757.86	240.68
758.19	240.59
758.51	240.41
758.84	240.17
759.17	239.99
759.49	239.81
759.82	239.70
760.15	239.55
760.47	239.41
760.80	239.20
761.13	239.08
761.45	238.92
761.78	238.78
762.11	238.62
762.43	238.49
762.76	238.37
763.08	238.22
763.41	238.09
763.74	237.98
764.06	237.87
764.39	237.73
764.71	237.58
765.04	237.42
765.37	237.28
765.69	237.16
766.02	237.04
766.34	236.92
766.67	236.78
767.00	236.69
767.32	236.62
767.65	236.57
767.97	236.42
768.30	236.34
768.62	236.22
768.95	236.12
769.27	235.99
769.60	235.85
769.92	235.76
770.25	235.62
770.57	235.47
770.90	235.35
771.22	235.24
771.55	235.14
771.87	235.04
772.20	234.92
772.52	234.95
772.85	234.96
773.17	234.89
773.50	234.76
773.82	234.65
774.15	234.52
774.47	234.39
774.80	234.28
775.12	234.21
775.45	234.19
775.77	234.10
776.09	234.03
776.42	233.97
776.74	233.91
777.07	233.81
777.39	233.77
777.72	233.65
778.04	233.61
778.36	233.53
778.69	233.46
779.01	233.41
779.33	233.23
779.66	233.05
779.98	232.99
780.31	232.95
780.63	232.92
780.95	232.86
781.28	232.81
781.60	232.76
781.92	232.65
782.25	232.56
782.57	232.51
782.89	232.43
783.22	232.35
783.54	232.28
783.86	232.29
784.19	232.23
784.51	232.25
784.83	232.14
785.16	232.10
785.48	232.05
785.80	232.02
786.12	231.98
786.45	231.93
786.77	231.86
787.09	231.82
