SpectraSuite Data File
++++++++++++++++++++++++++++++++++++
Date: Fri Feb 01 15:13:20 EST 2013
User: group
Dark Spectrum Present: No
Reference Spectrum Present: No
Number of Sampled Component Spectra: 1
Spectrometers: USB2E7196
Integration Time (usec): 35000 (USB2E7196)
Spectra Averaged: 100 (USB2E7196)
Boxcar Smoothing: 10 (USB2E7196)
Correct for Electrical Dark: No (USB2E7196)
Strobe/Lamp Enabled: No (USB2E7196)
Correct for Detector Non-linearity: No (USB2E7196)
Correct for Stray Light: No (USB2E7196)
Number of Pixels in Processed Spectrum: 2048
>>>>>Begin Processed Spectral Data<<<<<
339.09	0.00
339.48	215.25
339.86	216.96
340.24	217.80
340.63	218.72
341.01	222.78
341.39	222.06
341.78	223.23
342.16	224.84
342.54	225.47
342.93	213.54
343.31	224.33
343.69	224.87
344.07	225.32
344.46	225.75
344.84	226.16
345.22	226.36
345.60	226.63
345.99	226.81
346.37	226.90
346.75	226.99
347.13	227.09
347.52	227.17
347.90	227.22
348.28	227.24
348.66	227.29
349.05	227.29
349.43	227.32
349.81	227.38
350.19	227.42
350.57	227.44
350.96	227.51
351.34	227.58
351.72	227.67
352.10	227.73
352.48	227.80
352.87	227.86
353.25	227.94
353.63	227.97
354.01	228.04
354.39	228.13
354.77	228.17
355.15	228.25
355.54	228.28
355.92	228.35
356.30	228.43
356.68	228.52
357.06	228.58
357.44	228.63
357.82	228.67
358.20	228.74
358.58	228.79
358.97	228.84
359.35	228.91
359.73	228.96
360.11	229.04
360.49	229.11
360.87	229.13
361.25	229.17
361.63	229.27
362.01	229.34
362.39	229.39
362.77	229.46
363.15	229.48
363.53	229.51
363.91	229.54
364.29	229.54
364.67	229.46
365.05	229.47
365.43	229.49
365.81	229.50
366.19	229.52
366.57	229.57
366.95	229.56
367.33	229.54
367.71	229.56
368.09	229.54
368.47	229.50
368.85	229.50
369.23	229.50
369.61	229.38
369.99	229.38
370.37	229.34
370.75	229.37
371.13	229.31
371.51	229.25
371.89	229.20
372.27	229.17
372.65	229.16
373.03	229.10
373.41	229.06
373.78	228.99
374.16	228.91
374.54	228.81
374.92	228.73
375.30	228.65
375.68	228.53
376.06	228.45
376.44	228.39
376.82	228.28
377.19	228.20
377.57	228.15
377.95	228.03
378.33	227.96
378.71	227.80
379.09	227.74
379.47	227.66
379.84	227.57
380.22	227.50
380.60	227.40
380.98	227.33
381.36	227.21
381.73	227.15
382.11	227.11
382.49	227.04
382.87	226.98
383.25	226.94
383.62	227.02
384.00	226.98
384.38	226.94
384.76	226.94
385.13	226.91
385.51	226.87
385.89	226.82
386.27	226.78
386.64	226.75
387.02	226.73
387.40	226.67
387.78	226.63
388.15	226.57
388.53	226.53
388.91	226.47
389.29	226.47
389.66	226.44
390.04	226.36
390.42	226.32
390.79	226.31
391.17	226.27
391.55	226.16
391.92	226.13
392.30	226.11
392.68	226.08
393.05	226.06
393.43	226.05
393.81	226.07
394.18	226.01
394.56	226.05
394.94	226.08
395.31	226.09
395.69	226.14
396.06	226.19
396.44	226.26
396.82	226.32
397.19	226.42
397.57	226.46
397.95	226.57
398.32	226.62
398.70	226.69
399.07	226.81
399.45	226.86
399.82	226.94
400.20	227.03
400.58	227.11
400.95	227.18
401.33	227.28
401.70	227.44
402.08	227.57
402.45	227.64
402.83	227.77
403.20	227.90
403.58	228.02
403.95	228.15
404.33	228.28
404.71	228.42
405.08	228.59
405.46	228.75
405.83	228.89
406.21	229.06
406.58	229.23
406.96	229.38
407.33	229.57
407.70	229.75
408.08	230.02
408.45	230.26
408.83	230.52
409.20	230.76
409.58	230.91
409.95	231.21
410.33	231.52
410.70	231.74
411.08	232.05
411.45	232.35
411.82	232.67
412.20	233.03
412.57	233.46
412.95	233.78
413.32	234.21
413.69	234.68
414.07	235.13
414.44	235.58
414.82	236.08
415.19	236.61
415.56	237.17
415.94	237.71
416.31	238.33
416.68	238.96
417.06	239.67
417.43	240.38
417.81	241.12
418.18	241.86
418.55	242.73
418.93	243.60
419.30	244.51
419.67	245.45
420.04	246.38
420.42	247.36
420.79	248.53
421.16	249.68
421.54	250.84
421.91	252.06
422.28	253.34
422.66	254.65
423.03	255.98
423.40	257.34
423.77	258.74
424.15	260.17
424.52	261.63
424.89	263.25
425.26	264.78
425.64	266.21
426.01	267.84
426.38	269.49
426.75	271.16
427.13	272.85
427.50	274.67
427.87	276.58
428.24	278.46
428.61	280.18
428.99	282.07
429.36	284.17
429.73	286.24
430.10	288.26
430.47	290.30
430.85	292.40
431.22	294.63
431.59	297.06
431.96	299.31
432.33	301.83
432.70	304.20
433.08	307.05
433.45	309.71
433.82	312.32
434.19	315.22
434.56	318.07
434.93	320.73
435.30	323.34
435.68	326.21
436.05	329.04
436.42	331.83
436.79	334.37
437.16	337.07
437.53	339.94
437.90	342.77
438.27	345.54
438.64	348.40
439.01	351.01
439.38	353.23
439.75	355.39
440.13	357.87
440.50	360.20
440.87	362.10
441.24	364.07
441.61	366.24
441.98	367.75
442.35	369.55
442.72	371.43
443.09	373.18
443.46	374.14
443.83	374.75
444.20	375.30
444.57	376.15
444.94	376.45
445.31	376.73
445.68	377.05
446.05	377.14
446.42	376.74
446.79	376.31
447.16	375.83
447.53	375.49
447.90	374.35
448.27	373.16
448.64	371.53
449.01	370.35
449.37	368.33
449.74	366.42
450.11	364.13
450.48	361.64
450.85	359.14
451.22	357.04
451.59	354.97
451.96	353.02
452.33	350.41
452.70	348.01
453.07	345.19
453.43	342.29
453.80	339.50
454.17	336.81
454.54	334.25
454.91	331.56
455.28	328.89
455.65	326.35
456.02	323.91
456.38	321.71
456.75	319.06
457.12	316.85
457.49	314.62
457.86	312.43
458.23	310.60
458.59	308.58
458.96	306.50
459.33	304.64
459.70	302.79
460.07	301.27
460.43	299.62
460.80	298.00
461.17	296.55
461.54	295.09
461.91	293.72
462.27	292.32
462.64	291.07
463.01	289.73
463.38	288.46
463.74	287.10
464.11	285.98
464.48	284.99
464.85	283.83
465.21	282.96
465.58	282.07
465.95	280.96
466.32	280.07
466.68	279.13
467.05	278.25
467.42	277.38
467.78	276.47
468.15	275.55
468.52	274.90
468.88	273.98
469.25	273.22
469.62	272.53
469.98	271.83
470.35	271.18
470.72	270.54
471.08	269.90
471.45	269.38
471.82	268.84
472.18	268.20
472.55	267.77
472.92	267.25
473.28	266.78
473.65	266.31
474.02	265.85
474.38	265.50
474.75	265.16
475.11	264.75
475.48	264.47
475.85	264.23
476.21	263.94
476.58	263.83
476.94	263.64
477.31	263.44
477.67	263.27
478.04	263.10
478.41	263.04
478.77	263.07
479.14	262.98
479.50	262.95
479.87	263.03
480.23	263.11
480.60	263.17
480.96	263.25
481.33	263.45
481.69	263.62
482.06	263.81
482.42	264.01
482.79	264.25
483.15	264.59
483.52	264.96
483.88	265.29
484.25	265.59
484.61	265.98
484.98	266.49
485.34	267.05
485.71	267.66
486.07	268.28
486.44	268.82
486.80	269.53
487.17	270.26
487.53	271.10
487.90	271.98
488.26	272.90
488.62	273.87
488.99	274.83
489.35	275.87
489.72	276.98
490.08	278.17
490.44	279.41
490.81	280.69
491.17	282.05
491.54	283.57
491.90	285.14
492.26	286.82
492.63	288.55
492.99	290.33
493.36	292.24
493.72	294.26
494.08	296.35
494.45	298.60
494.81	300.94
495.17	303.32
495.54	305.79
495.90	308.45
496.26	311.23
496.63	314.20
496.99	317.29
497.35	320.55
497.72	323.96
498.08	327.48
498.44	331.17
498.80	335.04
499.17	339.05
499.53	343.27
499.89	347.60
500.26	352.12
500.62	356.78
500.98	361.69
501.34	366.75
501.71	372.08
502.07	377.49
502.43	383.11
502.79	388.94
503.16	395.02
503.52	401.26
503.88	407.66
504.24	414.32
504.60	421.25
504.97	428.37
505.33	435.72
505.69	443.42
506.05	451.19
506.41	459.16
506.78	467.32
507.14	475.66
507.50	484.41
507.86	493.34
508.22	502.56
508.59	511.79
508.95	521.42
509.31	531.24
509.67	541.36
510.03	551.64
510.39	562.19
510.75	573.04
511.12	583.97
511.48	595.32
511.84	606.70
512.20	618.23
512.56	630.12
512.92	642.30
513.28	654.67
513.64	667.12
514.00	679.81
514.37	692.74
514.73	705.92
515.09	719.00
515.45	732.34
515.81	745.90
516.17	759.96
516.53	774.06
516.89	788.24
517.25	802.48
517.61	816.92
517.97	831.39
518.33	845.89
518.69	860.80
519.05	875.81
519.41	891.00
519.77	906.63
520.13	922.20
520.49	937.55
520.85	952.84
521.21	968.63
521.57	984.87
521.93	1000.74
522.29	1017.14
522.65	1033.42
523.01	1049.69
523.37	1065.82
523.73	1082.01
524.09	1098.13
524.45	1114.53
524.81	1131.14
525.17	1148.08
525.53	1165.15
525.89	1182.02
526.25	1198.83
526.61	1215.21
526.97	1232.02
527.33	1248.45
527.68	1265.10
528.04	1281.69
528.40	1298.60
528.76	1315.75
529.12	1332.47
529.48	1349.32
529.84	1365.40
530.20	1382.09
530.56	1399.15
530.91	1416.51
531.27	1433.34
531.63	1449.91
531.99	1466.46
532.35	1482.56
532.71	1498.43
533.07	1514.69
533.42	1530.65
533.78	1546.82
534.14	1563.27
534.50	1578.70
534.86	1594.75
535.21	1609.91
535.57	1625.96
535.93	1641.44
536.29	1656.20
536.65	1671.38
537.00	1686.43
537.36	1701.84
537.72	1716.51
538.08	1730.96
538.44	1744.90
538.79	1758.87
539.15	1772.78
539.51	1786.69
539.87	1801.09
540.22	1814.99
540.58	1828.90
540.94	1842.45
541.29	1855.53
541.65	1868.25
542.01	1881.69
542.37	1894.06
542.72	1906.59
543.08	1918.45
543.44	1930.94
543.79	1942.38
544.15	1953.39
544.51	1964.93
544.87	1975.95
545.22	1986.74
545.58	1997.09
545.94	2006.88
546.29	2016.92
546.65	2026.71
547.01	2036.06
547.36	2044.80
547.72	2053.39
548.07	2061.17
548.43	2069.30
548.79	2077.34
549.14	2084.98
549.50	2092.20
549.86	2099.85
550.21	2107.28
550.57	2114.47
550.92	2121.11
551.28	2128.14
551.64	2135.24
551.99	2141.85
552.35	2147.99
552.70	2154.13
553.06	2160.04
553.41	2166.45
553.77	2172.50
554.13	2178.57
554.48	2184.55
554.84	2189.91
555.19	2195.19
555.55	2200.32
555.90	2204.79
556.26	2209.55
556.61	2214.16
556.97	2218.43
557.32	2222.59
557.68	2226.73
558.03	2230.99
558.39	2234.64
558.74	2239.23
559.10	2243.02
559.45	2246.68
559.81	2251.13
560.16	2254.99
560.52	2258.36
560.87	2261.56
561.23	2264.08
561.58	2267.10
561.94	2269.65
562.29	2272.24
562.64	2274.81
563.00	2277.45
563.35	2280.95
563.71	2283.97
564.06	2287.09
564.42	2289.81
564.77	2292.20
565.12	2294.38
565.48	2296.08
565.83	2297.69
566.19	2298.93
566.54	2299.79
566.89	2300.76
567.25	2301.13
567.60	2302.49
567.96	2303.92
568.31	2304.85
568.66	2305.79
569.02	2306.15
569.37	2306.34
569.72	2306.94
570.08	2306.83
570.43	2306.79
570.78	2306.10
571.14	2304.55
571.49	2303.25
571.84	2303.00
572.20	2301.78
572.55	2300.56
572.90	2299.13
573.26	2297.81
573.61	2296.12
573.96	2294.27
574.31	2290.99
574.67	2287.77
575.02	2283.80
575.37	2280.31
575.72	2276.48
576.08	2273.12
576.43	2269.74
576.78	2266.03
577.13	2262.82
577.49	2259.90
577.84	2256.18
578.19	2252.38
578.54	2248.62
578.90	2244.19
579.25	2238.45
579.60	2233.43
579.95	2228.35
580.30	2223.16
580.66	2218.01
581.01	2212.86
581.36	2207.80
581.71	2203.66
582.06	2199.20
582.42	2194.83
582.77	2189.61
583.12	2184.92
583.47	2179.94
583.82	2174.71
584.17	2169.52
584.53	2163.88
584.88	2158.01
585.23	2152.16
585.58	2146.55
585.93	2141.02
586.28	2136.28
586.63	2131.11
586.98	2125.85
587.34	2121.06
587.69	2116.09
588.04	2110.74
588.39	2104.98
588.74	2098.50
589.09	2092.26
589.44	2085.42
589.79	2079.21
590.14	2073.53
590.49	2066.86
590.84	2060.57
591.19	2054.49
591.54	2047.77
591.89	2040.07
592.25	2033.19
592.60	2025.94
592.95	2018.22
593.30	2010.76
593.65	2002.99
594.00	1996.02
594.35	1988.73
594.70	1980.67
595.05	1973.12
595.40	1965.67
595.75	1958.16
596.10	1951.69
596.45	1944.82
596.80	1938.58
597.15	1931.84
597.50	1924.43
597.85	1917.87
598.19	1911.05
598.54	1903.94
598.89	1897.37
599.24	1891.63
599.59	1884.76
599.94	1878.55
600.29	1872.26
600.64	1865.68
600.99	1858.18
601.34	1851.15
601.69	1844.12
602.04	1837.19
602.39	1829.96
602.74	1823.06
603.08	1816.29
603.43	1809.52
603.78	1802.28
604.13	1794.87
604.48	1787.48
604.83	1780.85
605.18	1773.82
605.53	1765.82
605.87	1757.77
606.22	1750.47
606.57	1742.48
606.92	1735.23
607.27	1727.99
607.62	1720.93
607.96	1713.55
608.31	1706.92
608.66	1699.27
609.01	1691.79
609.36	1684.15
609.70	1676.08
610.05	1667.97
610.40	1660.23
610.75	1652.12
611.10	1644.45
611.44	1636.13
611.79	1628.27
612.14	1619.50
612.49	1610.45
612.83	1602.10
613.18	1594.03
613.53	1585.87
613.88	1577.28
614.22	1569.09
614.57	1560.51
614.92	1552.43
615.27	1544.75
615.61	1536.40
615.96	1528.43
616.31	1520.88
616.65	1513.56
617.00	1506.09
617.35	1498.51
617.70	1490.13
618.04	1481.51
618.39	1473.19
618.74	1465.61
619.08	1457.29
619.43	1449.74
619.78	1442.83
620.12	1435.68
620.47	1428.11
620.82	1420.06
621.16	1412.83
621.51	1405.16
621.85	1397.60
622.20	1389.11
622.55	1380.88
622.89	1373.15
623.24	1365.59
623.59	1358.14
623.93	1350.61
624.28	1343.36
624.62	1335.82
624.97	1328.64
625.32	1321.81
625.66	1314.85
626.01	1307.68
626.35	1300.20
626.70	1292.50
627.04	1284.71
627.39	1276.95
627.73	1269.49
628.08	1262.57
628.43	1255.18
628.77	1247.79
629.12	1240.10
629.46	1232.95
629.81	1225.64
630.15	1218.41
630.50	1211.01
630.84	1202.79
631.19	1194.90
631.53	1187.52
631.88	1179.99
632.22	1172.45
632.57	1165.24
632.91	1157.81
633.26	1150.45
633.60	1143.10
633.95	1135.97
634.29	1128.99
634.64	1122.27
634.98	1114.99
635.32	1107.80
635.67	1101.27
636.01	1094.69
636.36	1088.04
636.70	1081.66
637.05	1075.08
637.39	1068.60
637.73	1062.06
638.08	1056.23
638.42	1050.28
638.77	1043.73
639.11	1037.13
639.45	1030.70
639.80	1024.14
640.14	1017.59
640.49	1011.09
640.83	1004.74
641.17	998.51
641.52	992.15
641.86	985.80
642.20	979.92
642.55	973.64
642.89	967.10
643.23	960.64
643.58	954.75
643.92	948.46
644.26	942.34
644.61	936.34
644.95	930.32
645.29	923.71
645.64	916.95
645.98	910.63
646.32	904.80
646.66	898.88
647.01	893.07
647.35	887.43
647.69	881.64
648.04	876.19
648.38	870.41
648.72	864.47
649.06	858.35
649.41	852.54
649.75	846.46
650.09	840.56
650.43	834.68
650.78	828.57
651.12	822.60
651.46	816.87
651.80	811.11
652.14	805.74
652.49	800.33
652.83	795.13
653.17	789.48
653.51	783.72
653.85	778.27
654.20	772.53
654.54	766.57
654.88	760.87
655.22	755.07
655.56	749.44
655.90	744.01
656.25	738.80
656.59	733.44
656.93	728.44
657.27	723.35
657.61	717.96
657.95	712.93
658.29	707.87
658.64	702.74
658.98	697.49
659.32	692.11
659.66	686.92
660.00	681.63
660.34	676.65
660.68	671.79
661.02	666.74
661.36	662.13
661.70	657.62
662.05	653.20
662.39	648.86
662.73	644.38
663.07	640.02
663.41	635.57
663.75	631.12
664.09	626.63
664.43	622.21
664.77	618.11
665.11	613.88
665.45	609.85
665.79	605.71
666.13	601.57
666.47	597.48
666.81	593.36
667.15	589.24
667.49	585.38
667.83	581.62
668.17	577.78
668.51	573.64
668.85	569.64
669.19	565.81
669.53	561.93
669.87	558.06
670.21	554.37
670.55	550.72
670.89	547.29
671.23	543.82
671.57	540.29
671.91	536.80
672.25	533.30
672.58	529.77
672.92	526.47
673.26	523.39
673.60	520.25
673.94	517.17
674.28	514.34
674.62	511.41
674.96	508.31
675.30	505.40
675.64	502.51
675.97	499.83
676.31	497.00
676.65	494.11
676.99	491.43
677.33	488.55
677.67	485.73
678.01	482.71
678.34	479.69
678.68	476.85
679.02	473.96
679.36	471.28
679.70	468.63
680.04	465.78
680.37	462.83
680.71	460.03
681.05	457.41
681.39	454.62
681.73	451.99
682.06	449.44
682.40	446.89
682.74	444.43
683.08	441.85
683.42	439.23
683.75	436.73
684.09	434.17
684.43	431.73
684.77	429.26
685.10	426.92
685.44	424.67
685.78	422.36
686.12	420.16
686.45	417.79
686.79	415.42
687.13	413.19
687.46	411.05
687.80	408.83
688.14	406.64
688.48	404.62
688.81	402.34
689.15	400.21
689.49	398.05
689.82	395.91
690.16	393.82
690.50	391.86
690.83	389.95
691.17	387.99
691.51	386.11
691.84	384.30
692.18	382.41
692.52	380.45
692.85	378.60
693.19	376.73
693.52	374.91
693.86	373.15
694.20	371.41
694.53	369.62
694.87	367.82
695.21	366.03
695.54	364.20
695.88	362.57
696.21	360.86
696.55	359.21
696.88	357.56
697.22	355.94
697.56	354.34
697.89	352.67
698.23	351.07
698.56	349.44
698.90	347.87
699.23	346.19
699.57	344.63
699.90	343.07
700.24	341.52
700.58	339.98
700.91	338.49
701.25	337.10
701.58	335.74
701.92	334.43
702.25	333.06
702.59	331.76
702.92	330.42
703.26	329.10
703.59	327.81
703.93	326.64
704.26	325.40
704.60	324.12
704.93	322.85
705.26	321.62
705.60	320.45
705.93	319.32
706.27	318.34
706.60	317.30
706.94	316.23
707.27	315.13
707.61	314.10
707.94	313.09
708.27	311.97
708.61	310.92
708.94	309.91
709.28	308.94
709.61	307.94
709.94	306.98
710.28	305.96
710.61	305.00
710.95	303.91
711.28	302.98
711.61	301.97
711.95	301.06
712.28	300.13
712.61	299.16
712.95	298.22
713.28	297.29
713.61	296.39
713.95	295.47
714.28	294.60
714.61	293.75
714.95	292.87
715.28	292.01
715.61	291.15
715.95	290.33
716.28	289.47
716.61	288.67
716.95	287.85
717.28	287.13
717.61	286.35
717.94	285.64
718.28	284.84
718.61	284.16
718.94	283.47
719.27	282.77
719.61	282.12
719.94	281.42
720.27	280.74
720.60	280.09
720.94	279.47
721.27	278.91
721.60	278.36
721.93	277.75
722.27	277.21
722.60	276.62
722.93	276.01
723.26	275.48
723.59	274.89
723.93	274.41
724.26	273.84
724.59	273.27
724.92	272.74
725.25	272.26
725.59	271.75
725.92	271.27
726.25	270.79
726.58	270.31
726.91	269.83
727.24	269.36
727.57	268.85
727.91	268.36
728.24	267.87
728.57	267.34
728.90	266.89
729.23	266.40
729.56	265.94
729.89	265.51
730.22	265.05
730.55	264.61
730.89	264.10
731.22	263.65
731.55	263.25
731.88	262.83
732.21	262.41
732.54	261.98
732.87	261.53
733.20	261.13
733.53	260.73
733.86	260.38
734.19	259.98
734.52	259.65
734.85	259.35
735.18	258.97
735.51	258.63
735.84	258.23
736.17	257.86
736.50	257.47
736.83	257.25
737.16	256.92
737.49	256.57
737.82	256.22
738.15	255.91
738.48	255.57
738.81	255.24
739.14	254.89
739.47	254.56
739.80	254.29
740.13	254.01
740.46	253.68
740.79	253.35
741.12	253.06
741.45	252.74
741.78	252.38
742.11	252.08
742.44	251.76
742.77	251.53
743.10	251.25
743.43	250.98
743.75	250.58
744.08	250.44
744.41	250.17
744.74	249.92
745.07	249.61
745.40	249.34
745.73	249.11
746.06	248.85
746.39	248.57
746.71	248.29
747.04	247.98
747.37	247.74
747.70	247.49
748.03	247.25
748.36	247.04
748.68	246.73
749.01	246.49
749.34	246.27
749.67	246.02
750.00	245.79
750.33	245.63
750.65	245.41
750.98	245.05
751.31	244.83
751.64	244.65
751.97	244.53
752.29	244.32
752.62	244.05
752.95	243.83
753.28	243.63
753.60	243.40
753.93	243.23
754.26	243.04
754.59	242.83
754.91	242.62
755.24	242.38
755.57	242.25
755.90	242.06
756.22	241.85
756.55	241.64
756.88	241.45
757.20	241.20
757.53	240.99
757.86	240.80
758.19	240.65
758.51	240.46
758.84	240.25
759.17	240.09
759.49	239.94
759.82	239.83
760.15	239.69
760.47	239.53
760.80	239.37
761.13	239.23
761.45	239.08
761.78	238.94
762.11	238.81
762.43	238.67
762.76	238.54
763.08	238.42
763.41	238.28
763.74	238.14
764.06	238.00
764.39	237.88
764.71	237.77
765.04	237.62
765.37	237.49
765.69	237.36
766.02	237.25
766.34	237.13
766.67	236.98
767.00	236.88
767.32	236.84
767.65	236.75
767.97	236.61
768.30	236.53
768.62	236.40
768.95	236.30
769.27	236.17
769.60	236.09
769.92	235.94
770.25	235.83
770.57	235.72
770.90	235.64
771.22	235.52
771.55	235.41
771.87	235.34
772.20	235.23
772.52	235.24
772.85	235.25
773.17	235.16
773.50	235.05
773.82	234.93
774.15	234.77
774.47	234.66
774.80	234.56
775.12	234.45
775.45	234.39
775.77	234.28
776.09	234.20
776.42	234.11
776.74	234.08
777.07	233.98
777.39	233.91
777.72	233.81
778.04	233.78
778.36	233.73
778.69	233.66
779.01	233.60
779.33	233.42
779.66	233.23
779.98	233.13
780.31	233.05
780.63	233.04
780.95	233.03
781.28	232.94
781.60	232.85
781.92	232.74
782.25	232.68
782.57	232.64
782.89	232.59
783.22	232.51
783.54	232.44
783.86	232.39
784.19	232.33
784.51	232.33
784.83	232.25
785.16	232.17
785.48	232.09
785.80	232.03
786.12	231.97
786.45	231.94
786.77	231.90
787.09	231.88
