SpectraSuite Data File
++++++++++++++++++++++++++++++++++++
Date: Fri Feb 01 16:58:46 EST 2013
User: group
Dark Spectrum Present: No
Reference Spectrum Present: No
Number of Sampled Component Spectra: 1
Spectrometers: USB2E7196
Integration Time (usec): 35000 (USB2E7196)
Spectra Averaged: 100 (USB2E7196)
Boxcar Smoothing: 10 (USB2E7196)
Correct for Electrical Dark: No (USB2E7196)
Strobe/Lamp Enabled: No (USB2E7196)
Correct for Detector Non-linearity: No (USB2E7196)
Correct for Stray Light: No (USB2E7196)
Number of Pixels in Processed Spectrum: 2048
>>>>>Begin Processed Spectral Data<<<<<
339.09	0.00
339.48	213.36
339.86	214.57
340.24	216.05
340.63	217.34
341.01	220.53
341.39	220.37
341.78	221.62
342.16	223.04
342.54	223.53
342.93	211.75
343.31	222.46
343.69	222.99
344.07	223.50
344.46	223.94
344.84	224.33
345.22	224.57
345.60	224.81
345.99	225.00
346.37	225.10
346.75	225.20
347.13	225.29
347.52	225.32
347.90	225.39
348.28	225.43
348.66	225.51
349.05	225.49
349.43	225.55
349.81	225.59
350.19	225.64
350.57	225.67
350.96	225.72
351.34	225.80
351.72	225.88
352.10	225.96
352.48	226.03
352.87	226.09
353.25	226.13
353.63	226.20
354.01	226.26
354.39	226.35
354.77	226.40
355.15	226.46
355.54	226.54
355.92	226.58
356.30	226.63
356.68	226.74
357.06	226.84
357.44	226.84
357.82	226.90
358.20	227.00
358.58	227.07
358.97	227.13
359.35	227.20
359.73	227.28
360.11	227.31
360.49	227.33
360.87	227.38
361.25	227.43
361.63	227.52
362.01	227.57
362.39	227.63
362.77	227.69
363.15	227.75
363.53	227.75
363.91	227.78
364.29	227.79
364.67	227.71
365.05	227.73
365.43	227.78
365.81	227.85
366.19	227.85
366.57	227.91
366.95	227.92
367.33	227.88
367.71	227.88
368.09	227.91
368.47	227.92
368.85	227.93
369.23	227.91
369.61	227.84
369.99	227.83
370.37	227.78
370.75	227.78
371.13	227.70
371.51	227.68
371.89	227.65
372.27	227.65
372.65	227.61
373.03	227.58
373.41	227.53
373.78	227.45
374.16	227.35
374.54	227.26
374.92	227.22
375.30	227.20
375.68	227.09
376.06	227.02
376.44	226.99
376.82	226.91
377.19	226.88
377.57	226.82
377.95	226.75
378.33	226.71
378.71	226.59
379.09	226.57
379.47	226.51
379.84	226.42
380.22	226.35
380.60	226.27
380.98	226.16
381.36	226.14
381.73	226.04
382.11	226.01
382.49	225.94
382.87	225.87
383.25	225.80
383.62	225.88
384.00	225.79
384.38	225.70
384.76	225.67
385.13	225.63
385.51	225.60
385.89	225.51
386.27	225.47
386.64	225.42
387.02	225.37
387.40	225.31
387.78	225.26
388.15	225.19
388.53	225.15
388.91	225.12
389.29	225.06
389.66	225.05
390.04	225.03
390.42	225.04
390.79	224.98
391.17	224.94
391.55	224.83
391.92	224.84
392.30	224.87
392.68	224.81
393.05	224.80
393.43	224.79
393.81	224.79
394.18	224.77
394.56	224.80
394.94	224.84
395.31	224.86
395.69	224.91
396.06	224.95
396.44	224.99
396.82	224.99
397.19	225.03
397.57	225.09
397.95	225.11
398.32	225.11
398.70	225.18
399.07	225.26
399.45	225.30
399.82	225.35
400.20	225.34
400.58	225.41
400.95	225.43
401.33	225.49
401.70	225.64
402.08	225.69
402.45	225.74
402.83	225.83
403.20	225.90
403.58	225.98
403.95	226.08
404.33	226.20
404.71	226.33
405.08	226.48
405.46	226.56
405.83	226.72
406.21	226.86
406.58	226.99
406.96	227.13
407.33	227.29
407.70	227.48
408.08	227.74
408.45	227.97
408.83	228.18
409.20	228.40
409.58	228.56
409.95	228.84
410.33	229.12
410.70	229.36
411.08	229.66
411.45	229.97
411.82	230.26
412.20	230.61
412.57	231.05
412.95	231.34
413.32	231.76
413.69	232.16
414.07	232.59
414.44	233.05
414.82	233.52
415.19	234.05
415.56	234.57
415.94	235.12
416.31	235.75
416.68	236.38
417.06	237.07
417.43	237.76
417.81	238.52
418.18	239.33
418.55	240.19
418.93	241.05
419.30	241.95
419.67	242.90
420.04	243.84
420.42	244.81
420.79	246.01
421.16	247.21
421.54	248.41
421.91	249.65
422.28	250.93
422.66	252.27
423.03	253.60
423.40	254.90
423.77	256.30
424.15	257.72
424.52	259.23
424.89	260.87
425.26	262.41
425.64	263.86
426.01	265.43
426.38	267.05
426.75	268.73
427.13	270.48
427.50	272.31
427.87	274.21
428.24	276.10
428.61	277.84
428.99	279.74
429.36	281.81
429.73	283.87
430.10	285.88
430.47	287.94
430.85	290.06
431.22	292.34
431.59	294.74
431.96	296.97
432.33	299.41
432.70	301.78
433.08	304.61
433.45	307.23
433.82	309.79
434.19	312.67
434.56	315.44
434.93	318.05
435.30	320.63
435.68	323.52
436.05	326.32
436.42	329.09
436.79	331.58
437.16	334.28
437.53	337.06
437.90	339.85
438.27	342.55
438.64	345.33
439.01	347.88
439.38	350.12
439.75	352.27
440.13	354.78
440.50	357.10
440.87	358.92
441.24	360.86
441.61	363.01
441.98	364.51
442.35	366.35
442.72	368.20
443.09	369.98
443.46	370.93
443.83	371.52
444.20	372.03
444.57	372.86
444.94	373.14
445.31	373.51
445.68	373.88
446.05	374.00
446.42	373.63
446.79	373.23
447.16	372.78
447.53	372.47
447.90	371.30
448.27	370.13
448.64	368.56
449.01	367.46
449.37	365.52
449.74	363.58
450.11	361.34
450.48	358.91
450.85	356.41
451.22	354.27
451.59	352.24
451.96	350.33
452.33	347.73
452.70	345.39
453.07	342.57
453.43	339.67
453.80	336.94
454.17	334.26
454.54	331.73
454.91	329.05
455.28	326.42
455.65	323.94
456.02	321.53
456.38	319.40
456.75	316.74
457.12	314.47
457.49	312.32
457.86	310.10
458.23	308.26
458.59	306.23
458.96	304.19
459.33	302.38
459.70	300.51
460.07	299.07
460.43	297.39
460.80	295.76
461.17	294.36
461.54	292.84
461.91	291.47
462.27	290.03
462.64	288.75
463.01	287.42
463.38	286.15
463.74	284.79
464.11	283.67
464.48	282.65
464.85	281.56
465.21	280.71
465.58	279.85
465.95	278.75
466.32	277.88
466.68	276.99
467.05	276.10
467.42	275.24
467.78	274.31
468.15	273.45
468.52	272.79
468.88	271.95
469.25	271.18
469.62	270.57
469.98	269.93
470.35	269.30
470.72	268.72
471.08	268.09
471.45	267.56
471.82	266.98
472.18	266.40
472.55	266.01
472.92	265.52
473.28	265.09
473.65	264.69
474.02	264.27
474.38	263.92
474.75	263.59
475.11	263.24
475.48	262.99
475.85	262.77
476.21	262.57
476.58	262.42
476.94	262.27
477.31	262.11
477.67	261.94
478.04	261.87
478.41	261.82
478.77	261.86
479.14	261.83
479.50	261.87
479.87	261.96
480.23	262.02
480.60	262.07
480.96	262.19
481.33	262.38
481.69	262.57
482.06	262.80
482.42	263.01
482.79	263.31
483.15	263.66
483.52	264.01
483.88	264.35
484.25	264.74
484.61	265.21
484.98	265.68
485.34	266.27
485.71	266.87
486.07	267.48
486.44	268.00
486.80	268.68
487.17	269.37
487.53	270.16
487.90	271.00
488.26	271.97
488.62	272.88
488.99	273.86
489.35	274.89
489.72	276.03
490.08	277.24
490.44	278.40
490.81	279.69
491.17	281.02
491.54	282.51
491.90	284.05
492.26	285.67
492.63	287.38
492.99	289.13
493.36	290.98
493.72	292.98
494.08	295.09
494.45	297.32
494.81	299.72
495.17	302.17
495.54	304.73
495.90	307.36
496.26	310.20
496.63	313.15
496.99	316.28
497.35	319.48
497.72	322.87
498.08	326.37
498.44	330.04
498.80	333.99
499.17	338.06
499.53	342.17
499.89	346.52
500.26	350.99
500.62	355.63
500.98	360.62
501.34	365.66
501.71	370.94
502.07	376.37
502.43	381.96
502.79	387.68
503.16	393.71
503.52	399.92
503.88	406.28
504.24	412.85
504.60	419.66
504.97	426.66
505.33	433.85
505.69	441.55
506.05	449.28
506.41	457.00
506.78	465.04
507.14	473.43
507.50	482.05
507.86	491.00
508.22	500.13
508.59	509.24
508.95	518.73
509.31	528.50
509.67	538.55
510.03	548.70
510.39	559.18
510.75	569.86
511.12	580.59
511.48	591.71
511.84	603.07
512.20	614.48
512.56	626.40
512.92	638.49
513.28	650.72
513.64	663.00
514.00	675.72
514.37	688.53
514.73	701.40
515.09	714.27
515.45	727.34
515.81	740.75
516.17	754.49
516.53	768.40
516.89	782.35
517.25	796.21
517.61	810.41
517.97	824.63
518.33	838.87
518.69	853.44
519.05	868.18
519.41	883.09
519.77	898.37
520.13	913.54
520.49	928.60
520.85	943.71
521.21	959.12
521.57	974.91
521.93	990.35
522.29	1006.45
522.65	1022.41
523.01	1038.33
523.37	1054.03
523.73	1069.98
524.09	1085.79
524.45	1101.78
524.81	1118.11
525.17	1134.48
525.53	1151.13
525.89	1167.72
526.25	1184.34
526.61	1200.49
526.97	1216.89
527.33	1233.01
527.68	1249.31
528.04	1265.58
528.40	1281.78
528.76	1298.60
529.12	1314.88
529.48	1331.53
529.84	1347.27
530.20	1363.46
530.56	1380.14
530.91	1397.28
531.27	1413.64
531.63	1429.76
531.99	1446.04
532.35	1461.76
532.71	1477.49
533.07	1493.34
533.42	1508.86
533.78	1524.49
534.14	1540.42
534.50	1555.48
534.86	1570.85
535.21	1585.66
535.57	1601.06
535.93	1616.30
536.29	1630.74
536.65	1645.49
537.00	1659.86
537.36	1674.81
537.72	1689.07
538.08	1703.30
538.44	1716.72
538.79	1730.40
539.15	1743.70
539.51	1757.14
539.87	1771.26
540.22	1784.69
540.58	1798.12
540.94	1811.14
541.29	1823.80
541.65	1836.20
542.01	1849.10
542.37	1861.48
542.72	1873.71
543.08	1885.46
543.44	1897.57
543.79	1908.55
544.15	1919.46
544.51	1930.83
544.87	1941.59
545.22	1952.40
545.58	1962.26
545.94	1971.86
546.29	1981.47
546.65	1991.40
547.01	2000.64
547.36	2008.98
547.72	2017.24
548.07	2025.09
548.43	2033.12
548.79	2040.98
549.14	2048.41
549.50	2055.67
549.86	2063.06
550.21	2070.20
550.57	2077.30
550.92	2083.82
551.28	2090.78
551.64	2097.65
551.99	2104.14
552.35	2110.37
552.70	2116.39
553.06	2122.42
553.41	2128.75
553.77	2134.70
554.13	2140.66
554.48	2146.67
554.84	2152.36
555.19	2157.69
555.55	2162.85
555.90	2167.37
556.26	2172.41
556.61	2177.08
556.97	2181.44
557.32	2185.66
557.68	2189.91
558.03	2194.26
558.39	2197.90
558.74	2202.57
559.10	2206.54
559.45	2210.24
559.81	2214.32
560.16	2218.19
560.52	2221.62
560.87	2225.18
561.23	2228.09
561.58	2231.04
561.94	2233.53
562.29	2235.84
562.64	2238.56
563.00	2241.08
563.35	2244.73
563.71	2247.74
564.06	2250.99
564.42	2253.99
564.77	2256.74
565.12	2259.21
565.48	2261.20
565.83	2263.30
566.19	2264.89
566.54	2265.82
566.89	2267.09
567.25	2268.04
567.60	2269.31
567.96	2271.12
568.31	2271.93
568.66	2273.11
569.02	2273.75
569.37	2274.24
569.72	2275.36
570.08	2275.88
570.43	2276.13
570.78	2275.85
571.14	2274.73
571.49	2273.61
571.84	2273.41
572.20	2272.41
572.55	2271.53
572.90	2270.05
573.26	2268.82
573.61	2267.23
573.96	2265.92
574.31	2263.21
574.67	2260.41
575.02	2257.21
575.37	2253.93
575.72	2250.44
576.08	2247.16
576.43	2244.09
576.78	2240.68
577.13	2237.58
577.49	2234.52
577.84	2231.35
578.19	2227.63
578.54	2224.17
578.90	2220.33
579.25	2214.99
579.60	2210.25
579.95	2205.57
580.30	2200.79
580.66	2195.89
581.01	2191.13
581.36	2186.22
581.71	2182.38
582.06	2178.02
582.42	2173.78
582.77	2168.78
583.12	2164.48
583.47	2160.08
583.82	2155.38
584.17	2150.36
584.53	2145.04
584.88	2139.55
585.23	2133.91
585.58	2128.57
585.93	2123.25
586.28	2118.55
586.63	2113.68
586.98	2108.83
587.34	2104.06
587.69	2099.28
588.04	2094.25
588.39	2088.84
588.74	2082.60
589.09	2076.44
589.44	2070.00
589.79	2064.06
590.14	2058.58
590.49	2052.21
590.84	2045.90
591.19	2039.97
591.54	2033.74
591.89	2026.72
592.25	2020.32
592.60	2013.33
592.95	2006.09
593.30	1998.88
593.65	1991.45
594.00	1984.47
594.35	1977.34
594.70	1969.36
595.05	1962.49
595.40	1955.35
595.75	1947.99
596.10	1942.13
596.45	1935.67
596.80	1929.70
597.15	1923.21
597.50	1916.35
597.85	1909.92
598.19	1903.53
598.54	1896.63
598.89	1890.09
599.24	1884.28
599.59	1877.68
599.94	1871.66
600.29	1865.31
600.64	1858.84
600.99	1851.61
601.34	1844.96
601.69	1838.14
602.04	1831.72
602.39	1824.36
602.74	1817.80
603.08	1811.15
603.43	1804.43
603.78	1797.02
604.13	1789.82
604.48	1782.78
604.83	1776.00
605.18	1769.31
605.53	1761.46
605.87	1753.51
606.22	1746.47
606.57	1738.58
606.92	1731.23
607.27	1724.24
607.62	1717.68
607.96	1710.58
608.31	1704.12
608.66	1696.61
609.01	1689.14
609.36	1681.47
609.70	1673.65
610.05	1665.49
610.40	1657.82
610.75	1649.52
611.10	1642.13
611.44	1633.73
611.79	1625.60
612.14	1617.03
612.49	1607.86
612.83	1599.51
613.18	1591.50
613.53	1583.35
613.88	1575.01
614.22	1566.88
614.57	1558.15
614.92	1549.97
615.27	1542.54
615.61	1534.24
615.96	1526.32
616.31	1518.65
616.65	1511.34
617.00	1503.80
617.35	1496.26
617.70	1488.10
618.04	1479.63
618.39	1471.45
618.74	1463.97
619.08	1455.83
619.43	1448.23
619.78	1441.30
620.12	1434.26
620.47	1426.73
620.82	1418.62
621.16	1411.10
621.51	1403.46
621.85	1395.95
622.20	1387.50
622.55	1379.01
622.89	1371.21
623.24	1363.55
623.59	1356.05
623.93	1348.60
624.28	1341.42
624.62	1333.83
624.97	1326.54
625.32	1319.74
625.66	1312.65
626.01	1305.51
626.35	1298.11
626.70	1290.28
627.04	1282.65
627.39	1274.85
627.73	1267.48
628.08	1260.63
628.43	1253.57
628.77	1246.28
629.12	1238.82
629.46	1231.71
629.81	1224.39
630.15	1217.18
630.50	1209.93
630.84	1201.91
631.19	1193.95
631.53	1186.41
631.88	1179.08
632.22	1171.57
632.57	1164.35
632.91	1156.80
633.26	1149.42
633.60	1142.02
633.95	1135.00
634.29	1127.94
634.64	1121.21
634.98	1113.84
635.32	1106.66
635.67	1099.85
636.01	1093.19
636.36	1086.35
636.70	1079.77
637.05	1073.16
637.39	1066.73
637.73	1060.17
638.08	1054.26
638.42	1048.34
638.77	1041.99
639.11	1035.25
639.45	1028.87
639.80	1022.21
640.14	1015.97
640.49	1009.54
640.83	1003.25
641.17	997.04
641.52	990.68
641.86	984.23
642.20	978.45
642.55	972.14
642.89	965.72
643.23	959.11
643.58	953.38
643.92	947.35
644.26	941.40
644.61	935.31
644.95	929.33
645.29	922.86
645.64	916.13
645.98	909.80
646.32	903.96
646.66	897.97
647.01	892.21
647.35	886.40
647.69	880.45
648.04	874.98
648.38	869.24
648.72	863.36
649.06	857.38
649.41	851.49
649.75	845.62
650.09	839.76
650.43	834.05
650.78	827.86
651.12	821.88
651.46	816.13
651.80	810.41
652.14	804.94
652.49	799.60
652.83	794.49
653.17	788.82
653.51	783.18
653.85	777.77
654.20	772.12
654.54	766.15
654.88	760.41
655.22	754.43
655.56	748.77
655.90	743.32
656.25	738.12
656.59	732.84
656.93	727.78
657.27	722.62
657.61	717.24
657.95	712.21
658.29	707.07
658.64	701.77
658.98	696.47
659.32	691.12
659.66	685.93
660.00	680.69
660.34	675.74
660.68	670.87
661.02	665.88
661.36	661.17
661.70	656.69
662.05	652.38
662.39	648.17
662.73	643.73
663.07	639.39
663.41	634.92
663.75	630.40
664.09	625.78
664.43	621.38
664.77	617.25
665.11	613.03
665.45	608.90
665.79	604.88
666.13	600.81
666.47	596.72
666.81	592.57
667.15	588.38
667.49	584.48
667.83	580.62
668.17	576.68
668.51	572.65
668.85	568.63
669.19	564.77
669.53	560.91
669.87	557.09
670.21	553.33
670.55	549.64
670.89	546.18
671.23	542.75
671.57	539.27
671.91	535.81
672.25	532.28
672.58	528.82
672.92	525.43
673.26	522.24
673.60	519.03
673.94	515.92
674.28	513.03
674.62	510.11
674.96	507.04
675.30	504.15
675.64	501.29
675.97	498.54
676.31	495.74
676.65	492.85
676.99	490.13
677.33	487.26
677.67	484.51
678.01	481.55
678.34	478.60
678.68	475.73
679.02	472.87
679.36	470.08
679.70	467.38
680.04	464.64
680.37	461.79
680.71	459.02
681.05	456.43
681.39	453.69
681.73	450.96
682.06	448.46
682.40	445.88
682.74	443.28
683.08	440.69
683.42	438.00
683.75	435.50
684.09	432.93
684.43	430.47
684.77	428.02
685.10	425.68
685.44	423.38
685.78	421.08
686.12	418.85
686.45	416.60
686.79	414.24
687.13	412.03
687.46	409.83
687.80	407.71
688.14	405.45
688.48	403.43
688.81	401.26
689.15	399.07
689.49	397.00
689.82	394.95
690.16	392.83
690.50	390.90
690.83	389.02
691.17	387.04
691.51	385.19
691.84	383.33
692.18	381.38
692.52	379.47
692.85	377.54
693.19	375.70
693.52	373.87
693.86	372.12
694.20	370.37
694.53	368.65
694.87	366.82
695.21	365.09
695.54	363.22
695.88	361.50
696.21	359.82
696.55	358.09
696.88	356.45
697.22	354.85
697.56	353.26
697.89	351.59
698.23	350.03
698.56	348.44
698.90	346.87
699.23	345.26
699.57	343.69
699.90	342.15
700.24	340.58
700.58	339.03
700.91	337.55
701.25	336.10
701.58	334.73
701.92	333.34
702.25	331.96
702.59	330.62
702.92	329.30
703.26	328.03
703.59	326.77
703.93	325.57
704.26	324.31
704.60	322.99
704.93	321.65
705.26	320.40
705.60	319.20
705.93	318.04
706.27	316.98
706.60	315.94
706.94	314.88
707.27	313.81
707.61	312.75
707.94	311.71
708.27	310.62
708.61	309.51
708.94	308.52
709.28	307.48
709.61	306.52
709.94	305.58
710.28	304.54
710.61	303.53
710.95	302.41
711.28	301.51
711.61	300.59
711.95	299.71
712.28	298.76
712.61	297.76
712.95	296.79
713.28	295.87
713.61	294.92
713.95	294.00
714.28	293.11
714.61	292.25
714.95	291.38
715.28	290.53
715.61	289.62
715.95	288.74
716.28	287.91
716.61	287.05
716.95	286.21
717.28	285.43
717.61	284.66
717.94	283.92
718.28	283.07
718.61	282.32
718.94	281.64
719.27	280.96
719.61	280.30
719.94	279.66
720.27	278.93
720.60	278.26
720.94	277.64
721.27	277.04
721.60	276.47
721.93	275.89
722.27	275.32
722.60	274.78
722.93	274.26
723.26	273.71
723.59	273.17
723.93	272.62
724.26	272.08
724.59	271.51
724.92	271.01
725.25	270.57
725.59	270.01
725.92	269.47
726.25	268.94
726.58	268.45
726.91	267.94
727.24	267.50
727.57	267.02
727.91	266.50
728.24	266.05
728.57	265.54
728.90	265.07
729.23	264.57
729.56	264.17
729.89	263.70
730.22	263.18
730.55	262.70
730.89	262.24
731.22	261.82
731.55	261.41
731.88	260.98
732.21	260.52
732.54	260.12
732.87	259.70
733.20	259.31
733.53	258.91
733.86	258.57
734.19	258.18
734.52	257.81
734.85	257.54
735.18	257.12
735.51	256.77
735.84	256.44
736.17	256.11
736.50	255.70
736.83	255.45
737.16	255.17
737.49	254.86
737.82	254.53
738.15	254.22
738.48	253.87
738.81	253.52
739.14	253.23
739.47	252.94
739.80	252.66
740.13	252.35
740.46	252.05
740.79	251.73
741.12	251.40
741.45	251.11
741.78	250.76
742.11	250.49
742.44	250.18
742.77	249.85
743.10	249.53
743.43	249.22
743.75	248.83
744.08	248.64
744.41	248.33
744.74	248.08
745.07	247.76
745.40	247.54
745.73	247.32
746.06	247.04
746.39	246.78
746.71	246.48
747.04	246.22
747.37	245.95
747.70	245.67
748.03	245.46
748.36	245.23
748.68	244.95
749.01	244.70
749.34	244.45
749.67	244.24
750.00	244.02
750.33	243.89
750.65	243.65
750.98	243.31
751.31	243.09
751.64	242.88
751.97	242.71
752.29	242.46
752.62	242.19
752.95	242.01
753.28	241.78
753.60	241.60
753.93	241.42
754.26	241.24
754.59	241.00
754.91	240.78
755.24	240.59
755.57	240.41
755.90	240.21
756.22	240.00
756.55	239.78
756.88	239.58
757.20	239.32
757.53	239.09
757.86	238.92
758.19	238.76
758.51	238.56
758.84	238.35
759.17	238.18
759.49	238.01
759.82	237.86
760.15	237.71
760.47	237.55
760.80	237.36
761.13	237.20
761.45	237.10
761.78	236.96
762.11	236.79
762.43	236.65
762.76	236.50
763.08	236.36
763.41	236.24
763.74	236.08
764.06	235.94
764.39	235.85
764.71	235.70
765.04	235.52
765.37	235.36
765.69	235.22
766.02	235.10
766.34	234.96
766.67	234.86
767.00	234.76
767.32	234.64
767.65	234.61
767.97	234.48
768.30	234.37
768.62	234.25
768.95	234.13
769.27	234.00
769.60	233.92
769.92	233.82
770.25	233.69
770.57	233.58
770.90	233.49
771.22	233.39
771.55	233.35
771.87	233.30
772.20	233.26
772.52	233.28
772.85	233.28
773.17	233.20
773.50	233.04
773.82	232.92
774.15	232.84
774.47	232.67
774.80	232.59
775.12	232.49
775.45	232.42
775.77	232.35
776.09	232.31
776.42	232.24
776.74	232.21
777.07	232.12
777.39	232.08
777.72	231.97
778.04	231.94
778.36	231.85
778.69	231.79
779.01	231.70
779.33	231.56
779.66	231.41
779.98	231.35
780.31	231.29
780.63	231.27
780.95	231.21
781.28	231.15
781.60	231.09
781.92	231.03
782.25	230.94
782.57	230.86
782.89	230.81
783.22	230.75
783.54	230.66
783.86	230.61
784.19	230.53
784.51	230.54
784.83	230.46
785.16	230.39
785.48	230.33
785.80	230.28
786.12	230.25
786.45	230.19
786.77	230.15
787.09	230.14
