SpectraSuite Data File
++++++++++++++++++++++++++++++++++++
Date: Fri Feb 01 14:52:29 EST 2013
User: group
Dark Spectrum Present: No
Reference Spectrum Present: No
Number of Sampled Component Spectra: 1
Spectrometers: USB2E7196
Integration Time (usec): 35000 (USB2E7196)
Spectra Averaged: 100 (USB2E7196)
Boxcar Smoothing: 10 (USB2E7196)
Correct for Electrical Dark: No (USB2E7196)
Strobe/Lamp Enabled: No (USB2E7196)
Correct for Detector Non-linearity: No (USB2E7196)
Correct for Stray Light: No (USB2E7196)
Number of Pixels in Processed Spectrum: 2048
>>>>>Begin Processed Spectral Data<<<<<
339.09	0.00
339.48	215.34
339.86	217.02
340.24	218.01
340.63	219.90
341.01	222.35
341.39	221.81
341.78	223.45
342.16	224.62
342.54	225.92
342.93	213.61
343.31	224.43
343.69	224.97
344.07	225.41
344.46	225.84
344.84	226.20
345.22	226.43
345.60	226.68
345.99	226.89
346.37	227.06
346.75	227.12
347.13	227.19
347.52	227.24
347.90	227.32
348.28	227.34
348.66	227.43
349.05	227.40
349.43	227.47
349.81	227.54
350.19	227.57
350.57	227.67
350.96	227.73
351.34	227.82
351.72	227.91
352.10	228.02
352.48	228.09
352.87	228.16
353.25	228.22
353.63	228.31
354.01	228.38
354.39	228.42
354.77	228.49
355.15	228.61
355.54	228.65
355.92	228.69
356.30	228.78
356.68	228.90
357.06	229.00
357.44	229.06
357.82	229.14
358.20	229.22
358.58	229.27
358.97	229.36
359.35	229.40
359.73	229.51
360.11	229.56
360.49	229.64
360.87	229.68
361.25	229.75
361.63	229.81
362.01	229.85
362.39	229.88
362.77	229.94
363.15	229.92
363.53	229.94
363.91	229.99
364.29	230.00
364.67	229.90
365.05	229.87
365.43	229.90
365.81	229.89
366.19	229.88
366.57	229.92
366.95	229.87
367.33	229.83
367.71	229.77
368.09	229.78
368.47	229.72
368.85	229.68
369.23	229.67
369.61	229.60
369.99	229.57
370.37	229.55
370.75	229.56
371.13	229.51
371.51	229.44
371.89	229.38
372.27	229.34
372.65	229.30
373.03	229.27
373.41	229.17
373.78	229.13
374.16	229.03
374.54	228.90
374.92	228.86
375.30	228.82
375.68	228.74
376.06	228.62
376.44	228.58
376.82	228.52
377.19	228.45
377.57	228.38
377.95	228.26
378.33	228.15
378.71	227.99
379.09	227.92
379.47	227.88
379.84	227.79
380.22	227.70
380.60	227.60
380.98	227.48
381.36	227.41
381.73	227.29
382.11	227.24
382.49	227.19
382.87	227.09
383.25	227.01
383.62	227.05
384.00	226.99
384.38	226.88
384.76	226.84
385.13	226.79
385.51	226.74
385.89	226.71
386.27	226.67
386.64	226.69
387.02	226.65
387.40	226.59
387.78	226.56
388.15	226.51
388.53	226.51
388.91	226.51
389.29	226.51
389.66	226.49
390.04	226.46
390.42	226.45
390.79	226.47
391.17	226.47
391.55	226.34
391.92	226.33
392.30	226.35
392.68	226.33
393.05	226.35
393.43	226.37
393.81	226.37
394.18	226.37
394.56	226.36
394.94	226.39
395.31	226.44
395.69	226.54
396.06	226.60
396.44	226.65
396.82	226.70
397.19	226.79
397.57	226.84
397.95	226.90
398.32	226.95
398.70	227.01
399.07	227.05
399.45	227.16
399.82	227.23
400.20	227.34
400.58	227.48
400.95	227.51
401.33	227.62
401.70	227.78
402.08	227.89
402.45	228.02
402.83	228.16
403.20	228.25
403.58	228.31
403.95	228.47
404.33	228.61
404.71	228.74
405.08	228.92
405.46	229.09
405.83	229.27
406.21	229.42
406.58	229.59
406.96	229.79
407.33	229.98
407.70	230.21
408.08	230.47
408.45	230.64
408.83	230.91
409.20	231.14
409.58	231.33
409.95	231.64
410.33	231.93
410.70	232.20
411.08	232.53
411.45	232.84
411.82	233.13
412.20	233.51
412.57	233.95
412.95	234.23
413.32	234.65
413.69	235.03
414.07	235.47
414.44	235.97
414.82	236.47
415.19	237.02
415.56	237.58
415.94	238.09
416.31	238.78
416.68	239.39
417.06	240.10
417.43	240.77
417.81	241.50
418.18	242.24
418.55	243.09
418.93	243.92
419.30	244.86
419.67	245.80
420.04	246.68
420.42	247.65
420.79	248.87
421.16	250.03
421.54	251.25
421.91	252.47
422.28	253.72
422.66	255.01
423.03	256.31
423.40	257.60
423.77	259.06
424.15	260.44
424.52	261.92
424.89	263.49
425.26	265.03
425.64	266.47
426.01	268.06
426.38	269.71
426.75	271.38
427.13	273.06
427.50	274.85
427.87	276.77
428.24	278.63
428.61	280.32
428.99	282.21
429.36	284.28
429.73	286.35
430.10	288.35
430.47	290.40
430.85	292.49
431.22	294.75
431.59	297.10
431.96	299.37
432.33	301.86
432.70	304.24
433.08	307.08
433.45	309.70
433.82	312.30
434.19	315.15
434.56	317.99
434.93	320.67
435.30	323.31
435.68	326.17
436.05	328.98
436.42	331.78
436.79	334.34
437.16	337.04
437.53	339.85
437.90	342.68
438.27	345.44
438.64	348.24
439.01	350.84
439.38	353.06
439.75	355.23
440.13	357.74
440.50	360.09
440.87	361.95
441.24	363.94
441.61	366.12
441.98	367.63
442.35	369.39
442.72	371.28
443.09	373.09
443.46	374.14
443.83	374.76
444.20	375.31
444.57	376.14
444.94	376.44
445.31	376.79
445.68	377.13
446.05	377.21
446.42	376.89
446.79	376.50
447.16	376.06
447.53	375.74
447.90	374.57
448.27	373.44
448.64	371.86
449.01	370.74
449.37	368.76
449.74	366.84
450.11	364.65
450.48	362.17
450.85	359.62
451.22	357.48
451.59	355.43
451.96	353.49
452.33	350.87
452.70	348.51
453.07	345.71
453.43	342.80
453.80	340.09
454.17	337.45
454.54	334.89
454.91	332.18
455.28	329.47
455.65	327.01
456.02	324.55
456.38	322.39
456.75	319.72
457.12	317.47
457.49	315.27
457.86	313.06
458.23	311.18
458.59	309.15
458.96	307.03
459.33	305.19
459.70	303.30
460.07	301.78
460.43	300.04
460.80	298.42
461.17	297.00
461.54	295.42
461.91	293.94
462.27	292.45
462.64	291.18
463.01	289.83
463.38	288.48
463.74	287.06
464.11	285.89
464.48	284.83
464.85	283.71
465.21	282.81
465.58	281.86
465.95	280.73
466.32	279.81
466.68	278.86
467.05	277.96
467.42	277.04
467.78	276.10
468.15	275.19
468.52	274.52
468.88	273.64
469.25	272.88
469.62	272.22
469.98	271.56
470.35	270.89
470.72	270.27
471.08	269.59
471.45	269.05
471.82	268.48
472.18	267.84
472.55	267.38
472.92	266.87
473.28	266.40
473.65	265.93
474.02	265.47
474.38	265.13
474.75	264.79
475.11	264.43
475.48	264.18
475.85	263.95
476.21	263.68
476.58	263.46
476.94	263.33
477.31	263.15
477.67	263.02
478.04	262.93
478.41	262.85
478.77	262.92
479.14	262.88
479.50	262.85
479.87	262.94
480.23	263.01
480.60	263.07
480.96	263.17
481.33	263.39
481.69	263.57
482.06	263.77
482.42	263.94
482.79	264.19
483.15	264.51
483.52	264.88
483.88	265.21
484.25	265.61
484.61	266.02
484.98	266.47
485.34	266.98
485.71	267.56
486.07	268.19
486.44	268.72
486.80	269.42
487.17	270.16
487.53	270.96
487.90	271.82
488.26	272.72
488.62	273.72
488.99	274.68
489.35	275.71
489.72	276.83
490.08	278.04
490.44	279.29
490.81	280.60
491.17	281.94
491.54	283.42
491.90	284.97
492.26	286.59
492.63	288.30
492.99	290.11
493.36	291.94
493.72	293.95
494.08	296.01
494.45	298.24
494.81	300.63
495.17	303.04
495.54	305.59
495.90	308.26
496.26	311.02
496.63	313.93
496.99	317.00
497.35	320.25
497.72	323.59
498.08	327.07
498.44	330.70
498.80	334.56
499.17	338.55
499.53	342.68
499.89	347.00
500.26	351.52
500.62	356.14
500.98	361.09
501.34	366.17
501.71	371.47
502.07	376.83
502.43	382.36
502.79	388.18
503.16	394.22
503.52	400.48
503.88	406.89
504.24	413.52
504.60	420.38
504.97	427.45
505.33	434.76
505.69	442.40
506.05	450.21
506.41	458.13
506.78	466.24
507.14	474.68
507.50	483.36
507.86	492.32
508.22	501.48
508.59	510.65
508.95	520.20
509.31	530.01
509.67	540.08
510.03	550.32
510.39	560.85
510.75	571.61
511.12	582.48
511.48	593.69
511.84	605.05
512.20	616.58
512.56	628.47
512.92	640.63
513.28	653.01
513.64	665.38
514.00	678.06
514.37	691.00
514.73	704.00
515.09	717.05
515.45	730.29
515.81	743.81
516.17	757.69
516.53	771.84
516.89	785.94
517.25	800.16
517.61	814.62
517.97	829.01
518.33	843.46
518.69	858.25
519.05	873.18
519.41	888.41
519.77	903.91
520.13	919.41
520.49	934.90
520.85	950.29
521.21	966.06
521.57	982.26
521.93	997.99
522.29	1014.49
522.65	1030.73
523.01	1047.02
523.37	1063.13
523.73	1079.48
524.09	1095.61
524.45	1111.99
524.81	1128.64
525.17	1145.51
525.53	1162.45
525.89	1179.27
526.25	1196.28
526.61	1212.69
526.97	1229.42
527.33	1246.00
527.68	1262.64
528.04	1279.07
528.40	1295.75
528.76	1312.81
529.12	1329.49
529.48	1346.43
529.84	1362.40
530.20	1379.20
530.56	1396.32
530.91	1413.72
531.27	1430.51
531.63	1446.93
531.99	1463.70
532.35	1479.72
532.71	1495.53
533.07	1511.91
533.42	1527.96
533.78	1544.01
534.14	1560.41
534.50	1575.88
534.86	1591.76
535.21	1606.97
535.57	1623.03
535.93	1638.49
536.29	1653.41
536.65	1668.51
537.00	1683.36
537.36	1698.76
537.72	1713.26
538.08	1727.72
538.44	1741.63
538.79	1755.55
539.15	1769.33
539.51	1783.13
539.87	1797.59
540.22	1811.55
540.58	1825.25
540.94	1838.59
541.29	1851.50
541.65	1864.29
542.01	1877.62
542.37	1889.87
542.72	1902.36
543.08	1914.10
543.44	1926.64
543.79	1937.96
544.15	1949.07
544.51	1960.68
544.87	1971.72
545.22	1982.51
545.58	1992.72
545.94	2002.57
546.29	2012.48
546.65	2022.36
547.01	2031.45
547.36	2040.17
547.72	2048.64
548.07	2056.57
548.43	2064.74
548.79	2072.73
549.14	2080.39
549.50	2087.80
549.86	2095.63
550.21	2102.94
550.57	2110.10
550.92	2116.70
551.28	2123.77
551.64	2130.76
551.99	2137.30
552.35	2143.41
552.70	2149.45
553.06	2155.21
553.41	2161.38
553.77	2167.33
554.13	2173.30
554.48	2179.40
554.84	2184.68
555.19	2189.84
555.55	2194.94
555.90	2199.36
556.26	2204.18
556.61	2208.60
556.97	2212.79
557.32	2216.85
557.68	2220.81
558.03	2224.98
558.39	2228.52
558.74	2232.87
559.10	2236.55
559.45	2239.97
559.81	2244.29
560.16	2247.99
560.52	2251.30
560.87	2254.80
561.23	2257.28
561.58	2260.10
561.94	2262.58
562.29	2265.09
562.64	2267.73
563.00	2270.27
563.35	2273.65
563.71	2276.61
564.06	2279.68
564.42	2282.39
564.77	2284.76
565.12	2287.00
565.48	2288.69
565.83	2290.27
566.19	2291.43
566.54	2292.32
566.89	2293.55
567.25	2293.84
567.60	2295.25
567.96	2296.74
568.31	2297.20
568.66	2298.09
569.02	2298.48
569.37	2298.58
569.72	2299.16
570.08	2298.95
570.43	2298.57
570.78	2297.53
571.14	2295.72
571.49	2294.18
571.84	2293.49
572.20	2291.99
572.55	2290.50
572.90	2288.69
573.26	2287.11
573.61	2285.22
573.96	2283.17
574.31	2279.85
574.67	2276.59
575.02	2272.64
575.37	2269.05
575.72	2265.11
576.08	2261.57
576.43	2258.04
576.78	2254.25
577.13	2250.69
577.49	2247.44
577.84	2244.00
578.19	2240.35
578.54	2236.55
578.90	2232.22
579.25	2226.50
579.60	2221.43
579.95	2216.40
580.30	2211.17
580.66	2205.93
581.01	2200.91
581.36	2195.78
581.71	2191.29
582.06	2186.79
582.42	2182.21
582.77	2176.68
583.12	2171.90
583.47	2167.14
583.82	2162.15
584.17	2156.67
584.53	2151.22
584.88	2145.49
585.23	2139.49
585.58	2133.78
585.93	2128.22
586.28	2123.33
586.63	2118.17
586.98	2113.10
587.34	2108.21
587.69	2103.28
588.04	2097.93
588.39	2091.93
588.74	2085.41
589.09	2079.19
589.44	2072.17
589.79	2065.86
590.14	2060.19
590.49	2053.51
590.84	2046.83
591.19	2040.48
591.54	2033.87
591.89	2026.27
592.25	2019.32
592.60	2012.10
592.95	2004.31
593.30	1996.83
593.65	1988.98
594.00	1981.79
594.35	1974.29
594.70	1966.16
595.05	1958.92
595.40	1951.52
595.75	1944.06
596.10	1937.66
596.45	1930.86
596.80	1924.56
597.15	1917.91
597.50	1910.79
597.85	1904.30
598.19	1897.73
598.54	1890.70
598.89	1884.03
599.24	1878.13
599.59	1871.35
599.94	1864.91
600.29	1858.71
600.64	1852.13
600.99	1844.72
601.34	1837.77
601.69	1830.75
602.04	1823.85
602.39	1816.45
602.74	1809.66
603.08	1802.82
603.43	1796.13
603.78	1788.92
604.13	1781.79
604.48	1774.54
604.83	1767.78
605.18	1760.83
605.53	1752.84
605.87	1744.75
606.22	1737.56
606.57	1729.51
606.92	1722.38
607.27	1715.30
607.62	1708.29
607.96	1701.07
608.31	1694.54
608.66	1687.00
609.01	1679.45
609.36	1672.01
609.70	1664.06
610.05	1656.06
610.40	1648.54
610.75	1640.27
611.10	1632.44
611.44	1624.19
611.79	1616.28
612.14	1607.58
612.49	1598.55
612.83	1590.25
613.18	1582.30
613.53	1574.25
613.88	1565.89
614.22	1557.72
614.57	1549.22
614.92	1541.46
615.27	1533.92
615.61	1525.70
615.96	1517.75
616.31	1510.27
616.65	1502.90
617.00	1495.47
617.35	1487.68
617.70	1479.48
618.04	1470.92
618.39	1462.89
618.74	1455.23
619.08	1446.89
619.43	1439.39
619.78	1432.51
620.12	1425.45
620.47	1417.99
620.82	1409.95
621.16	1402.55
621.51	1394.86
621.85	1387.34
622.20	1378.82
622.55	1370.62
622.89	1362.82
623.24	1355.44
623.59	1348.09
623.93	1340.69
624.28	1333.52
624.62	1326.28
624.97	1319.08
625.32	1312.47
625.66	1305.50
626.01	1298.39
626.35	1291.15
626.70	1283.46
627.04	1275.96
627.39	1268.16
627.73	1260.87
628.08	1254.00
628.43	1246.83
628.77	1239.53
629.12	1232.00
629.46	1224.88
629.81	1217.55
630.15	1210.49
630.50	1203.06
630.84	1195.06
631.19	1187.22
631.53	1179.77
631.88	1172.24
632.22	1164.76
632.57	1157.69
632.91	1150.33
633.26	1142.96
633.60	1135.64
633.95	1128.59
634.29	1121.45
634.64	1114.86
634.98	1107.56
635.32	1100.47
635.67	1094.00
636.01	1087.44
636.36	1080.73
636.70	1074.36
637.05	1067.76
637.39	1061.31
637.73	1054.94
638.08	1049.13
638.42	1043.21
638.77	1036.86
639.11	1030.33
639.45	1024.07
639.80	1017.40
640.14	1011.02
640.49	1004.61
640.83	998.49
641.17	992.48
641.52	986.32
641.86	980.01
642.20	974.25
642.55	968.12
642.89	961.67
643.23	955.26
643.58	949.57
643.92	943.39
644.26	937.51
644.61	931.62
644.95	925.65
645.29	919.08
645.64	912.38
645.98	906.14
646.32	900.34
646.66	894.34
647.01	888.61
647.35	883.01
647.69	877.23
648.04	871.70
648.38	865.86
648.72	859.92
649.06	853.95
649.41	847.99
649.75	841.99
650.09	835.99
650.43	830.22
650.78	824.10
651.12	818.19
651.46	812.45
651.80	806.65
652.14	801.35
652.49	796.12
652.83	791.03
653.17	785.42
653.51	779.75
653.85	774.34
654.20	768.69
654.54	762.71
654.88	757.06
655.22	751.16
655.56	745.48
655.90	740.00
656.25	734.74
656.59	729.47
656.93	724.40
657.27	719.42
657.61	714.03
657.95	709.02
658.29	703.95
658.64	698.77
658.98	693.48
659.32	688.03
659.66	682.81
660.00	677.48
660.34	672.59
660.68	667.81
661.02	662.87
661.36	658.26
661.70	653.79
662.05	649.50
662.39	645.25
662.73	640.87
663.07	636.56
663.41	632.18
663.75	627.81
664.09	623.30
664.43	618.95
664.77	614.89
665.11	610.66
665.45	606.67
665.79	602.64
666.13	598.63
666.47	594.56
666.81	590.54
667.15	586.51
667.49	582.65
667.83	578.82
668.17	574.91
668.51	570.97
668.85	566.98
669.19	563.14
669.53	559.36
669.87	555.57
670.21	551.88
670.55	548.27
670.89	544.86
671.23	541.56
671.57	538.08
671.91	534.61
672.25	531.22
672.58	527.75
672.92	524.44
673.26	521.30
673.60	518.23
673.94	515.11
674.28	512.29
674.62	509.41
674.96	506.36
675.30	503.52
675.64	500.57
675.97	497.91
676.31	495.11
676.65	492.24
676.99	489.52
677.33	486.71
677.67	483.98
678.01	480.93
678.34	477.91
678.68	475.11
679.02	472.32
679.36	469.60
679.70	466.82
680.04	464.02
680.37	461.18
680.71	458.39
681.05	455.81
681.39	453.13
681.73	450.46
682.06	448.00
682.40	445.53
682.74	443.00
683.08	440.44
683.42	437.91
683.75	435.44
684.09	432.97
684.43	430.57
684.77	428.11
685.10	425.85
685.44	423.60
685.78	421.26
686.12	419.03
686.45	416.74
686.79	414.55
687.13	412.37
687.46	410.28
687.80	408.16
688.14	406.01
688.48	403.95
688.81	401.74
689.15	399.58
689.49	397.41
689.82	395.37
690.16	393.35
690.50	391.36
690.83	389.42
691.17	387.44
691.51	385.56
691.84	383.69
692.18	381.71
692.52	379.78
692.85	377.95
693.19	376.07
693.52	374.27
693.86	372.46
694.20	370.72
694.53	368.92
694.87	367.11
695.21	365.29
695.54	363.49
695.88	361.76
696.21	360.05
696.55	358.44
696.88	356.79
697.22	355.09
697.56	353.46
697.89	351.81
698.23	350.23
698.56	348.65
698.90	347.10
699.23	345.49
699.57	343.93
699.90	342.34
700.24	340.85
700.58	339.31
700.91	337.82
701.25	336.40
701.58	335.01
701.92	333.62
702.25	332.28
702.59	330.94
702.92	329.60
703.26	328.33
703.59	327.04
703.93	325.86
704.26	324.71
704.60	323.45
704.93	322.19
705.26	320.97
705.60	319.77
705.93	318.64
706.27	317.68
706.60	316.66
706.94	315.64
707.27	314.50
707.61	313.48
707.94	312.47
708.27	311.41
708.61	310.36
708.94	309.38
709.28	308.38
709.61	307.39
709.94	306.48
710.28	305.48
710.61	304.49
710.95	303.45
711.28	302.52
711.61	301.58
711.95	300.73
712.28	299.77
712.61	298.83
712.95	297.92
713.28	297.01
713.61	296.11
713.95	295.26
714.28	294.45
714.61	293.62
714.95	292.79
715.28	291.96
715.61	291.13
715.95	290.32
716.28	289.50
716.61	288.74
716.95	287.94
717.28	287.20
717.61	286.46
717.94	285.71
718.28	284.93
718.61	284.23
718.94	283.54
719.27	282.93
719.61	282.31
719.94	281.65
720.27	280.98
720.60	280.30
720.94	279.66
721.27	279.09
721.60	278.52
721.93	277.93
722.27	277.37
722.60	276.87
722.93	276.31
723.26	275.80
723.59	275.18
723.93	274.66
724.26	274.11
724.59	273.55
724.92	273.05
725.25	272.54
725.59	272.03
725.92	271.50
726.25	270.94
726.58	270.46
726.91	269.95
727.24	269.47
727.57	269.02
727.91	268.53
728.24	268.03
728.57	267.51
728.90	267.08
729.23	266.60
729.56	266.12
729.89	265.63
730.22	265.14
730.55	264.72
730.89	264.25
731.22	263.80
731.55	263.39
731.88	262.93
732.21	262.52
732.54	262.08
732.87	261.65
733.20	261.31
733.53	260.89
733.86	260.51
734.19	260.11
734.52	259.67
734.85	259.39
735.18	258.97
735.51	258.62
735.84	258.18
736.17	257.82
736.50	257.42
736.83	257.17
737.16	256.85
737.49	256.51
737.82	256.15
738.15	255.82
738.48	255.48
738.81	255.16
739.14	254.85
739.47	254.55
739.80	254.23
740.13	253.90
740.46	253.58
740.79	253.22
741.12	252.93
741.45	252.65
741.78	252.25
742.11	251.98
742.44	251.65
742.77	251.42
743.10	251.11
743.43	250.81
743.75	250.43
744.08	250.30
744.41	250.00
744.74	249.77
745.07	249.46
745.40	249.20
745.73	248.98
746.06	248.66
746.39	248.36
746.71	248.11
747.04	247.83
747.37	247.57
747.70	247.37
748.03	247.12
748.36	246.92
748.68	246.70
749.01	246.48
749.34	246.25
749.67	246.00
750.00	245.79
750.33	245.63
750.65	245.44
750.98	245.06
751.31	244.90
751.64	244.67
751.97	244.58
752.29	244.35
752.62	244.09
752.95	243.94
753.28	243.78
753.60	243.56
753.93	243.44
754.26	243.26
754.59	243.01
754.91	242.78
755.24	242.59
755.57	242.43
755.90	242.23
756.22	242.07
756.55	241.88
756.88	241.69
757.20	241.48
757.53	241.29
757.86	241.18
758.19	241.01
758.51	240.87
758.84	240.64
759.17	240.51
759.49	240.39
759.82	240.27
760.15	240.14
760.47	240.05
760.80	239.84
761.13	239.72
761.45	239.57
761.78	239.50
762.11	239.38
762.43	239.24
762.76	239.11
763.08	239.00
763.41	238.87
763.74	238.73
764.06	238.62
764.39	238.46
764.71	238.29
765.04	238.15
765.37	238.02
765.69	237.91
766.02	237.81
766.34	237.66
766.67	237.51
767.00	237.38
767.32	237.29
767.65	237.21
767.97	237.10
768.30	237.05
768.62	236.93
768.95	236.78
769.27	236.67
769.60	236.61
769.92	236.46
770.25	236.34
770.57	236.22
770.90	236.09
771.22	235.98
771.55	235.90
771.87	235.81
772.20	235.70
772.52	235.67
772.85	235.68
773.17	235.56
773.50	235.46
773.82	235.37
774.15	235.25
774.47	235.11
774.80	234.99
775.12	234.87
775.45	234.75
775.77	234.69
776.09	234.57
776.42	234.47
776.74	234.44
777.07	234.37
777.39	234.29
777.72	234.19
778.04	234.15
778.36	234.03
778.69	233.95
779.01	233.86
779.33	233.69
779.66	233.46
779.98	233.41
780.31	233.35
780.63	233.29
780.95	233.21
781.28	233.16
781.60	233.06
781.92	232.99
782.25	232.92
782.57	232.81
782.89	232.75
783.22	232.65
783.54	232.54
783.86	232.48
784.19	232.44
784.51	232.41
784.83	232.34
785.16	232.29
785.48	232.25
785.80	232.23
786.12	232.19
786.45	232.13
786.77	232.04
787.09	231.98
