SpectraSuite Data File
++++++++++++++++++++++++++++++++++++
Date: Fri Feb 01 17:09:26 EST 2013
User: group
Dark Spectrum Present: No
Reference Spectrum Present: No
Number of Sampled Component Spectra: 1
Spectrometers: USB2E7196
Integration Time (usec): 35000 (USB2E7196)
Spectra Averaged: 100 (USB2E7196)
Boxcar Smoothing: 10 (USB2E7196)
Correct for Electrical Dark: No (USB2E7196)
Strobe/Lamp Enabled: No (USB2E7196)
Correct for Detector Non-linearity: No (USB2E7196)
Correct for Stray Light: No (USB2E7196)
Number of Pixels in Processed Spectrum: 2048
>>>>>Begin Processed Spectral Data<<<<<
339.09	0.00
339.48	213.41
339.86	214.66
340.24	216.09
340.63	217.52
341.01	219.88
341.39	220.36
341.78	220.86
342.16	222.87
342.54	222.98
342.93	211.56
343.31	222.23
343.69	222.78
344.07	223.23
344.46	223.65
344.84	224.02
345.22	224.27
345.60	224.49
345.99	224.69
346.37	224.82
346.75	224.91
347.13	224.99
347.52	225.08
347.90	225.14
348.28	225.16
348.66	225.20
349.05	225.15
349.43	225.19
349.81	225.23
350.19	225.24
350.57	225.33
350.96	225.42
351.34	225.48
351.72	225.54
352.10	225.66
352.48	225.74
352.87	225.82
353.25	225.86
353.63	225.94
354.01	226.03
354.39	226.11
354.77	226.20
355.15	226.32
355.54	226.38
355.92	226.43
356.30	226.54
356.68	226.70
357.06	226.79
357.44	226.83
357.82	226.86
358.20	226.96
358.58	227.04
358.97	227.08
359.35	227.20
359.73	227.28
360.11	227.34
360.49	227.39
360.87	227.41
361.25	227.48
361.63	227.54
362.01	227.60
362.39	227.62
362.77	227.68
363.15	227.69
363.53	227.73
363.91	227.77
364.29	227.80
364.67	227.71
365.05	227.76
365.43	227.78
365.81	227.84
366.19	227.89
366.57	227.93
366.95	227.95
367.33	227.93
367.71	227.95
368.09	227.94
368.47	227.89
368.85	227.91
369.23	227.92
369.61	227.89
369.99	227.86
370.37	227.86
370.75	227.86
371.13	227.82
371.51	227.78
371.89	227.74
372.27	227.69
372.65	227.66
373.03	227.59
373.41	227.55
373.78	227.48
374.16	227.37
374.54	227.28
374.92	227.22
375.30	227.15
375.68	227.07
376.06	227.06
376.44	227.00
376.82	226.93
377.19	226.88
377.57	226.77
377.95	226.72
378.33	226.66
378.71	226.55
379.09	226.50
379.47	226.46
379.84	226.38
380.22	226.33
380.60	226.24
380.98	226.16
381.36	226.07
381.73	226.00
382.11	225.96
382.49	225.90
382.87	225.82
383.25	225.74
383.62	225.77
384.00	225.67
384.38	225.64
384.76	225.58
385.13	225.56
385.51	225.58
385.89	225.51
386.27	225.44
386.64	225.41
387.02	225.37
387.40	225.28
387.78	225.24
388.15	225.17
388.53	225.16
388.91	225.10
389.29	225.09
389.66	225.07
390.04	225.04
390.42	225.04
390.79	225.05
391.17	225.07
391.55	224.94
391.92	224.93
392.30	224.91
392.68	224.90
393.05	224.89
393.43	224.82
393.81	224.80
394.18	224.80
394.56	224.78
394.94	224.83
395.31	224.85
395.69	224.93
396.06	225.01
396.44	224.99
396.82	225.05
397.19	225.12
397.57	225.15
397.95	225.22
398.32	225.21
398.70	225.27
399.07	225.32
399.45	225.41
399.82	225.48
400.20	225.55
400.58	225.61
400.95	225.65
401.33	225.79
401.70	225.95
402.08	226.03
402.45	226.14
402.83	226.23
403.20	226.34
403.58	226.42
403.95	226.53
404.33	226.67
404.71	226.82
405.08	226.97
405.46	227.10
405.83	227.23
406.21	227.39
406.58	227.55
406.96	227.71
407.33	227.88
407.70	228.04
408.08	228.28
408.45	228.51
408.83	228.72
409.20	228.94
409.58	229.12
409.95	229.36
410.33	229.61
410.70	229.83
411.08	230.11
411.45	230.43
411.82	230.73
412.20	231.11
412.57	231.47
412.95	231.78
413.32	232.22
413.69	232.62
414.07	233.03
414.44	233.47
414.82	233.95
415.19	234.45
415.56	234.99
415.94	235.55
416.31	236.16
416.68	236.78
417.06	237.44
417.43	238.14
417.81	238.92
418.18	239.67
418.55	240.50
418.93	241.39
419.30	242.24
419.67	243.17
420.04	244.07
420.42	245.05
420.79	246.24
421.16	247.37
421.54	248.55
421.91	249.78
422.28	251.01
422.66	252.33
423.03	253.65
423.40	254.98
423.77	256.40
424.15	257.80
424.52	259.30
424.89	260.90
425.26	262.40
425.64	263.85
426.01	265.44
426.38	267.10
426.75	268.74
427.13	270.48
427.50	272.27
427.87	274.16
428.24	276.04
428.61	277.73
428.99	279.61
429.36	281.70
429.73	283.76
430.10	285.78
430.47	287.81
430.85	289.88
431.22	292.07
431.59	294.42
431.96	296.63
432.33	299.07
432.70	301.45
433.08	304.23
433.45	306.87
433.82	309.49
434.19	312.35
434.56	315.12
434.93	317.71
435.30	320.29
435.68	323.15
436.05	325.98
436.42	328.77
436.79	331.30
437.16	333.97
437.53	336.74
437.90	339.50
438.27	342.23
438.64	345.09
439.01	347.70
439.38	349.92
439.75	352.09
440.13	354.56
440.50	356.88
440.87	358.73
441.24	360.62
441.61	362.73
441.98	364.19
442.35	366.06
442.72	367.93
443.09	369.78
443.46	370.79
443.83	371.36
444.20	371.87
444.57	372.75
444.94	373.06
445.31	373.42
445.68	373.81
446.05	373.89
446.42	373.50
446.79	373.11
447.16	372.71
447.53	372.42
447.90	371.27
448.27	370.14
448.64	368.56
449.01	367.47
449.37	365.52
449.74	363.67
450.11	361.43
450.48	359.01
450.85	356.42
451.22	354.27
451.59	352.23
451.96	350.32
452.33	347.71
452.70	345.37
453.07	342.60
453.43	339.74
453.80	337.01
454.17	334.31
454.54	331.79
454.91	329.03
455.28	326.41
455.65	323.94
456.02	321.50
456.38	319.39
456.75	316.73
457.12	314.52
457.49	312.27
457.86	310.09
458.23	308.25
458.59	306.23
458.96	304.21
459.33	302.40
459.70	300.53
460.07	299.04
460.43	297.35
460.80	295.73
461.17	294.32
461.54	292.84
461.91	291.42
462.27	289.99
462.64	288.78
463.01	287.40
463.38	286.16
463.74	284.81
464.11	283.65
464.48	282.65
464.85	281.57
465.21	280.75
465.58	279.85
465.95	278.70
466.32	277.86
466.68	276.94
467.05	276.03
467.42	275.16
467.78	274.21
468.15	273.31
468.52	272.65
468.88	271.75
469.25	270.97
469.62	270.39
469.98	269.71
470.35	269.06
470.72	268.53
471.08	267.84
471.45	267.29
471.82	266.77
472.18	266.20
472.55	265.74
472.92	265.19
473.28	264.76
473.65	264.38
474.02	263.93
474.38	263.61
474.75	263.29
475.11	262.95
475.48	262.72
475.85	262.53
476.21	262.32
476.58	262.16
476.94	262.03
477.31	261.87
477.67	261.73
478.04	261.63
478.41	261.58
478.77	261.65
479.14	261.58
479.50	261.60
479.87	261.67
480.23	261.79
480.60	261.91
480.96	262.01
481.33	262.23
481.69	262.42
482.06	262.61
482.42	262.84
482.79	263.09
483.15	263.39
483.52	263.75
483.88	264.10
484.25	264.46
484.61	264.87
484.98	265.33
485.34	265.89
485.71	266.49
486.07	267.08
486.44	267.60
486.80	268.33
487.17	269.03
487.53	269.85
487.90	270.67
488.26	271.61
488.62	272.57
488.99	273.50
489.35	274.52
489.72	275.60
490.08	276.79
490.44	278.02
490.81	279.37
491.17	280.71
491.54	282.20
491.90	283.77
492.26	285.49
492.63	287.21
492.99	289.03
493.36	290.91
493.72	292.95
494.08	295.09
494.45	297.36
494.81	299.78
495.17	302.14
495.54	304.72
495.90	307.34
496.26	310.14
496.63	313.12
496.99	316.28
497.35	319.58
497.72	322.99
498.08	326.47
498.44	330.16
498.80	334.08
499.17	338.13
499.53	342.29
499.89	346.61
500.26	351.11
500.62	355.71
500.98	360.65
501.34	365.67
501.71	370.96
502.07	376.34
502.43	381.87
502.79	387.70
503.16	393.67
503.52	399.94
503.88	406.25
504.24	412.77
504.60	419.55
504.97	426.58
505.33	433.78
505.69	441.48
506.05	449.16
506.41	456.97
506.78	465.02
507.14	473.39
507.50	481.97
507.86	490.82
508.22	499.93
508.59	509.06
508.95	518.51
509.31	528.20
509.67	538.16
510.03	548.32
510.39	558.75
510.75	569.46
511.12	580.21
511.48	591.36
511.84	602.68
512.20	614.00
512.56	625.77
512.92	637.74
513.28	649.88
513.64	662.16
514.00	674.64
514.37	687.28
514.73	700.03
515.09	712.85
515.45	726.02
515.81	739.27
516.17	752.96
516.53	766.88
516.89	780.84
517.25	794.75
517.61	808.93
517.97	823.10
518.33	837.25
518.69	851.74
519.05	866.46
519.41	881.31
519.77	896.51
520.13	911.67
520.49	926.85
520.85	941.91
521.21	957.19
521.57	973.14
521.93	988.69
522.29	1004.72
522.65	1020.71
523.01	1036.50
523.37	1052.28
523.73	1068.05
524.09	1083.76
524.45	1099.60
524.81	1115.85
525.17	1132.21
525.53	1148.65
525.89	1165.19
526.25	1181.67
526.61	1197.60
526.97	1213.99
527.33	1230.10
527.68	1246.28
528.04	1262.30
528.40	1278.44
528.76	1295.04
529.12	1311.12
529.48	1327.60
529.84	1343.21
530.20	1359.27
530.56	1375.80
530.91	1392.76
531.27	1409.34
531.63	1425.30
531.99	1441.56
532.35	1457.26
532.71	1472.78
533.07	1488.67
533.42	1504.09
533.78	1519.88
534.14	1535.79
534.50	1550.76
534.86	1566.21
535.21	1581.05
535.57	1596.53
535.93	1611.65
536.29	1626.34
536.65	1641.01
537.00	1655.31
537.36	1670.31
537.72	1684.49
538.08	1698.69
538.44	1712.13
538.79	1725.56
539.15	1738.92
539.51	1752.26
539.87	1766.17
540.22	1779.60
540.58	1793.10
540.94	1806.04
541.29	1818.33
541.65	1830.73
542.01	1843.54
542.37	1855.71
542.72	1867.87
543.08	1879.47
543.44	1891.62
543.79	1902.51
544.15	1913.34
544.51	1924.69
544.87	1935.43
545.22	1946.21
545.58	1956.20
545.94	1965.78
546.29	1975.45
546.65	1985.16
547.01	1994.27
547.36	2002.78
547.72	2011.00
548.07	2018.63
548.43	2026.67
548.79	2034.61
549.14	2042.17
549.50	2049.25
549.86	2056.70
550.21	2063.96
550.57	2070.98
550.92	2077.52
551.28	2084.41
551.64	2091.29
551.99	2097.76
552.35	2103.81
552.70	2109.75
553.06	2115.71
553.41	2122.10
553.77	2127.90
554.13	2133.94
554.48	2140.06
554.84	2145.75
555.19	2151.02
555.55	2156.36
555.90	2161.00
556.26	2165.98
556.61	2170.60
556.97	2175.21
557.32	2179.38
557.68	2183.58
558.03	2187.97
558.39	2191.60
558.74	2196.24
559.10	2200.36
559.45	2204.00
559.81	2208.42
560.16	2212.36
560.52	2215.70
560.87	2219.14
561.23	2222.00
561.58	2224.91
561.94	2227.50
562.29	2229.56
562.64	2232.43
563.00	2235.01
563.35	2238.53
563.71	2241.77
564.06	2245.10
564.42	2248.01
564.77	2250.73
565.12	2253.19
565.48	2255.30
565.83	2257.54
566.19	2259.05
566.54	2259.95
566.89	2261.37
567.25	2262.15
567.60	2263.54
567.96	2265.31
568.31	2266.18
568.66	2267.59
569.02	2268.48
569.37	2269.06
569.72	2270.32
570.08	2270.78
570.43	2270.95
570.78	2270.54
571.14	2269.12
571.49	2267.97
571.84	2267.78
572.20	2266.86
572.55	2265.86
572.90	2264.39
573.26	2263.23
573.61	2261.60
573.96	2260.17
574.31	2257.47
574.67	2254.86
575.02	2251.43
575.37	2248.24
575.72	2244.89
576.08	2241.74
576.43	2238.56
576.78	2235.21
577.13	2232.18
577.49	2228.99
577.84	2225.86
578.19	2222.32
578.54	2219.07
578.90	2215.19
579.25	2210.02
579.60	2205.33
579.95	2200.60
580.30	2195.79
580.66	2190.82
581.01	2186.21
581.36	2181.45
581.71	2177.53
582.06	2173.26
582.42	2169.18
582.77	2164.31
583.12	2159.97
583.47	2155.47
583.82	2150.80
584.17	2145.63
584.53	2140.40
584.88	2135.22
585.23	2129.66
585.58	2124.35
585.93	2119.13
586.28	2114.45
586.63	2109.70
586.98	2104.80
587.34	2100.33
587.69	2095.75
588.04	2090.64
588.39	2085.20
588.74	2079.08
589.09	2073.00
589.44	2066.29
589.79	2060.43
590.14	2054.96
590.49	2048.52
590.84	2042.31
591.19	2036.49
591.54	2030.40
591.89	2023.37
592.25	2016.76
592.60	2009.66
592.95	2002.48
593.30	1995.32
593.65	1988.01
594.00	1980.91
594.35	1973.93
594.70	1966.05
595.05	1959.04
595.40	1951.95
595.75	1944.72
596.10	1938.82
596.45	1932.50
596.80	1926.64
597.15	1920.27
597.50	1913.40
597.85	1907.20
598.19	1900.76
598.54	1893.83
598.89	1887.31
599.24	1881.57
599.59	1875.22
599.94	1869.10
600.29	1862.86
600.64	1856.42
600.99	1849.19
601.34	1842.71
601.69	1835.91
602.04	1829.33
602.39	1822.21
602.74	1815.48
603.08	1808.91
603.43	1802.15
603.78	1794.80
604.13	1787.73
604.48	1780.65
604.83	1773.92
605.18	1767.18
605.53	1759.33
605.87	1751.49
606.22	1744.36
606.57	1736.38
606.92	1729.06
607.27	1722.22
607.62	1715.53
607.96	1708.41
608.31	1701.93
608.66	1694.41
609.01	1686.96
609.36	1679.42
609.70	1671.49
610.05	1663.63
610.40	1655.95
610.75	1647.71
611.10	1640.26
611.44	1631.76
611.79	1623.72
612.14	1615.25
612.49	1606.08
612.83	1597.75
613.18	1589.77
613.53	1581.72
613.88	1573.39
614.22	1565.25
614.57	1556.64
614.92	1548.69
615.27	1541.25
615.61	1532.93
615.96	1524.91
616.31	1517.23
616.65	1509.92
617.00	1502.40
617.35	1494.76
617.70	1486.54
618.04	1478.16
618.39	1469.98
618.74	1462.59
619.08	1454.38
619.43	1446.73
619.78	1439.80
620.12	1432.70
620.47	1425.10
620.82	1417.03
621.16	1409.56
621.51	1401.95
621.85	1394.37
622.20	1385.85
622.55	1377.36
622.89	1369.55
623.24	1361.94
623.59	1354.45
623.93	1346.91
624.28	1339.70
624.62	1332.19
624.97	1325.04
625.32	1318.13
625.66	1311.13
626.01	1303.98
626.35	1296.67
626.70	1288.97
627.04	1281.34
627.39	1273.61
627.73	1266.29
628.08	1259.38
628.43	1252.23
628.77	1244.97
629.12	1237.45
629.46	1230.29
629.81	1222.91
630.15	1215.75
630.50	1208.38
630.84	1200.39
631.19	1192.47
631.53	1184.92
631.88	1177.57
632.22	1170.02
632.57	1162.90
632.91	1155.23
633.26	1147.82
633.60	1140.31
633.95	1133.11
634.29	1126.08
634.64	1119.38
634.98	1112.08
635.32	1105.02
635.67	1098.40
636.01	1091.63
636.36	1084.88
636.70	1078.38
637.05	1071.95
637.39	1065.44
637.73	1059.01
638.08	1053.15
638.42	1047.21
638.77	1040.85
639.11	1034.16
639.45	1027.73
639.80	1021.06
640.14	1014.79
640.49	1008.38
640.83	1002.17
641.17	996.04
641.52	989.72
641.86	983.28
642.20	977.47
642.55	971.01
642.89	964.54
643.23	958.01
643.58	952.35
643.92	946.27
644.26	940.27
644.61	934.18
644.95	928.24
645.29	921.77
645.64	915.13
645.98	908.81
646.32	902.87
646.66	896.96
647.01	891.20
647.35	885.53
647.69	879.60
648.04	874.07
648.38	868.28
648.72	862.39
649.06	856.41
649.41	850.45
649.75	844.57
650.09	838.77
650.43	833.09
650.78	826.89
651.12	820.87
651.46	815.14
651.80	809.59
652.14	804.14
652.49	798.79
652.83	793.59
653.17	788.06
653.51	782.52
653.85	777.07
654.20	771.55
654.54	765.56
654.88	759.81
655.22	753.90
655.56	748.34
655.90	742.88
656.25	737.66
656.59	732.31
656.93	727.34
657.27	722.14
657.61	716.72
657.95	711.63
658.29	706.60
658.64	701.32
658.98	695.96
659.32	690.57
659.66	685.33
660.00	680.02
660.34	675.04
660.68	670.15
661.02	665.23
661.36	660.43
661.70	656.00
662.05	651.77
662.39	647.56
662.73	643.06
663.07	638.69
663.41	634.27
663.75	629.92
664.09	625.34
664.43	621.01
664.77	616.94
665.11	612.66
665.45	608.54
665.79	604.49
666.13	600.39
666.47	596.30
666.81	592.20
667.15	588.15
667.49	584.24
667.83	580.39
668.17	576.37
668.51	572.36
668.85	568.34
669.19	564.47
669.53	560.63
669.87	556.80
670.21	553.01
670.55	549.40
670.89	545.86
671.23	542.49
671.57	538.94
671.91	535.41
672.25	531.92
672.58	528.45
672.92	525.08
673.26	521.94
673.60	518.82
673.94	515.76
674.28	512.82
674.62	509.90
674.96	506.85
675.30	504.07
675.64	501.14
675.97	498.34
676.31	495.48
676.65	492.58
676.99	489.88
677.33	487.07
677.67	484.21
678.01	481.27
678.34	478.31
678.68	475.51
679.02	472.74
679.36	469.98
679.70	467.26
680.04	464.50
680.37	461.59
680.71	458.80
681.05	456.13
681.39	453.43
681.73	450.80
682.06	448.26
682.40	445.70
682.74	443.21
683.08	440.72
683.42	438.15
683.75	435.68
684.09	433.08
684.43	430.67
684.77	428.30
685.10	425.96
685.44	423.64
685.78	421.31
686.12	419.05
686.45	416.81
686.79	414.51
687.13	412.32
687.46	410.25
687.80	408.08
688.14	405.94
688.48	403.93
688.81	401.74
689.15	399.58
689.49	397.40
689.82	395.25
690.16	393.14
690.50	391.17
690.83	389.19
691.17	387.25
691.51	385.30
691.84	383.37
692.18	381.46
692.52	379.51
692.85	377.57
693.19	375.67
693.52	373.80
693.86	372.03
694.20	370.24
694.53	368.41
694.87	366.58
695.21	364.76
695.54	362.90
695.88	361.13
696.21	359.43
696.55	357.80
696.88	356.15
697.22	354.50
697.56	352.89
697.89	351.26
698.23	349.68
698.56	348.13
698.90	346.58
699.23	344.90
699.57	343.32
699.90	341.75
700.24	340.24
700.58	338.73
700.91	337.24
701.25	335.79
701.58	334.43
701.92	333.07
702.25	331.65
702.59	330.31
702.92	328.99
703.26	327.70
703.59	326.41
703.93	325.25
704.26	324.00
704.60	322.69
704.93	321.43
705.26	320.17
705.60	318.95
705.93	317.79
706.27	316.74
706.60	315.69
706.94	314.66
707.27	313.55
707.61	312.47
707.94	311.40
708.27	310.33
708.61	309.21
708.94	308.23
709.28	307.26
709.61	306.25
709.94	305.30
710.28	304.25
710.61	303.25
710.95	302.14
711.28	301.23
711.61	300.28
711.95	299.35
712.28	298.39
712.61	297.40
712.95	296.46
713.28	295.60
713.61	294.70
713.95	293.77
714.28	292.88
714.61	292.04
714.95	291.22
715.28	290.38
715.61	289.51
715.95	288.64
716.28	287.78
716.61	286.92
716.95	286.06
717.28	285.32
717.61	284.54
717.94	283.81
718.28	282.97
718.61	282.24
718.94	281.54
719.27	280.89
719.61	280.21
719.94	279.58
720.27	278.85
720.60	278.20
720.94	277.60
721.27	276.99
721.60	276.43
721.93	275.83
722.27	275.27
722.60	274.71
722.93	274.12
723.26	273.56
723.59	273.03
723.93	272.48
724.26	271.91
724.59	271.32
724.92	270.81
725.25	270.33
725.59	269.83
725.92	269.33
726.25	268.80
726.58	268.33
726.91	267.81
727.24	267.33
727.57	266.88
727.91	266.35
728.24	265.90
728.57	265.40
728.90	264.91
729.23	264.42
729.56	264.03
729.89	263.55
730.22	263.09
730.55	262.65
730.89	262.22
731.22	261.78
731.55	261.40
731.88	260.94
732.21	260.46
732.54	260.01
732.87	259.57
733.20	259.15
733.53	258.74
733.86	258.34
734.19	257.97
734.52	257.53
734.85	257.22
735.18	256.80
735.51	256.44
735.84	256.09
736.17	255.71
736.50	255.27
736.83	255.07
737.16	254.78
737.49	254.43
737.82	254.09
738.15	253.77
738.48	253.43
738.81	253.11
739.14	252.85
739.47	252.57
739.80	252.30
740.13	252.02
740.46	251.72
740.79	251.41
741.12	251.11
741.45	250.83
741.78	250.48
742.11	250.23
742.44	249.91
742.77	249.65
743.10	249.36
743.43	249.06
743.75	248.65
744.08	248.46
744.41	248.18
744.74	247.89
745.07	247.62
745.40	247.35
745.73	247.15
746.06	246.87
746.39	246.58
746.71	246.28
747.04	246.01
747.37	245.77
747.70	245.51
748.03	245.24
748.36	245.02
748.68	244.77
749.01	244.51
749.34	244.29
749.67	244.02
750.00	243.84
750.33	243.69
750.65	243.49
750.98	243.13
751.31	242.90
751.64	242.71
751.97	242.53
752.29	242.30
752.62	242.01
752.95	241.75
753.28	241.53
753.60	241.32
753.93	241.14
754.26	240.91
754.59	240.71
754.91	240.50
755.24	240.28
755.57	240.11
755.90	239.93
756.22	239.74
756.55	239.53
756.88	239.27
757.20	239.08
757.53	238.87
757.86	238.71
758.19	238.55
758.51	238.38
758.84	238.16
759.17	238.00
759.49	237.86
759.82	237.80
760.15	237.66
760.47	237.49
760.80	237.35
761.13	237.24
761.45	237.09
761.78	236.93
762.11	236.83
762.43	236.70
762.76	236.56
763.08	236.42
763.41	236.32
763.74	236.19
764.06	236.03
764.39	235.89
764.71	235.75
765.04	235.63
765.37	235.49
765.69	235.36
766.02	235.26
766.34	235.14
766.67	234.98
767.00	234.87
767.32	234.83
767.65	234.77
767.97	234.65
768.30	234.55
768.62	234.47
768.95	234.34
769.27	234.20
769.60	234.07
769.92	233.94
770.25	233.80
770.57	233.73
770.90	233.59
771.22	233.50
771.55	233.44
771.87	233.34
772.20	233.23
772.52	233.27
772.85	233.30
773.17	233.22
773.50	233.12
773.82	233.02
774.15	232.87
774.47	232.72
774.80	232.61
775.12	232.51
775.45	232.41
775.77	232.32
776.09	232.26
776.42	232.21
776.74	232.18
777.07	232.12
777.39	232.01
777.72	231.98
778.04	231.91
778.36	231.80
778.69	231.75
779.01	231.70
779.33	231.53
779.66	231.33
779.98	231.26
780.31	231.18
780.63	231.16
780.95	231.14
781.28	231.10
781.60	231.03
781.92	230.94
782.25	230.91
782.57	230.85
782.89	230.78
783.22	230.72
783.54	230.64
783.86	230.57
784.19	230.54
784.51	230.46
784.83	230.44
785.16	230.39
785.48	230.30
785.80	230.27
786.12	230.23
786.45	230.17
786.77	230.13
787.09	230.10
