SpectraSuite Data File
++++++++++++++++++++++++++++++++++++
Date: Fri Feb 01 17:34:55 EST 2013
User: group
Dark Spectrum Present: No
Reference Spectrum Present: No
Number of Sampled Component Spectra: 1
Spectrometers: USB2E7196
Integration Time (usec): 35000 (USB2E7196)
Spectra Averaged: 100 (USB2E7196)
Boxcar Smoothing: 10 (USB2E7196)
Correct for Electrical Dark: No (USB2E7196)
Strobe/Lamp Enabled: No (USB2E7196)
Correct for Detector Non-linearity: No (USB2E7196)
Correct for Stray Light: No (USB2E7196)
Number of Pixels in Processed Spectrum: 2048
>>>>>Begin Processed Spectral Data<<<<<
339.09	0.00
339.48	212.29
339.86	214.55
340.24	215.49
340.63	217.29
341.01	219.96
341.39	219.56
341.78	221.04
342.16	222.19
342.54	222.96
342.93	211.24
343.31	221.93
343.69	222.47
344.07	222.93
344.46	223.36
344.84	223.72
345.22	223.93
345.60	224.18
345.99	224.36
346.37	224.52
346.75	224.60
347.13	224.68
347.52	224.72
347.90	224.80
348.28	224.80
348.66	224.83
349.05	224.83
349.43	224.84
349.81	224.89
350.19	224.95
350.57	225.00
350.96	225.06
351.34	225.13
351.72	225.24
352.10	225.31
352.48	225.37
352.87	225.45
353.25	225.53
353.63	225.59
354.01	225.64
354.39	225.69
354.77	225.75
355.15	225.86
355.54	225.91
355.92	225.93
356.30	226.04
356.68	226.18
357.06	226.26
357.44	226.32
357.82	226.38
358.20	226.48
358.58	226.59
358.97	226.67
359.35	226.75
359.73	226.85
360.11	226.93
360.49	226.99
360.87	227.03
361.25	227.09
361.63	227.20
362.01	227.27
362.39	227.31
362.77	227.40
363.15	227.44
363.53	227.52
363.91	227.57
364.29	227.57
364.67	227.51
365.05	227.54
365.43	227.60
365.81	227.61
366.19	227.65
366.57	227.70
366.95	227.69
367.33	227.69
367.71	227.68
368.09	227.70
368.47	227.73
368.85	227.74
369.23	227.77
369.61	227.70
369.99	227.72
370.37	227.71
370.75	227.70
371.13	227.67
371.51	227.62
371.89	227.60
372.27	227.59
372.65	227.58
373.03	227.52
373.41	227.45
373.78	227.38
374.16	227.30
374.54	227.20
374.92	227.17
375.30	227.10
375.68	227.02
376.06	226.96
376.44	226.86
376.82	226.81
377.19	226.73
377.57	226.66
377.95	226.55
378.33	226.49
378.71	226.37
379.09	226.30
379.47	226.23
379.84	226.16
380.22	226.10
380.60	226.01
380.98	225.95
381.36	225.87
381.73	225.80
382.11	225.76
382.49	225.68
382.87	225.60
383.25	225.53
383.62	225.59
384.00	225.50
384.38	225.46
384.76	225.40
385.13	225.35
385.51	225.34
385.89	225.29
386.27	225.23
386.64	225.20
387.02	225.19
387.40	225.15
387.78	225.09
388.15	225.04
388.53	224.96
388.91	224.93
389.29	224.91
389.66	224.91
390.04	224.85
390.42	224.84
390.79	224.83
391.17	224.82
391.55	224.68
391.92	224.67
392.30	224.70
392.68	224.69
393.05	224.70
393.43	224.65
393.81	224.65
394.18	224.66
394.56	224.66
394.94	224.64
395.31	224.63
395.69	224.69
396.06	224.72
396.44	224.80
396.82	224.80
397.19	224.89
397.57	224.95
397.95	224.98
398.32	224.97
398.70	224.99
399.07	225.08
399.45	225.11
399.82	225.16
400.20	225.16
400.58	225.22
400.95	225.22
401.33	225.31
401.70	225.46
402.08	225.54
402.45	225.65
402.83	225.81
403.20	225.93
403.58	226.02
403.95	226.15
404.33	226.26
404.71	226.42
405.08	226.56
405.46	226.65
405.83	226.81
406.21	226.98
406.58	227.17
406.96	227.27
407.33	227.45
407.70	227.64
408.08	227.94
408.45	228.15
408.83	228.41
409.20	228.66
409.58	228.84
409.95	229.11
410.33	229.35
410.70	229.59
411.08	229.86
411.45	230.18
411.82	230.45
412.20	230.81
412.57	231.23
412.95	231.53
413.32	231.97
413.69	232.41
414.07	232.87
414.44	233.35
414.82	233.83
415.19	234.39
415.56	234.95
415.94	235.51
416.31	236.18
416.68	236.84
417.06	237.54
417.43	238.26
417.81	239.05
418.18	239.86
418.55	240.70
418.93	241.59
419.30	242.56
419.67	243.56
420.04	244.55
420.42	245.56
420.79	246.79
421.16	247.98
421.54	249.23
421.91	250.48
422.28	251.78
422.66	253.24
423.03	254.65
423.40	256.10
423.77	257.54
424.15	259.03
424.52	260.60
424.89	262.28
425.26	263.91
425.64	265.40
426.01	267.08
426.38	268.81
426.75	270.59
427.13	272.31
427.50	274.18
427.87	276.13
428.24	278.12
428.61	279.95
428.99	282.00
429.36	284.17
429.73	286.32
430.10	288.41
430.47	290.51
430.85	292.68
431.22	295.00
431.59	297.49
431.96	299.81
432.33	302.36
432.70	304.86
433.08	307.76
433.45	310.52
433.82	313.23
434.19	316.26
434.56	319.17
434.93	321.99
435.30	324.72
435.68	327.74
436.05	330.68
436.42	333.58
436.79	336.14
437.16	338.92
437.53	341.87
437.90	344.82
438.27	347.71
438.64	350.64
439.01	353.34
439.38	355.65
439.75	357.89
440.13	360.49
440.50	362.88
440.87	364.80
441.24	366.82
441.61	369.08
441.98	370.67
442.35	372.52
442.72	374.47
443.09	376.34
443.46	377.39
443.83	377.99
444.20	378.56
444.57	379.48
444.94	379.85
445.31	380.21
445.68	380.59
446.05	380.66
446.42	380.27
446.79	379.85
447.16	379.43
447.53	379.16
447.90	378.00
448.27	376.81
448.64	375.22
449.01	374.05
449.37	372.01
449.74	369.98
450.11	367.67
450.48	365.08
450.85	362.48
451.22	360.27
451.59	358.14
451.96	356.08
452.33	353.39
452.70	350.92
453.07	347.95
453.43	344.94
453.80	342.05
454.17	339.29
454.54	336.65
454.91	333.78
455.28	331.00
455.65	328.41
456.02	325.85
456.38	323.61
456.75	320.83
457.12	318.53
457.49	316.21
457.86	313.98
458.23	312.06
458.59	309.95
458.96	307.74
459.33	305.80
459.70	303.84
460.07	302.24
460.43	300.45
460.80	298.78
461.17	297.26
461.54	295.68
461.91	294.18
462.27	292.66
462.64	291.36
463.01	289.92
463.38	288.55
463.74	287.15
464.11	285.90
464.48	284.81
464.85	283.60
465.21	282.69
465.58	281.72
465.95	280.55
466.32	279.62
466.68	278.72
467.05	277.81
467.42	276.90
467.78	275.97
468.15	275.06
468.52	274.37
468.88	273.51
469.25	272.72
469.62	272.09
469.98	271.38
470.35	270.76
470.72	270.13
471.08	269.43
471.45	268.85
471.82	268.32
472.18	267.72
472.55	267.30
472.92	266.76
473.28	266.26
473.65	265.83
474.02	265.33
474.38	264.93
474.75	264.60
475.11	264.24
475.48	263.96
475.85	263.69
476.21	263.47
476.58	263.26
476.94	263.14
477.31	262.99
477.67	262.82
478.04	262.68
478.41	262.65
478.77	262.71
479.14	262.66
479.50	262.65
479.87	262.71
480.23	262.78
480.60	262.86
480.96	262.97
481.33	263.18
481.69	263.41
482.06	263.62
482.42	263.79
482.79	264.04
483.15	264.32
483.52	264.73
483.88	265.04
484.25	265.46
484.61	265.88
484.98	266.31
485.34	266.89
485.71	267.50
486.07	268.13
486.44	268.68
486.80	269.41
487.17	270.17
487.53	270.99
487.90	271.83
488.26	272.75
488.62	273.72
488.99	274.66
489.35	275.70
489.72	276.81
490.08	278.00
490.44	279.27
490.81	280.59
491.17	281.93
491.54	283.41
491.90	284.90
492.26	286.55
492.63	288.26
492.99	289.98
493.36	291.81
493.72	293.79
494.08	295.88
494.45	298.10
494.81	300.39
495.17	302.83
495.54	305.36
495.90	308.01
496.26	310.75
496.63	313.71
496.99	316.74
497.35	319.98
497.72	323.39
498.08	326.84
498.44	330.50
498.80	334.37
499.17	338.36
499.53	342.50
499.89	346.83
500.26	351.26
500.62	355.87
500.98	360.79
501.34	365.83
501.71	371.04
502.07	376.35
502.43	381.90
502.79	387.58
503.16	393.63
503.52	399.87
503.88	406.20
504.24	412.68
504.60	419.43
504.97	426.46
505.33	433.63
505.69	441.22
506.05	448.85
506.41	456.56
506.78	464.58
507.14	472.83
507.50	481.37
507.86	490.16
508.22	499.20
508.59	508.25
508.95	517.61
509.31	527.23
509.67	537.11
510.03	547.12
510.39	557.50
510.75	567.93
511.12	578.54
511.48	589.53
511.84	600.72
512.20	611.97
512.56	623.60
512.92	635.45
513.28	647.51
513.64	659.65
514.00	671.97
514.37	684.55
514.73	697.20
515.09	709.83
515.45	722.78
515.81	735.92
516.17	749.44
516.53	763.15
516.89	776.93
517.25	790.71
517.61	804.75
517.97	818.67
518.33	832.72
518.69	847.06
519.05	861.62
519.41	876.31
519.77	891.38
520.13	906.31
520.49	921.31
520.85	936.14
521.21	951.39
521.57	967.17
521.93	982.42
522.29	998.29
522.65	1014.03
523.01	1029.73
523.37	1045.34
523.73	1060.97
524.09	1076.60
524.45	1092.25
524.81	1108.36
525.17	1124.61
525.53	1141.00
525.89	1157.30
526.25	1173.66
526.61	1189.50
526.97	1205.86
527.33	1221.80
527.68	1237.92
528.04	1253.75
528.40	1269.76
528.76	1286.41
529.12	1302.49
529.48	1318.86
529.84	1334.46
530.20	1350.54
530.56	1367.03
530.91	1383.88
531.27	1400.29
531.63	1416.13
531.99	1432.30
532.35	1447.89
532.71	1463.36
533.07	1479.17
533.42	1494.75
533.78	1510.38
534.14	1526.25
534.50	1541.09
534.86	1556.61
535.21	1571.38
535.57	1587.06
535.93	1602.22
536.29	1616.46
536.65	1631.16
537.00	1645.64
537.36	1660.63
537.72	1674.85
538.08	1688.93
538.44	1702.51
538.79	1716.06
539.15	1729.38
539.51	1742.85
539.87	1756.79
540.22	1770.20
540.58	1783.63
540.94	1796.48
541.29	1808.95
541.65	1821.42
542.01	1834.50
542.37	1846.69
542.72	1858.94
543.08	1870.65
543.44	1882.85
543.79	1894.09
544.15	1905.01
544.51	1916.50
544.87	1927.33
545.22	1938.26
545.58	1948.51
545.94	1958.25
546.29	1968.17
546.65	1978.22
547.01	1987.73
547.36	1996.53
547.72	2005.19
548.07	2013.27
548.43	2021.67
548.79	2029.75
549.14	2037.54
549.50	2044.92
549.86	2052.60
550.21	2060.04
550.57	2067.36
550.92	2074.22
551.28	2081.42
551.64	2088.72
551.99	2095.35
552.35	2101.88
552.70	2108.28
553.06	2114.63
553.41	2121.33
553.77	2127.42
554.13	2133.68
554.48	2139.88
554.84	2145.84
555.19	2151.42
555.55	2157.04
555.90	2162.02
556.26	2167.64
556.61	2172.64
556.97	2177.47
557.32	2182.07
557.68	2186.62
558.03	2191.10
558.39	2195.04
558.74	2200.01
559.10	2204.24
559.45	2208.36
559.81	2212.90
560.16	2217.01
560.52	2220.58
560.87	2224.29
561.23	2227.48
561.58	2230.87
561.94	2233.92
562.29	2236.59
562.64	2239.78
563.00	2242.58
563.35	2246.40
563.71	2249.81
564.06	2253.25
564.42	2256.39
564.77	2259.41
565.12	2262.25
565.48	2264.71
565.83	2267.15
566.19	2269.15
566.54	2270.37
566.89	2272.04
567.25	2273.13
567.60	2274.72
567.96	2276.92
568.31	2278.22
568.66	2279.73
569.02	2280.84
569.37	2281.58
569.72	2282.85
570.08	2283.42
570.43	2283.90
570.78	2283.88
571.14	2282.69
571.49	2281.87
571.84	2281.91
572.20	2281.17
572.55	2280.49
572.90	2279.20
573.26	2278.19
573.61	2276.55
573.96	2275.28
574.31	2272.78
574.67	2270.19
575.02	2267.19
575.37	2264.07
575.72	2260.87
576.08	2257.90
576.43	2254.67
576.78	2251.53
577.13	2248.79
577.49	2245.82
577.84	2242.76
578.19	2239.15
578.54	2236.05
578.90	2232.34
579.25	2227.26
579.60	2222.82
579.95	2218.17
580.30	2213.57
580.66	2208.91
581.01	2204.40
581.36	2199.76
581.71	2195.91
582.06	2191.91
582.42	2187.75
582.77	2182.89
583.12	2178.52
583.47	2174.44
583.82	2170.03
584.17	2165.00
584.53	2159.80
584.88	2154.55
585.23	2149.21
585.58	2144.10
585.93	2138.82
586.28	2134.09
586.63	2129.36
586.98	2124.40
587.34	2119.93
587.69	2115.33
588.04	2110.43
588.39	2105.21
588.74	2099.03
589.09	2093.11
589.44	2086.63
589.79	2080.69
590.14	2075.23
590.49	2068.84
590.84	2062.34
591.19	2056.46
591.54	2050.35
591.89	2043.37
592.25	2037.01
592.60	2029.97
592.95	2022.82
593.30	2015.82
593.65	2008.48
594.00	2001.59
594.35	1994.48
594.70	1986.50
595.05	1979.59
595.40	1972.28
595.75	1964.95
596.10	1959.05
596.45	1952.53
596.80	1946.50
597.15	1940.11
597.50	1933.55
597.85	1927.26
598.19	1920.94
598.54	1914.35
598.89	1907.77
599.24	1901.96
599.59	1895.56
599.94	1889.41
600.29	1883.06
600.64	1876.51
600.99	1869.29
601.34	1862.73
601.69	1855.78
602.04	1849.19
602.39	1841.95
602.74	1835.39
603.08	1828.67
603.43	1822.01
603.78	1814.82
604.13	1807.71
604.48	1800.80
604.83	1793.80
605.18	1787.07
605.53	1779.30
605.87	1771.21
606.22	1763.89
606.57	1755.91
606.92	1748.42
607.27	1741.45
607.62	1734.74
607.96	1727.60
608.31	1721.28
608.66	1713.62
609.01	1706.27
609.36	1698.81
609.70	1690.83
610.05	1682.77
610.40	1675.11
610.75	1666.82
611.10	1659.08
611.44	1650.48
611.79	1642.17
612.14	1633.57
612.49	1624.30
612.83	1615.63
613.18	1607.40
613.53	1599.44
613.88	1590.90
614.22	1582.50
614.57	1573.74
614.92	1565.56
615.27	1557.98
615.61	1549.49
615.96	1541.40
616.31	1533.61
616.65	1526.20
617.00	1518.58
617.35	1510.91
617.70	1502.59
618.04	1494.03
618.39	1485.75
618.74	1478.23
619.08	1469.89
619.43	1462.15
619.78	1455.12
620.12	1448.05
620.47	1440.42
620.82	1431.92
621.16	1424.35
621.51	1416.71
621.85	1409.01
622.20	1400.31
622.55	1391.77
622.89	1383.76
623.24	1375.96
623.59	1368.41
623.93	1360.79
624.28	1353.41
624.62	1345.75
624.97	1338.44
625.32	1331.46
625.66	1324.19
626.01	1317.02
626.35	1309.75
626.70	1301.91
627.04	1294.13
627.39	1286.21
627.73	1278.72
628.08	1271.93
628.43	1264.68
628.77	1257.36
629.12	1249.76
629.46	1242.55
629.81	1234.95
630.15	1227.62
630.50	1220.13
630.84	1211.97
631.19	1203.82
631.53	1196.19
631.88	1188.45
632.22	1180.80
632.57	1173.53
632.91	1166.01
633.26	1158.41
633.60	1150.79
633.95	1143.44
634.29	1136.21
634.64	1129.32
634.98	1121.89
635.32	1114.54
635.67	1107.70
636.01	1100.93
636.36	1094.01
636.70	1087.49
637.05	1080.91
637.39	1074.46
637.73	1068.02
638.08	1062.02
638.42	1055.99
638.77	1049.46
639.11	1042.93
639.45	1036.43
639.80	1029.71
640.14	1023.32
640.49	1016.77
640.83	1010.36
641.17	1004.21
641.52	997.95
641.86	991.45
642.20	985.55
642.55	979.18
642.89	972.73
643.23	965.99
643.58	960.19
643.92	953.98
644.26	948.00
644.61	941.86
644.95	935.90
645.29	929.43
645.64	922.70
645.98	916.33
646.32	910.28
646.66	904.28
647.01	898.43
647.35	892.67
647.69	886.76
648.04	881.26
648.38	875.49
648.72	869.56
649.06	863.59
649.41	857.71
649.75	851.84
650.09	845.94
650.43	840.27
650.78	834.17
651.12	828.14
651.46	822.33
651.80	816.70
652.14	811.21
652.49	805.82
652.83	800.63
653.17	795.11
653.51	789.55
653.85	784.12
654.20	778.54
654.54	772.50
654.88	766.72
655.22	760.75
655.56	755.03
655.90	749.41
656.25	744.17
656.59	738.77
656.93	733.70
657.27	728.59
657.61	723.15
657.95	718.01
658.29	712.97
658.64	707.58
658.98	702.15
659.32	696.51
659.66	691.32
660.00	686.01
660.34	681.02
660.68	676.01
661.02	670.93
661.36	666.17
661.70	661.67
662.05	657.35
662.39	653.04
662.73	648.53
663.07	644.21
663.41	639.75
663.75	635.21
664.09	630.64
664.43	626.16
664.77	622.06
665.11	617.78
665.45	613.57
665.79	609.66
666.13	605.51
666.47	601.52
666.81	597.32
667.15	593.17
667.49	589.18
667.83	585.26
668.17	581.28
668.51	577.21
668.85	573.11
669.19	569.18
669.53	565.40
669.87	561.53
670.21	557.71
670.55	553.98
670.89	550.61
671.23	547.19
671.57	543.62
671.91	540.06
672.25	536.50
672.58	532.98
672.92	529.47
673.26	526.27
673.60	523.07
673.94	519.93
674.28	516.95
674.62	514.00
674.96	511.02
675.30	508.16
675.64	505.24
675.97	502.42
676.31	499.56
676.65	496.60
676.99	493.85
677.33	490.99
677.67	488.20
678.01	485.14
678.34	482.13
678.68	479.24
679.02	476.34
679.36	473.53
679.70	470.75
680.04	467.99
680.37	465.16
680.71	462.36
681.05	459.73
681.39	457.02
681.73	454.35
682.06	451.79
682.40	449.12
682.74	446.56
683.08	444.06
683.42	441.45
683.75	438.89
684.09	436.30
684.43	433.82
684.77	431.30
685.10	428.94
685.44	426.57
685.78	424.24
686.12	421.97
686.45	419.70
686.79	417.41
687.13	415.22
687.46	413.02
687.80	410.78
688.14	408.51
688.48	406.40
688.81	404.17
689.15	401.98
689.49	399.82
689.82	397.67
690.16	395.53
690.50	393.55
690.83	391.63
691.17	389.66
691.51	387.75
691.84	385.87
692.18	383.89
692.52	381.95
692.85	379.99
693.19	378.13
693.52	376.28
693.86	374.41
694.20	372.56
694.53	370.71
694.87	368.89
695.21	367.07
695.54	365.22
695.88	363.48
696.21	361.70
696.55	360.05
696.88	358.37
697.22	356.65
697.56	354.97
697.89	353.26
698.23	351.64
698.56	349.99
698.90	348.44
699.23	346.82
699.57	345.20
699.90	343.63
700.24	342.05
700.58	340.51
700.91	339.02
701.25	337.56
701.58	336.18
701.92	334.77
702.25	333.35
702.59	331.98
702.92	330.66
703.26	329.34
703.59	328.03
703.93	326.83
704.26	325.61
704.60	324.32
704.93	323.02
705.26	321.77
705.60	320.54
705.93	319.39
706.27	318.30
706.60	317.23
706.94	316.13
707.27	314.97
707.61	313.82
707.94	312.77
708.27	311.65
708.61	310.54
708.94	309.51
709.28	308.52
709.61	307.53
709.94	306.52
710.28	305.50
710.61	304.49
710.95	303.42
711.28	302.47
711.61	301.52
711.95	300.64
712.28	299.68
712.61	298.74
712.95	297.76
713.28	296.86
713.61	295.94
713.95	295.07
714.28	294.20
714.61	293.37
714.95	292.50
715.28	291.63
715.61	290.76
715.95	289.91
716.28	289.07
716.61	288.24
716.95	287.37
717.28	286.62
717.61	285.84
717.94	285.05
718.28	284.23
718.61	283.48
718.94	282.74
719.27	282.07
719.61	281.40
719.94	280.70
720.27	279.97
720.60	279.29
720.94	278.68
721.27	278.08
721.60	277.50
721.93	276.89
722.27	276.34
722.60	275.77
722.93	275.19
723.26	274.64
723.59	274.05
723.93	273.51
724.26	272.96
724.59	272.40
724.92	271.88
725.25	271.40
725.59	270.85
725.92	270.34
726.25	269.81
726.58	269.30
726.91	268.81
727.24	268.33
727.57	267.83
727.91	267.27
728.24	266.79
728.57	266.28
728.90	265.82
729.23	265.31
729.56	264.88
729.89	264.38
730.22	263.86
730.55	263.40
730.89	262.95
731.22	262.46
731.55	262.05
731.88	261.62
732.21	261.17
732.54	260.72
732.87	260.32
733.20	259.88
733.53	259.47
733.86	259.08
734.19	258.64
734.52	258.28
734.85	257.96
735.18	257.55
735.51	257.19
735.84	256.79
736.17	256.44
736.50	256.01
736.83	255.79
737.16	255.47
737.49	255.10
737.82	254.74
738.15	254.41
738.48	254.06
738.81	253.70
739.14	253.36
739.47	253.08
739.80	252.72
740.13	252.42
740.46	252.08
740.79	251.74
741.12	251.44
741.45	251.12
741.78	250.78
742.11	250.53
742.44	250.23
742.77	249.94
743.10	249.63
743.43	249.32
743.75	248.92
744.08	248.75
744.41	248.47
744.74	248.20
745.07	247.92
745.40	247.66
745.73	247.42
746.06	247.16
746.39	246.90
746.71	246.62
747.04	246.33
747.37	246.07
747.70	245.87
748.03	245.65
748.36	245.41
748.68	245.15
749.01	244.85
749.34	244.65
749.67	244.41
750.00	244.19
750.33	244.05
750.65	243.84
750.98	243.49
751.31	243.29
751.64	243.08
751.97	242.89
752.29	242.68
752.62	242.44
752.95	242.22
753.28	241.98
753.60	241.76
753.93	241.59
754.26	241.37
754.59	241.14
754.91	240.92
755.24	240.73
755.57	240.53
755.90	240.33
756.22	240.10
756.55	239.89
756.88	239.66
757.20	239.41
757.53	239.22
757.86	239.07
758.19	238.89
758.51	238.69
758.84	238.46
759.17	238.26
759.49	238.11
759.82	237.98
760.15	237.82
760.47	237.70
760.80	237.50
761.13	237.42
761.45	237.23
761.78	237.09
762.11	236.92
762.43	236.74
762.76	236.63
763.08	236.50
763.41	236.37
763.74	236.28
764.06	236.12
764.39	235.96
764.71	235.83
765.04	235.70
765.37	235.58
765.69	235.44
766.02	235.30
766.34	235.16
766.67	235.00
767.00	234.91
767.32	234.80
767.65	234.76
767.97	234.58
768.30	234.42
768.62	234.27
768.95	234.16
769.27	234.04
769.60	233.92
769.92	233.79
770.25	233.67
770.57	233.55
770.90	233.45
771.22	233.34
771.55	233.21
771.87	233.11
772.20	232.98
772.52	232.97
772.85	232.98
773.17	232.85
773.50	232.74
773.82	232.62
774.15	232.47
774.47	232.28
774.80	232.21
775.12	232.17
775.45	232.08
775.77	232.03
776.09	231.98
776.42	231.85
776.74	231.81
777.07	231.70
777.39	231.58
777.72	231.49
778.04	231.43
778.36	231.37
778.69	231.30
779.01	231.26
779.33	231.12
779.66	230.96
779.98	230.90
780.31	230.83
780.63	230.81
780.95	230.82
781.28	230.78
781.60	230.75
781.92	230.69
782.25	230.66
782.57	230.55
782.89	230.49
783.22	230.47
783.54	230.40
783.86	230.36
784.19	230.31
784.51	230.29
784.83	230.20
785.16	230.13
785.48	230.10
785.80	230.05
786.12	230.00
786.45	229.94
786.77	229.93
787.09	229.90
