SpectraSuite Data File
++++++++++++++++++++++++++++++++++++
Date: Fri Feb 01 16:21:57 EST 2013
User: group
Dark Spectrum Present: No
Reference Spectrum Present: No
Number of Sampled Component Spectra: 1
Spectrometers: USB2E7196
Integration Time (usec): 35000 (USB2E7196)
Spectra Averaged: 100 (USB2E7196)
Boxcar Smoothing: 10 (USB2E7196)
Correct for Electrical Dark: No (USB2E7196)
Strobe/Lamp Enabled: No (USB2E7196)
Correct for Detector Non-linearity: No (USB2E7196)
Correct for Stray Light: No (USB2E7196)
Number of Pixels in Processed Spectrum: 2048
>>>>>Begin Processed Spectral Data<<<<<
339.09	0.00
339.48	214.22
339.86	215.57
340.24	216.79
340.63	218.14
341.01	220.90
341.39	221.54
341.78	222.24
342.16	223.49
342.54	223.71
342.93	212.62
343.31	223.37
343.69	223.90
344.07	224.34
344.46	224.77
344.84	225.17
345.22	225.42
345.60	225.65
345.99	225.86
346.37	225.99
346.75	226.11
347.13	226.19
347.52	226.24
347.90	226.29
348.28	226.29
348.66	226.34
349.05	226.36
349.43	226.38
349.81	226.45
350.19	226.52
350.57	226.57
350.96	226.60
351.34	226.66
351.72	226.75
352.10	226.88
352.48	226.97
352.87	227.03
353.25	227.13
353.63	227.18
354.01	227.22
354.39	227.31
354.77	227.39
355.15	227.47
355.54	227.53
355.92	227.58
356.30	227.68
356.68	227.80
357.06	227.83
357.44	227.88
357.82	227.91
358.20	227.94
358.58	227.99
358.97	228.05
359.35	228.17
359.73	228.25
360.11	228.29
360.49	228.34
360.87	228.37
361.25	228.39
361.63	228.48
362.01	228.56
362.39	228.59
362.77	228.62
363.15	228.63
363.53	228.65
363.91	228.68
364.29	228.69
364.67	228.58
365.05	228.59
365.43	228.61
365.81	228.61
366.19	228.66
366.57	228.69
366.95	228.63
367.33	228.57
367.71	228.55
368.09	228.54
368.47	228.51
368.85	228.49
369.23	228.48
369.61	228.41
369.99	228.38
370.37	228.36
370.75	228.37
371.13	228.30
371.51	228.26
371.89	228.21
372.27	228.17
372.65	228.13
373.03	228.10
373.41	228.02
373.78	227.99
374.16	227.86
374.54	227.78
374.92	227.78
375.30	227.71
375.68	227.62
376.06	227.56
376.44	227.47
376.82	227.40
377.19	227.29
377.57	227.22
377.95	227.12
378.33	227.02
378.71	226.90
379.09	226.86
379.47	226.78
379.84	226.71
380.22	226.62
380.60	226.56
380.98	226.49
381.36	226.42
381.73	226.34
382.11	226.32
382.49	226.23
382.87	226.14
383.25	226.07
383.62	226.14
384.00	226.06
384.38	226.00
384.76	225.99
385.13	225.99
385.51	225.91
385.89	225.88
386.27	225.84
386.64	225.80
387.02	225.76
387.40	225.72
387.78	225.68
388.15	225.67
388.53	225.64
388.91	225.64
389.29	225.60
389.66	225.56
390.04	225.52
390.42	225.51
390.79	225.51
391.17	225.51
391.55	225.38
391.92	225.42
392.30	225.43
392.68	225.39
393.05	225.38
393.43	225.39
393.81	225.40
394.18	225.40
394.56	225.42
394.94	225.46
395.31	225.46
395.69	225.51
396.06	225.55
396.44	225.60
396.82	225.59
397.19	225.69
397.57	225.72
397.95	225.79
398.32	225.85
398.70	225.93
399.07	225.99
399.45	226.05
399.82	226.09
400.20	226.15
400.58	226.23
400.95	226.27
401.33	226.40
401.70	226.54
402.08	226.63
402.45	226.74
402.83	226.83
403.20	226.97
403.58	227.09
403.95	227.21
404.33	227.32
404.71	227.46
405.08	227.67
405.46	227.83
405.83	227.96
406.21	228.12
406.58	228.27
406.96	228.44
407.33	228.61
407.70	228.81
408.08	229.09
408.45	229.29
408.83	229.55
409.20	229.73
409.58	229.88
409.95	230.14
410.33	230.41
410.70	230.62
411.08	230.90
411.45	231.16
411.82	231.44
412.20	231.81
412.57	232.22
412.95	232.44
413.32	232.85
413.69	233.24
414.07	233.64
414.44	234.10
414.82	234.54
415.19	235.07
415.56	235.59
415.94	236.12
416.31	236.75
416.68	237.36
417.06	238.07
417.43	238.77
417.81	239.52
418.18	240.25
418.55	241.10
418.93	241.97
419.30	242.87
419.67	243.80
420.04	244.72
420.42	245.69
420.79	246.90
421.16	248.02
421.54	249.22
421.91	250.40
422.28	251.66
422.66	253.05
423.03	254.37
423.40	255.70
423.77	257.13
424.15	258.54
424.52	260.02
424.89	261.65
425.26	263.17
425.64	264.62
426.01	266.26
426.38	267.92
426.75	269.61
427.13	271.31
427.50	273.13
427.87	274.99
428.24	276.86
428.61	278.57
428.99	280.55
429.36	282.65
429.73	284.69
430.10	286.70
430.47	288.70
430.85	290.78
431.22	292.99
431.59	295.33
431.96	297.60
432.33	300.10
432.70	302.47
433.08	305.29
433.45	307.94
433.82	310.51
434.19	313.39
434.56	316.15
434.93	318.81
435.30	321.44
435.68	324.29
436.05	327.08
436.42	329.89
436.79	332.38
437.16	335.05
437.53	337.91
437.90	340.75
438.27	343.52
438.64	346.35
439.01	348.98
439.38	351.20
439.75	353.35
440.13	355.81
440.50	358.16
440.87	360.00
441.24	361.94
441.61	364.08
441.98	365.59
442.35	367.40
442.72	369.27
443.09	371.07
443.46	372.11
443.83	372.69
444.20	373.19
444.57	374.04
444.94	374.33
445.31	374.66
445.68	374.98
446.05	375.04
446.42	374.67
446.79	374.26
447.16	373.84
447.53	373.45
447.90	372.31
448.27	371.15
448.64	369.62
449.01	368.45
449.37	366.49
449.74	364.58
450.11	362.34
450.48	359.88
450.85	357.34
451.22	355.22
451.59	353.20
451.96	351.27
452.33	348.65
452.70	346.26
453.07	343.45
453.43	340.57
453.80	337.83
454.17	335.17
454.54	332.59
454.91	329.87
455.28	327.29
455.65	324.78
456.02	322.33
456.38	320.14
456.75	317.53
457.12	315.30
457.49	313.06
457.86	310.92
458.23	309.05
458.59	307.00
458.96	304.91
459.33	303.10
459.70	301.23
460.07	299.74
460.43	298.06
460.80	296.46
461.17	295.04
461.54	293.55
461.91	292.08
462.27	290.64
462.64	289.36
463.01	287.97
463.38	286.67
463.74	285.29
464.11	284.13
464.48	283.09
464.85	281.97
465.21	281.13
465.58	280.19
465.95	279.13
466.32	278.24
466.68	277.33
467.05	276.44
467.42	275.55
467.78	274.61
468.15	273.72
468.52	273.06
468.88	272.18
469.25	271.43
469.62	270.82
469.98	270.17
470.35	269.56
470.72	269.01
471.08	268.38
471.45	267.91
471.82	267.37
472.18	266.77
472.55	266.34
472.92	265.80
473.28	265.33
473.65	264.84
474.02	264.42
474.38	264.05
474.75	263.72
475.11	263.39
475.48	263.16
475.85	262.92
476.21	262.69
476.58	262.54
476.94	262.40
477.31	262.26
477.67	262.10
478.04	262.03
478.41	261.95
478.77	262.01
479.14	261.92
479.50	261.94
479.87	262.01
480.23	262.13
480.60	262.25
480.96	262.35
481.33	262.62
481.69	262.78
482.06	263.02
482.42	263.21
482.79	263.47
483.15	263.77
483.52	264.21
483.88	264.58
484.25	264.99
484.61	265.39
484.98	265.85
485.34	266.39
485.71	266.98
486.07	267.62
486.44	268.19
486.80	268.91
487.17	269.65
487.53	270.47
487.90	271.33
488.26	272.23
488.62	273.28
488.99	274.23
489.35	275.32
489.72	276.43
490.08	277.71
490.44	278.96
490.81	280.32
491.17	281.64
491.54	283.10
491.90	284.63
492.26	286.35
492.63	288.09
492.99	289.93
493.36	291.84
493.72	293.86
494.08	295.95
494.45	298.19
494.81	300.55
495.17	303.01
495.54	305.58
495.90	308.30
496.26	311.07
496.63	314.06
496.99	317.18
497.35	320.47
497.72	323.82
498.08	327.37
498.44	331.04
498.80	334.99
499.17	339.07
499.53	343.27
499.89	347.62
500.26	352.15
500.62	356.80
500.98	361.79
501.34	366.94
501.71	372.30
502.07	377.75
502.43	383.38
502.79	389.20
503.16	395.31
503.52	401.59
503.88	408.05
504.24	414.73
504.60	421.67
504.97	428.82
505.33	436.18
505.69	443.89
506.05	451.66
506.41	459.55
506.78	467.73
507.14	476.19
507.50	484.93
507.86	494.02
508.22	503.21
508.59	512.39
508.95	521.99
509.31	531.90
509.67	542.00
510.03	552.28
510.39	562.77
510.75	573.57
511.12	584.48
511.48	595.75
511.84	607.19
512.20	618.68
512.56	630.57
512.92	642.75
513.28	655.10
513.64	667.69
514.00	680.44
514.37	693.40
514.73	706.42
515.09	719.44
515.45	732.66
515.81	746.30
516.17	760.24
516.53	774.28
516.89	788.32
517.25	802.52
517.61	816.91
517.97	831.44
518.33	845.88
518.69	860.70
519.05	875.63
519.41	890.81
519.77	906.29
520.13	921.79
520.49	937.12
520.85	952.54
521.21	968.15
521.57	984.34
521.93	999.99
522.29	1016.31
522.65	1032.47
523.01	1048.66
523.37	1064.61
523.73	1080.81
524.09	1096.84
524.45	1113.16
524.81	1129.70
525.17	1146.47
525.53	1163.31
525.89	1180.11
526.25	1196.80
526.61	1213.14
526.97	1229.82
527.33	1246.15
527.68	1262.53
528.04	1278.92
528.40	1295.39
528.76	1312.27
529.12	1328.72
529.48	1345.55
529.84	1361.35
530.20	1377.90
530.56	1394.88
530.91	1412.26
531.27	1428.88
531.63	1445.36
531.99	1461.85
532.35	1477.66
532.71	1493.45
533.07	1509.61
533.42	1525.40
533.78	1541.38
534.14	1557.61
534.50	1572.85
534.86	1588.77
535.21	1604.07
535.57	1619.91
535.93	1635.36
536.29	1650.20
536.65	1665.26
537.00	1679.95
537.36	1695.30
537.72	1709.87
538.08	1724.12
538.44	1737.72
538.79	1751.67
539.15	1765.09
539.51	1778.72
539.87	1793.06
540.22	1806.81
540.58	1820.48
540.94	1833.81
541.29	1846.67
541.65	1859.27
542.01	1872.45
542.37	1884.76
542.72	1897.11
543.08	1909.04
543.44	1921.36
543.79	1932.49
544.15	1943.39
544.51	1954.97
544.87	1965.99
545.22	1976.66
545.58	1986.87
545.94	1996.68
546.29	2006.38
546.65	2016.39
547.01	2025.65
547.36	2034.38
547.72	2042.85
548.07	2050.78
548.43	2058.79
548.79	2066.80
549.14	2074.30
549.50	2081.53
549.86	2089.05
550.21	2096.25
550.57	2103.22
550.92	2109.70
551.28	2116.70
551.64	2123.73
551.99	2130.06
552.35	2136.18
552.70	2142.30
553.06	2148.24
553.41	2154.47
553.77	2160.60
554.13	2166.51
554.48	2172.49
554.84	2178.01
555.19	2183.09
555.55	2188.12
555.90	2192.60
556.26	2197.42
556.61	2202.13
556.97	2206.50
557.32	2210.62
557.68	2214.81
558.03	2219.06
558.39	2222.76
558.74	2227.47
559.10	2231.45
559.45	2235.32
559.81	2239.57
560.16	2243.42
560.52	2246.62
560.87	2250.11
561.23	2252.68
561.58	2255.77
561.94	2258.33
562.29	2260.48
562.64	2263.27
563.00	2265.81
563.35	2269.24
563.71	2272.41
564.06	2275.71
564.42	2278.49
564.77	2281.00
565.12	2283.34
565.48	2285.22
565.83	2287.23
566.19	2288.43
566.54	2289.30
566.89	2290.25
567.25	2290.99
567.60	2292.37
567.96	2294.17
568.31	2295.11
568.66	2296.26
569.02	2296.71
569.37	2297.11
569.72	2298.03
570.08	2298.24
570.43	2298.39
570.78	2297.98
571.14	2296.50
571.49	2295.02
571.84	2294.85
572.20	2293.81
572.55	2292.80
572.90	2291.31
573.26	2289.93
573.61	2288.40
573.96	2286.77
574.31	2283.99
574.67	2280.95
575.02	2277.36
575.37	2274.07
575.72	2270.32
576.08	2267.00
576.43	2263.82
576.78	2260.22
577.13	2257.17
577.49	2254.08
577.84	2250.53
578.19	2246.81
578.54	2243.25
578.90	2239.23
579.25	2233.58
579.60	2228.72
579.95	2223.79
580.30	2218.92
580.66	2213.82
581.01	2208.91
581.36	2203.89
581.71	2199.74
582.06	2195.26
582.42	2190.79
582.77	2185.56
583.12	2180.98
583.47	2176.27
583.82	2171.39
584.17	2166.26
584.53	2160.85
584.88	2155.25
585.23	2149.57
585.58	2144.23
585.93	2138.78
586.28	2134.04
586.63	2129.19
586.98	2124.17
587.34	2119.55
587.69	2114.70
588.04	2109.41
588.39	2103.80
588.74	2097.46
589.09	2091.38
589.44	2084.66
589.79	2078.76
590.14	2073.12
590.49	2066.60
590.84	2060.22
591.19	2054.24
591.54	2047.82
591.89	2040.48
592.25	2033.75
592.60	2026.59
592.95	2018.95
593.30	2011.57
593.65	2004.06
594.00	1997.00
594.35	1989.75
594.70	1981.57
595.05	1974.49
595.40	1967.28
595.75	1959.86
596.10	1953.60
596.45	1946.97
596.80	1940.97
597.15	1934.42
597.50	1927.36
597.85	1920.87
598.19	1914.29
598.54	1907.09
598.89	1900.45
599.24	1894.56
599.59	1887.94
599.94	1881.83
600.29	1875.62
600.64	1869.19
600.99	1861.72
601.34	1854.95
601.69	1848.01
602.04	1841.19
602.39	1833.71
602.74	1826.91
603.08	1820.10
603.43	1813.44
603.78	1805.98
604.13	1798.67
604.48	1791.34
604.83	1784.50
605.18	1777.58
605.53	1769.55
605.87	1761.59
606.22	1754.39
606.57	1746.49
606.92	1739.21
607.27	1731.97
607.62	1725.09
607.96	1717.83
608.31	1711.23
608.66	1703.68
609.01	1696.17
609.36	1688.69
609.70	1680.63
610.05	1672.56
610.40	1664.91
610.75	1656.64
611.10	1649.12
611.44	1640.66
611.79	1632.52
612.14	1624.05
612.49	1614.91
612.83	1606.63
613.18	1598.52
613.53	1590.39
613.88	1581.78
614.22	1573.40
614.57	1564.88
614.92	1556.86
615.27	1549.28
615.61	1540.90
615.96	1532.76
616.31	1524.99
616.65	1517.50
617.00	1510.03
617.35	1502.35
617.70	1494.03
618.04	1485.36
618.39	1477.04
618.74	1469.48
619.08	1461.28
619.43	1453.43
619.78	1446.59
620.12	1439.39
620.47	1431.84
620.82	1423.60
621.16	1416.27
621.51	1408.74
621.85	1401.03
622.20	1392.48
622.55	1384.05
622.89	1376.28
623.24	1368.58
623.59	1361.27
623.93	1353.81
624.28	1346.59
624.62	1339.09
624.97	1331.83
625.32	1325.23
625.66	1318.26
626.01	1311.19
626.35	1303.77
626.70	1296.10
627.04	1288.22
627.39	1280.38
627.73	1273.03
628.08	1266.21
628.43	1258.89
628.77	1251.52
629.12	1244.01
629.46	1236.73
629.81	1229.30
630.15	1222.02
630.50	1214.66
630.84	1206.37
631.19	1198.30
631.53	1190.71
631.88	1183.09
632.22	1175.48
632.57	1168.08
632.91	1160.44
633.26	1152.90
633.60	1145.49
633.95	1138.43
634.29	1131.41
634.64	1124.73
634.98	1117.33
635.32	1110.05
635.67	1103.36
636.01	1096.70
636.36	1089.86
636.70	1083.43
637.05	1076.90
637.39	1070.42
637.73	1063.89
638.08	1058.07
638.42	1052.16
638.77	1045.78
639.11	1039.20
639.45	1032.76
639.80	1026.14
640.14	1019.72
640.49	1013.25
640.83	1006.90
641.17	1000.59
641.52	994.28
641.86	987.84
642.20	981.99
642.55	975.62
642.89	969.25
643.23	962.68
643.58	956.92
643.92	950.68
644.26	944.55
644.61	938.56
644.95	932.54
645.29	925.95
645.64	919.22
645.98	912.94
646.32	907.12
646.66	901.22
647.01	895.44
647.35	889.76
647.69	883.93
648.04	878.45
648.38	872.66
648.72	866.66
649.06	860.60
649.41	854.72
649.75	848.79
650.09	842.82
650.43	837.06
650.78	830.89
651.12	824.98
651.46	819.31
651.80	813.49
652.14	808.09
652.49	802.73
652.83	797.58
653.17	791.79
653.51	786.04
653.85	780.57
654.20	774.92
654.54	768.87
654.88	763.11
655.22	757.18
655.56	751.52
655.90	746.13
656.25	740.88
656.59	735.50
656.93	730.46
657.27	725.28
657.61	719.83
657.95	714.67
658.29	709.53
658.64	704.28
658.98	699.00
659.32	693.54
659.66	688.33
660.00	682.99
660.34	678.09
660.68	673.21
661.02	668.13
661.36	663.36
661.70	658.93
662.05	654.58
662.39	650.24
662.73	645.76
663.07	641.34
663.41	636.90
663.75	632.40
664.09	627.83
664.43	623.45
664.77	619.33
665.11	615.15
665.45	611.05
665.79	606.98
666.13	602.81
666.47	598.73
666.81	594.57
667.15	590.47
667.49	586.50
667.83	582.70
668.17	578.84
668.51	574.82
668.85	570.77
669.19	566.89
669.53	563.09
669.87	559.22
670.21	555.53
670.55	551.88
670.89	548.50
671.23	545.08
671.57	541.51
671.91	537.90
672.25	534.33
672.58	530.74
672.92	527.28
673.26	524.13
673.60	520.95
673.94	517.79
674.28	514.86
674.62	511.87
674.96	508.72
675.30	505.75
675.64	502.75
675.97	499.95
676.31	497.03
676.65	494.06
676.99	491.29
677.33	488.42
677.67	485.60
678.01	482.52
678.34	479.53
678.68	476.71
679.02	473.91
679.36	471.18
679.70	468.49
680.04	465.78
680.37	462.90
680.71	460.08
681.05	457.47
681.39	454.77
681.73	452.13
682.06	449.57
682.40	447.03
682.74	444.48
683.08	441.89
683.42	439.30
683.75	436.84
684.09	434.31
684.43	431.87
684.77	429.39
685.10	427.05
685.44	424.72
685.78	422.45
686.12	420.23
686.45	417.92
686.79	415.58
687.13	413.37
687.46	411.26
687.80	409.11
688.14	406.92
688.48	404.86
688.81	402.66
689.15	400.49
689.49	398.33
689.82	396.29
690.16	394.25
690.50	392.28
690.83	390.29
691.17	388.26
691.51	386.29
691.84	384.47
692.18	382.48
692.52	380.52
692.85	378.58
693.19	376.69
693.52	374.88
693.86	373.08
694.20	371.25
694.53	369.42
694.87	367.59
695.21	365.79
695.54	363.96
695.88	362.18
696.21	360.52
696.55	358.85
696.88	357.18
697.22	355.51
697.56	353.94
697.89	352.31
698.23	350.78
698.56	349.19
698.90	347.59
699.23	346.00
699.57	344.45
699.90	342.91
700.24	341.41
700.58	339.90
700.91	338.41
701.25	336.99
701.58	335.61
701.92	334.30
702.25	332.95
702.59	331.58
702.92	330.31
703.26	329.01
703.59	327.75
703.93	326.56
704.26	325.32
704.60	324.02
704.93	322.72
705.26	321.45
705.60	320.24
705.93	319.08
706.27	318.04
706.60	316.97
706.94	315.87
707.27	314.70
707.61	313.60
707.94	312.59
708.27	311.49
708.61	310.40
708.94	309.34
709.28	308.33
709.61	307.39
709.94	306.40
710.28	305.35
710.61	304.35
710.95	303.26
711.28	302.37
711.61	301.40
711.95	300.48
712.28	299.53
712.61	298.53
712.95	297.60
713.28	296.67
713.61	295.75
713.95	294.87
714.28	294.03
714.61	293.15
714.95	292.28
715.28	291.40
715.61	290.50
715.95	289.67
716.28	288.80
716.61	287.92
716.95	287.10
717.28	286.33
717.61	285.56
717.94	284.78
718.28	283.93
718.61	283.16
718.94	282.46
719.27	281.79
719.61	281.15
719.94	280.49
720.27	279.79
720.60	279.13
720.94	278.49
721.27	277.90
721.60	277.31
721.93	276.71
722.27	276.17
722.60	275.59
722.93	275.00
723.26	274.46
723.59	273.90
723.93	273.35
724.26	272.81
724.59	272.23
724.92	271.70
725.25	271.20
725.59	270.74
725.92	270.21
726.25	269.68
726.58	269.22
726.91	268.71
727.24	268.20
727.57	267.74
727.91	267.19
728.24	266.71
728.57	266.22
728.90	265.76
729.23	265.29
729.56	264.89
729.89	264.41
730.22	263.92
730.55	263.48
730.89	263.04
731.22	262.60
731.55	262.19
731.88	261.76
732.21	261.34
732.54	260.86
732.87	260.45
733.20	260.05
733.53	259.63
733.86	259.27
734.19	258.88
734.52	258.50
734.85	258.23
735.18	257.84
735.51	257.48
735.84	257.11
736.17	256.77
736.50	256.34
736.83	256.13
737.16	255.82
737.49	255.46
737.82	255.10
738.15	254.76
738.48	254.42
738.81	254.13
739.14	253.80
739.47	253.53
739.80	253.23
740.13	252.93
740.46	252.62
740.79	252.26
741.12	251.99
741.45	251.70
741.78	251.36
742.11	251.04
742.44	250.75
742.77	250.47
743.10	250.14
743.43	249.87
743.75	249.46
744.08	249.30
744.41	249.07
744.74	248.79
745.07	248.49
745.40	248.23
745.73	247.98
746.06	247.71
746.39	247.44
746.71	247.18
747.04	246.89
747.37	246.60
747.70	246.38
748.03	246.10
748.36	245.87
748.68	245.61
749.01	245.39
749.34	245.15
749.67	244.92
750.00	244.71
750.33	244.53
750.65	244.34
750.98	244.00
751.31	243.77
751.64	243.62
751.97	243.47
752.29	243.28
752.62	243.06
752.95	242.86
753.28	242.62
753.60	242.41
753.93	242.23
754.26	242.07
754.59	241.84
754.91	241.65
755.24	241.46
755.57	241.28
755.90	241.08
756.22	240.88
756.55	240.65
756.88	240.44
757.20	240.23
757.53	240.03
757.86	239.88
758.19	239.71
758.51	239.51
758.84	239.28
759.17	239.11
759.49	238.91
759.82	238.79
760.15	238.66
760.47	238.50
760.80	238.34
761.13	238.21
761.45	238.04
761.78	237.89
762.11	237.71
762.43	237.58
762.76	237.43
763.08	237.31
763.41	237.21
763.74	237.07
764.06	236.91
764.39	236.77
764.71	236.60
765.04	236.45
765.37	236.31
765.69	236.17
766.02	235.99
766.34	235.87
766.67	235.68
767.00	235.60
767.32	235.54
767.65	235.50
767.97	235.37
768.30	235.28
768.62	235.19
768.95	235.08
769.27	234.93
769.60	234.82
769.92	234.68
770.25	234.52
770.57	234.43
770.90	234.31
771.22	234.21
771.55	234.10
771.87	234.00
772.20	233.89
772.52	233.91
772.85	233.95
773.17	233.85
773.50	233.78
773.82	233.65
774.15	233.53
774.47	233.36
774.80	233.28
775.12	233.22
775.45	233.08
775.77	233.01
776.09	232.93
776.42	232.87
776.74	232.86
777.07	232.78
777.39	232.69
777.72	232.62
778.04	232.54
778.36	232.48
778.69	232.43
779.01	232.41
779.33	232.23
779.66	232.07
779.98	232.01
780.31	231.93
780.63	231.92
780.95	231.90
781.28	231.84
781.60	231.76
781.92	231.69
782.25	231.67
782.57	231.61
782.89	231.58
783.22	231.49
783.54	231.41
783.86	231.37
784.19	231.31
784.51	231.33
784.83	231.30
785.16	231.26
785.48	231.24
785.80	231.15
786.12	231.13
786.45	231.06
786.77	231.03
787.09	231.01
