SpectraSuite Data File
++++++++++++++++++++++++++++++++++++
Date: Fri Feb 01 16:10:49 EST 2013
User: group
Dark Spectrum Present: No
Reference Spectrum Present: No
Number of Sampled Component Spectra: 1
Spectrometers: USB2E7196
Integration Time (usec): 35000 (USB2E7196)
Spectra Averaged: 100 (USB2E7196)
Boxcar Smoothing: 10 (USB2E7196)
Correct for Electrical Dark: No (USB2E7196)
Strobe/Lamp Enabled: No (USB2E7196)
Correct for Detector Non-linearity: No (USB2E7196)
Correct for Stray Light: No (USB2E7196)
Number of Pixels in Processed Spectrum: 2048
>>>>>Begin Processed Spectral Data<<<<<
339.09	0.00
339.48	214.96
339.86	215.46
340.24	217.19
340.63	218.44
341.01	220.95
341.39	221.52
341.78	222.45
342.16	223.35
342.54	224.44
342.93	212.76
343.31	223.53
343.69	224.04
344.07	224.53
344.46	224.97
344.84	225.36
345.22	225.64
345.60	225.86
345.99	226.06
346.37	226.25
346.75	226.34
347.13	226.39
347.52	226.43
347.90	226.49
348.28	226.52
348.66	226.55
349.05	226.54
349.43	226.59
349.81	226.65
350.19	226.73
350.57	226.82
350.96	226.89
351.34	226.95
351.72	227.05
352.10	227.14
352.48	227.22
352.87	227.30
353.25	227.33
353.63	227.42
354.01	227.49
354.39	227.55
354.77	227.63
355.15	227.75
355.54	227.84
355.92	227.89
356.30	227.98
356.68	228.13
357.06	228.19
357.44	228.22
357.82	228.29
358.20	228.34
358.58	228.37
358.97	228.41
359.35	228.49
359.73	228.60
360.11	228.63
360.49	228.66
360.87	228.69
361.25	228.77
361.63	228.84
362.01	228.86
362.39	228.90
362.77	228.98
363.15	228.98
363.53	228.97
363.91	229.00
364.29	229.02
364.67	228.93
365.05	228.94
365.43	228.97
365.81	228.97
366.19	229.04
366.57	229.07
366.95	229.09
367.33	229.05
367.71	228.97
368.09	229.00
368.47	228.97
368.85	228.96
369.23	228.96
369.61	228.86
369.99	228.87
370.37	228.82
370.75	228.80
371.13	228.74
371.51	228.69
371.89	228.64
372.27	228.59
372.65	228.55
373.03	228.50
373.41	228.44
373.78	228.37
374.16	228.24
374.54	228.17
374.92	228.11
375.30	228.04
375.68	227.98
376.06	227.91
376.44	227.83
376.82	227.77
377.19	227.69
377.57	227.65
377.95	227.54
378.33	227.46
378.71	227.32
379.09	227.27
379.47	227.21
379.84	227.12
380.22	227.02
380.60	226.94
380.98	226.88
381.36	226.81
381.73	226.69
382.11	226.63
382.49	226.56
382.87	226.47
383.25	226.43
383.62	226.47
384.00	226.42
384.38	226.40
384.76	226.35
385.13	226.34
385.51	226.28
385.89	226.22
386.27	226.19
386.64	226.15
387.02	226.07
387.40	226.04
387.78	226.02
388.15	226.01
388.53	225.95
388.91	225.91
389.29	225.91
389.66	225.93
390.04	225.92
390.42	225.91
390.79	225.90
391.17	225.88
391.55	225.80
391.92	225.81
392.30	225.80
392.68	225.77
393.05	225.78
393.43	225.80
393.81	225.86
394.18	225.89
394.56	225.93
394.94	225.99
395.31	226.03
395.69	226.11
396.06	226.17
396.44	226.24
396.82	226.29
397.19	226.37
397.57	226.43
397.95	226.47
398.32	226.50
398.70	226.59
399.07	226.68
399.45	226.73
399.82	226.77
400.20	226.83
400.58	226.94
400.95	226.98
401.33	227.07
401.70	227.19
402.08	227.29
402.45	227.38
402.83	227.50
403.20	227.60
403.58	227.68
403.95	227.82
404.33	227.97
404.71	228.12
405.08	228.27
405.46	228.43
405.83	228.58
406.21	228.72
406.58	228.88
406.96	228.99
407.33	229.20
407.70	229.39
408.08	229.68
408.45	229.87
408.83	230.07
409.20	230.32
409.58	230.46
409.95	230.72
410.33	230.98
410.70	231.22
411.08	231.49
411.45	231.77
411.82	232.04
412.20	232.36
412.57	232.74
412.95	233.05
413.32	233.41
413.69	233.83
414.07	234.28
414.44	234.72
414.82	235.23
415.19	235.75
415.56	236.28
415.94	236.79
416.31	237.42
416.68	238.03
417.06	238.74
417.43	239.40
417.81	240.18
418.18	240.95
418.55	241.79
418.93	242.64
419.30	243.58
419.67	244.53
420.04	245.50
420.42	246.45
420.79	247.63
421.16	248.79
421.54	249.99
421.91	251.22
422.28	252.46
422.66	253.78
423.03	255.07
423.40	256.40
423.77	257.80
424.15	259.27
424.52	260.76
424.89	262.33
425.26	263.89
425.64	265.32
426.01	266.88
426.38	268.55
426.75	270.24
427.13	271.91
427.50	273.72
427.87	275.58
428.24	277.47
428.61	279.20
428.99	281.11
429.36	283.18
429.73	285.23
430.10	287.30
430.47	289.34
430.85	291.46
431.22	293.71
431.59	296.13
431.96	298.32
432.33	300.81
432.70	303.19
433.08	306.01
433.45	308.61
433.82	311.25
434.19	314.10
434.56	316.90
434.93	319.57
435.30	322.18
435.68	325.05
436.05	327.88
436.42	330.69
436.79	333.23
437.16	335.94
437.53	338.79
437.90	341.56
438.27	344.32
438.64	347.13
439.01	349.71
439.38	351.92
439.75	354.09
440.13	356.56
440.50	358.89
440.87	360.75
441.24	362.71
441.61	364.83
441.98	366.33
442.35	368.16
442.72	370.01
443.09	371.79
443.46	372.83
443.83	373.42
444.20	373.91
444.57	374.71
444.94	374.98
445.31	375.25
445.68	375.61
446.05	375.67
446.42	375.29
446.79	374.85
447.16	374.36
447.53	374.02
447.90	372.87
448.27	371.71
448.64	370.08
449.01	368.95
449.37	366.97
449.74	365.08
450.11	362.82
450.48	360.35
450.85	357.85
451.22	355.66
451.59	353.62
451.96	351.67
452.33	349.08
452.70	346.74
453.07	343.92
453.43	341.00
453.80	338.25
454.17	335.61
454.54	333.06
454.91	330.38
455.28	327.75
455.65	325.28
456.02	322.85
456.38	320.74
456.75	318.10
457.12	315.87
457.49	313.64
457.86	311.44
458.23	309.60
458.59	307.55
458.96	305.51
459.33	303.66
459.70	301.83
460.07	300.36
460.43	298.66
460.80	297.09
461.17	295.68
461.54	294.15
461.91	292.71
462.27	291.27
462.64	289.99
463.01	288.62
463.38	287.31
463.74	285.95
464.11	284.77
464.48	283.73
464.85	282.63
465.21	281.78
465.58	280.91
465.95	279.81
466.32	278.93
466.68	278.02
467.05	277.12
467.42	276.21
467.78	275.23
468.15	274.35
468.52	273.69
468.88	272.83
469.25	272.09
469.62	271.47
469.98	270.82
470.35	270.22
470.72	269.62
471.08	268.96
471.45	268.43
471.82	267.94
472.18	267.33
472.55	266.91
472.92	266.39
473.28	265.88
473.65	265.46
474.02	264.97
474.38	264.59
474.75	264.24
475.11	263.91
475.48	263.66
475.85	263.39
476.21	263.19
476.58	263.01
476.94	262.86
477.31	262.70
477.67	262.57
478.04	262.44
478.41	262.39
478.77	262.45
479.14	262.36
479.50	262.35
479.87	262.48
480.23	262.52
480.60	262.58
480.96	262.69
481.33	262.89
481.69	263.10
482.06	263.32
482.42	263.55
482.79	263.82
483.15	264.12
483.52	264.53
483.88	264.85
484.25	265.26
484.61	265.71
484.98	266.17
485.34	266.76
485.71	267.38
486.07	267.99
486.44	268.56
486.80	269.29
487.17	270.05
487.53	270.85
487.90	271.73
488.26	272.68
488.62	273.65
488.99	274.62
489.35	275.67
489.72	276.80
490.08	277.98
490.44	279.22
490.81	280.60
491.17	281.95
491.54	283.42
491.90	284.92
492.26	286.56
492.63	288.28
492.99	290.02
493.36	291.90
493.72	293.98
494.08	296.11
494.45	298.35
494.81	300.71
495.17	303.14
495.54	305.71
495.90	308.43
496.26	311.26
496.63	314.21
496.99	317.34
497.35	320.58
497.72	324.03
498.08	327.57
498.44	331.26
498.80	335.23
499.17	339.30
499.53	343.52
499.89	347.91
500.26	352.51
500.62	357.19
500.98	362.19
501.34	367.20
501.71	372.55
502.07	378.02
502.43	383.65
502.79	389.47
503.16	395.57
503.52	401.83
503.88	408.22
504.24	414.89
504.60	421.80
504.97	428.96
505.33	436.30
505.69	443.98
506.05	451.73
506.41	459.57
506.78	467.76
507.14	476.21
507.50	484.92
507.86	493.87
508.22	503.10
508.59	512.30
508.95	522.00
509.31	531.83
509.67	541.95
510.03	552.15
510.39	562.66
510.75	573.49
511.12	584.44
511.48	595.81
511.84	607.26
512.20	618.76
512.56	630.65
512.92	642.87
513.28	655.27
513.64	667.73
514.00	680.45
514.37	693.38
514.73	706.41
515.09	719.41
515.45	732.73
515.81	746.32
516.17	760.27
516.53	774.29
516.89	788.41
517.25	802.52
517.61	816.97
517.97	831.45
518.33	845.84
518.69	860.56
519.05	875.56
519.41	890.72
519.77	906.28
520.13	921.74
520.49	936.99
520.85	952.37
521.21	968.13
521.57	984.40
521.93	1000.10
522.29	1016.47
522.65	1032.68
523.01	1048.83
523.37	1064.91
523.73	1081.12
524.09	1097.22
524.45	1113.48
524.81	1130.17
525.17	1147.05
525.53	1163.90
525.89	1180.66
526.25	1197.52
526.61	1213.85
526.97	1230.48
527.33	1246.90
527.68	1263.42
528.04	1279.91
528.40	1296.52
528.76	1313.56
529.12	1330.13
529.48	1347.04
529.84	1363.00
530.20	1379.54
530.56	1396.53
530.91	1413.77
531.27	1430.52
531.63	1446.81
531.99	1463.38
532.35	1479.26
532.71	1494.98
533.07	1511.20
533.42	1527.09
533.78	1543.03
534.14	1559.15
534.50	1574.53
534.86	1590.25
535.21	1605.44
535.57	1621.31
535.93	1636.52
536.29	1651.30
536.65	1666.17
537.00	1680.88
537.36	1696.10
537.72	1710.66
538.08	1725.00
538.44	1738.88
538.79	1752.53
539.15	1766.17
539.51	1779.80
539.87	1794.18
540.22	1807.94
540.58	1821.60
540.94	1835.00
541.29	1847.77
541.65	1860.52
542.01	1873.66
542.37	1886.07
542.72	1898.35
543.08	1910.17
543.44	1922.71
543.79	1933.85
544.15	1944.80
544.51	1956.25
544.87	1967.14
545.22	1977.87
545.58	1988.06
545.94	1997.70
546.29	2007.50
546.65	2017.44
547.01	2026.74
547.36	2035.37
547.72	2043.80
548.07	2051.69
548.43	2059.70
548.79	2067.81
549.14	2075.17
549.50	2082.32
549.86	2089.93
550.21	2097.37
550.57	2104.42
550.92	2110.92
551.28	2118.01
551.64	2125.09
551.99	2131.58
552.35	2137.80
552.70	2143.98
553.06	2149.98
553.41	2156.25
553.77	2162.39
554.13	2168.50
554.48	2174.66
554.84	2180.15
555.19	2185.32
555.55	2190.57
555.90	2195.10
556.26	2199.95
556.61	2204.79
556.97	2209.29
557.32	2213.35
557.68	2217.54
558.03	2221.90
558.39	2225.59
558.74	2230.16
559.10	2234.04
559.45	2237.75
559.81	2241.98
560.16	2245.87
560.52	2249.06
560.87	2252.56
561.23	2255.30
561.58	2258.20
561.94	2260.74
562.29	2263.13
562.64	2265.95
563.00	2268.40
563.35	2271.92
563.71	2274.95
564.06	2278.23
564.42	2280.97
564.77	2283.51
565.12	2285.66
565.48	2287.61
565.83	2289.54
566.19	2290.83
566.54	2291.70
566.89	2293.08
567.25	2293.72
567.60	2294.96
567.96	2296.73
568.31	2297.45
568.66	2298.51
569.02	2299.18
569.37	2299.34
569.72	2300.11
570.08	2300.26
570.43	2300.19
570.78	2299.74
571.14	2298.14
571.49	2296.69
571.84	2296.55
572.20	2295.53
572.55	2294.46
572.90	2292.78
573.26	2291.45
573.61	2289.80
573.96	2288.20
574.31	2285.17
574.67	2282.31
575.02	2278.73
575.37	2275.24
575.72	2271.64
576.08	2268.35
576.43	2264.90
576.78	2261.41
577.13	2258.30
577.49	2255.26
577.84	2251.98
578.19	2248.10
578.54	2244.66
578.90	2240.55
579.25	2234.97
579.60	2230.09
579.95	2225.08
580.30	2220.28
580.66	2214.89
581.01	2209.93
581.36	2204.96
581.71	2200.68
582.06	2196.24
582.42	2191.87
582.77	2186.80
583.12	2182.33
583.47	2177.66
583.82	2172.74
584.17	2167.57
584.53	2162.11
584.88	2156.56
585.23	2150.90
585.58	2145.50
585.93	2140.10
586.28	2135.42
586.63	2130.24
586.98	2125.27
587.34	2120.83
587.69	2115.79
588.04	2110.79
588.39	2105.17
588.74	2098.71
589.09	2092.62
589.44	2085.83
589.79	2079.84
590.14	2074.15
590.49	2067.45
590.84	2061.01
591.19	2055.10
591.54	2048.65
591.89	2041.27
592.25	2034.44
592.60	2027.17
592.95	2019.70
593.30	2012.41
593.65	2004.74
594.00	1997.75
594.35	1990.38
594.70	1982.23
595.05	1975.14
595.40	1967.91
595.75	1960.44
596.10	1954.21
596.45	1947.48
596.80	1941.31
597.15	1934.65
597.50	1927.58
597.85	1921.21
598.19	1914.61
598.54	1907.42
598.89	1900.72
599.24	1894.78
599.59	1888.18
599.94	1882.04
600.29	1875.74
600.64	1869.09
600.99	1861.66
601.34	1854.88
601.69	1847.94
602.04	1841.11
602.39	1833.85
602.74	1826.95
603.08	1820.12
603.43	1813.50
603.78	1806.32
604.13	1799.09
604.48	1791.75
604.83	1785.05
605.18	1778.16
605.53	1770.07
605.87	1762.10
606.22	1755.01
606.57	1747.05
606.92	1739.64
607.27	1732.37
607.62	1725.37
607.96	1718.11
608.31	1711.48
608.66	1703.96
609.01	1696.49
609.36	1688.83
609.70	1680.70
610.05	1672.73
610.40	1665.14
610.75	1656.89
611.10	1649.08
611.44	1640.72
611.79	1632.76
612.14	1623.94
612.49	1614.67
612.83	1606.39
613.18	1598.36
613.53	1590.16
613.88	1581.66
614.22	1573.27
614.57	1564.64
614.92	1556.69
615.27	1549.27
615.61	1540.91
615.96	1532.84
616.31	1525.08
616.65	1517.87
617.00	1510.30
617.35	1502.51
617.70	1494.14
618.04	1485.57
618.39	1477.33
618.74	1469.67
619.08	1461.36
619.43	1453.75
619.78	1446.81
620.12	1439.61
620.47	1431.97
620.82	1423.73
621.16	1416.33
621.51	1408.76
621.85	1401.10
622.20	1392.47
622.55	1383.93
622.89	1376.15
623.24	1368.49
623.59	1361.13
623.93	1353.56
624.28	1346.42
624.62	1338.93
624.97	1331.76
625.32	1324.88
625.66	1317.92
626.01	1310.81
626.35	1303.34
626.70	1295.62
627.04	1287.95
627.39	1280.17
627.73	1272.77
628.08	1265.90
628.43	1258.73
628.77	1251.36
629.12	1243.83
629.46	1236.71
629.81	1229.22
630.15	1221.94
630.50	1214.51
630.84	1206.29
631.19	1198.32
631.53	1190.65
631.88	1182.99
632.22	1175.39
632.57	1168.10
632.91	1160.52
633.26	1153.15
633.60	1145.81
633.95	1138.69
634.29	1131.53
634.64	1124.83
634.98	1117.39
635.32	1110.21
635.67	1103.46
636.01	1096.85
636.36	1090.12
636.70	1083.53
637.05	1077.01
637.39	1070.55
637.73	1064.07
638.08	1058.13
638.42	1052.13
638.77	1045.74
639.11	1039.27
639.45	1032.87
639.80	1026.18
640.14	1019.79
640.49	1013.15
640.83	1006.92
641.17	1000.68
641.52	994.42
641.86	987.91
642.20	982.09
642.55	975.77
642.89	969.35
643.23	962.77
643.58	957.02
643.92	950.85
644.26	944.80
644.61	938.78
644.95	932.76
645.29	926.18
645.64	919.45
645.98	913.01
646.32	907.16
646.66	901.09
647.01	895.37
647.35	889.63
647.69	883.77
648.04	878.16
648.38	872.37
648.72	866.40
649.06	860.40
649.41	854.50
649.75	848.50
650.09	842.59
650.43	836.82
650.78	830.59
651.12	824.61
651.46	819.00
651.80	813.23
652.14	807.79
652.49	802.44
652.83	797.29
653.17	791.62
653.51	785.92
653.85	780.60
654.20	774.93
654.54	768.96
654.88	763.24
655.22	757.30
655.56	751.57
655.90	746.08
656.25	740.88
656.59	735.54
656.93	730.49
657.27	725.25
657.61	719.82
657.95	714.76
658.29	709.69
658.64	704.41
658.98	699.16
659.32	693.73
659.66	688.59
660.00	683.25
660.34	678.35
660.68	673.42
661.02	668.40
661.36	663.62
661.70	659.02
662.05	654.72
662.39	650.43
662.73	645.97
663.07	641.59
663.41	637.09
663.75	632.58
664.09	627.97
664.43	623.56
664.77	619.39
665.11	615.11
665.45	610.99
665.79	606.88
666.13	602.72
666.47	598.63
666.81	594.37
667.15	590.27
667.49	586.34
667.83	582.49
668.17	578.53
668.51	574.51
668.85	570.54
669.19	566.60
669.53	562.73
669.87	558.85
670.21	555.10
670.55	551.49
670.89	548.09
671.23	544.69
671.57	541.18
671.91	537.67
672.25	534.16
672.58	530.58
672.92	527.09
673.26	523.89
673.60	520.70
673.94	517.64
674.28	514.69
674.62	511.75
674.96	508.61
675.30	505.64
675.64	502.69
675.97	499.87
676.31	497.04
676.65	494.07
676.99	491.39
677.33	488.55
677.67	485.66
678.01	482.65
678.34	479.68
678.68	476.80
679.02	473.99
679.36	471.24
679.70	468.56
680.04	465.85
680.37	462.98
680.71	460.13
681.05	457.48
681.39	454.75
681.73	452.04
682.06	449.59
682.40	447.08
682.74	444.58
683.08	442.08
683.42	439.49
683.75	437.06
684.09	434.52
684.43	432.07
684.77	429.66
685.10	427.27
685.44	424.96
685.78	422.72
686.12	420.45
686.45	418.17
686.79	415.85
687.13	413.70
687.46	411.56
687.80	409.47
688.14	407.28
688.48	405.27
688.81	403.06
689.15	400.90
689.49	398.77
689.82	396.69
690.16	394.59
690.50	392.61
690.83	390.63
691.17	388.70
691.51	386.78
691.84	384.94
692.18	383.00
692.52	381.03
692.85	379.05
693.19	377.17
693.52	375.32
693.86	373.50
694.20	371.69
694.53	369.90
694.87	368.06
695.21	366.30
695.54	364.47
695.88	362.78
696.21	361.05
696.55	359.32
696.88	357.64
697.22	355.98
697.56	354.36
697.89	352.73
698.23	351.10
698.56	349.49
698.90	347.90
699.23	346.27
699.57	344.73
699.90	343.26
700.24	341.72
700.58	340.21
700.91	338.72
701.25	337.29
701.58	335.92
701.92	334.55
702.25	333.18
702.59	331.80
702.92	330.45
703.26	329.15
703.59	327.89
703.93	326.72
704.26	325.50
704.60	324.21
704.93	322.90
705.26	321.64
705.60	320.45
705.93	319.26
706.27	318.24
706.60	317.17
706.94	316.06
707.27	314.97
707.61	313.89
707.94	312.84
708.27	311.72
708.61	310.61
708.94	309.56
709.28	308.55
709.61	307.59
709.94	306.62
710.28	305.60
710.61	304.59
710.95	303.49
711.28	302.51
711.61	301.53
711.95	300.63
712.28	299.68
712.61	298.70
712.95	297.78
713.28	296.84
713.61	295.93
713.95	295.02
714.28	294.15
714.61	293.30
714.95	292.47
715.28	291.60
715.61	290.75
715.95	289.90
716.28	289.02
716.61	288.15
716.95	287.31
717.28	286.54
717.61	285.78
717.94	285.01
718.28	284.26
718.61	283.51
718.94	282.79
719.27	282.11
719.61	281.43
719.94	280.77
720.27	280.10
720.60	279.42
720.94	278.78
721.27	278.18
721.60	277.58
721.93	276.98
722.27	276.43
722.60	275.90
722.93	275.34
723.26	274.86
723.59	274.29
723.93	273.75
724.26	273.21
724.59	272.66
724.92	272.15
725.25	271.65
725.59	271.15
725.92	270.70
726.25	270.21
726.58	269.73
726.91	269.23
727.24	268.79
727.57	268.36
727.91	267.85
728.24	267.42
728.57	266.93
728.90	266.48
729.23	266.00
729.56	265.57
729.89	265.12
730.22	264.63
730.55	264.20
730.89	263.77
731.22	263.33
731.55	262.90
731.88	262.49
732.21	262.04
732.54	261.62
732.87	261.16
733.20	260.77
733.53	260.39
733.86	260.00
734.19	259.59
734.52	259.19
734.85	258.91
735.18	258.46
735.51	258.09
735.84	257.74
736.17	257.37
736.50	256.94
736.83	256.72
737.16	256.36
737.49	256.02
737.82	255.71
738.15	255.39
738.48	255.08
738.81	254.76
739.14	254.48
739.47	254.15
739.80	253.86
740.13	253.56
740.46	253.28
740.79	253.00
741.12	252.69
741.45	252.36
741.78	251.96
742.11	251.71
742.44	251.43
742.77	251.14
743.10	250.88
743.43	250.61
743.75	250.19
744.08	250.06
744.41	249.77
744.74	249.49
745.07	249.20
745.40	248.93
745.73	248.67
746.06	248.37
746.39	248.11
746.71	247.85
747.04	247.57
747.37	247.25
747.70	247.00
748.03	246.72
748.36	246.52
748.68	246.29
749.01	246.02
749.34	245.75
749.67	245.53
750.00	245.28
750.33	245.10
750.65	244.91
750.98	244.56
751.31	244.34
751.64	244.10
751.97	243.93
752.29	243.71
752.62	243.44
752.95	243.23
753.28	243.03
753.60	242.81
753.93	242.62
754.26	242.43
754.59	242.16
754.91	241.97
755.24	241.72
755.57	241.52
755.90	241.32
756.22	241.15
756.55	240.91
756.88	240.72
757.20	240.48
757.53	240.25
757.86	240.07
758.19	239.92
758.51	239.74
758.84	239.48
759.17	239.30
759.49	239.14
759.82	239.03
760.15	238.87
760.47	238.70
760.80	238.50
761.13	238.38
761.45	238.22
761.78	238.03
762.11	237.91
762.43	237.76
762.76	237.62
763.08	237.49
763.41	237.36
763.74	237.24
764.06	237.10
764.39	236.93
764.71	236.77
765.04	236.59
765.37	236.45
765.69	236.33
766.02	236.20
766.34	236.04
766.67	235.86
767.00	235.75
767.32	235.69
767.65	235.68
767.97	235.55
768.30	235.49
768.62	235.43
768.95	235.31
769.27	235.18
769.60	235.07
769.92	234.94
770.25	234.82
770.57	234.67
770.90	234.57
771.22	234.51
771.55	234.46
771.87	234.41
772.20	234.34
772.52	234.37
772.85	234.41
773.17	234.34
773.50	234.25
773.82	234.17
774.15	234.04
774.47	233.90
774.80	233.82
775.12	233.70
775.45	233.62
775.77	233.56
776.09	233.52
776.42	233.48
776.74	233.45
777.07	233.39
777.39	233.31
777.72	233.23
778.04	233.17
778.36	233.07
778.69	233.02
779.01	232.98
779.33	232.81
779.66	232.67
779.98	232.64
780.31	232.59
780.63	232.54
780.95	232.48
781.28	232.42
781.60	232.34
781.92	232.30
782.25	232.21
782.57	232.13
782.89	232.06
783.22	231.97
783.54	231.88
783.86	231.79
784.19	231.76
784.51	231.71
784.83	231.66
785.16	231.60
785.48	231.50
785.80	231.44
786.12	231.39
786.45	231.30
786.77	231.22
787.09	231.15
