SpectraSuite Data File
++++++++++++++++++++++++++++++++++++
Date: Fri Feb 01 15:11:20 EST 2013
User: group
Dark Spectrum Present: No
Reference Spectrum Present: No
Number of Sampled Component Spectra: 1
Spectrometers: USB2E7196
Integration Time (usec): 35000 (USB2E7196)
Spectra Averaged: 100 (USB2E7196)
Boxcar Smoothing: 10 (USB2E7196)
Correct for Electrical Dark: No (USB2E7196)
Strobe/Lamp Enabled: No (USB2E7196)
Correct for Detector Non-linearity: No (USB2E7196)
Correct for Stray Light: No (USB2E7196)
Number of Pixels in Processed Spectrum: 2048
>>>>>Begin Processed Spectral Data<<<<<
339.09	0.00
339.48	214.73
339.86	216.68
340.24	218.46
340.63	219.36
341.01	222.22
341.39	222.79
341.78	223.85
342.16	225.22
342.54	225.28
342.93	213.74
343.31	224.55
343.69	225.13
344.07	225.60
344.46	226.03
344.84	226.41
345.22	226.62
345.60	226.83
345.99	227.02
346.37	227.11
346.75	227.20
347.13	227.25
347.52	227.30
347.90	227.38
348.28	227.40
348.66	227.38
349.05	227.39
349.43	227.40
349.81	227.43
350.19	227.50
350.57	227.56
350.96	227.66
351.34	227.74
351.72	227.79
352.10	227.89
352.48	227.94
352.87	228.01
353.25	228.07
353.63	228.17
354.01	228.22
354.39	228.33
354.77	228.44
355.15	228.52
355.54	228.62
355.92	228.63
356.30	228.71
356.68	228.84
357.06	228.92
357.44	228.98
357.82	229.05
358.20	229.11
358.58	229.12
358.97	229.16
359.35	229.21
359.73	229.30
360.11	229.35
360.49	229.43
360.87	229.45
361.25	229.52
361.63	229.59
362.01	229.64
362.39	229.64
362.77	229.66
363.15	229.66
363.53	229.66
363.91	229.70
364.29	229.70
364.67	229.61
365.05	229.59
365.43	229.61
365.81	229.61
366.19	229.63
366.57	229.65
366.95	229.66
367.33	229.62
367.71	229.58
368.09	229.56
368.47	229.50
368.85	229.47
369.23	229.47
369.61	229.37
369.99	229.38
370.37	229.34
370.75	229.36
371.13	229.32
371.51	229.26
371.89	229.21
372.27	229.20
372.65	229.17
373.03	229.11
373.41	229.03
373.78	228.95
374.16	228.83
374.54	228.75
374.92	228.65
375.30	228.61
375.68	228.52
376.06	228.47
376.44	228.40
376.82	228.35
377.19	228.24
377.57	228.19
377.95	228.06
378.33	227.96
378.71	227.84
379.09	227.77
379.47	227.67
379.84	227.59
380.22	227.43
380.60	227.33
380.98	227.28
381.36	227.22
381.73	227.15
382.11	227.11
382.49	227.03
382.87	226.98
383.25	226.91
383.62	226.95
384.00	226.88
384.38	226.80
384.76	226.76
385.13	226.73
385.51	226.66
385.89	226.61
386.27	226.60
386.64	226.51
387.02	226.47
387.40	226.43
387.78	226.39
388.15	226.38
388.53	226.35
388.91	226.30
389.29	226.26
389.66	226.25
390.04	226.23
390.42	226.25
390.79	226.25
391.17	226.24
391.55	226.13
391.92	226.11
392.30	226.14
392.68	226.10
393.05	226.11
393.43	226.12
393.81	226.12
394.18	226.13
394.56	226.17
394.94	226.23
395.31	226.28
395.69	226.31
396.06	226.40
396.44	226.46
396.82	226.51
397.19	226.65
397.57	226.69
397.95	226.75
398.32	226.77
398.70	226.84
399.07	226.92
399.45	227.05
399.82	227.16
400.20	227.22
400.58	227.34
400.95	227.40
401.33	227.52
401.70	227.69
402.08	227.80
402.45	227.92
402.83	228.04
403.20	228.17
403.58	228.31
403.95	228.42
404.33	228.56
404.71	228.68
405.08	228.84
405.46	228.97
405.83	229.12
406.21	229.31
406.58	229.47
406.96	229.62
407.33	229.76
407.70	229.91
408.08	230.20
408.45	230.42
408.83	230.67
409.20	230.87
409.58	231.06
409.95	231.31
410.33	231.60
410.70	231.82
411.08	232.10
411.45	232.41
411.82	232.73
412.20	233.06
412.57	233.48
412.95	233.75
413.32	234.23
413.69	234.64
414.07	235.06
414.44	235.55
414.82	236.06
415.19	236.62
415.56	237.22
415.94	237.75
416.31	238.36
416.68	238.98
417.06	239.70
417.43	240.36
417.81	241.14
418.18	241.89
418.55	242.72
418.93	243.60
419.30	244.49
419.67	245.42
420.04	246.39
420.42	247.41
420.79	248.58
421.16	249.69
421.54	250.87
421.91	252.10
422.28	253.31
422.66	254.63
423.03	255.89
423.40	257.20
423.77	258.59
424.15	260.04
424.52	261.55
424.89	263.15
425.26	264.71
425.64	266.14
426.01	267.71
426.38	269.39
426.75	271.11
427.13	272.82
427.50	274.61
427.87	276.46
428.24	278.28
428.61	280.06
428.99	281.97
429.36	284.05
429.73	286.12
430.10	288.14
430.47	290.20
430.85	292.36
431.22	294.63
431.59	297.02
431.96	299.30
432.33	301.77
432.70	304.17
433.08	307.03
433.45	309.72
433.82	312.38
434.19	315.25
434.56	318.04
434.93	320.71
435.30	323.36
435.68	326.31
436.05	329.18
436.42	331.98
436.79	334.49
437.16	337.21
437.53	340.09
437.90	342.97
438.27	345.72
438.64	348.56
439.01	351.14
439.38	353.43
439.75	355.58
440.13	358.08
440.50	360.46
440.87	362.29
441.24	364.22
441.61	366.37
441.98	367.93
442.35	369.74
442.72	371.56
443.09	373.39
443.46	374.39
443.83	375.01
444.20	375.53
444.57	376.41
444.94	376.71
445.31	377.03
445.68	377.36
446.05	377.44
446.42	377.06
446.79	376.67
447.16	376.19
447.53	375.87
447.90	374.74
448.27	373.55
448.64	371.97
449.01	370.85
449.37	368.89
449.74	366.96
450.11	364.67
450.48	362.25
450.85	359.69
451.22	357.51
451.59	355.45
451.96	353.49
452.33	350.84
452.70	348.49
453.07	345.67
453.43	342.73
453.80	339.96
454.17	337.24
454.54	334.66
454.91	331.96
455.28	329.23
455.65	326.68
456.02	324.23
456.38	322.07
456.75	319.39
457.12	317.13
457.49	314.91
457.86	312.76
458.23	310.89
458.59	308.84
458.96	306.75
459.33	304.87
459.70	302.97
460.07	301.46
460.43	299.74
460.80	298.05
461.17	296.62
461.54	295.10
461.91	293.70
462.27	292.23
462.64	290.95
463.01	289.61
463.38	288.26
463.74	286.86
464.11	285.67
464.48	284.61
464.85	283.47
465.21	282.58
465.58	281.64
465.95	280.51
466.32	279.55
466.68	278.62
467.05	277.69
467.42	276.81
467.78	275.87
468.15	275.00
468.52	274.38
468.88	273.52
469.25	272.75
469.62	272.09
469.98	271.40
470.35	270.73
470.72	270.13
471.08	269.50
471.45	268.98
471.82	268.44
472.18	267.85
472.55	267.39
472.92	266.85
473.28	266.34
473.65	265.90
474.02	265.49
474.38	265.12
474.75	264.80
475.11	264.46
475.48	264.22
475.85	263.97
476.21	263.70
476.58	263.51
476.94	263.33
477.31	263.19
477.67	263.05
478.04	262.98
478.41	262.95
478.77	262.98
479.14	262.92
479.50	262.92
479.87	262.95
480.23	263.05
480.60	263.17
480.96	263.32
481.33	263.54
481.69	263.71
482.06	263.92
482.42	264.15
482.79	264.39
483.15	264.68
483.52	265.03
483.88	265.39
484.25	265.76
484.61	266.22
484.98	266.66
485.34	267.26
485.71	267.83
486.07	268.41
486.44	268.99
486.80	269.67
487.17	270.38
487.53	271.23
487.90	272.10
488.26	272.98
488.62	273.94
488.99	274.92
489.35	275.98
489.72	277.11
490.08	278.33
490.44	279.62
490.81	280.98
491.17	282.34
491.54	283.81
491.90	285.38
492.26	286.99
492.63	288.73
492.99	290.49
493.36	292.38
493.72	294.37
494.08	296.45
494.45	298.70
494.81	301.10
495.17	303.56
495.54	306.11
495.90	308.79
496.26	311.60
496.63	314.52
496.99	317.61
497.35	320.86
497.72	324.24
498.08	327.69
498.44	331.31
498.80	335.20
499.17	339.22
499.53	343.40
499.89	347.78
500.26	352.25
500.62	356.87
500.98	361.80
501.34	366.88
501.71	372.24
502.07	377.67
502.43	383.21
502.79	388.96
503.16	394.98
503.52	401.26
503.88	407.65
504.24	414.26
504.60	421.14
504.97	428.27
505.33	435.56
505.69	443.26
506.05	451.01
506.41	458.91
506.78	467.06
507.14	475.43
507.50	484.13
507.86	493.20
508.22	502.43
508.59	511.57
508.95	521.18
509.31	530.97
509.67	541.09
510.03	551.43
510.39	562.01
510.75	572.82
511.12	583.75
511.48	595.01
511.84	606.48
512.20	618.04
512.56	629.94
512.92	642.14
513.28	654.44
513.64	667.04
514.00	679.74
514.37	692.59
514.73	705.70
515.09	718.75
515.45	732.01
515.81	745.63
516.17	759.75
516.53	773.81
516.89	787.92
517.25	802.10
517.61	816.57
517.97	831.07
518.33	845.58
518.69	860.28
519.05	875.42
519.41	890.57
519.77	906.12
520.13	921.69
520.49	937.07
520.85	952.63
521.21	968.35
521.57	984.62
521.93	1000.60
522.29	1017.07
522.65	1033.38
523.01	1049.65
523.37	1065.60
523.73	1081.74
524.09	1097.88
524.45	1114.28
524.81	1130.95
525.17	1147.79
525.53	1164.77
525.89	1181.72
526.25	1198.67
526.61	1215.02
526.97	1231.86
527.33	1248.41
527.68	1265.05
528.04	1281.67
528.40	1298.34
528.76	1315.43
529.12	1332.13
529.48	1349.08
529.84	1365.08
530.20	1381.76
530.56	1398.95
530.91	1416.49
531.27	1433.46
531.63	1450.08
531.99	1466.64
532.35	1482.75
532.71	1498.68
533.07	1514.98
533.42	1530.82
533.78	1546.97
534.14	1563.36
534.50	1578.84
534.86	1594.68
535.21	1609.87
535.57	1625.97
535.93	1641.44
536.29	1656.39
536.65	1671.64
537.00	1686.35
537.36	1701.66
537.72	1716.29
538.08	1730.65
538.44	1744.56
538.79	1758.42
539.15	1772.20
539.51	1786.19
539.87	1800.53
540.22	1814.33
540.58	1828.26
540.94	1841.77
541.29	1854.93
541.65	1867.73
542.01	1881.05
542.37	1893.59
542.72	1906.13
543.08	1917.78
543.44	1930.31
543.79	1941.49
544.15	1952.51
544.51	1964.25
544.87	1975.41
545.22	1986.24
545.58	1996.59
545.94	2006.35
546.29	2016.29
546.65	2026.05
547.01	2035.39
547.36	2044.27
547.72	2052.82
548.07	2060.67
548.43	2068.83
548.79	2076.83
549.14	2084.33
549.50	2091.58
549.86	2099.28
550.21	2106.72
550.57	2113.83
550.92	2120.41
551.28	2127.54
551.64	2134.58
551.99	2141.09
552.35	2147.25
552.70	2153.43
553.06	2159.35
553.41	2165.86
553.77	2171.92
554.13	2178.10
554.48	2184.03
554.84	2189.50
555.19	2194.84
555.55	2199.83
555.90	2204.24
556.26	2209.07
556.61	2213.77
556.97	2217.94
557.32	2222.05
557.68	2226.08
558.03	2230.49
558.39	2234.21
558.74	2238.83
559.10	2242.53
559.45	2246.19
559.81	2250.36
560.16	2254.24
560.52	2257.35
560.87	2260.60
561.23	2263.04
561.58	2266.02
561.94	2268.63
562.29	2270.88
562.64	2273.56
563.00	2276.25
563.35	2279.69
563.71	2282.72
564.06	2285.85
564.42	2288.78
564.77	2291.24
565.12	2293.49
565.48	2295.30
565.83	2297.01
566.19	2298.27
566.54	2299.26
566.89	2300.17
567.25	2300.80
567.60	2301.95
567.96	2303.59
568.31	2304.34
568.66	2305.48
569.02	2305.93
569.37	2306.14
569.72	2306.91
570.08	2306.72
570.43	2306.63
570.78	2305.94
571.14	2304.26
571.49	2302.90
571.84	2302.40
572.20	2301.09
572.55	2300.01
572.90	2298.53
573.26	2297.09
573.61	2295.21
573.96	2293.24
574.31	2290.26
574.67	2287.15
575.02	2283.45
575.37	2279.98
575.72	2276.17
576.08	2272.78
576.43	2269.30
576.78	2265.43
577.13	2262.14
577.49	2259.11
577.84	2255.54
578.19	2251.75
578.54	2248.02
578.90	2243.65
579.25	2238.06
579.60	2233.00
579.95	2227.77
580.30	2222.61
580.66	2217.26
581.01	2212.19
581.36	2207.18
581.71	2202.90
582.06	2198.36
582.42	2193.69
582.77	2188.31
583.12	2183.49
583.47	2178.59
583.82	2173.48
584.17	2168.23
584.53	2162.66
584.88	2156.81
585.23	2150.80
585.58	2145.30
585.93	2139.85
586.28	2135.13
586.63	2129.89
586.98	2124.80
587.34	2119.93
587.69	2114.94
588.04	2109.56
588.39	2103.81
588.74	2097.38
589.09	2091.20
589.44	2084.21
589.79	2078.26
590.14	2072.62
590.49	2066.08
590.84	2059.73
591.19	2053.59
591.54	2047.06
591.89	2039.43
592.25	2032.66
592.60	2025.41
592.95	2017.64
593.30	2010.23
593.65	2002.46
594.00	1995.40
594.35	1988.00
594.70	1980.08
595.05	1972.67
595.40	1965.45
595.75	1957.90
596.10	1951.51
596.45	1944.55
596.80	1938.45
597.15	1931.57
597.50	1924.40
597.85	1917.95
598.19	1911.09
598.54	1903.93
598.89	1897.48
599.24	1891.65
599.59	1884.85
599.94	1878.65
600.29	1872.27
600.64	1865.66
600.99	1858.02
601.34	1851.16
601.69	1844.13
602.04	1836.99
602.39	1829.63
602.74	1822.62
603.08	1815.94
603.43	1809.13
603.78	1801.96
604.13	1794.69
604.48	1787.38
604.83	1780.64
605.18	1773.40
605.53	1765.39
605.87	1757.35
606.22	1749.88
606.57	1741.82
606.92	1734.40
607.27	1727.14
607.62	1720.15
607.96	1712.74
608.31	1706.10
608.66	1698.35
609.01	1690.68
609.36	1683.10
609.70	1675.06
610.05	1667.04
610.40	1659.28
610.75	1650.93
611.10	1643.19
611.44	1634.86
611.79	1626.91
612.14	1618.03
612.49	1609.02
612.83	1600.65
613.18	1592.54
613.53	1584.52
613.88	1576.05
614.22	1567.86
614.57	1559.43
614.92	1551.52
615.27	1543.82
615.61	1535.65
615.96	1527.77
616.31	1520.32
616.65	1512.93
617.00	1505.39
617.35	1497.77
617.70	1489.39
618.04	1480.87
618.39	1472.55
618.74	1464.78
619.08	1456.39
619.43	1448.83
619.78	1441.92
620.12	1434.79
620.47	1427.29
620.82	1419.00
621.16	1411.70
621.51	1404.15
621.85	1396.44
622.20	1387.96
622.55	1379.78
622.89	1371.95
623.24	1364.37
623.59	1357.03
623.93	1349.68
624.28	1342.51
624.62	1334.95
624.97	1327.79
625.32	1321.12
625.66	1314.20
626.01	1307.00
626.35	1299.63
626.70	1291.99
627.04	1284.28
627.39	1276.58
627.73	1269.14
628.08	1262.22
628.43	1254.83
628.77	1247.40
629.12	1239.88
629.46	1232.64
629.81	1225.26
630.15	1217.92
630.50	1210.44
630.84	1202.21
631.19	1194.33
631.53	1186.80
631.88	1179.34
632.22	1171.73
632.57	1164.42
632.91	1156.92
633.26	1149.53
633.60	1142.22
633.95	1135.19
634.29	1128.24
634.64	1121.54
634.98	1114.25
635.32	1107.28
635.67	1100.78
636.01	1094.21
636.36	1087.45
636.70	1081.05
637.05	1074.45
637.39	1068.12
637.73	1061.73
638.08	1055.85
638.42	1049.87
638.77	1043.41
639.11	1036.75
639.45	1030.45
639.80	1023.89
640.14	1017.41
640.49	1010.99
640.83	1004.71
641.17	998.42
641.52	992.05
641.86	985.70
642.20	979.85
642.55	973.54
642.89	966.99
643.23	960.40
643.58	954.56
643.92	948.28
644.26	942.21
644.61	936.18
644.95	930.08
645.29	923.50
645.64	916.81
645.98	910.50
646.32	904.71
646.66	898.65
647.01	892.82
647.35	887.19
647.69	881.43
648.04	875.94
648.38	870.18
648.72	864.12
649.06	858.03
649.41	852.16
649.75	846.14
650.09	840.19
650.43	834.40
650.78	828.31
651.12	822.39
651.46	816.59
651.80	810.82
652.14	805.42
652.49	800.09
652.83	794.86
653.17	789.21
653.51	783.53
653.85	778.21
654.20	772.54
654.54	766.53
654.88	760.81
655.22	754.97
655.56	749.30
655.90	743.93
656.25	738.65
656.59	733.31
656.93	728.22
657.27	723.12
657.61	717.78
657.95	712.67
658.29	707.60
658.64	702.45
658.98	697.11
659.32	691.69
659.66	686.48
660.00	681.22
660.34	676.27
660.68	671.38
661.02	666.25
661.36	661.55
661.70	657.05
662.05	652.69
662.39	648.36
662.73	643.94
663.07	639.55
663.41	635.14
663.75	630.72
664.09	626.20
664.43	621.92
664.77	617.75
665.11	613.51
665.45	609.45
665.79	605.42
666.13	601.40
666.47	597.29
666.81	593.13
667.15	588.98
667.49	585.12
667.83	581.41
668.17	577.51
668.51	573.47
668.85	569.45
669.19	565.56
669.53	561.69
669.87	557.77
670.21	554.12
670.55	550.49
670.89	547.04
671.23	543.58
671.57	540.00
671.91	536.56
672.25	533.09
672.58	529.60
672.92	526.23
673.26	523.12
673.60	520.04
673.94	516.96
674.28	514.08
674.62	511.15
674.96	507.96
675.30	505.12
675.64	502.21
675.97	499.56
676.31	496.74
676.65	493.87
676.99	491.21
677.33	488.35
677.67	485.53
678.01	482.48
678.34	479.51
678.68	476.66
679.02	473.77
679.36	471.02
679.70	468.27
680.04	465.48
680.37	462.56
680.71	459.76
681.05	457.15
681.39	454.45
681.73	451.79
682.06	449.32
682.40	446.73
682.74	444.28
683.08	441.68
683.42	439.09
683.75	436.56
684.09	434.02
684.43	431.60
684.77	429.19
685.10	426.87
685.44	424.61
685.78	422.32
686.12	420.11
686.45	417.85
686.79	415.60
687.13	413.43
687.46	411.27
687.80	409.14
688.14	406.90
688.48	404.84
688.81	402.60
689.15	400.42
689.49	398.30
689.82	396.19
690.16	394.13
690.50	392.19
690.83	390.23
691.17	388.28
691.51	386.38
691.84	384.52
692.18	382.58
692.52	380.60
692.85	378.68
693.19	376.79
693.52	375.00
693.86	373.17
694.20	371.35
694.53	369.56
694.87	367.72
695.21	365.99
695.54	364.15
695.88	362.47
696.21	360.79
696.55	359.09
696.88	357.39
697.22	355.72
697.56	354.05
697.89	352.41
698.23	350.75
698.56	349.11
698.90	347.52
699.23	345.88
699.57	344.33
699.90	342.80
700.24	341.28
700.58	339.69
700.91	338.20
701.25	336.76
701.58	335.47
701.92	334.10
702.25	332.75
702.59	331.41
702.92	330.04
703.26	328.75
703.59	327.50
703.93	326.31
704.26	325.06
704.60	323.81
704.93	322.60
705.26	321.40
705.60	320.23
705.93	319.04
706.27	318.05
706.60	317.01
706.94	315.95
707.27	314.84
707.61	313.84
707.94	312.78
708.27	311.69
708.61	310.58
708.94	309.61
709.28	308.63
709.61	307.70
709.94	306.78
710.28	305.73
710.61	304.77
710.95	303.76
711.28	302.90
711.61	301.97
711.95	301.07
712.28	300.15
712.61	299.19
712.95	298.29
713.28	297.37
713.61	296.47
713.95	295.62
714.28	294.79
714.61	293.90
714.95	293.09
715.28	292.26
715.61	291.39
715.95	290.53
716.28	289.68
716.61	288.83
716.95	288.02
717.28	287.33
717.61	286.53
717.94	285.75
718.28	284.92
718.61	284.21
718.94	283.49
719.27	282.78
719.61	282.12
719.94	281.44
720.27	280.74
720.60	280.10
720.94	279.42
721.27	278.84
721.60	278.29
721.93	277.72
722.27	277.20
722.60	276.69
722.93	276.12
723.26	275.59
723.59	275.03
723.93	274.48
724.26	273.90
724.59	273.36
724.92	272.87
725.25	272.39
725.59	271.85
725.92	271.34
726.25	270.85
726.58	270.35
726.91	269.87
727.24	269.41
727.57	268.94
727.91	268.45
728.24	267.96
728.57	267.44
728.90	266.97
729.23	266.43
729.56	265.99
729.89	265.49
730.22	264.99
730.55	264.52
730.89	264.06
731.22	263.58
731.55	263.16
731.88	262.71
732.21	262.24
732.54	261.79
732.87	261.37
733.20	260.98
733.53	260.60
733.86	260.23
734.19	259.81
734.52	259.43
734.85	259.13
735.18	258.74
735.51	258.39
735.84	258.00
736.17	257.66
736.50	257.23
736.83	257.02
737.16	256.67
737.49	256.34
737.82	256.02
738.15	255.71
738.48	255.37
738.81	255.04
739.14	254.72
739.47	254.40
739.80	254.07
740.13	253.78
740.46	253.43
740.79	253.10
741.12	252.77
741.45	252.42
741.78	252.05
742.11	251.74
742.44	251.41
742.77	251.13
743.10	250.86
743.43	250.58
743.75	250.19
744.08	250.05
744.41	249.77
744.74	249.46
745.07	249.21
745.40	248.97
745.73	248.76
746.06	248.48
746.39	248.25
746.71	247.99
747.04	247.69
747.37	247.47
747.70	247.24
748.03	247.03
748.36	246.81
748.68	246.59
749.01	246.37
749.34	246.15
749.67	245.90
750.00	245.69
750.33	245.50
750.65	245.30
750.98	244.96
751.31	244.75
751.64	244.55
751.97	244.40
752.29	244.18
752.62	243.92
752.95	243.75
753.28	243.56
753.60	243.38
753.93	243.22
754.26	243.03
754.59	242.82
754.91	242.62
755.24	242.43
755.57	242.25
755.90	242.07
756.22	241.88
756.55	241.70
756.88	241.48
757.20	241.29
757.53	241.10
757.86	240.94
758.19	240.79
758.51	240.67
758.84	240.43
759.17	240.26
759.49	240.11
759.82	239.98
760.15	239.82
760.47	239.68
760.80	239.53
761.13	239.39
761.45	239.23
761.78	239.09
762.11	238.95
762.43	238.79
762.76	238.64
763.08	238.51
763.41	238.39
763.74	238.26
764.06	238.10
764.39	237.96
764.71	237.83
765.04	237.70
765.37	237.53
765.69	237.41
766.02	237.25
766.34	237.14
766.67	236.97
767.00	236.84
767.32	236.75
767.65	236.68
767.97	236.53
768.30	236.41
768.62	236.27
768.95	236.15
769.27	236.03
769.60	235.96
769.92	235.83
770.25	235.71
770.57	235.59
770.90	235.53
771.22	235.41
771.55	235.32
771.87	235.19
772.20	235.09
772.52	235.08
772.85	235.14
773.17	235.04
773.50	234.93
773.82	234.82
774.15	234.71
774.47	234.57
774.80	234.51
775.12	234.42
775.45	234.35
775.77	234.25
776.09	234.20
776.42	234.09
776.74	234.07
777.07	234.00
777.39	233.92
777.72	233.83
778.04	233.75
778.36	233.64
778.69	233.60
779.01	233.57
779.33	233.38
779.66	233.18
779.98	233.10
780.31	233.08
780.63	233.06
780.95	232.99
781.28	232.93
781.60	232.81
781.92	232.77
782.25	232.72
782.57	232.64
782.89	232.56
783.22	232.49
783.54	232.40
783.86	232.34
784.19	232.30
784.51	232.27
784.83	232.21
785.16	232.20
785.48	232.13
785.80	232.07
786.12	232.05
786.45	232.03
786.77	231.98
787.09	231.93
