SpectraSuite Data File
++++++++++++++++++++++++++++++++++++
Date: Fri Feb 01 17:48:05 EST 2013
User: group
Dark Spectrum Present: No
Reference Spectrum Present: No
Number of Sampled Component Spectra: 1
Spectrometers: USB2E7196
Integration Time (usec): 35000 (USB2E7196)
Spectra Averaged: 100 (USB2E7196)
Boxcar Smoothing: 10 (USB2E7196)
Correct for Electrical Dark: No (USB2E7196)
Strobe/Lamp Enabled: No (USB2E7196)
Correct for Detector Non-linearity: No (USB2E7196)
Correct for Stray Light: No (USB2E7196)
Number of Pixels in Processed Spectrum: 2048
>>>>>Begin Processed Spectral Data<<<<<
339.09	0.00
339.48	211.97
339.86	213.94
340.24	214.91
340.63	216.38
341.01	219.41
341.39	219.85
341.78	220.58
342.16	222.26
342.54	222.54
342.93	210.86
343.31	221.50
343.69	222.08
344.07	222.53
344.46	222.97
344.84	223.39
345.22	223.62
345.60	223.82
345.99	224.02
346.37	224.14
346.75	224.24
347.13	224.32
347.52	224.38
347.90	224.50
348.28	224.52
348.66	224.59
349.05	224.60
349.43	224.65
349.81	224.72
350.19	224.78
350.57	224.82
350.96	224.92
351.34	225.03
351.72	225.11
352.10	225.24
352.48	225.34
352.87	225.39
353.25	225.47
353.63	225.59
354.01	225.67
354.39	225.74
354.77	225.83
355.15	225.96
355.54	226.04
355.92	226.08
356.30	226.19
356.68	226.33
357.06	226.38
357.44	226.47
357.82	226.52
358.20	226.60
358.58	226.68
358.97	226.73
359.35	226.82
359.73	226.91
360.11	226.92
360.49	226.99
360.87	227.03
361.25	227.09
361.63	227.15
362.01	227.19
362.39	227.22
362.77	227.28
363.15	227.33
363.53	227.34
363.91	227.42
364.29	227.42
364.67	227.36
365.05	227.38
365.43	227.39
365.81	227.44
366.19	227.49
366.57	227.55
366.95	227.54
367.33	227.55
367.71	227.54
368.09	227.57
368.47	227.55
368.85	227.54
369.23	227.55
369.61	227.51
369.99	227.54
370.37	227.55
370.75	227.55
371.13	227.48
371.51	227.43
371.89	227.38
372.27	227.33
372.65	227.29
373.03	227.26
373.41	227.20
373.78	227.13
374.16	227.05
374.54	226.92
374.92	226.85
375.30	226.77
375.68	226.71
376.06	226.69
376.44	226.59
376.82	226.53
377.19	226.46
377.57	226.41
377.95	226.27
378.33	226.20
378.71	226.07
379.09	226.00
379.47	225.93
379.84	225.82
380.22	225.77
380.60	225.67
380.98	225.60
381.36	225.53
381.73	225.45
382.11	225.38
382.49	225.34
382.87	225.27
383.25	225.20
383.62	225.26
384.00	225.17
384.38	225.12
384.76	225.09
385.13	225.08
385.51	225.04
385.89	224.98
386.27	224.92
386.64	224.89
387.02	224.87
387.40	224.82
387.78	224.77
388.15	224.73
388.53	224.72
388.91	224.67
389.29	224.66
389.66	224.65
390.04	224.62
390.42	224.60
390.79	224.63
391.17	224.60
391.55	224.47
391.92	224.43
392.30	224.45
392.68	224.40
393.05	224.38
393.43	224.31
393.81	224.37
394.18	224.39
394.56	224.41
394.94	224.44
395.31	224.49
395.69	224.55
396.06	224.60
396.44	224.64
396.82	224.65
397.19	224.71
397.57	224.75
397.95	224.80
398.32	224.84
398.70	224.87
399.07	224.94
399.45	225.00
399.82	225.08
400.20	225.15
400.58	225.25
400.95	225.30
401.33	225.43
401.70	225.54
402.08	225.60
402.45	225.68
402.83	225.80
403.20	225.87
403.58	225.98
403.95	226.09
404.33	226.23
404.71	226.40
405.08	226.60
405.46	226.73
405.83	226.88
406.21	227.04
406.58	227.22
406.96	227.42
407.33	227.62
407.70	227.81
408.08	228.13
408.45	228.37
408.83	228.64
409.20	228.90
409.58	229.15
409.95	229.47
410.33	229.79
410.70	230.05
411.08	230.41
411.45	230.75
411.82	231.13
412.20	231.55
412.57	232.05
412.95	232.44
413.32	232.97
413.69	233.52
414.07	234.01
414.44	234.58
414.82	235.18
415.19	235.87
415.56	236.60
415.94	237.26
416.31	238.08
416.68	238.86
417.06	239.76
417.43	240.60
417.81	241.56
418.18	242.55
418.55	243.64
418.93	244.76
419.30	245.96
419.67	247.13
420.04	248.35
420.42	249.60
420.79	251.12
421.16	252.58
421.54	254.08
421.91	255.70
422.28	257.32
422.66	259.02
423.03	260.67
423.40	262.36
423.77	264.18
424.15	265.98
424.52	267.91
424.89	270.03
425.26	272.04
425.64	273.98
426.01	276.06
426.38	278.23
426.75	280.39
427.13	282.57
427.50	284.94
427.87	287.36
428.24	289.75
428.61	291.96
428.99	294.46
429.36	297.19
429.73	299.88
430.10	302.52
430.47	305.22
430.85	308.00
431.22	310.89
431.59	313.97
431.96	316.92
432.33	320.10
432.70	323.16
433.08	326.79
433.45	330.17
433.82	333.54
434.19	337.29
434.56	340.93
434.93	344.36
435.30	347.72
435.68	351.45
436.05	355.16
436.42	358.77
436.79	362.04
437.16	365.49
437.53	369.14
437.90	372.76
438.27	376.27
438.64	379.88
439.01	383.25
439.38	386.18
439.75	388.98
440.13	392.24
440.50	395.24
440.87	397.65
441.24	400.19
441.61	403.02
441.98	404.95
442.35	407.29
442.72	409.71
443.09	412.10
443.46	413.42
443.83	414.17
444.20	414.86
444.57	415.97
444.94	416.34
445.31	416.81
445.68	417.28
446.05	417.37
446.42	416.94
446.79	416.40
447.16	415.85
447.53	415.45
447.90	413.98
448.27	412.52
448.64	410.47
449.01	409.01
449.37	406.41
449.74	403.93
450.11	401.04
450.48	397.88
450.85	394.60
451.22	391.83
451.59	389.26
451.96	386.76
452.33	383.39
452.70	380.41
453.07	376.73
453.43	373.00
453.80	369.48
454.17	366.01
454.54	362.74
454.91	359.23
455.28	355.75
455.65	352.54
456.02	349.33
456.38	346.55
456.75	343.09
457.12	340.20
457.49	337.30
457.86	334.51
458.23	332.14
458.59	329.50
458.96	326.79
459.33	324.35
459.70	321.89
460.07	319.89
460.43	317.61
460.80	315.51
461.17	313.58
461.54	311.60
461.91	309.75
462.27	307.87
462.64	306.22
463.01	304.45
463.38	302.69
463.74	300.95
464.11	299.41
464.48	298.06
464.85	296.57
465.21	295.44
465.58	294.18
465.95	292.69
466.32	291.52
466.68	290.35
467.05	289.19
467.42	288.02
467.78	286.81
468.15	285.68
468.52	284.77
468.88	283.67
469.25	282.67
469.62	281.82
469.98	280.92
470.35	280.06
470.72	279.29
471.08	278.51
471.45	277.73
471.82	277.02
472.18	276.22
472.55	275.68
472.92	275.01
473.28	274.41
473.65	273.86
474.02	273.28
474.38	272.74
474.75	272.27
475.11	271.82
475.48	271.45
475.85	271.15
476.21	270.84
476.58	270.57
476.94	270.34
477.31	270.09
477.67	269.84
478.04	269.71
478.41	269.59
478.77	269.50
479.14	269.43
479.50	269.34
479.87	269.36
480.23	269.38
480.60	269.37
480.96	269.40
481.33	269.54
481.69	269.68
482.06	269.85
482.42	270.03
482.79	270.23
483.15	270.53
483.52	270.85
483.88	271.19
484.25	271.54
484.61	271.96
484.98	272.39
485.34	272.94
485.71	273.48
486.07	274.08
486.44	274.67
486.80	275.34
487.17	276.09
487.53	276.93
487.90	277.81
488.26	278.79
488.62	279.83
488.99	280.82
489.35	281.86
489.72	283.04
490.08	284.29
490.44	285.60
490.81	286.96
491.17	288.41
491.54	289.93
491.90	291.53
492.26	293.25
492.63	295.07
492.99	296.94
493.36	298.92
493.72	301.07
494.08	303.31
494.45	305.69
494.81	308.18
495.17	310.69
495.54	313.39
495.90	316.16
496.26	319.10
496.63	322.21
496.99	325.49
497.35	328.93
497.72	332.48
498.08	336.20
498.44	340.06
498.80	344.17
499.17	348.44
499.53	352.83
499.89	357.40
500.26	362.12
500.62	367.03
500.98	372.21
501.34	377.52
501.71	383.08
502.07	388.81
502.43	394.73
502.79	400.85
503.16	407.19
503.52	413.80
503.88	420.48
504.24	427.42
504.60	434.67
504.97	442.15
505.33	449.83
505.69	457.92
506.05	466.08
506.41	474.36
506.78	482.87
507.14	491.72
507.50	500.86
507.86	510.38
508.22	520.05
508.59	529.81
508.95	539.79
509.31	550.16
509.67	560.68
510.03	571.54
510.39	582.64
510.75	594.05
511.12	605.56
511.48	617.48
511.84	629.57
512.20	641.66
512.56	654.23
512.92	667.09
513.28	680.17
513.64	693.34
514.00	706.79
514.37	720.56
514.73	734.42
515.09	748.31
515.45	762.30
515.81	776.73
516.17	791.52
516.53	806.62
516.89	821.68
517.25	836.85
517.61	852.19
517.97	867.58
518.33	882.95
518.69	898.66
519.05	914.68
519.41	930.85
519.77	947.42
520.13	963.99
520.49	980.50
520.85	996.86
521.21	1013.69
521.57	1031.16
521.93	1048.03
522.29	1065.51
522.65	1082.99
523.01	1100.42
523.37	1117.65
523.73	1135.08
524.09	1152.45
524.45	1169.99
524.81	1187.99
525.17	1206.11
525.53	1224.47
525.89	1242.71
526.25	1260.93
526.61	1278.62
526.97	1296.84
527.33	1314.77
527.68	1332.73
528.04	1350.57
528.40	1368.60
528.76	1387.17
529.12	1405.12
529.48	1423.63
529.84	1441.17
530.20	1459.25
530.56	1477.82
530.91	1496.82
531.27	1515.29
531.63	1533.31
531.99	1551.44
532.35	1568.90
532.71	1586.46
533.07	1604.28
533.42	1621.84
533.78	1639.60
534.14	1657.68
534.50	1674.72
534.86	1692.36
535.21	1709.36
535.57	1727.13
535.93	1744.47
536.29	1760.99
536.65	1777.92
537.00	1794.41
537.36	1811.74
537.72	1827.98
538.08	1844.28
538.44	1859.83
538.79	1875.41
539.15	1890.72
539.51	1906.27
539.87	1922.55
540.22	1937.99
540.58	1953.66
540.94	1968.83
541.29	1983.56
541.65	1997.97
542.01	2012.93
542.37	2026.98
542.72	2041.16
543.08	2054.72
543.44	2068.88
543.79	2082.07
544.15	2094.89
544.51	2108.30
544.87	2120.84
545.22	2133.59
545.58	2145.65
545.94	2157.23
546.29	2168.96
546.65	2180.75
547.01	2191.90
547.36	2202.30
547.72	2212.66
548.07	2222.16
548.43	2231.89
548.79	2241.44
549.14	2250.71
549.50	2259.62
549.86	2269.03
550.21	2277.94
550.57	2286.82
550.92	2295.17
551.28	2303.64
551.64	2312.38
551.99	2320.53
552.35	2328.55
552.70	2336.38
553.06	2343.89
553.41	2351.95
553.77	2359.40
554.13	2367.00
554.48	2374.61
554.84	2381.78
555.19	2388.49
555.55	2395.17
555.90	2401.33
556.26	2407.93
556.61	2414.14
556.97	2420.22
557.32	2425.89
557.68	2431.56
558.03	2437.35
558.39	2442.29
558.74	2448.47
559.10	2453.70
559.45	2458.52
559.81	2463.95
560.16	2468.92
560.52	2473.46
560.87	2477.92
561.23	2481.83
561.58	2485.85
561.94	2489.61
562.29	2492.98
562.64	2496.88
563.00	2500.55
563.35	2505.15
563.71	2509.39
564.06	2513.68
564.42	2517.63
564.77	2521.35
565.12	2524.97
565.48	2527.96
565.83	2531.09
566.19	2533.43
566.54	2534.91
566.89	2537.13
567.25	2538.74
567.60	2541.02
567.96	2543.61
568.31	2545.48
568.66	2547.68
569.02	2549.15
569.37	2550.22
569.72	2551.82
570.08	2552.80
570.43	2553.47
570.78	2553.70
571.14	2552.81
571.49	2552.03
571.84	2552.12
572.20	2551.50
572.55	2550.72
572.90	2549.37
573.26	2548.36
573.61	2546.94
573.96	2545.94
574.31	2543.23
574.67	2540.50
575.02	2537.08
575.37	2533.91
575.72	2530.30
576.08	2526.88
576.43	2523.74
576.78	2520.41
577.13	2517.36
577.49	2514.21
577.84	2511.06
578.19	2507.31
578.54	2503.68
578.90	2499.64
579.25	2493.99
579.60	2488.76
579.95	2483.57
580.30	2478.32
580.66	2473.03
581.01	2467.92
581.36	2462.64
581.71	2458.47
582.06	2453.88
582.42	2449.36
582.77	2443.96
583.12	2439.11
583.47	2434.34
583.82	2429.10
584.17	2423.51
584.53	2417.70
584.88	2411.65
585.23	2405.45
585.58	2399.55
585.93	2393.71
586.28	2388.38
586.63	2382.94
586.98	2377.58
587.34	2372.52
587.69	2367.44
588.04	2361.63
588.39	2355.51
588.74	2348.55
589.09	2341.89
589.44	2334.42
589.79	2327.56
590.14	2321.18
590.49	2314.07
590.84	2306.87
591.19	2300.22
591.54	2293.02
591.89	2285.13
592.25	2278.00
592.60	2270.05
592.95	2261.85
593.30	2253.75
593.65	2245.32
594.00	2237.56
594.35	2229.48
594.70	2220.61
595.05	2212.68
595.40	2204.53
595.75	2196.07
596.10	2189.12
596.45	2181.55
596.80	2174.61
597.15	2167.31
597.50	2159.75
597.85	2152.41
598.19	2145.06
598.54	2137.30
598.89	2129.92
599.24	2123.24
599.59	2115.66
599.94	2108.59
600.29	2101.41
600.64	2093.95
600.99	2085.74
601.34	2078.14
601.69	2070.20
602.04	2062.50
602.39	2054.10
602.74	2046.42
603.08	2038.88
603.43	2031.18
603.78	2022.89
604.13	2014.83
604.48	2006.73
604.83	1998.69
605.18	1991.01
605.53	1982.00
605.87	1972.83
606.22	1964.52
606.57	1955.25
606.92	1946.71
607.27	1938.65
607.62	1930.64
607.96	1922.48
608.31	1914.99
608.66	1906.21
609.01	1897.75
609.36	1889.01
609.70	1879.95
610.05	1870.69
610.40	1861.99
610.75	1852.62
611.10	1843.90
611.44	1834.19
611.79	1825.11
612.14	1815.30
612.49	1804.70
612.83	1795.09
613.18	1785.68
613.53	1776.39
613.88	1766.85
614.22	1757.43
614.57	1747.45
614.92	1738.30
615.27	1729.70
615.61	1720.15
615.96	1710.92
616.31	1701.99
616.65	1693.59
617.00	1685.01
617.35	1676.36
617.70	1666.81
618.04	1657.13
618.39	1647.64
618.74	1638.99
619.08	1629.39
619.43	1620.57
619.78	1612.59
620.12	1604.34
620.47	1595.85
620.82	1586.41
621.16	1577.71
621.51	1568.88
621.85	1560.13
622.20	1550.30
622.55	1540.56
622.89	1531.53
623.24	1522.78
623.59	1514.22
623.93	1505.55
624.28	1497.05
624.62	1488.43
624.97	1480.17
625.32	1472.11
625.66	1463.97
626.01	1455.76
626.35	1447.20
626.70	1438.29
627.04	1429.40
627.39	1420.37
627.73	1411.89
628.08	1403.98
628.43	1395.79
628.77	1387.42
629.12	1378.80
629.46	1370.63
629.81	1361.97
630.15	1353.57
630.50	1345.04
630.84	1335.76
631.19	1326.65
631.53	1318.01
631.88	1309.21
632.22	1300.58
632.57	1292.34
632.91	1283.69
633.26	1275.12
633.60	1266.61
633.95	1258.43
634.29	1250.30
634.64	1242.73
634.98	1234.19
635.32	1226.07
635.67	1218.34
636.01	1210.75
636.36	1203.00
636.70	1195.45
637.05	1188.03
637.39	1180.74
637.73	1173.38
638.08	1166.57
638.42	1159.65
638.77	1152.39
639.11	1145.08
639.45	1137.67
639.80	1130.02
640.14	1122.77
640.49	1115.40
640.83	1108.25
641.17	1101.23
641.52	1094.12
641.86	1086.66
642.20	1080.04
642.55	1072.81
642.89	1065.53
643.23	1058.03
643.58	1051.41
643.92	1044.42
644.26	1037.57
644.61	1030.51
644.95	1023.68
645.29	1016.28
645.64	1008.65
645.98	1001.45
646.32	994.59
646.66	987.82
647.01	981.38
647.35	974.90
647.69	968.26
648.04	961.91
648.38	955.40
648.72	948.64
649.06	941.88
649.41	935.19
649.75	928.54
650.09	921.76
650.43	915.21
650.78	908.23
651.12	901.49
651.46	895.04
651.80	888.63
652.14	882.45
652.49	876.42
652.83	870.60
653.17	864.22
653.51	857.92
653.85	851.68
654.20	845.29
654.54	838.50
654.88	832.00
655.22	825.33
655.56	818.79
655.90	812.61
656.25	806.72
656.59	800.69
656.93	794.85
657.27	789.09
657.61	782.95
657.95	777.22
658.29	771.48
658.64	765.51
658.98	759.53
659.32	753.39
659.66	747.55
660.00	741.58
660.34	736.00
660.68	730.40
661.02	724.81
661.36	719.47
661.70	714.39
662.05	709.41
662.39	704.59
662.73	699.60
663.07	694.59
663.41	689.59
663.75	684.49
664.09	679.35
664.43	674.36
664.77	669.77
665.11	664.97
665.45	660.29
665.79	655.72
666.13	651.09
666.47	646.52
666.81	641.79
667.15	637.14
667.49	632.74
667.83	628.39
668.17	623.98
668.51	619.45
668.85	614.86
669.19	610.51
669.53	606.21
669.87	601.86
670.21	597.71
670.55	593.50
670.89	589.60
671.23	585.76
671.57	581.80
671.91	577.79
672.25	573.86
672.58	569.92
672.92	566.04
673.26	562.41
673.60	558.83
673.94	555.31
674.28	552.03
674.62	548.61
674.96	545.14
675.30	541.80
675.64	538.46
675.97	535.32
676.31	532.12
676.65	528.81
676.99	525.77
677.33	522.53
677.67	519.37
678.01	516.02
678.34	512.64
678.68	509.40
679.02	506.21
679.36	503.03
679.70	499.89
680.04	496.74
680.37	493.55
680.71	490.38
681.05	487.40
681.39	484.30
681.73	481.29
682.06	478.48
682.40	475.62
682.74	472.70
683.08	469.80
683.42	466.80
683.75	463.97
684.09	461.03
684.43	458.22
684.77	455.41
685.10	452.69
685.44	450.07
685.78	447.49
686.12	444.92
686.45	442.35
686.79	439.81
687.13	437.34
687.46	434.87
687.80	432.38
688.14	429.84
688.48	427.48
688.81	424.97
689.15	422.48
689.49	420.03
689.82	417.68
690.16	415.33
690.50	413.16
690.83	410.90
691.17	408.69
691.51	406.57
691.84	404.52
692.18	402.37
692.52	400.14
692.85	397.91
693.19	395.80
693.52	393.70
693.86	391.60
694.20	389.57
694.53	387.55
694.87	385.52
695.21	383.51
695.54	381.44
695.88	379.46
696.21	377.47
696.55	375.54
696.88	373.62
697.22	371.72
697.56	369.87
697.89	368.03
698.23	366.19
698.56	364.35
698.90	362.52
699.23	360.64
699.57	358.88
699.90	357.13
700.24	355.35
700.58	353.62
700.91	351.99
701.25	350.33
701.58	348.74
701.92	347.15
702.25	345.61
702.59	344.07
702.92	342.61
703.26	341.12
703.59	339.67
703.93	338.41
704.26	337.04
704.60	335.61
704.93	334.17
705.26	332.77
705.60	331.40
705.93	330.08
706.27	328.90
706.60	327.69
706.94	326.41
707.27	325.15
707.61	323.94
707.94	322.73
708.27	321.47
708.61	320.23
708.94	319.06
709.28	317.90
709.61	316.82
709.94	315.69
710.28	314.54
710.61	313.41
710.95	312.13
711.28	311.05
711.61	309.92
711.95	308.89
712.28	307.82
712.61	306.71
712.95	305.65
713.28	304.65
713.61	303.63
713.95	302.65
714.28	301.68
714.61	300.69
714.95	299.72
715.28	298.77
715.61	297.78
715.95	296.81
716.28	295.85
716.61	294.85
716.95	293.90
717.28	293.07
717.61	292.20
717.94	291.33
718.28	290.35
718.61	289.51
718.94	288.69
719.27	287.89
719.61	287.13
719.94	286.38
720.27	285.54
720.60	284.82
720.94	284.09
721.27	283.41
721.60	282.75
721.93	282.06
722.27	281.41
722.60	280.83
722.93	280.19
723.26	279.56
723.59	278.94
723.93	278.30
724.26	277.65
724.59	276.97
724.92	276.38
725.25	275.87
725.59	275.32
725.92	274.73
726.25	274.16
726.58	273.61
726.91	273.03
727.24	272.51
727.57	271.92
727.91	271.30
728.24	270.79
728.57	270.22
728.90	269.70
729.23	269.17
729.56	268.63
729.89	268.13
730.22	267.61
730.55	267.07
730.89	266.58
731.22	266.08
731.55	265.61
731.88	265.11
732.21	264.63
732.54	264.11
732.87	263.65
733.20	263.16
733.53	262.70
733.86	262.30
734.19	261.83
734.52	261.40
734.85	261.11
735.18	260.63
735.51	260.20
735.84	259.78
736.17	259.38
736.50	258.91
736.83	258.61
737.16	258.20
737.49	257.84
737.82	257.46
738.15	257.10
738.48	256.71
738.81	256.40
739.14	256.02
739.47	255.67
739.80	255.32
740.13	254.98
740.46	254.61
740.79	254.22
741.12	253.88
741.45	253.55
741.78	253.15
742.11	252.80
742.44	252.42
742.77	252.10
743.10	251.78
743.43	251.47
743.75	251.06
744.08	250.88
744.41	250.56
744.74	250.26
745.07	249.92
745.40	249.70
745.73	249.39
746.06	249.08
746.39	248.79
746.71	248.43
747.04	248.16
747.37	247.88
747.70	247.62
748.03	247.35
748.36	247.05
748.68	246.75
749.01	246.48
749.34	246.28
749.67	245.99
750.00	245.72
750.33	245.52
750.65	245.28
750.98	244.92
751.31	244.68
751.64	244.45
751.97	244.28
752.29	243.99
752.62	243.71
752.95	243.48
753.28	243.22
753.60	243.03
753.93	242.82
754.26	242.57
754.59	242.29
754.91	242.06
755.24	241.84
755.57	241.66
755.90	241.44
756.22	241.20
756.55	240.98
756.88	240.75
757.20	240.47
757.53	240.23
757.86	240.06
758.19	239.89
758.51	239.70
758.84	239.47
759.17	239.30
759.49	239.17
759.82	239.05
760.15	238.90
760.47	238.75
760.80	238.56
761.13	238.44
761.45	238.27
761.78	238.09
762.11	237.94
762.43	237.72
762.76	237.60
763.08	237.45
763.41	237.31
763.74	237.14
764.06	236.99
764.39	236.81
764.71	236.63
765.04	236.45
765.37	236.31
765.69	236.16
766.02	235.98
766.34	235.78
766.67	235.62
767.00	235.49
767.32	235.44
767.65	235.41
767.97	235.27
768.30	235.18
768.62	235.08
768.95	234.92
769.27	234.82
769.60	234.71
769.92	234.60
770.25	234.45
770.57	234.35
770.90	234.26
771.22	234.17
771.55	234.07
771.87	233.99
772.20	233.88
772.52	233.87
772.85	233.89
773.17	233.79
773.50	233.67
773.82	233.60
774.15	233.39
774.47	233.19
774.80	233.08
775.12	232.95
775.45	232.84
775.77	232.79
776.09	232.71
776.42	232.61
776.74	232.55
777.07	232.49
777.39	232.41
777.72	232.32
778.04	232.24
778.36	232.19
778.69	232.13
779.01	232.06
779.33	231.87
779.66	231.66
779.98	231.59
780.31	231.53
780.63	231.45
780.95	231.41
781.28	231.35
781.60	231.28
781.92	231.26
782.25	231.20
782.57	231.14
782.89	231.07
783.22	230.99
783.54	230.92
783.86	230.86
784.19	230.80
784.51	230.78
784.83	230.73
785.16	230.64
785.48	230.56
785.80	230.50
786.12	230.46
786.45	230.39
786.77	230.36
