SpectraSuite Data File
++++++++++++++++++++++++++++++++++++
Date: Fri Feb 01 14:51:45 EST 2013
User: group
Dark Spectrum Present: No
Reference Spectrum Present: No
Number of Sampled Component Spectra: 1
Spectrometers: USB2E7196
Integration Time (usec): 35000 (USB2E7196)
Spectra Averaged: 100 (USB2E7196)
Boxcar Smoothing: 10 (USB2E7196)
Correct for Electrical Dark: No (USB2E7196)
Strobe/Lamp Enabled: No (USB2E7196)
Correct for Detector Non-linearity: No (USB2E7196)
Correct for Stray Light: No (USB2E7196)
Number of Pixels in Processed Spectrum: 2048
>>>>>Begin Processed Spectral Data<<<<<
339.09	0.00
339.48	215.04
339.86	216.76
340.24	218.09
340.63	219.90
341.01	223.20
341.39	222.58
341.78	223.94
342.16	224.58
342.54	225.51
342.93	213.86
343.31	224.66
343.69	225.23
344.07	225.74
344.46	226.16
344.84	226.53
345.22	226.73
345.60	226.97
345.99	227.13
346.37	227.29
346.75	227.38
347.13	227.44
347.52	227.46
347.90	227.51
348.28	227.50
348.66	227.52
349.05	227.50
349.43	227.52
349.81	227.54
350.19	227.56
350.57	227.65
350.96	227.70
351.34	227.80
351.72	227.87
352.10	227.95
352.48	228.05
352.87	228.10
353.25	228.17
353.63	228.26
354.01	228.34
354.39	228.41
354.77	228.48
355.15	228.58
355.54	228.65
355.92	228.70
356.30	228.81
356.68	228.98
357.06	229.04
357.44	229.11
357.82	229.17
358.20	229.25
358.58	229.30
358.97	229.36
359.35	229.44
359.73	229.52
360.11	229.54
360.49	229.57
360.87	229.61
361.25	229.67
361.63	229.73
362.01	229.78
362.39	229.80
362.77	229.84
363.15	229.88
363.53	229.91
363.91	229.92
364.29	229.95
364.67	229.86
365.05	229.90
365.43	229.91
365.81	229.94
366.19	230.01
366.57	230.01
366.95	230.02
367.33	229.95
367.71	229.92
368.09	229.92
368.47	229.93
368.85	229.93
369.23	229.91
369.61	229.83
369.99	229.81
370.37	229.79
370.75	229.77
371.13	229.67
371.51	229.59
371.89	229.57
372.27	229.50
372.65	229.46
373.03	229.39
373.41	229.33
373.78	229.27
374.16	229.13
374.54	229.05
374.92	228.95
375.30	228.88
375.68	228.79
376.06	228.70
376.44	228.58
376.82	228.49
377.19	228.40
377.57	228.33
377.95	228.22
378.33	228.16
378.71	228.06
379.09	227.99
379.47	227.94
379.84	227.82
380.22	227.73
380.60	227.63
380.98	227.55
381.36	227.47
381.73	227.36
382.11	227.34
382.49	227.28
382.87	227.21
383.25	227.16
383.62	227.21
384.00	227.16
384.38	227.07
384.76	226.99
385.13	226.96
385.51	226.90
385.89	226.84
386.27	226.77
386.64	226.73
387.02	226.68
387.40	226.63
387.78	226.59
388.15	226.59
388.53	226.53
388.91	226.49
389.29	226.43
389.66	226.42
390.04	226.37
390.42	226.35
390.79	226.33
391.17	226.31
391.55	226.19
391.92	226.16
392.30	226.23
392.68	226.25
393.05	226.22
393.43	226.23
393.81	226.23
394.18	226.23
394.56	226.23
394.94	226.27
395.31	226.31
395.69	226.40
396.06	226.45
396.44	226.53
396.82	226.57
397.19	226.70
397.57	226.76
397.95	226.84
398.32	226.87
398.70	227.00
399.07	227.13
399.45	227.20
399.82	227.33
400.20	227.44
400.58	227.54
400.95	227.64
401.33	227.76
401.70	227.97
402.08	228.10
402.45	228.22
402.83	228.37
403.20	228.52
403.58	228.63
403.95	228.80
404.33	228.93
404.71	229.14
405.08	229.29
405.46	229.47
405.83	229.60
406.21	229.76
406.58	229.90
406.96	230.03
407.33	230.24
407.70	230.43
408.08	230.69
408.45	230.94
408.83	231.19
409.20	231.41
409.58	231.58
409.95	231.82
410.33	232.12
410.70	232.38
411.08	232.68
411.45	233.00
411.82	233.27
412.20	233.60
412.57	234.00
412.95	234.34
413.32	234.74
413.69	235.18
414.07	235.65
414.44	236.11
414.82	236.62
415.19	237.16
415.56	237.72
415.94	238.23
416.31	238.84
416.68	239.43
417.06	240.11
417.43	240.81
417.81	241.60
418.18	242.39
418.55	243.21
418.93	244.06
419.30	244.93
419.67	245.87
420.04	246.81
420.42	247.76
420.79	248.90
421.16	250.04
421.54	251.20
421.91	252.42
422.28	253.69
422.66	254.97
423.03	256.29
423.40	257.62
423.77	259.02
424.15	260.41
424.52	261.92
424.89	263.56
425.26	265.07
425.64	266.48
426.01	268.08
426.38	269.70
426.75	271.39
427.13	273.12
427.50	274.91
427.87	276.75
428.24	278.58
428.61	280.31
428.99	282.25
429.36	284.35
429.73	286.37
430.10	288.38
430.47	290.44
430.85	292.51
431.22	294.72
431.59	297.06
431.96	299.31
432.33	301.79
432.70	304.18
433.08	306.98
433.45	309.62
433.82	312.17
434.19	315.08
434.56	317.86
434.93	320.48
435.30	323.07
435.68	326.01
436.05	328.93
436.42	331.68
436.79	334.18
437.16	336.86
437.53	339.72
437.90	342.54
438.27	345.31
438.64	348.13
439.01	350.75
439.38	352.98
439.75	355.12
440.13	357.60
440.50	359.90
440.87	361.76
441.24	363.70
441.61	365.87
441.98	367.37
442.35	369.17
442.72	371.06
443.09	372.91
443.46	373.87
443.83	374.36
444.20	374.90
444.57	375.69
444.94	375.99
445.31	376.28
445.68	376.61
446.05	376.64
446.42	376.29
446.79	375.83
447.16	375.42
447.53	375.13
447.90	373.98
448.27	372.84
448.64	371.27
449.01	370.13
449.37	368.18
449.74	366.28
450.11	364.02
450.48	361.53
450.85	358.99
451.22	356.90
451.59	354.94
451.96	353.03
452.33	350.49
452.70	348.14
453.07	345.35
453.43	342.48
453.80	339.76
454.17	337.07
454.54	334.58
454.91	331.89
455.28	329.24
455.65	326.76
456.02	324.29
456.38	322.17
456.75	319.54
457.12	317.30
457.49	315.12
457.86	312.98
458.23	311.19
458.59	309.20
458.96	307.12
459.33	305.28
459.70	303.38
460.07	301.89
460.43	300.20
460.80	298.58
461.17	297.14
461.54	295.63
461.91	294.22
462.27	292.77
462.64	291.53
463.01	290.19
463.38	288.89
463.74	287.53
464.11	286.37
464.48	285.35
464.85	284.23
465.21	283.33
465.58	282.40
465.95	281.29
466.32	280.33
466.68	279.42
467.05	278.50
467.42	277.63
467.78	276.65
468.15	275.73
468.52	275.08
468.88	274.19
469.25	273.41
469.62	272.77
469.98	272.07
470.35	271.37
470.72	270.76
471.08	270.06
471.45	269.52
471.82	268.92
472.18	268.29
472.55	267.81
472.92	267.23
473.28	266.73
473.65	266.29
474.02	265.82
474.38	265.43
474.75	265.07
475.11	264.70
475.48	264.42
475.85	264.20
476.21	263.91
476.58	263.74
476.94	263.60
477.31	263.40
477.67	263.23
478.04	263.12
478.41	263.04
478.77	263.09
479.14	263.00
479.50	263.01
479.87	263.06
480.23	263.15
480.60	263.19
480.96	263.26
481.33	263.42
481.69	263.60
482.06	263.79
482.42	263.99
482.79	264.24
483.15	264.54
483.52	264.90
483.88	265.22
484.25	265.57
484.61	265.96
484.98	266.40
485.34	266.93
485.71	267.49
486.07	268.05
486.44	268.61
486.80	269.26
487.17	270.01
487.53	270.79
487.90	271.62
488.26	272.58
488.62	273.58
488.99	274.53
489.35	275.57
489.72	276.67
490.08	277.87
490.44	279.09
490.81	280.45
491.17	281.76
491.54	283.27
491.90	284.85
492.26	286.50
492.63	288.24
492.99	290.06
493.36	291.95
493.72	293.99
494.08	296.06
494.45	298.35
494.81	300.68
495.17	303.12
495.54	305.67
495.90	308.34
496.26	311.14
496.63	314.06
496.99	317.14
497.35	320.35
497.72	323.71
498.08	327.17
498.44	330.77
498.80	334.69
499.17	338.66
499.53	342.74
499.89	347.10
500.26	351.51
500.62	356.06
500.98	360.91
501.34	365.98
501.71	371.26
502.07	376.64
502.43	382.21
502.79	387.98
503.16	394.08
503.52	400.30
503.88	406.68
504.24	413.32
504.60	420.11
504.97	427.19
505.33	434.43
505.69	442.20
506.05	449.90
506.41	457.73
506.78	465.84
507.14	474.21
507.50	482.87
507.86	491.87
508.22	501.04
508.59	510.29
508.95	519.87
509.31	529.64
509.67	539.72
510.03	549.97
510.39	560.45
510.75	571.17
511.12	582.13
511.48	593.40
511.84	604.78
512.20	616.33
512.56	628.30
512.92	640.46
513.28	652.80
513.64	665.29
514.00	677.94
514.37	690.91
514.73	704.01
515.09	717.04
515.45	730.32
515.81	743.88
516.17	757.78
516.53	771.78
516.89	786.01
517.25	800.16
517.61	814.51
517.97	828.94
518.33	843.34
518.69	858.14
519.05	873.10
519.41	888.23
519.77	903.77
520.13	919.22
520.49	934.68
520.85	949.98
521.21	965.69
521.57	981.97
521.93	997.80
522.29	1014.22
522.65	1030.57
523.01	1046.88
523.37	1063.05
523.73	1079.32
524.09	1095.49
524.45	1111.85
524.81	1128.51
525.17	1145.46
525.53	1162.46
525.89	1179.35
526.25	1196.12
526.61	1212.59
526.97	1229.47
527.33	1246.02
527.68	1262.62
528.04	1279.18
528.40	1295.87
528.76	1313.00
529.12	1329.73
529.48	1346.63
529.84	1362.80
530.20	1379.50
530.56	1396.55
530.91	1413.93
531.27	1430.76
531.63	1447.29
531.99	1463.86
532.35	1480.00
532.71	1495.87
533.07	1512.19
533.42	1528.17
533.78	1544.23
534.14	1560.49
534.50	1575.84
534.86	1591.77
535.21	1607.13
535.57	1623.18
535.93	1638.70
536.29	1653.64
536.65	1668.85
537.00	1683.75
537.36	1698.97
537.72	1713.46
538.08	1727.92
538.44	1741.77
538.79	1755.74
539.15	1769.63
539.51	1783.54
539.87	1797.86
540.22	1811.71
540.58	1825.53
540.94	1838.97
541.29	1852.10
541.65	1864.92
542.01	1878.26
542.37	1890.70
542.72	1903.16
543.08	1914.94
543.44	1927.40
543.79	1938.70
544.15	1949.45
544.51	1960.97
544.87	1972.00
545.22	1982.81
545.58	1993.07
545.94	2002.88
546.29	2012.91
546.65	2022.58
547.01	2031.81
547.36	2040.64
547.72	2049.20
548.07	2057.13
548.43	2065.25
548.79	2073.16
549.14	2080.77
549.50	2088.17
549.86	2095.86
550.21	2103.20
550.57	2110.32
550.92	2117.00
551.28	2124.06
551.64	2131.25
551.99	2137.79
552.35	2143.93
552.70	2150.06
553.06	2156.02
553.41	2162.38
553.77	2168.18
554.13	2174.24
554.48	2180.20
554.84	2185.46
555.19	2190.64
555.55	2195.70
555.90	2200.05
556.26	2204.88
556.61	2209.33
556.97	2213.34
557.32	2217.34
557.68	2221.40
558.03	2225.58
558.39	2229.18
558.74	2233.67
559.10	2237.39
559.45	2240.85
559.81	2245.01
560.16	2248.69
560.52	2251.73
560.87	2255.11
561.23	2257.61
561.58	2260.42
561.94	2262.78
562.29	2265.07
562.64	2267.60
563.00	2270.18
563.35	2273.65
563.71	2276.70
564.06	2279.85
564.42	2282.70
564.77	2284.85
565.12	2286.82
565.48	2288.64
565.83	2290.26
566.19	2291.32
566.54	2292.17
566.89	2293.22
567.25	2293.64
567.60	2294.85
567.96	2296.25
568.31	2296.83
568.66	2297.63
569.02	2298.04
569.37	2298.27
569.72	2298.87
570.08	2298.68
570.43	2298.30
570.78	2297.31
571.14	2295.39
571.49	2293.84
571.84	2293.27
572.20	2291.91
572.55	2290.61
572.90	2288.72
573.26	2286.92
573.61	2285.14
573.96	2283.11
574.31	2279.96
574.67	2276.67
575.02	2272.72
575.37	2269.17
575.72	2265.04
576.08	2261.52
576.43	2257.99
576.78	2254.08
577.13	2250.76
577.49	2247.58
577.84	2244.00
578.19	2240.20
578.54	2236.32
578.90	2231.82
579.25	2226.07
579.60	2221.09
579.95	2215.88
580.30	2210.68
580.66	2205.46
581.01	2200.15
581.36	2195.06
581.71	2190.62
582.06	2185.97
582.42	2181.33
582.77	2175.96
583.12	2171.30
583.47	2166.42
583.82	2161.25
584.17	2155.72
584.53	2149.99
584.88	2144.13
585.23	2138.09
585.58	2132.43
585.93	2126.90
586.28	2122.12
586.63	2116.85
586.98	2111.67
587.34	2106.91
587.69	2101.90
588.04	2096.47
588.39	2090.76
588.74	2084.10
589.09	2077.73
589.44	2070.84
589.79	2064.67
590.14	2058.91
590.49	2052.14
590.84	2045.70
591.19	2039.48
591.54	2032.99
591.89	2025.53
592.25	2018.73
592.60	2011.50
592.95	2003.83
593.30	1996.39
593.65	1988.66
594.00	1981.57
594.35	1974.10
594.70	1965.93
595.05	1958.61
595.40	1951.37
595.75	1943.74
596.10	1937.40
596.45	1930.46
596.80	1924.21
597.15	1917.49
597.50	1910.26
597.85	1903.82
598.19	1897.10
598.54	1890.10
598.89	1883.39
599.24	1877.46
599.59	1870.68
599.94	1864.45
600.29	1858.00
600.64	1851.37
600.99	1843.72
601.34	1836.82
601.69	1829.75
602.04	1822.83
602.39	1815.50
602.74	1808.62
603.08	1801.85
603.43	1795.13
603.78	1787.99
604.13	1780.83
604.48	1773.59
604.83	1766.81
605.18	1759.79
605.53	1751.76
605.87	1743.63
606.22	1736.52
606.57	1728.58
606.92	1721.25
607.27	1713.90
607.62	1707.05
607.96	1699.79
608.31	1693.29
608.66	1685.65
609.01	1678.25
609.36	1670.79
609.70	1662.89
610.05	1654.82
610.40	1647.25
610.75	1638.96
611.10	1631.23
611.44	1622.89
611.79	1615.00
612.14	1606.33
612.49	1597.26
612.83	1589.02
613.18	1581.12
613.53	1573.03
613.88	1564.65
614.22	1556.40
614.57	1548.05
614.92	1540.17
615.27	1532.70
615.61	1524.44
615.96	1516.53
616.31	1508.99
616.65	1501.67
617.00	1494.09
617.35	1486.49
617.70	1478.12
618.04	1469.62
618.39	1461.64
618.74	1454.07
619.08	1445.84
619.43	1438.39
619.78	1431.61
620.12	1424.49
620.47	1416.89
620.82	1408.95
621.16	1401.57
621.51	1394.04
621.85	1386.46
622.20	1378.03
622.55	1369.81
622.89	1362.07
623.24	1354.64
623.59	1347.31
623.93	1339.81
624.28	1332.60
624.62	1325.17
624.97	1318.09
625.32	1311.51
625.66	1304.50
626.01	1297.45
626.35	1290.06
626.70	1282.37
627.04	1274.63
627.39	1266.92
627.73	1259.63
628.08	1252.79
628.43	1245.59
628.77	1238.37
629.12	1230.93
629.46	1223.74
629.81	1216.40
630.15	1209.36
630.50	1201.98
630.84	1193.95
631.19	1186.11
631.53	1178.75
631.88	1171.36
632.22	1163.83
632.57	1156.63
632.91	1149.30
633.26	1142.02
633.60	1134.86
633.95	1127.85
634.29	1121.00
634.64	1114.53
634.98	1107.30
635.32	1100.16
635.67	1093.67
636.01	1087.07
636.36	1080.33
636.70	1074.01
637.05	1067.52
637.39	1061.12
637.73	1054.60
638.08	1048.83
638.42	1043.01
638.77	1036.72
639.11	1030.18
639.45	1023.91
639.80	1017.26
640.14	1010.83
640.49	1004.45
640.83	998.21
641.17	992.13
641.52	985.86
641.86	979.47
642.20	973.77
642.55	967.46
642.89	961.08
643.23	954.64
643.58	948.90
643.92	942.75
644.26	936.73
644.61	930.76
644.95	924.86
645.29	918.32
645.64	911.64
645.98	905.30
646.32	899.56
646.66	893.61
647.01	888.01
647.35	882.42
647.69	876.58
648.04	871.08
648.38	865.36
648.72	859.39
649.06	853.38
649.41	847.48
649.75	841.62
650.09	835.61
650.43	829.89
650.78	823.82
651.12	817.95
651.46	812.26
651.80	806.54
652.14	801.19
652.49	795.83
652.83	790.69
653.17	785.09
653.51	779.34
653.85	774.02
654.20	768.29
654.54	762.27
654.88	756.52
655.22	750.72
655.56	745.10
655.90	739.73
656.25	734.48
656.59	729.12
656.93	724.07
657.27	719.04
657.61	713.66
657.95	708.71
658.29	703.65
658.64	698.51
658.98	693.29
659.32	687.93
659.66	682.79
660.00	677.49
660.34	672.56
660.68	667.77
661.02	662.81
661.36	658.23
661.70	653.84
662.05	649.55
662.39	645.23
662.73	640.74
663.07	636.42
663.41	631.99
663.75	627.65
664.09	623.12
664.43	618.79
664.77	614.76
665.11	610.45
665.45	606.40
665.79	602.40
666.13	598.31
666.47	594.26
666.81	590.17
667.15	586.17
667.49	582.31
667.83	578.55
668.17	574.58
668.51	570.58
668.85	566.63
669.19	562.83
669.53	559.07
669.87	555.32
670.21	551.67
670.55	548.12
670.89	544.72
671.23	541.34
671.57	537.82
671.91	534.35
672.25	530.91
672.58	527.41
672.92	524.07
673.26	520.96
673.60	517.86
673.94	514.80
674.28	511.93
674.62	509.04
674.96	505.91
675.30	503.09
675.64	500.23
675.97	497.46
676.31	494.61
676.65	491.74
676.99	489.02
677.33	486.12
677.67	483.33
678.01	480.28
678.34	477.37
678.68	474.58
679.02	471.76
679.36	469.03
679.70	466.38
680.04	463.62
680.37	460.79
680.71	458.00
681.05	455.44
681.39	452.77
681.73	450.14
682.06	447.74
682.40	445.24
682.74	442.75
683.08	440.22
683.42	437.72
683.75	435.29
684.09	432.75
684.43	430.38
684.77	428.00
685.10	425.75
685.44	423.47
685.78	421.19
686.12	418.98
686.45	416.81
686.79	414.49
687.13	412.36
687.46	410.26
687.80	408.17
688.14	405.97
688.48	403.96
688.81	401.79
689.15	399.65
689.49	397.56
689.82	395.52
690.16	393.51
690.50	391.56
690.83	389.60
691.17	387.68
691.51	385.77
691.84	383.90
692.18	381.97
692.52	379.97
692.85	378.10
693.19	376.18
693.52	374.29
693.86	372.55
694.20	370.77
694.53	368.95
694.87	367.13
695.21	365.34
695.54	363.52
695.88	361.79
696.21	360.01
696.55	358.34
696.88	356.64
697.22	354.98
697.56	353.36
697.89	351.71
698.23	350.05
698.56	348.49
698.90	346.94
699.23	345.34
699.57	343.88
699.90	342.35
700.24	340.84
700.58	339.34
700.91	337.82
701.25	336.38
701.58	334.99
701.92	333.61
702.25	332.21
702.59	330.85
702.92	329.55
703.26	328.28
703.59	327.01
703.93	325.84
704.26	324.62
704.60	323.36
704.93	322.11
705.26	320.89
705.60	319.74
705.93	318.58
706.27	317.54
706.60	316.46
706.94	315.41
707.27	314.29
707.61	313.27
707.94	312.29
708.27	311.21
708.61	310.18
708.94	309.21
709.28	308.29
709.61	307.34
709.94	306.38
710.28	305.39
710.61	304.41
710.95	303.38
711.28	302.47
711.61	301.53
711.95	300.64
712.28	299.76
712.61	298.79
712.95	297.89
713.28	297.06
713.61	296.21
713.95	295.38
714.28	294.56
714.61	293.74
714.95	292.88
715.28	292.03
715.61	291.17
715.95	290.35
716.28	289.56
716.61	288.76
716.95	288.03
717.28	287.30
717.61	286.59
717.94	285.83
718.28	285.02
718.61	284.33
718.94	283.65
719.27	283.01
719.61	282.41
719.94	281.76
720.27	281.05
720.60	280.40
720.94	279.74
721.27	279.17
721.60	278.59
721.93	278.01
722.27	277.53
722.60	277.01
722.93	276.37
723.26	275.81
723.59	275.24
723.93	274.67
724.26	274.11
724.59	273.54
724.92	273.05
725.25	272.59
725.59	272.08
725.92	271.61
726.25	271.07
726.58	270.55
726.91	270.09
727.24	269.64
727.57	269.14
727.91	268.64
728.24	268.22
728.57	267.76
728.90	267.33
729.23	266.83
729.56	266.39
729.89	265.98
730.22	265.48
730.55	265.03
730.89	264.56
731.22	264.12
731.55	263.69
731.88	263.24
732.21	262.79
732.54	262.34
732.87	261.88
733.20	261.50
733.53	261.10
733.86	260.70
734.19	260.26
734.52	259.89
734.85	259.58
735.18	259.12
735.51	258.73
735.84	258.35
736.17	257.99
736.50	257.54
736.83	257.29
737.16	256.98
737.49	256.63
737.82	256.30
738.15	255.94
738.48	255.60
738.81	255.26
739.14	254.95
739.47	254.66
739.80	254.34
740.13	254.02
740.46	253.69
740.79	253.35
741.12	253.04
741.45	252.71
741.78	252.33
742.11	252.05
742.44	251.69
742.77	251.41
743.10	251.11
743.43	250.83
743.75	250.42
744.08	250.25
744.41	249.98
744.74	249.70
745.07	249.46
745.40	249.18
745.73	248.96
746.06	248.69
746.39	248.42
746.71	248.16
747.04	247.88
747.37	247.64
747.70	247.38
748.03	247.16
748.36	246.96
748.68	246.75
749.01	246.49
749.34	246.31
749.67	246.04
750.00	245.81
750.33	245.67
750.65	245.49
750.98	245.17
751.31	244.95
751.64	244.74
751.97	244.59
752.29	244.40
752.62	244.14
752.95	243.92
753.28	243.76
753.60	243.57
753.93	243.40
754.26	243.22
754.59	243.03
754.91	242.80
755.24	242.59
755.57	242.38
755.90	242.22
756.22	242.02
756.55	241.86
756.88	241.67
757.20	241.44
757.53	241.24
757.86	241.10
758.19	240.94
758.51	240.79
758.84	240.57
759.17	240.44
759.49	240.31
759.82	240.20
760.15	240.02
760.47	239.86
760.80	239.70
761.13	239.57
761.45	239.42
761.78	239.34
762.11	239.19
762.43	239.05
762.76	238.92
763.08	238.81
763.41	238.69
763.74	238.59
764.06	238.46
764.39	238.34
764.71	238.19
765.04	238.03
765.37	237.88
765.69	237.75
766.02	237.61
766.34	237.48
766.67	237.34
767.00	237.22
767.32	237.18
767.65	237.13
767.97	237.00
768.30	236.91
768.62	236.77
768.95	236.69
769.27	236.62
769.60	236.52
769.92	236.40
770.25	236.27
770.57	236.12
770.90	236.04
771.22	235.93
771.55	235.86
771.87	235.78
772.20	235.69
772.52	235.68
772.85	235.69
773.17	235.57
773.50	235.43
773.82	235.33
774.15	235.17
774.47	234.98
774.80	234.91
775.12	234.80
775.45	234.69
775.77	234.54
776.09	234.42
776.42	234.36
776.74	234.30
777.07	234.20
777.39	234.13
777.72	234.05
778.04	233.97
778.36	233.85
778.69	233.78
779.01	233.71
779.33	233.54
779.66	233.36
779.98	233.29
780.31	233.25
780.63	233.24
780.95	233.18
781.28	233.12
781.60	233.01
781.92	232.94
782.25	232.90
782.57	232.85
782.89	232.80
783.22	232.73
783.54	232.63
783.86	232.59
784.19	232.55
784.51	232.52
784.83	232.47
785.16	232.43
785.48	232.40
785.80	232.36
786.12	232.32
786.45	232.27
786.77	232.25
787.09	232.17
