SpectraSuite Data File
++++++++++++++++++++++++++++++++++++
Date: Fri Feb 01 16:54:43 EST 2013
User: group
Dark Spectrum Present: No
Reference Spectrum Present: No
Number of Sampled Component Spectra: 1
Spectrometers: USB2E7196
Integration Time (usec): 35000 (USB2E7196)
Spectra Averaged: 100 (USB2E7196)
Boxcar Smoothing: 10 (USB2E7196)
Correct for Electrical Dark: No (USB2E7196)
Strobe/Lamp Enabled: No (USB2E7196)
Correct for Detector Non-linearity: No (USB2E7196)
Correct for Stray Light: No (USB2E7196)
Number of Pixels in Processed Spectrum: 2048
>>>>>Begin Processed Spectral Data<<<<<
339.09	0.00
339.48	213.20
339.86	214.55
340.24	216.30
340.63	217.69
341.01	220.71
341.39	220.49
341.78	221.87
342.16	222.93
342.54	223.18
342.93	211.78
343.31	222.49
343.69	223.02
344.07	223.49
344.46	223.92
344.84	224.30
345.22	224.53
345.60	224.76
345.99	224.92
346.37	225.04
346.75	225.16
347.13	225.25
347.52	225.34
347.90	225.41
348.28	225.44
348.66	225.50
349.05	225.51
349.43	225.55
349.81	225.57
350.19	225.58
350.57	225.60
350.96	225.67
351.34	225.74
351.72	225.83
352.10	225.94
352.48	226.01
352.87	226.07
353.25	226.15
353.63	226.23
354.01	226.31
354.39	226.36
354.77	226.41
355.15	226.51
355.54	226.59
355.92	226.62
356.30	226.69
356.68	226.83
357.06	226.88
357.44	226.90
357.82	226.98
358.20	227.09
358.58	227.17
358.97	227.24
359.35	227.32
359.73	227.40
360.11	227.42
360.49	227.48
360.87	227.50
361.25	227.53
361.63	227.59
362.01	227.64
362.39	227.68
362.77	227.72
363.15	227.75
363.53	227.78
363.91	227.80
364.29	227.82
364.67	227.73
365.05	227.80
365.43	227.84
365.81	227.86
366.19	227.89
366.57	227.93
366.95	227.92
367.33	227.91
367.71	227.90
368.09	227.90
368.47	227.89
368.85	227.91
369.23	227.89
369.61	227.84
369.99	227.85
370.37	227.88
370.75	227.91
371.13	227.86
371.51	227.79
371.89	227.79
372.27	227.75
372.65	227.72
373.03	227.65
373.41	227.61
373.78	227.55
374.16	227.44
374.54	227.39
374.92	227.36
375.30	227.28
375.68	227.22
376.06	227.19
376.44	227.11
376.82	227.03
377.19	226.98
377.57	226.92
377.95	226.83
378.33	226.72
378.71	226.61
379.09	226.54
379.47	226.48
379.84	226.38
380.22	226.31
380.60	226.22
380.98	226.18
381.36	226.09
381.73	226.03
382.11	226.00
382.49	225.92
382.87	225.82
383.25	225.75
383.62	225.81
384.00	225.73
384.38	225.69
384.76	225.67
385.13	225.66
385.51	225.63
385.89	225.52
386.27	225.51
386.64	225.48
387.02	225.43
387.40	225.39
387.78	225.37
388.15	225.34
388.53	225.30
388.91	225.24
389.29	225.20
389.66	225.16
390.04	225.11
390.42	225.12
390.79	225.10
391.17	225.10
391.55	224.96
391.92	224.93
392.30	224.94
392.68	224.90
393.05	224.88
393.43	224.90
393.81	224.93
394.18	224.90
394.56	224.89
394.94	224.91
395.31	224.93
395.69	224.95
396.06	224.98
396.44	225.03
396.82	225.06
397.19	225.13
397.57	225.19
397.95	225.24
398.32	225.25
398.70	225.30
399.07	225.35
399.45	225.42
399.82	225.51
400.20	225.56
400.58	225.63
400.95	225.65
401.33	225.72
401.70	225.87
402.08	225.96
402.45	226.06
402.83	226.22
403.20	226.31
403.58	226.42
403.95	226.56
404.33	226.64
404.71	226.76
405.08	226.94
405.46	227.07
405.83	227.23
406.21	227.35
406.58	227.51
406.96	227.66
407.33	227.84
407.70	228.01
408.08	228.26
408.45	228.47
408.83	228.71
409.20	228.94
409.58	229.10
409.95	229.36
410.33	229.63
410.70	229.82
411.08	230.09
411.45	230.38
411.82	230.65
412.20	231.04
412.57	231.45
412.95	231.74
413.32	232.11
413.69	232.50
414.07	232.96
414.44	233.42
414.82	233.87
415.19	234.39
415.56	234.91
415.94	235.40
416.31	236.04
416.68	236.62
417.06	237.31
417.43	237.99
417.81	238.77
418.18	239.50
418.55	240.35
418.93	241.22
419.30	242.11
419.67	243.03
420.04	243.99
420.42	244.96
420.79	246.14
421.16	247.30
421.54	248.49
421.91	249.68
422.28	250.92
422.66	252.27
423.03	253.59
423.40	254.90
423.77	256.32
424.15	257.71
424.52	259.22
424.89	260.80
425.26	262.34
425.64	263.75
426.01	265.35
426.38	266.97
426.75	268.62
427.13	270.32
427.50	272.14
427.87	274.00
428.24	275.86
428.61	277.64
428.99	279.57
429.36	281.66
429.73	283.72
430.10	285.74
430.47	287.79
430.85	289.91
431.22	292.16
431.59	294.53
431.96	296.78
432.33	299.27
432.70	301.60
433.08	304.37
433.45	306.98
433.82	309.58
434.19	312.48
434.56	315.32
434.93	317.96
435.30	320.55
435.68	323.38
436.05	326.21
436.42	328.93
436.79	331.42
437.16	334.12
437.53	336.93
437.90	339.73
438.27	342.47
438.64	345.29
439.01	347.90
439.38	350.11
439.75	352.27
440.13	354.71
440.50	357.05
440.87	358.91
441.24	360.90
441.61	363.03
441.98	364.51
442.35	366.30
442.72	368.18
443.09	369.97
443.46	370.98
443.83	371.55
444.20	372.08
444.57	372.91
444.94	373.19
445.31	373.53
445.68	373.88
446.05	373.98
446.42	373.54
446.79	373.13
447.16	372.74
447.53	372.42
447.90	371.30
448.27	370.20
448.64	368.69
449.01	367.51
449.37	365.57
449.74	363.74
450.11	361.50
450.48	359.06
450.85	356.57
451.22	354.46
451.59	352.44
451.96	350.53
452.33	347.98
452.70	345.67
453.07	342.88
453.43	340.03
453.80	337.24
454.17	334.64
454.54	332.07
454.91	329.35
455.28	326.74
455.65	324.28
456.02	321.82
456.38	319.64
456.75	317.01
457.12	314.78
457.49	312.52
457.86	310.39
458.23	308.51
458.59	306.50
458.96	304.45
459.33	302.62
459.70	300.74
460.07	299.22
460.43	297.48
460.80	295.88
461.17	294.43
461.54	292.94
461.91	291.52
462.27	290.11
462.64	288.88
463.01	287.47
463.38	286.19
463.74	284.87
464.11	283.71
464.48	282.72
464.85	281.61
465.21	280.75
465.58	279.80
465.95	278.73
466.32	277.82
466.68	276.89
467.05	275.99
467.42	275.12
467.78	274.20
468.15	273.29
468.52	272.65
468.88	271.79
469.25	271.04
469.62	270.39
469.98	269.68
470.35	269.06
470.72	268.47
471.08	267.79
471.45	267.21
471.82	266.66
472.18	266.03
472.55	265.59
472.92	265.08
473.28	264.64
473.65	264.17
474.02	263.75
474.38	263.37
474.75	263.07
475.11	262.72
475.48	262.43
475.85	262.27
476.21	262.00
476.58	261.86
476.94	261.71
477.31	261.58
477.67	261.50
478.04	261.41
478.41	261.36
478.77	261.38
479.14	261.34
479.50	261.40
479.87	261.51
480.23	261.62
480.60	261.71
480.96	261.84
481.33	262.09
481.69	262.30
482.06	262.52
482.42	262.74
482.79	263.01
483.15	263.37
483.52	263.78
483.88	264.14
484.25	264.54
484.61	264.99
484.98	265.43
485.34	265.95
485.71	266.53
486.07	267.11
486.44	267.74
486.80	268.47
487.17	269.16
487.53	269.96
487.90	270.82
488.26	271.77
488.62	272.75
488.99	273.70
489.35	274.73
489.72	275.88
490.08	277.05
490.44	278.28
490.81	279.61
491.17	280.95
491.54	282.43
491.90	283.94
492.26	285.58
492.63	287.32
492.99	289.15
493.36	291.04
493.72	293.12
494.08	295.22
494.45	297.43
494.81	299.83
495.17	302.32
495.54	304.86
495.90	307.51
496.26	310.31
496.63	313.29
496.99	316.43
497.35	319.70
497.72	323.09
498.08	326.60
498.44	330.24
498.80	334.15
499.17	338.16
499.53	342.32
499.89	346.70
500.26	351.22
500.62	355.87
500.98	360.81
501.34	365.90
501.71	371.18
502.07	376.64
502.43	382.17
502.79	387.90
503.16	393.99
503.52	400.20
503.88	406.55
504.24	413.15
504.60	419.94
504.97	427.01
505.33	434.33
505.69	442.00
506.05	449.75
506.41	457.57
506.78	465.71
507.14	474.09
507.50	482.69
507.86	491.55
508.22	500.69
508.59	509.87
508.95	519.32
509.31	529.10
509.67	539.04
510.03	549.30
510.39	559.80
510.75	570.40
511.12	581.30
511.48	592.49
511.84	603.85
512.20	615.21
512.56	626.97
512.92	639.02
513.28	651.22
513.64	663.57
514.00	676.08
514.37	688.88
514.73	701.87
515.09	714.74
515.45	727.93
515.81	741.32
516.17	755.05
516.53	768.99
516.89	782.91
517.25	796.89
517.61	811.13
517.97	825.37
518.33	839.65
518.69	854.21
519.05	868.96
519.41	883.87
519.77	899.25
520.13	914.51
520.49	929.70
520.85	944.79
521.21	960.18
521.57	976.27
521.93	991.72
522.29	1007.77
522.65	1023.76
523.01	1039.64
523.37	1055.44
523.73	1071.38
524.09	1087.19
524.45	1103.21
524.81	1119.63
525.17	1136.07
525.53	1152.65
525.89	1169.26
526.25	1185.79
526.61	1201.95
526.97	1218.38
527.33	1234.71
527.68	1250.95
528.04	1267.11
528.40	1283.44
528.76	1300.24
529.12	1316.55
529.48	1333.20
529.84	1348.95
530.20	1365.36
530.56	1382.07
530.91	1399.16
531.27	1415.72
531.63	1431.97
531.99	1448.23
532.35	1463.96
532.71	1479.55
533.07	1495.56
533.42	1511.30
533.78	1527.07
534.14	1543.05
534.50	1558.27
534.86	1573.68
535.21	1588.79
535.57	1604.39
535.93	1619.67
536.29	1634.26
536.65	1648.90
537.00	1663.35
537.36	1678.49
537.72	1692.76
538.08	1707.01
538.44	1720.56
538.79	1734.10
539.15	1747.45
539.51	1761.04
539.87	1775.11
540.22	1788.65
540.58	1802.07
540.94	1814.90
541.29	1827.57
541.65	1839.95
542.01	1852.83
542.37	1865.02
542.72	1877.13
543.08	1888.76
543.44	1900.84
543.79	1911.98
544.15	1922.84
544.51	1934.30
544.87	1945.01
545.22	1955.68
545.58	1965.69
545.94	1975.38
546.29	1985.19
546.65	1994.95
547.01	2004.07
547.36	2012.60
547.72	2020.91
548.07	2028.84
548.43	2037.05
548.79	2044.73
549.14	2052.30
549.50	2059.42
549.86	2066.89
550.21	2074.12
550.57	2081.27
550.92	2087.88
551.28	2094.86
551.64	2101.98
551.99	2108.35
552.35	2114.57
552.70	2120.62
553.06	2126.55
553.41	2132.80
553.77	2138.62
554.13	2144.65
554.48	2150.88
554.84	2156.52
555.19	2161.82
555.55	2166.89
555.90	2171.37
556.26	2176.58
556.61	2181.29
556.97	2185.87
557.32	2190.04
557.68	2194.25
558.03	2198.47
558.39	2202.10
558.74	2206.64
559.10	2210.39
559.45	2214.25
559.81	2218.30
560.16	2222.18
560.52	2225.57
560.87	2228.94
561.23	2231.77
561.58	2234.77
561.94	2237.22
562.29	2239.49
562.64	2242.43
563.00	2244.97
563.35	2248.57
563.71	2251.71
564.06	2254.82
564.42	2257.84
564.77	2260.43
565.12	2262.83
565.48	2264.90
565.83	2267.10
566.19	2268.67
566.54	2269.76
566.89	2271.04
567.25	2271.92
567.60	2273.34
567.96	2275.17
568.31	2276.23
568.66	2277.52
569.02	2278.17
569.37	2278.63
569.72	2279.76
570.08	2280.02
570.43	2280.27
570.78	2279.81
571.14	2278.47
571.49	2277.36
571.84	2276.97
572.20	2276.24
572.55	2275.28
572.90	2273.82
573.26	2272.47
573.61	2270.72
573.96	2269.29
574.31	2266.40
574.67	2263.57
575.02	2260.17
575.37	2256.88
575.72	2253.23
576.08	2249.90
576.43	2246.76
576.78	2243.32
577.13	2240.06
577.49	2236.88
577.84	2233.59
578.19	2229.90
578.54	2226.44
578.90	2222.49
579.25	2217.21
579.60	2212.44
579.95	2207.68
580.30	2202.81
580.66	2197.73
581.01	2192.91
581.36	2188.05
581.71	2184.04
582.06	2179.84
582.42	2175.54
582.77	2170.51
583.12	2166.27
583.47	2161.95
583.82	2157.18
584.17	2152.16
584.53	2146.92
584.88	2141.52
585.23	2136.02
585.58	2130.72
585.93	2125.39
586.28	2120.63
586.63	2115.75
586.98	2110.68
587.34	2105.97
587.69	2101.16
588.04	2096.34
588.39	2090.92
588.74	2084.61
589.09	2078.70
589.44	2072.20
589.79	2066.20
590.14	2060.57
590.49	2053.99
590.84	2047.61
591.19	2041.76
591.54	2035.36
591.89	2028.29
592.25	2021.73
592.60	2014.75
592.95	2007.54
593.30	2000.27
593.65	1992.81
594.00	1985.86
594.35	1978.79
594.70	1970.95
595.05	1964.24
595.40	1956.90
595.75	1949.54
596.10	1943.57
596.45	1936.96
596.80	1930.87
597.15	1924.50
597.50	1917.85
597.85	1911.49
598.19	1905.04
598.54	1898.23
598.89	1891.78
599.24	1885.96
599.59	1879.60
599.94	1873.34
600.29	1866.96
600.64	1860.50
600.99	1853.32
601.34	1846.65
601.69	1839.76
602.04	1833.10
602.39	1825.62
602.74	1818.93
603.08	1812.31
603.43	1805.59
603.78	1798.36
604.13	1791.12
604.48	1783.95
604.83	1777.16
605.18	1770.61
605.53	1762.67
605.87	1754.64
606.22	1747.58
606.57	1739.67
606.92	1732.16
607.27	1725.22
607.62	1718.60
607.96	1711.51
608.31	1705.16
608.66	1697.68
609.01	1690.40
609.36	1682.87
609.70	1674.89
610.05	1667.07
610.40	1659.63
610.75	1651.44
611.10	1643.85
611.44	1635.48
611.79	1627.50
612.14	1618.88
612.49	1609.52
612.83	1601.17
613.18	1593.00
613.53	1584.88
613.88	1576.51
614.22	1568.40
614.57	1559.72
614.92	1551.65
615.27	1544.13
615.61	1535.73
615.96	1527.57
616.31	1519.88
616.65	1512.54
617.00	1505.10
617.35	1497.29
617.70	1488.96
618.04	1480.49
618.39	1472.25
618.74	1464.82
619.08	1456.53
619.43	1448.87
619.78	1441.97
620.12	1434.91
620.47	1427.49
620.82	1419.23
621.16	1411.74
621.51	1404.19
621.85	1396.55
622.20	1387.99
622.55	1379.67
622.89	1371.90
623.24	1364.40
623.59	1356.88
623.93	1349.40
624.28	1342.29
624.62	1334.97
624.97	1327.80
625.32	1320.96
625.66	1313.98
626.01	1306.85
626.35	1299.46
626.70	1291.75
627.04	1284.14
627.39	1276.53
627.73	1269.16
628.08	1262.38
628.43	1255.15
628.77	1247.85
629.12	1240.45
629.46	1233.43
629.81	1226.05
630.15	1218.77
630.50	1211.38
630.84	1203.34
631.19	1195.41
631.53	1187.80
631.88	1180.15
632.22	1172.50
632.57	1165.25
632.91	1157.68
633.26	1150.28
633.60	1142.96
633.95	1135.82
634.29	1128.75
634.64	1121.99
634.98	1114.66
635.32	1107.46
635.67	1100.83
636.01	1094.15
636.36	1087.35
636.70	1080.76
637.05	1074.14
637.39	1067.69
637.73	1061.18
638.08	1055.29
638.42	1049.36
638.77	1042.98
639.11	1036.53
639.45	1030.18
639.80	1023.57
640.14	1017.33
640.49	1010.75
640.83	1004.44
641.17	998.37
641.52	992.10
641.86	985.51
642.20	979.65
642.55	973.30
642.89	966.84
643.23	960.17
643.58	954.51
643.92	948.34
644.26	942.31
644.61	936.25
644.95	930.30
645.29	923.80
645.64	917.07
645.98	910.75
646.32	904.69
646.66	898.70
647.01	892.89
647.35	887.10
647.69	881.22
648.04	875.64
648.38	869.75
648.72	863.79
649.06	857.94
649.41	852.01
649.75	846.14
650.09	840.27
650.43	834.61
650.78	828.37
651.12	822.39
651.46	816.74
651.80	811.00
652.14	805.57
652.49	800.15
652.83	795.01
653.17	789.42
653.51	783.85
653.85	778.45
654.20	772.80
654.54	766.80
654.88	761.04
655.22	755.15
655.56	749.49
655.90	743.95
656.25	738.65
656.59	733.29
656.93	728.17
657.27	723.04
657.61	717.56
657.95	712.40
658.29	707.29
658.64	701.93
658.98	696.63
659.32	691.17
659.66	685.97
660.00	680.69
660.34	675.63
660.68	670.73
661.02	665.61
661.36	660.96
661.70	656.53
662.05	652.31
662.39	648.04
662.73	643.53
663.07	639.22
663.41	634.75
663.75	630.34
664.09	625.84
664.43	621.42
664.77	617.38
665.11	613.19
665.45	609.10
665.79	605.05
666.13	600.95
666.47	596.82
666.81	592.70
667.15	588.59
667.49	584.76
667.83	580.89
668.17	577.06
668.51	572.98
668.85	568.87
669.19	565.00
669.53	561.20
669.87	557.40
670.21	553.67
670.55	550.00
670.89	546.56
671.23	543.14
671.57	539.69
671.91	536.18
672.25	532.68
672.58	529.18
672.92	525.76
673.26	522.61
673.60	519.52
673.94	516.39
674.28	513.42
674.62	510.51
674.96	507.40
675.30	504.46
675.64	501.58
675.97	498.86
676.31	495.94
676.65	493.10
676.99	490.41
677.33	487.56
677.67	484.76
678.01	481.77
678.34	478.83
678.68	475.91
679.02	473.10
679.36	470.33
679.70	467.57
680.04	464.89
680.37	462.09
680.71	459.27
681.05	456.64
681.39	453.94
681.73	451.22
682.06	448.79
682.40	446.24
682.74	443.67
683.08	441.07
683.42	438.47
683.75	435.91
684.09	433.33
684.43	430.94
684.77	428.51
685.10	426.14
685.44	423.79
685.78	421.50
686.12	419.22
686.45	416.98
686.79	414.73
687.13	412.54
687.46	410.35
687.80	408.24
688.14	406.01
688.48	404.00
688.81	401.81
689.15	399.60
689.49	397.46
689.82	395.36
690.16	393.30
690.50	391.38
690.83	389.42
691.17	387.43
691.51	385.53
691.84	383.71
692.18	381.82
692.52	379.88
692.85	377.96
693.19	376.08
693.52	374.22
693.86	372.43
694.20	370.62
694.53	368.82
694.87	366.95
695.21	365.17
695.54	363.26
695.88	361.56
696.21	359.82
696.55	358.12
696.88	356.47
697.22	354.77
697.56	353.11
697.89	351.48
698.23	349.88
698.56	348.23
698.90	346.63
699.23	344.96
699.57	343.37
699.90	341.77
700.24	340.19
700.58	338.70
700.91	337.18
701.25	335.73
701.58	334.33
701.92	332.97
702.25	331.59
702.59	330.24
702.92	328.89
703.26	327.58
703.59	326.29
703.93	325.11
704.26	323.89
704.60	322.59
704.93	321.27
705.26	320.01
705.60	318.77
705.93	317.61
706.27	316.59
706.60	315.53
706.94	314.48
707.27	313.37
707.61	312.28
707.94	311.28
708.27	310.20
708.61	309.12
708.94	308.07
709.28	307.10
709.61	306.17
709.94	305.22
710.28	304.22
710.61	303.22
710.95	302.13
711.28	301.20
711.61	300.29
711.95	299.39
712.28	298.45
712.61	297.51
712.95	296.56
713.28	295.63
713.61	294.70
713.95	293.82
714.28	292.99
714.61	292.10
714.95	291.20
715.28	290.32
715.61	289.42
715.95	288.61
716.28	287.76
716.61	286.86
716.95	286.00
717.28	285.24
717.61	284.50
717.94	283.79
718.28	283.00
718.61	282.23
718.94	281.53
719.27	280.89
719.61	280.25
719.94	279.58
720.27	278.88
720.60	278.29
720.94	277.67
721.27	277.09
721.60	276.51
721.93	275.93
722.27	275.43
722.60	274.90
722.93	274.29
723.26	273.74
723.59	273.25
723.93	272.76
724.26	272.22
724.59	271.65
724.92	271.12
725.25	270.64
725.59	270.17
725.92	269.71
726.25	269.18
726.58	268.64
726.91	268.15
727.24	267.69
727.57	267.21
727.91	266.68
728.24	266.19
728.57	265.72
728.90	265.26
729.23	264.75
729.56	264.33
729.89	263.88
730.22	263.39
730.55	262.93
730.89	262.47
731.22	262.02
731.55	261.58
731.88	261.11
732.21	260.66
732.54	260.19
732.87	259.73
733.20	259.37
733.53	259.04
733.86	258.66
734.19	258.26
734.52	257.88
734.85	257.57
735.18	257.16
735.51	256.77
735.84	256.39
736.17	256.03
736.50	255.64
736.83	255.43
737.16	255.12
737.49	254.74
737.82	254.37
738.15	254.02
738.48	253.69
738.81	253.38
739.14	253.06
739.47	252.78
739.80	252.46
740.13	252.13
740.46	251.80
740.79	251.46
741.12	251.14
741.45	250.82
741.78	250.48
742.11	250.20
742.44	249.86
742.77	249.58
743.10	249.27
743.43	248.99
743.75	248.56
744.08	248.39
744.41	248.14
744.74	247.87
745.07	247.63
745.40	247.38
745.73	247.15
746.06	246.91
746.39	246.64
746.71	246.40
747.04	246.11
747.37	245.85
747.70	245.62
748.03	245.39
748.36	245.18
748.68	244.93
749.01	244.66
749.34	244.49
749.67	244.26
750.00	244.07
750.33	243.89
750.65	243.72
750.98	243.35
751.31	243.14
751.64	242.93
751.97	242.77
752.29	242.52
752.62	242.27
752.95	242.05
753.28	241.82
753.60	241.59
753.93	241.42
754.26	241.21
754.59	240.97
754.91	240.72
755.24	240.50
755.57	240.33
755.90	240.14
756.22	239.93
756.55	239.73
756.88	239.55
757.20	239.28
757.53	239.06
757.86	238.92
758.19	238.75
758.51	238.58
758.84	238.31
759.17	238.15
759.49	238.00
759.82	237.87
760.15	237.71
760.47	237.57
760.80	237.38
761.13	237.28
761.45	237.12
761.78	236.99
762.11	236.85
762.43	236.70
762.76	236.58
763.08	236.46
763.41	236.32
763.74	236.17
764.06	236.06
764.39	235.91
764.71	235.77
765.04	235.60
765.37	235.47
765.69	235.35
766.02	235.22
766.34	235.08
766.67	234.95
767.00	234.84
767.32	234.79
767.65	234.78
767.97	234.64
768.30	234.58
768.62	234.48
768.95	234.33
769.27	234.22
769.60	234.11
769.92	233.99
770.25	233.91
770.57	233.79
770.90	233.71
771.22	233.63
771.55	233.55
771.87	233.49
772.20	233.40
772.52	233.42
772.85	233.49
773.17	233.43
773.50	233.32
773.82	233.25
774.15	233.12
774.47	232.97
774.80	232.90
775.12	232.82
775.45	232.73
775.77	232.70
776.09	232.61
776.42	232.55
776.74	232.53
777.07	232.44
777.39	232.37
777.72	232.29
778.04	232.25
778.36	232.14
778.69	232.10
779.01	232.06
779.33	231.91
779.66	231.73
779.98	231.66
780.31	231.60
780.63	231.59
780.95	231.54
781.28	231.47
781.60	231.38
781.92	231.31
782.25	231.27
782.57	231.20
782.89	231.16
783.22	231.10
783.54	231.02
783.86	230.95
784.19	230.88
784.51	230.88
784.83	230.81
785.16	230.80
785.48	230.74
785.80	230.65
786.12	230.61
786.45	230.56
786.77	230.52
787.09	230.48
