SpectraSuite Data File
++++++++++++++++++++++++++++++++++++
Date: Fri Feb 01 15:44:28 EST 2013
User: group
Dark Spectrum Present: No
Reference Spectrum Present: No
Number of Sampled Component Spectra: 1
Spectrometers: USB2E7196
Integration Time (usec): 35000 (USB2E7196)
Spectra Averaged: 100 (USB2E7196)
Boxcar Smoothing: 10 (USB2E7196)
Correct for Electrical Dark: No (USB2E7196)
Strobe/Lamp Enabled: No (USB2E7196)
Correct for Detector Non-linearity: No (USB2E7196)
Correct for Stray Light: No (USB2E7196)
Number of Pixels in Processed Spectrum: 2048
>>>>>Begin Processed Spectral Data<<<<<
339.09	0.00
339.48	214.77
339.86	216.34
340.24	217.48
340.63	218.99
341.01	221.55
341.39	221.71
341.78	223.09
342.16	224.32
342.54	224.68
342.93	213.09
343.31	223.85
343.69	224.42
344.07	224.89
344.46	225.33
344.84	225.70
345.22	225.98
345.60	226.23
345.99	226.43
346.37	226.59
346.75	226.68
347.13	226.74
347.52	226.81
347.90	226.88
348.28	226.90
348.66	226.98
349.05	226.96
349.43	226.98
349.81	227.05
350.19	227.08
350.57	227.16
350.96	227.23
351.34	227.36
351.72	227.47
352.10	227.55
352.48	227.61
352.87	227.69
353.25	227.74
353.63	227.82
354.01	227.88
354.39	227.94
354.77	228.03
355.15	228.16
355.54	228.21
355.92	228.26
356.30	228.33
356.68	228.45
357.06	228.55
357.44	228.62
357.82	228.67
358.20	228.77
358.58	228.81
358.97	228.88
359.35	228.91
359.73	228.96
360.11	229.03
360.49	229.09
360.87	229.14
361.25	229.20
361.63	229.25
362.01	229.30
362.39	229.32
362.77	229.39
363.15	229.39
363.53	229.43
363.91	229.42
364.29	229.49
364.67	229.39
365.05	229.41
365.43	229.43
365.81	229.43
366.19	229.51
366.57	229.55
366.95	229.55
367.33	229.52
367.71	229.48
368.09	229.47
368.47	229.46
368.85	229.44
369.23	229.39
369.61	229.38
369.99	229.34
370.37	229.30
370.75	229.29
371.13	229.28
371.51	229.22
371.89	229.17
372.27	229.09
372.65	229.07
373.03	229.02
373.41	228.95
373.78	228.91
374.16	228.78
374.54	228.68
374.92	228.60
375.30	228.54
375.68	228.47
376.06	228.40
376.44	228.29
376.82	228.22
377.19	228.17
377.57	228.08
377.95	228.01
378.33	227.94
378.71	227.82
379.09	227.73
379.47	227.67
379.84	227.62
380.22	227.55
380.60	227.44
380.98	227.37
381.36	227.33
381.73	227.24
382.11	227.16
382.49	227.12
382.87	227.09
383.25	227.03
383.62	227.08
384.00	227.02
384.38	226.97
384.76	226.95
385.13	226.95
385.51	226.88
385.89	226.83
386.27	226.83
386.64	226.79
387.02	226.76
387.40	226.72
387.78	226.69
388.15	226.65
388.53	226.64
388.91	226.56
389.29	226.50
389.66	226.51
390.04	226.51
390.42	226.50
390.79	226.46
391.17	226.46
391.55	226.37
391.92	226.36
392.30	226.38
392.68	226.32
393.05	226.31
393.43	226.33
393.81	226.34
394.18	226.32
394.56	226.33
394.94	226.35
395.31	226.36
395.69	226.37
396.06	226.43
396.44	226.48
396.82	226.54
397.19	226.64
397.57	226.64
397.95	226.70
398.32	226.73
398.70	226.80
399.07	226.86
399.45	226.86
399.82	226.93
400.20	226.99
400.58	227.08
400.95	227.11
401.33	227.22
401.70	227.35
402.08	227.43
402.45	227.52
402.83	227.64
403.20	227.74
403.58	227.84
403.95	227.97
404.33	228.12
404.71	228.23
405.08	228.40
405.46	228.53
405.83	228.66
406.21	228.80
406.58	228.96
406.96	229.13
407.33	229.35
407.70	229.54
408.08	229.82
408.45	230.06
408.83	230.28
409.20	230.49
409.58	230.67
409.95	230.95
410.33	231.24
410.70	231.49
411.08	231.80
411.45	232.12
411.82	232.42
412.20	232.74
412.57	233.17
412.95	233.46
413.32	233.90
413.69	234.31
414.07	234.76
414.44	235.23
414.82	235.67
415.19	236.21
415.56	236.78
415.94	237.32
416.31	237.94
416.68	238.56
417.06	239.26
417.43	239.96
417.81	240.73
418.18	241.51
418.55	242.34
418.93	243.22
419.30	244.14
419.67	245.07
420.04	246.01
420.42	246.97
420.79	248.15
421.16	249.30
421.54	250.52
421.91	251.77
422.28	253.03
422.66	254.37
423.03	255.71
423.40	257.05
423.77	258.44
424.15	259.89
424.52	261.41
424.89	263.07
425.26	264.61
425.64	266.07
426.01	267.62
426.38	269.24
426.75	270.90
427.13	272.62
427.50	274.46
427.87	276.35
428.24	278.23
428.61	279.97
428.99	281.91
429.36	284.01
429.73	286.06
430.10	288.08
430.47	290.16
430.85	292.25
431.22	294.51
431.59	296.88
431.96	299.07
432.33	301.55
432.70	303.89
433.08	306.68
433.45	309.28
433.82	311.92
434.19	314.90
434.56	317.72
434.93	320.42
435.30	323.05
435.68	325.95
436.05	328.79
436.42	331.61
436.79	334.16
437.16	336.82
437.53	339.64
437.90	342.45
438.27	345.20
438.64	347.98
439.01	350.55
439.38	352.78
439.75	355.00
440.13	357.46
440.50	359.79
440.87	361.68
441.24	363.67
441.61	365.84
441.98	367.29
442.35	369.10
442.72	370.91
443.09	372.68
443.46	373.70
443.83	374.28
444.20	374.79
444.57	375.61
444.94	375.91
445.31	376.24
445.68	376.59
446.05	376.65
446.42	376.35
446.79	375.94
447.16	375.50
447.53	375.19
447.90	374.05
448.27	372.91
448.64	371.31
449.01	370.15
449.37	368.18
449.74	366.29
450.11	364.05
450.48	361.57
450.85	359.05
451.22	356.88
451.59	354.88
451.96	352.94
452.33	350.34
452.70	347.99
453.07	345.14
453.43	342.23
453.80	339.49
454.17	336.74
454.54	334.18
454.91	331.45
455.28	328.74
455.65	326.23
456.02	323.77
456.38	321.60
456.75	318.92
457.12	316.68
457.49	314.41
457.86	312.19
458.23	310.32
458.59	308.28
458.96	306.20
459.33	304.30
459.70	302.40
460.07	300.87
460.43	299.13
460.80	297.53
461.17	296.09
461.54	294.57
461.91	293.15
462.27	291.68
462.64	290.47
463.01	289.13
463.38	287.81
463.74	286.45
464.11	285.30
464.48	284.25
464.85	283.13
465.21	282.27
465.58	281.39
465.95	280.27
466.32	279.38
466.68	278.45
467.05	277.61
467.42	276.73
467.78	275.81
468.15	274.92
468.52	274.23
468.88	273.37
469.25	272.58
469.62	271.94
469.98	271.26
470.35	270.57
470.72	269.97
471.08	269.35
471.45	268.76
471.82	268.23
472.18	267.65
472.55	267.20
472.92	266.66
473.28	266.20
473.65	265.80
474.02	265.30
474.38	264.92
474.75	264.56
475.11	264.23
475.48	263.97
475.85	263.73
476.21	263.52
476.58	263.36
476.94	263.23
477.31	263.06
477.67	262.93
478.04	262.86
478.41	262.82
478.77	262.85
479.14	262.83
479.50	262.83
479.87	262.95
480.23	263.02
480.60	263.10
480.96	263.20
481.33	263.40
481.69	263.61
482.06	263.80
482.42	264.03
482.79	264.29
483.15	264.62
483.52	265.04
483.88	265.39
484.25	265.78
484.61	266.19
484.98	266.67
485.34	267.25
485.71	267.81
486.07	268.39
486.44	268.97
486.80	269.70
487.17	270.43
487.53	271.24
487.90	272.12
488.26	273.04
488.62	274.01
488.99	274.98
489.35	276.05
489.72	277.20
490.08	278.39
490.44	279.63
490.81	280.98
491.17	282.31
491.54	283.82
491.90	285.35
492.26	287.01
492.63	288.77
492.99	290.54
493.36	292.45
493.72	294.51
494.08	296.60
494.45	298.83
494.81	301.19
495.17	303.62
495.54	306.15
495.90	308.87
496.26	311.73
496.63	314.71
496.99	317.84
497.35	321.08
497.72	324.48
498.08	327.98
498.44	331.63
498.80	335.57
499.17	339.56
499.53	343.74
499.89	348.13
500.26	352.64
500.62	357.34
500.98	362.31
501.34	367.38
501.71	372.74
502.07	378.21
502.43	383.82
502.79	389.60
503.16	395.67
503.52	401.96
503.88	408.40
504.24	415.00
504.60	421.87
504.97	429.03
505.33	436.37
505.69	444.12
506.05	451.94
506.41	459.80
506.78	468.01
507.14	476.48
507.50	485.21
507.86	494.28
508.22	503.48
508.59	512.74
508.95	522.32
509.31	532.15
509.67	542.23
510.03	552.47
510.39	563.07
510.75	573.88
511.12	584.82
511.48	596.09
511.84	607.54
512.20	619.06
512.56	630.95
512.92	643.15
513.28	655.50
513.64	667.99
514.00	680.78
514.37	693.69
514.73	706.79
515.09	719.78
515.45	733.03
515.81	746.60
516.17	760.54
516.53	774.69
516.89	788.83
517.25	802.96
517.61	817.50
517.97	831.94
518.33	846.40
518.69	861.11
519.05	876.07
519.41	891.30
519.77	906.86
520.13	922.40
520.49	937.80
520.85	953.19
521.21	968.89
521.57	985.03
521.93	1000.86
522.29	1017.23
522.65	1033.46
523.01	1049.65
523.37	1065.77
523.73	1081.96
524.09	1098.00
524.45	1114.34
524.81	1131.12
525.17	1147.96
525.53	1164.88
525.89	1181.72
526.25	1198.72
526.61	1215.18
526.97	1231.86
527.33	1248.28
527.68	1264.91
528.04	1281.31
528.40	1297.94
528.76	1315.04
529.12	1331.64
529.48	1348.47
529.84	1364.45
530.20	1381.23
530.56	1398.26
530.91	1415.64
531.27	1432.41
531.63	1448.93
531.99	1465.46
532.35	1481.30
532.71	1497.13
533.07	1513.41
533.42	1529.38
533.78	1545.35
534.14	1561.55
534.50	1576.84
534.86	1592.76
535.21	1607.83
535.57	1623.86
535.93	1639.34
536.29	1654.09
536.65	1669.21
537.00	1683.94
537.36	1699.24
537.72	1713.64
538.08	1728.08
538.44	1741.74
538.79	1755.59
539.15	1769.30
539.51	1783.05
539.87	1797.33
540.22	1811.06
540.58	1824.84
540.94	1837.99
541.29	1850.84
541.65	1863.42
542.01	1876.72
542.37	1889.03
542.72	1901.52
543.08	1913.22
543.44	1925.55
543.79	1936.66
544.15	1947.64
544.51	1959.29
544.87	1970.21
545.22	1981.08
545.58	1991.26
545.94	2001.14
546.29	2011.04
546.65	2020.83
547.01	2030.16
547.36	2038.88
547.72	2047.30
548.07	2055.00
548.43	2063.34
548.79	2071.43
549.14	2079.05
549.50	2086.27
549.86	2094.14
550.21	2101.36
550.57	2108.56
550.92	2115.20
551.28	2122.42
551.64	2129.48
551.99	2135.82
552.35	2142.06
552.70	2148.18
553.06	2154.16
553.41	2160.41
553.77	2166.33
554.13	2172.45
554.48	2178.53
554.84	2184.00
555.19	2189.43
555.55	2194.57
555.90	2199.11
556.26	2203.91
556.61	2208.67
556.97	2213.02
557.32	2216.90
557.68	2220.96
558.03	2225.14
558.39	2228.81
558.74	2233.38
559.10	2237.25
559.45	2241.01
559.81	2245.43
560.16	2249.31
560.52	2252.54
560.87	2256.00
561.23	2258.76
561.58	2261.70
561.94	2264.11
562.29	2266.65
562.64	2269.24
563.00	2272.05
563.35	2275.50
563.71	2278.63
564.06	2281.83
564.42	2284.64
564.77	2287.18
565.12	2289.57
565.48	2291.42
565.83	2293.13
566.19	2294.46
566.54	2295.38
566.89	2296.48
567.25	2296.80
567.60	2298.01
567.96	2299.89
568.31	2300.66
568.66	2301.67
569.02	2302.16
569.37	2302.55
569.72	2303.34
570.08	2303.51
570.43	2303.42
570.78	2302.78
571.14	2301.23
571.49	2299.88
571.84	2299.62
572.20	2298.53
572.55	2297.52
572.90	2295.98
573.26	2294.84
573.61	2293.02
573.96	2291.23
574.31	2288.34
574.67	2285.38
575.02	2281.80
575.37	2278.12
575.72	2274.27
576.08	2271.03
576.43	2267.70
576.78	2264.15
577.13	2261.02
577.49	2257.80
577.84	2254.14
578.19	2250.43
578.54	2246.79
578.90	2242.55
579.25	2237.00
579.60	2231.86
579.95	2226.77
580.30	2221.87
580.66	2216.61
581.01	2211.80
581.36	2206.74
581.71	2202.61
582.06	2198.13
582.42	2193.51
582.77	2188.39
583.12	2183.93
583.47	2179.10
583.82	2174.13
584.17	2168.76
584.53	2163.20
584.88	2157.55
585.23	2151.80
585.58	2146.24
585.93	2140.76
586.28	2136.04
586.63	2131.02
586.98	2126.10
587.34	2121.29
587.69	2116.42
588.04	2111.16
588.39	2105.36
588.74	2098.99
589.09	2092.74
589.44	2085.97
589.79	2080.13
590.14	2074.49
590.49	2067.80
590.84	2061.48
591.19	2055.48
591.54	2049.00
591.89	2041.45
592.25	2034.68
592.60	2027.56
592.95	2019.87
593.30	2012.42
593.65	2004.78
594.00	1997.73
594.35	1990.47
594.70	1982.55
595.05	1975.24
595.40	1968.00
595.75	1960.51
596.10	1954.31
596.45	1947.58
596.80	1941.32
597.15	1934.48
597.50	1927.26
597.85	1920.91
598.19	1914.30
598.54	1907.15
598.89	1900.43
599.24	1894.73
599.59	1888.03
599.94	1881.85
600.29	1875.52
600.64	1869.01
600.99	1861.55
601.34	1854.62
601.69	1847.67
602.04	1840.77
602.39	1833.44
602.74	1826.51
603.08	1819.79
603.43	1813.04
603.78	1805.66
604.13	1798.48
604.48	1791.22
604.83	1784.40
605.18	1777.30
605.53	1769.18
605.87	1761.14
606.22	1754.04
606.57	1746.05
606.92	1738.83
607.27	1731.53
607.62	1724.65
607.96	1717.38
608.31	1710.66
608.66	1703.03
609.01	1695.42
609.36	1687.79
609.70	1679.73
610.05	1671.63
610.40	1663.79
610.75	1655.38
611.10	1647.70
611.44	1639.35
611.79	1631.44
612.14	1622.74
612.49	1613.65
612.83	1605.22
613.18	1597.02
613.53	1588.93
613.88	1580.31
614.22	1571.91
614.57	1563.33
614.92	1555.33
615.27	1547.70
615.61	1539.35
615.96	1531.36
616.31	1523.69
616.65	1516.33
617.00	1508.82
617.35	1501.12
617.70	1492.88
618.04	1484.50
618.39	1476.32
618.74	1468.70
619.08	1460.34
619.43	1452.83
619.78	1445.87
620.12	1438.72
620.47	1431.20
620.82	1422.94
621.16	1415.60
621.51	1408.15
621.85	1400.58
622.20	1392.04
622.55	1383.69
622.89	1375.92
623.24	1368.24
623.59	1360.87
623.93	1353.41
624.28	1346.04
624.62	1338.63
624.97	1331.47
625.32	1324.73
625.66	1317.68
626.01	1310.48
626.35	1302.96
626.70	1295.15
627.04	1287.39
627.39	1279.58
627.73	1272.29
628.08	1265.44
628.43	1258.00
628.77	1250.44
629.12	1242.83
629.46	1235.71
629.81	1228.32
630.15	1221.05
630.50	1213.68
630.84	1205.48
631.19	1197.46
631.53	1190.07
631.88	1182.44
632.22	1174.89
632.57	1167.55
632.91	1160.04
633.26	1152.63
633.60	1145.37
633.95	1138.35
634.29	1131.46
634.64	1124.87
634.98	1117.49
635.32	1110.29
635.67	1103.78
636.01	1097.11
636.36	1090.34
636.70	1083.71
637.05	1077.23
637.39	1070.79
637.73	1064.30
638.08	1058.44
638.42	1052.47
638.77	1046.03
639.11	1039.46
639.45	1032.92
639.80	1026.16
640.14	1019.66
640.49	1013.08
640.83	1006.79
641.17	1000.44
641.52	994.02
641.86	987.52
642.20	981.62
642.55	975.32
642.89	968.81
643.23	962.38
643.58	956.57
643.92	950.46
644.26	944.30
644.61	938.26
644.95	932.22
645.29	925.51
645.64	918.77
645.98	912.46
646.32	906.61
646.66	900.71
647.01	894.88
647.35	889.21
647.69	883.40
648.04	877.79
648.38	872.04
648.72	866.02
649.06	859.92
649.41	854.11
649.75	848.08
650.09	842.20
650.43	836.40
650.78	830.24
651.12	824.32
651.46	818.60
651.80	812.85
652.14	807.44
652.49	802.13
652.83	796.99
653.17	791.24
653.51	785.54
653.85	780.11
654.20	774.45
654.54	768.37
654.88	762.69
655.22	756.83
655.56	751.14
655.90	745.72
656.25	740.51
656.59	735.06
656.93	730.03
657.27	724.78
657.61	719.25
657.95	714.14
658.29	709.04
658.64	703.80
658.98	698.50
659.32	693.13
659.66	687.91
660.00	682.56
660.34	677.67
660.68	672.73
661.02	667.68
661.36	663.07
661.70	658.65
662.05	654.30
662.39	649.96
662.73	645.48
663.07	641.12
663.41	636.71
663.75	632.18
664.09	627.63
664.43	623.27
664.77	619.20
665.11	615.04
665.45	610.89
665.79	606.79
666.13	602.60
666.47	598.42
666.81	594.28
667.15	590.13
667.49	586.21
667.83	582.37
668.17	578.40
668.51	574.33
668.85	570.34
669.19	566.47
669.53	562.62
669.87	558.71
670.21	554.99
670.55	551.36
670.89	548.07
671.23	544.57
671.57	541.06
671.91	537.58
672.25	534.05
672.58	530.55
672.92	527.14
673.26	523.99
673.60	520.91
673.94	517.81
674.28	514.90
674.62	511.95
674.96	508.89
675.30	506.00
675.64	503.08
675.97	500.33
676.31	497.45
676.65	494.54
676.99	491.85
677.33	489.04
677.67	486.18
678.01	483.08
678.34	480.09
678.68	477.24
679.02	474.40
679.36	471.66
679.70	468.91
680.04	466.21
680.37	463.37
680.71	460.56
681.05	457.93
681.39	455.25
681.73	452.65
682.06	450.13
682.40	447.58
682.74	445.02
683.08	442.43
683.42	439.83
683.75	437.30
684.09	434.78
684.43	432.26
684.77	429.84
685.10	427.49
685.44	425.26
685.78	422.94
686.12	420.70
686.45	418.37
686.79	416.08
687.13	413.88
687.46	411.68
687.80	409.55
688.14	407.34
688.48	405.30
688.81	402.99
689.15	400.80
689.49	398.69
689.82	396.65
690.16	394.55
690.50	392.66
690.83	390.72
691.17	388.74
691.51	386.84
691.84	384.96
692.18	383.01
692.52	381.00
692.85	379.07
693.19	377.17
693.52	375.36
693.86	373.55
694.20	371.77
694.53	370.00
694.87	368.11
695.21	366.34
695.54	364.50
695.88	362.80
696.21	361.10
696.55	359.41
696.88	357.66
697.22	356.03
697.56	354.37
697.89	352.74
698.23	351.17
698.56	349.54
698.90	347.95
699.23	346.29
699.57	344.75
699.90	343.21
700.24	341.69
700.58	340.14
700.91	338.67
701.25	337.14
701.58	335.76
701.92	334.39
702.25	333.00
702.59	331.60
702.92	330.25
703.26	328.98
703.59	327.65
703.93	326.49
704.26	325.22
704.60	323.94
704.93	322.66
705.26	321.40
705.60	320.24
705.93	319.07
706.27	318.09
706.60	317.06
706.94	316.00
707.27	314.87
707.61	313.82
707.94	312.78
708.27	311.73
708.61	310.67
708.94	309.69
709.28	308.69
709.61	307.78
709.94	306.83
710.28	305.78
710.61	304.82
710.95	303.77
711.28	302.84
711.61	301.91
711.95	301.02
712.28	300.11
712.61	299.11
712.95	298.18
713.28	297.30
713.61	296.38
713.95	295.49
714.28	294.64
714.61	293.77
714.95	292.92
715.28	292.11
715.61	291.21
715.95	290.38
716.28	289.55
716.61	288.75
716.95	287.96
717.28	287.24
717.61	286.48
717.94	285.77
718.28	284.95
718.61	284.22
718.94	283.47
719.27	282.78
719.61	282.14
719.94	281.49
720.27	280.76
720.60	280.10
720.94	279.49
721.27	278.90
721.60	278.34
721.93	277.76
722.27	277.23
722.60	276.71
722.93	276.10
723.26	275.56
723.59	274.99
723.93	274.45
724.26	273.92
724.59	273.42
724.92	272.83
725.25	272.36
725.59	271.84
725.92	271.33
726.25	270.81
726.58	270.34
726.91	269.87
727.24	269.40
727.57	268.95
727.91	268.44
728.24	267.95
728.57	267.42
728.90	266.95
729.23	266.43
729.56	265.99
729.89	265.52
730.22	265.04
730.55	264.57
730.89	264.11
731.22	263.62
731.55	263.19
731.88	262.81
732.21	262.37
732.54	261.91
732.87	261.52
733.20	261.13
733.53	260.71
733.86	260.30
734.19	259.88
734.52	259.49
734.85	259.19
735.18	258.81
735.51	258.47
735.84	258.10
736.17	257.71
736.50	257.30
736.83	257.07
737.16	256.70
737.49	256.37
737.82	256.01
738.15	255.67
738.48	255.31
738.81	254.97
739.14	254.65
739.47	254.34
739.80	254.01
740.13	253.69
740.46	253.35
740.79	253.06
741.12	252.72
741.45	252.38
741.78	252.00
742.11	251.67
742.44	251.35
742.77	251.08
743.10	250.79
743.43	250.50
743.75	250.09
744.08	249.97
744.41	249.70
744.74	249.44
745.07	249.14
745.40	248.91
745.73	248.66
746.06	248.38
746.39	248.14
746.71	247.87
747.04	247.58
747.37	247.36
747.70	247.14
748.03	246.92
748.36	246.71
748.68	246.46
749.01	246.24
749.34	246.01
749.67	245.76
750.00	245.53
750.33	245.40
750.65	245.22
750.98	244.88
751.31	244.63
751.64	244.41
751.97	244.26
752.29	244.03
752.62	243.80
752.95	243.56
753.28	243.35
753.60	243.15
753.93	242.99
754.26	242.74
754.59	242.50
754.91	242.30
755.24	242.11
755.57	241.94
755.90	241.76
756.22	241.52
756.55	241.34
756.88	241.15
757.20	240.91
757.53	240.71
757.86	240.55
758.19	240.40
758.51	240.27
758.84	240.05
759.17	239.87
759.49	239.68
759.82	239.61
760.15	239.48
760.47	239.35
760.80	239.21
761.13	239.10
761.45	238.94
761.78	238.80
762.11	238.66
762.43	238.51
762.76	238.39
763.08	238.32
763.41	238.18
763.74	238.05
764.06	237.91
764.39	237.76
764.71	237.65
765.04	237.53
765.37	237.33
765.69	237.24
766.02	237.14
766.34	237.04
766.67	236.88
767.00	236.76
767.32	236.67
767.65	236.60
767.97	236.49
768.30	236.37
768.62	236.25
768.95	236.09
769.27	235.98
769.60	235.88
769.92	235.72
770.25	235.61
770.57	235.48
770.90	235.37
771.22	235.29
771.55	235.14
771.87	235.02
772.20	234.95
772.52	234.94
772.85	234.93
773.17	234.83
773.50	234.73
773.82	234.63
774.15	234.53
774.47	234.35
774.80	234.27
775.12	234.21
775.45	234.10
775.77	234.05
776.09	233.99
776.42	233.89
776.74	233.86
777.07	233.76
777.39	233.70
777.72	233.64
778.04	233.55
778.36	233.50
778.69	233.46
779.01	233.40
779.33	233.24
779.66	233.09
779.98	233.04
780.31	232.98
780.63	232.92
780.95	232.86
781.28	232.83
781.60	232.73
781.92	232.65
782.25	232.61
782.57	232.54
782.89	232.47
783.22	232.39
783.54	232.33
783.86	232.31
784.19	232.24
784.51	232.23
784.83	232.17
785.16	232.12
785.48	232.07
785.80	232.03
786.12	231.98
786.45	231.92
786.77	231.86
787.09	231.82
