SpectraSuite Data File
++++++++++++++++++++++++++++++++++++
Date: Fri Feb 01 15:41:19 EST 2013
User: group
Dark Spectrum Present: No
Reference Spectrum Present: No
Number of Sampled Component Spectra: 1
Spectrometers: USB2E7196
Integration Time (usec): 35000 (USB2E7196)
Spectra Averaged: 100 (USB2E7196)
Boxcar Smoothing: 10 (USB2E7196)
Correct for Electrical Dark: No (USB2E7196)
Strobe/Lamp Enabled: No (USB2E7196)
Correct for Detector Non-linearity: No (USB2E7196)
Correct for Stray Light: No (USB2E7196)
Number of Pixels in Processed Spectrum: 2048
>>>>>Begin Processed Spectral Data<<<<<
339.09	0.00
339.48	215.45
339.86	216.74
340.24	218.00
340.63	219.43
341.01	221.63
341.39	222.58
341.78	223.69
342.16	224.83
342.54	225.04
342.93	213.36
343.31	224.15
343.69	224.68
344.07	225.15
344.46	225.57
344.84	225.94
345.22	226.18
345.60	226.40
345.99	226.57
346.37	226.66
346.75	226.74
347.13	226.86
347.52	226.92
347.90	226.97
348.28	226.98
348.66	227.03
349.05	227.02
349.43	227.09
349.81	227.15
350.19	227.16
350.57	227.17
350.96	227.24
351.34	227.29
351.72	227.37
352.10	227.45
352.48	227.48
352.87	227.54
353.25	227.60
353.63	227.66
354.01	227.70
354.39	227.77
354.77	227.86
355.15	227.92
355.54	227.99
355.92	228.05
356.30	228.13
356.68	228.25
357.06	228.32
357.44	228.38
357.82	228.43
358.20	228.51
358.58	228.54
358.97	228.62
359.35	228.74
359.73	228.80
360.11	228.80
360.49	228.87
360.87	228.89
361.25	228.98
361.63	229.02
362.01	229.09
362.39	229.14
362.77	229.16
363.15	229.18
363.53	229.20
363.91	229.24
364.29	229.25
364.67	229.19
365.05	229.19
365.43	229.22
365.81	229.24
366.19	229.29
366.57	229.38
366.95	229.35
367.33	229.30
367.71	229.30
368.09	229.36
368.47	229.34
368.85	229.33
369.23	229.33
369.61	229.29
369.99	229.27
370.37	229.26
370.75	229.28
371.13	229.24
371.51	229.19
371.89	229.16
372.27	229.15
372.65	229.11
373.03	229.05
373.41	228.97
373.78	228.92
374.16	228.84
374.54	228.75
374.92	228.70
375.30	228.64
375.68	228.54
376.06	228.48
376.44	228.43
376.82	228.36
377.19	228.25
377.57	228.18
377.95	228.07
378.33	227.98
378.71	227.89
379.09	227.83
379.47	227.77
379.84	227.67
380.22	227.58
380.60	227.50
380.98	227.47
381.36	227.39
381.73	227.27
382.11	227.24
382.49	227.16
382.87	227.06
383.25	227.00
383.62	227.06
384.00	226.95
384.38	226.89
384.76	226.88
385.13	226.86
385.51	226.78
385.89	226.74
386.27	226.69
386.64	226.65
387.02	226.58
387.40	226.52
387.78	226.51
388.15	226.48
388.53	226.43
388.91	226.35
389.29	226.36
389.66	226.37
390.04	226.28
390.42	226.27
390.79	226.28
391.17	226.26
391.55	226.14
391.92	226.13
392.30	226.13
392.68	226.08
393.05	226.05
393.43	226.10
393.81	226.12
394.18	226.11
394.56	226.09
394.94	226.11
395.31	226.14
395.69	226.14
396.06	226.18
396.44	226.22
396.82	226.29
397.19	226.34
397.57	226.38
397.95	226.45
398.32	226.49
398.70	226.54
399.07	226.60
399.45	226.68
399.82	226.72
400.20	226.78
400.58	226.86
400.95	226.93
401.33	227.01
401.70	227.16
402.08	227.26
402.45	227.39
402.83	227.53
403.20	227.61
403.58	227.74
403.95	227.86
404.33	227.99
404.71	228.13
405.08	228.33
405.46	228.45
405.83	228.60
406.21	228.73
406.58	228.88
406.96	229.05
407.33	229.19
407.70	229.41
408.08	229.68
408.45	229.92
408.83	230.19
409.20	230.42
409.58	230.60
409.95	230.89
410.33	231.15
410.70	231.41
411.08	231.74
411.45	232.05
411.82	232.36
412.20	232.72
412.57	233.13
412.95	233.39
413.32	233.82
413.69	234.23
414.07	234.67
414.44	235.19
414.82	235.68
415.19	236.24
415.56	236.78
415.94	237.33
416.31	237.95
416.68	238.53
417.06	239.27
417.43	239.94
417.81	240.72
418.18	241.46
418.55	242.32
418.93	243.19
419.30	244.11
419.67	245.04
420.04	245.98
420.42	246.99
420.79	248.22
421.16	249.35
421.54	250.55
421.91	251.78
422.28	253.04
422.66	254.39
423.03	255.76
423.40	257.12
423.77	258.54
424.15	259.93
424.52	261.45
424.89	263.07
425.26	264.64
425.64	266.08
426.01	267.73
426.38	269.40
426.75	271.12
427.13	272.84
427.50	274.67
427.87	276.58
428.24	278.40
428.61	280.12
428.99	282.09
429.36	284.21
429.73	286.28
430.10	288.30
430.47	290.36
430.85	292.43
431.22	294.69
431.59	297.11
431.96	299.38
432.33	301.89
432.70	304.25
433.08	307.06
433.45	309.67
433.82	312.27
434.19	315.12
434.56	317.90
434.93	320.57
435.30	323.16
435.68	326.00
436.05	328.87
436.42	331.69
436.79	334.19
437.16	336.86
437.53	339.69
437.90	342.48
438.27	345.23
438.64	348.03
439.01	350.61
439.38	352.78
439.75	354.98
440.13	357.46
440.50	359.77
440.87	361.59
441.24	363.56
441.61	365.72
441.98	367.17
442.35	368.95
442.72	370.80
443.09	372.63
443.46	373.65
443.83	374.24
444.20	374.72
444.57	375.55
444.94	375.86
445.31	376.20
445.68	376.58
446.05	376.64
446.42	376.28
446.79	375.90
447.16	375.49
447.53	375.13
447.90	373.93
448.27	372.78
448.64	371.22
449.01	370.06
449.37	368.09
449.74	366.24
450.11	364.02
450.48	361.55
450.85	359.01
451.22	356.85
451.59	354.82
451.96	352.87
452.33	350.27
452.70	347.88
453.07	345.01
453.43	342.08
453.80	339.30
454.17	336.63
454.54	334.03
454.91	331.30
455.28	328.63
455.65	326.18
456.02	323.74
456.38	321.60
456.75	318.96
457.12	316.67
457.49	314.43
457.86	312.20
458.23	310.34
458.59	308.32
458.96	306.22
459.33	304.32
459.70	302.49
460.07	301.02
460.43	299.28
460.80	297.68
461.17	296.23
461.54	294.73
461.91	293.30
462.27	291.86
462.64	290.58
463.01	289.22
463.38	287.89
463.74	286.53
464.11	285.32
464.48	284.27
464.85	283.18
465.21	282.32
465.58	281.43
465.95	280.32
466.32	279.42
466.68	278.54
467.05	277.69
467.42	276.82
467.78	275.86
468.15	275.03
468.52	274.34
468.88	273.51
469.25	272.73
469.62	272.14
469.98	271.51
470.35	270.89
470.72	270.33
471.08	269.72
471.45	269.15
471.82	268.64
472.18	268.07
472.55	267.65
472.92	267.17
473.28	266.69
473.65	266.26
474.02	265.80
474.38	265.44
474.75	265.12
475.11	264.74
475.48	264.48
475.85	264.26
476.21	264.06
476.58	263.88
476.94	263.74
477.31	263.57
477.67	263.37
478.04	263.24
478.41	263.14
478.77	263.15
479.14	263.08
479.50	263.06
479.87	263.15
480.23	263.24
480.60	263.28
480.96	263.40
481.33	263.60
481.69	263.81
482.06	263.97
482.42	264.16
482.79	264.40
483.15	264.70
483.52	265.09
483.88	265.45
484.25	265.85
484.61	266.27
484.98	266.70
485.34	267.28
485.71	267.87
486.07	268.47
486.44	269.09
486.80	269.79
487.17	270.53
487.53	271.29
487.90	272.13
488.26	273.10
488.62	274.05
488.99	275.04
489.35	276.09
489.72	277.24
490.08	278.45
490.44	279.72
490.81	281.07
491.17	282.38
491.54	283.84
491.90	285.37
492.26	287.01
492.63	288.78
492.99	290.54
493.36	292.39
493.72	294.44
494.08	296.53
494.45	298.79
494.81	301.18
495.17	303.65
495.54	306.17
495.90	308.83
496.26	311.68
496.63	314.65
496.99	317.75
497.35	320.99
497.72	324.37
498.08	327.88
498.44	331.54
498.80	335.49
499.17	339.56
499.53	343.75
499.89	348.14
500.26	352.63
500.62	357.34
500.98	362.35
501.34	367.43
501.71	372.77
502.07	378.20
502.43	383.81
502.79	389.61
503.16	395.69
503.52	401.98
503.88	408.37
504.24	415.04
504.60	421.91
504.97	429.05
505.33	436.39
505.69	444.05
506.05	451.84
506.41	459.69
506.78	467.82
507.14	476.25
507.50	484.97
507.86	493.95
508.22	503.11
508.59	512.33
508.95	521.92
509.31	531.70
509.67	541.80
510.03	552.05
510.39	562.60
510.75	573.43
511.12	584.39
511.48	595.68
511.84	607.11
512.20	618.63
512.56	630.59
512.92	642.81
513.28	655.22
513.64	667.67
514.00	680.36
514.37	693.29
514.73	706.32
515.09	719.34
515.45	732.68
515.81	746.26
516.17	760.28
516.53	774.38
516.89	788.56
517.25	802.71
517.61	817.25
517.97	831.74
518.33	846.10
518.69	860.78
519.05	875.73
519.41	890.91
519.77	906.49
520.13	921.96
520.49	937.20
520.85	952.52
521.21	968.28
521.57	984.50
521.93	1000.30
522.29	1016.68
522.65	1032.95
523.01	1049.11
523.37	1065.18
523.73	1081.28
524.09	1097.49
524.45	1113.78
524.81	1130.50
525.17	1147.26
525.53	1164.13
525.89	1181.12
526.25	1197.92
526.61	1214.37
526.97	1231.03
527.33	1247.50
527.68	1264.17
528.04	1280.76
528.40	1297.52
528.76	1314.54
529.12	1331.18
529.48	1348.04
529.84	1364.17
530.20	1380.79
530.56	1397.91
530.91	1415.31
531.27	1432.18
531.63	1448.60
531.99	1465.33
532.35	1481.19
532.71	1497.18
533.07	1513.39
533.42	1529.18
533.78	1545.23
534.14	1561.63
534.50	1576.93
534.86	1592.74
535.21	1607.84
535.57	1623.80
535.93	1639.26
536.29	1654.07
536.65	1669.21
537.00	1684.08
537.36	1699.21
537.72	1713.84
538.08	1728.19
538.44	1741.96
538.79	1755.85
539.15	1769.41
539.51	1783.13
539.87	1797.51
540.22	1811.13
540.58	1825.04
540.94	1838.49
541.29	1851.49
541.65	1864.07
542.01	1877.34
542.37	1889.65
542.72	1902.10
543.08	1913.91
543.44	1926.36
543.79	1937.63
544.15	1948.48
544.51	1960.00
544.87	1971.15
545.22	1981.93
545.58	1992.10
545.94	2002.01
546.29	2011.87
546.65	2021.82
547.01	2030.91
547.36	2039.75
547.72	2048.19
548.07	2055.87
548.43	2064.02
548.79	2071.99
549.14	2079.57
549.50	2087.08
549.86	2094.99
550.21	2102.34
550.57	2109.47
550.92	2115.98
551.28	2122.95
551.64	2130.08
551.99	2136.67
552.35	2142.71
552.70	2148.79
553.06	2154.90
553.41	2161.08
553.77	2167.13
554.13	2173.20
554.48	2179.41
554.84	2184.77
555.19	2190.28
555.55	2195.52
555.90	2200.07
556.26	2205.09
556.61	2209.79
556.97	2213.90
557.32	2217.73
557.68	2221.84
558.03	2226.11
558.39	2229.85
558.74	2234.57
559.10	2238.40
559.45	2242.05
559.81	2246.51
560.16	2250.41
560.52	2253.58
560.87	2257.13
561.23	2259.75
561.58	2262.80
561.94	2265.24
562.29	2267.68
562.64	2270.20
563.00	2272.76
563.35	2276.21
563.71	2279.37
564.06	2282.53
564.42	2285.46
564.77	2288.08
565.12	2290.34
565.48	2292.16
565.83	2293.88
566.19	2295.08
566.54	2296.00
566.89	2297.02
567.25	2297.46
567.60	2298.68
567.96	2300.36
568.31	2301.14
568.66	2302.22
569.02	2302.76
569.37	2303.13
569.72	2303.96
570.08	2303.97
570.43	2303.97
570.78	2303.35
571.14	2301.55
571.49	2300.29
571.84	2299.96
572.20	2298.74
572.55	2297.65
572.90	2296.16
573.26	2294.90
573.61	2293.32
573.96	2291.46
574.31	2288.53
574.67	2285.53
575.02	2281.92
575.37	2278.49
575.72	2274.64
576.08	2271.42
576.43	2268.10
576.78	2264.29
577.13	2261.01
577.49	2258.01
577.84	2254.56
578.19	2250.74
578.54	2247.06
578.90	2242.70
579.25	2237.08
579.60	2232.13
579.95	2227.18
580.30	2222.05
580.66	2216.71
581.01	2211.68
581.36	2206.83
581.71	2202.54
582.06	2197.99
582.42	2193.41
582.77	2188.16
583.12	2183.54
583.47	2178.66
583.82	2173.44
584.17	2168.22
584.53	2162.71
584.88	2156.98
585.23	2151.20
585.58	2145.81
585.93	2140.53
586.28	2135.70
586.63	2130.55
586.98	2125.45
587.34	2120.77
587.69	2115.91
588.04	2110.57
588.39	2104.78
588.74	2098.39
589.09	2092.19
589.44	2085.44
589.79	2079.45
590.14	2073.81
590.49	2067.27
590.84	2060.75
591.19	2054.73
591.54	2048.32
591.89	2040.93
592.25	2034.10
592.60	2026.87
592.95	2019.20
593.30	2011.66
593.65	2004.10
594.00	1997.21
594.35	1990.02
594.70	1981.87
595.05	1974.45
595.40	1967.31
595.75	1959.88
596.10	1953.48
596.45	1946.79
596.80	1940.69
597.15	1934.08
597.50	1926.78
597.85	1920.30
598.19	1913.57
598.54	1906.51
598.89	1899.90
599.24	1893.97
599.59	1887.37
599.94	1881.14
600.29	1874.69
600.64	1868.20
600.99	1860.71
601.34	1853.78
601.69	1846.76
602.04	1839.78
602.39	1832.65
602.74	1825.77
603.08	1819.02
603.43	1812.41
603.78	1805.14
604.13	1797.79
604.48	1790.35
604.83	1783.63
605.18	1776.58
605.53	1768.60
605.87	1760.60
606.22	1753.45
606.57	1745.42
606.92	1738.04
607.27	1730.80
607.62	1723.89
607.96	1716.56
608.31	1709.84
608.66	1702.15
609.01	1694.54
609.36	1687.02
609.70	1678.89
610.05	1670.82
610.40	1663.08
610.75	1654.67
611.10	1646.93
611.44	1638.58
611.79	1630.63
612.14	1621.88
612.49	1612.79
612.83	1604.51
613.18	1596.31
613.53	1588.10
613.88	1579.59
614.22	1571.24
614.57	1562.70
614.92	1554.66
615.27	1547.07
615.61	1538.82
615.96	1530.86
616.31	1523.32
616.65	1515.85
617.00	1508.41
617.35	1500.75
617.70	1492.42
618.04	1483.96
618.39	1475.80
618.74	1468.26
619.08	1460.08
619.43	1452.59
619.78	1445.66
620.12	1438.46
620.47	1430.87
620.82	1422.69
621.16	1415.40
621.51	1407.93
621.85	1400.22
622.20	1391.77
622.55	1383.43
622.89	1375.62
623.24	1367.98
623.59	1360.56
623.93	1353.12
624.28	1345.96
624.62	1338.42
624.97	1331.22
625.32	1324.46
625.66	1317.48
626.01	1310.16
626.35	1302.72
626.70	1294.86
627.04	1287.14
627.39	1279.35
627.73	1272.02
628.08	1265.12
628.43	1257.80
628.77	1250.34
629.12	1242.80
629.46	1235.64
629.81	1228.21
630.15	1220.93
630.50	1213.52
630.84	1205.33
631.19	1197.39
631.53	1189.77
631.88	1182.25
632.22	1174.66
632.57	1167.29
632.91	1159.60
633.26	1152.16
633.60	1144.74
633.95	1137.79
634.29	1130.74
634.64	1124.05
634.98	1116.72
635.32	1109.50
635.67	1102.90
636.01	1096.26
636.36	1089.44
636.70	1082.97
637.05	1076.46
637.39	1070.04
637.73	1063.57
638.08	1057.68
638.42	1051.72
638.77	1045.30
639.11	1038.68
639.45	1032.31
639.80	1025.70
640.14	1019.24
640.49	1012.74
640.83	1006.41
641.17	1000.15
641.52	993.92
641.86	987.36
642.20	981.50
642.55	975.32
642.89	968.78
643.23	962.26
643.58	956.55
643.92	950.27
644.26	944.17
644.61	938.16
644.95	932.12
645.29	925.54
645.64	918.77
645.98	912.49
646.32	906.60
646.66	900.55
647.01	894.77
647.35	889.12
647.69	883.32
648.04	877.85
648.38	871.99
648.72	865.88
649.06	859.95
649.41	854.05
649.75	847.94
650.09	842.05
650.43	836.18
650.78	830.00
651.12	824.01
651.46	818.21
651.80	812.45
652.14	807.07
652.49	801.70
652.83	796.59
653.17	790.80
653.51	785.07
653.85	779.74
654.20	774.11
654.54	768.14
654.88	762.42
655.22	756.55
655.56	750.88
655.90	745.44
656.25	740.18
656.59	734.80
656.93	729.82
657.27	724.72
657.61	719.37
657.95	714.29
658.29	709.31
658.64	704.20
658.98	698.92
659.32	693.43
659.66	688.23
660.00	682.88
660.34	677.96
660.68	673.13
661.02	668.04
661.36	663.34
661.70	658.82
662.05	654.44
662.39	650.07
662.73	645.61
663.07	641.26
663.41	636.83
663.75	632.37
664.09	627.71
664.43	623.24
664.77	619.10
665.11	614.85
665.45	610.66
665.79	606.56
666.13	602.42
666.47	598.33
666.81	594.14
667.15	590.03
667.49	586.13
667.83	582.31
668.17	578.39
668.51	574.32
668.85	570.30
669.19	566.50
669.53	562.62
669.87	558.77
670.21	555.07
670.55	551.47
670.89	548.05
671.23	544.71
671.57	541.17
671.91	537.58
672.25	534.08
672.58	530.56
672.92	527.12
673.26	523.93
673.60	520.77
673.94	517.67
674.28	514.75
674.62	511.79
674.96	508.70
675.30	505.79
675.64	502.81
675.97	500.05
676.31	497.12
676.65	494.23
676.99	491.53
677.33	488.65
677.67	485.78
678.01	482.69
678.34	479.66
678.68	476.85
679.02	474.12
679.36	471.35
679.70	468.67
680.04	465.92
680.37	463.03
680.71	460.26
681.05	457.61
681.39	454.89
681.73	452.27
682.06	449.75
682.40	447.21
682.74	444.70
683.08	442.12
683.42	439.57
683.75	437.10
684.09	434.55
684.43	432.06
684.77	429.62
685.10	427.35
685.44	425.08
685.78	422.80
686.12	420.52
686.45	418.28
686.79	415.92
687.13	413.75
687.46	411.62
687.80	409.49
688.14	407.35
688.48	405.29
688.81	403.03
689.15	400.87
689.49	398.70
689.82	396.64
690.16	394.59
690.50	392.61
690.83	390.69
691.17	388.69
691.51	386.83
691.84	384.98
692.18	383.01
692.52	381.00
692.85	379.07
693.19	377.17
693.52	375.32
693.86	373.60
694.20	371.83
694.53	370.03
694.87	368.18
695.21	366.34
695.54	364.52
695.88	362.78
696.21	361.05
696.55	359.43
696.88	357.72
697.22	356.09
697.56	354.51
697.89	352.78
698.23	351.15
698.56	349.54
698.90	347.94
699.23	346.28
699.57	344.73
699.90	343.18
700.24	341.68
700.58	340.16
700.91	338.57
701.25	337.11
701.58	335.74
701.92	334.35
702.25	333.00
702.59	331.62
702.92	330.31
703.26	329.00
703.59	327.69
703.93	326.50
704.26	325.25
704.60	323.94
704.93	322.72
705.26	321.54
705.60	320.37
705.93	319.20
706.27	318.21
706.60	317.17
706.94	316.05
707.27	314.89
707.61	313.83
707.94	312.84
708.27	311.72
708.61	310.64
708.94	309.65
709.28	308.67
709.61	307.72
709.94	306.77
710.28	305.77
710.61	304.81
710.95	303.77
711.28	302.85
711.61	301.92
711.95	300.96
712.28	299.97
712.61	298.98
712.95	298.08
713.28	297.17
713.61	296.29
713.95	295.42
714.28	294.56
714.61	293.64
714.95	292.79
715.28	291.94
715.61	291.08
715.95	290.22
716.28	289.34
716.61	288.53
716.95	287.70
717.28	286.96
717.61	286.16
717.94	285.43
718.28	284.63
718.61	283.92
718.94	283.23
719.27	282.60
719.61	281.97
719.94	281.28
720.27	280.57
720.60	279.90
720.94	279.29
721.27	278.73
721.60	278.18
721.93	277.61
722.27	277.07
722.60	276.51
722.93	275.92
723.26	275.42
723.59	274.85
723.93	274.28
724.26	273.71
724.59	273.17
724.92	272.60
725.25	272.10
725.59	271.55
725.92	271.04
726.25	270.49
726.58	269.98
726.91	269.51
727.24	269.01
727.57	268.60
727.91	268.10
728.24	267.62
728.57	267.13
728.90	266.66
729.23	266.16
729.56	265.74
729.89	265.28
730.22	264.80
730.55	264.30
730.89	263.87
731.22	263.44
731.55	263.00
731.88	262.60
732.21	262.17
732.54	261.72
732.87	261.29
733.20	260.92
733.53	260.54
733.86	260.17
734.19	259.80
734.52	259.40
734.85	259.08
735.18	258.69
735.51	258.33
735.84	257.93
736.17	257.59
736.50	257.16
736.83	256.96
737.16	256.59
737.49	256.28
737.82	255.91
738.15	255.58
738.48	255.25
738.81	254.91
739.14	254.58
739.47	254.27
739.80	253.95
740.13	253.64
740.46	253.30
740.79	252.96
741.12	252.66
741.45	252.34
741.78	251.99
742.11	251.65
742.44	251.35
742.77	251.09
743.10	250.81
743.43	250.50
743.75	250.09
744.08	249.96
744.41	249.69
744.74	249.43
745.07	249.12
745.40	248.88
745.73	248.64
746.06	248.36
746.39	248.06
746.71	247.82
747.04	247.54
747.37	247.27
747.70	247.01
748.03	246.75
748.36	246.54
748.68	246.28
749.01	246.06
749.34	245.85
749.67	245.59
750.00	245.34
750.33	245.21
750.65	245.00
750.98	244.67
751.31	244.46
751.64	244.24
751.97	244.12
752.29	243.91
752.62	243.68
752.95	243.48
753.28	243.31
753.60	243.09
753.93	242.94
754.26	242.76
754.59	242.54
754.91	242.32
755.24	242.09
755.57	241.93
755.90	241.76
756.22	241.54
756.55	241.33
756.88	241.15
757.20	240.95
757.53	240.76
757.86	240.58
758.19	240.42
758.51	240.28
758.84	240.06
759.17	239.90
759.49	239.73
759.82	239.62
760.15	239.47
760.47	239.32
760.80	239.11
761.13	238.98
761.45	238.85
761.78	238.73
762.11	238.61
762.43	238.44
762.76	238.31
763.08	238.23
763.41	238.13
763.74	238.00
764.06	237.84
764.39	237.70
764.71	237.55
765.04	237.44
765.37	237.34
765.69	237.22
766.02	237.06
766.34	236.94
766.67	236.79
767.00	236.70
767.32	236.64
767.65	236.57
767.97	236.42
768.30	236.32
768.62	236.23
768.95	236.12
769.27	236.05
769.60	235.97
769.92	235.84
770.25	235.71
770.57	235.59
770.90	235.53
771.22	235.44
771.55	235.35
771.87	235.21
772.20	235.11
772.52	235.09
772.85	235.14
773.17	235.07
773.50	234.99
773.82	234.88
774.15	234.75
774.47	234.66
774.80	234.59
775.12	234.47
775.45	234.36
775.77	234.25
776.09	234.15
776.42	234.04
776.74	233.97
777.07	233.85
777.39	233.82
777.72	233.70
778.04	233.62
778.36	233.55
778.69	233.52
779.01	233.42
779.33	233.28
779.66	233.08
779.98	232.99
780.31	232.90
780.63	232.88
780.95	232.83
781.28	232.72
781.60	232.65
781.92	232.61
782.25	232.57
782.57	232.46
782.89	232.41
783.22	232.34
783.54	232.28
783.86	232.29
784.19	232.21
784.51	232.16
784.83	232.13
785.16	232.09
785.48	232.03
785.80	231.99
786.12	231.92
786.45	231.87
786.77	231.85
787.09	231.80
