SpectraSuite Data File
++++++++++++++++++++++++++++++++++++
Date: Fri Feb 01 17:45:08 EST 2013
User: group
Dark Spectrum Present: No
Reference Spectrum Present: No
Number of Sampled Component Spectra: 1
Spectrometers: USB2E7196
Integration Time (usec): 35000 (USB2E7196)
Spectra Averaged: 100 (USB2E7196)
Boxcar Smoothing: 10 (USB2E7196)
Correct for Electrical Dark: No (USB2E7196)
Strobe/Lamp Enabled: No (USB2E7196)
Correct for Detector Non-linearity: No (USB2E7196)
Correct for Stray Light: No (USB2E7196)
Number of Pixels in Processed Spectrum: 2048
>>>>>Begin Processed Spectral Data<<<<<
339.09	0.00
339.48	212.84
339.86	214.06
340.24	215.52
340.63	216.77
341.01	220.06
341.39	219.64
341.78	221.21
342.16	221.83
342.54	222.69
342.93	211.17
343.31	221.86
343.69	222.37
344.07	222.84
344.46	223.26
344.84	223.65
345.22	223.87
345.60	224.10
345.99	224.32
346.37	224.43
346.75	224.54
347.13	224.61
347.52	224.67
347.90	224.76
348.28	224.76
348.66	224.81
349.05	224.78
349.43	224.82
349.81	224.87
350.19	224.89
350.57	224.95
350.96	225.00
351.34	225.06
351.72	225.19
352.10	225.27
352.48	225.34
352.87	225.38
353.25	225.44
353.63	225.52
354.01	225.52
354.39	225.62
354.77	225.73
355.15	225.86
355.54	225.91
355.92	225.91
356.30	226.01
356.68	226.13
357.06	226.21
357.44	226.26
357.82	226.30
358.20	226.39
358.58	226.48
358.97	226.58
359.35	226.70
359.73	226.74
360.11	226.81
360.49	226.87
360.87	226.93
361.25	227.01
361.63	227.08
362.01	227.17
362.39	227.20
362.77	227.20
363.15	227.21
363.53	227.25
363.91	227.32
364.29	227.31
364.67	227.25
365.05	227.28
365.43	227.33
365.81	227.37
366.19	227.42
366.57	227.44
366.95	227.42
367.33	227.37
367.71	227.35
368.09	227.36
368.47	227.33
368.85	227.33
369.23	227.30
369.61	227.26
369.99	227.23
370.37	227.25
370.75	227.27
371.13	227.26
371.51	227.22
371.89	227.18
372.27	227.14
372.65	227.14
373.03	227.10
373.41	227.05
373.78	226.98
374.16	226.86
374.54	226.80
374.92	226.75
375.30	226.71
375.68	226.66
376.06	226.61
376.44	226.57
376.82	226.49
377.19	226.43
377.57	226.37
377.95	226.28
378.33	226.21
378.71	226.08
379.09	226.02
379.47	225.98
379.84	225.92
380.22	225.89
380.60	225.78
380.98	225.70
381.36	225.63
381.73	225.54
382.11	225.53
382.49	225.47
382.87	225.40
383.25	225.33
383.62	225.38
384.00	225.31
384.38	225.24
384.76	225.21
385.13	225.22
385.51	225.19
385.89	225.13
386.27	225.09
386.64	225.06
387.02	224.99
387.40	224.91
387.78	224.86
388.15	224.81
388.53	224.77
388.91	224.75
389.29	224.73
389.66	224.74
390.04	224.68
390.42	224.69
390.79	224.68
391.17	224.67
391.55	224.55
391.92	224.53
392.30	224.54
392.68	224.52
393.05	224.50
393.43	224.46
393.81	224.46
394.18	224.44
394.56	224.44
394.94	224.50
395.31	224.53
395.69	224.60
396.06	224.64
396.44	224.68
396.82	224.70
397.19	224.72
397.57	224.75
397.95	224.79
398.32	224.75
398.70	224.81
399.07	224.88
399.45	224.94
399.82	224.98
400.20	225.02
400.58	225.10
400.95	225.13
401.33	225.27
401.70	225.42
402.08	225.50
402.45	225.62
402.83	225.70
403.20	225.81
403.58	225.88
403.95	226.00
404.33	226.11
404.71	226.26
405.08	226.49
405.46	226.60
405.83	226.78
406.21	226.98
406.58	227.14
406.96	227.33
407.33	227.51
407.70	227.75
408.08	228.06
408.45	228.32
408.83	228.62
409.20	228.85
409.58	229.06
409.95	229.39
410.33	229.71
410.70	230.00
411.08	230.36
411.45	230.72
411.82	231.11
412.20	231.55
412.57	232.02
412.95	232.39
413.32	232.93
413.69	233.44
414.07	233.97
414.44	234.56
414.82	235.16
415.19	235.83
415.56	236.51
415.94	237.18
416.31	237.95
416.68	238.69
417.06	239.56
417.43	240.42
417.81	241.35
418.18	242.30
418.55	243.36
418.93	244.47
419.30	245.61
419.67	246.79
420.04	248.01
420.42	249.24
420.79	250.69
421.16	252.12
421.54	253.62
421.91	255.16
422.28	256.71
422.66	258.39
423.03	259.98
423.40	261.67
423.77	263.44
424.15	265.25
424.52	267.10
424.89	269.13
425.26	271.12
425.64	272.99
426.01	274.97
426.38	277.02
426.75	279.09
427.13	281.23
427.50	283.47
427.87	285.84
428.24	288.20
428.61	290.36
428.99	292.79
429.36	295.41
429.73	297.99
430.10	300.56
430.47	303.16
430.85	305.90
431.22	308.69
431.59	311.65
431.96	314.44
432.33	317.52
432.70	320.45
433.08	323.92
433.45	327.13
433.82	330.40
434.19	333.99
434.56	337.50
434.93	340.79
435.30	344.05
435.68	347.63
436.05	351.13
436.42	354.66
436.79	357.75
437.16	361.12
437.53	364.62
437.90	368.12
438.27	371.45
438.64	374.96
439.01	378.16
439.38	380.90
439.75	383.64
440.13	386.78
440.50	389.70
440.87	392.03
441.24	394.54
441.61	397.31
441.98	399.19
442.35	401.43
442.72	403.77
443.09	406.06
443.46	407.33
443.83	408.06
444.20	408.71
444.57	409.76
444.94	410.11
445.31	410.54
445.68	410.93
446.05	411.10
446.42	410.62
446.79	410.18
447.16	409.68
447.53	409.24
447.90	407.85
448.27	406.44
448.64	404.45
449.01	403.03
449.37	400.50
449.74	398.16
450.11	395.38
450.48	392.29
450.85	389.11
451.22	386.38
451.59	383.91
451.96	381.45
452.33	378.24
452.70	375.29
453.07	371.81
453.43	368.25
453.80	364.76
454.17	361.40
454.54	358.16
454.91	354.77
455.28	351.45
455.65	348.29
456.02	345.19
456.38	342.49
456.75	339.11
457.12	336.26
457.49	333.44
457.86	330.71
458.23	328.37
458.59	325.84
458.96	323.26
459.33	320.93
459.70	318.56
460.07	316.65
460.43	314.49
460.80	312.39
461.17	310.56
461.54	308.68
461.91	306.90
462.27	305.12
462.64	303.54
463.01	301.80
463.38	300.17
463.74	298.52
464.11	297.09
464.48	295.82
464.85	294.47
465.21	293.41
465.58	292.25
465.95	290.88
466.32	289.72
466.68	288.58
467.05	287.45
467.42	286.36
467.78	285.20
468.15	284.11
468.52	283.31
468.88	282.26
469.25	281.32
469.62	280.51
469.98	279.63
470.35	278.82
470.72	278.09
471.08	277.29
471.45	276.57
471.82	275.88
472.18	275.14
472.55	274.58
472.92	273.84
473.28	273.28
473.65	272.70
474.02	272.14
474.38	271.70
474.75	271.28
475.11	270.82
475.48	270.49
475.85	270.19
476.21	269.87
476.58	269.58
476.94	269.36
477.31	269.10
477.67	268.94
478.04	268.76
478.41	268.61
478.77	268.59
479.14	268.47
479.50	268.42
479.87	268.46
480.23	268.48
480.60	268.56
480.96	268.57
481.33	268.76
481.69	268.91
482.06	269.07
482.42	269.21
482.79	269.44
483.15	269.74
483.52	270.06
483.88	270.38
484.25	270.74
484.61	271.15
484.98	271.61
485.34	272.15
485.71	272.69
486.07	273.30
486.44	273.86
486.80	274.56
487.17	275.28
487.53	276.08
487.90	276.97
488.26	277.92
488.62	278.88
488.99	279.88
489.35	280.92
489.72	282.04
490.08	283.28
490.44	284.54
490.81	285.91
491.17	287.31
491.54	288.83
491.90	290.40
492.26	292.08
492.63	293.85
492.99	295.66
493.36	297.65
493.72	299.82
494.08	301.98
494.45	304.32
494.81	306.78
495.17	309.24
495.54	311.89
495.90	314.66
496.26	317.59
496.63	320.65
496.99	323.87
497.35	327.24
497.72	330.76
498.08	334.39
498.44	338.17
498.80	342.23
499.17	346.45
499.53	350.80
499.89	355.30
500.26	359.97
500.62	364.81
500.98	369.94
501.34	375.08
501.71	380.60
502.07	386.23
502.43	392.01
502.79	398.08
503.16	404.31
503.52	410.84
503.88	417.47
504.24	424.31
504.60	431.47
504.97	438.85
505.33	446.41
505.69	454.48
506.05	462.61
506.41	470.80
506.78	479.24
507.14	487.98
507.50	497.04
507.86	506.35
508.22	515.92
508.59	525.52
508.95	535.51
509.31	545.69
509.67	556.20
510.03	566.90
510.39	577.89
510.75	589.19
511.12	600.55
511.48	612.33
511.84	624.28
512.20	636.27
512.56	648.76
512.92	661.44
513.28	674.30
513.64	687.19
514.00	700.43
514.37	713.99
514.73	727.65
515.09	741.28
515.45	755.23
515.81	769.44
516.17	784.02
516.53	798.79
516.89	813.77
517.25	828.61
517.61	843.76
517.97	858.98
518.33	874.18
518.69	889.64
519.05	905.45
519.41	921.43
519.77	937.78
520.13	954.16
520.49	970.46
520.85	986.63
521.21	1003.22
521.57	1020.39
521.93	1037.02
522.29	1054.27
522.65	1071.61
523.01	1088.71
523.37	1105.74
523.73	1122.97
524.09	1140.01
524.45	1157.20
524.81	1174.91
525.17	1192.71
525.53	1210.60
525.89	1228.54
526.25	1246.52
526.61	1264.00
526.97	1281.89
527.33	1299.45
527.68	1317.07
528.04	1334.72
528.40	1352.49
528.76	1370.75
529.12	1388.45
529.48	1406.66
529.84	1423.89
530.20	1441.57
530.56	1459.86
530.91	1478.50
531.27	1496.54
531.63	1514.29
531.99	1532.18
532.35	1549.45
532.71	1566.66
533.07	1584.28
533.42	1601.54
533.78	1619.07
534.14	1636.74
534.50	1653.46
534.86	1670.80
535.21	1687.36
535.57	1704.62
535.93	1721.43
536.29	1737.58
536.65	1754.12
537.00	1770.19
537.36	1787.03
537.72	1802.98
538.08	1818.94
538.44	1834.22
538.79	1849.55
539.15	1864.63
539.51	1879.70
539.87	1895.51
540.22	1910.69
540.58	1925.94
540.94	1940.64
541.29	1954.71
541.65	1968.81
542.01	1983.51
542.37	1997.10
542.72	2011.03
543.08	2024.27
543.44	2038.40
543.79	2051.26
544.15	2063.76
544.51	2076.88
544.87	2089.37
545.22	2101.83
545.58	2113.59
545.94	2124.79
546.29	2136.26
546.65	2147.67
547.01	2158.64
547.36	2168.98
547.72	2179.07
548.07	2188.54
548.43	2198.15
548.79	2207.57
549.14	2216.68
549.50	2225.44
549.86	2234.82
550.21	2243.42
550.57	2252.11
550.92	2260.09
551.28	2268.64
551.64	2277.15
551.99	2285.02
552.35	2292.52
552.70	2299.99
553.06	2307.27
553.41	2315.07
553.77	2322.19
554.13	2329.77
554.48	2337.19
554.84	2344.14
555.19	2350.60
555.55	2356.96
555.90	2362.83
556.26	2369.46
556.61	2375.34
556.97	2381.05
557.32	2386.39
557.68	2391.83
558.03	2397.29
558.39	2402.09
558.74	2407.89
559.10	2412.99
559.45	2417.82
559.81	2423.28
560.16	2428.23
560.52	2432.71
560.87	2437.25
561.23	2441.12
561.58	2444.99
561.94	2448.60
562.29	2451.77
562.64	2455.67
563.00	2459.22
563.35	2463.82
563.71	2467.74
564.06	2471.90
564.42	2475.74
564.77	2479.29
565.12	2482.70
565.48	2485.62
565.83	2488.62
566.19	2490.99
566.54	2492.59
566.89	2494.65
567.25	2496.22
567.60	2498.45
567.96	2501.06
568.31	2502.65
568.66	2504.68
569.02	2506.08
569.37	2507.02
569.72	2508.78
570.08	2509.63
570.43	2510.30
570.78	2510.28
571.14	2509.34
571.49	2508.48
571.84	2508.56
572.20	2507.87
572.55	2507.25
572.90	2505.98
573.26	2505.06
573.61	2503.52
573.96	2502.31
574.31	2499.73
574.67	2496.91
575.02	2493.45
575.37	2490.06
575.72	2486.42
576.08	2483.10
576.43	2479.80
576.78	2476.64
577.13	2473.35
577.49	2470.10
577.84	2466.91
578.19	2463.20
578.54	2459.71
578.90	2455.81
579.25	2450.17
579.60	2445.26
579.95	2440.35
580.30	2435.23
580.66	2429.91
581.01	2424.98
581.36	2419.87
581.71	2415.58
582.06	2411.25
582.42	2406.75
582.77	2401.50
583.12	2396.84
583.47	2392.06
583.82	2387.13
584.17	2381.54
584.53	2375.91
584.88	2370.27
585.23	2364.19
585.58	2358.41
585.93	2352.55
586.28	2347.23
586.63	2341.96
586.98	2336.49
587.34	2331.41
587.69	2326.38
588.04	2320.94
588.39	2314.93
588.74	2308.01
589.09	2301.58
589.44	2294.26
589.79	2287.69
590.14	2281.39
590.49	2274.31
590.84	2267.43
591.19	2260.80
591.54	2253.84
591.89	2246.08
592.25	2238.91
592.60	2231.16
592.95	2223.02
593.30	2215.10
593.65	2206.92
594.00	2199.30
594.35	2191.38
594.70	2182.59
595.05	2174.92
595.40	2166.83
595.75	2158.48
596.10	2151.89
596.45	2144.48
596.80	2137.66
597.15	2130.50
597.50	2123.23
597.85	2116.21
598.19	2108.81
598.54	2101.38
598.89	2094.15
599.24	2087.54
599.59	2080.32
599.94	2073.48
600.29	2066.60
600.64	2059.28
600.99	2051.25
601.34	2043.80
601.69	2036.14
602.04	2028.52
602.39	2020.36
602.74	2012.82
603.08	2005.53
603.43	1998.00
603.78	1989.81
604.13	1981.80
604.48	1973.88
604.83	1966.10
605.18	1958.52
605.53	1949.85
605.87	1940.82
606.22	1932.70
606.57	1923.79
606.92	1915.13
607.27	1907.08
607.62	1899.38
607.96	1891.43
608.31	1884.16
608.66	1875.64
609.01	1867.33
609.36	1859.09
609.70	1850.09
610.05	1841.14
610.40	1832.55
610.75	1823.38
611.10	1814.88
611.44	1805.45
611.79	1796.24
612.14	1786.51
612.49	1776.22
612.83	1766.80
613.18	1757.56
613.53	1748.46
613.88	1739.00
614.22	1730.00
614.57	1720.34
614.92	1711.39
615.27	1703.03
615.61	1693.70
615.96	1684.61
616.31	1675.86
616.65	1667.52
617.00	1659.00
617.35	1650.28
617.70	1641.05
618.04	1631.38
618.39	1621.95
618.74	1613.57
619.08	1604.36
619.43	1595.80
619.78	1587.93
620.12	1579.96
620.47	1571.61
620.82	1562.39
621.16	1553.80
621.51	1545.09
621.85	1536.45
622.20	1526.73
622.55	1517.08
622.89	1508.22
623.24	1499.60
623.59	1491.20
623.93	1482.64
624.28	1474.48
624.62	1466.01
624.97	1457.73
625.32	1449.89
625.66	1441.99
626.01	1433.86
626.35	1425.66
626.70	1416.85
627.04	1408.26
627.39	1399.29
627.73	1390.81
628.08	1383.06
628.43	1375.06
628.77	1366.88
629.12	1358.52
629.46	1350.44
629.81	1342.01
630.15	1333.80
630.50	1325.52
630.84	1316.49
631.19	1307.48
631.53	1298.95
631.88	1290.44
632.22	1282.00
632.57	1273.85
632.91	1265.44
633.26	1257.01
633.60	1248.49
633.95	1240.43
634.29	1232.33
634.64	1224.79
634.98	1216.58
635.32	1208.53
635.67	1201.00
636.01	1193.57
636.36	1185.92
636.70	1178.59
637.05	1171.32
637.39	1163.91
637.73	1156.73
638.08	1150.02
638.42	1143.41
638.77	1136.27
639.11	1128.98
639.45	1121.75
639.80	1114.37
640.14	1107.24
640.49	1099.95
640.83	1092.93
641.17	1086.07
641.52	1079.14
641.86	1072.03
642.20	1065.60
642.55	1058.43
642.89	1051.29
643.23	1043.84
643.58	1037.34
643.92	1030.46
644.26	1023.79
644.61	1017.14
644.95	1010.37
645.29	1003.12
645.64	995.60
645.98	988.50
646.32	981.81
646.66	975.10
647.01	968.61
647.35	962.26
647.69	955.72
648.04	949.55
648.38	943.12
648.72	936.44
649.06	929.74
649.41	923.04
649.75	916.50
650.09	909.87
650.43	903.46
650.78	896.63
651.12	889.95
651.46	883.51
651.80	877.23
652.14	871.11
652.49	865.17
652.83	859.42
653.17	853.13
653.51	846.86
653.85	840.79
654.20	834.53
654.54	827.86
654.88	821.47
655.22	814.90
655.56	808.52
655.90	802.38
656.25	796.54
656.59	790.59
656.93	784.95
657.27	779.20
657.61	773.16
657.95	767.51
658.29	761.87
658.64	755.94
658.98	749.91
659.32	743.85
659.66	738.09
660.00	732.29
660.34	726.82
660.68	721.39
661.02	715.86
661.36	710.65
661.70	705.64
662.05	700.77
662.39	696.02
662.73	691.04
663.07	686.18
663.41	681.19
663.75	676.21
664.09	671.06
664.43	666.22
664.77	661.70
665.11	657.00
665.45	652.47
665.79	648.07
666.13	643.55
666.47	638.99
666.81	634.38
667.15	629.74
667.49	625.33
667.83	621.08
668.17	616.69
668.51	612.26
668.85	607.77
669.19	603.54
669.53	599.29
669.87	595.11
670.21	591.02
670.55	586.98
670.89	583.15
671.23	579.42
671.57	575.46
671.91	571.58
672.25	567.64
672.58	563.69
672.92	559.85
673.26	556.32
673.60	552.87
673.94	549.42
674.28	546.18
674.62	542.96
674.96	539.51
675.30	536.31
675.64	533.03
675.97	529.94
676.31	526.78
676.65	523.53
676.99	520.47
677.33	517.30
677.67	514.23
678.01	510.91
678.34	507.57
678.68	504.36
679.02	501.21
679.36	498.14
679.70	495.14
680.04	492.09
680.37	488.95
680.71	485.86
681.05	482.90
681.39	479.85
681.73	476.89
682.06	474.07
682.40	471.23
682.74	468.34
683.08	465.48
683.42	462.57
683.75	459.76
684.09	456.85
684.43	454.09
684.77	451.28
685.10	448.63
685.44	446.05
685.78	443.54
686.12	441.01
686.45	438.43
686.79	435.81
687.13	433.36
687.46	430.91
687.80	428.46
688.14	425.98
688.48	423.75
688.81	421.31
689.15	418.91
689.49	416.51
689.82	414.23
690.16	411.88
690.50	409.69
690.83	407.55
691.17	405.36
691.51	403.25
691.84	401.23
692.18	399.13
692.52	396.99
692.85	394.85
693.19	392.76
693.52	390.70
693.86	388.72
694.20	386.73
694.53	384.76
694.87	382.73
695.21	380.81
695.54	378.73
695.88	376.74
696.21	374.84
696.55	372.98
696.88	371.09
697.22	369.27
697.56	367.42
697.89	365.59
698.23	363.85
698.56	362.02
698.90	360.19
699.23	358.35
699.57	356.58
699.90	354.82
700.24	353.10
700.58	351.47
700.91	349.84
701.25	348.22
701.58	346.73
701.92	345.21
702.25	343.65
702.59	342.14
702.92	340.73
703.26	339.27
703.59	337.86
703.93	336.56
704.26	335.19
704.60	333.78
704.93	332.36
705.26	330.93
705.60	329.62
705.93	328.37
706.27	327.23
706.60	326.04
706.94	324.85
707.27	323.62
707.61	322.38
707.94	321.21
708.27	319.99
708.61	318.75
708.94	317.61
709.28	316.49
709.61	315.41
709.94	314.27
710.28	313.10
710.61	311.96
710.95	310.75
711.28	309.74
711.61	308.64
711.95	307.64
712.28	306.60
712.61	305.53
712.95	304.49
713.28	303.47
713.61	302.48
713.95	301.48
714.28	300.51
714.61	299.55
714.95	298.62
715.28	297.72
715.61	296.73
715.95	295.78
716.28	294.78
716.61	293.80
716.95	292.93
717.28	292.12
717.61	291.27
717.94	290.43
718.28	289.54
718.61	288.75
718.94	287.92
719.27	287.19
719.61	286.42
719.94	285.70
720.27	284.92
720.60	284.17
720.94	283.48
721.27	282.78
721.60	282.11
721.93	281.40
722.27	280.72
722.60	280.08
722.93	279.45
723.26	278.83
723.59	278.22
723.93	277.59
724.26	276.96
724.59	276.34
724.92	275.73
725.25	275.14
725.59	274.55
725.92	274.00
726.25	273.41
726.58	272.91
726.91	272.32
727.24	271.77
727.57	271.19
727.91	270.61
728.24	270.10
728.57	269.57
728.90	269.04
729.23	268.51
729.56	268.06
729.89	267.50
730.22	266.99
730.55	266.45
730.89	265.94
731.22	265.45
731.55	264.97
731.88	264.48
732.21	264.02
732.54	263.54
732.87	263.05
733.20	262.60
733.53	262.12
733.86	261.71
734.19	261.29
734.52	260.92
734.85	260.58
735.18	260.13
735.51	259.73
735.84	259.31
736.17	258.93
736.50	258.46
736.83	258.22
737.16	257.87
737.49	257.50
737.82	257.10
738.15	256.72
738.48	256.32
738.81	255.95
739.14	255.60
739.47	255.27
739.80	254.92
740.13	254.59
740.46	254.23
740.79	253.85
741.12	253.49
741.45	253.11
741.78	252.72
742.11	252.44
742.44	252.10
742.77	251.81
743.10	251.46
743.43	251.15
743.75	250.74
744.08	250.57
744.41	250.28
744.74	250.01
745.07	249.71
745.40	249.44
745.73	249.20
746.06	248.91
746.39	248.59
746.71	248.32
747.04	248.03
747.37	247.75
747.70	247.52
748.03	247.23
748.36	247.01
748.68	246.75
749.01	246.47
749.34	246.22
749.67	245.98
750.00	245.73
750.33	245.57
750.65	245.32
750.98	244.94
751.31	244.68
751.64	244.48
751.97	244.32
752.29	244.10
752.62	243.82
752.95	243.58
753.28	243.35
753.60	243.10
753.93	242.91
754.26	242.68
754.59	242.42
754.91	242.20
755.24	241.96
755.57	241.75
755.90	241.52
756.22	241.28
756.55	241.04
756.88	240.81
757.20	240.54
757.53	240.32
757.86	240.14
758.19	239.97
758.51	239.73
758.84	239.48
759.17	239.28
759.49	239.09
759.82	238.92
760.15	238.78
760.47	238.60
760.80	238.39
761.13	238.24
761.45	238.08
761.78	237.89
762.11	237.75
762.43	237.54
762.76	237.37
763.08	237.22
763.41	237.06
763.74	236.94
764.06	236.78
764.39	236.63
764.71	236.47
765.04	236.30
765.37	236.16
765.69	236.01
766.02	235.87
766.34	235.71
766.67	235.52
767.00	235.39
767.32	235.34
767.65	235.24
767.97	235.09
768.30	234.99
768.62	234.89
768.95	234.71
769.27	234.59
769.60	234.46
769.92	234.33
770.25	234.22
770.57	234.08
770.90	233.94
771.22	233.81
771.55	233.71
771.87	233.61
772.20	233.49
772.52	233.46
772.85	233.44
773.17	233.34
773.50	233.26
773.82	233.16
774.15	233.02
774.47	232.89
774.80	232.79
775.12	232.68
775.45	232.58
775.77	232.53
776.09	232.44
776.42	232.36
776.74	232.29
777.07	232.18
777.39	232.08
777.72	231.99
778.04	231.91
778.36	231.81
778.69	231.76
779.01	231.73
779.33	231.57
779.66	231.35
779.98	231.29
780.31	231.21
780.63	231.16
780.95	231.09
781.28	231.01
781.60	230.95
781.92	230.87
782.25	230.81
782.57	230.74
782.89	230.68
783.22	230.62
783.54	230.57
783.86	230.57
784.19	230.55
784.51	230.54
784.83	230.49
785.16	230.42
785.48	230.37
785.80	230.27
786.12	230.21
786.45	230.21
786.77	230.18
