SpectraSuite Data File
++++++++++++++++++++++++++++++++++++
Date: Fri Feb 01 14:57:05 EST 2013
User: group
Dark Spectrum Present: No
Reference Spectrum Present: No
Number of Sampled Component Spectra: 1
Spectrometers: USB2E7196
Integration Time (usec): 35000 (USB2E7196)
Spectra Averaged: 100 (USB2E7196)
Boxcar Smoothing: 10 (USB2E7196)
Correct for Electrical Dark: No (USB2E7196)
Strobe/Lamp Enabled: No (USB2E7196)
Correct for Detector Non-linearity: No (USB2E7196)
Correct for Stray Light: No (USB2E7196)
Number of Pixels in Processed Spectrum: 2048
>>>>>Begin Processed Spectral Data<<<<<
339.09	0.00
339.48	215.09
339.86	216.96
340.24	218.37
340.63	219.89
341.01	222.00
341.39	222.38
341.78	223.36
342.16	225.22
342.54	225.24
342.93	213.64
343.31	224.41
343.69	224.95
344.07	225.40
344.46	225.80
344.84	226.14
345.22	226.40
345.60	226.67
345.99	226.85
346.37	226.94
346.75	227.06
347.13	227.11
347.52	227.18
347.90	227.27
348.28	227.28
348.66	227.35
349.05	227.28
349.43	227.32
349.81	227.33
350.19	227.34
350.57	227.36
350.96	227.43
351.34	227.53
351.72	227.63
352.10	227.75
352.48	227.80
352.87	227.87
353.25	227.93
353.63	227.94
354.01	228.00
354.39	228.07
354.77	228.12
355.15	228.23
355.54	228.27
355.92	228.28
356.30	228.37
356.68	228.52
357.06	228.61
357.44	228.64
357.82	228.76
358.20	228.84
358.58	228.93
358.97	229.02
359.35	229.06
359.73	229.14
360.11	229.16
360.49	229.21
360.87	229.21
361.25	229.23
361.63	229.32
362.01	229.38
362.39	229.40
362.77	229.44
363.15	229.46
363.53	229.48
363.91	229.46
364.29	229.46
364.67	229.37
365.05	229.35
365.43	229.41
365.81	229.42
366.19	229.50
366.57	229.49
366.95	229.46
367.33	229.44
367.71	229.37
368.09	229.37
368.47	229.41
368.85	229.43
369.23	229.45
369.61	229.37
369.99	229.36
370.37	229.35
370.75	229.35
371.13	229.28
371.51	229.25
371.89	229.22
372.27	229.20
372.65	229.15
373.03	229.12
373.41	229.02
373.78	228.95
374.16	228.80
374.54	228.74
374.92	228.65
375.30	228.62
375.68	228.59
376.06	228.52
376.44	228.41
376.82	228.31
377.19	228.23
377.57	228.11
377.95	228.01
378.33	227.92
378.71	227.76
379.09	227.71
379.47	227.66
379.84	227.60
380.22	227.51
380.60	227.42
380.98	227.31
381.36	227.21
381.73	227.13
382.11	227.09
382.49	227.02
382.87	226.96
383.25	226.87
383.62	226.89
384.00	226.84
384.38	226.80
384.76	226.78
385.13	226.76
385.51	226.74
385.89	226.66
386.27	226.58
386.64	226.57
387.02	226.47
387.40	226.39
387.78	226.36
388.15	226.35
388.53	226.29
388.91	226.29
389.29	226.24
389.66	226.20
390.04	226.16
390.42	226.15
390.79	226.15
391.17	226.11
391.55	225.98
391.92	225.95
392.30	225.95
392.68	225.94
393.05	225.94
393.43	225.95
393.81	226.00
394.18	226.04
394.56	226.06
394.94	226.15
395.31	226.19
395.69	226.27
396.06	226.29
396.44	226.33
396.82	226.37
397.19	226.50
397.57	226.58
397.95	226.67
398.32	226.68
398.70	226.75
399.07	226.88
399.45	226.97
399.82	227.06
400.20	227.14
400.58	227.21
400.95	227.27
401.33	227.37
401.70	227.50
402.08	227.60
402.45	227.73
402.83	227.84
403.20	227.93
403.58	228.02
403.95	228.15
404.33	228.31
404.71	228.44
405.08	228.64
405.46	228.76
405.83	228.92
406.21	229.07
406.58	229.23
406.96	229.37
407.33	229.57
407.70	229.74
408.08	230.02
408.45	230.25
408.83	230.49
409.20	230.72
409.58	230.95
409.95	231.24
410.33	231.52
410.70	231.79
411.08	232.12
411.45	232.43
411.82	232.75
412.20	233.12
412.57	233.57
412.95	233.85
413.32	234.26
413.69	234.67
414.07	235.12
414.44	235.59
414.82	236.09
415.19	236.62
415.56	237.18
415.94	237.73
416.31	238.36
416.68	238.98
417.06	239.66
417.43	240.35
417.81	241.10
418.18	241.86
418.55	242.69
418.93	243.55
419.30	244.46
419.67	245.39
420.04	246.34
420.42	247.33
420.79	248.53
421.16	249.67
421.54	250.89
421.91	252.13
422.28	253.38
422.66	254.66
423.03	255.98
423.40	257.34
423.77	258.69
424.15	260.12
424.52	261.59
424.89	263.24
425.26	264.78
425.64	266.21
426.01	267.78
426.38	269.43
426.75	271.13
427.13	272.81
427.50	274.64
427.87	276.50
428.24	278.34
428.61	280.11
428.99	282.07
429.36	284.18
429.73	286.27
430.10	288.27
430.47	290.37
430.85	292.47
431.22	294.71
431.59	297.15
431.96	299.40
432.33	301.91
432.70	304.29
433.08	307.08
433.45	309.75
433.82	312.39
434.19	315.27
434.56	318.11
434.93	320.80
435.30	323.43
435.68	326.40
436.05	329.23
436.42	331.96
436.79	334.49
437.16	337.18
437.53	339.98
437.90	342.84
438.27	345.57
438.64	348.42
439.01	351.05
439.38	353.27
439.75	355.44
440.13	357.95
440.50	360.30
440.87	362.17
441.24	364.13
441.61	366.28
441.98	367.76
442.35	369.54
442.72	371.42
443.09	373.22
443.46	374.21
443.83	374.81
444.20	375.36
444.57	376.19
444.94	376.49
445.31	376.89
445.68	377.24
446.05	377.35
446.42	376.97
446.79	376.48
447.16	376.03
447.53	375.72
447.90	374.53
448.27	373.40
448.64	371.81
449.01	370.67
449.37	368.69
449.74	366.83
450.11	364.57
450.48	362.06
450.85	359.50
451.22	357.32
451.59	355.33
451.96	353.40
452.33	350.82
452.70	348.42
453.07	345.55
453.43	342.66
453.80	339.88
454.17	337.18
454.54	334.70
454.91	331.98
455.28	329.31
455.65	326.82
456.02	324.32
456.38	322.17
456.75	319.48
457.12	317.24
457.49	315.00
457.86	312.81
458.23	310.98
458.59	308.97
458.96	306.87
459.33	304.97
459.70	303.06
460.07	301.53
460.43	299.85
460.80	298.23
461.17	296.76
461.54	295.24
461.91	293.80
462.27	292.33
462.64	291.07
463.01	289.69
463.38	288.43
463.74	287.10
464.11	285.94
464.48	284.89
464.85	283.76
465.21	282.89
465.58	281.98
465.95	280.81
466.32	279.85
466.68	278.93
467.05	278.05
467.42	277.20
467.78	276.24
468.15	275.35
468.52	274.63
468.88	273.78
469.25	273.01
469.62	272.39
469.98	271.67
470.35	271.00
470.72	270.37
471.08	269.66
471.45	269.09
471.82	268.52
472.18	267.91
472.55	267.45
472.92	266.91
473.28	266.43
473.65	266.03
474.02	265.57
474.38	265.19
474.75	264.83
475.11	264.44
475.48	264.13
475.85	263.85
476.21	263.62
476.58	263.38
476.94	263.22
477.31	263.02
477.67	262.86
478.04	262.76
478.41	262.72
478.77	262.72
479.14	262.62
479.50	262.61
479.87	262.68
480.23	262.74
480.60	262.79
480.96	262.85
481.33	263.05
481.69	263.29
482.06	263.48
482.42	263.68
482.79	263.94
483.15	264.28
483.52	264.69
483.88	265.06
484.25	265.44
484.61	265.82
484.98	266.27
485.34	266.83
485.71	267.44
486.07	268.05
486.44	268.64
486.80	269.37
487.17	270.10
487.53	270.93
487.90	271.80
488.26	272.73
488.62	273.74
488.99	274.67
489.35	275.66
489.72	276.80
490.08	278.00
490.44	279.21
490.81	280.54
491.17	281.83
491.54	283.30
491.90	284.86
492.26	286.55
492.63	288.28
492.99	290.02
493.36	291.89
493.72	293.91
494.08	296.03
494.45	298.26
494.81	300.59
495.17	302.95
495.54	305.48
495.90	308.19
496.26	310.96
496.63	313.90
496.99	317.01
497.35	320.22
497.72	323.56
498.08	327.06
498.44	330.70
498.80	334.63
499.17	338.67
499.53	342.76
499.89	347.07
500.26	351.57
500.62	356.24
500.98	361.17
501.34	366.23
501.71	371.49
502.07	376.86
502.43	382.45
502.79	388.26
503.16	394.32
503.52	400.56
503.88	406.98
504.24	413.57
504.60	420.45
504.97	427.58
505.33	434.92
505.69	442.55
506.05	450.28
506.41	458.13
506.78	466.26
507.14	474.69
507.50	483.38
507.86	492.36
508.22	501.55
508.59	510.69
508.95	520.27
509.31	530.07
509.67	540.19
510.03	550.48
510.39	561.04
510.75	571.80
511.12	582.64
511.48	593.88
511.84	605.41
512.20	616.87
512.56	628.82
512.92	640.97
513.28	653.32
513.64	665.82
514.00	678.56
514.37	691.45
514.73	704.50
515.09	717.58
515.45	730.95
515.81	744.48
516.17	758.48
516.53	772.59
516.89	786.83
517.25	800.99
517.61	815.47
517.97	829.87
518.33	844.26
518.69	859.12
519.05	874.20
519.41	889.33
519.77	904.91
520.13	920.27
520.49	935.71
520.85	951.11
521.21	966.87
521.57	983.07
521.93	998.86
522.29	1015.34
522.65	1031.69
523.01	1047.94
523.37	1064.08
523.73	1080.34
524.09	1096.51
524.45	1112.75
524.81	1129.46
525.17	1146.35
525.53	1163.33
525.89	1180.37
526.25	1197.23
526.61	1213.60
526.97	1230.49
527.33	1247.04
527.68	1263.82
528.04	1280.28
528.40	1297.05
528.76	1314.28
529.12	1331.00
529.48	1348.06
529.84	1364.21
530.20	1380.82
530.56	1397.97
530.91	1415.44
531.27	1432.23
531.63	1448.74
531.99	1465.46
532.35	1481.44
532.71	1497.43
533.07	1513.84
533.42	1529.90
533.78	1546.03
534.14	1562.50
534.50	1577.78
534.86	1593.82
535.21	1608.95
535.57	1625.11
535.93	1640.68
536.29	1655.50
536.65	1670.70
537.00	1685.51
537.36	1700.85
537.72	1715.57
538.08	1729.98
538.44	1743.87
538.79	1757.91
539.15	1771.81
539.51	1785.77
539.87	1800.37
540.22	1814.20
540.58	1828.10
540.94	1841.50
541.29	1854.64
541.65	1867.46
542.01	1880.89
542.37	1893.14
542.72	1905.93
543.08	1917.68
543.44	1930.20
543.79	1941.39
544.15	1952.38
544.51	1963.97
544.87	1975.07
545.22	1985.75
545.58	1996.08
545.94	2005.85
546.29	2015.79
546.65	2025.59
547.01	2034.71
547.36	2043.50
547.72	2052.03
548.07	2059.95
548.43	2068.09
548.79	2076.01
549.14	2083.38
549.50	2090.83
549.86	2098.64
550.21	2105.69
550.57	2112.80
550.92	2119.32
551.28	2126.57
551.64	2133.63
551.99	2140.18
552.35	2146.23
552.70	2152.44
553.06	2158.41
553.41	2164.81
553.77	2170.77
554.13	2176.78
554.48	2182.82
554.84	2188.15
555.19	2193.43
555.55	2198.54
555.90	2202.86
556.26	2207.70
556.61	2212.48
556.97	2216.66
557.32	2220.80
557.68	2224.93
558.03	2229.27
558.39	2232.90
558.74	2237.32
559.10	2241.12
559.45	2244.69
559.81	2248.98
560.16	2252.71
560.52	2255.80
560.87	2259.10
561.23	2261.56
561.58	2264.46
561.94	2266.92
562.29	2269.12
562.64	2271.60
563.00	2274.03
563.35	2277.43
563.71	2280.56
564.06	2283.56
564.42	2286.11
564.77	2288.35
565.12	2290.54
565.48	2292.32
565.83	2293.98
566.19	2295.25
566.54	2296.05
566.89	2296.96
567.25	2297.32
567.60	2298.65
567.96	2300.11
568.31	2300.84
568.66	2301.92
569.02	2302.31
569.37	2302.56
569.72	2303.24
570.08	2303.19
570.43	2302.97
570.78	2302.22
571.14	2300.52
571.49	2299.04
571.84	2298.51
572.20	2297.18
572.55	2296.05
572.90	2294.33
573.26	2292.89
573.61	2290.88
573.96	2288.83
574.31	2285.83
574.67	2282.67
575.02	2278.80
575.37	2275.25
575.72	2271.27
576.08	2267.78
576.43	2264.43
576.78	2260.54
577.13	2257.24
577.49	2253.99
577.84	2250.31
578.19	2246.58
578.54	2242.63
578.90	2238.28
579.25	2232.81
579.60	2227.75
579.95	2222.49
580.30	2217.27
580.66	2211.82
581.01	2206.82
581.36	2201.79
581.71	2197.46
582.06	2192.76
582.42	2188.05
582.77	2182.76
583.12	2177.96
583.47	2173.16
583.82	2167.90
584.17	2162.59
584.53	2157.07
584.88	2151.38
585.23	2145.48
585.58	2139.87
585.93	2134.25
586.28	2129.45
586.63	2124.23
586.98	2119.11
587.34	2114.38
587.69	2109.42
588.04	2104.11
588.39	2098.23
588.74	2091.65
589.09	2085.29
589.44	2078.48
589.79	2072.49
590.14	2066.84
590.49	2060.20
590.84	2053.54
591.19	2047.30
591.54	2040.77
591.89	2033.07
592.25	2026.02
592.60	2018.83
592.95	2011.11
593.30	2003.69
593.65	1995.86
594.00	1988.57
594.35	1981.09
594.70	1972.87
595.05	1965.54
595.40	1958.32
595.75	1950.77
596.10	1944.57
596.45	1937.68
596.80	1931.45
597.15	1924.70
597.50	1917.29
597.85	1910.85
598.19	1904.16
598.54	1897.15
598.89	1890.43
599.24	1884.55
599.59	1877.79
599.94	1871.43
600.29	1864.93
600.64	1858.31
600.99	1850.72
601.34	1843.99
601.69	1837.06
602.04	1830.10
602.39	1822.82
602.74	1815.82
603.08	1809.08
603.43	1802.40
603.78	1795.23
604.13	1788.07
604.48	1780.66
604.83	1773.94
605.18	1766.73
605.53	1758.62
605.87	1750.59
606.22	1743.34
606.57	1735.52
606.92	1728.24
607.27	1721.09
607.62	1714.24
607.96	1706.86
608.31	1700.41
608.66	1692.64
609.01	1685.09
609.36	1677.59
609.70	1669.45
610.05	1661.29
610.40	1653.71
610.75	1645.25
611.10	1637.59
611.44	1629.18
611.79	1621.25
612.14	1612.49
612.49	1603.65
612.83	1595.47
613.18	1587.36
613.53	1579.26
613.88	1570.71
614.22	1562.55
614.57	1553.97
614.92	1546.01
615.27	1538.56
615.61	1530.32
615.96	1522.45
616.31	1514.86
616.65	1507.55
617.00	1500.11
617.35	1492.52
617.70	1484.05
618.04	1475.49
618.39	1467.29
618.74	1459.71
619.08	1451.44
619.43	1443.99
619.78	1437.13
620.12	1430.03
620.47	1422.51
620.82	1414.41
621.16	1407.00
621.51	1399.39
621.85	1391.90
622.20	1383.36
622.55	1375.15
622.89	1367.32
623.24	1359.72
623.59	1352.41
623.93	1344.90
624.28	1337.74
624.62	1330.37
624.97	1323.28
625.32	1316.63
625.66	1309.66
626.01	1302.51
626.35	1295.15
626.70	1287.44
627.04	1279.62
627.39	1271.77
627.73	1264.40
628.08	1257.54
628.43	1250.27
628.77	1242.90
629.12	1235.34
629.46	1228.26
629.81	1220.97
630.15	1213.81
630.50	1206.46
630.84	1198.30
631.19	1190.47
631.53	1182.94
631.88	1175.46
632.22	1167.90
632.57	1160.76
632.91	1153.23
633.26	1145.93
633.60	1138.70
633.95	1131.80
634.29	1124.86
634.64	1118.32
634.98	1111.04
635.32	1103.92
635.67	1097.50
636.01	1090.92
636.36	1084.18
636.70	1077.76
637.05	1071.16
637.39	1064.71
637.73	1058.26
638.08	1052.46
638.42	1046.59
638.77	1040.29
639.11	1033.73
639.45	1027.49
639.80	1020.83
640.14	1014.54
640.49	1007.97
640.83	1001.72
641.17	995.35
641.52	989.06
641.86	982.64
642.20	976.88
642.55	970.65
642.89	964.16
643.23	957.74
643.58	952.01
643.92	945.82
644.26	939.72
644.61	933.82
644.95	927.81
645.29	921.32
645.64	914.52
645.98	908.17
646.32	902.39
646.66	896.31
647.01	890.54
647.35	884.78
647.69	878.99
648.04	873.45
648.38	867.69
648.72	861.66
649.06	855.69
649.41	849.74
649.75	843.77
650.09	837.79
650.43	831.94
650.78	825.74
651.12	819.81
651.46	814.08
651.80	808.26
652.14	802.87
652.49	797.38
652.83	792.21
653.17	786.53
653.51	780.82
653.85	775.47
654.20	769.85
654.54	763.88
654.88	758.18
655.22	752.30
655.56	746.64
655.90	741.29
656.25	735.97
656.59	730.68
656.93	725.62
657.27	720.53
657.61	715.18
657.95	710.25
658.29	705.22
658.64	700.10
658.98	694.85
659.32	689.45
659.66	684.32
660.00	679.06
660.34	674.14
660.68	669.32
661.02	664.32
661.36	659.62
661.70	655.17
662.05	650.89
662.39	646.66
662.73	642.27
663.07	637.89
663.41	633.48
663.75	628.99
664.09	624.50
664.43	620.15
664.77	616.03
665.11	611.74
665.45	607.69
665.79	603.58
666.13	599.49
666.47	595.41
666.81	591.30
667.15	587.18
667.49	583.34
667.83	579.55
668.17	575.68
668.51	571.67
668.85	567.72
669.19	563.86
669.53	559.98
669.87	556.17
670.21	552.55
670.55	549.00
670.89	545.63
671.23	542.25
671.57	538.79
671.91	535.31
672.25	531.89
672.58	528.39
672.92	525.11
673.26	521.99
673.60	518.89
673.94	515.86
674.28	513.02
674.62	510.16
674.96	507.05
675.30	504.16
675.64	501.25
675.97	498.49
676.31	495.67
676.65	492.81
676.99	490.08
677.33	487.25
677.67	484.45
678.01	481.45
678.34	478.46
678.68	475.64
679.02	472.89
679.36	470.17
679.70	467.48
680.04	464.69
680.37	461.77
680.71	459.04
681.05	456.40
681.39	453.73
681.73	451.08
682.06	448.54
682.40	446.05
682.74	443.59
683.08	441.08
683.42	438.51
683.75	436.02
684.09	433.54
684.43	431.11
684.77	428.64
685.10	426.37
685.44	424.12
685.78	421.79
686.12	419.55
686.45	417.28
686.79	415.00
687.13	412.83
687.46	410.69
687.80	408.53
688.14	406.36
688.48	404.29
688.81	402.02
689.15	399.87
689.49	397.70
689.82	395.62
690.16	393.54
690.50	391.59
690.83	389.63
691.17	387.65
691.51	385.73
691.84	383.92
692.18	381.92
692.52	379.96
692.85	378.08
693.19	376.19
693.52	374.37
693.86	372.54
694.20	370.80
694.53	369.05
694.87	367.18
695.21	365.36
695.54	363.57
695.88	361.85
696.21	360.16
696.55	358.47
696.88	356.78
697.22	355.12
697.56	353.51
697.89	351.86
698.23	350.22
698.56	348.60
698.90	346.97
699.23	345.32
699.57	343.76
699.90	342.22
700.24	340.68
700.58	339.10
700.91	337.56
701.25	336.08
701.58	334.72
701.92	333.39
702.25	332.06
702.59	330.71
702.92	329.40
703.26	328.13
703.59	326.84
703.93	325.69
704.26	324.51
704.60	323.24
704.93	322.00
705.26	320.80
705.60	319.64
705.93	318.53
706.27	317.56
706.60	316.52
706.94	315.44
707.27	314.31
707.61	313.32
707.94	312.35
708.27	311.30
708.61	310.21
708.94	309.23
709.28	308.27
709.61	307.34
709.94	306.41
710.28	305.41
710.61	304.51
710.95	303.44
711.28	302.53
711.61	301.59
711.95	300.66
712.28	299.73
712.61	298.77
712.95	297.88
713.28	297.02
713.61	296.14
713.95	295.29
714.28	294.48
714.61	293.64
714.95	292.82
715.28	292.02
715.61	291.17
715.95	290.32
716.28	289.48
716.61	288.67
716.95	287.88
717.28	287.16
717.61	286.36
717.94	285.65
718.28	284.86
718.61	284.18
718.94	283.51
719.27	282.91
719.61	282.29
719.94	281.60
720.27	280.90
720.60	280.24
720.94	279.66
721.27	279.07
721.60	278.49
721.93	277.92
722.27	277.39
722.60	276.85
722.93	276.31
723.26	275.79
723.59	275.21
723.93	274.68
724.26	274.10
724.59	273.55
724.92	273.00
725.25	272.48
725.59	271.96
725.92	271.45
726.25	270.90
726.58	270.39
726.91	269.92
727.24	269.45
727.57	268.96
727.91	268.43
728.24	267.97
728.57	267.45
728.90	266.97
729.23	266.46
729.56	266.06
729.89	265.58
730.22	265.06
730.55	264.62
730.89	264.11
731.22	263.69
731.55	263.28
731.88	262.89
732.21	262.46
732.54	262.01
732.87	261.60
733.20	261.22
733.53	260.86
733.86	260.46
734.19	260.06
734.52	259.67
734.85	259.36
735.18	258.93
735.51	258.57
735.84	258.19
736.17	257.81
736.50	257.35
736.83	257.07
737.16	256.73
737.49	256.37
737.82	256.04
738.15	255.69
738.48	255.33
738.81	254.99
739.14	254.67
739.47	254.35
739.80	254.03
740.13	253.68
740.46	253.30
740.79	252.96
741.12	252.64
741.45	252.33
741.78	251.97
742.11	251.69
742.44	251.37
742.77	251.09
743.10	250.79
743.43	250.54
743.75	250.16
744.08	250.04
744.41	249.74
744.74	249.49
745.07	249.18
745.40	248.95
745.73	248.72
746.06	248.43
746.39	248.14
746.71	247.85
747.04	247.58
747.37	247.36
747.70	247.16
748.03	246.92
748.36	246.73
748.68	246.47
749.01	246.23
749.34	245.99
749.67	245.80
750.00	245.55
750.33	245.39
750.65	245.18
750.98	244.85
751.31	244.66
751.64	244.45
751.97	244.31
752.29	244.10
752.62	243.87
752.95	243.69
753.28	243.50
753.60	243.30
753.93	243.16
754.26	242.95
754.59	242.72
754.91	242.50
755.24	242.27
755.57	242.10
755.90	241.93
756.22	241.75
756.55	241.51
756.88	241.35
757.20	241.11
757.53	240.94
757.86	240.76
758.19	240.61
758.51	240.45
758.84	240.29
759.17	240.12
759.49	239.95
759.82	239.86
760.15	239.74
760.47	239.62
760.80	239.46
761.13	239.33
761.45	239.21
761.78	239.07
762.11	238.94
762.43	238.78
762.76	238.65
763.08	238.55
763.41	238.44
763.74	238.33
764.06	238.20
764.39	238.06
764.71	237.94
765.04	237.82
765.37	237.69
765.69	237.56
766.02	237.42
766.34	237.33
766.67	237.16
767.00	237.06
767.32	237.00
767.65	236.94
767.97	236.83
768.30	236.73
768.62	236.64
768.95	236.54
769.27	236.45
769.60	236.37
769.92	236.22
770.25	236.08
770.57	235.98
770.90	235.86
771.22	235.78
771.55	235.66
771.87	235.57
772.20	235.49
772.52	235.47
772.85	235.52
773.17	235.39
773.50	235.29
773.82	235.17
774.15	235.02
774.47	234.84
774.80	234.73
775.12	234.65
775.45	234.57
775.77	234.49
776.09	234.40
776.42	234.27
776.74	234.24
777.07	234.18
777.39	234.07
777.72	233.99
778.04	233.91
778.36	233.84
778.69	233.75
779.01	233.65
779.33	233.51
779.66	233.30
779.98	233.26
780.31	233.21
780.63	233.16
780.95	233.12
781.28	233.07
781.60	233.02
781.92	232.94
782.25	232.87
782.57	232.81
782.89	232.74
783.22	232.72
783.54	232.66
783.86	232.60
784.19	232.53
784.51	232.50
784.83	232.43
785.16	232.36
785.48	232.33
785.80	232.28
786.12	232.21
786.45	232.15
786.77	232.08
787.09	231.99
