SpectraSuite Data File
++++++++++++++++++++++++++++++++++++
Date: Fri Feb 01 18:05:38 EST 2013
User: group
Dark Spectrum Present: No
Reference Spectrum Present: No
Number of Sampled Component Spectra: 1
Spectrometers: USB2E7196
Integration Time (usec): 35000 (USB2E7196)
Spectra Averaged: 100 (USB2E7196)
Boxcar Smoothing: 10 (USB2E7196)
Correct for Electrical Dark: No (USB2E7196)
Strobe/Lamp Enabled: No (USB2E7196)
Correct for Detector Non-linearity: No (USB2E7196)
Correct for Stray Light: No (USB2E7196)
Number of Pixels in Processed Spectrum: 2048
>>>>>Begin Processed Spectral Data<<<<<
339.09	0.00
339.48	212.94
339.86	214.47
340.24	215.87
340.63	216.88
341.01	221.05
341.39	219.47
341.78	221.46
342.16	222.81
342.54	222.83
342.93	211.53
343.31	222.24
343.69	222.79
344.07	223.26
344.46	223.68
344.84	224.10
345.22	224.28
345.60	224.57
345.99	224.77
346.37	224.91
346.75	225.06
347.13	225.11
347.52	225.18
347.90	225.29
348.28	225.32
348.66	225.37
349.05	225.39
349.43	225.41
349.81	225.45
350.19	225.52
350.57	225.59
350.96	225.66
351.34	225.73
351.72	225.80
352.10	225.87
352.48	225.93
352.87	225.97
353.25	226.03
353.63	226.08
354.01	226.14
354.39	226.20
354.77	226.21
355.15	226.31
355.54	226.34
355.92	226.39
356.30	226.49
356.68	226.61
357.06	226.66
357.44	226.72
357.82	226.79
358.20	226.86
358.58	226.92
358.97	226.96
359.35	227.01
359.73	227.10
360.11	227.18
360.49	227.28
360.87	227.31
361.25	227.38
361.63	227.46
362.01	227.51
362.39	227.52
362.77	227.60
363.15	227.62
363.53	227.64
363.91	227.66
364.29	227.66
364.67	227.59
365.05	227.60
365.43	227.63
365.81	227.64
366.19	227.68
366.57	227.70
366.95	227.71
367.33	227.67
367.71	227.64
368.09	227.64
368.47	227.64
368.85	227.63
369.23	227.63
369.61	227.58
369.99	227.58
370.37	227.54
370.75	227.55
371.13	227.49
371.51	227.47
371.89	227.43
372.27	227.37
372.65	227.33
373.03	227.29
373.41	227.25
373.78	227.20
374.16	227.12
374.54	227.06
374.92	226.97
375.30	226.96
375.68	226.89
376.06	226.82
376.44	226.73
376.82	226.69
377.19	226.63
377.57	226.57
377.95	226.49
378.33	226.46
378.71	226.34
379.09	226.29
379.47	226.25
379.84	226.18
380.22	226.10
380.60	226.03
380.98	225.99
381.36	225.93
381.73	225.87
382.11	225.79
382.49	225.75
382.87	225.71
383.25	225.64
383.62	225.69
384.00	225.66
384.38	225.63
384.76	225.59
385.13	225.60
385.51	225.54
385.89	225.47
386.27	225.40
386.64	225.37
387.02	225.34
387.40	225.29
387.78	225.26
388.15	225.24
388.53	225.24
388.91	225.21
389.29	225.16
389.66	225.12
390.04	225.08
390.42	225.07
390.79	225.06
391.17	225.04
391.55	224.93
391.92	224.86
392.30	224.88
392.68	224.87
393.05	224.83
393.43	224.86
393.81	224.87
394.18	224.87
394.56	224.87
394.94	224.89
395.31	224.93
395.69	225.00
396.06	225.03
396.44	225.06
396.82	225.09
397.19	225.20
397.57	225.25
397.95	225.32
398.32	225.36
398.70	225.43
399.07	225.50
399.45	225.57
399.82	225.65
400.20	225.70
400.58	225.75
400.95	225.80
401.33	225.87
401.70	226.01
402.08	226.13
402.45	226.25
402.83	226.36
403.20	226.45
403.58	226.51
403.95	226.65
404.33	226.76
404.71	226.90
405.08	227.07
405.46	227.22
405.83	227.40
406.21	227.55
406.58	227.73
406.96	227.90
407.33	228.11
407.70	228.38
408.08	228.68
408.45	228.95
408.83	229.21
409.20	229.50
409.58	229.75
409.95	230.07
410.33	230.39
410.70	230.72
411.08	231.07
411.45	231.46
411.82	231.87
412.20	232.30
412.57	232.79
412.95	233.18
413.32	233.70
413.69	234.22
414.07	234.80
414.44	235.38
414.82	235.99
415.19	236.73
415.56	237.42
415.94	238.14
416.31	238.97
416.68	239.82
417.06	240.75
417.43	241.64
417.81	242.63
418.18	243.66
418.55	244.79
418.93	245.99
419.30	247.21
419.67	248.45
420.04	249.76
420.42	251.11
420.79	252.68
421.16	254.23
421.54	255.82
421.91	257.46
422.28	259.21
422.66	261.04
423.03	262.77
423.40	264.57
423.77	266.51
424.15	268.46
424.52	270.46
424.89	272.67
425.26	274.79
425.64	276.80
426.01	279.03
426.38	281.27
426.75	283.54
427.13	285.88
427.50	288.34
427.87	290.88
428.24	293.47
428.61	295.87
428.99	298.52
429.36	301.40
429.73	304.22
430.10	306.95
430.47	309.75
430.85	312.63
431.22	315.69
431.59	318.89
431.96	321.95
432.33	325.33
432.70	328.51
433.08	332.31
433.45	335.88
433.82	339.37
434.19	343.29
434.56	347.09
434.93	350.68
435.30	354.26
435.68	358.26
436.05	362.10
436.42	365.93
436.79	369.35
437.16	373.03
437.53	376.84
437.90	380.69
438.27	384.41
438.64	388.26
439.01	391.81
439.38	394.90
439.75	397.86
440.13	401.26
440.50	404.52
440.87	407.13
441.24	409.77
441.61	412.73
441.98	414.83
442.35	417.32
442.72	419.88
443.09	422.39
443.46	423.67
443.83	424.47
444.20	425.14
444.57	426.33
444.94	426.71
445.31	427.26
445.68	427.69
446.05	427.82
446.42	427.37
446.79	426.78
447.16	426.21
447.53	425.74
447.90	424.22
448.27	422.66
448.64	420.45
449.01	418.93
449.37	416.26
449.74	413.60
450.11	410.49
450.48	407.18
450.85	403.73
451.22	400.90
451.59	398.16
451.96	395.54
452.33	391.97
452.70	388.79
453.07	384.91
453.43	381.01
453.80	377.26
454.17	373.64
454.54	370.18
454.91	366.44
455.28	362.79
455.65	359.41
456.02	355.95
456.38	353.03
456.75	349.39
457.12	346.34
457.49	343.34
457.86	340.41
458.23	337.83
458.59	334.99
458.96	332.11
459.33	329.51
459.70	326.96
460.07	324.89
460.43	322.51
460.80	320.22
461.17	318.21
461.54	316.13
461.91	314.11
462.27	312.11
462.64	310.39
463.01	308.54
463.38	306.65
463.74	304.88
464.11	303.26
464.48	301.80
464.85	300.22
465.21	299.03
465.58	297.73
465.95	296.23
466.32	294.96
466.68	293.68
467.05	292.43
467.42	291.18
467.78	289.89
468.15	288.66
468.52	287.77
468.88	286.61
469.25	285.56
469.62	284.71
469.98	283.74
470.35	282.81
470.72	281.98
471.08	281.12
471.45	280.30
471.82	279.54
472.18	278.74
472.55	278.13
472.92	277.37
473.28	276.71
473.65	276.05
474.02	275.43
474.38	274.90
474.75	274.44
475.11	273.94
475.48	273.56
475.85	273.23
476.21	272.89
476.58	272.60
476.94	272.35
477.31	272.04
477.67	271.81
478.04	271.66
478.41	271.53
478.77	271.49
479.14	271.35
479.50	271.28
479.87	271.31
480.23	271.33
480.60	271.34
480.96	271.39
481.33	271.59
481.69	271.77
482.06	271.95
482.42	272.12
482.79	272.31
483.15	272.61
483.52	272.95
483.88	273.25
484.25	273.61
484.61	274.01
484.98	274.43
485.34	275.00
485.71	275.57
486.07	276.18
486.44	276.75
486.80	277.50
487.17	278.26
487.53	279.10
487.90	280.00
488.26	280.98
488.62	282.00
488.99	283.00
489.35	284.09
489.72	285.26
490.08	286.54
490.44	287.87
490.81	289.25
491.17	290.68
491.54	292.25
491.90	293.85
492.26	295.59
492.63	297.44
492.99	299.32
493.36	301.35
493.72	303.54
494.08	305.75
494.45	308.14
494.81	310.66
495.17	313.21
495.54	315.91
495.90	318.73
496.26	321.73
496.63	324.82
496.99	328.09
497.35	331.52
497.72	335.13
498.08	338.84
498.44	342.75
498.80	346.89
499.17	351.20
499.53	355.64
499.89	360.28
500.26	365.08
500.62	370.02
500.98	375.27
501.34	380.57
501.71	386.25
502.07	392.00
502.43	397.94
502.79	404.16
503.16	410.67
503.52	417.38
503.88	424.13
504.24	431.24
504.60	438.49
504.97	446.12
505.33	453.86
505.69	462.09
506.05	470.36
506.41	478.79
506.78	487.46
507.14	496.49
507.50	505.73
507.86	515.35
508.22	525.15
508.59	534.99
508.95	545.26
509.31	555.74
509.67	566.56
510.03	577.57
510.39	588.78
510.75	600.29
511.12	611.94
511.48	624.11
511.84	636.43
512.20	648.91
512.56	661.66
512.92	674.72
513.28	688.01
513.64	701.47
514.00	715.21
514.37	729.16
514.73	743.19
515.09	757.37
515.45	771.77
515.81	786.47
516.17	801.50
516.53	816.86
516.89	832.22
517.25	847.57
517.61	863.26
517.97	879.02
518.33	894.62
518.69	910.70
519.05	926.97
519.41	943.40
519.77	960.31
520.13	977.18
520.49	994.09
520.85	1010.87
521.21	1027.97
521.57	1045.71
521.93	1062.96
522.29	1080.94
522.65	1098.75
523.01	1116.50
523.37	1134.20
523.73	1152.16
524.09	1169.84
524.45	1187.82
524.81	1206.18
525.17	1224.67
525.53	1243.36
525.89	1262.16
526.25	1280.80
526.61	1299.03
526.97	1317.62
527.33	1335.86
527.68	1354.38
528.04	1372.62
528.40	1390.97
528.76	1410.05
529.12	1428.50
529.48	1447.44
529.84	1465.35
530.20	1483.93
530.56	1502.96
530.91	1522.43
531.27	1541.27
531.63	1559.80
531.99	1578.50
532.35	1596.46
532.71	1614.46
533.07	1632.72
533.42	1650.75
533.78	1668.91
534.14	1687.28
534.50	1704.85
534.86	1722.97
535.21	1740.31
535.57	1758.67
535.93	1776.54
536.29	1793.54
536.65	1810.80
537.00	1827.66
537.36	1845.37
537.72	1862.02
538.08	1878.72
538.44	1894.65
538.79	1910.64
539.15	1926.51
539.51	1942.43
539.87	1959.20
540.22	1975.12
540.58	1991.35
540.94	2006.93
541.29	2022.20
541.65	2037.34
542.01	2052.91
542.37	2067.49
542.72	2082.22
543.08	2096.18
543.44	2110.91
543.79	2124.48
544.15	2137.84
544.51	2151.73
544.87	2164.74
545.22	2177.90
545.58	2190.48
545.94	2202.44
546.29	2214.67
546.65	2226.84
547.01	2238.34
547.36	2249.08
547.72	2259.88
548.07	2269.74
548.43	2279.97
548.79	2289.90
549.14	2299.54
549.50	2308.73
549.86	2318.36
550.21	2327.79
550.57	2336.94
550.92	2345.57
551.28	2354.57
551.64	2363.62
551.99	2372.24
552.35	2380.45
552.70	2388.64
553.06	2396.54
553.41	2405.01
553.77	2412.79
554.13	2420.66
554.48	2428.79
554.84	2436.38
555.19	2443.24
555.55	2450.43
555.90	2456.64
556.26	2463.55
556.61	2469.94
556.97	2476.17
557.32	2482.05
557.68	2487.89
558.03	2493.94
558.39	2499.11
558.74	2505.58
559.10	2511.23
559.45	2516.48
559.81	2522.50
560.16	2527.67
560.52	2532.43
560.87	2537.21
561.23	2541.37
561.58	2545.74
561.94	2549.58
562.29	2553.05
562.64	2557.25
563.00	2561.07
563.35	2566.18
563.71	2570.55
564.06	2574.94
564.42	2579.14
564.77	2583.13
565.12	2586.76
565.48	2589.93
565.83	2593.27
566.19	2595.75
566.54	2597.44
566.89	2599.63
567.25	2601.18
567.60	2603.68
567.96	2606.38
568.31	2608.20
568.66	2610.38
569.02	2611.94
569.37	2613.10
569.72	2615.02
570.08	2615.96
570.43	2616.63
570.78	2616.74
571.14	2615.71
571.49	2614.97
571.84	2615.32
572.20	2614.76
572.55	2614.07
572.90	2612.95
573.26	2611.95
573.61	2610.52
573.96	2609.41
574.31	2606.74
574.67	2604.04
575.02	2600.71
575.37	2597.59
575.72	2594.03
576.08	2590.68
576.43	2587.47
576.78	2583.83
577.13	2580.70
577.49	2577.70
577.84	2574.45
578.19	2570.74
578.54	2567.45
578.90	2563.40
579.25	2557.51
579.60	2552.32
579.95	2547.05
580.30	2541.76
580.66	2536.31
581.01	2530.98
581.36	2525.67
581.71	2521.19
582.06	2516.39
582.42	2511.65
582.77	2505.92
583.12	2501.02
583.47	2496.09
583.82	2490.79
584.17	2485.30
584.53	2479.28
584.88	2473.20
585.23	2466.99
585.58	2460.89
585.93	2454.77
586.28	2449.59
586.63	2443.98
586.98	2438.51
587.34	2433.35
587.69	2428.01
588.04	2422.21
588.39	2415.93
588.74	2408.70
589.09	2401.94
589.44	2394.46
589.79	2387.60
590.14	2381.40
590.49	2373.98
590.84	2366.76
591.19	2360.06
591.54	2352.78
591.89	2344.70
592.25	2337.17
592.60	2328.99
592.95	2320.45
593.30	2312.11
593.65	2303.42
594.00	2295.37
594.35	2286.91
594.70	2277.64
595.05	2269.47
595.40	2261.14
595.75	2252.66
596.10	2245.63
596.45	2237.95
596.80	2231.00
597.15	2223.43
597.50	2215.31
597.85	2207.94
598.19	2200.28
598.54	2192.15
598.89	2184.44
599.24	2177.75
599.59	2169.92
599.94	2162.66
600.29	2155.30
600.64	2147.71
600.99	2138.92
601.34	2131.05
601.69	2123.18
602.04	2115.48
602.39	2106.82
602.74	2098.82
603.08	2090.99
603.43	2083.10
603.78	2074.51
604.13	2065.87
604.48	2057.39
604.83	2049.37
605.18	2041.28
605.53	2032.05
605.87	2022.66
606.22	2014.25
606.57	2004.61
606.92	1995.97
607.27	1987.52
607.62	1979.45
607.96	1970.78
608.31	1963.20
608.66	1954.31
609.01	1945.33
609.36	1936.32
609.70	1926.91
610.05	1917.46
610.40	1908.38
610.75	1898.53
611.10	1889.59
611.44	1879.78
611.79	1870.49
612.14	1860.15
612.49	1849.19
612.83	1839.19
613.18	1829.49
613.53	1819.94
613.88	1809.99
614.22	1800.28
614.57	1790.12
614.92	1780.62
615.27	1771.72
615.61	1761.78
615.96	1752.22
616.31	1743.07
616.65	1734.46
617.00	1725.51
617.35	1716.44
617.70	1706.69
618.04	1696.78
618.39	1687.01
618.74	1678.03
619.08	1668.10
619.43	1659.27
619.78	1651.19
620.12	1642.73
620.47	1633.88
620.82	1624.15
621.16	1615.39
621.51	1606.31
621.85	1597.29
622.20	1587.16
622.55	1577.32
622.89	1568.09
623.24	1559.07
623.59	1550.41
623.93	1541.44
624.28	1532.97
624.62	1523.97
624.97	1515.34
625.32	1507.22
625.66	1498.91
626.01	1490.39
626.35	1481.63
626.70	1472.38
627.04	1463.35
627.39	1454.15
627.73	1445.37
628.08	1437.19
628.43	1428.64
628.77	1420.02
629.12	1411.05
629.46	1402.65
629.81	1393.73
630.15	1385.24
630.50	1376.53
630.84	1366.84
631.19	1357.46
631.53	1348.54
631.88	1339.72
632.22	1330.80
632.57	1322.23
632.91	1313.27
633.26	1304.49
633.60	1295.80
633.95	1287.39
634.29	1279.01
634.64	1271.04
634.98	1262.39
635.32	1253.99
635.67	1246.02
636.01	1238.15
636.36	1230.29
636.70	1222.54
637.05	1214.97
637.39	1207.34
637.73	1199.73
638.08	1192.78
638.42	1185.69
638.77	1178.11
639.11	1170.43
639.45	1162.88
639.80	1155.02
640.14	1147.56
640.49	1139.96
640.83	1132.58
641.17	1125.20
641.52	1117.75
641.86	1110.24
642.20	1103.32
642.55	1095.87
642.89	1088.34
643.23	1080.67
643.58	1073.82
643.92	1066.58
644.26	1059.53
644.61	1052.35
644.95	1045.27
645.29	1037.65
645.64	1029.78
645.98	1022.39
646.32	1015.44
646.66	1008.42
647.01	1001.73
647.35	995.00
647.69	988.14
648.04	981.64
648.38	975.01
648.72	968.05
649.06	961.06
649.41	954.24
649.75	947.28
650.09	940.42
650.43	933.73
650.78	926.59
651.12	919.70
651.46	912.93
651.80	906.35
652.14	900.10
652.49	893.82
652.83	887.90
653.17	881.32
653.51	874.77
653.85	868.54
654.20	861.96
654.54	854.95
654.88	848.24
655.22	841.29
655.56	834.60
655.90	828.27
656.25	822.14
656.59	815.95
656.93	810.09
657.27	804.12
657.61	797.82
657.95	791.98
658.29	786.11
658.64	780.01
658.98	773.86
659.32	767.51
659.66	761.53
660.00	755.31
660.34	749.51
660.68	743.80
661.02	737.91
661.36	732.43
661.70	727.24
662.05	722.22
662.39	717.29
662.73	712.13
663.07	707.03
663.41	701.83
663.75	696.52
664.09	691.23
664.43	686.08
664.77	681.28
665.11	676.30
665.45	671.51
665.79	666.80
666.13	662.01
666.47	657.27
666.81	652.44
667.15	647.73
667.49	643.19
667.83	638.76
668.17	634.21
668.51	629.47
668.85	624.84
669.19	620.38
669.53	616.00
669.87	611.55
670.21	607.23
670.55	603.02
670.89	599.04
671.23	594.99
671.57	591.00
671.91	586.91
672.25	582.86
672.58	578.77
672.92	574.78
673.26	571.08
673.60	567.42
673.94	563.76
674.28	560.30
674.62	556.91
674.96	553.28
675.30	549.89
675.64	546.53
675.97	543.27
676.31	539.97
676.65	536.54
676.99	533.41
677.33	530.13
677.67	526.89
678.01	523.46
678.34	520.06
678.68	516.66
679.02	513.39
679.36	510.13
679.70	506.97
680.04	503.84
680.37	500.54
680.71	497.29
681.05	494.24
681.39	491.12
681.73	488.02
682.06	485.09
682.40	482.16
682.74	479.26
683.08	476.33
683.42	473.32
683.75	470.39
684.09	467.40
684.43	464.50
684.77	461.61
685.10	458.82
685.44	456.16
685.78	453.49
686.12	450.83
686.45	448.16
686.79	445.43
687.13	442.82
687.46	440.28
687.80	437.76
688.14	435.13
688.48	432.71
688.81	430.14
689.15	427.65
689.49	425.13
689.82	422.61
690.16	420.17
690.50	417.83
690.83	415.56
691.17	413.25
691.51	410.98
691.84	408.87
692.18	406.64
692.52	404.30
692.85	402.08
693.19	399.89
693.52	397.79
693.86	395.72
694.20	393.61
694.53	391.49
694.87	389.33
695.21	387.32
695.54	385.20
695.88	383.16
696.21	381.19
696.55	379.25
696.88	377.34
697.22	375.39
697.56	373.53
697.89	371.62
698.23	369.74
698.56	367.89
698.90	366.05
699.23	364.13
699.57	362.35
699.90	360.57
700.24	358.83
700.58	357.08
700.91	355.35
701.25	353.70
701.58	352.11
701.92	350.57
702.25	348.93
702.59	347.36
702.92	345.78
703.26	344.25
703.59	342.74
703.93	341.36
704.26	339.97
704.60	338.44
704.93	336.96
705.26	335.53
705.60	334.16
705.93	332.71
706.27	331.53
706.60	330.29
706.94	328.98
707.27	327.62
707.61	326.34
707.94	325.12
708.27	323.85
708.61	322.61
708.94	321.41
709.28	320.29
709.61	319.11
709.94	318.02
710.28	316.79
710.61	315.63
710.95	314.35
711.28	313.29
711.61	312.23
711.95	311.20
712.28	310.08
712.61	308.96
712.95	307.92
713.28	306.83
713.61	305.82
713.95	304.79
714.28	303.83
714.61	302.83
714.95	301.81
715.28	300.77
715.61	299.75
715.95	298.76
716.28	297.72
716.61	296.74
716.95	295.78
717.28	294.91
717.61	294.02
717.94	293.21
718.28	292.23
718.61	291.36
718.94	290.53
719.27	289.77
719.61	289.02
719.94	288.25
720.27	287.44
720.60	286.65
720.94	285.92
721.27	285.18
721.60	284.50
721.93	283.82
722.27	283.22
722.60	282.57
722.93	281.91
723.26	281.31
723.59	280.68
723.93	280.02
724.26	279.41
724.59	278.77
724.92	278.14
725.25	277.56
725.59	276.96
725.92	276.37
726.25	275.73
726.58	275.15
726.91	274.59
727.24	274.06
727.57	273.48
727.91	272.85
728.24	272.33
728.57	271.73
728.90	271.22
729.23	270.63
729.56	270.11
729.89	269.55
730.22	268.97
730.55	268.46
730.89	268.01
731.22	267.48
731.55	266.97
731.88	266.47
732.21	265.98
732.54	265.47
732.87	265.00
733.20	264.52
733.53	264.07
733.86	263.65
734.19	263.16
734.52	262.74
734.85	262.42
735.18	261.91
735.51	261.52
735.84	261.10
736.17	260.70
736.50	260.28
736.83	260.00
737.16	259.61
737.49	259.23
737.82	258.81
738.15	258.42
738.48	258.04
738.81	257.61
739.14	257.26
739.47	256.91
739.80	256.54
740.13	256.20
740.46	255.83
740.79	255.43
741.12	255.11
741.45	254.75
741.78	254.35
742.11	254.05
742.44	253.69
742.77	253.35
743.10	253.01
743.43	252.65
743.75	252.23
744.08	252.06
744.41	251.70
744.74	251.35
745.07	251.00
745.40	250.71
745.73	250.45
746.06	250.08
746.39	249.75
746.71	249.41
747.04	249.09
747.37	248.75
747.70	248.44
748.03	248.17
748.36	247.89
748.68	247.59
749.01	247.31
749.34	247.04
749.67	246.81
750.00	246.51
750.33	246.29
750.65	246.03
750.98	245.65
751.31	245.41
751.64	245.21
751.97	245.04
752.29	244.77
752.62	244.50
752.95	244.28
753.28	244.04
753.60	243.80
753.93	243.58
754.26	243.38
754.59	243.15
754.91	242.87
755.24	242.60
755.57	242.38
755.90	242.15
756.22	241.94
756.55	241.67
756.88	241.43
757.20	241.15
757.53	240.94
757.86	240.78
758.19	240.61
758.51	240.41
758.84	240.16
759.17	239.94
759.49	239.77
759.82	239.62
760.15	239.44
760.47	239.27
760.80	239.08
761.13	238.91
761.45	238.71
761.78	238.57
762.11	238.39
762.43	238.23
762.76	238.07
763.08	237.90
763.41	237.77
763.74	237.65
764.06	237.51
764.39	237.38
764.71	237.20
765.04	237.01
765.37	236.84
765.69	236.66
766.02	236.54
766.34	236.39
766.67	236.24
767.00	236.10
767.32	236.05
767.65	235.97
767.97	235.84
768.30	235.74
768.62	235.60
768.95	235.50
769.27	235.39
769.60	235.26
769.92	235.15
770.25	235.01
770.57	234.86
770.90	234.73
771.22	234.57
771.55	234.47
771.87	234.37
772.20	234.25
772.52	234.28
772.85	234.27
773.17	234.17
773.50	234.03
773.82	233.95
774.15	233.76
774.47	233.64
774.80	233.56
775.12	233.47
775.45	233.37
775.77	233.26
776.09	233.18
776.42	233.09
776.74	233.02
777.07	232.91
777.39	232.82
777.72	232.75
778.04	232.70
778.36	232.61
778.69	232.54
779.01	232.50
779.33	232.32
779.66	232.17
779.98	232.06
780.31	232.01
780.63	231.96
780.95	231.93
781.28	231.82
781.60	231.73
781.92	231.66
782.25	231.60
782.57	231.52
782.89	231.44
783.22	231.38
783.54	231.29
783.86	231.25
784.19	231.18
784.51	231.14
784.83	231.03
785.16	230.97
785.48	230.94
785.80	230.84
786.12	230.81
786.45	230.74
