SpectraSuite Data File
++++++++++++++++++++++++++++++++++++
Date: Fri Feb 01 16:55:21 EST 2013
User: group
Dark Spectrum Present: No
Reference Spectrum Present: No
Number of Sampled Component Spectra: 1
Spectrometers: USB2E7196
Integration Time (usec): 35000 (USB2E7196)
Spectra Averaged: 100 (USB2E7196)
Boxcar Smoothing: 10 (USB2E7196)
Correct for Electrical Dark: No (USB2E7196)
Strobe/Lamp Enabled: No (USB2E7196)
Correct for Detector Non-linearity: No (USB2E7196)
Correct for Stray Light: No (USB2E7196)
Number of Pixels in Processed Spectrum: 2048
>>>>>Begin Processed Spectral Data<<<<<
339.09	0.00
339.48	213.48
339.86	214.42
340.24	216.00
340.63	217.30
341.01	220.23
341.39	220.50
341.78	221.76
342.16	222.74
342.54	223.15
342.93	211.74
343.31	222.43
343.69	222.99
344.07	223.46
344.46	223.88
344.84	224.28
345.22	224.50
345.60	224.77
345.99	224.96
346.37	225.09
346.75	225.19
347.13	225.25
347.52	225.29
347.90	225.35
348.28	225.36
348.66	225.42
349.05	225.40
349.43	225.43
349.81	225.50
350.19	225.55
350.57	225.60
350.96	225.67
351.34	225.78
351.72	225.86
352.10	225.97
352.48	226.05
352.87	226.11
353.25	226.22
353.63	226.25
354.01	226.29
354.39	226.38
354.77	226.46
355.15	226.56
355.54	226.67
355.92	226.68
356.30	226.74
356.68	226.88
357.06	226.99
357.44	227.03
357.82	227.05
358.20	227.11
358.58	227.20
358.97	227.24
359.35	227.30
359.73	227.35
360.11	227.39
360.49	227.47
360.87	227.50
361.25	227.54
361.63	227.62
362.01	227.70
362.39	227.74
362.77	227.79
363.15	227.83
363.53	227.85
363.91	227.90
364.29	227.92
364.67	227.85
365.05	227.85
365.43	227.88
365.81	227.93
366.19	228.01
366.57	228.02
366.95	228.06
367.33	228.05
367.71	228.08
368.09	228.10
368.47	228.06
368.85	228.07
369.23	228.08
369.61	228.04
369.99	228.03
370.37	228.00
370.75	228.02
371.13	227.96
371.51	227.91
371.89	227.90
372.27	227.87
372.65	227.84
373.03	227.81
373.41	227.81
373.78	227.74
374.16	227.62
374.54	227.56
374.92	227.47
375.30	227.39
375.68	227.28
376.06	227.23
376.44	227.17
376.82	227.13
377.19	227.03
377.57	226.92
377.95	226.82
378.33	226.74
378.71	226.61
379.09	226.57
379.47	226.53
379.84	226.42
380.22	226.34
380.60	226.26
380.98	226.14
381.36	226.04
381.73	225.97
382.11	225.93
382.49	225.87
382.87	225.78
383.25	225.73
383.62	225.79
384.00	225.69
384.38	225.62
384.76	225.56
385.13	225.55
385.51	225.54
385.89	225.47
386.27	225.46
386.64	225.42
387.02	225.36
387.40	225.31
387.78	225.27
388.15	225.25
388.53	225.22
388.91	225.22
389.29	225.17
389.66	225.19
390.04	225.13
390.42	225.13
390.79	225.13
391.17	225.09
391.55	224.95
391.92	224.97
392.30	224.97
392.68	224.94
393.05	224.92
393.43	224.93
393.81	224.91
394.18	224.89
394.56	224.91
394.94	224.93
395.31	224.94
395.69	224.99
396.06	225.02
396.44	225.04
396.82	225.03
397.19	225.11
397.57	225.09
397.95	225.14
398.32	225.13
398.70	225.18
399.07	225.25
399.45	225.30
399.82	225.33
400.20	225.37
400.58	225.43
400.95	225.49
401.33	225.53
401.70	225.68
402.08	225.77
402.45	225.85
402.83	225.95
403.20	226.05
403.58	226.13
403.95	226.23
404.33	226.33
404.71	226.48
405.08	226.67
405.46	226.80
405.83	226.95
406.21	227.09
406.58	227.24
406.96	227.40
407.33	227.57
407.70	227.76
408.08	228.01
408.45	228.20
408.83	228.41
409.20	228.64
409.58	228.79
409.95	229.02
410.33	229.27
410.70	229.48
411.08	229.76
411.45	230.07
411.82	230.38
412.20	230.74
412.57	231.14
412.95	231.40
413.32	231.84
413.69	232.25
414.07	232.71
414.44	233.19
414.82	233.65
415.19	234.21
415.56	234.75
415.94	235.31
416.31	235.94
416.68	236.59
417.06	237.30
417.43	238.02
417.81	238.79
418.18	239.58
418.55	240.43
418.93	241.31
419.30	242.23
419.67	243.13
420.04	244.09
420.42	245.08
420.79	246.26
421.16	247.37
421.54	248.56
421.91	249.74
422.28	250.98
422.66	252.34
423.03	253.63
423.40	254.97
423.77	256.37
424.15	257.82
424.52	259.27
424.89	260.85
425.26	262.41
425.64	263.87
426.01	265.45
426.38	267.12
426.75	268.79
427.13	270.44
427.50	272.27
427.87	274.12
428.24	275.97
428.61	277.69
428.99	279.65
429.36	281.71
429.73	283.74
430.10	285.77
430.47	287.81
430.85	289.95
431.22	292.15
431.59	294.50
431.96	296.72
432.33	299.22
432.70	301.59
433.08	304.40
433.45	307.02
433.82	309.62
434.19	312.45
434.56	315.27
434.93	317.92
435.30	320.51
435.68	323.38
436.05	326.13
436.42	328.86
436.79	331.31
437.16	333.99
437.53	336.80
437.90	339.56
438.27	342.24
438.64	345.01
439.01	347.61
439.38	349.85
439.75	351.95
440.13	354.41
440.50	356.68
440.87	358.47
441.24	360.39
441.61	362.47
441.98	364.00
442.35	365.76
442.72	367.65
443.09	369.47
443.46	370.47
443.83	371.12
444.20	371.69
444.57	372.54
444.94	372.82
445.31	373.17
445.68	373.59
446.05	373.71
446.42	373.35
446.79	372.93
447.16	372.54
447.53	372.27
447.90	371.13
448.27	370.01
448.64	368.44
449.01	367.36
449.37	365.44
449.74	363.50
450.11	361.28
450.48	358.83
450.85	356.33
451.22	354.23
451.59	352.22
451.96	350.31
452.33	347.76
452.70	345.44
453.07	342.65
453.43	339.71
453.80	336.96
454.17	334.33
454.54	331.82
454.91	329.08
455.28	326.43
455.65	323.96
456.02	321.52
456.38	319.43
456.75	316.67
457.12	314.43
457.49	312.26
457.86	310.12
458.23	308.23
458.59	306.15
458.96	304.05
459.33	302.18
459.70	300.36
460.07	298.85
460.43	297.15
460.80	295.48
461.17	294.05
461.54	292.53
461.91	291.09
462.27	289.65
462.64	288.43
463.01	287.08
463.38	285.78
463.74	284.45
464.11	283.28
464.48	282.34
464.85	281.29
465.21	280.45
465.58	279.53
465.95	278.43
466.32	277.56
466.68	276.70
467.05	275.81
467.42	274.91
467.78	274.01
468.15	273.17
468.52	272.59
468.88	271.75
469.25	271.01
469.62	270.42
469.98	269.74
470.35	269.13
470.72	268.58
471.08	267.97
471.45	267.42
471.82	266.85
472.18	266.23
472.55	265.79
472.92	265.27
473.28	264.80
473.65	264.42
474.02	264.01
474.38	263.64
474.75	263.37
475.11	263.01
475.48	262.73
475.85	262.47
476.21	262.24
476.58	262.06
476.94	261.94
477.31	261.75
477.67	261.62
478.04	261.51
478.41	261.42
478.77	261.44
479.14	261.40
479.50	261.47
479.87	261.57
480.23	261.65
480.60	261.73
480.96	261.87
481.33	262.09
481.69	262.26
482.06	262.46
482.42	262.66
482.79	262.92
483.15	263.26
483.52	263.63
483.88	264.01
484.25	264.42
484.61	264.83
484.98	265.32
485.34	265.86
485.71	266.40
486.07	267.00
486.44	267.59
486.80	268.33
487.17	269.08
487.53	269.86
487.90	270.73
488.26	271.68
488.62	272.64
488.99	273.65
489.35	274.71
489.72	275.82
490.08	277.01
490.44	278.25
490.81	279.60
491.17	280.99
491.54	282.50
491.90	284.05
492.26	285.71
492.63	287.45
492.99	289.25
493.36	291.18
493.72	293.26
494.08	295.41
494.45	297.58
494.81	299.96
495.17	302.44
495.54	304.97
495.90	307.64
496.26	310.46
496.63	313.40
496.99	316.51
497.35	319.80
497.72	323.24
498.08	326.77
498.44	330.42
498.80	334.35
499.17	338.33
499.53	342.47
499.89	346.83
500.26	351.30
500.62	355.96
500.98	360.93
501.34	365.98
501.71	371.19
502.07	376.61
502.43	382.14
502.79	387.91
503.16	393.93
503.52	400.17
503.88	406.51
504.24	413.10
504.60	419.88
504.97	426.91
505.33	434.16
505.69	441.84
506.05	449.58
506.41	457.41
506.78	465.52
507.14	473.95
507.50	482.58
507.86	491.53
508.22	500.62
508.59	509.73
508.95	519.23
509.31	528.98
509.67	539.01
510.03	549.17
510.39	559.60
510.75	570.34
511.12	581.16
511.48	592.39
511.84	603.71
512.20	615.16
512.56	626.99
512.92	638.96
513.28	651.17
513.64	663.52
514.00	676.05
514.37	688.80
514.73	701.66
515.09	714.48
515.45	727.66
515.81	741.12
516.17	754.83
516.53	768.72
516.89	782.72
517.25	796.71
517.61	811.00
517.97	825.28
518.33	839.49
518.69	854.06
519.05	868.77
519.41	883.73
519.77	899.03
520.13	914.33
520.49	929.50
520.85	944.59
521.21	960.05
521.57	975.99
521.93	991.54
522.29	1007.69
522.65	1023.82
523.01	1039.74
523.37	1055.50
523.73	1071.48
524.09	1087.39
524.45	1103.45
524.81	1119.84
525.17	1136.29
525.53	1152.89
525.89	1169.47
526.25	1186.18
526.61	1202.29
526.97	1218.80
527.33	1235.04
527.68	1251.34
528.04	1267.56
528.40	1283.86
528.76	1300.59
529.12	1316.92
529.48	1333.53
529.84	1349.28
530.20	1365.58
530.56	1382.25
530.91	1399.45
531.27	1415.98
531.63	1432.23
531.99	1448.47
532.35	1464.23
532.71	1479.94
533.07	1495.97
533.42	1511.67
533.78	1527.37
534.14	1543.35
534.50	1558.26
534.86	1573.74
535.21	1588.57
535.57	1604.25
535.93	1619.50
536.29	1633.96
536.65	1648.66
537.00	1663.11
537.36	1678.29
537.72	1692.51
538.08	1706.74
538.44	1720.18
538.79	1733.85
539.15	1747.11
539.51	1760.64
539.87	1774.59
540.22	1788.04
540.58	1801.50
540.94	1814.50
541.29	1826.97
541.65	1839.45
542.01	1852.56
542.37	1864.62
542.72	1876.88
543.08	1888.41
543.44	1900.63
543.79	1911.79
544.15	1922.66
544.51	1933.99
544.87	1944.60
545.22	1955.32
545.58	1965.28
545.94	1974.83
546.29	1984.46
546.65	1994.27
547.01	2003.47
547.36	2012.12
547.72	2020.56
548.07	2028.35
548.43	2036.40
548.79	2044.27
549.14	2051.86
549.50	2058.97
549.86	2066.56
550.21	2073.81
550.57	2080.93
550.92	2087.50
551.28	2094.51
551.64	2101.48
551.99	2108.11
552.35	2114.23
552.70	2120.18
553.06	2126.20
553.41	2132.71
553.77	2138.67
554.13	2144.72
554.48	2150.73
554.84	2156.43
555.19	2161.55
555.55	2166.70
555.90	2171.13
556.26	2176.16
556.61	2180.74
556.97	2185.33
557.32	2189.69
557.68	2193.97
558.03	2198.23
558.39	2201.91
558.74	2206.58
559.10	2210.63
559.45	2214.14
559.81	2218.31
560.16	2222.37
560.52	2225.72
560.87	2229.09
561.23	2231.94
561.58	2234.85
561.94	2237.41
562.29	2239.62
562.64	2242.42
563.00	2245.09
563.35	2248.85
563.71	2251.98
564.06	2255.22
564.42	2258.13
564.77	2260.75
565.12	2263.14
565.48	2265.18
565.83	2267.23
566.19	2268.72
566.54	2269.67
566.89	2271.25
567.25	2272.14
567.60	2273.46
567.96	2275.26
568.31	2276.22
568.66	2277.53
569.02	2278.21
569.37	2278.90
569.72	2280.06
570.08	2280.44
570.43	2280.66
570.78	2280.16
571.14	2278.80
571.49	2277.59
571.84	2277.32
572.20	2276.30
572.55	2275.25
572.90	2273.82
573.26	2272.65
573.61	2270.92
573.96	2269.33
574.31	2266.42
574.67	2263.55
575.02	2260.12
575.37	2256.76
575.72	2253.10
576.08	2249.58
576.43	2246.42
576.78	2243.01
577.13	2239.70
577.49	2236.74
577.84	2233.48
578.19	2229.90
578.54	2226.67
578.90	2222.81
579.25	2217.50
579.60	2212.84
579.95	2208.10
580.30	2203.30
580.66	2198.21
581.01	2193.53
581.36	2188.81
581.71	2184.85
582.06	2180.65
582.42	2176.35
582.77	2171.43
583.12	2167.14
583.47	2162.97
583.82	2158.38
584.17	2153.15
584.53	2148.00
584.88	2142.53
585.23	2136.89
585.58	2131.55
585.93	2126.16
586.28	2121.44
586.63	2116.44
586.98	2111.47
587.34	2106.85
587.69	2101.96
588.04	2096.94
588.39	2091.35
588.74	2085.02
589.09	2079.04
589.44	2072.45
589.79	2066.51
590.14	2060.96
590.49	2054.39
590.84	2047.94
591.19	2041.89
591.54	2035.59
591.89	2028.56
592.25	2021.87
592.60	2014.79
592.95	2007.47
593.30	2000.22
593.65	1992.76
594.00	1985.92
594.35	1978.80
594.70	1970.93
595.05	1964.19
595.40	1956.98
595.75	1949.64
596.10	1943.62
596.45	1937.05
596.80	1931.02
597.15	1924.63
597.50	1917.82
597.85	1911.62
598.19	1905.13
598.54	1898.29
598.89	1891.71
599.24	1885.80
599.59	1879.49
599.94	1873.37
600.29	1867.12
600.64	1860.55
600.99	1853.38
601.34	1846.69
601.69	1839.73
602.04	1833.05
602.39	1825.73
602.74	1819.06
603.08	1812.53
603.43	1805.82
603.78	1798.60
604.13	1791.35
604.48	1784.25
604.83	1777.51
605.18	1770.69
605.53	1762.99
605.87	1755.04
606.22	1747.88
606.57	1739.93
606.92	1732.53
607.27	1725.56
607.62	1718.83
607.96	1711.80
608.31	1705.33
608.66	1697.89
609.01	1690.56
609.36	1683.13
609.70	1675.24
610.05	1667.29
610.40	1659.64
610.75	1651.46
611.10	1643.89
611.44	1635.56
611.79	1627.56
612.14	1618.86
612.49	1609.69
612.83	1601.23
613.18	1593.07
613.53	1585.21
613.88	1576.80
614.22	1568.64
614.57	1559.98
614.92	1551.96
615.27	1544.59
615.61	1536.28
615.96	1528.16
616.31	1520.46
616.65	1513.04
617.00	1505.45
617.35	1497.73
617.70	1489.51
618.04	1481.09
618.39	1472.75
618.74	1465.31
619.08	1456.94
619.43	1449.43
619.78	1442.52
620.12	1435.46
620.47	1428.10
620.82	1419.78
621.16	1412.34
621.51	1404.61
621.85	1396.97
622.20	1388.54
622.55	1380.01
622.89	1372.20
623.24	1364.54
623.59	1357.12
623.93	1349.60
624.28	1342.41
624.62	1335.01
624.97	1327.79
625.32	1320.96
625.66	1313.95
626.01	1306.77
626.35	1299.51
626.70	1291.82
627.04	1284.33
627.39	1276.47
627.73	1268.95
628.08	1262.10
628.43	1254.88
628.77	1247.65
629.12	1240.27
629.46	1232.98
629.81	1225.50
630.15	1218.23
630.50	1210.95
630.84	1202.91
631.19	1194.88
631.53	1187.36
631.88	1179.74
632.22	1172.21
632.57	1164.89
632.91	1157.36
633.26	1149.98
633.60	1142.51
633.95	1135.27
634.29	1128.10
634.64	1121.37
634.98	1114.16
635.32	1107.03
635.67	1100.36
636.01	1093.69
636.36	1086.84
636.70	1080.36
637.05	1073.93
637.39	1067.46
637.73	1060.91
638.08	1054.92
638.42	1049.00
638.77	1042.58
639.11	1036.05
639.45	1029.61
639.80	1023.01
640.14	1016.69
640.49	1010.25
640.83	1004.00
641.17	997.82
641.52	991.51
641.86	985.10
642.20	979.24
642.55	972.88
642.89	966.52
643.23	960.03
643.58	954.28
643.92	948.12
644.26	942.09
644.61	935.96
644.95	929.99
645.29	923.54
645.64	916.89
645.98	910.52
646.32	904.63
646.66	898.62
647.01	892.79
647.35	887.04
647.69	881.13
648.04	875.66
648.38	869.94
648.72	864.02
649.06	858.08
649.41	852.15
649.75	846.30
650.09	840.34
650.43	834.51
650.78	828.42
651.12	822.46
651.46	816.69
651.80	811.10
652.14	805.75
652.49	800.32
652.83	795.13
653.17	789.55
653.51	783.91
653.85	778.46
654.20	772.92
654.54	766.93
654.88	761.12
655.22	755.15
655.56	749.42
655.90	743.86
656.25	738.55
656.59	733.23
656.93	728.08
657.27	722.97
657.61	717.50
657.95	712.34
658.29	707.37
658.64	702.17
658.98	696.77
659.32	691.30
659.66	686.13
660.00	680.85
660.34	675.94
660.68	671.06
661.02	666.08
661.36	661.42
661.70	656.98
662.05	652.74
662.39	648.51
662.73	644.09
663.07	639.75
663.41	635.36
663.75	630.86
664.09	626.30
664.43	621.86
664.77	617.90
665.11	613.67
665.45	609.45
665.79	605.37
666.13	601.32
666.47	597.23
666.81	593.10
667.15	589.03
667.49	585.08
667.83	581.14
668.17	577.24
668.51	573.18
668.85	569.11
669.19	565.21
669.53	561.38
669.87	557.58
670.21	553.92
670.55	550.22
670.89	546.83
671.23	543.43
671.57	539.96
671.91	536.35
672.25	532.87
672.58	529.31
672.92	525.86
673.26	522.72
673.60	519.53
673.94	516.45
674.28	513.47
674.62	510.52
674.96	507.55
675.30	504.66
675.64	501.70
675.97	498.94
676.31	496.15
676.65	493.16
676.99	490.41
677.33	487.52
677.67	484.78
678.01	481.75
678.34	478.83
678.68	475.93
679.02	473.21
679.36	470.36
679.70	467.67
680.04	464.94
680.37	462.10
680.71	459.31
681.05	456.70
681.39	453.95
681.73	451.30
682.06	448.75
682.40	446.17
682.74	443.59
683.08	441.05
683.42	438.40
683.75	435.96
684.09	433.35
684.43	430.88
684.77	428.34
685.10	425.96
685.44	423.61
685.78	421.32
686.12	419.01
686.45	416.79
686.79	414.52
687.13	412.38
687.46	410.13
687.80	407.97
688.14	405.68
688.48	403.70
688.81	401.49
689.15	399.33
689.49	397.17
689.82	395.21
690.16	393.10
690.50	391.13
690.83	389.18
691.17	387.23
691.51	385.32
691.84	383.53
692.18	381.68
692.52	379.76
692.85	377.78
693.19	375.86
693.52	374.03
693.86	372.20
694.20	370.36
694.53	368.61
694.87	366.78
695.21	365.02
695.54	363.17
695.88	361.42
696.21	359.69
696.55	358.04
696.88	356.30
697.22	354.64
697.56	353.04
697.89	351.41
698.23	349.84
698.56	348.28
698.90	346.70
699.23	345.03
699.57	343.45
699.90	341.93
700.24	340.42
700.58	338.89
700.91	337.40
701.25	335.96
701.58	334.60
701.92	333.27
702.25	331.86
702.59	330.51
702.92	329.21
703.26	327.90
703.59	326.63
703.93	325.46
704.26	324.29
704.60	322.98
704.93	321.70
705.26	320.44
705.60	319.24
705.93	318.03
706.27	317.00
706.60	315.93
706.94	314.84
707.27	313.70
707.61	312.57
707.94	311.55
708.27	310.45
708.61	309.33
708.94	308.29
709.28	307.37
709.61	306.37
709.94	305.41
710.28	304.40
710.61	303.39
710.95	302.31
711.28	301.33
711.61	300.40
711.95	299.51
712.28	298.55
712.61	297.54
712.95	296.62
713.28	295.70
713.61	294.81
713.95	293.94
714.28	293.15
714.61	292.33
714.95	291.48
715.28	290.64
715.61	289.78
715.95	288.92
716.28	288.00
716.61	287.20
716.95	286.35
717.28	285.60
717.61	284.87
717.94	284.15
718.28	283.36
718.61	282.58
718.94	281.84
719.27	281.17
719.61	280.54
719.94	279.89
720.27	279.16
720.60	278.52
720.94	277.91
721.27	277.29
721.60	276.69
721.93	276.13
722.27	275.58
722.60	275.05
722.93	274.45
723.26	273.94
723.59	273.34
723.93	272.80
724.26	272.24
724.59	271.63
724.92	271.07
725.25	270.57
725.59	270.07
725.92	269.60
726.25	269.08
726.58	268.59
726.91	268.10
727.24	267.66
727.57	267.15
727.91	266.62
728.24	266.13
728.57	265.64
728.90	265.16
729.23	264.67
729.56	264.25
729.89	263.80
730.22	263.34
730.55	262.89
730.89	262.47
731.22	262.01
731.55	261.61
731.88	261.18
732.21	260.75
732.54	260.30
732.87	259.86
733.20	259.46
733.53	259.03
733.86	258.65
734.19	258.23
734.52	257.88
734.85	257.56
735.18	257.17
735.51	256.83
735.84	256.44
736.17	256.09
736.50	255.68
736.83	255.45
737.16	255.10
737.49	254.76
737.82	254.44
738.15	254.11
738.48	253.74
738.81	253.41
739.14	253.07
739.47	252.79
739.80	252.46
740.13	252.20
740.46	251.90
740.79	251.54
741.12	251.22
741.45	250.92
741.78	250.63
742.11	250.35
742.44	249.99
742.77	249.74
743.10	249.43
743.43	249.13
743.75	248.77
744.08	248.61
744.41	248.36
744.74	248.03
745.07	247.77
745.40	247.57
745.73	247.32
746.06	247.07
746.39	246.80
746.71	246.57
747.04	246.26
747.37	246.00
747.70	245.81
748.03	245.60
748.36	245.36
748.68	245.08
749.01	244.84
749.34	244.64
749.67	244.38
750.00	244.16
750.33	244.02
750.65	243.78
750.98	243.43
751.31	243.19
751.64	243.00
751.97	242.86
752.29	242.62
752.62	242.37
752.95	242.17
753.28	241.98
753.60	241.76
753.93	241.58
754.26	241.38
754.59	241.14
754.91	240.92
755.24	240.69
755.57	240.46
755.90	240.28
756.22	240.07
756.55	239.84
756.88	239.66
757.20	239.41
757.53	239.21
757.86	239.04
758.19	238.88
758.51	238.71
758.84	238.47
759.17	238.30
759.49	238.19
759.82	238.05
760.15	237.88
760.47	237.72
760.80	237.54
761.13	237.42
761.45	237.27
761.78	237.12
762.11	237.00
762.43	236.86
762.76	236.71
763.08	236.60
763.41	236.53
763.74	236.37
764.06	236.22
764.39	236.09
764.71	235.97
765.04	235.80
765.37	235.68
765.69	235.52
766.02	235.40
766.34	235.24
766.67	235.09
767.00	235.01
767.32	234.96
767.65	234.89
767.97	234.73
768.30	234.60
768.62	234.48
768.95	234.35
769.27	234.24
769.60	234.15
769.92	234.03
770.25	233.89
770.57	233.80
770.90	233.71
771.22	233.61
771.55	233.49
771.87	233.47
772.20	233.33
772.52	233.36
772.85	233.37
773.17	233.26
773.50	233.14
773.82	233.04
774.15	232.88
774.47	232.74
774.80	232.68
775.12	232.62
775.45	232.57
775.77	232.49
776.09	232.45
776.42	232.34
776.74	232.28
777.07	232.20
777.39	232.09
777.72	232.04
778.04	232.01
778.36	231.96
778.69	231.84
779.01	231.81
779.33	231.67
779.66	231.47
779.98	231.43
780.31	231.37
780.63	231.35
780.95	231.33
781.28	231.28
781.60	231.21
781.92	231.15
782.25	231.09
782.57	231.03
782.89	230.94
783.22	230.92
783.54	230.86
783.86	230.81
784.19	230.77
784.51	230.70
784.83	230.59
785.16	230.50
785.48	230.47
785.80	230.42
786.12	230.39
786.45	230.35
786.77	230.30
787.09	230.29
