SpectraSuite Data File
++++++++++++++++++++++++++++++++++++
Date: Fri Feb 01 15:34:36 EST 2013
User: group
Dark Spectrum Present: No
Reference Spectrum Present: No
Number of Sampled Component Spectra: 1
Spectrometers: USB2E7196
Integration Time (usec): 35000 (USB2E7196)
Spectra Averaged: 100 (USB2E7196)
Boxcar Smoothing: 10 (USB2E7196)
Correct for Electrical Dark: No (USB2E7196)
Strobe/Lamp Enabled: No (USB2E7196)
Correct for Detector Non-linearity: No (USB2E7196)
Correct for Stray Light: No (USB2E7196)
Number of Pixels in Processed Spectrum: 2048
>>>>>Begin Processed Spectral Data<<<<<
339.09	0.00
339.48	215.11
339.86	216.20
340.24	217.86
340.63	218.54
341.01	221.56
341.39	221.57
341.78	222.88
342.16	224.79
342.54	224.80
342.93	213.16
343.31	223.92
343.69	224.45
344.07	224.92
344.46	225.35
344.84	225.78
345.22	226.05
345.60	226.33
345.99	226.53
346.37	226.67
346.75	226.80
347.13	226.87
347.52	226.94
347.90	227.04
348.28	227.10
348.66	227.12
349.05	227.11
349.43	227.17
349.81	227.20
350.19	227.23
350.57	227.26
350.96	227.32
351.34	227.41
351.72	227.47
352.10	227.55
352.48	227.60
352.87	227.62
353.25	227.64
353.63	227.66
354.01	227.71
354.39	227.77
354.77	227.84
355.15	227.92
355.54	227.96
355.92	227.99
356.30	228.03
356.68	228.19
357.06	228.27
357.44	228.31
357.82	228.37
358.20	228.45
358.58	228.52
358.97	228.60
359.35	228.68
359.73	228.76
360.11	228.80
360.49	228.87
360.87	228.93
361.25	229.00
361.63	229.08
362.01	229.13
362.39	229.14
362.77	229.20
363.15	229.21
363.53	229.23
363.91	229.26
364.29	229.30
364.67	229.22
365.05	229.25
365.43	229.30
365.81	229.34
366.19	229.35
366.57	229.36
366.95	229.34
367.33	229.29
367.71	229.30
368.09	229.30
368.47	229.25
368.85	229.23
369.23	229.26
369.61	229.20
369.99	229.21
370.37	229.19
370.75	229.17
371.13	229.09
371.51	229.05
371.89	229.01
372.27	228.96
372.65	228.90
373.03	228.86
373.41	228.77
373.78	228.73
374.16	228.66
374.54	228.61
374.92	228.59
375.30	228.53
375.68	228.44
376.06	228.40
376.44	228.34
376.82	228.29
377.19	228.19
377.57	228.11
377.95	228.00
378.33	227.92
378.71	227.78
379.09	227.77
379.47	227.75
379.84	227.64
380.22	227.58
380.60	227.51
380.98	227.44
381.36	227.35
381.73	227.23
382.11	227.19
382.49	227.13
382.87	227.04
383.25	226.97
383.62	227.04
384.00	226.99
384.38	226.94
384.76	226.90
385.13	226.90
385.51	226.87
385.89	226.82
386.27	226.80
386.64	226.79
387.02	226.69
387.40	226.60
387.78	226.57
388.15	226.50
388.53	226.44
388.91	226.36
389.29	226.32
389.66	226.33
390.04	226.29
390.42	226.26
390.79	226.21
391.17	226.20
391.55	226.05
391.92	226.02
392.30	226.01
392.68	225.97
393.05	225.94
393.43	225.95
393.81	225.95
394.18	225.93
394.56	225.93
394.94	225.99
395.31	226.00
395.69	226.07
396.06	226.15
396.44	226.20
396.82	226.26
397.19	226.36
397.57	226.37
397.95	226.42
398.32	226.44
398.70	226.54
399.07	226.63
399.45	226.71
399.82	226.76
400.20	226.83
400.58	226.92
400.95	226.97
401.33	227.07
401.70	227.25
402.08	227.34
402.45	227.45
402.83	227.57
403.20	227.72
403.58	227.84
403.95	227.96
404.33	228.09
404.71	228.23
405.08	228.39
405.46	228.54
405.83	228.68
406.21	228.85
406.58	229.03
406.96	229.21
407.33	229.36
407.70	229.60
408.08	229.89
408.45	230.12
408.83	230.36
409.20	230.56
409.58	230.72
409.95	231.00
410.33	231.30
410.70	231.53
411.08	231.85
411.45	232.14
411.82	232.44
412.20	232.82
412.57	233.27
412.95	233.58
413.32	234.00
413.69	234.43
414.07	234.85
414.44	235.30
414.82	235.79
415.19	236.36
415.56	236.87
415.94	237.42
416.31	238.08
416.68	238.72
417.06	239.44
417.43	240.13
417.81	240.88
418.18	241.65
418.55	242.50
418.93	243.36
419.30	244.29
419.67	245.27
420.04	246.20
420.42	247.18
420.79	248.40
421.16	249.54
421.54	250.72
421.91	251.96
422.28	253.21
422.66	254.52
423.03	255.81
423.40	257.14
423.77	258.56
424.15	259.95
424.52	261.47
424.89	263.10
425.26	264.64
425.64	266.09
426.01	267.67
426.38	269.32
426.75	270.96
427.13	272.65
427.50	274.39
427.87	276.29
428.24	278.15
428.61	279.85
428.99	281.80
429.36	283.91
429.73	285.96
430.10	287.98
430.47	290.04
430.85	292.16
431.22	294.41
431.59	296.78
431.96	299.06
432.33	301.48
432.70	303.87
433.08	306.68
433.45	309.29
433.82	311.90
434.19	314.82
434.56	317.66
434.93	320.31
435.30	322.92
435.68	325.76
436.05	328.57
436.42	331.36
436.79	333.89
437.16	336.62
437.53	339.47
437.90	342.31
438.27	345.08
438.64	347.95
439.01	350.56
439.38	352.78
439.75	354.91
440.13	357.43
440.50	359.75
440.87	361.63
441.24	363.62
441.61	365.75
441.98	367.21
442.35	369.00
442.72	370.88
443.09	372.70
443.46	373.74
443.83	374.30
444.20	374.82
444.57	375.64
444.94	375.90
445.31	376.20
445.68	376.53
446.05	376.55
446.42	376.12
446.79	375.72
447.16	375.28
447.53	374.97
447.90	373.85
448.27	372.64
448.64	371.05
449.01	369.90
449.37	367.93
449.74	366.05
450.11	363.79
450.48	361.32
450.85	358.83
451.22	356.68
451.59	354.66
451.96	352.71
452.33	350.13
452.70	347.75
453.07	344.91
453.43	342.03
453.80	339.31
454.17	336.64
454.54	334.08
454.91	331.36
455.28	328.71
455.65	326.20
456.02	323.80
456.38	321.64
456.75	318.98
457.12	316.78
457.49	314.57
457.86	312.40
458.23	310.54
458.59	308.49
458.96	306.39
459.33	304.53
459.70	302.68
460.07	301.14
460.43	299.44
460.80	297.84
461.17	296.39
461.54	294.86
461.91	293.43
462.27	291.98
462.64	290.72
463.01	289.32
463.38	288.03
463.74	286.65
464.11	285.47
464.48	284.46
464.85	283.31
465.21	282.45
465.58	281.55
465.95	280.44
466.32	279.49
466.68	278.62
467.05	277.73
467.42	276.83
467.78	275.91
468.15	275.03
468.52	274.36
468.88	273.46
469.25	272.71
469.62	272.10
469.98	271.43
470.35	270.80
470.72	270.18
471.08	269.49
471.45	268.94
471.82	268.43
472.18	267.83
472.55	267.42
472.92	266.87
473.28	266.38
473.65	265.94
474.02	265.52
474.38	265.12
474.75	264.80
475.11	264.44
475.48	264.14
475.85	263.92
476.21	263.67
476.58	263.51
476.94	263.37
477.31	263.17
477.67	263.00
478.04	262.87
478.41	262.85
478.77	262.85
479.14	262.79
479.50	262.77
479.87	262.83
480.23	262.91
480.60	262.95
480.96	263.06
481.33	263.26
481.69	263.46
482.06	263.66
482.42	263.86
482.79	264.16
483.15	264.49
483.52	264.88
483.88	265.26
484.25	265.65
484.61	266.10
484.98	266.58
485.34	267.15
485.71	267.75
486.07	268.35
486.44	269.00
486.80	269.72
487.17	270.42
487.53	271.19
487.90	272.04
488.26	272.99
488.62	274.00
488.99	274.99
489.35	276.04
489.72	277.17
490.08	278.37
490.44	279.56
490.81	280.87
491.17	282.23
491.54	283.70
491.90	285.25
492.26	286.85
492.63	288.56
492.99	290.29
493.36	292.21
493.72	294.25
494.08	296.30
494.45	298.51
494.81	300.89
495.17	303.37
495.54	305.95
495.90	308.62
496.26	311.42
496.63	314.37
496.99	317.43
497.35	320.70
497.72	324.13
498.08	327.66
498.44	331.37
498.80	335.24
499.17	339.27
499.53	343.39
499.89	347.76
500.26	352.24
500.62	356.94
500.98	361.84
501.34	366.89
501.71	372.23
502.07	377.67
502.43	383.30
502.79	389.08
503.16	395.18
503.52	401.41
503.88	407.79
504.24	414.45
504.60	421.35
504.97	428.48
505.33	435.83
505.69	443.55
506.05	451.33
506.41	459.21
506.78	467.40
507.14	475.86
507.50	484.63
507.86	493.63
508.22	502.79
508.59	512.04
508.95	521.67
509.31	531.48
509.67	541.67
510.03	551.90
510.39	562.49
510.75	573.32
511.12	584.36
511.48	595.60
511.84	607.02
512.20	618.56
512.56	630.53
512.92	642.65
513.28	654.92
513.64	667.47
514.00	680.29
514.37	693.22
514.73	706.28
515.09	719.25
515.45	732.57
515.81	746.21
516.17	760.26
516.53	774.30
516.89	788.50
517.25	802.63
517.61	817.09
517.97	831.53
518.33	845.95
518.69	860.71
519.05	875.78
519.41	891.12
519.77	906.68
520.13	922.21
520.49	937.66
520.85	953.23
521.21	969.02
521.57	985.19
521.93	1001.05
522.29	1017.58
522.65	1033.98
523.01	1050.33
523.37	1066.43
523.73	1082.60
524.09	1098.85
524.45	1115.25
524.81	1131.96
525.17	1148.87
525.53	1165.88
525.89	1182.70
526.25	1199.54
526.61	1215.93
526.97	1232.67
527.33	1249.10
527.68	1265.69
528.04	1282.23
528.40	1298.85
528.76	1315.78
529.12	1332.40
529.48	1349.27
529.84	1365.26
530.20	1381.88
530.56	1398.92
530.91	1416.29
531.27	1433.06
531.63	1449.52
531.99	1466.07
532.35	1482.14
532.71	1498.02
533.07	1514.25
533.42	1530.22
533.78	1546.25
534.14	1562.57
534.50	1577.85
534.86	1593.77
535.21	1608.89
535.57	1624.91
535.93	1640.33
536.29	1655.14
536.65	1670.25
537.00	1684.97
537.36	1700.27
537.72	1714.72
538.08	1729.06
538.44	1742.86
538.79	1756.67
539.15	1770.27
539.51	1784.05
539.87	1798.34
540.22	1812.13
540.58	1825.91
540.94	1839.36
541.29	1852.39
541.65	1865.04
542.01	1878.28
542.37	1890.64
542.72	1903.13
543.08	1914.85
543.44	1927.30
543.79	1938.63
544.15	1949.64
544.51	1961.33
544.87	1972.35
545.22	1983.23
545.58	1993.41
545.94	2003.25
546.29	2013.26
546.65	2023.26
547.01	2032.43
547.36	2041.12
547.72	2049.60
548.07	2057.43
548.43	2065.59
548.79	2073.55
549.14	2081.28
549.50	2088.70
549.86	2096.55
550.21	2103.94
550.57	2111.20
550.92	2117.74
551.28	2124.84
551.64	2131.86
551.99	2138.39
552.35	2144.64
552.70	2150.73
553.06	2156.90
553.41	2163.27
553.77	2169.31
554.13	2175.42
554.48	2181.75
554.84	2187.30
555.19	2192.59
555.55	2197.73
555.90	2202.11
556.26	2206.97
556.61	2211.68
556.97	2215.90
557.32	2219.91
557.68	2224.10
558.03	2228.31
558.39	2232.04
558.74	2236.71
559.10	2240.66
559.45	2244.24
559.81	2248.52
560.16	2252.34
560.52	2255.51
560.87	2258.96
561.23	2261.47
561.58	2264.54
561.94	2266.95
562.29	2269.35
562.64	2271.87
563.00	2274.49
563.35	2278.06
563.71	2281.19
564.06	2284.44
564.42	2287.42
564.77	2289.90
565.12	2291.96
565.48	2293.85
565.83	2295.74
566.19	2296.91
566.54	2297.92
566.89	2299.08
567.25	2299.54
567.60	2300.90
567.96	2302.48
568.31	2303.21
568.66	2304.40
569.02	2304.86
569.37	2305.17
569.72	2305.91
570.08	2306.17
570.43	2306.20
570.78	2305.59
571.14	2304.08
571.49	2302.61
571.84	2302.16
572.20	2300.99
572.55	2299.94
572.90	2298.42
573.26	2296.83
573.61	2295.07
573.96	2293.13
574.31	2289.99
574.67	2286.81
575.02	2283.11
575.37	2279.73
575.72	2275.89
576.08	2272.53
576.43	2269.04
576.78	2265.42
577.13	2262.31
577.49	2259.23
577.84	2255.68
578.19	2251.95
578.54	2248.30
578.90	2243.95
579.25	2238.27
579.60	2233.36
579.95	2228.33
580.30	2223.18
580.66	2218.19
581.01	2213.28
581.36	2208.36
581.71	2204.24
582.06	2200.00
582.42	2195.64
582.77	2190.45
583.12	2185.88
583.47	2180.97
583.82	2176.01
584.17	2170.57
584.53	2164.90
584.88	2159.16
585.23	2153.34
585.58	2147.72
585.93	2142.12
586.28	2137.34
586.63	2132.25
586.98	2127.01
587.34	2122.30
587.69	2117.37
588.04	2112.07
588.39	2106.33
588.74	2099.69
589.09	2093.53
589.44	2086.56
589.79	2080.42
590.14	2074.66
590.49	2068.12
590.84	2061.72
591.19	2055.59
591.54	2049.11
591.89	2041.72
592.25	2034.71
592.60	2027.35
592.95	2019.67
593.30	2012.30
593.65	2004.70
594.00	1997.76
594.35	1990.57
594.70	1982.43
595.05	1975.16
595.40	1967.78
595.75	1960.18
596.10	1953.96
596.45	1947.24
596.80	1940.92
597.15	1934.24
597.50	1927.04
597.85	1920.59
598.19	1913.92
598.54	1906.79
598.89	1900.22
599.24	1894.30
599.59	1887.64
599.94	1881.60
600.29	1875.35
600.64	1868.74
600.99	1861.27
601.34	1854.17
601.69	1847.14
602.04	1840.19
602.39	1832.81
602.74	1826.02
603.08	1819.25
603.43	1812.46
603.78	1804.97
604.13	1797.86
604.48	1790.61
604.83	1783.85
605.18	1776.73
605.53	1768.68
605.87	1760.61
606.22	1753.27
606.57	1745.24
606.92	1738.04
607.27	1730.69
607.62	1723.72
607.96	1716.47
608.31	1709.81
608.66	1702.26
609.01	1694.68
609.36	1687.03
609.70	1679.14
610.05	1670.91
610.40	1663.27
610.75	1654.99
611.10	1647.28
611.44	1638.95
611.79	1630.91
612.14	1622.21
612.49	1613.18
612.83	1604.85
613.18	1596.73
613.53	1588.73
613.88	1580.31
614.22	1571.94
614.57	1563.42
614.92	1555.30
615.27	1547.66
615.61	1539.21
615.96	1531.16
616.31	1523.57
616.65	1516.27
617.00	1508.56
617.35	1501.03
617.70	1492.65
618.04	1484.17
618.39	1475.94
618.74	1468.33
619.08	1459.97
619.43	1452.39
619.78	1445.32
620.12	1438.13
620.47	1430.60
620.82	1422.27
621.16	1414.76
621.51	1407.07
621.85	1399.45
622.20	1390.95
622.55	1382.65
622.89	1374.85
623.24	1367.27
623.59	1359.91
623.93	1352.35
624.28	1345.24
624.62	1337.65
624.97	1330.47
625.32	1323.59
625.66	1316.69
626.01	1309.44
626.35	1302.11
626.70	1294.28
627.04	1286.44
627.39	1278.68
627.73	1271.23
628.08	1264.40
628.43	1257.04
628.77	1249.78
629.12	1242.16
629.46	1235.05
629.81	1227.66
630.15	1220.50
630.50	1213.10
630.84	1204.79
631.19	1196.91
631.53	1189.29
631.88	1181.70
632.22	1174.14
632.57	1166.92
632.91	1159.26
633.26	1151.84
633.60	1144.43
633.95	1137.42
634.29	1130.51
634.64	1123.86
634.98	1116.53
635.32	1109.26
635.67	1102.71
636.01	1096.06
636.36	1089.32
636.70	1082.74
637.05	1076.16
637.39	1069.66
637.73	1063.14
638.08	1057.39
638.42	1051.50
638.77	1045.04
639.11	1038.49
639.45	1032.02
639.80	1025.33
640.14	1018.96
640.49	1012.36
640.83	1006.07
641.17	999.80
641.52	993.41
641.86	986.97
642.20	981.14
642.55	974.89
642.89	968.38
643.23	961.84
643.58	956.05
643.92	949.83
644.26	943.67
644.61	937.64
644.95	931.57
645.29	924.86
645.64	918.05
645.98	911.83
646.32	905.96
646.66	900.04
647.01	894.34
647.35	888.69
647.69	882.94
648.04	877.31
648.38	871.53
648.72	865.65
649.06	859.51
649.41	853.63
649.75	847.61
650.09	841.71
650.43	835.83
650.78	829.70
651.12	823.82
651.46	818.11
651.80	812.39
652.14	807.05
652.49	801.70
652.83	796.48
653.17	790.73
653.51	785.00
653.85	779.57
654.20	773.78
654.54	767.72
654.88	761.97
655.22	756.13
655.56	750.48
655.90	745.03
656.25	739.87
656.59	734.49
656.93	729.46
657.27	724.28
657.61	718.93
657.95	713.82
658.29	708.70
658.64	703.44
658.98	698.18
659.32	692.77
659.66	687.54
660.00	682.32
660.34	677.32
660.68	672.47
661.02	667.41
661.36	662.78
661.70	658.34
662.05	653.94
662.39	649.61
662.73	645.08
663.07	640.66
663.41	636.21
663.75	631.68
664.09	627.14
664.43	622.69
664.77	618.56
665.11	614.32
665.45	610.21
665.79	606.09
666.13	601.95
666.47	597.85
666.81	593.69
667.15	589.55
667.49	585.65
667.83	581.83
668.17	577.91
668.51	573.84
668.85	569.75
669.19	565.91
669.53	562.05
669.87	558.15
670.21	554.40
670.55	550.76
670.89	547.40
671.23	544.01
671.57	540.58
671.91	537.10
672.25	533.62
672.58	530.10
672.92	526.83
673.26	523.62
673.60	520.45
673.94	517.35
674.28	514.44
674.62	511.49
674.96	508.36
675.30	505.49
675.64	502.57
675.97	499.88
676.31	497.03
676.65	494.08
676.99	491.39
677.33	488.55
677.67	485.69
678.01	482.61
678.34	479.58
678.68	476.73
679.02	473.86
679.36	471.09
679.70	468.35
680.04	465.53
680.37	462.66
680.71	459.92
681.05	457.34
681.39	454.66
681.73	452.02
682.06	449.51
682.40	446.95
682.74	444.43
683.08	441.83
683.42	439.27
683.75	436.82
684.09	434.28
684.43	431.82
684.77	429.39
685.10	427.07
685.44	424.83
685.78	422.54
686.12	420.30
686.45	418.03
686.79	415.81
687.13	413.65
687.46	411.52
687.80	409.30
688.14	407.03
688.48	404.94
688.81	402.78
689.15	400.66
689.49	398.58
689.82	396.51
690.16	394.48
690.50	392.52
690.83	390.54
691.17	388.63
691.51	386.75
691.84	384.88
692.18	383.01
692.52	381.01
692.85	379.13
693.19	377.27
693.52	375.49
693.86	373.64
694.20	371.84
694.53	370.06
694.87	368.25
695.21	366.55
695.54	364.72
695.88	362.97
696.21	361.25
696.55	359.53
696.88	357.84
697.22	356.19
697.56	354.59
697.89	352.98
698.23	351.38
698.56	349.73
698.90	348.20
699.23	346.55
699.57	345.00
699.90	343.44
700.24	341.87
700.58	340.29
700.91	338.80
701.25	337.37
701.58	336.00
701.92	334.61
702.25	333.23
702.59	331.88
702.92	330.57
703.26	329.25
703.59	327.98
703.93	326.79
704.26	325.56
704.60	324.25
704.93	322.98
705.26	321.69
705.60	320.58
705.93	319.38
706.27	318.29
706.60	317.24
706.94	316.12
707.27	314.98
707.61	313.95
707.94	312.93
708.27	311.83
708.61	310.72
708.94	309.72
709.28	308.73
709.61	307.77
709.94	306.82
710.28	305.75
710.61	304.76
710.95	303.67
711.28	302.71
711.61	301.77
711.95	300.81
712.28	299.86
712.61	298.85
712.95	297.92
713.28	297.03
713.61	296.13
713.95	295.31
714.28	294.46
714.61	293.56
714.95	292.72
715.28	291.87
715.61	291.01
715.95	290.18
716.28	289.29
716.61	288.44
716.95	287.59
717.28	286.91
717.61	286.14
717.94	285.41
718.28	284.60
718.61	283.88
718.94	283.23
719.27	282.60
719.61	281.97
719.94	281.30
720.27	280.62
720.60	279.96
720.94	279.29
721.27	278.70
721.60	278.15
721.93	277.54
722.27	277.00
722.60	276.46
722.93	275.85
723.26	275.31
723.59	274.81
723.93	274.27
724.26	273.72
724.59	273.17
724.92	272.68
725.25	272.22
725.59	271.71
725.92	271.20
726.25	270.70
726.58	270.19
726.91	269.72
727.24	269.28
727.57	268.81
727.91	268.34
728.24	267.89
728.57	267.39
728.90	266.92
729.23	266.46
729.56	266.03
729.89	265.57
730.22	265.10
730.55	264.59
730.89	264.16
731.22	263.71
731.55	263.28
731.88	262.83
732.21	262.37
732.54	261.91
732.87	261.47
733.20	261.07
733.53	260.68
733.86	260.29
734.19	259.87
734.52	259.50
734.85	259.15
735.18	258.72
735.51	258.35
735.84	258.00
736.17	257.64
736.50	257.23
736.83	257.02
737.16	256.70
737.49	256.38
737.82	256.00
738.15	255.68
738.48	255.36
738.81	255.06
739.14	254.78
739.47	254.46
739.80	254.18
740.13	253.87
740.46	253.53
740.79	253.20
741.12	252.90
741.45	252.59
741.78	252.23
742.11	251.93
742.44	251.62
742.77	251.33
743.10	251.01
743.43	250.67
743.75	250.26
744.08	250.09
744.41	249.81
744.74	249.54
745.07	249.25
745.40	248.95
745.73	248.73
746.06	248.43
746.39	248.20
746.71	247.91
747.04	247.64
747.37	247.39
747.70	247.11
748.03	246.85
748.36	246.61
748.68	246.37
749.01	246.13
749.34	245.93
749.67	245.69
750.00	245.47
750.33	245.36
750.65	245.16
750.98	244.84
751.31	244.63
751.64	244.44
751.97	244.27
752.29	244.07
752.62	243.81
752.95	243.61
753.28	243.38
753.60	243.17
753.93	242.96
754.26	242.76
754.59	242.56
754.91	242.32
755.24	242.12
755.57	241.93
755.90	241.74
756.22	241.51
756.55	241.32
756.88	241.13
757.20	240.89
757.53	240.64
757.86	240.45
758.19	240.27
758.51	240.09
758.84	239.87
759.17	239.67
759.49	239.50
759.82	239.37
760.15	239.21
760.47	239.08
760.80	238.89
761.13	238.73
761.45	238.62
761.78	238.50
762.11	238.37
762.43	238.23
762.76	238.09
763.08	237.96
763.41	237.83
763.74	237.68
764.06	237.52
764.39	237.41
764.71	237.28
765.04	237.14
765.37	237.01
765.69	236.88
766.02	236.76
766.34	236.58
766.67	236.42
767.00	236.33
767.32	236.27
767.65	236.25
767.97	236.16
768.30	236.00
768.62	235.89
768.95	235.76
769.27	235.67
769.60	235.58
769.92	235.43
770.25	235.31
770.57	235.20
770.90	235.12
771.22	235.04
771.55	234.96
771.87	234.88
772.20	234.77
772.52	234.75
772.85	234.76
773.17	234.72
773.50	234.60
773.82	234.46
774.15	234.31
774.47	234.14
774.80	234.00
775.12	233.96
775.45	233.90
775.77	233.81
776.09	233.71
776.42	233.64
776.74	233.60
777.07	233.54
777.39	233.46
777.72	233.37
778.04	233.30
778.36	233.21
778.69	233.18
779.01	233.15
779.33	233.02
779.66	232.87
779.98	232.80
780.31	232.78
780.63	232.75
780.95	232.72
781.28	232.67
781.60	232.63
781.92	232.56
782.25	232.49
782.57	232.44
782.89	232.39
783.22	232.33
783.54	232.28
783.86	232.22
784.19	232.18
784.51	232.18
784.83	232.14
785.16	232.09
785.48	232.04
785.80	231.99
786.12	231.94
786.45	231.91
786.77	231.89
787.09	231.84
