SpectraSuite Data File
++++++++++++++++++++++++++++++++++++
Date: Fri Feb 01 17:49:29 EST 2013
User: group
Dark Spectrum Present: No
Reference Spectrum Present: No
Number of Sampled Component Spectra: 1
Spectrometers: USB2E7196
Integration Time (usec): 35000 (USB2E7196)
Spectra Averaged: 100 (USB2E7196)
Boxcar Smoothing: 10 (USB2E7196)
Correct for Electrical Dark: No (USB2E7196)
Strobe/Lamp Enabled: No (USB2E7196)
Correct for Detector Non-linearity: No (USB2E7196)
Correct for Stray Light: No (USB2E7196)
Number of Pixels in Processed Spectrum: 2048
>>>>>Begin Processed Spectral Data<<<<<
339.09	0.00
339.48	212.98
339.86	214.00
340.24	215.31
340.63	216.60
341.01	219.90
341.39	219.77
341.78	220.72
342.16	222.30
342.54	222.28
342.93	211.19
343.31	221.84
343.69	222.35
344.07	222.84
344.46	223.27
344.84	223.64
345.22	223.86
345.60	224.10
345.99	224.31
346.37	224.43
346.75	224.56
347.13	224.60
347.52	224.66
347.90	224.73
348.28	224.74
348.66	224.76
349.05	224.77
349.43	224.80
349.81	224.81
350.19	224.83
350.57	224.84
350.96	224.93
351.34	225.03
351.72	225.13
352.10	225.21
352.48	225.27
352.87	225.35
353.25	225.44
353.63	225.50
354.01	225.54
354.39	225.62
354.77	225.69
355.15	225.78
355.54	225.81
355.92	225.87
356.30	225.97
356.68	226.15
357.06	226.20
357.44	226.24
357.82	226.32
358.20	226.41
358.58	226.53
358.97	226.60
359.35	226.67
359.73	226.77
360.11	226.83
360.49	226.88
360.87	226.94
361.25	226.98
361.63	227.07
362.01	227.14
362.39	227.15
362.77	227.20
363.15	227.26
363.53	227.29
363.91	227.33
364.29	227.34
364.67	227.26
365.05	227.29
365.43	227.32
365.81	227.33
366.19	227.37
366.57	227.39
366.95	227.37
367.33	227.34
367.71	227.31
368.09	227.31
368.47	227.32
368.85	227.31
369.23	227.34
369.61	227.27
369.99	227.25
370.37	227.25
370.75	227.24
371.13	227.17
371.51	227.12
371.89	227.07
372.27	227.03
372.65	226.99
373.03	226.93
373.41	226.87
373.78	226.83
374.16	226.74
374.54	226.63
374.92	226.58
375.30	226.55
375.68	226.48
376.06	226.42
376.44	226.34
376.82	226.28
377.19	226.18
377.57	226.11
377.95	226.07
378.33	226.00
378.71	225.88
379.09	225.84
379.47	225.81
379.84	225.74
380.22	225.66
380.60	225.56
380.98	225.49
381.36	225.43
381.73	225.33
382.11	225.28
382.49	225.23
382.87	225.15
383.25	225.09
383.62	225.15
384.00	225.09
384.38	225.05
384.76	225.01
385.13	224.99
385.51	224.93
385.89	224.84
386.27	224.80
386.64	224.76
387.02	224.72
387.40	224.67
387.78	224.63
388.15	224.66
388.53	224.64
388.91	224.62
389.29	224.59
389.66	224.61
390.04	224.58
390.42	224.56
390.79	224.55
391.17	224.49
391.55	224.34
391.92	224.31
392.30	224.32
392.68	224.31
393.05	224.31
393.43	224.34
393.81	224.35
394.18	224.34
394.56	224.40
394.94	224.42
395.31	224.40
395.69	224.46
396.06	224.47
396.44	224.52
396.82	224.56
397.19	224.66
397.57	224.66
397.95	224.70
398.32	224.73
398.70	224.82
399.07	224.91
399.45	224.99
399.82	225.05
400.20	225.08
400.58	225.14
400.95	225.18
401.33	225.28
401.70	225.42
402.08	225.52
402.45	225.60
402.83	225.74
403.20	225.88
403.58	225.97
403.95	226.11
404.33	226.23
404.71	226.37
405.08	226.55
405.46	226.69
405.83	226.89
406.21	227.08
406.58	227.25
406.96	227.43
407.33	227.65
407.70	227.89
408.08	228.22
408.45	228.49
408.83	228.74
409.20	228.98
409.58	229.21
409.95	229.51
410.33	229.84
410.70	230.13
411.08	230.51
411.45	230.88
411.82	231.25
412.20	231.70
412.57	232.23
412.95	232.62
413.32	233.16
413.69	233.65
414.07	234.19
414.44	234.79
414.82	235.41
415.19	236.11
415.56	236.84
415.94	237.55
416.31	238.35
416.68	239.17
417.06	240.10
417.43	240.96
417.81	241.97
418.18	242.97
418.55	244.05
418.93	245.18
419.30	246.35
419.67	247.60
420.04	248.80
420.42	250.09
420.79	251.59
421.16	253.07
421.54	254.60
421.91	256.19
422.28	257.82
422.66	259.57
423.03	261.25
423.40	263.00
423.77	264.80
424.15	266.69
424.52	268.66
424.89	270.77
425.26	272.82
425.64	274.68
426.01	276.76
426.38	278.91
426.75	281.09
427.13	283.34
427.50	285.69
427.87	288.21
428.24	290.63
428.61	292.92
428.99	295.47
429.36	298.24
429.73	300.90
430.10	303.54
430.47	306.21
430.85	309.00
431.22	311.88
431.59	315.01
431.96	317.93
432.33	321.15
432.70	324.23
433.08	327.94
433.45	331.38
433.82	334.74
434.19	338.51
434.56	342.22
434.93	345.69
435.30	349.05
435.68	352.81
436.05	356.54
436.42	360.18
436.79	363.45
437.16	367.03
437.53	370.73
437.90	374.35
438.27	377.94
438.64	381.59
439.01	384.98
439.38	387.96
439.75	390.77
440.13	394.03
440.50	397.11
440.87	399.47
441.24	402.05
441.61	404.90
441.98	406.82
442.35	409.13
442.72	411.56
443.09	413.98
443.46	415.30
443.83	416.01
444.20	416.71
444.57	417.81
444.94	418.16
445.31	418.64
445.68	419.14
446.05	419.27
446.42	418.79
446.79	418.27
447.16	417.66
447.53	417.27
447.90	415.76
448.27	414.22
448.64	412.16
449.01	410.65
449.37	408.11
449.74	405.66
450.11	402.68
450.48	399.46
450.85	396.14
451.22	393.33
451.59	390.69
451.96	388.14
452.33	384.76
452.70	381.63
453.07	377.96
453.43	374.18
453.80	370.55
454.17	367.08
454.54	363.76
454.91	360.20
455.28	356.73
455.65	353.47
456.02	350.25
456.38	347.46
456.75	343.99
457.12	341.02
457.49	338.12
457.86	335.31
458.23	332.84
458.59	330.16
458.96	327.42
459.33	325.02
459.70	322.55
460.07	320.60
460.43	318.37
460.80	316.21
461.17	314.29
461.54	312.29
461.91	310.42
462.27	308.51
462.64	306.83
463.01	305.01
463.38	303.28
463.74	301.53
464.11	300.03
464.48	298.69
464.85	297.26
465.21	296.07
465.58	294.83
465.95	293.41
466.32	292.24
466.68	291.06
467.05	289.86
467.42	288.73
467.78	287.45
468.15	286.32
468.52	285.47
468.88	284.33
469.25	283.33
469.62	282.47
469.98	281.60
470.35	280.78
470.72	279.99
471.08	279.13
471.45	278.39
471.82	277.63
472.18	276.84
472.55	276.23
472.92	275.56
473.28	274.97
473.65	274.36
474.02	273.76
474.38	273.26
474.75	272.84
475.11	272.37
475.48	272.00
475.85	271.63
476.21	271.28
476.58	271.06
476.94	270.86
477.31	270.58
477.67	270.30
478.04	270.10
478.41	269.97
478.77	269.97
479.14	269.84
479.50	269.79
479.87	269.80
480.23	269.78
480.60	269.80
480.96	269.84
481.33	270.02
481.69	270.20
482.06	270.32
482.42	270.45
482.79	270.63
483.15	270.96
483.52	271.34
483.88	271.64
484.25	271.95
484.61	272.35
484.98	272.80
485.34	273.35
485.71	273.90
486.07	274.48
486.44	275.00
486.80	275.70
487.17	276.45
487.53	277.30
487.90	278.20
488.26	279.14
488.62	280.15
488.99	281.15
489.35	282.24
489.72	283.42
490.08	284.67
490.44	285.95
490.81	287.29
491.17	288.69
491.54	290.22
491.90	291.83
492.26	293.54
492.63	295.33
492.99	297.19
493.36	299.19
493.72	301.38
494.08	303.62
494.45	305.99
494.81	308.46
495.17	311.01
495.54	313.69
495.90	316.54
496.26	319.52
496.63	322.65
496.99	325.89
497.35	329.30
497.72	332.85
498.08	336.60
498.44	340.46
498.80	344.56
499.17	348.83
499.53	353.21
499.89	357.82
500.26	362.52
500.62	367.44
500.98	372.67
501.34	377.95
501.71	383.51
502.07	389.23
502.43	395.10
502.79	401.17
503.16	407.48
503.52	414.08
503.88	420.79
504.24	427.75
504.60	434.99
504.97	442.48
505.33	450.19
505.69	458.28
506.05	466.45
506.41	474.75
506.78	483.35
507.14	492.29
507.50	501.49
507.86	511.08
508.22	520.84
508.59	530.59
508.95	540.69
509.31	551.12
509.67	561.83
510.03	572.68
510.39	583.89
510.75	595.36
511.12	606.93
511.48	618.94
511.84	631.11
512.20	643.33
512.56	655.95
512.92	668.83
513.28	681.95
513.64	695.22
514.00	708.79
514.37	722.51
514.73	736.47
515.09	750.26
515.45	764.39
515.81	778.85
516.17	793.73
516.53	808.92
516.89	824.03
517.25	839.11
517.61	854.47
517.97	870.05
518.33	885.57
518.69	901.39
519.05	917.36
519.41	933.54
519.77	950.21
520.13	966.92
520.49	983.54
520.85	1000.10
521.21	1017.01
521.57	1034.46
521.93	1051.41
522.29	1069.01
522.65	1086.64
523.01	1104.16
523.37	1121.48
523.73	1138.88
524.09	1156.27
524.45	1173.89
524.81	1191.91
525.17	1210.17
525.53	1228.42
525.89	1246.74
526.25	1264.99
526.61	1282.88
526.97	1301.18
527.33	1319.12
527.68	1337.16
528.04	1355.10
528.40	1373.26
528.76	1391.94
529.12	1410.01
529.48	1428.61
529.84	1446.20
530.20	1464.36
530.56	1483.06
530.91	1502.12
531.27	1520.64
531.63	1538.81
531.99	1557.05
532.35	1574.75
532.71	1592.44
533.07	1610.31
533.42	1627.93
533.78	1645.86
534.14	1664.00
534.50	1681.05
534.86	1698.73
535.21	1715.76
535.57	1733.55
535.93	1750.80
536.29	1767.39
536.65	1784.29
537.00	1800.87
537.36	1818.16
537.72	1834.62
538.08	1850.86
538.44	1866.58
538.79	1882.36
539.15	1897.75
539.51	1913.44
539.87	1929.68
540.22	1945.29
540.58	1961.19
540.94	1976.42
541.29	1991.10
541.65	2005.72
542.01	2020.87
542.37	2035.11
542.72	2049.36
543.08	2063.12
543.44	2077.56
543.79	2090.66
544.15	2103.49
544.51	2117.06
544.87	2129.85
545.22	2142.54
545.58	2154.60
545.94	2166.28
546.29	2178.11
546.65	2190.04
547.01	2201.21
547.36	2211.78
547.72	2222.15
548.07	2231.73
548.43	2241.62
548.79	2251.48
549.14	2260.71
549.50	2269.80
549.86	2279.14
550.21	2288.29
550.57	2297.15
550.92	2305.54
551.28	2314.38
551.64	2323.39
551.99	2331.70
552.35	2339.59
552.70	2347.44
553.06	2355.23
553.41	2363.23
553.77	2370.75
554.13	2378.46
554.48	2386.40
554.84	2393.61
555.19	2400.30
555.55	2407.09
555.90	2413.16
556.26	2419.65
556.61	2425.80
556.97	2431.65
557.32	2437.48
557.68	2442.99
558.03	2448.72
558.39	2453.56
558.74	2459.70
559.10	2465.11
559.45	2469.89
559.81	2475.43
560.16	2480.67
560.52	2485.28
560.87	2489.96
561.23	2493.91
561.58	2497.95
561.94	2501.62
562.29	2504.95
562.64	2509.04
563.00	2512.77
563.35	2517.56
563.71	2521.80
564.06	2526.29
564.42	2530.44
564.77	2534.08
565.12	2537.59
565.48	2540.73
565.83	2543.79
566.19	2546.13
566.54	2547.58
566.89	2549.89
567.25	2551.56
567.60	2553.70
567.96	2556.35
568.31	2558.08
568.66	2560.21
569.02	2561.73
569.37	2562.81
569.72	2564.77
570.08	2565.64
570.43	2566.30
570.78	2566.52
571.14	2565.53
571.49	2564.64
571.84	2564.79
572.20	2564.29
572.55	2563.63
572.90	2562.44
573.26	2561.67
573.61	2560.35
573.96	2559.18
574.31	2556.52
574.67	2553.69
575.02	2550.34
575.37	2547.05
575.72	2543.50
576.08	2540.01
576.43	2536.76
576.78	2533.24
577.13	2529.83
577.49	2526.79
577.84	2523.54
578.19	2519.67
578.54	2516.24
578.90	2512.24
579.25	2506.51
579.60	2501.24
579.95	2496.10
580.30	2490.86
580.66	2485.41
581.01	2480.21
581.36	2475.15
581.71	2470.76
582.06	2466.32
582.42	2461.71
582.77	2456.20
583.12	2451.30
583.47	2446.48
583.82	2441.32
584.17	2435.62
584.53	2429.99
584.88	2424.02
585.23	2417.63
585.58	2411.77
585.93	2405.83
586.28	2400.49
586.63	2395.10
586.98	2389.70
587.34	2384.64
587.69	2379.18
588.04	2373.58
588.39	2367.62
588.74	2360.43
589.09	2353.74
589.44	2346.25
589.79	2339.62
590.14	2333.38
590.49	2326.03
590.84	2319.12
591.19	2312.51
591.54	2305.46
591.89	2297.40
592.25	2289.89
592.60	2281.96
592.95	2273.63
593.30	2265.38
593.65	2256.95
594.00	2249.11
594.35	2241.02
594.70	2232.09
595.05	2224.38
595.40	2216.11
595.75	2207.48
596.10	2200.49
596.45	2192.87
596.80	2185.99
597.15	2178.66
597.50	2170.78
597.85	2163.51
598.19	2155.95
598.54	2147.90
598.89	2140.40
599.24	2133.51
599.59	2126.12
599.94	2119.22
600.29	2112.00
600.64	2104.70
600.99	2096.43
601.34	2088.69
601.69	2080.83
602.04	2072.99
602.39	2064.64
602.74	2056.86
603.08	2049.18
603.43	2041.58
603.78	2033.28
604.13	2024.92
604.48	2016.50
604.83	2008.69
605.18	2001.02
605.53	1991.98
605.87	1982.90
606.22	1974.53
606.57	1965.61
606.92	1956.98
607.27	1948.69
607.62	1940.60
607.96	1932.16
608.31	1924.56
608.66	1915.90
609.01	1907.24
609.36	1898.61
609.70	1889.25
610.05	1879.96
610.40	1871.17
610.75	1861.71
611.10	1852.98
611.44	1843.27
611.79	1834.00
612.14	1823.99
612.49	1813.31
612.83	1803.61
613.18	1794.21
613.53	1784.94
613.88	1774.99
614.22	1765.38
614.57	1755.37
614.92	1746.31
615.27	1737.56
615.61	1727.97
615.96	1718.64
616.31	1709.68
616.65	1701.16
617.00	1692.54
617.35	1683.76
617.70	1674.29
618.04	1664.44
618.39	1654.78
618.74	1646.09
619.08	1636.57
619.43	1627.74
619.78	1619.71
620.12	1611.48
620.47	1602.80
620.82	1593.34
621.16	1584.75
621.51	1575.99
621.85	1567.32
622.20	1557.47
622.55	1547.96
622.89	1538.87
623.24	1530.04
623.59	1521.53
623.93	1512.78
624.28	1504.35
624.62	1495.55
624.97	1487.28
625.32	1479.41
625.66	1471.31
626.01	1463.05
626.35	1454.45
626.70	1445.51
627.04	1436.62
627.39	1427.45
627.73	1418.83
628.08	1410.85
628.43	1402.58
628.77	1394.23
629.12	1385.50
629.46	1377.20
629.81	1368.43
630.15	1360.01
630.50	1351.38
630.84	1341.99
631.19	1332.81
631.53	1324.06
631.88	1315.36
632.22	1306.46
632.57	1298.06
632.91	1289.43
633.26	1281.05
633.60	1272.46
633.95	1264.24
634.29	1256.07
634.64	1248.44
634.98	1240.06
635.32	1231.82
635.67	1224.23
636.01	1216.62
636.36	1208.77
636.70	1201.15
637.05	1193.74
637.39	1186.30
637.73	1178.82
638.08	1171.97
638.42	1165.11
638.77	1157.75
639.11	1150.26
639.45	1142.90
639.80	1135.20
640.14	1127.84
640.49	1120.22
640.83	1112.98
641.17	1105.88
641.52	1098.58
641.86	1091.07
642.20	1084.33
642.55	1077.08
642.89	1069.54
643.23	1061.91
643.58	1055.26
643.92	1048.30
644.26	1041.40
644.61	1034.43
644.95	1027.56
645.29	1020.14
645.64	1012.41
645.98	1005.16
646.32	998.43
646.66	991.54
647.01	985.01
647.35	978.38
647.69	971.68
648.04	965.38
648.38	958.79
648.72	952.14
649.06	945.38
649.41	938.62
649.75	931.89
650.09	925.11
650.43	918.57
650.78	911.59
651.12	904.79
651.46	898.21
651.80	891.67
652.14	885.50
652.49	879.36
652.83	873.57
653.17	867.26
653.51	860.79
653.85	854.66
654.20	848.24
654.54	841.43
654.88	834.91
655.22	828.16
655.56	821.69
655.90	815.39
656.25	809.40
656.59	803.35
656.93	797.52
657.27	791.73
657.61	785.48
657.95	779.69
658.29	773.86
658.64	767.91
658.98	761.95
659.32	755.82
659.66	749.89
660.00	743.84
660.34	738.10
660.68	732.45
661.02	726.72
661.36	721.34
661.70	716.24
662.05	711.20
662.39	706.37
662.73	701.33
663.07	696.38
663.41	691.34
663.75	686.23
664.09	681.02
664.43	676.01
664.77	671.41
665.11	666.61
665.45	661.94
665.79	657.31
666.13	652.63
666.47	648.04
666.81	643.38
667.15	638.71
667.49	634.32
667.83	630.04
668.17	625.58
668.51	621.01
668.85	616.49
669.19	612.13
669.53	607.77
669.87	603.39
670.21	599.14
670.55	594.96
670.89	591.05
671.23	587.19
671.57	583.25
671.91	579.22
672.25	575.19
672.58	571.19
672.92	567.24
673.26	563.61
673.60	559.99
673.94	556.47
674.28	553.15
674.62	549.76
674.96	546.20
675.30	542.94
675.64	539.62
675.97	536.47
676.31	533.21
676.65	529.90
676.99	526.78
677.33	523.59
677.67	520.47
678.01	517.04
678.34	513.68
678.68	510.36
679.02	507.19
679.36	504.07
679.70	501.00
680.04	497.93
680.37	494.70
680.71	491.48
681.05	488.50
681.39	485.43
681.73	482.44
682.06	479.58
682.40	476.66
682.74	473.76
683.08	470.82
683.42	467.90
683.75	465.08
684.09	462.18
684.43	459.35
684.77	456.53
685.10	453.81
685.44	451.18
685.78	448.53
686.12	445.94
686.45	443.41
686.79	440.76
687.13	438.23
687.46	435.73
687.80	433.27
688.14	430.70
688.48	428.34
688.81	425.82
689.15	423.35
689.49	420.93
689.82	418.52
690.16	416.13
690.50	413.92
690.83	411.69
691.17	409.41
691.51	407.25
691.84	405.15
692.18	403.01
692.52	400.76
692.85	398.60
693.19	396.48
693.52	394.28
693.86	392.22
694.20	390.18
694.53	388.16
694.87	386.04
695.21	384.00
695.54	381.89
695.88	379.86
696.21	377.89
696.55	375.96
696.88	374.08
697.22	372.17
697.56	370.29
697.89	368.41
698.23	366.61
698.56	364.75
698.90	362.92
699.23	361.04
699.57	359.26
699.90	357.46
700.24	355.65
700.58	353.95
700.91	352.25
701.25	350.62
701.58	349.09
701.92	347.60
702.25	346.04
702.59	344.51
702.92	343.02
703.26	341.55
703.59	340.09
703.93	338.75
704.26	337.37
704.60	335.89
704.93	334.42
705.26	332.98
705.60	331.60
705.93	330.30
706.27	329.08
706.60	327.86
706.94	326.66
707.27	325.36
707.61	324.13
707.94	322.94
708.27	321.68
708.61	320.40
708.94	319.25
709.28	318.11
709.61	317.01
709.94	315.91
710.28	314.75
710.61	313.67
710.95	312.43
711.28	311.37
711.61	310.26
711.95	309.23
712.28	308.15
712.61	307.05
712.95	305.99
713.28	304.99
713.61	303.98
713.95	302.94
714.28	302.03
714.61	301.06
714.95	300.07
715.28	299.06
715.61	298.07
715.95	297.08
716.28	296.10
716.61	295.11
716.95	294.17
717.28	293.32
717.61	292.39
717.94	291.54
718.28	290.61
718.61	289.78
718.94	289.00
719.27	288.23
719.61	287.49
719.94	286.72
720.27	285.92
720.60	285.19
720.94	284.53
721.27	283.79
721.60	283.16
721.93	282.48
722.27	281.88
722.60	281.23
722.93	280.55
723.26	279.94
723.59	279.29
723.93	278.65
724.26	278.00
724.59	277.36
724.92	276.74
725.25	276.16
725.59	275.58
725.92	274.96
726.25	274.41
726.58	273.85
726.91	273.24
727.24	272.70
727.57	272.13
727.91	271.52
728.24	271.03
728.57	270.43
728.90	269.90
729.23	269.34
729.56	268.90
729.89	268.32
730.22	267.76
730.55	267.25
730.89	266.75
731.22	266.25
731.55	265.73
731.88	265.25
732.21	264.77
732.54	264.27
732.87	263.81
733.20	263.33
733.53	262.89
733.86	262.48
734.19	262.00
734.52	261.60
734.85	261.22
735.18	260.76
735.51	260.38
735.84	259.97
736.17	259.55
736.50	259.06
736.83	258.81
737.16	258.44
737.49	258.05
737.82	257.68
738.15	257.29
738.48	256.95
738.81	256.60
739.14	256.22
739.47	255.85
739.80	255.49
740.13	255.16
740.46	254.77
740.79	254.39
741.12	254.07
741.45	253.65
741.78	253.27
742.11	252.91
742.44	252.53
742.77	252.18
743.10	251.85
743.43	251.49
743.75	251.09
744.08	250.94
744.41	250.64
744.74	250.31
745.07	249.98
745.40	249.65
745.73	249.38
746.06	249.07
746.39	248.78
746.71	248.44
747.04	248.11
747.37	247.79
747.70	247.51
748.03	247.22
748.36	247.01
748.68	246.72
749.01	246.45
749.34	246.16
749.67	245.90
750.00	245.63
750.33	245.48
750.65	245.22
750.98	244.79
751.31	244.55
751.64	244.32
751.97	244.15
752.29	243.92
752.62	243.61
752.95	243.38
753.28	243.15
753.60	242.93
753.93	242.77
754.26	242.58
754.59	242.33
754.91	242.08
755.24	241.82
755.57	241.61
755.90	241.36
756.22	241.18
756.55	240.96
756.88	240.75
757.20	240.46
757.53	240.26
757.86	240.05
758.19	239.86
758.51	239.66
758.84	239.41
759.17	239.22
759.49	239.04
759.82	238.91
760.15	238.72
760.47	238.60
760.80	238.38
761.13	238.20
761.45	238.03
761.78	237.88
762.11	237.74
762.43	237.57
762.76	237.43
763.08	237.27
763.41	237.14
763.74	236.97
764.06	236.85
764.39	236.68
764.71	236.55
765.04	236.38
765.37	236.19
765.69	236.01
766.02	235.87
766.34	235.74
766.67	235.55
767.00	235.42
767.32	235.33
767.65	235.24
767.97	235.11
768.30	235.00
768.62	234.89
768.95	234.72
769.27	234.60
769.60	234.49
769.92	234.34
770.25	234.20
770.57	234.10
770.90	233.97
771.22	233.84
771.55	233.74
771.87	233.66
772.20	233.55
772.52	233.58
772.85	233.58
773.17	233.47
773.50	233.38
773.82	233.26
774.15	233.10
774.47	232.98
774.80	232.86
775.12	232.75
775.45	232.64
775.77	232.57
776.09	232.46
776.42	232.37
776.74	232.35
777.07	232.26
777.39	232.18
777.72	232.12
778.04	232.05
778.36	231.94
778.69	231.85
779.01	231.82
779.33	231.64
779.66	231.48
779.98	231.40
780.31	231.33
780.63	231.30
780.95	231.27
781.28	231.16
781.60	231.11
781.92	231.03
782.25	230.97
782.57	230.92
782.89	230.87
783.22	230.78
783.54	230.69
783.86	230.64
784.19	230.57
784.51	230.46
784.83	230.39
785.16	230.34
785.48	230.28
785.80	230.23
786.12	230.17
786.45	230.06
