SpectraSuite Data File
++++++++++++++++++++++++++++++++++++
Date: Fri Feb 01 16:09:07 EST 2013
User: group
Dark Spectrum Present: No
Reference Spectrum Present: No
Number of Sampled Component Spectra: 1
Spectrometers: USB2E7196
Integration Time (usec): 35000 (USB2E7196)
Spectra Averaged: 100 (USB2E7196)
Boxcar Smoothing: 10 (USB2E7196)
Correct for Electrical Dark: No (USB2E7196)
Strobe/Lamp Enabled: No (USB2E7196)
Correct for Detector Non-linearity: No (USB2E7196)
Correct for Stray Light: No (USB2E7196)
Number of Pixels in Processed Spectrum: 2048
>>>>>Begin Processed Spectral Data<<<<<
339.09	0.00
339.48	214.85
339.86	216.23
340.24	217.55
340.63	219.48
341.01	222.25
341.39	221.67
341.78	222.61
342.16	224.17
342.54	224.32
342.93	213.00
343.31	223.76
343.69	224.29
344.07	224.75
344.46	225.18
344.84	225.51
345.22	225.70
345.60	225.97
345.99	226.20
346.37	226.30
346.75	226.42
347.13	226.48
347.52	226.54
347.90	226.59
348.28	226.64
348.66	226.71
349.05	226.69
349.43	226.71
349.81	226.76
350.19	226.78
350.57	226.83
350.96	226.89
351.34	226.95
351.72	227.02
352.10	227.11
352.48	227.17
352.87	227.23
353.25	227.32
353.63	227.36
354.01	227.39
354.39	227.48
354.77	227.50
355.15	227.61
355.54	227.66
355.92	227.71
356.30	227.80
356.68	227.91
357.06	227.98
357.44	228.03
357.82	228.09
358.20	228.16
358.58	228.20
358.97	228.29
359.35	228.40
359.73	228.51
360.11	228.54
360.49	228.58
360.87	228.61
361.25	228.68
361.63	228.74
362.01	228.78
362.39	228.81
362.77	228.91
363.15	228.90
363.53	228.96
363.91	228.99
364.29	228.97
364.67	228.89
365.05	228.92
365.43	228.97
365.81	228.99
366.19	229.06
366.57	229.13
366.95	229.08
367.33	229.06
367.71	228.98
368.09	229.02
368.47	228.99
368.85	229.00
369.23	228.97
369.61	228.91
369.99	228.95
370.37	228.93
370.75	228.91
371.13	228.86
371.51	228.77
371.89	228.74
372.27	228.70
372.65	228.70
373.03	228.64
373.41	228.57
373.78	228.53
374.16	228.39
374.54	228.28
374.92	228.25
375.30	228.18
375.68	228.13
376.06	228.07
376.44	228.01
376.82	227.95
377.19	227.89
377.57	227.81
377.95	227.69
378.33	227.63
378.71	227.52
379.09	227.45
379.47	227.44
379.84	227.36
380.22	227.30
380.60	227.20
380.98	227.13
381.36	227.04
381.73	226.95
382.11	226.90
382.49	226.84
382.87	226.74
383.25	226.70
383.62	226.74
384.00	226.64
384.38	226.60
384.76	226.57
385.13	226.53
385.51	226.49
385.89	226.44
386.27	226.37
386.64	226.33
387.02	226.29
387.40	226.20
387.78	226.18
388.15	226.13
388.53	226.10
388.91	226.07
389.29	226.03
389.66	226.04
390.04	226.00
390.42	226.01
390.79	225.98
391.17	225.96
391.55	225.85
391.92	225.86
392.30	225.86
392.68	225.83
393.05	225.82
393.43	225.83
393.81	225.83
394.18	225.85
394.56	225.84
394.94	225.90
395.31	225.92
395.69	225.96
396.06	225.99
396.44	226.02
396.82	226.05
397.19	226.15
397.57	226.16
397.95	226.23
398.32	226.24
398.70	226.34
399.07	226.41
399.45	226.45
399.82	226.52
400.20	226.60
400.58	226.64
400.95	226.69
401.33	226.79
401.70	226.95
402.08	227.03
402.45	227.14
402.83	227.21
403.20	227.32
403.58	227.40
403.95	227.52
404.33	227.66
404.71	227.80
405.08	227.98
405.46	228.11
405.83	228.24
406.21	228.39
406.58	228.52
406.96	228.66
407.33	228.82
407.70	228.99
408.08	229.23
408.45	229.47
408.83	229.72
409.20	229.92
409.58	230.08
409.95	230.35
410.33	230.61
410.70	230.88
411.08	231.19
411.45	231.49
411.82	231.82
412.20	232.14
412.57	232.56
412.95	232.87
413.32	233.26
413.69	233.70
414.07	234.15
414.44	234.64
414.82	235.12
415.19	235.69
415.56	236.24
415.94	236.80
416.31	237.44
416.68	238.07
417.06	238.78
417.43	239.45
417.81	240.25
418.18	241.05
418.55	241.90
418.93	242.79
419.30	243.69
419.67	244.61
420.04	245.57
420.42	246.55
420.79	247.72
421.16	248.88
421.54	250.06
421.91	251.26
422.28	252.50
422.66	253.81
423.03	255.14
423.40	256.49
423.77	257.88
424.15	259.32
424.52	260.83
424.89	262.43
425.26	263.99
425.64	265.42
426.01	267.00
426.38	268.65
426.75	270.29
427.13	272.01
427.50	273.84
427.87	275.71
428.24	277.59
428.61	279.37
428.99	281.27
429.36	283.36
429.73	285.41
430.10	287.43
430.47	289.52
430.85	291.59
431.22	293.79
431.59	296.20
431.96	298.44
432.33	300.91
432.70	303.28
433.08	306.09
433.45	308.67
433.82	311.24
434.19	314.09
434.56	316.91
434.93	319.57
435.30	322.17
435.68	325.06
436.05	327.84
436.42	330.56
436.79	333.10
437.16	335.77
437.53	338.56
437.90	341.34
438.27	344.05
438.64	346.86
439.01	349.45
439.38	351.64
439.75	353.81
440.13	356.28
440.50	358.60
440.87	360.44
441.24	362.42
441.61	364.55
441.98	366.03
442.35	367.85
442.72	369.71
443.09	371.51
443.46	372.52
443.83	373.10
444.20	373.61
444.57	374.41
444.94	374.74
445.31	375.13
445.68	375.47
446.05	375.55
446.42	375.21
446.79	374.82
447.16	374.40
447.53	374.04
447.90	372.84
448.27	371.66
448.64	370.10
449.01	368.92
449.37	366.97
449.74	365.10
450.11	362.85
450.48	360.35
450.85	357.83
451.22	355.64
451.59	353.66
451.96	351.75
452.33	349.19
452.70	346.81
453.07	343.98
453.43	341.10
453.80	338.37
454.17	335.70
454.54	333.17
454.91	330.43
455.28	327.79
455.65	325.33
456.02	322.89
456.38	320.76
456.75	318.13
457.12	315.89
457.49	313.69
457.86	311.51
458.23	309.70
458.59	307.64
458.96	305.62
459.33	303.74
459.70	301.88
460.07	300.40
460.43	298.70
460.80	297.09
461.17	295.66
461.54	294.18
461.91	292.78
462.27	291.34
462.64	290.14
463.01	288.79
463.38	287.51
463.74	286.17
464.11	285.00
464.48	284.00
464.85	282.96
465.21	282.08
465.58	281.19
465.95	280.07
466.32	279.17
466.68	278.27
467.05	277.36
467.42	276.47
467.78	275.54
468.15	274.67
468.52	274.03
468.88	273.19
469.25	272.41
469.62	271.75
469.98	271.06
470.35	270.40
470.72	269.83
471.08	269.18
471.45	268.66
471.82	268.09
472.18	267.48
472.55	267.03
472.92	266.53
473.28	266.03
473.65	265.61
474.02	265.20
474.38	264.83
474.75	264.54
475.11	264.21
475.48	263.97
475.85	263.75
476.21	263.52
476.58	263.33
476.94	263.19
477.31	263.04
477.67	262.90
478.04	262.82
478.41	262.73
478.77	262.79
479.14	262.72
479.50	262.79
479.87	262.87
480.23	262.98
480.60	263.05
480.96	263.17
481.33	263.36
481.69	263.57
482.06	263.74
482.42	263.94
482.79	264.23
483.15	264.51
483.52	264.88
483.88	265.21
484.25	265.57
484.61	266.01
484.98	266.48
485.34	267.05
485.71	267.62
486.07	268.24
486.44	268.79
486.80	269.47
487.17	270.18
487.53	270.97
487.90	271.79
488.26	272.72
488.62	273.71
488.99	274.68
489.35	275.70
489.72	276.82
490.08	278.01
490.44	279.25
490.81	280.57
491.17	281.97
491.54	283.47
491.90	285.00
492.26	286.62
492.63	288.34
492.99	290.08
493.36	291.95
493.72	294.02
494.08	296.16
494.45	298.44
494.81	300.78
495.17	303.27
495.54	305.83
495.90	308.48
496.26	311.27
496.63	314.28
496.99	317.44
497.35	320.71
497.72	324.11
498.08	327.60
498.44	331.28
498.80	335.13
499.17	339.24
499.53	343.40
499.89	347.78
500.26	352.28
500.62	356.99
500.98	361.97
501.34	367.05
501.71	372.34
502.07	377.75
502.43	383.41
502.79	389.23
503.16	395.31
503.52	401.63
503.88	408.08
504.24	414.70
504.60	421.58
504.97	428.76
505.33	436.12
505.69	443.88
506.05	451.71
506.41	459.58
506.78	467.73
507.14	476.27
507.50	484.98
507.86	494.02
508.22	503.24
508.59	512.44
508.95	522.00
509.31	531.82
509.67	542.01
510.03	552.27
510.39	562.87
510.75	573.71
511.12	584.66
511.48	595.96
511.84	607.45
512.20	618.96
512.56	630.89
512.92	643.05
513.28	655.43
513.64	667.87
514.00	680.59
514.37	693.51
514.73	706.55
515.09	719.67
515.45	732.99
515.81	746.58
516.17	760.57
516.53	774.72
516.89	788.94
517.25	803.07
517.61	817.46
517.97	831.78
518.33	846.24
518.69	860.97
519.05	875.92
519.41	891.03
519.77	906.52
520.13	921.97
520.49	937.33
520.85	952.64
521.21	968.29
521.57	984.49
521.93	1000.22
522.29	1016.50
522.65	1032.64
523.01	1048.75
523.37	1064.74
523.73	1080.89
524.09	1096.89
524.45	1113.16
524.81	1129.80
525.17	1146.57
525.53	1163.47
525.89	1180.18
526.25	1197.02
526.61	1213.37
526.97	1230.06
527.33	1246.50
527.68	1263.06
528.04	1279.64
528.40	1296.17
528.76	1313.29
529.12	1329.96
529.48	1346.80
529.84	1362.76
530.20	1379.35
530.56	1396.37
530.91	1413.71
531.27	1430.50
531.63	1446.94
531.99	1463.39
532.35	1479.25
532.71	1495.06
533.07	1511.29
533.42	1527.25
533.78	1543.16
534.14	1559.31
534.50	1574.59
534.86	1590.23
535.21	1605.34
535.57	1621.08
535.93	1636.46
536.29	1650.95
536.65	1665.85
537.00	1680.50
537.36	1695.75
537.72	1710.07
538.08	1724.37
538.44	1737.99
538.79	1751.71
539.15	1765.16
539.51	1778.83
539.87	1793.13
540.22	1806.80
540.58	1820.47
540.94	1833.63
541.29	1846.44
541.65	1858.95
542.01	1872.07
542.37	1884.57
542.72	1896.84
543.08	1908.56
543.44	1921.00
543.79	1932.28
544.15	1943.11
544.51	1954.72
544.87	1965.60
545.22	1976.50
545.58	1986.70
545.94	1996.51
546.29	2006.34
546.65	2016.31
547.01	2025.50
547.36	2034.06
547.72	2042.48
548.07	2050.23
548.43	2058.32
548.79	2066.22
549.14	2073.86
549.50	2081.22
549.86	2088.75
550.21	2096.15
550.57	2103.23
550.92	2109.85
551.28	2116.81
551.64	2123.90
551.99	2130.41
552.35	2136.66
552.70	2142.75
553.06	2148.83
553.41	2155.16
553.77	2161.18
554.13	2167.26
554.48	2173.47
554.84	2179.03
555.19	2184.27
555.55	2189.47
555.90	2194.25
556.26	2199.30
556.61	2204.01
556.97	2208.23
557.32	2212.24
557.68	2216.35
558.03	2220.75
558.39	2224.29
558.74	2229.05
559.10	2232.93
559.45	2236.44
559.81	2240.67
560.16	2244.64
560.52	2247.70
560.87	2251.03
561.23	2253.60
561.58	2256.62
561.94	2259.10
562.29	2261.36
562.64	2264.13
563.00	2266.67
563.35	2270.00
563.71	2273.13
564.06	2276.35
564.42	2279.22
564.77	2281.95
565.12	2284.14
565.48	2286.00
565.83	2287.96
566.19	2289.33
566.54	2290.24
566.89	2291.47
567.25	2292.06
567.60	2293.35
567.96	2295.11
568.31	2295.96
568.66	2297.26
569.02	2297.75
569.37	2298.16
569.72	2299.19
570.08	2299.42
570.43	2299.53
570.78	2298.92
571.14	2297.34
571.49	2295.96
571.84	2295.82
572.20	2294.70
572.55	2293.78
572.90	2292.19
573.26	2290.81
573.61	2288.98
573.96	2287.16
574.31	2284.16
574.67	2281.19
575.02	2277.51
575.37	2274.11
575.72	2270.45
576.08	2267.08
576.43	2263.96
576.78	2260.23
577.13	2256.90
577.49	2253.78
577.84	2250.36
578.19	2246.56
578.54	2243.09
578.90	2238.98
579.25	2233.44
579.60	2228.50
579.95	2223.47
580.30	2218.48
580.66	2213.29
581.01	2208.46
581.36	2203.80
581.71	2199.81
582.06	2195.53
582.42	2191.15
582.77	2185.96
583.12	2181.44
583.47	2176.74
583.82	2171.63
584.17	2166.48
584.53	2161.17
584.88	2155.50
585.23	2149.80
585.58	2144.41
585.93	2138.86
586.28	2134.15
586.63	2128.99
586.98	2123.88
587.34	2119.22
587.69	2114.35
588.04	2109.17
588.39	2103.54
588.74	2097.05
589.09	2090.79
589.44	2083.94
589.79	2077.94
590.14	2072.37
590.49	2065.73
590.84	2059.33
591.19	2053.27
591.54	2046.72
591.89	2039.31
592.25	2032.69
592.60	2025.46
592.95	2017.96
593.30	2010.62
593.65	2002.99
594.00	1996.01
594.35	1988.76
594.70	1980.72
595.05	1973.59
595.40	1966.39
595.75	1958.84
596.10	1952.77
596.45	1946.12
596.80	1940.00
597.15	1933.36
597.50	1926.35
597.85	1919.91
598.19	1913.36
598.54	1906.31
598.89	1899.74
599.24	1893.87
599.59	1887.15
599.94	1880.94
600.29	1874.54
600.64	1867.93
600.99	1860.56
601.34	1853.88
601.69	1846.96
602.04	1840.15
602.39	1832.82
602.74	1825.95
603.08	1819.30
603.43	1812.44
603.78	1805.10
604.13	1797.87
604.48	1790.64
604.83	1783.75
605.18	1776.88
605.53	1768.85
605.87	1760.83
606.22	1753.50
606.57	1745.52
606.92	1738.21
607.27	1731.06
607.62	1724.16
607.96	1716.85
608.31	1710.23
608.66	1702.37
609.01	1694.88
609.36	1687.29
609.70	1679.33
610.05	1671.27
610.40	1663.53
610.75	1655.16
611.10	1647.53
611.44	1639.17
611.79	1631.00
612.14	1622.35
612.49	1613.22
612.83	1604.87
613.18	1596.84
613.53	1588.89
613.88	1580.43
614.22	1572.05
614.57	1563.52
614.92	1555.61
615.27	1548.20
615.61	1539.72
615.96	1531.82
616.31	1524.19
616.65	1516.83
617.00	1509.12
617.35	1501.46
617.70	1493.20
618.04	1484.69
618.39	1476.42
618.74	1468.72
619.08	1460.62
619.43	1453.02
619.78	1445.97
620.12	1438.69
620.47	1431.11
620.82	1422.91
621.16	1415.56
621.51	1408.01
621.85	1400.31
622.20	1391.74
622.55	1383.37
622.89	1375.69
623.24	1368.07
623.59	1360.59
623.93	1353.09
624.28	1345.99
624.62	1338.48
624.97	1331.29
625.32	1324.50
625.66	1317.48
626.01	1310.38
626.35	1302.79
626.70	1295.02
627.04	1287.31
627.39	1279.63
627.73	1272.28
628.08	1265.39
628.43	1257.96
628.77	1250.53
629.12	1243.00
629.46	1235.81
629.81	1228.34
630.15	1221.08
630.50	1213.59
630.84	1205.50
631.19	1197.53
631.53	1190.00
631.88	1182.41
632.22	1174.73
632.57	1167.48
632.91	1159.97
633.26	1152.52
633.60	1145.13
633.95	1137.99
634.29	1131.06
634.64	1124.39
634.98	1116.97
635.32	1109.73
635.67	1103.12
636.01	1096.58
636.36	1089.74
636.70	1083.14
637.05	1076.59
637.39	1070.14
637.73	1063.64
638.08	1057.70
638.42	1051.77
638.77	1045.34
639.11	1038.81
639.45	1032.42
639.80	1025.73
640.14	1019.38
640.49	1012.95
640.83	1006.71
641.17	1000.47
641.52	994.07
641.86	987.51
642.20	981.70
642.55	975.46
642.89	968.92
643.23	962.34
643.58	956.65
643.92	950.55
644.26	944.51
644.61	938.46
644.95	932.45
645.29	925.87
645.64	919.06
645.98	912.68
646.32	906.83
646.66	900.84
647.01	895.13
647.35	889.30
647.69	883.40
648.04	877.94
648.38	872.17
648.72	866.22
649.06	860.21
649.41	854.26
649.75	848.31
650.09	842.48
650.43	836.70
650.78	830.49
651.12	824.54
651.46	818.79
651.80	813.08
652.14	807.77
652.49	802.50
652.83	797.33
653.17	791.72
653.51	786.05
653.85	780.65
654.20	774.96
654.54	768.99
654.88	763.20
655.22	757.22
655.56	751.59
655.90	746.16
656.25	740.84
656.59	735.55
656.93	730.47
657.27	725.30
657.61	719.85
657.95	714.73
658.29	709.63
658.64	704.39
658.98	699.06
659.32	693.57
659.66	688.31
660.00	682.96
660.34	677.98
660.68	672.99
661.02	667.95
661.36	663.27
661.70	658.76
662.05	654.46
662.39	650.18
662.73	645.65
663.07	641.23
663.41	636.83
663.75	632.30
664.09	627.77
664.43	623.43
664.77	619.33
665.11	615.09
665.45	610.91
665.79	606.75
666.13	602.67
666.47	598.55
666.81	594.33
667.15	590.23
667.49	586.29
667.83	582.44
668.17	578.51
668.51	574.38
668.85	570.38
669.19	566.49
669.53	562.60
669.87	558.71
670.21	555.01
670.55	551.36
670.89	547.93
671.23	544.43
671.57	540.85
671.91	537.26
672.25	533.72
672.58	530.27
672.92	526.89
673.26	523.64
673.60	520.49
673.94	517.41
674.28	514.53
674.62	511.59
674.96	508.50
675.30	505.57
675.64	502.71
675.97	499.92
676.31	497.08
676.65	494.15
676.99	491.43
677.33	488.58
677.67	485.77
678.01	482.75
678.34	479.78
678.68	476.91
679.02	474.13
679.36	471.38
679.70	468.65
680.04	465.88
680.37	463.04
680.71	460.23
681.05	457.64
681.39	454.92
681.73	452.30
682.06	449.80
682.40	447.26
682.74	444.67
683.08	442.12
683.42	439.53
683.75	437.04
684.09	434.53
684.43	432.05
684.77	429.60
685.10	427.20
685.44	424.91
685.78	422.63
686.12	420.42
686.45	418.16
686.79	415.85
687.13	413.68
687.46	411.48
687.80	409.35
688.14	407.12
688.48	405.07
688.81	402.82
689.15	400.62
689.49	398.52
689.82	396.48
690.16	394.40
690.50	392.42
690.83	390.50
691.17	388.47
691.51	386.55
691.84	384.77
692.18	382.86
692.52	380.90
692.85	379.00
693.19	377.10
693.52	375.27
693.86	373.45
694.20	371.68
694.53	369.91
694.87	368.04
695.21	366.27
695.54	364.42
695.88	362.73
696.21	361.02
696.55	359.31
696.88	357.60
697.22	355.96
697.56	354.35
697.89	352.66
698.23	351.12
698.56	349.52
698.90	347.84
699.23	346.23
699.57	344.62
699.90	343.04
700.24	341.50
700.58	339.95
700.91	338.46
701.25	336.97
701.58	335.60
701.92	334.25
702.25	332.86
702.59	331.52
702.92	330.12
703.26	328.84
703.59	327.56
703.93	326.36
704.26	325.09
704.60	323.78
704.93	322.53
705.26	321.27
705.60	320.10
705.93	318.94
706.27	317.91
706.60	316.92
706.94	315.84
707.27	314.70
707.61	313.60
707.94	312.58
708.27	311.51
708.61	310.40
708.94	309.34
709.28	308.36
709.61	307.35
709.94	306.42
710.28	305.37
710.61	304.36
710.95	303.27
711.28	302.36
711.61	301.40
711.95	300.49
712.28	299.49
712.61	298.47
712.95	297.53
713.28	296.59
713.61	295.65
713.95	294.76
714.28	293.90
714.61	293.05
714.95	292.17
715.28	291.30
715.61	290.47
715.95	289.65
716.28	288.79
716.61	287.99
716.95	287.17
717.28	286.44
717.61	285.70
717.94	285.00
718.28	284.21
718.61	283.49
718.94	282.78
719.27	282.15
719.61	281.51
719.94	280.84
720.27	280.12
720.60	279.46
720.94	278.86
721.27	278.29
721.60	277.70
721.93	277.10
722.27	276.59
722.60	276.03
722.93	275.43
723.26	274.86
723.59	274.24
723.93	273.72
724.26	273.14
724.59	272.55
724.92	272.04
725.25	271.53
725.59	271.01
725.92	270.49
726.25	270.03
726.58	269.54
726.91	269.08
727.24	268.64
727.57	268.19
727.91	267.63
728.24	267.20
728.57	266.73
728.90	266.30
729.23	265.80
729.56	265.37
729.89	264.95
730.22	264.50
730.55	264.05
730.89	263.58
731.22	263.17
731.55	262.73
731.88	262.32
732.21	261.88
732.54	261.50
732.87	261.07
733.20	260.62
733.53	260.22
733.86	259.83
734.19	259.43
734.52	259.02
734.85	258.72
735.18	258.28
735.51	257.91
735.84	257.55
736.17	257.21
736.50	256.83
736.83	256.55
737.16	256.21
737.49	255.91
737.82	255.58
738.15	255.25
738.48	254.92
738.81	254.58
739.14	254.29
739.47	253.90
739.80	253.62
740.13	253.31
740.46	252.99
740.79	252.64
741.12	252.31
741.45	252.02
741.78	251.68
742.11	251.37
742.44	251.05
742.77	250.75
743.10	250.43
743.43	250.12
743.75	249.76
744.08	249.60
744.41	249.30
744.74	249.03
745.07	248.74
745.40	248.52
745.73	248.27
746.06	248.00
746.39	247.78
746.71	247.51
747.04	247.23
747.37	246.99
747.70	246.79
748.03	246.58
748.36	246.35
748.68	246.11
749.01	245.93
749.34	245.74
749.67	245.51
750.00	245.30
750.33	245.16
750.65	244.94
750.98	244.65
751.31	244.44
751.64	244.24
751.97	244.06
752.29	243.83
752.62	243.60
752.95	243.38
753.28	243.19
753.60	242.96
753.93	242.82
754.26	242.62
754.59	242.38
754.91	242.19
755.24	242.01
755.57	241.83
755.90	241.60
756.22	241.39
756.55	241.19
756.88	240.99
757.20	240.75
757.53	240.57
757.86	240.37
758.19	240.25
758.51	240.10
758.84	239.91
759.17	239.76
759.49	239.59
759.82	239.46
760.15	239.33
760.47	239.19
760.80	239.02
761.13	238.89
761.45	238.77
761.78	238.63
762.11	238.50
762.43	238.35
762.76	238.23
763.08	238.12
763.41	237.98
763.74	237.85
764.06	237.67
764.39	237.51
764.71	237.36
765.04	237.21
765.37	237.08
765.69	236.97
766.02	236.82
766.34	236.70
766.67	236.53
767.00	236.43
767.32	236.35
767.65	236.28
767.97	236.17
768.30	236.02
768.62	235.87
768.95	235.74
769.27	235.61
769.60	235.48
769.92	235.35
770.25	235.26
770.57	235.19
770.90	235.10
771.22	235.03
771.55	234.95
771.87	234.86
772.20	234.74
772.52	234.71
772.85	234.75
773.17	234.68
773.50	234.61
773.82	234.46
774.15	234.35
774.47	234.19
774.80	234.10
775.12	234.05
775.45	233.97
775.77	233.89
776.09	233.82
776.42	233.76
776.74	233.71
777.07	233.60
777.39	233.51
777.72	233.41
778.04	233.36
778.36	233.27
778.69	233.17
779.01	233.10
779.33	232.96
779.66	232.77
779.98	232.67
780.31	232.60
780.63	232.59
780.95	232.54
781.28	232.46
781.60	232.36
781.92	232.25
782.25	232.17
782.57	232.11
782.89	232.01
783.22	231.94
783.54	231.87
783.86	231.83
784.19	231.76
784.51	231.76
784.83	231.69
785.16	231.62
785.48	231.58
785.80	231.52
786.12	231.47
786.45	231.39
786.77	231.36
787.09	231.30
