SpectraSuite Data File
++++++++++++++++++++++++++++++++++++
Date: Fri Feb 01 15:15:38 EST 2013
User: group
Dark Spectrum Present: No
Reference Spectrum Present: No
Number of Sampled Component Spectra: 1
Spectrometers: USB2E7196
Integration Time (usec): 35000 (USB2E7196)
Spectra Averaged: 100 (USB2E7196)
Boxcar Smoothing: 10 (USB2E7196)
Correct for Electrical Dark: No (USB2E7196)
Strobe/Lamp Enabled: No (USB2E7196)
Correct for Detector Non-linearity: No (USB2E7196)
Correct for Stray Light: No (USB2E7196)
Number of Pixels in Processed Spectrum: 2048
>>>>>Begin Processed Spectral Data<<<<<
339.09	0.00
339.48	214.72
339.86	216.20
340.24	217.55
340.63	219.02
341.01	221.97
341.39	221.73
341.78	222.90
342.16	224.40
342.54	225.01
342.93	213.10
343.31	223.86
343.69	224.39
344.07	224.87
344.46	225.32
344.84	225.68
345.22	225.90
345.60	226.14
345.99	226.32
346.37	226.42
346.75	226.52
347.13	226.60
347.52	226.63
347.90	226.68
348.28	226.71
348.66	226.74
349.05	226.74
349.43	226.80
349.81	226.87
350.19	226.88
350.57	226.95
350.96	227.04
351.34	227.13
351.72	227.21
352.10	227.28
352.48	227.35
352.87	227.43
353.25	227.50
353.63	227.56
354.01	227.65
354.39	227.77
354.77	227.84
355.15	227.94
355.54	228.03
355.92	228.07
356.30	228.16
356.68	228.31
357.06	228.40
357.44	228.47
357.82	228.52
358.20	228.62
358.58	228.69
358.97	228.74
359.35	228.82
359.73	228.91
360.11	228.98
360.49	229.03
360.87	229.07
361.25	229.14
361.63	229.23
362.01	229.26
362.39	229.29
362.77	229.33
363.15	229.37
363.53	229.42
363.91	229.47
364.29	229.47
364.67	229.40
365.05	229.45
365.43	229.46
365.81	229.49
366.19	229.48
366.57	229.52
366.95	229.50
367.33	229.49
367.71	229.48
368.09	229.46
368.47	229.44
368.85	229.42
369.23	229.41
369.61	229.36
369.99	229.36
370.37	229.33
370.75	229.32
371.13	229.25
371.51	229.19
371.89	229.14
372.27	229.11
372.65	229.05
373.03	229.00
373.41	228.93
373.78	228.85
374.16	228.79
374.54	228.70
374.92	228.65
375.30	228.57
375.68	228.48
376.06	228.44
376.44	228.37
376.82	228.29
377.19	228.22
377.57	228.14
377.95	228.06
378.33	227.97
378.71	227.86
379.09	227.81
379.47	227.73
379.84	227.64
380.22	227.58
380.60	227.49
380.98	227.41
381.36	227.36
381.73	227.28
382.11	227.25
382.49	227.20
382.87	227.13
383.25	227.09
383.62	227.15
384.00	227.06
384.38	227.01
384.76	226.97
385.13	226.95
385.51	226.89
385.89	226.81
386.27	226.78
386.64	226.71
387.02	226.66
387.40	226.59
387.78	226.58
388.15	226.53
388.53	226.50
388.91	226.48
389.29	226.45
389.66	226.43
390.04	226.38
390.42	226.37
390.79	226.34
391.17	226.30
391.55	226.16
391.92	226.14
392.30	226.14
392.68	226.10
393.05	226.10
393.43	226.11
393.81	226.12
394.18	226.14
394.56	226.19
394.94	226.22
395.31	226.28
395.69	226.34
396.06	226.42
396.44	226.46
396.82	226.50
397.19	226.56
397.57	226.60
397.95	226.67
398.32	226.69
398.70	226.73
399.07	226.84
399.45	226.93
399.82	227.00
400.20	227.07
400.58	227.17
400.95	227.22
401.33	227.31
401.70	227.50
402.08	227.59
402.45	227.70
402.83	227.85
403.20	227.92
403.58	228.03
403.95	228.12
404.33	228.28
404.71	228.40
405.08	228.61
405.46	228.75
405.83	228.93
406.21	229.11
406.58	229.30
406.96	229.46
407.33	229.66
407.70	229.88
408.08	230.15
408.45	230.40
408.83	230.65
409.20	230.89
409.58	231.08
409.95	231.34
410.33	231.62
410.70	231.85
411.08	232.22
411.45	232.51
411.82	232.85
412.20	233.16
412.57	233.59
412.95	233.89
413.32	234.34
413.69	234.75
414.07	235.19
414.44	235.65
414.82	236.15
415.19	236.69
415.56	237.26
415.94	237.83
416.31	238.45
416.68	239.07
417.06	239.76
417.43	240.44
417.81	241.21
418.18	241.98
418.55	242.82
418.93	243.67
419.30	244.57
419.67	245.49
420.04	246.48
420.42	247.47
420.79	248.63
421.16	249.77
421.54	250.94
421.91	252.16
422.28	253.42
422.66	254.74
423.03	256.06
423.40	257.39
423.77	258.79
424.15	260.22
424.52	261.73
424.89	263.36
425.26	264.87
425.64	266.29
426.01	267.92
426.38	269.63
426.75	271.26
427.13	272.96
427.50	274.78
427.87	276.67
428.24	278.53
428.61	280.31
428.99	282.25
429.36	284.35
429.73	286.42
430.10	288.43
430.47	290.55
430.85	292.63
431.22	294.89
431.59	297.27
431.96	299.51
432.33	301.97
432.70	304.33
433.08	307.18
433.45	309.83
433.82	312.40
434.19	315.27
434.56	318.13
434.93	320.79
435.30	323.43
435.68	326.29
436.05	329.12
436.42	331.94
436.79	334.44
437.16	337.13
437.53	339.97
437.90	342.81
438.27	345.50
438.64	348.34
439.01	350.92
439.38	353.12
439.75	355.32
440.13	357.82
440.50	360.17
440.87	362.03
441.24	363.97
441.61	366.19
441.98	367.72
442.35	369.54
442.72	371.43
443.09	373.23
443.46	374.23
443.83	374.80
444.20	375.28
444.57	376.13
444.94	376.44
445.31	376.74
445.68	377.08
446.05	377.13
446.42	376.71
446.79	376.27
447.16	375.85
447.53	375.51
447.90	374.34
448.27	373.19
448.64	371.61
449.01	370.46
449.37	368.42
449.74	366.49
450.11	364.16
450.48	361.68
450.85	359.11
451.22	356.97
451.59	354.98
451.96	353.05
452.33	350.40
452.70	348.02
453.07	345.23
453.43	342.36
453.80	339.61
454.17	336.98
454.54	334.40
454.91	331.66
455.28	328.96
455.65	326.47
456.02	324.03
456.38	321.84
456.75	319.19
457.12	316.97
457.49	314.70
457.86	312.55
458.23	310.69
458.59	308.65
458.96	306.53
459.33	304.64
459.70	302.74
460.07	301.25
460.43	299.53
460.80	297.90
461.17	296.39
461.54	294.88
461.91	293.44
462.27	292.05
462.64	290.82
463.01	289.47
463.38	288.17
463.74	286.82
464.11	285.68
464.48	284.64
464.85	283.49
465.21	282.66
465.58	281.76
465.95	280.64
466.32	279.75
466.68	278.85
467.05	277.96
467.42	277.09
467.78	276.17
468.15	275.28
468.52	274.65
468.88	273.81
469.25	273.03
469.62	272.42
469.98	271.70
470.35	271.07
470.72	270.44
471.08	269.79
471.45	269.22
471.82	268.64
472.18	268.03
472.55	267.61
472.92	267.07
473.28	266.58
473.65	266.14
474.02	265.71
474.38	265.35
474.75	265.05
475.11	264.66
475.48	264.39
475.85	264.17
476.21	263.89
476.58	263.73
476.94	263.60
477.31	263.41
477.67	263.27
478.04	263.15
478.41	263.10
478.77	263.12
479.14	263.03
479.50	263.04
479.87	263.10
480.23	263.15
480.60	263.22
480.96	263.30
481.33	263.52
481.69	263.72
482.06	263.88
482.42	264.02
482.79	264.24
483.15	264.55
483.52	264.91
483.88	265.23
484.25	265.60
484.61	266.04
484.98	266.46
485.34	267.02
485.71	267.60
486.07	268.21
486.44	268.77
486.80	269.47
487.17	270.18
487.53	271.00
487.90	271.88
488.26	272.81
488.62	273.78
488.99	274.69
489.35	275.68
489.72	276.80
490.08	278.03
490.44	279.29
490.81	280.60
491.17	281.96
491.54	283.45
491.90	284.94
492.26	286.55
492.63	288.29
492.99	290.04
493.36	291.93
493.72	293.96
494.08	296.06
494.45	298.31
494.81	300.67
495.17	303.08
495.54	305.59
495.90	308.22
496.26	311.01
496.63	313.99
496.99	317.12
497.35	320.39
497.72	323.78
498.08	327.28
498.44	330.94
498.80	334.84
499.17	338.90
499.53	343.06
499.89	347.44
500.26	351.94
500.62	356.63
500.98	361.58
501.34	366.62
501.71	371.97
502.07	377.39
502.43	383.01
502.79	388.79
503.16	394.88
503.52	401.18
503.88	407.60
504.24	414.26
504.60	421.10
504.97	428.28
505.33	435.61
505.69	443.34
506.05	451.13
506.41	458.98
506.78	467.11
507.14	475.52
507.50	484.22
507.86	493.19
508.22	502.34
508.59	511.57
508.95	521.17
509.31	530.91
509.67	541.02
510.03	551.36
510.39	561.95
510.75	572.77
511.12	583.75
511.48	595.08
511.84	606.50
512.20	618.03
512.56	629.96
512.92	642.14
513.28	654.47
513.64	666.98
514.00	679.73
514.37	692.65
514.73	705.74
515.09	718.84
515.45	732.22
515.81	745.88
516.17	759.87
516.53	774.01
516.89	788.26
517.25	802.42
517.61	816.84
517.97	831.35
518.33	845.85
518.69	860.61
519.05	875.60
519.41	890.78
519.77	906.38
520.13	921.93
520.49	937.36
520.85	952.81
521.21	968.65
521.57	984.92
521.93	1000.83
522.29	1017.28
522.65	1033.55
523.01	1049.80
523.37	1065.84
523.73	1082.11
524.09	1098.29
524.45	1114.70
524.81	1131.52
525.17	1148.33
525.53	1165.26
525.89	1182.16
526.25	1199.12
526.61	1215.65
526.97	1232.52
527.33	1248.99
527.68	1265.52
528.04	1282.11
528.40	1298.76
528.76	1315.84
529.12	1332.39
529.48	1349.27
529.84	1365.43
530.20	1382.07
530.56	1399.16
530.91	1416.64
531.27	1433.37
531.63	1449.99
531.99	1466.62
532.35	1482.63
532.71	1498.70
533.07	1515.05
533.42	1531.01
533.78	1547.09
534.14	1563.44
534.50	1578.72
534.86	1594.73
535.21	1609.95
535.57	1625.85
535.93	1641.59
536.29	1656.41
536.65	1671.79
537.00	1686.58
537.36	1701.96
537.72	1716.62
538.08	1731.08
538.44	1745.00
538.79	1758.97
539.15	1772.65
539.51	1786.51
539.87	1800.84
540.22	1814.54
540.58	1828.38
540.94	1841.86
541.29	1854.91
541.65	1867.65
542.01	1881.18
542.37	1893.51
542.72	1906.00
543.08	1917.85
543.44	1930.23
543.79	1941.52
544.15	1952.46
544.51	1964.13
544.87	1975.08
545.22	1985.91
545.58	1996.13
545.94	2006.00
546.29	2015.95
546.65	2025.85
547.01	2034.94
547.36	2043.73
547.72	2052.32
548.07	2060.20
548.43	2068.34
548.79	2076.36
549.14	2083.89
549.50	2091.17
549.86	2098.96
550.21	2106.39
550.57	2113.60
550.92	2120.05
551.28	2127.21
551.64	2134.37
551.99	2141.04
552.35	2147.32
552.70	2153.47
553.06	2159.43
553.41	2165.83
553.77	2171.84
554.13	2177.94
554.48	2184.14
554.84	2189.50
555.19	2194.81
555.55	2199.94
555.90	2204.46
556.26	2209.22
556.61	2213.93
556.97	2217.97
557.32	2222.12
557.68	2226.19
558.03	2230.46
558.39	2234.25
558.74	2238.69
559.10	2242.43
559.45	2245.99
559.81	2250.19
560.16	2254.01
560.52	2257.30
560.87	2260.50
561.23	2263.08
561.58	2265.94
561.94	2268.50
562.29	2270.97
562.64	2273.66
563.00	2276.30
563.35	2279.61
563.71	2282.65
564.06	2285.74
564.42	2288.66
564.77	2290.99
565.12	2293.22
565.48	2295.03
565.83	2296.81
566.19	2298.21
566.54	2299.14
566.89	2300.14
567.25	2300.55
567.60	2301.90
567.96	2303.44
568.31	2304.24
568.66	2305.25
569.02	2305.81
569.37	2305.99
569.72	2306.78
570.08	2306.64
570.43	2306.56
570.78	2306.02
571.14	2304.48
571.49	2303.04
571.84	2302.70
572.20	2301.39
572.55	2300.29
572.90	2298.77
573.26	2297.32
573.61	2295.41
573.96	2293.46
574.31	2290.38
574.67	2287.27
575.02	2283.45
575.37	2280.01
575.72	2276.09
576.08	2272.79
576.43	2269.46
576.78	2265.73
577.13	2262.48
577.49	2259.42
577.84	2255.74
578.19	2251.96
578.54	2248.19
578.90	2243.92
579.25	2238.31
579.60	2233.47
579.95	2228.40
580.30	2223.22
580.66	2218.01
581.01	2213.14
581.36	2208.04
581.71	2203.90
582.06	2199.51
582.42	2194.97
582.77	2189.65
583.12	2184.94
583.47	2180.01
583.82	2174.74
584.17	2169.40
584.53	2163.71
584.88	2158.04
585.23	2152.16
585.58	2146.50
585.93	2140.98
586.28	2136.13
586.63	2130.99
586.98	2125.85
587.34	2121.00
587.69	2116.18
588.04	2110.68
588.39	2104.87
588.74	2098.45
589.09	2092.20
589.44	2085.25
589.79	2079.22
590.14	2073.65
590.49	2067.12
590.84	2060.68
591.19	2054.62
591.54	2048.08
591.89	2040.54
592.25	2033.47
592.60	2026.29
592.95	2018.62
593.30	2011.28
593.65	2003.65
594.00	1996.56
594.35	1989.22
594.70	1981.17
595.05	1973.76
595.40	1966.51
595.75	1958.87
596.10	1952.50
596.45	1945.70
596.80	1939.38
597.15	1932.49
597.50	1925.21
597.85	1918.74
598.19	1912.01
598.54	1904.77
598.89	1898.12
599.24	1892.27
599.59	1885.56
599.94	1879.26
600.29	1872.93
600.64	1866.35
600.99	1858.72
601.34	1851.71
601.69	1844.66
602.04	1837.67
602.39	1830.33
602.74	1823.38
603.08	1816.65
603.43	1809.89
603.78	1802.51
604.13	1795.38
604.48	1788.14
604.83	1781.30
605.18	1774.22
605.53	1766.26
605.87	1758.31
606.22	1751.04
606.57	1743.11
606.92	1735.86
607.27	1728.59
607.62	1721.64
607.96	1714.11
608.31	1707.57
608.66	1699.87
609.01	1692.33
609.36	1684.69
609.70	1676.58
610.05	1668.51
610.40	1660.70
610.75	1652.39
611.10	1644.70
611.44	1636.28
611.79	1628.39
612.14	1619.58
612.49	1610.50
612.83	1602.16
613.18	1594.02
613.53	1586.06
613.88	1577.51
614.22	1569.19
614.57	1560.71
614.92	1552.59
615.27	1545.08
615.61	1536.74
615.96	1528.81
616.31	1521.23
616.65	1513.92
617.00	1506.38
617.35	1498.69
617.70	1490.33
618.04	1481.84
618.39	1473.67
618.74	1466.09
619.08	1457.79
619.43	1450.38
619.78	1443.39
620.12	1436.15
620.47	1428.58
620.82	1420.31
621.16	1412.98
621.51	1405.28
621.85	1397.70
622.20	1389.21
622.55	1380.99
622.89	1373.27
623.24	1365.79
623.59	1358.43
623.93	1350.89
624.28	1343.68
624.62	1336.22
624.97	1329.15
625.32	1322.40
625.66	1315.35
626.01	1308.08
626.35	1300.49
626.70	1292.68
627.04	1284.94
627.39	1277.29
627.73	1269.94
628.08	1262.92
628.43	1255.56
628.77	1248.29
629.12	1240.63
629.46	1233.45
629.81	1226.03
630.15	1218.64
630.50	1211.19
630.84	1202.95
631.19	1195.14
631.53	1187.66
631.88	1180.22
632.22	1172.65
632.57	1165.35
632.91	1157.84
633.26	1150.48
633.60	1143.30
633.95	1136.29
634.29	1129.32
634.64	1122.59
634.98	1115.25
635.32	1108.16
635.67	1101.64
636.01	1095.03
636.36	1088.29
636.70	1081.93
637.05	1075.38
637.39	1068.96
637.73	1062.41
638.08	1056.51
638.42	1050.47
638.77	1044.02
639.11	1037.33
639.45	1030.94
639.80	1024.29
640.14	1017.78
640.49	1011.24
640.83	1004.86
641.17	998.51
641.52	992.26
641.86	985.84
642.20	979.97
642.55	973.70
642.89	967.11
643.23	960.65
643.58	954.82
643.92	948.57
644.26	942.47
644.61	936.57
644.95	930.59
645.29	923.97
645.64	917.22
645.98	910.91
646.32	905.15
646.66	899.06
647.01	893.27
647.35	887.65
647.69	881.91
648.04	876.35
648.38	870.58
648.72	864.49
649.06	858.43
649.41	852.61
649.75	846.60
650.09	840.76
650.43	835.00
650.78	828.87
651.12	822.94
651.46	817.17
651.80	811.36
652.14	806.03
652.49	800.63
652.83	795.47
653.17	789.72
653.51	783.93
653.85	778.55
654.20	772.97
654.54	767.00
654.88	761.25
655.22	755.41
655.56	749.77
655.90	744.33
656.25	739.02
656.59	733.59
656.93	728.51
657.27	723.37
657.61	717.84
657.95	712.85
658.29	707.69
658.64	702.46
658.98	697.14
659.32	691.63
659.66	686.49
660.00	681.21
660.34	676.34
660.68	671.48
661.02	666.53
661.36	661.80
661.70	657.31
662.05	652.91
662.39	648.63
662.73	644.20
663.07	639.84
663.41	635.37
663.75	630.93
664.09	626.43
664.43	622.01
664.77	617.86
665.11	613.57
665.45	609.54
665.79	605.51
666.13	601.40
666.47	597.29
666.81	593.07
667.15	588.96
667.49	585.08
667.83	581.22
668.17	577.32
668.51	573.24
668.85	569.21
669.19	565.37
669.53	561.48
669.87	557.62
670.21	553.92
670.55	550.38
670.89	546.95
671.23	543.52
671.57	540.06
671.91	536.57
672.25	533.08
672.58	529.55
672.92	526.15
673.26	523.03
673.60	519.95
673.94	516.90
674.28	514.05
674.62	511.07
674.96	508.02
675.30	505.04
675.64	502.14
675.97	499.44
676.31	496.62
676.65	493.66
676.99	490.92
677.33	488.11
677.67	485.26
678.01	482.21
678.34	479.23
678.68	476.32
679.02	473.50
679.36	470.71
679.70	468.03
680.04	465.25
680.37	462.37
680.71	459.58
681.05	456.97
681.39	454.24
681.73	451.65
682.06	449.13
682.40	446.64
682.74	444.11
683.08	441.52
683.42	438.89
683.75	436.49
684.09	433.99
684.43	431.49
684.77	429.07
685.10	426.78
685.44	424.54
685.78	422.32
686.12	420.13
686.45	417.94
686.79	415.59
687.13	413.43
687.46	411.26
687.80	409.12
688.14	406.92
688.48	404.83
688.81	402.56
689.15	400.45
689.49	398.29
689.82	396.24
690.16	394.15
690.50	392.22
690.83	390.24
691.17	388.29
691.51	386.44
691.84	384.64
692.18	382.69
692.52	380.64
692.85	378.70
693.19	376.81
693.52	374.96
693.86	373.18
694.20	371.39
694.53	369.58
694.87	367.74
695.21	365.95
695.54	364.13
695.88	362.36
696.21	360.62
696.55	358.98
696.88	357.29
697.22	355.68
697.56	354.07
697.89	352.46
698.23	350.82
698.56	349.16
698.90	347.53
699.23	345.88
699.57	344.33
699.90	342.80
700.24	341.24
700.58	339.67
700.91	338.20
701.25	336.76
701.58	335.39
701.92	334.02
702.25	332.64
702.59	331.26
702.92	329.97
703.26	328.66
703.59	327.34
703.93	326.17
704.26	324.90
704.60	323.61
704.93	322.31
705.26	321.08
705.60	319.96
705.93	318.80
706.27	317.82
706.60	316.78
706.94	315.71
707.27	314.60
707.61	313.57
707.94	312.53
708.27	311.49
708.61	310.46
708.94	309.49
709.28	308.55
709.61	307.62
709.94	306.69
710.28	305.69
710.61	304.71
710.95	303.62
711.28	302.71
711.61	301.82
711.95	300.97
712.28	300.06
712.61	299.08
712.95	298.16
713.28	297.26
713.61	296.39
713.95	295.51
714.28	294.66
714.61	293.78
714.95	292.94
715.28	292.04
715.61	291.16
715.95	290.30
716.28	289.42
716.61	288.61
716.95	287.81
717.28	287.06
717.61	286.31
717.94	285.61
718.28	284.80
718.61	284.02
718.94	283.29
719.27	282.63
719.61	281.99
719.94	281.35
720.27	280.66
720.60	279.99
720.94	279.36
721.27	278.78
721.60	278.24
721.93	277.64
722.27	277.15
722.60	276.60
722.93	276.04
723.26	275.53
723.59	274.97
723.93	274.43
724.26	273.87
724.59	273.36
724.92	272.85
725.25	272.36
725.59	271.85
725.92	271.35
726.25	270.87
726.58	270.35
726.91	269.86
727.24	269.41
727.57	268.90
727.91	268.42
728.24	267.96
728.57	267.44
728.90	267.01
729.23	266.51
729.56	266.07
729.89	265.60
730.22	265.11
730.55	264.62
730.89	264.18
731.22	263.75
731.55	263.27
731.88	262.88
732.21	262.42
732.54	262.01
732.87	261.60
733.20	261.18
733.53	260.82
733.86	260.45
734.19	260.05
734.52	259.72
734.85	259.42
735.18	259.00
735.51	258.65
735.84	258.26
736.17	257.89
736.50	257.48
736.83	257.25
737.16	256.94
737.49	256.62
737.82	256.27
738.15	255.94
738.48	255.62
738.81	255.26
739.14	254.99
739.47	254.69
739.80	254.39
740.13	254.05
740.46	253.73
740.79	253.39
741.12	253.05
741.45	252.68
741.78	252.31
742.11	252.02
742.44	251.69
742.77	251.41
743.10	251.13
743.43	250.84
743.75	250.45
744.08	250.29
744.41	250.03
744.74	249.77
745.07	249.45
745.40	249.19
745.73	248.93
746.06	248.61
746.39	248.32
746.71	248.01
747.04	247.74
747.37	247.47
747.70	247.21
748.03	246.99
748.36	246.80
748.68	246.55
749.01	246.31
749.34	246.08
749.67	245.83
750.00	245.61
750.33	245.45
750.65	245.21
750.98	244.86
751.31	244.61
751.64	244.40
751.97	244.27
752.29	244.07
752.62	243.87
752.95	243.67
753.28	243.48
753.60	243.25
753.93	243.10
754.26	242.89
754.59	242.71
754.91	242.47
755.24	242.24
755.57	242.04
755.90	241.87
756.22	241.66
756.55	241.48
756.88	241.30
757.20	241.07
757.53	240.89
757.86	240.75
758.19	240.61
758.51	240.47
758.84	240.26
759.17	240.06
759.49	239.88
759.82	239.77
760.15	239.61
760.47	239.49
760.80	239.31
761.13	239.18
761.45	238.97
761.78	238.81
762.11	238.67
762.43	238.55
762.76	238.40
763.08	238.32
763.41	238.19
763.74	238.04
764.06	237.90
764.39	237.79
764.71	237.65
765.04	237.52
765.37	237.37
765.69	237.25
766.02	237.12
766.34	236.98
766.67	236.83
767.00	236.75
767.32	236.68
767.65	236.65
767.97	236.53
768.30	236.48
768.62	236.41
768.95	236.31
769.27	236.19
769.60	236.11
769.92	235.98
770.25	235.87
770.57	235.77
770.90	235.67
771.22	235.56
771.55	235.45
771.87	235.35
772.20	235.24
772.52	235.24
772.85	235.26
773.17	235.20
773.50	235.10
773.82	234.97
774.15	234.81
774.47	234.63
774.80	234.56
775.12	234.46
775.45	234.39
775.77	234.30
776.09	234.21
776.42	234.08
776.74	234.04
777.07	233.96
777.39	233.89
777.72	233.80
778.04	233.73
778.36	233.66
778.69	233.61
779.01	233.54
779.33	233.35
779.66	233.17
779.98	233.06
780.31	233.02
780.63	233.00
780.95	232.99
781.28	232.95
781.60	232.89
781.92	232.81
782.25	232.74
782.57	232.70
782.89	232.63
783.22	232.57
783.54	232.46
783.86	232.42
784.19	232.34
784.51	232.31
784.83	232.25
785.16	232.16
785.48	232.10
785.80	232.05
786.12	232.03
786.45	231.98
786.77	231.94
787.09	231.87
