SpectraSuite Data File
++++++++++++++++++++++++++++++++++++
Date: Fri Feb 01 15:28:58 EST 2013
User: group
Dark Spectrum Present: No
Reference Spectrum Present: No
Number of Sampled Component Spectra: 1
Spectrometers: USB2E7196
Integration Time (usec): 35000 (USB2E7196)
Spectra Averaged: 100 (USB2E7196)
Boxcar Smoothing: 10 (USB2E7196)
Correct for Electrical Dark: No (USB2E7196)
Strobe/Lamp Enabled: No (USB2E7196)
Correct for Detector Non-linearity: No (USB2E7196)
Correct for Stray Light: No (USB2E7196)
Number of Pixels in Processed Spectrum: 2048
>>>>>Begin Processed Spectral Data<<<<<
339.09	0.00
339.48	215.01
339.86	216.19
340.24	217.89
340.63	218.90
341.01	222.04
341.39	222.23
341.78	223.07
342.16	225.19
342.54	224.80
342.93	213.26
343.31	224.06
343.69	224.59
344.07	225.05
344.46	225.47
344.84	225.83
345.22	226.07
345.60	226.31
345.99	226.51
346.37	226.61
346.75	226.73
347.13	226.83
347.52	226.90
347.90	227.01
348.28	227.05
348.66	227.10
349.05	227.10
349.43	227.13
349.81	227.19
350.19	227.19
350.57	227.24
350.96	227.33
351.34	227.38
351.72	227.45
352.10	227.57
352.48	227.63
352.87	227.73
353.25	227.76
353.63	227.79
354.01	227.84
354.39	227.92
354.77	228.01
355.15	228.10
355.54	228.17
355.92	228.21
356.30	228.28
356.68	228.44
357.06	228.55
357.44	228.63
357.82	228.71
358.20	228.84
358.58	228.90
358.97	228.97
359.35	229.07
359.73	229.17
360.11	229.23
360.49	229.31
360.87	229.33
361.25	229.43
361.63	229.52
362.01	229.59
362.39	229.59
362.77	229.61
363.15	229.64
363.53	229.65
363.91	229.68
364.29	229.70
364.67	229.60
365.05	229.58
365.43	229.62
365.81	229.62
366.19	229.64
366.57	229.68
366.95	229.69
367.33	229.64
367.71	229.66
368.09	229.65
368.47	229.62
368.85	229.64
369.23	229.62
369.61	229.59
369.99	229.57
370.37	229.58
370.75	229.61
371.13	229.52
371.51	229.49
371.89	229.47
372.27	229.43
372.65	229.40
373.03	229.38
373.41	229.28
373.78	229.20
374.16	229.05
374.54	228.97
374.92	228.87
375.30	228.80
375.68	228.67
376.06	228.60
376.44	228.51
376.82	228.43
377.19	228.35
377.57	228.24
377.95	228.14
378.33	228.02
378.71	227.86
379.09	227.85
379.47	227.76
379.84	227.65
380.22	227.60
380.60	227.50
380.98	227.40
381.36	227.36
381.73	227.32
382.11	227.28
382.49	227.20
382.87	227.12
383.25	227.07
383.62	227.10
384.00	227.04
384.38	226.98
384.76	226.97
385.13	226.95
385.51	226.95
385.89	226.88
386.27	226.88
386.64	226.86
387.02	226.77
387.40	226.73
387.78	226.68
388.15	226.61
388.53	226.56
388.91	226.53
389.29	226.47
389.66	226.43
390.04	226.42
390.42	226.44
390.79	226.42
391.17	226.38
391.55	226.30
391.92	226.29
392.30	226.33
392.68	226.29
393.05	226.26
393.43	226.25
393.81	226.29
394.18	226.27
394.56	226.31
394.94	226.35
395.31	226.35
395.69	226.43
396.06	226.49
396.44	226.53
396.82	226.55
397.19	226.65
397.57	226.67
397.95	226.74
398.32	226.74
398.70	226.80
399.07	226.90
399.45	226.96
399.82	227.01
400.20	227.03
400.58	227.13
400.95	227.20
401.33	227.33
401.70	227.47
402.08	227.57
402.45	227.71
402.83	227.84
403.20	227.97
403.58	228.07
403.95	228.20
404.33	228.36
404.71	228.53
405.08	228.69
405.46	228.84
405.83	228.98
406.21	229.15
406.58	229.33
406.96	229.53
407.33	229.72
407.70	229.94
408.08	230.26
408.45	230.49
408.83	230.70
409.20	230.87
409.58	231.06
409.95	231.33
410.33	231.60
410.70	231.83
411.08	232.15
411.45	232.46
411.82	232.78
412.20	233.12
412.57	233.52
412.95	233.83
413.32	234.24
413.69	234.67
414.07	235.09
414.44	235.60
414.82	236.05
415.19	236.57
415.56	237.13
415.94	237.66
416.31	238.28
416.68	238.92
417.06	239.67
417.43	240.34
417.81	241.13
418.18	241.92
418.55	242.80
418.93	243.69
419.30	244.60
419.67	245.52
420.04	246.47
420.42	247.49
420.79	248.70
421.16	249.85
421.54	251.01
421.91	252.24
422.28	253.48
422.66	254.85
423.03	256.15
423.40	257.51
423.77	258.93
424.15	260.33
424.52	261.83
424.89	263.42
425.26	265.01
425.64	266.44
426.01	268.03
426.38	269.68
426.75	271.35
427.13	273.08
427.50	274.90
427.87	276.78
428.24	278.62
428.61	280.36
428.99	282.32
429.36	284.44
429.73	286.52
430.10	288.55
430.47	290.61
430.85	292.71
431.22	294.90
431.59	297.24
431.96	299.51
432.33	302.00
432.70	304.37
433.08	307.15
433.45	309.82
433.82	312.41
434.19	315.30
434.56	318.10
434.93	320.72
435.30	323.34
435.68	326.25
436.05	329.06
436.42	331.83
436.79	334.40
437.16	337.05
437.53	339.88
437.90	342.67
438.27	345.40
438.64	348.28
439.01	350.91
439.38	353.15
439.75	355.32
440.13	357.81
440.50	360.16
440.87	362.01
441.24	363.91
441.61	366.07
441.98	367.54
442.35	369.33
442.72	371.17
443.09	372.99
443.46	373.98
443.83	374.61
444.20	375.14
444.57	375.91
444.94	376.23
445.31	376.55
445.68	376.93
446.05	376.97
446.42	376.54
446.79	376.11
447.16	375.66
447.53	375.33
447.90	374.12
448.27	372.96
448.64	371.39
449.01	370.25
449.37	368.26
449.74	366.35
450.11	364.09
450.48	361.62
450.85	359.06
451.22	356.91
451.59	354.89
451.96	352.90
452.33	350.28
452.70	347.92
453.07	345.08
453.43	342.19
453.80	339.44
454.17	336.81
454.54	334.27
454.91	331.55
455.28	328.89
455.65	326.43
456.02	323.96
456.38	321.80
456.75	319.17
457.12	316.92
457.49	314.70
457.86	312.57
458.23	310.75
458.59	308.73
458.96	306.62
459.33	304.72
459.70	302.90
460.07	301.44
460.43	299.70
460.80	298.07
461.17	296.59
461.54	295.06
461.91	293.62
462.27	292.17
462.64	290.90
463.01	289.55
463.38	288.25
463.74	286.91
464.11	285.76
464.48	284.67
464.85	283.57
465.21	282.71
465.58	281.73
465.95	280.57
466.32	279.67
466.68	278.72
467.05	277.85
467.42	276.95
467.78	276.01
468.15	275.16
468.52	274.52
468.88	273.68
469.25	272.90
469.62	272.26
469.98	271.59
470.35	270.98
470.72	270.36
471.08	269.72
471.45	269.18
471.82	268.63
472.18	268.05
472.55	267.60
472.92	267.08
473.28	266.63
473.65	266.20
474.02	265.74
474.38	265.44
474.75	265.12
475.11	264.75
475.48	264.50
475.85	264.28
476.21	264.02
476.58	263.85
476.94	263.74
477.31	263.58
477.67	263.40
478.04	263.27
478.41	263.22
478.77	263.28
479.14	263.17
479.50	263.14
479.87	263.18
480.23	263.24
480.60	263.28
480.96	263.35
481.33	263.56
481.69	263.75
482.06	263.89
482.42	264.05
482.79	264.29
483.15	264.56
483.52	264.92
483.88	265.25
484.25	265.59
484.61	265.97
484.98	266.39
485.34	266.98
485.71	267.56
486.07	268.10
486.44	268.62
486.80	269.33
487.17	270.08
487.53	270.90
487.90	271.75
488.26	272.69
488.62	273.70
488.99	274.68
489.35	275.72
489.72	276.87
490.08	278.07
490.44	279.30
490.81	280.65
491.17	281.98
491.54	283.51
491.90	285.04
492.26	286.69
492.63	288.43
492.99	290.20
493.36	292.07
493.72	294.18
494.08	296.28
494.45	298.53
494.81	300.92
495.17	303.35
495.54	305.90
495.90	308.58
496.26	311.35
496.63	314.31
496.99	317.40
497.35	320.64
497.72	324.08
498.08	327.60
498.44	331.27
498.80	335.23
499.17	339.22
499.53	343.42
499.89	347.82
500.26	352.36
500.62	357.05
500.98	362.03
501.34	367.09
501.71	372.41
502.07	377.83
502.43	383.43
502.79	389.29
503.16	395.34
503.52	401.62
503.88	408.02
504.24	414.68
504.60	421.61
504.97	428.73
505.33	436.05
505.69	443.74
506.05	451.56
506.41	459.47
506.78	467.66
507.14	476.11
507.50	484.78
507.86	493.80
508.22	502.97
508.59	512.20
508.95	521.80
509.31	531.64
509.67	541.81
510.03	552.13
510.39	562.67
510.75	573.57
511.12	584.56
511.48	595.85
511.84	607.31
512.20	618.83
512.56	630.86
512.92	643.04
513.28	655.44
513.64	667.91
514.00	680.64
514.37	693.62
514.73	706.69
515.09	719.74
515.45	733.04
515.81	746.70
516.17	760.70
516.53	774.80
516.89	789.03
517.25	803.25
517.61	817.73
517.97	832.26
518.33	846.66
518.69	861.50
519.05	876.55
519.41	891.74
519.77	907.33
520.13	922.82
520.49	938.17
520.85	953.65
521.21	969.39
521.57	985.68
521.93	1001.44
522.29	1018.02
522.65	1034.38
523.01	1050.72
523.37	1066.75
523.73	1083.04
524.09	1099.28
524.45	1115.73
524.81	1132.33
525.17	1149.19
525.53	1166.07
525.89	1183.05
526.25	1199.86
526.61	1216.32
526.97	1233.08
527.33	1249.67
527.68	1266.36
528.04	1283.01
528.40	1299.71
528.76	1316.80
529.12	1333.40
529.48	1350.34
529.84	1366.27
530.20	1382.96
530.56	1400.07
530.91	1417.53
531.27	1434.26
531.63	1450.73
531.99	1467.39
532.35	1483.51
532.71	1499.37
533.07	1515.66
533.42	1531.61
533.78	1547.78
534.14	1564.07
534.50	1579.51
534.86	1595.34
535.21	1610.53
535.57	1626.51
535.93	1641.97
536.29	1656.79
536.65	1671.94
537.00	1686.81
537.36	1702.25
537.72	1716.71
538.08	1730.94
538.44	1744.84
538.79	1758.77
539.15	1772.54
539.51	1786.22
539.87	1800.47
540.22	1814.25
540.58	1828.22
540.94	1841.44
541.29	1854.43
541.65	1867.24
542.01	1880.54
542.37	1893.04
542.72	1905.52
543.08	1917.32
543.44	1929.78
543.79	1941.13
544.15	1952.21
544.51	1963.83
544.87	1974.82
545.22	1985.82
545.58	1996.31
545.94	2006.06
546.29	2016.03
546.65	2025.85
547.01	2035.17
547.36	2044.12
547.72	2052.74
548.07	2060.58
548.43	2068.86
548.79	2076.74
549.14	2084.29
549.50	2091.74
549.86	2099.37
550.21	2106.68
550.57	2113.86
550.92	2120.57
551.28	2127.80
551.64	2134.82
551.99	2141.41
552.35	2147.50
552.70	2153.59
553.06	2159.50
553.41	2165.81
553.77	2171.82
554.13	2178.05
554.48	2184.13
554.84	2189.37
555.19	2194.65
555.55	2199.78
555.90	2204.24
556.26	2209.14
556.61	2213.86
556.97	2218.06
557.32	2222.14
557.68	2226.25
558.03	2230.55
558.39	2234.12
558.74	2238.48
559.10	2242.28
559.45	2245.90
559.81	2250.22
560.16	2254.22
560.52	2257.49
560.87	2261.05
561.23	2263.77
561.58	2266.60
561.94	2269.14
562.29	2271.66
562.64	2274.39
563.00	2277.08
563.35	2280.78
563.71	2283.97
564.06	2287.20
564.42	2290.07
564.77	2292.52
565.12	2294.94
565.48	2296.83
565.83	2298.65
566.19	2299.98
566.54	2301.01
566.89	2302.23
567.25	2302.79
567.60	2304.04
567.96	2305.66
568.31	2306.30
568.66	2307.18
569.02	2307.89
569.37	2308.33
569.72	2309.08
570.08	2309.16
570.43	2308.95
570.78	2308.28
571.14	2306.64
571.49	2305.25
571.84	2304.85
572.20	2303.69
572.55	2302.35
572.90	2300.76
573.26	2299.33
573.61	2297.71
573.96	2295.81
574.31	2292.64
574.67	2289.59
575.02	2285.75
575.37	2282.24
575.72	2278.39
576.08	2275.11
576.43	2271.55
576.78	2267.62
577.13	2264.44
577.49	2261.27
577.84	2257.83
578.19	2253.86
578.54	2250.08
578.90	2245.83
579.25	2240.11
579.60	2235.08
579.95	2230.05
580.30	2225.09
580.66	2219.89
581.01	2214.72
581.36	2209.78
581.71	2205.34
582.06	2200.88
582.42	2196.49
582.77	2191.21
583.12	2186.56
583.47	2181.74
583.82	2176.64
584.17	2171.32
584.53	2165.71
584.88	2159.95
585.23	2153.99
585.58	2148.57
585.93	2143.04
586.28	2138.14
586.63	2133.20
586.98	2128.15
587.34	2123.39
587.69	2118.41
588.04	2113.01
588.39	2107.30
588.74	2100.70
589.09	2094.71
589.44	2087.84
589.79	2081.58
590.14	2075.77
590.49	2069.22
590.84	2062.81
591.19	2056.86
591.54	2050.34
591.89	2042.82
592.25	2035.96
592.60	2028.71
592.95	2020.96
593.30	2013.62
593.65	2006.00
594.00	1998.80
594.35	1991.46
594.70	1983.38
595.05	1976.03
595.40	1968.77
595.75	1961.20
596.10	1954.86
596.45	1947.94
596.80	1941.64
597.15	1934.89
597.50	1927.81
597.85	1921.37
598.19	1914.54
598.54	1907.33
598.89	1900.78
599.24	1894.77
599.59	1888.05
599.94	1881.93
600.29	1875.62
600.64	1869.03
600.99	1861.48
601.34	1854.58
601.69	1847.43
602.04	1840.44
602.39	1833.01
602.74	1826.17
603.08	1819.47
603.43	1812.82
603.78	1805.52
604.13	1798.29
604.48	1791.10
604.83	1784.21
605.18	1777.11
605.53	1769.16
605.87	1760.95
606.22	1753.55
606.57	1745.65
606.92	1738.21
607.27	1730.96
607.62	1723.94
607.96	1716.68
608.31	1710.08
608.66	1702.35
609.01	1694.87
609.36	1687.27
609.70	1679.34
610.05	1671.28
610.40	1663.54
610.75	1655.06
611.10	1647.41
611.44	1639.01
611.79	1631.05
612.14	1622.32
612.49	1613.16
612.83	1604.84
613.18	1596.75
613.53	1588.68
613.88	1580.24
614.22	1572.14
614.57	1563.60
614.92	1555.67
615.27	1547.98
615.61	1539.59
615.96	1531.61
616.31	1523.95
616.65	1516.66
617.00	1508.95
617.35	1501.24
617.70	1492.84
618.04	1484.29
618.39	1476.06
618.74	1468.42
619.08	1460.07
619.43	1452.56
619.78	1445.65
620.12	1438.41
620.47	1430.86
620.82	1422.79
621.16	1415.32
621.51	1407.63
621.85	1399.78
622.20	1391.29
622.55	1382.98
622.89	1375.16
623.24	1367.55
623.59	1360.13
623.93	1352.61
624.28	1345.37
624.62	1337.82
624.97	1330.71
625.32	1324.10
625.66	1316.98
626.01	1309.75
626.35	1302.25
626.70	1294.41
627.04	1286.58
627.39	1278.76
627.73	1271.41
628.08	1264.31
628.43	1256.94
628.77	1249.43
629.12	1241.90
629.46	1234.62
629.81	1227.17
630.15	1219.82
630.50	1212.39
630.84	1204.19
631.19	1196.25
631.53	1188.78
631.88	1181.12
632.22	1173.46
632.57	1166.20
632.91	1158.75
633.26	1151.34
633.60	1144.03
633.95	1137.00
634.29	1130.11
634.64	1123.47
634.98	1116.13
635.32	1108.98
635.67	1102.36
636.01	1095.91
636.36	1089.19
636.70	1082.73
637.05	1076.20
637.39	1069.89
637.73	1063.40
638.08	1057.54
638.42	1051.53
638.77	1045.10
639.11	1038.56
639.45	1032.21
639.80	1025.49
640.14	1019.12
640.49	1012.63
640.83	1006.41
641.17	1000.22
641.52	993.90
641.86	987.54
642.20	981.69
642.55	975.49
642.89	969.11
643.23	962.42
643.58	956.63
643.92	950.40
644.26	944.30
644.61	938.19
644.95	932.23
645.29	925.60
645.64	918.91
645.98	912.55
646.32	906.77
646.66	900.75
647.01	895.04
647.35	889.30
647.69	883.50
648.04	877.87
648.38	872.08
648.72	865.98
649.06	859.87
649.41	853.95
649.75	847.91
650.09	841.90
650.43	836.15
650.78	829.99
651.12	824.10
651.46	818.43
651.80	812.67
652.14	807.30
652.49	801.98
652.83	796.77
653.17	791.15
653.51	785.32
653.85	779.89
654.20	774.16
654.54	768.18
654.88	762.43
655.22	756.56
655.56	750.84
655.90	745.43
656.25	740.17
656.59	734.84
656.93	729.81
657.27	724.66
657.61	719.26
657.95	714.17
658.29	709.02
658.64	703.75
658.98	698.48
659.32	692.94
659.66	687.72
660.00	682.42
660.34	677.42
660.68	672.59
661.02	667.54
661.36	662.81
661.70	658.28
662.05	653.91
662.39	649.58
662.73	645.09
663.07	640.61
663.41	636.12
663.75	631.64
664.09	626.97
664.43	622.63
664.77	618.55
665.11	614.23
665.45	610.09
665.79	606.01
666.13	601.87
666.47	597.80
666.81	593.67
667.15	589.54
667.49	585.69
667.83	581.86
668.17	577.95
668.51	573.92
668.85	569.89
669.19	566.05
669.53	562.15
669.87	558.34
670.21	554.70
670.55	551.08
670.89	547.68
671.23	544.31
671.57	540.79
671.91	537.25
672.25	533.76
672.58	530.26
672.92	526.90
673.26	523.75
673.60	520.58
673.94	517.45
674.28	514.59
674.62	511.62
674.96	508.54
675.30	505.67
675.64	502.71
675.97	499.94
676.31	497.12
676.65	494.26
676.99	491.49
677.33	488.68
677.67	485.88
678.01	482.81
678.34	479.83
678.68	476.95
679.02	474.09
679.36	471.38
679.70	468.71
680.04	465.92
680.37	463.05
680.71	460.22
681.05	457.65
681.39	454.91
681.73	452.21
682.06	449.64
682.40	447.05
682.74	444.54
683.08	442.03
683.42	439.36
683.75	436.82
684.09	434.30
684.43	431.83
684.77	429.39
685.10	427.06
685.44	424.75
685.78	422.51
686.12	420.31
686.45	417.96
686.79	415.68
687.13	413.48
687.46	411.37
687.80	409.25
688.14	407.00
688.48	404.95
688.81	402.73
689.15	400.61
689.49	398.53
689.82	396.46
690.16	394.31
690.50	392.36
690.83	390.45
691.17	388.51
691.51	386.66
691.84	384.85
692.18	382.94
692.52	381.01
692.85	379.06
693.19	377.19
693.52	375.39
693.86	373.62
694.20	371.84
694.53	370.04
694.87	368.23
695.21	366.48
695.54	364.68
695.88	362.99
696.21	361.28
696.55	359.62
696.88	357.91
697.22	356.33
697.56	354.73
697.89	353.05
698.23	351.42
698.56	349.74
698.90	348.14
699.23	346.51
699.57	344.93
699.90	343.36
700.24	341.82
700.58	340.33
700.91	338.78
701.25	337.33
701.58	335.97
701.92	334.61
702.25	333.24
702.59	331.90
702.92	330.55
703.26	329.22
703.59	327.92
703.93	326.75
704.26	325.49
704.60	324.21
704.93	322.99
705.26	321.77
705.60	320.61
705.93	319.43
706.27	318.40
706.60	317.35
706.94	316.29
707.27	315.13
707.61	314.05
707.94	313.03
708.27	311.92
708.61	310.83
708.94	309.81
709.28	308.82
709.61	307.82
709.94	306.88
710.28	305.88
710.61	304.92
710.95	303.84
711.28	302.94
711.61	301.98
711.95	301.02
712.28	300.05
712.61	299.09
712.95	298.16
713.28	297.26
713.61	296.36
713.95	295.48
714.28	294.63
714.61	293.73
714.95	292.88
715.28	292.07
715.61	291.21
715.95	290.33
716.28	289.47
716.61	288.66
716.95	287.82
717.28	287.04
717.61	286.24
717.94	285.49
718.28	284.63
718.61	283.92
718.94	283.25
719.27	282.60
719.61	281.93
719.94	281.27
720.27	280.56
720.60	279.93
720.94	279.28
721.27	278.71
721.60	278.18
721.93	277.58
722.27	277.03
722.60	276.43
722.93	275.90
723.26	275.36
723.59	274.80
723.93	274.27
724.26	273.71
724.59	273.19
724.92	272.66
725.25	272.20
725.59	271.69
725.92	271.19
726.25	270.72
726.58	270.23
726.91	269.75
727.24	269.32
727.57	268.83
727.91	268.35
728.24	267.93
728.57	267.42
728.90	267.01
729.23	266.49
729.56	266.11
729.89	265.63
730.22	265.15
730.55	264.69
730.89	264.28
731.22	263.85
731.55	263.40
731.88	262.97
732.21	262.59
732.54	262.13
732.87	261.71
733.20	261.28
733.53	260.94
733.86	260.57
734.19	260.14
734.52	259.74
734.85	259.48
735.18	259.03
735.51	258.66
735.84	258.29
736.17	257.95
736.50	257.52
736.83	257.28
737.16	256.96
737.49	256.62
737.82	256.24
738.15	255.91
738.48	255.62
738.81	255.31
739.14	254.95
739.47	254.63
739.80	254.32
740.13	254.00
740.46	253.64
740.79	253.29
741.12	253.01
741.45	252.71
741.78	252.28
742.11	251.99
742.44	251.66
742.77	251.34
743.10	251.03
743.43	250.76
743.75	250.40
744.08	250.23
744.41	249.94
744.74	249.66
745.07	249.38
745.40	249.11
745.73	248.85
746.06	248.57
746.39	248.30
746.71	248.02
747.04	247.72
747.37	247.46
747.70	247.22
748.03	246.93
748.36	246.68
748.68	246.45
749.01	246.19
749.34	245.99
749.67	245.76
750.00	245.55
750.33	245.37
750.65	245.12
750.98	244.78
751.31	244.55
751.64	244.34
751.97	244.14
752.29	243.88
752.62	243.61
752.95	243.39
753.28	243.15
753.60	242.94
753.93	242.77
754.26	242.51
754.59	242.25
754.91	242.05
755.24	241.87
755.57	241.69
755.90	241.49
756.22	241.30
756.55	241.09
756.88	240.88
757.20	240.64
757.53	240.43
757.86	240.29
758.19	240.15
758.51	240.01
758.84	239.82
759.17	239.68
759.49	239.58
759.82	239.47
760.15	239.35
760.47	239.23
760.80	239.06
761.13	238.98
761.45	238.84
761.78	238.70
762.11	238.55
762.43	238.39
762.76	238.24
763.08	238.09
763.41	237.94
763.74	237.84
764.06	237.69
764.39	237.59
764.71	237.43
765.04	237.30
765.37	237.17
765.69	237.06
766.02	236.94
766.34	236.81
766.67	236.65
767.00	236.56
767.32	236.48
767.65	236.44
767.97	236.31
768.30	236.22
768.62	236.13
768.95	235.99
769.27	235.95
769.60	235.89
769.92	235.83
770.25	235.75
770.57	235.63
770.90	235.58
771.22	235.46
771.55	235.39
771.87	235.30
772.20	235.22
772.52	235.21
772.85	235.24
773.17	235.16
773.50	235.11
773.82	235.02
774.15	234.88
774.47	234.75
774.80	234.69
775.12	234.63
775.45	234.56
775.77	234.52
776.09	234.43
776.42	234.38
776.74	234.28
777.07	234.22
777.39	234.16
777.72	234.07
778.04	234.02
778.36	233.96
778.69	233.88
779.01	233.80
779.33	233.66
779.66	233.49
779.98	233.39
780.31	233.30
780.63	233.28
780.95	233.26
781.28	233.17
781.60	233.07
781.92	233.01
782.25	232.93
782.57	232.89
782.89	232.82
783.22	232.70
783.54	232.64
783.86	232.56
784.19	232.47
784.51	232.45
784.83	232.40
785.16	232.32
785.48	232.32
785.80	232.26
786.12	232.19
786.45	232.12
786.77	232.05
787.09	231.96
