SpectraSuite Data File
++++++++++++++++++++++++++++++++++++
Date: Fri Feb 01 15:55:51 EST 2013
User: group
Dark Spectrum Present: No
Reference Spectrum Present: No
Number of Sampled Component Spectra: 1
Spectrometers: USB2E7196
Integration Time (usec): 35000 (USB2E7196)
Spectra Averaged: 100 (USB2E7196)
Boxcar Smoothing: 10 (USB2E7196)
Correct for Electrical Dark: No (USB2E7196)
Strobe/Lamp Enabled: No (USB2E7196)
Correct for Detector Non-linearity: No (USB2E7196)
Correct for Stray Light: No (USB2E7196)
Number of Pixels in Processed Spectrum: 2048
>>>>>Begin Processed Spectral Data<<<<<
339.09	0.00
339.48	215.27
339.86	216.20
340.24	217.42
340.63	219.37
341.01	221.97
341.39	221.43
341.78	222.49
342.16	223.69
342.54	225.08
342.93	213.02
343.31	223.79
343.69	224.32
344.07	224.76
344.46	225.18
344.84	225.54
345.22	225.74
345.60	225.99
345.99	226.19
346.37	226.35
346.75	226.43
347.13	226.52
347.52	226.60
347.90	226.69
348.28	226.73
348.66	226.78
349.05	226.78
349.43	226.79
349.81	226.84
350.19	226.89
350.57	226.95
350.96	227.02
351.34	227.10
351.72	227.16
352.10	227.28
352.48	227.36
352.87	227.41
353.25	227.48
353.63	227.57
354.01	227.63
354.39	227.71
354.77	227.80
355.15	227.90
355.54	227.93
355.92	227.97
356.30	228.04
356.68	228.19
357.06	228.25
357.44	228.32
357.82	228.36
358.20	228.45
358.58	228.53
358.97	228.62
359.35	228.71
359.73	228.81
360.11	228.86
360.49	228.93
360.87	229.00
361.25	229.08
361.63	229.15
362.01	229.21
362.39	229.26
362.77	229.31
363.15	229.32
363.53	229.39
363.91	229.43
364.29	229.45
364.67	229.35
365.05	229.37
365.43	229.38
365.81	229.42
366.19	229.47
366.57	229.52
366.95	229.52
367.33	229.48
367.71	229.47
368.09	229.49
368.47	229.49
368.85	229.46
369.23	229.46
369.61	229.43
369.99	229.43
370.37	229.41
370.75	229.42
371.13	229.38
371.51	229.33
371.89	229.28
372.27	229.25
372.65	229.22
373.03	229.19
373.41	229.12
373.78	229.06
374.16	228.94
374.54	228.84
374.92	228.76
375.30	228.70
375.68	228.62
376.06	228.54
376.44	228.45
376.82	228.38
377.19	228.30
377.57	228.19
377.95	228.09
378.33	228.01
378.71	227.89
379.09	227.84
379.47	227.79
379.84	227.70
380.22	227.60
380.60	227.51
380.98	227.44
381.36	227.38
381.73	227.30
382.11	227.27
382.49	227.22
382.87	227.16
383.25	227.06
383.62	227.12
384.00	227.02
384.38	226.96
384.76	226.94
385.13	226.92
385.51	226.88
385.89	226.80
386.27	226.73
386.64	226.68
387.02	226.62
387.40	226.53
387.78	226.50
388.15	226.46
388.53	226.44
388.91	226.39
389.29	226.33
389.66	226.30
390.04	226.25
390.42	226.21
390.79	226.19
391.17	226.20
391.55	226.06
391.92	226.06
392.30	226.07
392.68	226.03
393.05	226.02
393.43	225.99
393.81	226.03
394.18	226.04
394.56	226.04
394.94	226.05
395.31	226.07
395.69	226.11
396.06	226.15
396.44	226.17
396.82	226.22
397.19	226.31
397.57	226.37
397.95	226.44
398.32	226.46
398.70	226.51
399.07	226.57
399.45	226.64
399.82	226.71
400.20	226.76
400.58	226.86
400.95	226.88
401.33	227.04
401.70	227.18
402.08	227.27
402.45	227.37
402.83	227.51
403.20	227.63
403.58	227.75
403.95	227.89
404.33	228.06
404.71	228.15
405.08	228.36
405.46	228.49
405.83	228.63
406.21	228.81
406.58	228.99
406.96	229.14
407.33	229.32
407.70	229.50
408.08	229.79
408.45	229.97
408.83	230.21
409.20	230.43
409.58	230.61
409.95	230.89
410.33	231.15
410.70	231.35
411.08	231.63
411.45	231.91
411.82	232.23
412.20	232.56
412.57	233.00
412.95	233.29
413.32	233.70
413.69	234.11
414.07	234.56
414.44	235.05
414.82	235.55
415.19	236.09
415.56	236.66
415.94	237.23
416.31	237.90
416.68	238.56
417.06	239.27
417.43	239.90
417.81	240.66
418.18	241.46
418.55	242.31
418.93	243.16
419.30	244.06
419.67	244.98
420.04	245.95
420.42	246.92
420.79	248.07
421.16	249.23
421.54	250.44
421.91	251.65
422.28	252.89
422.66	254.21
423.03	255.51
423.40	256.88
423.77	258.27
424.15	259.69
424.52	261.18
424.89	262.77
425.26	264.34
425.64	265.83
426.01	267.41
426.38	269.12
426.75	270.84
427.13	272.59
427.50	274.40
427.87	276.25
428.24	278.10
428.61	279.86
428.99	281.77
429.36	283.86
429.73	285.90
430.10	287.92
430.47	290.01
430.85	292.15
431.22	294.35
431.59	296.71
431.96	298.97
432.33	301.41
432.70	303.81
433.08	306.61
433.45	309.19
433.82	311.79
434.19	314.63
434.56	317.44
434.93	320.10
435.30	322.74
435.68	325.59
436.05	328.45
436.42	331.26
436.79	333.78
437.16	336.45
437.53	339.27
437.90	342.05
438.27	344.75
438.64	347.54
439.01	350.09
439.38	352.30
439.75	354.41
440.13	356.88
440.50	359.19
440.87	361.08
441.24	363.03
441.61	365.18
441.98	366.71
442.35	368.47
442.72	370.32
443.09	372.10
443.46	373.14
443.83	373.71
444.20	374.24
444.57	375.07
444.94	375.32
445.31	375.66
445.68	375.99
446.05	376.06
446.42	375.69
446.79	375.29
447.16	374.88
447.53	374.59
447.90	373.47
448.27	372.28
448.64	370.66
449.01	369.47
449.37	367.52
449.74	365.63
450.11	363.40
450.48	360.92
450.85	358.38
451.22	356.24
451.59	354.26
451.96	352.30
452.33	349.72
452.70	347.41
453.07	344.59
453.43	341.76
453.80	339.01
454.17	336.33
454.54	333.78
454.91	331.00
455.28	328.28
455.65	325.75
456.02	323.33
456.38	321.20
456.75	318.58
457.12	316.33
457.49	314.11
457.86	311.98
458.23	310.10
458.59	308.10
458.96	306.02
459.33	304.11
459.70	302.26
460.07	300.78
460.43	299.04
460.80	297.45
461.17	296.01
461.54	294.49
461.91	293.08
462.27	291.65
462.64	290.45
463.01	289.14
463.38	287.87
463.74	286.51
464.11	285.37
464.48	284.33
464.85	283.22
465.21	282.35
465.58	281.43
465.95	280.35
466.32	279.38
466.68	278.46
467.05	277.57
467.42	276.65
467.78	275.70
468.15	274.86
468.52	274.18
468.88	273.30
469.25	272.57
469.62	271.96
469.98	271.32
470.35	270.69
470.72	270.08
471.08	269.44
471.45	268.89
471.82	268.33
472.18	267.79
472.55	267.38
472.92	266.84
473.28	266.35
473.65	265.92
474.02	265.48
474.38	265.14
474.75	264.80
475.11	264.47
475.48	264.22
475.85	264.00
476.21	263.76
476.58	263.59
476.94	263.45
477.31	263.25
477.67	263.08
478.04	262.96
478.41	262.93
478.77	262.95
479.14	262.87
479.50	262.87
479.87	262.92
480.23	262.95
480.60	263.02
480.96	263.14
481.33	263.33
481.69	263.56
482.06	263.75
482.42	263.99
482.79	264.23
483.15	264.53
483.52	264.89
483.88	265.23
484.25	265.63
484.61	266.08
484.98	266.56
485.34	267.14
485.71	267.73
486.07	268.33
486.44	268.89
486.80	269.63
487.17	270.37
487.53	271.20
487.90	272.09
488.26	273.03
488.62	273.97
488.99	274.94
489.35	275.97
489.72	277.09
490.08	278.28
490.44	279.52
490.81	280.84
491.17	282.15
491.54	283.63
491.90	285.13
492.26	286.73
492.63	288.42
492.99	290.17
493.36	292.04
493.72	294.09
494.08	296.25
494.45	298.51
494.81	300.85
495.17	303.24
495.54	305.82
495.90	308.50
496.26	311.34
496.63	314.32
496.99	317.42
497.35	320.69
497.72	324.11
498.08	327.65
498.44	331.32
498.80	335.26
499.17	339.29
499.53	343.46
499.89	347.87
500.26	352.37
500.62	357.07
500.98	362.02
501.34	367.08
501.71	372.36
502.07	377.79
502.43	383.42
502.79	389.26
503.16	395.33
503.52	401.60
503.88	408.01
504.24	414.69
504.60	421.61
504.97	428.74
505.33	436.06
505.69	443.77
506.05	451.60
506.41	459.51
506.78	467.66
507.14	476.14
507.50	484.83
507.86	493.88
508.22	503.09
508.59	512.29
508.95	521.90
509.31	531.72
509.67	541.79
510.03	552.09
510.39	562.68
510.75	573.45
511.12	584.43
511.48	595.72
511.84	607.14
512.20	618.66
512.56	630.68
512.92	642.93
513.28	655.29
513.64	667.77
514.00	680.50
514.37	693.43
514.73	706.50
515.09	719.52
515.45	732.85
515.81	746.45
516.17	760.50
516.53	774.60
516.89	788.82
517.25	803.00
517.61	817.40
517.97	831.83
518.33	846.24
518.69	860.96
519.05	875.89
519.41	891.03
519.77	906.56
520.13	921.90
520.49	937.23
520.85	952.60
521.21	968.27
521.57	984.45
521.93	1000.14
522.29	1016.45
522.65	1032.79
523.01	1048.95
523.37	1065.03
523.73	1081.18
524.09	1097.25
524.45	1113.50
524.81	1130.12
525.17	1146.95
525.53	1163.84
525.89	1180.70
526.25	1197.58
526.61	1213.89
526.97	1230.54
527.33	1247.00
527.68	1263.58
528.04	1279.95
528.40	1296.60
528.76	1313.65
529.12	1330.24
529.48	1347.19
529.84	1363.33
530.20	1379.86
530.56	1396.84
530.91	1414.08
531.27	1430.80
531.63	1447.28
531.99	1463.88
532.35	1479.76
532.71	1495.61
533.07	1511.86
533.42	1527.76
533.78	1543.68
534.14	1560.10
534.50	1575.46
534.86	1591.15
535.21	1606.34
535.57	1622.31
535.93	1637.71
536.29	1652.45
536.65	1667.34
537.00	1682.02
537.36	1697.21
537.72	1711.64
538.08	1725.98
538.44	1739.76
538.79	1753.48
539.15	1767.06
539.51	1780.79
539.87	1795.18
540.22	1808.81
540.58	1822.44
540.94	1835.79
541.29	1848.69
541.65	1861.29
542.01	1874.51
542.37	1886.88
542.72	1899.24
543.08	1910.88
543.44	1923.25
543.79	1934.39
544.15	1945.46
544.51	1956.93
544.87	1967.86
545.22	1978.72
545.58	1988.90
545.94	1998.69
546.29	2008.70
546.65	2018.53
547.01	2027.73
547.36	2036.37
547.72	2044.95
548.07	2052.77
548.43	2060.78
548.79	2068.90
549.14	2076.29
549.50	2083.63
549.86	2091.31
550.21	2098.63
550.57	2105.86
550.92	2112.43
551.28	2119.47
551.64	2126.59
551.99	2133.12
552.35	2139.36
552.70	2145.46
553.06	2151.54
553.41	2157.96
553.77	2163.87
554.13	2170.05
554.48	2176.13
554.84	2181.58
555.19	2186.85
555.55	2192.02
555.90	2196.49
556.26	2201.14
556.61	2206.04
556.97	2210.29
557.32	2214.43
557.68	2218.54
558.03	2222.88
558.39	2226.49
558.74	2231.18
559.10	2234.93
559.45	2238.74
559.81	2243.00
560.16	2246.85
560.52	2250.03
560.87	2253.15
561.23	2255.88
561.58	2258.76
561.94	2261.29
562.29	2263.72
562.64	2266.33
563.00	2268.99
563.35	2272.54
563.71	2275.77
564.06	2278.93
564.42	2281.73
564.77	2284.32
565.12	2286.59
565.48	2288.36
565.83	2290.31
566.19	2291.62
566.54	2292.56
566.89	2293.64
567.25	2294.14
567.60	2295.57
567.96	2297.20
568.31	2298.31
568.66	2299.29
569.02	2299.88
569.37	2300.29
569.72	2301.17
570.08	2301.31
570.43	2301.38
570.78	2300.80
571.14	2299.22
571.49	2297.96
571.84	2297.76
572.20	2296.65
572.55	2295.69
572.90	2294.23
573.26	2292.74
573.61	2290.95
573.96	2289.21
574.31	2286.25
574.67	2283.22
575.02	2279.48
575.37	2276.16
575.72	2272.27
576.08	2269.11
576.43	2265.80
576.78	2261.99
577.13	2258.83
577.49	2255.67
577.84	2252.04
578.19	2248.49
578.54	2244.93
578.90	2240.67
579.25	2235.06
579.60	2229.95
579.95	2224.89
580.30	2219.82
580.66	2214.79
581.01	2209.95
581.36	2205.05
581.71	2200.80
582.06	2196.54
582.42	2192.08
582.77	2186.91
583.12	2182.33
583.47	2177.57
583.82	2172.40
584.17	2167.34
584.53	2161.65
584.88	2156.02
585.23	2150.32
585.58	2144.67
585.93	2139.23
586.28	2134.48
586.63	2129.50
586.98	2124.39
587.34	2119.64
587.69	2114.86
588.04	2109.47
588.39	2103.77
588.74	2097.30
589.09	2091.23
589.44	2084.28
589.79	2078.27
590.14	2072.67
590.49	2066.23
590.84	2059.79
591.19	2053.93
591.54	2047.34
591.89	2040.04
592.25	2033.33
592.60	2026.23
592.95	2018.61
593.30	2011.12
593.65	2003.38
594.00	1996.21
594.35	1989.08
594.70	1981.03
595.05	1973.74
595.40	1966.53
595.75	1959.00
596.10	1952.69
596.45	1945.96
596.80	1939.69
597.15	1933.05
597.50	1925.88
597.85	1919.40
598.19	1912.80
598.54	1905.56
598.89	1899.01
599.24	1893.19
599.59	1886.45
599.94	1880.11
600.29	1873.90
600.64	1867.49
600.99	1860.09
601.34	1853.36
601.69	1846.42
602.04	1839.71
602.39	1832.46
602.74	1825.66
603.08	1819.00
603.43	1812.28
603.78	1804.97
604.13	1797.83
604.48	1790.45
604.83	1783.63
605.18	1776.55
605.53	1768.45
605.87	1760.53
606.22	1753.28
606.57	1745.38
606.92	1738.17
607.27	1731.06
607.62	1724.04
607.96	1716.83
608.31	1710.23
608.66	1702.52
609.01	1694.86
609.36	1687.09
609.70	1679.08
610.05	1671.05
610.40	1663.40
610.75	1655.09
611.10	1647.38
611.44	1639.00
611.79	1631.07
612.14	1622.35
612.49	1613.25
612.83	1604.97
613.18	1596.91
613.53	1588.76
613.88	1580.11
614.22	1571.72
614.57	1563.07
614.92	1555.00
615.27	1547.36
615.61	1539.00
615.96	1530.98
616.31	1523.44
616.65	1516.17
617.00	1508.50
617.35	1500.81
617.70	1492.43
618.04	1483.94
618.39	1475.73
618.74	1468.13
619.08	1459.78
619.43	1452.22
619.78	1445.34
620.12	1438.08
620.47	1430.49
620.82	1422.30
621.16	1414.95
621.51	1407.44
621.85	1399.84
622.20	1391.30
622.55	1382.95
622.89	1375.11
623.24	1367.51
623.59	1360.12
623.93	1352.66
624.28	1345.46
624.62	1337.83
624.97	1330.63
625.32	1323.95
625.66	1316.95
626.01	1309.75
626.35	1302.41
626.70	1294.71
627.04	1286.93
627.39	1279.22
627.73	1271.86
628.08	1265.03
628.43	1257.71
628.77	1250.23
629.12	1242.63
629.46	1235.70
629.81	1228.29
630.15	1221.06
630.50	1213.67
630.84	1205.47
631.19	1197.48
631.53	1190.02
631.88	1182.57
632.22	1174.99
632.57	1167.70
632.91	1160.14
633.26	1152.74
633.60	1145.36
633.95	1138.19
634.29	1131.13
634.64	1124.49
634.98	1117.13
635.32	1109.92
635.67	1103.35
636.01	1096.78
636.36	1090.05
636.70	1083.33
637.05	1076.76
637.39	1070.36
637.73	1063.86
638.08	1057.97
638.42	1051.93
638.77	1045.39
639.11	1038.78
639.45	1032.34
639.80	1025.69
640.14	1019.19
640.49	1012.69
640.83	1006.37
641.17	1000.08
641.52	993.75
641.86	987.25
642.20	981.32
642.55	975.07
642.89	968.51
643.23	961.94
643.58	956.11
643.92	949.97
644.26	943.89
644.61	937.89
644.95	931.83
645.29	925.27
645.64	918.50
645.98	912.27
646.32	906.38
646.66	900.32
647.01	894.53
647.35	888.86
647.69	882.99
648.04	877.41
648.38	871.57
648.72	865.51
649.06	859.41
649.41	853.55
649.75	847.54
650.09	841.67
650.43	835.86
650.78	829.70
651.12	823.83
651.46	818.08
651.80	812.27
652.14	806.85
652.49	801.46
652.83	796.40
653.17	790.66
653.51	784.96
653.85	779.68
654.20	773.94
654.54	767.96
654.88	762.25
655.22	756.46
655.56	750.86
655.90	745.52
656.25	740.33
656.59	735.01
656.93	729.93
657.27	724.74
657.61	719.48
657.95	714.51
658.29	709.37
658.64	704.17
658.98	698.91
659.32	693.51
659.66	688.29
660.00	682.96
660.34	678.15
660.68	673.29
661.02	668.20
661.36	663.58
661.70	659.16
662.05	654.78
662.39	650.41
662.73	646.00
663.07	641.70
663.41	637.24
663.75	632.74
664.09	628.18
664.43	623.85
664.77	619.64
665.11	615.29
665.45	611.18
665.79	607.13
666.13	603.02
666.47	598.91
666.81	594.85
667.15	590.72
667.49	586.73
667.83	582.89
668.17	578.97
668.51	574.89
668.85	570.91
669.19	567.16
669.53	563.37
669.87	559.47
670.21	555.75
670.55	552.12
670.89	548.73
671.23	545.35
671.57	541.82
671.91	538.33
672.25	534.87
672.58	531.33
672.92	527.86
673.26	524.67
673.60	521.52
673.94	518.38
674.28	515.48
674.62	512.58
674.96	509.47
675.30	506.57
675.64	503.68
675.97	500.85
676.31	498.01
676.65	495.06
676.99	492.33
677.33	489.36
677.67	486.58
678.01	483.48
678.34	480.47
678.68	477.58
679.02	474.69
679.36	471.92
679.70	469.22
680.04	466.46
680.37	463.54
680.71	460.72
681.05	458.06
681.39	455.34
681.73	452.63
682.06	450.07
682.40	447.45
682.74	444.85
683.08	442.25
683.42	439.59
683.75	437.08
684.09	434.53
684.43	432.09
684.77	429.57
685.10	427.25
685.44	424.93
685.78	422.59
686.12	420.35
686.45	418.05
686.79	415.68
687.13	413.46
687.46	411.30
687.80	409.15
688.14	406.92
688.48	404.85
688.81	402.59
689.15	400.40
689.49	398.28
689.82	396.20
690.16	394.10
690.50	392.14
690.83	390.13
691.17	388.12
691.51	386.25
691.84	384.38
692.18	382.43
692.52	380.45
692.85	378.54
693.19	376.66
693.52	374.85
693.86	373.07
694.20	371.31
694.53	369.55
694.87	367.72
695.21	365.96
695.54	364.13
695.88	362.40
696.21	360.74
696.55	359.08
696.88	357.41
697.22	355.80
697.56	354.14
697.89	352.58
698.23	350.99
698.56	349.38
698.90	347.82
699.23	346.13
699.57	344.59
699.90	343.07
700.24	341.53
700.58	339.97
700.91	338.48
701.25	337.06
701.58	335.65
701.92	334.30
702.25	332.94
702.59	331.56
702.92	330.22
703.26	328.92
703.59	327.63
703.93	326.46
704.26	325.24
704.60	323.95
704.93	322.66
705.26	321.43
705.60	320.29
705.93	319.13
706.27	318.18
706.60	317.12
706.94	316.05
707.27	314.96
707.61	313.90
707.94	312.89
708.27	311.79
708.61	310.72
708.94	309.71
709.28	308.71
709.61	307.77
709.94	306.89
710.28	305.83
710.61	304.86
710.95	303.76
711.28	302.86
711.61	301.92
711.95	301.03
712.28	300.10
712.61	299.08
712.95	298.16
713.28	297.22
713.61	296.35
713.95	295.45
714.28	294.62
714.61	293.83
714.95	292.97
715.28	292.15
715.61	291.32
715.95	290.46
716.28	289.61
716.61	288.80
716.95	287.99
717.28	287.28
717.61	286.57
717.94	285.86
718.28	285.06
718.61	284.33
718.94	283.64
719.27	283.00
719.61	282.38
719.94	281.71
720.27	281.00
720.60	280.32
720.94	279.69
721.27	279.08
721.60	278.48
721.93	277.88
722.27	277.33
722.60	276.75
722.93	276.20
723.26	275.66
723.59	275.09
723.93	274.51
724.26	273.95
724.59	273.34
724.92	272.82
725.25	272.30
725.59	271.78
725.92	271.26
726.25	270.74
726.58	270.24
726.91	269.77
727.24	269.30
727.57	268.84
727.91	268.33
728.24	267.87
728.57	267.35
728.90	266.90
729.23	266.38
729.56	265.97
729.89	265.51
730.22	265.03
730.55	264.54
730.89	264.07
731.22	263.61
731.55	263.18
731.88	262.72
732.21	262.26
732.54	261.84
732.87	261.41
733.20	261.01
733.53	260.59
733.86	260.17
734.19	259.77
734.52	259.37
734.85	259.07
735.18	258.64
735.51	258.30
735.84	257.91
736.17	257.56
736.50	257.10
736.83	256.83
737.16	256.49
737.49	256.14
737.82	255.81
738.15	255.49
738.48	255.12
738.81	254.78
739.14	254.48
739.47	254.18
739.80	253.86
740.13	253.54
740.46	253.24
740.79	252.92
741.12	252.62
741.45	252.31
741.78	251.94
742.11	251.64
742.44	251.31
742.77	251.01
743.10	250.71
743.43	250.47
743.75	250.12
744.08	249.95
744.41	249.69
744.74	249.44
745.07	249.15
745.40	248.91
745.73	248.68
746.06	248.40
746.39	248.11
746.71	247.86
747.04	247.57
747.37	247.32
747.70	247.07
748.03	246.82
748.36	246.63
748.68	246.39
749.01	246.16
749.34	245.96
749.67	245.75
750.00	245.51
750.33	245.33
750.65	245.12
750.98	244.82
751.31	244.59
751.64	244.38
751.97	244.26
752.29	244.05
752.62	243.82
752.95	243.60
753.28	243.36
753.60	243.14
753.93	242.98
754.26	242.77
754.59	242.55
754.91	242.35
755.24	242.13
755.57	241.94
755.90	241.76
756.22	241.57
756.55	241.37
756.88	241.16
757.20	240.94
757.53	240.73
757.86	240.55
758.19	240.42
758.51	240.26
758.84	240.02
759.17	239.88
759.49	239.73
759.82	239.64
760.15	239.54
760.47	239.43
760.80	239.25
761.13	239.08
761.45	238.94
761.78	238.82
762.11	238.68
762.43	238.55
762.76	238.40
763.08	238.26
763.41	238.15
763.74	238.05
764.06	237.90
764.39	237.76
764.71	237.62
765.04	237.45
765.37	237.32
765.69	237.21
766.02	237.07
766.34	236.93
766.67	236.76
767.00	236.65
767.32	236.57
767.65	236.52
767.97	236.43
768.30	236.29
768.62	236.15
768.95	236.04
769.27	235.92
769.60	235.81
769.92	235.67
770.25	235.54
770.57	235.41
770.90	235.30
771.22	235.19
771.55	235.09
771.87	235.00
772.20	234.88
772.52	234.84
772.85	234.85
773.17	234.77
773.50	234.67
773.82	234.57
774.15	234.40
774.47	234.23
774.80	234.13
775.12	234.07
775.45	233.95
775.77	233.86
776.09	233.78
776.42	233.68
776.74	233.61
777.07	233.50
777.39	233.44
777.72	233.32
778.04	233.28
778.36	233.19
778.69	233.13
779.01	233.05
779.33	232.92
779.66	232.72
779.98	232.67
780.31	232.60
780.63	232.59
780.95	232.56
781.28	232.49
781.60	232.44
781.92	232.36
782.25	232.33
782.57	232.23
782.89	232.15
783.22	232.12
783.54	232.06
783.86	232.03
784.19	231.96
784.51	231.96
784.83	231.89
785.16	231.85
785.48	231.79
785.80	231.73
786.12	231.69
786.45	231.64
786.77	231.60
787.09	231.54
