SpectraSuite Data File
++++++++++++++++++++++++++++++++++++
Date: Fri Feb 01 16:18:52 EST 2013
User: group
Dark Spectrum Present: No
Reference Spectrum Present: No
Number of Sampled Component Spectra: 1
Spectrometers: USB2E7196
Integration Time (usec): 35000 (USB2E7196)
Spectra Averaged: 100 (USB2E7196)
Boxcar Smoothing: 10 (USB2E7196)
Correct for Electrical Dark: No (USB2E7196)
Strobe/Lamp Enabled: No (USB2E7196)
Correct for Detector Non-linearity: No (USB2E7196)
Correct for Stray Light: No (USB2E7196)
Number of Pixels in Processed Spectrum: 2048
>>>>>Begin Processed Spectral Data<<<<<
339.09	0.00
339.48	213.66
339.86	215.59
340.24	217.74
340.63	218.12
341.01	221.80
341.39	221.15
341.78	222.53
342.16	223.45
342.54	224.12
342.93	212.56
343.31	223.28
343.69	223.81
344.07	224.26
344.46	224.64
344.84	225.04
345.22	225.24
345.60	225.47
345.99	225.63
346.37	225.78
346.75	225.85
347.13	225.89
347.52	225.95
347.90	226.02
348.28	226.02
348.66	226.04
349.05	226.02
349.43	226.05
349.81	226.10
350.19	226.13
350.57	226.18
350.96	226.22
351.34	226.29
351.72	226.39
352.10	226.50
352.48	226.56
352.87	226.57
353.25	226.61
353.63	226.70
354.01	226.77
354.39	226.83
354.77	226.92
355.15	227.03
355.54	227.07
355.92	227.09
356.30	227.15
356.68	227.27
357.06	227.33
357.44	227.37
357.82	227.46
358.20	227.55
358.58	227.60
358.97	227.68
359.35	227.79
359.73	227.89
360.11	227.94
360.49	228.00
360.87	228.07
361.25	228.15
361.63	228.20
362.01	228.25
362.39	228.26
362.77	228.29
363.15	228.31
363.53	228.35
363.91	228.38
364.29	228.44
364.67	228.41
365.05	228.45
365.43	228.50
365.81	228.49
366.19	228.52
366.57	228.58
366.95	228.58
367.33	228.54
367.71	228.54
368.09	228.56
368.47	228.57
368.85	228.56
369.23	228.55
369.61	228.49
369.99	228.52
370.37	228.54
370.75	228.54
371.13	228.51
371.51	228.44
371.89	228.42
372.27	228.35
372.65	228.30
373.03	228.23
373.41	228.17
373.78	228.15
374.16	228.05
374.54	227.96
374.92	227.90
375.30	227.85
375.68	227.76
376.06	227.71
376.44	227.65
376.82	227.58
377.19	227.51
377.57	227.46
377.95	227.37
378.33	227.29
378.71	227.18
379.09	227.11
379.47	227.06
379.84	226.98
380.22	226.91
380.60	226.85
380.98	226.81
381.36	226.74
381.73	226.65
382.11	226.62
382.49	226.54
382.87	226.50
383.25	226.43
383.62	226.49
384.00	226.40
384.38	226.33
384.76	226.33
385.13	226.31
385.51	226.24
385.89	226.15
386.27	226.09
386.64	226.06
387.02	226.01
387.40	225.98
387.78	225.95
388.15	225.96
388.53	225.92
388.91	225.90
389.29	225.84
389.66	225.81
390.04	225.75
390.42	225.75
390.79	225.71
391.17	225.70
391.55	225.56
391.92	225.54
392.30	225.51
392.68	225.44
393.05	225.44
393.43	225.47
393.81	225.49
394.18	225.49
394.56	225.51
394.94	225.55
395.31	225.53
395.69	225.57
396.06	225.57
396.44	225.58
396.82	225.58
397.19	225.64
397.57	225.68
397.95	225.71
398.32	225.72
398.70	225.78
399.07	225.83
399.45	225.89
399.82	225.97
400.20	226.03
400.58	226.09
400.95	226.12
401.33	226.18
401.70	226.29
402.08	226.37
402.45	226.48
402.83	226.59
403.20	226.70
403.58	226.79
403.95	226.91
404.33	227.07
404.71	227.20
405.08	227.40
405.46	227.51
405.83	227.67
406.21	227.82
406.58	227.99
406.96	228.16
407.33	228.34
407.70	228.49
408.08	228.77
408.45	229.01
408.83	229.21
409.20	229.43
409.58	229.59
409.95	229.85
410.33	230.10
410.70	230.32
411.08	230.61
411.45	230.92
411.82	231.21
412.20	231.56
412.57	231.99
412.95	232.28
413.32	232.72
413.69	233.12
414.07	233.57
414.44	234.03
414.82	234.51
415.19	235.05
415.56	235.62
415.94	236.14
416.31	236.75
416.68	237.41
417.06	238.13
417.43	238.83
417.81	239.60
418.18	240.34
418.55	241.21
418.93	242.06
419.30	242.96
419.67	243.93
420.04	244.86
420.42	245.85
420.79	247.05
421.16	248.18
421.54	249.37
421.91	250.58
422.28	251.84
422.66	253.16
423.03	254.47
423.40	255.80
423.77	257.21
424.15	258.68
424.52	260.14
424.89	261.76
425.26	263.32
425.64	264.78
426.01	266.40
426.38	268.04
426.75	269.78
427.13	271.52
427.50	273.33
427.87	275.23
428.24	277.09
428.61	278.78
428.99	280.71
429.36	282.83
429.73	284.88
430.10	286.92
430.47	289.00
430.85	291.10
431.22	293.30
431.59	295.67
431.96	297.90
432.33	300.43
432.70	302.80
433.08	305.61
433.45	308.24
433.82	310.86
434.19	313.78
434.56	316.60
434.93	319.25
435.30	321.83
435.68	324.70
436.05	327.55
436.42	330.39
436.79	332.94
437.16	335.58
437.53	338.41
437.90	341.18
438.27	343.91
438.64	346.82
439.01	349.42
439.38	351.66
439.75	353.82
440.13	356.31
440.50	358.64
440.87	360.46
441.24	362.39
441.61	364.54
441.98	366.05
442.35	367.82
442.72	369.65
443.09	371.47
443.46	372.42
443.83	372.95
444.20	373.45
444.57	374.27
444.94	374.58
445.31	374.92
445.68	375.25
446.05	375.29
446.42	374.83
446.79	374.40
447.16	373.93
447.53	373.60
447.90	372.37
448.27	371.16
448.64	369.56
449.01	368.46
449.37	366.44
449.74	364.47
450.11	362.22
450.48	359.78
450.85	357.24
451.22	355.12
451.59	353.09
451.96	351.13
452.33	348.53
452.70	346.17
453.07	343.33
453.43	340.41
453.80	337.71
454.17	335.03
454.54	332.51
454.91	329.86
455.28	327.18
455.65	324.72
456.02	322.32
456.38	320.23
456.75	317.52
457.12	315.25
457.49	313.05
457.86	310.87
458.23	308.99
458.59	306.95
458.96	304.88
459.33	303.03
459.70	301.17
460.07	299.67
460.43	297.99
460.80	296.36
461.17	294.96
461.54	293.43
461.91	292.01
462.27	290.56
462.64	289.28
463.01	287.98
463.38	286.72
463.74	285.35
464.11	284.18
464.48	283.19
464.85	282.13
465.21	281.26
465.58	280.32
465.95	279.20
466.32	278.30
466.68	277.45
467.05	276.58
467.42	275.73
467.78	274.78
468.15	273.90
468.52	273.28
468.88	272.44
469.25	271.71
469.62	271.12
469.98	270.48
470.35	269.87
470.72	269.27
471.08	268.59
471.45	268.07
471.82	267.53
472.18	266.95
472.55	266.53
472.92	266.02
473.28	265.64
473.65	265.22
474.02	264.79
474.38	264.42
474.75	264.10
475.11	263.76
475.48	263.52
475.85	263.34
476.21	263.12
476.58	262.94
476.94	262.83
477.31	262.67
477.67	262.53
478.04	262.41
478.41	262.37
478.77	262.45
479.14	262.40
479.50	262.45
479.87	262.54
480.23	262.62
480.60	262.69
480.96	262.77
481.33	262.98
481.69	263.20
482.06	263.38
482.42	263.58
482.79	263.80
483.15	264.13
483.52	264.48
483.88	264.81
484.25	265.21
484.61	265.58
484.98	266.02
485.34	266.57
485.71	267.20
486.07	267.82
486.44	268.38
486.80	269.07
487.17	269.77
487.53	270.57
487.90	271.46
488.26	272.38
488.62	273.35
488.99	274.34
489.35	275.36
489.72	276.53
490.08	277.74
490.44	278.98
490.81	280.28
491.17	281.62
491.54	283.09
491.90	284.63
492.26	286.29
492.63	288.03
492.99	289.81
493.36	291.67
493.72	293.71
494.08	295.80
494.45	298.05
494.81	300.41
495.17	302.80
495.54	305.31
495.90	307.99
496.26	310.79
496.63	313.68
496.99	316.80
497.35	320.03
497.72	323.41
498.08	326.92
498.44	330.60
498.80	334.53
499.17	338.57
499.53	342.73
499.89	347.10
500.26	351.63
500.62	356.31
500.98	361.27
501.34	366.30
501.71	371.63
502.07	377.10
502.43	382.72
502.79	388.59
503.16	394.70
503.52	400.96
503.88	407.43
504.24	414.15
504.60	421.05
504.97	428.19
505.33	435.58
505.69	443.38
506.05	451.20
506.41	459.13
506.78	467.28
507.14	475.79
507.50	484.52
507.86	493.56
508.22	502.72
508.59	511.93
508.95	521.57
509.31	531.40
509.67	541.48
510.03	551.77
510.39	562.33
510.75	573.12
511.12	584.20
511.48	595.52
511.84	606.94
512.20	618.49
512.56	630.40
512.92	642.59
513.28	654.94
513.64	667.51
514.00	680.17
514.37	693.11
514.73	706.14
515.09	719.19
515.45	732.52
515.81	746.19
516.17	760.22
516.53	774.37
516.89	788.58
517.25	802.85
517.61	817.31
517.97	831.76
518.33	846.27
518.69	860.94
519.05	875.87
519.41	891.03
519.77	906.52
520.13	922.01
520.49	937.32
520.85	952.69
521.21	968.35
521.57	984.66
521.93	1000.40
522.29	1016.80
522.65	1033.00
523.01	1049.12
523.37	1065.13
523.73	1081.24
524.09	1097.16
524.45	1113.48
524.81	1130.03
525.17	1146.86
525.53	1163.73
525.89	1180.56
526.25	1197.37
526.61	1213.69
526.97	1230.50
527.33	1246.89
527.68	1263.47
528.04	1280.02
528.40	1296.57
528.76	1313.61
529.12	1330.12
529.48	1347.02
529.84	1363.00
530.20	1379.58
530.56	1396.62
530.91	1414.03
531.27	1430.72
531.63	1447.21
531.99	1463.79
532.35	1479.66
532.71	1495.45
533.07	1511.70
533.42	1527.57
533.78	1543.51
534.14	1559.80
534.50	1575.01
534.86	1590.80
535.21	1605.80
535.57	1621.52
535.93	1636.95
536.29	1651.54
536.65	1666.50
537.00	1681.32
537.36	1696.54
537.72	1711.03
538.08	1725.33
538.44	1739.04
538.79	1752.85
539.15	1766.47
539.51	1780.05
539.87	1794.41
540.22	1808.04
540.58	1821.69
540.94	1834.97
541.29	1847.88
541.65	1860.45
542.01	1873.54
542.37	1885.95
542.72	1898.46
543.08	1910.15
543.44	1922.57
543.79	1933.85
544.15	1944.86
544.51	1956.19
544.87	1967.06
545.22	1977.80
545.58	1987.88
545.94	1997.50
546.29	2007.34
546.65	2017.25
547.01	2026.36
547.36	2034.96
547.72	2043.41
548.07	2051.25
548.43	2059.20
548.79	2067.13
549.14	2074.62
549.50	2081.97
549.86	2089.54
550.21	2096.84
550.57	2103.99
550.92	2110.48
551.28	2117.40
551.64	2124.38
551.99	2130.95
552.35	2137.11
552.70	2143.24
553.06	2149.44
553.41	2155.74
553.77	2161.68
554.13	2167.68
554.48	2173.90
554.84	2179.35
555.19	2184.62
555.55	2189.81
555.90	2194.31
556.26	2199.29
556.61	2204.04
556.97	2208.32
557.32	2212.57
557.68	2216.46
558.03	2220.80
558.39	2224.40
558.74	2229.14
559.10	2232.90
559.45	2236.43
559.81	2240.71
560.16	2244.66
560.52	2247.86
560.87	2251.35
561.23	2254.18
561.58	2257.20
561.94	2259.69
562.29	2262.08
562.64	2264.80
563.00	2267.25
563.35	2270.89
563.71	2273.92
564.06	2277.23
564.42	2280.12
564.77	2282.60
565.12	2285.16
565.48	2287.13
565.83	2289.15
566.19	2290.44
566.54	2291.41
566.89	2292.70
567.25	2293.44
567.60	2294.56
567.96	2296.20
568.31	2296.91
568.66	2298.09
569.02	2298.58
569.37	2298.91
569.72	2299.89
570.08	2300.05
570.43	2300.24
570.78	2299.65
571.14	2298.21
571.49	2296.88
571.84	2296.65
572.20	2295.46
572.55	2294.36
572.90	2292.87
573.26	2291.47
573.61	2289.80
573.96	2288.05
574.31	2285.18
574.67	2282.13
575.02	2278.66
575.37	2275.30
575.72	2271.78
576.08	2268.53
576.43	2265.37
576.78	2261.71
577.13	2258.64
577.49	2255.56
577.84	2252.04
578.19	2248.38
578.54	2244.77
578.90	2240.57
579.25	2234.96
579.60	2229.93
579.95	2224.91
580.30	2219.87
580.66	2214.81
581.01	2209.85
581.36	2205.14
581.71	2200.97
582.06	2196.56
582.42	2192.20
582.77	2187.05
583.12	2182.46
583.47	2177.56
583.82	2172.54
584.17	2167.44
584.53	2161.84
584.88	2156.18
585.23	2150.49
585.58	2145.03
585.93	2139.58
586.28	2134.73
586.63	2129.78
586.98	2124.97
587.34	2120.44
587.69	2115.59
588.04	2110.25
588.39	2104.77
588.74	2098.27
589.09	2092.16
589.44	2085.32
589.79	2079.32
590.14	2073.60
590.49	2067.13
590.84	2060.91
591.19	2054.99
591.54	2048.51
591.89	2041.14
592.25	2034.48
592.60	2027.25
592.95	2019.66
593.30	2012.39
593.65	2004.81
594.00	1997.79
594.35	1990.40
594.70	1982.25
595.05	1975.16
595.40	1968.07
595.75	1960.54
596.10	1954.44
596.45	1947.74
596.80	1941.76
597.15	1935.04
597.50	1928.12
597.85	1921.64
598.19	1914.93
598.54	1907.75
598.89	1901.12
599.24	1895.29
599.59	1888.61
599.94	1882.58
600.29	1876.22
600.64	1869.66
600.99	1862.38
601.34	1855.65
601.69	1848.89
602.04	1842.14
602.39	1834.74
602.74	1827.89
603.08	1821.15
603.43	1814.44
603.78	1807.10
604.13	1799.79
604.48	1792.64
604.83	1785.75
605.18	1778.77
605.53	1770.85
605.87	1762.86
606.22	1755.74
606.57	1747.85
606.92	1740.54
607.27	1733.37
607.62	1726.63
607.96	1719.29
608.31	1712.59
608.66	1704.91
609.01	1697.31
609.36	1689.81
609.70	1681.82
610.05	1673.70
610.40	1666.01
610.75	1657.59
611.10	1649.99
611.44	1641.61
611.79	1633.57
612.14	1624.88
612.49	1615.62
612.83	1607.23
613.18	1599.12
613.53	1590.93
613.88	1582.29
614.22	1574.01
614.57	1565.33
614.92	1557.24
615.27	1549.72
615.61	1541.50
615.96	1533.51
616.31	1525.83
616.65	1518.43
617.00	1510.76
617.35	1503.05
617.70	1494.79
618.04	1486.32
618.39	1478.00
618.74	1470.37
619.08	1461.98
619.43	1454.27
619.78	1447.53
620.12	1440.29
620.47	1432.69
620.82	1424.60
621.16	1417.19
621.51	1409.55
621.85	1401.92
622.20	1393.24
622.55	1384.78
622.89	1376.88
623.24	1369.20
623.59	1361.80
623.93	1354.22
624.28	1347.08
624.62	1339.53
624.97	1332.28
625.32	1325.58
625.66	1318.57
626.01	1311.48
626.35	1304.09
626.70	1296.44
627.04	1288.60
627.39	1280.76
627.73	1273.44
628.08	1266.48
628.43	1259.26
628.77	1251.78
629.12	1244.12
629.46	1237.04
629.81	1229.69
630.15	1222.47
630.50	1215.09
630.84	1206.81
631.19	1198.83
631.53	1191.30
631.88	1183.78
632.22	1176.12
632.57	1168.68
632.91	1161.10
633.26	1153.63
633.60	1146.31
633.95	1139.20
634.29	1132.10
634.64	1125.48
634.98	1118.02
635.32	1110.80
635.67	1104.21
636.01	1097.67
636.36	1090.93
636.70	1084.27
637.05	1077.75
637.39	1071.14
637.73	1064.62
638.08	1058.84
638.42	1052.88
638.77	1046.43
639.11	1039.84
639.45	1033.45
639.80	1026.70
640.14	1020.29
640.49	1013.71
640.83	1007.26
641.17	1000.98
641.52	994.61
641.86	988.11
642.20	982.24
642.55	975.93
642.89	969.35
643.23	962.79
643.58	957.07
643.92	950.94
644.26	944.83
644.61	938.78
644.95	932.62
645.29	925.96
645.64	919.20
645.98	912.89
646.32	907.06
646.66	901.04
647.01	895.33
647.35	889.56
647.69	883.75
648.04	878.22
648.38	872.47
648.72	866.58
649.06	860.58
649.41	854.77
649.75	848.80
650.09	842.88
650.43	837.08
650.78	830.91
651.12	824.90
651.46	819.19
651.80	813.52
652.14	808.16
652.49	802.80
652.83	797.61
653.17	791.76
653.51	785.98
653.85	780.60
654.20	775.03
654.54	769.03
654.88	763.29
655.22	757.43
655.56	751.73
655.90	746.21
656.25	740.93
656.59	735.49
656.93	730.39
657.27	725.23
657.61	719.81
657.95	714.68
658.29	709.64
658.64	704.34
658.98	698.96
659.32	693.49
659.66	688.23
660.00	682.89
660.34	678.06
660.68	673.13
661.02	668.04
661.36	663.24
661.70	658.79
662.05	654.37
662.39	650.07
662.73	645.60
663.07	641.20
663.41	636.74
663.75	632.26
664.09	627.71
664.43	623.27
664.77	619.13
665.11	614.82
665.45	610.65
665.79	606.58
666.13	602.45
666.47	598.40
666.81	594.21
667.15	590.09
667.49	586.16
667.83	582.39
668.17	578.47
668.51	574.37
668.85	570.36
669.19	566.54
669.53	562.69
669.87	558.84
670.21	555.16
670.55	551.57
670.89	548.15
671.23	544.67
671.57	541.18
671.91	537.61
672.25	534.15
672.58	530.66
672.92	527.19
673.26	524.08
673.60	520.94
673.94	517.82
674.28	514.93
674.62	512.00
674.96	508.86
675.30	505.89
675.64	502.99
675.97	500.13
676.31	497.20
676.65	494.23
676.99	491.47
677.33	488.62
677.67	485.74
678.01	482.67
678.34	479.75
678.68	476.87
679.02	474.02
679.36	471.24
679.70	468.53
680.04	465.80
680.37	462.89
680.71	460.01
681.05	457.46
681.39	454.73
681.73	452.06
682.06	449.47
682.40	446.96
682.74	444.42
683.08	441.91
683.42	439.36
683.75	436.84
684.09	434.29
684.43	431.82
684.77	429.34
685.10	427.00
685.44	424.69
685.78	422.40
686.12	420.19
686.45	417.89
686.79	415.61
687.13	413.41
687.46	411.29
687.80	409.17
688.14	406.98
688.48	404.88
688.81	402.62
689.15	400.48
689.49	398.35
689.82	396.30
690.16	394.26
690.50	392.32
690.83	390.43
691.17	388.44
691.51	386.50
691.84	384.72
692.18	382.79
692.52	380.80
692.85	378.89
693.19	377.02
693.52	375.21
693.86	373.36
694.20	371.58
694.53	369.73
694.87	367.85
695.21	366.04
695.54	364.27
695.88	362.59
696.21	360.92
696.55	359.23
696.88	357.51
697.22	355.82
697.56	354.17
697.89	352.52
698.23	350.96
698.56	349.34
698.90	347.70
699.23	346.09
699.57	344.47
699.90	342.91
700.24	341.39
700.58	339.86
700.91	338.37
701.25	336.93
701.58	335.60
701.92	334.28
702.25	332.91
702.59	331.45
702.92	330.05
703.26	328.71
703.59	327.41
703.93	326.21
704.26	324.92
704.60	323.64
704.93	322.34
705.26	321.03
705.60	319.83
705.93	318.67
706.27	317.59
706.60	316.56
706.94	315.47
707.27	314.30
707.61	313.21
707.94	312.19
708.27	311.10
708.61	310.01
708.94	308.99
709.28	307.97
709.61	307.02
709.94	306.11
710.28	305.11
710.61	304.13
710.95	303.05
711.28	302.12
711.61	301.16
711.95	300.22
712.28	299.22
712.61	298.27
712.95	297.34
713.28	296.43
713.61	295.50
713.95	294.61
714.28	293.77
714.61	292.88
714.95	291.99
715.28	291.12
715.61	290.20
715.95	289.31
716.28	288.47
716.61	287.62
716.95	286.76
717.28	285.97
717.61	285.15
717.94	284.42
718.28	283.63
718.61	282.89
718.94	282.22
719.27	281.61
719.61	280.97
719.94	280.33
720.27	279.59
720.60	278.95
720.94	278.29
721.27	277.65
721.60	277.08
721.93	276.51
722.27	275.93
722.60	275.38
722.93	274.79
723.26	274.28
723.59	273.75
723.93	273.19
724.26	272.65
724.59	272.12
724.92	271.57
725.25	271.08
725.59	270.55
725.92	270.06
726.25	269.56
726.58	269.05
726.91	268.54
727.24	268.13
727.57	267.68
727.91	267.24
728.24	266.81
728.57	266.36
728.90	265.90
729.23	265.43
729.56	265.04
729.89	264.61
730.22	264.07
730.55	263.61
730.89	263.17
731.22	262.73
731.55	262.28
731.88	261.90
732.21	261.48
732.54	261.07
732.87	260.63
733.20	260.22
733.53	259.82
733.86	259.48
734.19	259.04
734.52	258.69
734.85	258.34
735.18	257.92
735.51	257.58
735.84	257.20
736.17	256.87
736.50	256.48
736.83	256.26
737.16	255.98
737.49	255.68
737.82	255.36
738.15	255.05
738.48	254.76
738.81	254.43
739.14	254.09
739.47	253.77
739.80	253.47
740.13	253.15
740.46	252.84
740.79	252.47
741.12	252.20
741.45	251.85
741.78	251.51
742.11	251.26
742.44	250.91
742.77	250.67
743.10	250.37
743.43	250.08
743.75	249.71
744.08	249.57
744.41	249.30
744.74	249.03
745.07	248.73
745.40	248.47
745.73	248.22
746.06	247.98
746.39	247.72
746.71	247.44
747.04	247.15
747.37	246.97
747.70	246.73
748.03	246.49
748.36	246.27
748.68	246.02
749.01	245.75
749.34	245.52
749.67	245.26
750.00	245.04
750.33	244.89
750.65	244.64
750.98	244.29
751.31	244.05
751.64	243.84
751.97	243.67
752.29	243.44
752.62	243.19
752.95	242.96
753.28	242.72
753.60	242.50
753.93	242.34
754.26	242.06
754.59	241.85
754.91	241.63
755.24	241.42
755.57	241.24
755.90	241.04
756.22	240.81
756.55	240.61
756.88	240.39
757.20	240.13
757.53	239.91
757.86	239.74
758.19	239.57
758.51	239.37
758.84	239.16
759.17	238.98
759.49	238.81
759.82	238.69
760.15	238.56
760.47	238.41
760.80	238.24
761.13	238.12
761.45	237.97
761.78	237.81
762.11	237.66
762.43	237.49
762.76	237.33
763.08	237.22
763.41	237.07
763.74	236.92
764.06	236.77
764.39	236.64
764.71	236.45
765.04	236.34
765.37	236.21
765.69	236.09
766.02	235.99
766.34	235.88
766.67	235.74
767.00	235.59
767.32	235.52
767.65	235.44
767.97	235.27
768.30	235.11
768.62	235.01
768.95	234.89
769.27	234.77
769.60	234.67
769.92	234.56
770.25	234.42
770.57	234.33
770.90	234.23
771.22	234.14
771.55	234.07
771.87	233.96
772.20	233.84
772.52	233.81
772.85	233.81
773.17	233.69
773.50	233.58
773.82	233.50
774.15	233.39
774.47	233.26
774.80	233.21
775.12	233.16
775.45	233.07
775.77	232.99
776.09	232.94
776.42	232.89
776.74	232.84
777.07	232.80
777.39	232.70
777.72	232.65
778.04	232.62
778.36	232.54
778.69	232.51
779.01	232.48
779.33	232.34
779.66	232.17
779.98	232.11
780.31	232.07
780.63	232.06
780.95	232.00
781.28	231.96
781.60	231.88
781.92	231.83
782.25	231.79
782.57	231.73
782.89	231.67
783.22	231.61
783.54	231.52
783.86	231.49
784.19	231.46
784.51	231.41
784.83	231.31
785.16	231.28
785.48	231.20
785.80	231.15
786.12	231.08
786.45	231.01
786.77	231.00
787.09	230.95
