SpectraSuite Data File
++++++++++++++++++++++++++++++++++++
Date: Fri Feb 01 15:28:47 EST 2013
User: group
Dark Spectrum Present: No
Reference Spectrum Present: No
Number of Sampled Component Spectra: 1
Spectrometers: USB2E7196
Integration Time (usec): 35000 (USB2E7196)
Spectra Averaged: 100 (USB2E7196)
Boxcar Smoothing: 10 (USB2E7196)
Correct for Electrical Dark: No (USB2E7196)
Strobe/Lamp Enabled: No (USB2E7196)
Correct for Detector Non-linearity: No (USB2E7196)
Correct for Stray Light: No (USB2E7196)
Number of Pixels in Processed Spectrum: 2048
>>>>>Begin Processed Spectral Data<<<<<
339.09	0.00
339.48	215.44
339.86	216.51
340.24	217.70
340.63	219.47
341.01	222.44
341.39	222.09
341.78	223.12
342.16	224.89
342.54	225.54
342.93	213.43
343.31	224.22
343.69	224.72
344.07	225.20
344.46	225.63
344.84	225.98
345.22	226.21
345.60	226.44
345.99	226.63
346.37	226.75
346.75	226.83
347.13	226.91
347.52	226.94
347.90	227.00
348.28	227.05
348.66	227.11
349.05	227.11
349.43	227.17
349.81	227.22
350.19	227.28
350.57	227.37
350.96	227.42
351.34	227.50
351.72	227.61
352.10	227.70
352.48	227.77
352.87	227.85
353.25	227.91
353.63	228.00
354.01	228.06
354.39	228.13
354.77	228.23
355.15	228.34
355.54	228.43
355.92	228.49
356.30	228.55
356.68	228.68
357.06	228.79
357.44	228.88
357.82	228.96
358.20	229.00
358.58	229.03
358.97	229.11
359.35	229.18
359.73	229.27
360.11	229.34
360.49	229.40
360.87	229.44
361.25	229.53
361.63	229.58
362.01	229.65
362.39	229.66
362.77	229.67
363.15	229.69
363.53	229.71
363.91	229.74
364.29	229.76
364.67	229.71
365.05	229.69
365.43	229.67
365.81	229.68
366.19	229.73
366.57	229.73
366.95	229.71
367.33	229.68
367.71	229.67
368.09	229.63
368.47	229.59
368.85	229.58
369.23	229.51
369.61	229.46
369.99	229.42
370.37	229.40
370.75	229.41
371.13	229.31
371.51	229.28
371.89	229.21
372.27	229.16
372.65	229.10
373.03	229.03
373.41	228.94
373.78	228.87
374.16	228.76
374.54	228.70
374.92	228.65
375.30	228.59
375.68	228.47
376.06	228.41
376.44	228.32
376.82	228.25
377.19	228.22
377.57	228.13
377.95	228.04
378.33	227.96
378.71	227.85
379.09	227.80
379.47	227.68
379.84	227.63
380.22	227.51
380.60	227.40
380.98	227.34
381.36	227.29
381.73	227.22
382.11	227.18
382.49	227.11
382.87	227.01
383.25	226.91
383.62	226.99
384.00	226.89
384.38	226.83
384.76	226.82
385.13	226.81
385.51	226.77
385.89	226.72
386.27	226.66
386.64	226.63
387.02	226.58
387.40	226.55
387.78	226.49
388.15	226.50
388.53	226.48
388.91	226.47
389.29	226.44
389.66	226.41
390.04	226.36
390.42	226.35
390.79	226.31
391.17	226.31
391.55	226.16
391.92	226.18
392.30	226.21
392.68	226.18
393.05	226.16
393.43	226.15
393.81	226.16
394.18	226.18
394.56	226.20
394.94	226.25
395.31	226.29
395.69	226.36
396.06	226.40
396.44	226.42
396.82	226.46
397.19	226.52
397.57	226.57
397.95	226.66
398.32	226.70
398.70	226.80
399.07	226.90
399.45	226.99
399.82	227.06
400.20	227.12
400.58	227.21
400.95	227.25
401.33	227.37
401.70	227.52
402.08	227.64
402.45	227.72
402.83	227.84
403.20	227.96
403.58	228.05
403.95	228.18
404.33	228.34
404.71	228.45
405.08	228.66
405.46	228.82
405.83	228.99
406.21	229.15
406.58	229.32
406.96	229.50
407.33	229.69
407.70	229.92
408.08	230.21
408.45	230.44
408.83	230.68
409.20	230.89
409.58	231.05
409.95	231.34
410.33	231.63
410.70	231.86
411.08	232.15
411.45	232.46
411.82	232.76
412.20	233.11
412.57	233.53
412.95	233.81
413.32	234.19
413.69	234.59
414.07	235.04
414.44	235.51
414.82	235.95
415.19	236.50
415.56	237.06
415.94	237.58
416.31	238.15
416.68	238.76
417.06	239.49
417.43	240.19
417.81	240.94
418.18	241.70
418.55	242.54
418.93	243.43
419.30	244.35
419.67	245.32
420.04	246.32
420.42	247.33
420.79	248.53
421.16	249.67
421.54	250.88
421.91	252.11
422.28	253.35
422.66	254.68
423.03	255.95
423.40	257.27
423.77	258.68
424.15	260.13
424.52	261.64
424.89	263.24
425.26	264.80
425.64	266.23
426.01	267.85
426.38	269.52
426.75	271.19
427.13	272.90
427.50	274.70
427.87	276.55
428.24	278.38
428.61	280.11
428.99	282.09
429.36	284.15
429.73	286.18
430.10	288.24
430.47	290.30
430.85	292.41
431.22	294.63
431.59	297.01
431.96	299.29
432.33	301.77
432.70	304.19
433.08	307.01
433.45	309.67
433.82	312.26
434.19	315.18
434.56	317.98
434.93	320.67
435.30	323.27
435.68	326.16
436.05	328.99
436.42	331.84
436.79	334.36
437.16	337.07
437.53	339.95
437.90	342.75
438.27	345.51
438.64	348.39
439.01	351.03
439.38	353.29
439.75	355.46
440.13	358.00
440.50	360.30
440.87	362.13
441.24	364.06
441.61	366.27
441.98	367.77
442.35	369.59
442.72	371.48
443.09	373.31
443.46	374.30
443.83	374.91
444.20	375.38
444.57	376.18
444.94	376.44
445.31	376.71
445.68	377.03
446.05	377.13
446.42	376.73
446.79	376.29
447.16	375.88
447.53	375.55
447.90	374.30
448.27	373.14
448.64	371.55
449.01	370.44
449.37	368.39
449.74	366.43
450.11	364.17
450.48	361.63
450.85	359.08
451.22	356.88
451.59	354.86
451.96	352.91
452.33	350.36
452.70	348.01
453.07	345.24
453.43	342.38
453.80	339.62
454.17	336.93
454.54	334.38
454.91	331.58
455.28	328.91
455.65	326.47
456.02	324.06
456.38	321.89
456.75	319.22
457.12	317.02
457.49	314.79
457.86	312.62
458.23	310.83
458.59	308.82
458.96	306.77
459.33	304.89
459.70	303.05
460.07	301.51
460.43	299.82
460.80	298.14
461.17	296.67
461.54	295.15
461.91	293.72
462.27	292.26
462.64	290.99
463.01	289.64
463.38	288.34
463.74	286.93
464.11	285.77
464.48	284.74
464.85	283.62
465.21	282.78
465.58	281.80
465.95	280.65
466.32	279.72
466.68	278.86
467.05	277.97
467.42	277.07
467.78	276.13
468.15	275.27
468.52	274.65
468.88	273.79
469.25	273.02
469.62	272.39
469.98	271.75
470.35	271.14
470.72	270.52
471.08	269.87
471.45	269.29
471.82	268.77
472.18	268.15
472.55	267.71
472.92	267.19
473.28	266.79
473.65	266.36
474.02	265.92
474.38	265.50
474.75	265.14
475.11	264.74
475.48	264.47
475.85	264.23
476.21	263.95
476.58	263.78
476.94	263.61
477.31	263.42
477.67	263.23
478.04	263.13
478.41	263.06
478.77	263.07
479.14	263.03
479.50	263.01
479.87	263.11
480.23	263.17
480.60	263.21
480.96	263.27
481.33	263.45
481.69	263.61
482.06	263.83
482.42	264.03
482.79	264.31
483.15	264.65
483.52	264.98
483.88	265.36
484.25	265.71
484.61	266.13
484.98	266.59
485.34	267.15
485.71	267.70
486.07	268.30
486.44	268.86
486.80	269.57
487.17	270.29
487.53	271.07
487.90	271.88
488.26	272.84
488.62	273.81
488.99	274.77
489.35	275.81
489.72	276.94
490.08	278.17
490.44	279.41
490.81	280.72
491.17	282.10
491.54	283.58
491.90	285.18
492.26	286.85
492.63	288.60
492.99	290.40
493.36	292.32
493.72	294.38
494.08	296.49
494.45	298.77
494.81	301.14
495.17	303.57
495.54	306.15
495.90	308.81
496.26	311.67
496.63	314.66
496.99	317.80
497.35	321.04
497.72	324.44
498.08	327.98
498.44	331.66
498.80	335.61
499.17	339.63
499.53	343.79
499.89	348.13
500.26	352.62
500.62	357.33
500.98	362.32
501.34	367.33
501.71	372.67
502.07	378.09
502.43	383.78
502.79	389.60
503.16	395.70
503.52	401.99
503.88	408.33
504.24	414.93
504.60	421.83
504.97	428.94
505.33	436.25
505.69	443.97
506.05	451.73
506.41	459.57
506.78	467.76
507.14	476.18
507.50	484.90
507.86	493.91
508.22	503.05
508.59	512.29
508.95	521.96
509.31	531.77
509.67	541.86
510.03	552.12
510.39	562.75
510.75	573.57
511.12	584.55
511.48	595.89
511.84	607.31
512.20	618.84
512.56	630.86
512.92	643.08
513.28	655.35
513.64	667.87
514.00	680.65
514.37	693.62
514.73	706.72
515.09	719.79
515.45	733.15
515.81	746.82
516.17	760.75
516.53	774.91
516.89	789.12
517.25	803.43
517.61	817.92
517.97	832.33
518.33	846.82
518.69	861.59
519.05	876.61
519.41	891.84
519.77	907.39
520.13	922.78
520.49	938.24
520.85	953.77
521.21	969.57
521.57	985.84
521.93	1001.69
522.29	1018.23
522.65	1034.60
523.01	1050.83
523.37	1066.90
523.73	1083.15
524.09	1099.31
524.45	1115.72
524.81	1132.37
525.17	1149.24
525.53	1166.22
525.89	1183.06
526.25	1199.98
526.61	1216.48
526.97	1233.22
527.33	1249.78
527.68	1266.54
528.04	1283.02
528.40	1299.85
528.76	1316.89
529.12	1333.43
529.48	1350.30
529.84	1366.25
530.20	1382.94
530.56	1400.04
530.91	1417.44
531.27	1434.30
531.63	1450.81
531.99	1467.43
532.35	1483.55
532.71	1499.47
533.07	1515.86
533.42	1531.82
533.78	1547.97
534.14	1564.27
534.50	1579.73
534.86	1595.64
535.21	1610.74
535.57	1626.77
535.93	1642.20
536.29	1657.10
536.65	1672.33
537.00	1687.23
537.36	1702.62
537.72	1717.11
538.08	1731.43
538.44	1745.36
538.79	1759.27
539.15	1773.05
539.51	1786.83
539.87	1801.21
540.22	1814.93
540.58	1828.64
540.94	1842.04
541.29	1855.00
541.65	1867.79
542.01	1881.10
542.37	1893.48
542.72	1906.15
543.08	1917.99
543.44	1930.44
543.79	1941.74
544.15	1952.74
544.51	1964.26
544.87	1975.39
545.22	1986.32
545.58	1996.73
545.94	2006.56
546.29	2016.40
546.65	2026.22
547.01	2035.52
547.36	2044.30
547.72	2052.82
548.07	2060.90
548.43	2069.28
548.79	2077.31
549.14	2084.97
549.50	2092.30
549.86	2100.08
550.21	2107.39
550.57	2114.62
550.92	2121.20
551.28	2128.28
551.64	2135.26
551.99	2141.78
552.35	2147.88
552.70	2153.98
553.06	2159.88
553.41	2166.21
553.77	2172.34
554.13	2178.38
554.48	2184.41
554.84	2189.86
555.19	2195.33
555.55	2200.27
555.90	2204.74
556.26	2209.56
556.61	2214.21
556.97	2218.48
557.32	2222.65
557.68	2226.72
558.03	2230.99
558.39	2234.66
558.74	2239.31
559.10	2243.24
559.45	2246.95
559.81	2251.31
560.16	2255.15
560.52	2258.50
560.87	2261.94
561.23	2264.56
561.58	2267.48
561.94	2270.06
562.29	2272.30
562.64	2274.90
563.00	2277.68
563.35	2281.11
563.71	2284.35
564.06	2287.44
564.42	2290.30
564.77	2292.73
565.12	2294.97
565.48	2296.77
565.83	2298.62
566.19	2299.84
566.54	2300.82
566.89	2301.95
567.25	2302.40
567.60	2303.72
567.96	2305.29
568.31	2306.10
568.66	2307.19
569.02	2307.80
569.37	2308.11
569.72	2308.99
570.08	2309.16
570.43	2309.09
570.78	2308.27
571.14	2306.64
571.49	2305.29
571.84	2304.88
572.20	2303.63
572.55	2302.48
572.90	2300.87
573.26	2299.41
573.61	2297.59
573.96	2295.74
574.31	2292.68
574.67	2289.65
575.02	2285.96
575.37	2282.50
575.72	2278.57
576.08	2275.03
576.43	2271.56
576.78	2267.87
577.13	2264.71
577.49	2261.50
577.84	2257.95
578.19	2254.22
578.54	2250.41
578.90	2246.04
579.25	2240.47
579.60	2235.44
579.95	2230.43
580.30	2225.25
580.66	2219.93
581.01	2214.96
581.36	2210.00
581.71	2205.82
582.06	2201.33
582.42	2196.78
582.77	2191.48
583.12	2186.70
583.47	2182.11
583.82	2177.01
584.17	2171.64
584.53	2166.05
584.88	2160.17
585.23	2154.18
585.58	2148.56
585.93	2142.91
586.28	2138.20
586.63	2133.06
586.98	2128.00
587.34	2123.27
587.69	2118.31
588.04	2113.07
588.39	2107.31
588.74	2100.72
589.09	2094.38
589.44	2087.44
589.79	2081.21
590.14	2075.46
590.49	2068.99
590.84	2062.43
591.19	2056.41
591.54	2049.89
591.89	2042.26
592.25	2035.42
592.60	2028.15
592.95	2020.63
593.30	2013.37
593.65	2005.58
594.00	1998.43
594.35	1990.90
594.70	1982.76
595.05	1975.60
595.40	1968.15
595.75	1960.65
596.10	1954.30
596.45	1947.52
596.80	1941.28
597.15	1934.75
597.50	1927.69
597.85	1921.27
598.19	1914.60
598.54	1907.52
598.89	1900.87
599.24	1895.00
599.59	1888.41
599.94	1882.32
600.29	1875.94
600.64	1869.25
600.99	1861.79
601.34	1854.90
601.69	1848.01
602.04	1841.00
602.39	1833.64
602.74	1826.87
603.08	1820.11
603.43	1813.54
603.78	1806.27
604.13	1799.04
604.48	1791.76
604.83	1784.79
605.18	1777.78
605.53	1769.79
605.87	1761.62
606.22	1754.29
606.57	1746.18
606.92	1738.72
607.27	1731.42
607.62	1724.47
607.96	1717.23
608.31	1710.69
608.66	1702.98
609.01	1695.38
609.36	1687.85
609.70	1679.81
610.05	1671.72
610.40	1663.98
610.75	1655.53
611.10	1647.79
611.44	1639.49
611.79	1631.49
612.14	1622.79
612.49	1613.55
612.83	1605.14
613.18	1597.12
613.53	1589.07
613.88	1580.67
614.22	1572.45
614.57	1563.83
614.92	1555.81
615.27	1548.25
615.61	1539.77
615.96	1531.90
616.31	1524.23
616.65	1516.89
617.00	1509.22
617.35	1501.51
617.70	1493.14
618.04	1484.55
618.39	1476.30
618.74	1468.56
619.08	1460.14
619.43	1452.62
619.78	1445.61
620.12	1438.40
620.47	1430.93
620.82	1422.79
621.16	1415.35
621.51	1407.67
621.85	1400.14
622.20	1391.53
622.55	1383.10
622.89	1375.30
623.24	1367.72
623.59	1360.44
623.93	1352.94
624.28	1345.93
624.62	1338.46
624.97	1331.23
625.32	1324.51
625.66	1317.46
626.01	1310.33
626.35	1302.84
626.70	1295.04
627.04	1287.40
627.39	1279.60
627.73	1272.09
628.08	1265.06
628.43	1257.67
628.77	1250.26
629.12	1242.53
629.46	1235.41
629.81	1228.09
630.15	1220.84
630.50	1213.37
630.84	1205.15
631.19	1197.17
631.53	1189.53
631.88	1181.96
632.22	1174.44
632.57	1167.16
632.91	1159.73
633.26	1152.32
633.60	1145.10
633.95	1138.10
634.29	1131.03
634.64	1124.33
634.98	1116.96
635.32	1109.86
635.67	1103.35
636.01	1096.76
636.36	1090.14
636.70	1083.63
637.05	1077.04
637.39	1070.69
637.73	1064.21
638.08	1058.31
638.42	1052.41
638.77	1045.90
639.11	1039.28
639.45	1032.81
639.80	1026.06
640.14	1019.67
640.49	1013.15
640.83	1006.80
641.17	1000.60
641.52	994.20
641.86	987.74
642.20	981.87
642.55	975.54
642.89	969.05
643.23	962.56
643.58	956.69
643.92	950.50
644.26	944.39
644.61	938.25
644.95	932.20
645.29	925.58
645.64	918.63
645.98	912.35
646.32	906.58
646.66	900.57
647.01	894.91
647.35	889.18
647.69	883.34
648.04	877.73
648.38	871.92
648.72	865.95
649.06	859.96
649.41	854.09
649.75	848.09
650.09	842.14
650.43	836.25
650.78	830.02
651.12	824.16
651.46	818.45
651.80	812.82
652.14	807.49
652.49	802.18
652.83	797.14
653.17	791.42
653.51	785.61
653.85	780.26
654.20	774.41
654.54	768.31
654.88	762.52
655.22	756.66
655.56	750.95
655.90	745.44
656.25	740.14
656.59	734.76
656.93	729.73
657.27	724.55
657.61	719.16
657.95	714.07
658.29	708.84
658.64	703.61
658.98	698.22
659.32	692.65
659.66	687.40
660.00	682.07
660.34	677.13
660.68	672.21
661.02	667.13
661.36	662.55
661.70	658.10
662.05	653.74
662.39	649.43
662.73	644.87
663.07	640.60
663.41	636.19
663.75	631.73
664.09	627.16
664.43	622.77
664.77	618.67
665.11	614.55
665.45	610.36
665.79	606.25
666.13	602.21
666.47	598.11
666.81	593.95
667.15	589.75
667.49	585.86
667.83	582.08
668.17	578.19
668.51	574.15
668.85	570.13
669.19	566.36
669.53	562.46
669.87	558.67
670.21	554.92
670.55	551.29
670.89	547.84
671.23	544.41
671.57	540.93
671.91	537.41
672.25	533.88
672.58	530.47
672.92	527.14
673.26	523.91
673.60	520.79
673.94	517.71
674.28	514.85
674.62	511.92
674.96	508.78
675.30	505.87
675.64	502.89
675.97	500.19
676.31	497.26
676.65	494.37
676.99	491.70
677.33	488.83
677.67	485.98
678.01	482.99
678.34	479.96
678.68	477.07
679.02	474.23
679.36	471.43
679.70	468.71
680.04	465.94
680.37	463.04
680.71	460.28
681.05	457.70
681.39	455.07
681.73	452.42
682.06	449.92
682.40	447.34
682.74	444.79
683.08	442.15
683.42	439.57
683.75	437.06
684.09	434.52
684.43	432.07
684.77	429.64
685.10	427.28
685.44	425.07
685.78	422.79
686.12	420.55
686.45	418.26
686.79	415.98
687.13	413.77
687.46	411.64
687.80	409.47
688.14	407.23
688.48	405.14
688.81	402.85
689.15	400.72
689.49	398.59
689.82	396.57
690.16	394.47
690.50	392.55
690.83	390.62
691.17	388.61
691.51	386.71
691.84	384.86
692.18	382.88
692.52	380.89
692.85	378.97
693.19	377.14
693.52	375.33
693.86	373.52
694.20	371.77
694.53	369.99
694.87	368.14
695.21	366.30
695.54	364.50
695.88	362.81
696.21	361.06
696.55	359.40
696.88	357.70
697.22	356.07
697.56	354.43
697.89	352.77
698.23	351.17
698.56	349.53
698.90	347.94
699.23	346.33
699.57	344.78
699.90	343.19
700.24	341.57
700.58	340.05
700.91	338.57
701.25	337.06
701.58	335.64
701.92	334.29
702.25	332.96
702.59	331.59
702.92	330.30
703.26	329.02
703.59	327.74
703.93	326.57
704.26	325.37
704.60	324.08
704.93	322.82
705.26	321.56
705.60	320.40
705.93	319.25
706.27	318.22
706.60	317.18
706.94	316.15
707.27	315.06
707.61	313.95
707.94	312.90
708.27	311.84
708.61	310.80
708.94	309.78
709.28	308.80
709.61	307.79
709.94	306.77
710.28	305.74
710.61	304.78
710.95	303.73
711.28	302.78
711.61	301.82
711.95	300.90
712.28	299.97
712.61	299.00
712.95	298.06
713.28	297.14
713.61	296.25
713.95	295.37
714.28	294.51
714.61	293.69
714.95	292.83
715.28	291.99
715.61	291.15
715.95	290.31
716.28	289.44
716.61	288.62
716.95	287.81
717.28	287.06
717.61	286.28
717.94	285.53
718.28	284.72
718.61	284.05
718.94	283.35
719.27	282.72
719.61	282.07
719.94	281.44
720.27	280.75
720.60	280.05
720.94	279.43
721.27	278.85
721.60	278.27
721.93	277.71
722.27	277.16
722.60	276.58
722.93	276.00
723.26	275.50
723.59	275.00
723.93	274.47
724.26	273.96
724.59	273.40
724.92	272.87
725.25	272.37
725.59	271.81
725.92	271.32
726.25	270.77
726.58	270.28
726.91	269.78
727.24	269.30
727.57	268.87
727.91	268.39
728.24	267.91
728.57	267.44
728.90	266.98
729.23	266.46
729.56	266.05
729.89	265.61
730.22	265.14
730.55	264.65
730.89	264.20
731.22	263.77
731.55	263.35
731.88	262.95
732.21	262.54
732.54	262.12
732.87	261.67
733.20	261.29
733.53	260.90
733.86	260.50
734.19	260.11
734.52	259.74
734.85	259.40
735.18	259.01
735.51	258.64
735.84	258.28
736.17	257.98
736.50	257.56
736.83	257.33
737.16	256.97
737.49	256.62
737.82	256.29
738.15	255.93
738.48	255.59
738.81	255.25
739.14	254.94
739.47	254.62
739.80	254.31
740.13	254.01
740.46	253.68
740.79	253.37
741.12	253.07
741.45	252.72
741.78	252.41
742.11	252.15
742.44	251.82
742.77	251.51
743.10	251.15
743.43	250.87
743.75	250.45
744.08	250.32
744.41	250.08
744.74	249.80
745.07	249.50
745.40	249.24
745.73	249.03
746.06	248.75
746.39	248.50
746.71	248.22
747.04	247.95
747.37	247.69
747.70	247.43
748.03	247.17
748.36	246.97
748.68	246.71
749.01	246.43
749.34	246.19
749.67	245.96
750.00	245.78
750.33	245.62
750.65	245.40
750.98	245.04
751.31	244.78
751.64	244.57
751.97	244.42
752.29	244.18
752.62	243.95
752.95	243.73
753.28	243.50
753.60	243.33
753.93	243.14
754.26	242.95
754.59	242.73
754.91	242.52
755.24	242.27
755.57	242.06
755.90	241.86
756.22	241.65
756.55	241.44
756.88	241.22
757.20	240.98
757.53	240.82
757.86	240.68
758.19	240.55
758.51	240.38
758.84	240.17
759.17	240.03
759.49	239.85
759.82	239.73
760.15	239.60
760.47	239.44
760.80	239.26
761.13	239.14
761.45	239.00
761.78	238.85
762.11	238.74
762.43	238.61
762.76	238.48
763.08	238.39
763.41	238.25
763.74	238.15
764.06	237.99
764.39	237.83
764.71	237.70
765.04	237.56
765.37	237.41
765.69	237.30
766.02	237.19
766.34	237.08
766.67	236.93
767.00	236.81
767.32	236.76
767.65	236.74
767.97	236.63
768.30	236.51
768.62	236.45
768.95	236.32
769.27	236.21
769.60	236.15
769.92	236.07
770.25	235.97
770.57	235.84
770.90	235.73
771.22	235.64
771.55	235.52
771.87	235.46
772.20	235.34
772.52	235.31
772.85	235.30
773.17	235.21
773.50	235.11
773.82	235.02
774.15	234.90
774.47	234.72
774.80	234.62
775.12	234.52
775.45	234.41
775.77	234.32
776.09	234.25
776.42	234.14
776.74	234.06
777.07	233.99
777.39	233.96
777.72	233.89
778.04	233.83
778.36	233.75
778.69	233.66
779.01	233.66
779.33	233.52
779.66	233.35
779.98	233.28
780.31	233.22
780.63	233.19
780.95	233.09
781.28	233.00
781.60	232.91
781.92	232.89
782.25	232.86
782.57	232.79
782.89	232.75
783.22	232.70
783.54	232.60
783.86	232.54
784.19	232.46
784.51	232.45
784.83	232.38
785.16	232.32
785.48	232.27
785.80	232.20
786.12	232.16
786.45	232.11
786.77	232.01
787.09	231.97
