SpectraSuite Data File
++++++++++++++++++++++++++++++++++++
Date: Fri Feb 01 16:46:20 EST 2013
User: group
Dark Spectrum Present: No
Reference Spectrum Present: No
Number of Sampled Component Spectra: 1
Spectrometers: USB2E7196
Integration Time (usec): 35000 (USB2E7196)
Spectra Averaged: 100 (USB2E7196)
Boxcar Smoothing: 10 (USB2E7196)
Correct for Electrical Dark: No (USB2E7196)
Strobe/Lamp Enabled: No (USB2E7196)
Correct for Detector Non-linearity: No (USB2E7196)
Correct for Stray Light: No (USB2E7196)
Number of Pixels in Processed Spectrum: 2048
>>>>>Begin Processed Spectral Data<<<<<
339.09	0.00
339.48	213.40
339.86	214.80
340.24	216.54
340.63	217.44
341.01	220.13
341.39	220.14
341.78	222.22
342.16	223.27
342.54	223.09
342.93	211.94
343.31	222.65
343.69	223.21
344.07	223.70
344.46	224.13
344.84	224.52
345.22	224.74
345.60	224.99
345.99	225.15
346.37	225.27
346.75	225.38
347.13	225.44
347.52	225.50
347.90	225.58
348.28	225.60
348.66	225.65
349.05	225.61
349.43	225.63
349.81	225.65
350.19	225.66
350.57	225.74
350.96	225.78
351.34	225.83
351.72	225.88
352.10	225.96
352.48	226.05
352.87	226.10
353.25	226.20
353.63	226.26
354.01	226.30
354.39	226.36
354.77	226.42
355.15	226.55
355.54	226.58
355.92	226.64
356.30	226.69
356.68	226.82
357.06	226.90
357.44	226.98
357.82	227.03
358.20	227.11
358.58	227.13
358.97	227.18
359.35	227.29
359.73	227.39
360.11	227.40
360.49	227.41
360.87	227.44
361.25	227.49
361.63	227.55
362.01	227.60
362.39	227.64
362.77	227.67
363.15	227.67
363.53	227.69
363.91	227.72
364.29	227.73
364.67	227.64
365.05	227.65
365.43	227.65
365.81	227.70
366.19	227.74
366.57	227.79
366.95	227.82
367.33	227.78
367.71	227.74
368.09	227.76
368.47	227.74
368.85	227.72
369.23	227.69
369.61	227.62
369.99	227.65
370.37	227.63
370.75	227.66
371.13	227.61
371.51	227.57
371.89	227.54
372.27	227.49
372.65	227.46
373.03	227.40
373.41	227.37
373.78	227.30
374.16	227.20
374.54	227.11
374.92	227.06
375.30	227.01
375.68	226.96
376.06	226.92
376.44	226.86
376.82	226.84
377.19	226.78
377.57	226.73
377.95	226.62
378.33	226.55
378.71	226.40
379.09	226.36
379.47	226.29
379.84	226.21
380.22	226.16
380.60	226.10
380.98	226.04
381.36	225.96
381.73	225.90
382.11	225.88
382.49	225.83
382.87	225.73
383.25	225.69
383.62	225.76
384.00	225.67
384.38	225.63
384.76	225.58
385.13	225.58
385.51	225.56
385.89	225.50
386.27	225.46
386.64	225.45
387.02	225.42
387.40	225.39
387.78	225.37
388.15	225.34
388.53	225.31
388.91	225.29
389.29	225.26
389.66	225.22
390.04	225.18
390.42	225.19
390.79	225.20
391.17	225.14
391.55	225.03
391.92	225.07
392.30	225.07
392.68	225.06
393.05	225.01
393.43	225.01
393.81	225.04
394.18	225.05
394.56	225.05
394.94	225.05
395.31	225.08
395.69	225.13
396.06	225.19
396.44	225.22
396.82	225.21
397.19	225.30
397.57	225.31
397.95	225.38
398.32	225.38
398.70	225.45
399.07	225.53
399.45	225.55
399.82	225.55
400.20	225.61
400.58	225.70
400.95	225.80
401.33	225.88
401.70	226.02
402.08	226.09
402.45	226.19
402.83	226.30
403.20	226.38
403.58	226.45
403.95	226.56
404.33	226.67
404.71	226.83
405.08	226.97
405.46	227.11
405.83	227.23
406.21	227.36
406.58	227.51
406.96	227.67
407.33	227.84
407.70	228.04
408.08	228.26
408.45	228.43
408.83	228.60
409.20	228.79
409.58	228.95
409.95	229.21
410.33	229.46
410.70	229.69
411.08	229.97
411.45	230.27
411.82	230.53
412.20	230.88
412.57	231.27
412.95	231.59
413.32	232.00
413.69	232.38
414.07	232.82
414.44	233.25
414.82	233.69
415.19	234.22
415.56	234.75
415.94	235.30
416.31	235.94
416.68	236.56
417.06	237.27
417.43	237.95
417.81	238.68
418.18	239.47
418.55	240.30
418.93	241.16
419.30	242.03
419.67	242.98
420.04	243.93
420.42	244.90
420.79	246.09
421.16	247.21
421.54	248.39
421.91	249.60
422.28	250.87
422.66	252.21
423.03	253.50
423.40	254.84
423.77	256.24
424.15	257.63
424.52	259.14
424.89	260.74
425.26	262.26
425.64	263.69
426.01	265.28
426.38	266.96
426.75	268.61
427.13	270.30
427.50	272.10
427.87	273.93
428.24	275.79
428.61	277.50
428.99	279.49
429.36	281.60
429.73	283.66
430.10	285.62
430.47	287.68
430.85	289.81
431.22	292.03
431.59	294.41
431.96	296.64
432.33	299.12
432.70	301.49
433.08	304.32
433.45	306.99
433.82	309.58
434.19	312.45
434.56	315.27
434.93	317.94
435.30	320.54
435.68	323.44
436.05	326.27
436.42	329.08
436.79	331.52
437.16	334.17
437.53	337.01
437.90	339.88
438.27	342.61
438.64	345.40
439.01	347.95
439.38	350.15
439.75	352.33
440.13	354.82
440.50	357.13
440.87	358.93
441.24	360.88
441.61	363.02
441.98	364.48
442.35	366.29
442.72	368.15
443.09	369.97
443.46	370.95
443.83	371.50
444.20	371.97
444.57	372.84
444.94	373.17
445.31	373.49
445.68	373.82
446.05	373.86
446.42	373.53
446.79	373.16
447.16	372.68
447.53	372.39
447.90	371.24
448.27	370.10
448.64	368.58
449.01	367.48
449.37	365.57
449.74	363.72
450.11	361.51
450.48	359.07
450.85	356.58
451.22	354.50
451.59	352.53
451.96	350.62
452.33	348.07
452.70	345.69
453.07	342.92
453.43	340.04
453.80	337.37
454.17	334.70
454.54	332.16
454.91	329.48
455.28	326.82
455.65	324.34
456.02	321.92
456.38	319.74
456.75	317.03
457.12	314.77
457.49	312.53
457.86	310.35
458.23	308.49
458.59	306.44
458.96	304.34
459.33	302.47
459.70	300.61
460.07	299.07
460.43	297.38
460.80	295.75
461.17	294.31
461.54	292.76
461.91	291.35
462.27	289.92
462.64	288.71
463.01	287.36
463.38	286.10
463.74	284.71
464.11	283.58
464.48	282.59
464.85	281.47
465.21	280.59
465.58	279.68
465.95	278.60
466.32	277.71
466.68	276.82
467.05	275.94
467.42	275.08
467.78	274.20
468.15	273.32
468.52	272.68
468.88	271.85
469.25	271.10
469.62	270.49
469.98	269.87
470.35	269.25
470.72	268.68
471.08	268.02
471.45	267.55
471.82	267.01
472.18	266.41
472.55	266.02
472.92	265.57
473.28	265.13
473.65	264.65
474.02	264.20
474.38	263.85
474.75	263.56
475.11	263.23
475.48	262.97
475.85	262.79
476.21	262.56
476.58	262.39
476.94	262.26
477.31	262.09
477.67	261.92
478.04	261.84
478.41	261.79
478.77	261.83
479.14	261.76
479.50	261.80
479.87	261.91
480.23	262.00
480.60	262.04
480.96	262.14
481.33	262.37
481.69	262.60
482.06	262.82
482.42	263.02
482.79	263.33
483.15	263.63
483.52	264.03
483.88	264.39
484.25	264.81
484.61	265.28
484.98	265.71
485.34	266.31
485.71	266.91
486.07	267.51
486.44	268.10
486.80	268.81
487.17	269.52
487.53	270.34
487.90	271.16
488.26	272.12
488.62	273.13
488.99	274.10
489.35	275.14
489.72	276.26
490.08	277.46
490.44	278.65
490.81	280.02
491.17	281.32
491.54	282.81
491.90	284.36
492.26	285.96
492.63	287.74
492.99	289.52
493.36	291.41
493.72	293.47
494.08	295.59
494.45	297.84
494.81	300.18
495.17	302.62
495.54	305.20
495.90	307.86
496.26	310.61
496.63	313.59
496.99	316.70
497.35	319.96
497.72	323.33
498.08	326.85
498.44	330.50
498.80	334.41
499.17	338.42
499.53	342.55
499.89	346.87
500.26	351.36
500.62	355.99
500.98	360.95
501.34	365.99
501.71	371.26
502.07	376.68
502.43	382.29
502.79	388.08
503.16	394.15
503.52	400.41
503.88	406.79
504.24	413.42
504.60	420.31
504.97	427.39
505.33	434.71
505.69	442.46
506.05	450.21
506.41	458.07
506.78	466.24
507.14	474.65
507.50	483.42
507.86	492.40
508.22	501.53
508.59	510.68
508.95	520.25
509.31	530.06
509.67	540.06
510.03	550.34
510.39	560.81
510.75	571.48
511.12	582.38
511.48	593.66
511.84	605.00
512.20	616.38
512.56	628.30
512.92	640.38
513.28	652.61
513.64	665.04
514.00	677.76
514.37	690.56
514.73	703.55
515.09	716.42
515.45	729.64
515.81	743.17
516.17	757.06
516.53	771.04
516.89	785.11
517.25	799.24
517.61	813.53
517.97	827.95
518.33	842.36
518.69	856.98
519.05	871.81
519.41	886.94
519.77	902.41
520.13	917.72
520.49	933.03
520.85	948.33
521.21	963.99
521.57	980.07
521.93	995.71
522.29	1011.95
522.65	1028.19
523.01	1044.26
523.37	1060.17
523.73	1076.16
524.09	1092.18
524.45	1108.25
524.81	1124.76
525.17	1141.41
525.53	1158.12
525.89	1174.87
526.25	1191.67
526.61	1207.90
526.97	1224.46
527.33	1240.76
527.68	1257.08
528.04	1273.38
528.40	1289.68
528.76	1306.45
529.12	1322.88
529.48	1339.70
529.84	1355.55
530.20	1372.06
530.56	1388.86
530.91	1406.02
531.27	1422.66
531.63	1438.83
531.99	1455.28
532.35	1471.10
532.71	1486.90
533.07	1503.03
533.42	1518.68
533.78	1534.56
534.14	1550.66
534.50	1565.81
534.86	1581.56
535.21	1596.69
535.57	1612.45
535.93	1627.86
536.29	1642.64
536.65	1657.44
537.00	1671.91
537.36	1687.08
537.72	1701.28
538.08	1715.55
538.44	1729.29
538.79	1742.96
539.15	1756.39
539.51	1770.07
539.87	1784.30
540.22	1797.69
540.58	1811.16
540.94	1824.21
541.29	1836.71
541.65	1849.35
542.01	1862.37
542.37	1874.54
542.72	1886.82
543.08	1898.46
543.44	1910.83
543.79	1921.98
544.15	1932.80
544.51	1944.32
544.87	1955.06
545.22	1965.76
545.58	1975.84
545.94	1985.44
546.29	1995.24
546.65	2005.29
547.01	2014.28
547.36	2022.80
547.72	2031.31
548.07	2039.12
548.43	2047.36
548.79	2055.45
549.14	2062.90
549.50	2070.19
549.86	2077.65
550.21	2084.83
550.57	2091.76
550.92	2098.09
551.28	2104.83
551.64	2111.95
551.99	2118.35
552.35	2124.38
552.70	2130.63
553.06	2136.67
553.41	2143.03
553.77	2149.01
554.13	2154.94
554.48	2161.00
554.84	2166.59
555.19	2171.74
555.55	2177.06
555.90	2181.47
556.26	2186.30
556.61	2190.85
556.97	2195.29
557.32	2199.55
557.68	2203.78
558.03	2208.14
558.39	2211.84
558.74	2216.58
559.10	2220.41
559.45	2223.99
559.81	2228.37
560.16	2232.04
560.52	2235.21
560.87	2238.50
561.23	2241.21
561.58	2244.07
561.94	2246.69
562.29	2248.89
562.64	2251.81
563.00	2254.32
563.35	2257.79
563.71	2260.89
564.06	2264.31
564.42	2267.03
564.77	2269.56
565.12	2271.89
565.48	2273.86
565.83	2275.92
566.19	2277.20
566.54	2278.12
566.89	2279.41
567.25	2280.13
567.60	2281.45
567.96	2283.19
568.31	2283.97
568.66	2285.21
569.02	2285.87
569.37	2286.32
569.72	2287.47
570.08	2287.65
570.43	2287.79
570.78	2287.52
571.14	2286.26
571.49	2284.96
571.84	2284.87
572.20	2283.79
572.55	2282.86
572.90	2281.39
573.26	2280.04
573.61	2278.50
573.96	2277.02
574.31	2274.17
574.67	2271.28
575.02	2267.95
575.37	2264.59
575.72	2261.27
576.08	2257.87
576.43	2254.68
576.78	2251.18
577.13	2247.77
577.49	2244.68
577.84	2241.29
578.19	2237.54
578.54	2233.97
578.90	2229.77
579.25	2224.23
579.60	2219.53
579.95	2214.57
580.30	2209.67
580.66	2204.63
581.01	2199.67
581.36	2194.89
581.71	2190.95
582.06	2186.72
582.42	2182.33
582.77	2177.36
583.12	2172.83
583.47	2168.27
583.82	2163.37
584.17	2158.21
584.53	2153.00
584.88	2147.39
585.23	2141.77
585.58	2136.25
585.93	2130.82
586.28	2126.02
586.63	2121.10
586.98	2116.02
587.34	2111.44
587.69	2106.65
588.04	2101.64
588.39	2096.13
588.74	2089.58
589.09	2083.46
589.44	2076.71
589.79	2070.61
590.14	2065.32
590.49	2058.71
590.84	2052.37
591.19	2046.38
591.54	2039.97
591.89	2032.69
592.25	2026.18
592.60	2019.00
592.95	2011.62
593.30	2004.44
593.65	1997.03
594.00	1989.87
594.35	1982.85
594.70	1974.89
595.05	1967.87
595.40	1960.53
595.75	1953.08
596.10	1946.99
596.45	1940.29
596.80	1934.25
597.15	1927.86
597.50	1920.71
597.85	1914.33
598.19	1907.87
598.54	1900.91
598.89	1894.21
599.24	1888.53
599.59	1882.03
599.94	1875.98
600.29	1869.69
600.64	1863.15
600.99	1855.92
601.34	1849.36
601.69	1842.31
602.04	1835.54
602.39	1828.25
602.74	1821.48
603.08	1814.85
603.43	1808.14
603.78	1800.86
604.13	1793.55
604.48	1786.41
604.83	1779.58
605.18	1772.76
605.53	1764.79
605.87	1756.88
606.22	1749.86
606.57	1741.88
606.92	1734.34
607.27	1727.16
607.62	1720.46
607.96	1713.31
608.31	1706.79
608.66	1699.22
609.01	1691.89
609.36	1684.44
609.70	1676.39
610.05	1668.52
610.40	1660.87
610.75	1652.69
611.10	1645.20
611.44	1636.77
611.79	1628.71
612.14	1620.06
612.49	1610.95
612.83	1602.64
613.18	1594.57
613.53	1586.65
613.88	1578.18
614.22	1570.01
614.57	1561.38
614.92	1553.29
615.27	1545.77
615.61	1537.46
615.96	1529.50
616.31	1521.80
616.65	1514.41
617.00	1507.00
617.35	1499.25
617.70	1491.02
618.04	1482.59
618.39	1474.36
618.74	1466.89
619.08	1458.58
619.43	1451.02
619.78	1444.09
620.12	1436.99
620.47	1429.49
620.82	1421.26
621.16	1413.78
621.51	1406.27
621.85	1398.65
622.20	1390.24
622.55	1381.78
622.89	1373.92
623.24	1366.27
623.59	1358.92
623.93	1351.39
624.28	1344.20
624.62	1336.74
624.97	1329.62
625.32	1322.83
625.66	1315.64
626.01	1308.62
626.35	1301.32
626.70	1293.50
627.04	1285.82
627.39	1277.97
627.73	1270.63
628.08	1263.65
628.43	1256.42
628.77	1249.12
629.12	1241.59
629.46	1234.47
629.81	1226.99
630.15	1219.83
630.50	1212.43
630.84	1204.25
631.19	1196.24
631.53	1188.62
631.88	1181.00
632.22	1173.31
632.57	1165.93
632.91	1158.53
633.26	1151.00
633.60	1143.55
633.95	1136.36
634.29	1129.34
634.64	1122.73
634.98	1115.31
635.32	1108.19
635.67	1101.54
636.01	1094.80
636.36	1088.08
636.70	1081.39
637.05	1074.89
637.39	1068.39
637.73	1061.84
638.08	1055.83
638.42	1049.83
638.77	1043.48
639.11	1036.93
639.45	1030.52
639.80	1023.90
640.14	1017.49
640.49	1011.02
640.83	1004.65
641.17	998.48
641.52	992.10
641.86	985.56
642.20	979.75
642.55	973.50
642.89	967.09
643.23	960.56
643.58	954.80
643.92	948.70
644.26	942.76
644.61	936.68
644.95	930.79
645.29	924.36
645.64	917.71
645.98	911.33
646.32	905.44
646.66	899.48
647.01	893.75
647.35	888.07
647.69	882.20
648.04	876.70
648.38	870.99
648.72	865.07
649.06	859.08
649.41	853.20
649.75	847.27
650.09	841.28
650.43	835.46
650.78	829.28
651.12	823.35
651.46	817.55
651.80	811.85
652.14	806.39
652.49	800.95
652.83	795.81
653.17	790.11
653.51	784.53
653.85	779.06
654.20	773.45
654.54	767.38
654.88	761.64
655.22	755.75
655.56	750.01
655.90	744.56
656.25	739.32
656.59	733.95
656.93	728.82
657.27	723.76
657.61	718.35
657.95	713.27
658.29	708.20
658.64	703.02
658.98	697.70
659.32	692.22
659.66	687.07
660.00	681.75
660.34	676.86
660.68	671.91
661.02	666.94
661.36	662.20
661.70	657.82
662.05	653.50
662.39	649.25
662.73	644.78
663.07	640.40
663.41	635.90
663.75	631.39
664.09	626.83
664.43	622.39
664.77	618.27
665.11	613.99
665.45	609.84
665.79	605.73
666.13	601.56
666.47	597.54
666.81	593.36
667.15	589.18
667.49	585.26
667.83	581.40
668.17	577.46
668.51	573.38
668.85	569.32
669.19	565.46
669.53	561.59
669.87	557.73
670.21	554.02
670.55	550.44
670.89	547.05
671.23	543.59
671.57	540.03
671.91	536.48
672.25	532.99
672.58	529.50
672.92	526.14
673.26	523.05
673.60	519.83
673.94	516.72
674.28	513.84
674.62	510.89
674.96	507.81
675.30	504.86
675.64	501.92
675.97	499.13
676.31	496.25
676.65	493.34
676.99	490.67
677.33	487.83
677.67	484.96
678.01	481.87
678.34	478.91
678.68	476.07
679.02	473.27
679.36	470.45
679.70	467.70
680.04	464.89
680.37	461.98
680.71	459.16
681.05	456.49
681.39	453.77
681.73	451.08
682.06	448.59
682.40	446.07
682.74	443.55
683.08	441.00
683.42	438.40
683.75	435.88
684.09	433.25
684.43	430.73
684.77	428.28
685.10	425.96
685.44	423.58
685.78	421.28
686.12	419.01
686.45	416.74
686.79	414.42
687.13	412.24
687.46	410.03
687.80	407.91
688.14	405.70
688.48	403.68
688.81	401.43
689.15	399.22
689.49	397.07
689.82	395.00
690.16	392.87
690.50	390.93
690.83	388.99
691.17	387.06
691.51	385.17
691.84	383.36
692.18	381.47
692.52	379.58
692.85	377.61
693.19	375.77
693.52	373.96
693.86	372.16
694.20	370.40
694.53	368.66
694.87	366.81
695.21	365.02
695.54	363.16
695.88	361.45
696.21	359.74
696.55	358.09
696.88	356.37
697.22	354.71
697.56	353.08
697.89	351.45
698.23	349.84
698.56	348.25
698.90	346.65
699.23	344.99
699.57	343.45
699.90	341.95
700.24	340.42
700.58	338.90
700.91	337.44
701.25	335.93
701.58	334.58
701.92	333.21
702.25	331.87
702.59	330.52
702.92	329.21
703.26	327.92
703.59	326.61
703.93	325.48
704.26	324.26
704.60	322.95
704.93	321.67
705.26	320.38
705.60	319.19
705.93	318.02
706.27	316.97
706.60	315.91
706.94	314.81
707.27	313.66
707.61	312.60
707.94	311.54
708.27	310.49
708.61	309.37
708.94	308.35
709.28	307.36
709.61	306.41
709.94	305.44
710.28	304.41
710.61	303.38
710.95	302.25
711.28	301.36
711.61	300.44
711.95	299.52
712.28	298.62
712.61	297.63
712.95	296.69
713.28	295.82
713.61	294.92
713.95	294.05
714.28	293.24
714.61	292.38
714.95	291.52
715.28	290.65
715.61	289.80
715.95	288.96
716.28	288.09
716.61	287.26
716.95	286.43
717.28	285.66
717.61	284.91
717.94	284.21
718.28	283.38
718.61	282.68
718.94	281.98
719.27	281.33
719.61	280.70
719.94	280.05
720.27	279.34
720.60	278.68
720.94	278.04
721.27	277.41
721.60	276.84
721.93	276.25
722.27	275.68
722.60	275.11
722.93	274.52
723.26	274.01
723.59	273.45
723.93	272.91
724.26	272.36
724.59	271.80
724.92	271.29
725.25	270.82
725.59	270.24
725.92	269.75
726.25	269.21
726.58	268.71
726.91	268.20
727.24	267.73
727.57	267.23
727.91	266.72
728.24	266.23
728.57	265.75
728.90	265.26
729.23	264.75
729.56	264.30
729.89	263.81
730.22	263.29
730.55	262.82
730.89	262.38
731.22	261.98
731.55	261.54
731.88	261.07
732.21	260.60
732.54	260.18
732.87	259.73
733.20	259.31
733.53	258.89
733.86	258.51
734.19	258.11
734.52	257.71
734.85	257.39
735.18	256.97
735.51	256.59
735.84	256.26
736.17	255.93
736.50	255.52
736.83	255.31
737.16	254.96
737.49	254.65
737.82	254.29
738.15	253.94
738.48	253.61
738.81	253.28
739.14	252.93
739.47	252.62
739.80	252.31
740.13	252.01
740.46	251.70
740.79	251.36
741.12	251.06
741.45	250.78
741.78	250.41
742.11	250.18
742.44	249.85
742.77	249.59
743.10	249.30
743.43	249.01
743.75	248.62
744.08	248.49
744.41	248.19
744.74	247.92
745.07	247.61
745.40	247.32
745.73	247.11
746.06	246.89
746.39	246.63
746.71	246.36
747.04	246.10
747.37	245.83
747.70	245.64
748.03	245.37
748.36	245.13
748.68	244.88
749.01	244.64
749.34	244.41
749.67	244.15
750.00	243.92
750.33	243.77
750.65	243.56
750.98	243.21
751.31	242.98
751.64	242.79
751.97	242.62
752.29	242.43
752.62	242.19
752.95	241.94
753.28	241.75
753.60	241.57
753.93	241.43
754.26	241.24
754.59	240.97
754.91	240.79
755.24	240.62
755.57	240.45
755.90	240.25
756.22	240.03
756.55	239.80
756.88	239.62
757.20	239.39
757.53	239.24
757.86	239.07
758.19	238.92
758.51	238.77
758.84	238.61
759.17	238.43
759.49	238.29
759.82	238.20
760.15	238.03
760.47	237.84
760.80	237.65
761.13	237.54
761.45	237.41
761.78	237.26
762.11	237.13
762.43	237.00
762.76	236.81
763.08	236.73
763.41	236.61
763.74	236.48
764.06	236.36
764.39	236.19
764.71	236.07
765.04	235.94
765.37	235.78
765.69	235.65
766.02	235.52
766.34	235.39
766.67	235.23
767.00	235.14
767.32	235.09
767.65	235.02
767.97	234.89
768.30	234.80
768.62	234.66
768.95	234.51
769.27	234.39
769.60	234.35
769.92	234.22
770.25	234.11
770.57	233.97
770.90	233.88
771.22	233.78
771.55	233.68
771.87	233.59
772.20	233.48
772.52	233.48
772.85	233.50
773.17	233.39
773.50	233.28
773.82	233.19
774.15	233.08
774.47	232.95
774.80	232.84
775.12	232.75
775.45	232.66
775.77	232.59
776.09	232.47
776.42	232.38
776.74	232.30
777.07	232.22
777.39	232.16
777.72	232.04
778.04	231.97
778.36	231.89
778.69	231.79
779.01	231.75
779.33	231.56
779.66	231.38
779.98	231.32
780.31	231.25
780.63	231.22
780.95	231.12
781.28	231.02
781.60	230.92
781.92	230.85
782.25	230.78
782.57	230.71
782.89	230.66
783.22	230.60
783.54	230.53
783.86	230.49
784.19	230.46
784.51	230.43
784.83	230.36
785.16	230.30
785.48	230.26
785.80	230.20
786.12	230.18
786.45	230.15
786.77	230.09
787.09	230.04
