SpectraSuite Data File
++++++++++++++++++++++++++++++++++++
Date: Fri Feb 01 17:24:01 EST 2013
User: group
Dark Spectrum Present: No
Reference Spectrum Present: No
Number of Sampled Component Spectra: 1
Spectrometers: USB2E7196
Integration Time (usec): 35000 (USB2E7196)
Spectra Averaged: 100 (USB2E7196)
Boxcar Smoothing: 10 (USB2E7196)
Correct for Electrical Dark: No (USB2E7196)
Strobe/Lamp Enabled: No (USB2E7196)
Correct for Detector Non-linearity: No (USB2E7196)
Correct for Stray Light: No (USB2E7196)
Number of Pixels in Processed Spectrum: 2048
>>>>>Begin Processed Spectral Data<<<<<
339.09	0.00
339.48	212.90
339.86	214.07
340.24	216.11
340.63	217.31
341.01	219.79
341.39	219.91
341.78	221.14
342.16	221.93
342.54	222.98
342.93	211.30
343.31	221.97
343.69	222.49
344.07	222.95
344.46	223.36
344.84	223.73
345.22	223.95
345.60	224.17
345.99	224.35
346.37	224.47
346.75	224.54
347.13	224.58
347.52	224.60
347.90	224.66
348.28	224.69
348.66	224.70
349.05	224.67
349.43	224.71
349.81	224.77
350.19	224.81
350.57	224.82
350.96	224.88
351.34	224.94
351.72	225.06
352.10	225.13
352.48	225.18
352.87	225.22
353.25	225.29
353.63	225.37
354.01	225.41
354.39	225.51
354.77	225.60
355.15	225.72
355.54	225.82
355.92	225.88
356.30	225.97
356.68	226.10
357.06	226.21
357.44	226.27
357.82	226.32
358.20	226.38
358.58	226.51
358.97	226.60
359.35	226.70
359.73	226.76
360.11	226.87
360.49	226.92
360.87	226.98
361.25	227.05
361.63	227.17
362.01	227.23
362.39	227.31
362.77	227.36
363.15	227.38
363.53	227.38
363.91	227.43
364.29	227.44
364.67	227.35
365.05	227.36
365.43	227.41
365.81	227.49
366.19	227.53
366.57	227.53
366.95	227.51
367.33	227.51
367.71	227.52
368.09	227.51
368.47	227.53
368.85	227.50
369.23	227.54
369.61	227.47
369.99	227.49
370.37	227.45
370.75	227.52
371.13	227.50
371.51	227.48
371.89	227.40
372.27	227.38
372.65	227.38
373.03	227.35
373.41	227.27
373.78	227.20
374.16	227.10
374.54	227.08
374.92	227.04
375.30	226.96
375.68	226.85
376.06	226.80
376.44	226.73
376.82	226.71
377.19	226.63
377.57	226.53
377.95	226.42
378.33	226.35
378.71	226.20
379.09	226.15
379.47	226.12
379.84	226.09
380.22	226.04
380.60	225.97
380.98	225.88
381.36	225.80
381.73	225.70
382.11	225.68
382.49	225.62
382.87	225.54
383.25	225.48
383.62	225.56
384.00	225.49
384.38	225.46
384.76	225.40
385.13	225.38
385.51	225.33
385.89	225.26
386.27	225.22
386.64	225.19
387.02	225.13
387.40	225.08
387.78	225.04
388.15	224.99
388.53	224.92
388.91	224.88
389.29	224.89
389.66	224.87
390.04	224.83
390.42	224.78
390.79	224.75
391.17	224.73
391.55	224.59
391.92	224.58
392.30	224.54
392.68	224.51
393.05	224.50
393.43	224.52
393.81	224.55
394.18	224.53
394.56	224.53
394.94	224.53
395.31	224.52
395.69	224.55
396.06	224.55
396.44	224.61
396.82	224.62
397.19	224.69
397.57	224.75
397.95	224.75
398.32	224.77
398.70	224.83
399.07	224.91
399.45	224.97
399.82	225.01
400.20	225.08
400.58	225.11
400.95	225.10
401.33	225.15
401.70	225.26
402.08	225.33
402.45	225.40
402.83	225.50
403.20	225.63
403.58	225.70
403.95	225.84
404.33	225.96
404.71	226.05
405.08	226.19
405.46	226.30
405.83	226.42
406.21	226.56
406.58	226.66
406.96	226.77
407.33	226.94
407.70	227.12
408.08	227.36
408.45	227.59
408.83	227.85
409.20	228.06
409.58	228.24
409.95	228.48
410.33	228.76
410.70	229.02
411.08	229.27
411.45	229.58
411.82	229.88
412.20	230.21
412.57	230.65
412.95	230.96
413.32	231.37
413.69	231.80
414.07	232.25
414.44	232.77
414.82	233.26
415.19	233.82
415.56	234.39
415.94	234.95
416.31	235.62
416.68	236.22
417.06	236.99
417.43	237.70
417.81	238.51
418.18	239.29
418.55	240.14
418.93	241.08
419.30	242.00
419.67	242.98
420.04	243.98
420.42	245.03
420.79	246.23
421.16	247.44
421.54	248.70
421.91	249.99
422.28	251.27
422.66	252.70
423.03	254.09
423.40	255.45
423.77	256.93
424.15	258.40
424.52	260.03
424.89	261.69
425.26	263.32
425.64	264.83
426.01	266.54
426.38	268.28
426.75	270.01
427.13	271.82
427.50	273.75
427.87	275.72
428.24	277.64
428.61	279.51
428.99	281.54
429.36	283.72
429.73	285.87
430.10	288.01
430.47	290.17
430.85	292.36
431.22	294.70
431.59	297.19
431.96	299.52
432.33	302.09
432.70	304.54
433.08	307.49
433.45	310.23
433.82	312.91
434.19	315.91
434.56	318.85
434.93	321.58
435.30	324.26
435.68	327.24
436.05	330.16
436.42	332.99
436.79	335.60
437.16	338.41
437.53	341.31
437.90	344.17
438.27	346.98
438.64	349.90
439.01	352.60
439.38	354.91
439.75	357.17
440.13	359.70
440.50	362.18
440.87	364.05
441.24	366.09
441.61	368.32
441.98	369.93
442.35	371.78
442.72	373.73
443.09	375.63
443.46	376.70
443.83	377.34
444.20	377.97
444.57	378.82
444.94	379.11
445.31	379.51
445.68	379.95
446.05	380.11
446.42	379.69
446.79	379.31
447.16	378.86
447.53	378.53
447.90	377.36
448.27	376.13
448.64	374.53
449.01	373.33
449.37	371.30
449.74	369.27
450.11	366.95
450.48	364.41
450.85	361.75
451.22	359.54
451.59	357.43
451.96	355.40
452.33	352.71
452.70	350.24
453.07	347.29
453.43	344.28
453.80	341.35
454.17	338.60
454.54	335.92
454.91	333.10
455.28	330.31
455.65	327.74
456.02	325.22
456.38	322.95
456.75	320.18
457.12	317.87
457.49	315.56
457.86	313.30
458.23	311.35
458.59	309.21
458.96	307.02
459.33	305.09
459.70	303.15
460.07	301.60
460.43	299.84
460.80	298.17
461.17	296.68
461.54	295.13
461.91	293.65
462.27	292.20
462.64	290.87
463.01	289.48
463.38	288.14
463.74	286.71
464.11	285.53
464.48	284.48
464.85	283.29
465.21	282.39
465.58	281.45
465.95	280.28
466.32	279.35
466.68	278.42
467.05	277.50
467.42	276.57
467.78	275.63
468.15	274.69
468.52	274.01
468.88	273.11
469.25	272.31
469.62	271.69
469.98	270.97
470.35	270.36
470.72	269.77
471.08	269.06
471.45	268.48
471.82	267.91
472.18	267.32
472.55	266.91
472.92	266.35
473.28	265.86
473.65	265.46
474.02	265.02
474.38	264.63
474.75	264.36
475.11	263.98
475.48	263.70
475.85	263.52
476.21	263.30
476.58	263.11
476.94	263.00
477.31	262.82
477.67	262.67
478.04	262.58
478.41	262.54
478.77	262.58
479.14	262.55
479.50	262.58
479.87	262.62
480.23	262.67
480.60	262.78
480.96	262.90
481.33	263.08
481.69	263.26
482.06	263.48
482.42	263.67
482.79	263.91
483.15	264.24
483.52	264.60
483.88	264.90
484.25	265.29
484.61	265.69
484.98	266.12
485.34	266.67
485.71	267.25
486.07	267.81
486.44	268.39
486.80	269.11
487.17	269.83
487.53	270.65
487.90	271.52
488.26	272.43
488.62	273.40
488.99	274.39
489.35	275.44
489.72	276.56
490.08	277.73
490.44	279.00
490.81	280.31
491.17	281.64
491.54	283.14
491.90	284.70
492.26	286.32
492.63	288.06
492.99	289.81
493.36	291.67
493.72	293.70
494.08	295.79
494.45	298.01
494.81	300.37
495.17	302.81
495.54	305.36
495.90	308.04
496.26	310.84
496.63	313.80
496.99	316.86
497.35	320.07
497.72	323.46
498.08	326.94
498.44	330.56
498.80	334.44
499.17	338.45
499.53	342.53
499.89	346.85
500.26	351.28
500.62	355.89
500.98	360.79
501.34	365.81
501.71	371.08
502.07	376.46
502.43	381.99
502.79	387.72
503.16	393.68
503.52	399.85
503.88	406.15
504.24	412.59
504.60	419.43
504.97	426.49
505.33	433.67
505.69	441.30
506.05	449.01
506.41	456.78
506.78	464.81
507.14	473.13
507.50	481.71
507.86	490.63
508.22	499.69
508.59	508.80
508.95	518.18
509.31	527.84
509.67	537.78
510.03	547.89
510.39	558.25
510.75	568.85
511.12	579.55
511.48	590.63
511.84	601.94
512.20	613.22
512.56	624.96
512.92	636.99
513.28	649.08
513.64	661.26
514.00	673.71
514.37	686.42
514.73	699.16
515.09	712.00
515.45	724.96
515.81	738.25
516.17	751.85
516.53	765.69
516.89	779.55
517.25	793.42
517.61	807.51
517.97	821.62
518.33	835.78
518.69	850.30
519.05	864.92
519.41	879.74
519.77	894.90
520.13	909.94
520.49	924.92
520.85	939.82
521.21	955.11
521.57	970.95
521.93	986.22
522.29	1002.17
522.65	1018.06
523.01	1033.81
523.37	1049.46
523.73	1065.20
524.09	1080.93
524.45	1096.77
524.81	1113.00
525.17	1129.31
525.53	1145.70
525.89	1162.04
526.25	1178.50
526.61	1194.47
526.97	1210.74
527.33	1226.86
527.68	1242.93
528.04	1258.91
528.40	1275.17
528.76	1291.84
529.12	1307.98
529.48	1324.57
529.84	1340.21
530.20	1356.21
530.56	1372.75
530.91	1389.73
531.27	1406.26
531.63	1422.29
531.99	1438.42
532.35	1454.09
532.71	1469.71
533.07	1485.72
533.42	1501.33
533.78	1517.01
534.14	1532.96
534.50	1547.98
534.86	1563.39
535.21	1578.31
535.57	1593.89
535.93	1608.98
536.29	1623.39
536.65	1638.16
537.00	1652.49
537.36	1667.60
537.72	1681.90
538.08	1696.12
538.44	1709.60
538.79	1723.42
539.15	1736.76
539.51	1750.38
539.87	1764.44
540.22	1777.81
540.58	1791.27
540.94	1804.28
541.29	1816.93
541.65	1829.44
542.01	1842.47
542.37	1854.79
542.72	1867.22
543.08	1879.01
543.44	1891.28
543.79	1902.61
544.15	1913.48
544.51	1925.18
544.87	1935.99
545.22	1946.78
545.58	1957.12
545.94	1966.99
546.29	1976.61
546.65	1986.75
547.01	1996.10
547.36	2004.81
547.72	2013.44
548.07	2021.61
548.43	2029.98
548.79	2037.91
549.14	2045.70
549.50	2053.18
549.86	2060.83
550.21	2068.15
550.57	2075.49
550.92	2082.42
551.28	2089.72
551.64	2097.10
551.99	2103.63
552.35	2110.20
552.70	2116.72
553.06	2122.92
553.41	2129.51
553.77	2135.72
554.13	2141.88
554.48	2148.28
554.84	2154.33
555.19	2159.87
555.55	2165.23
555.90	2170.11
556.26	2175.64
556.61	2180.59
556.97	2185.37
557.32	2189.92
557.68	2194.39
558.03	2199.00
558.39	2202.82
558.74	2207.68
559.10	2211.86
559.45	2215.87
559.81	2220.41
560.16	2224.55
560.52	2228.16
560.87	2231.88
561.23	2234.87
561.58	2238.05
561.94	2240.96
562.29	2243.35
562.64	2246.51
563.00	2249.40
563.35	2253.27
563.71	2256.59
564.06	2260.06
564.42	2263.30
564.77	2266.26
565.12	2269.12
565.48	2271.58
565.83	2274.05
566.19	2275.81
566.54	2277.09
566.89	2278.78
567.25	2279.82
567.60	2281.47
567.96	2283.53
568.31	2284.74
568.66	2286.29
569.02	2287.36
569.37	2287.90
569.72	2289.34
570.08	2289.92
570.43	2290.44
570.78	2290.18
571.14	2289.08
571.49	2288.23
571.84	2288.15
572.20	2287.52
572.55	2286.72
572.90	2285.23
573.26	2284.18
573.61	2282.56
573.96	2281.31
574.31	2278.72
574.67	2276.18
575.02	2272.90
575.37	2269.87
575.72	2266.61
576.08	2263.56
576.43	2260.47
576.78	2257.40
577.13	2254.31
577.49	2251.38
577.84	2248.23
578.19	2244.86
578.54	2241.58
578.90	2237.73
579.25	2232.64
579.60	2228.01
579.95	2223.45
580.30	2218.84
580.66	2214.02
581.01	2209.41
581.36	2204.77
581.71	2200.92
582.06	2196.71
582.42	2192.61
582.77	2187.68
583.12	2183.38
583.47	2179.21
583.82	2174.68
584.17	2169.75
584.53	2164.58
584.88	2159.27
585.23	2153.84
585.58	2148.46
585.93	2143.12
586.28	2138.41
586.63	2133.55
586.98	2128.56
587.34	2123.99
587.69	2119.30
588.04	2114.46
588.39	2109.07
588.74	2102.66
589.09	2096.65
589.44	2090.19
589.79	2084.20
590.14	2078.64
590.49	2072.18
590.84	2065.77
591.19	2059.91
591.54	2053.55
591.89	2046.61
592.25	2040.20
592.60	2033.20
592.95	2026.06
593.30	2018.97
593.65	2011.64
594.00	2004.80
594.35	1997.74
594.70	1989.61
595.05	1982.74
595.40	1975.38
595.75	1968.10
596.10	1962.23
596.45	1955.77
596.80	1949.76
597.15	1943.38
597.50	1936.72
597.85	1930.35
598.19	1923.93
598.54	1917.20
598.89	1910.67
599.24	1904.72
599.59	1898.34
599.94	1892.00
600.29	1885.67
600.64	1879.13
600.99	1871.82
601.34	1865.14
601.69	1858.05
602.04	1851.55
602.39	1844.21
602.74	1837.49
603.08	1830.94
603.43	1824.16
603.78	1816.88
604.13	1809.66
604.48	1802.56
604.83	1795.71
605.18	1789.07
605.53	1781.22
605.87	1773.08
606.22	1765.83
606.57	1757.93
606.92	1750.21
607.27	1743.24
607.62	1736.42
607.96	1729.31
608.31	1722.86
608.66	1715.24
609.01	1707.94
609.36	1700.36
609.70	1692.38
610.05	1684.45
610.40	1676.86
610.75	1668.60
611.10	1660.81
611.44	1652.21
611.79	1644.03
612.14	1635.36
612.49	1625.99
612.83	1617.44
613.18	1609.18
613.53	1601.16
613.88	1592.55
614.22	1584.36
614.57	1575.59
614.92	1567.41
615.27	1559.87
615.61	1551.48
615.96	1543.30
616.31	1535.49
616.65	1528.11
617.00	1520.44
617.35	1512.58
617.70	1504.16
618.04	1495.69
618.39	1487.42
618.74	1479.97
619.08	1471.61
619.43	1463.78
619.78	1456.68
620.12	1449.59
620.47	1442.03
620.82	1433.67
621.16	1426.02
621.51	1418.19
621.85	1410.49
622.20	1401.90
622.55	1393.37
622.89	1385.36
623.24	1377.63
623.59	1370.09
623.93	1362.47
624.28	1355.09
624.62	1347.47
624.97	1340.10
625.32	1333.04
625.66	1325.86
626.01	1318.53
626.35	1311.14
626.70	1303.26
627.04	1295.64
627.39	1287.59
627.73	1280.00
628.08	1273.02
628.43	1265.86
628.77	1258.54
629.12	1250.90
629.46	1243.67
629.81	1236.13
630.15	1228.74
630.50	1221.26
630.84	1213.16
631.19	1204.95
631.53	1197.35
631.88	1189.68
632.22	1181.97
632.57	1174.53
632.91	1166.99
633.26	1159.46
633.60	1151.89
633.95	1144.65
634.29	1137.32
634.64	1130.61
634.98	1123.26
635.32	1116.03
635.67	1109.21
636.01	1102.44
636.36	1095.55
636.70	1088.95
637.05	1082.27
637.39	1075.82
637.73	1069.25
638.08	1063.25
638.42	1057.31
638.77	1050.84
639.11	1044.32
639.45	1037.90
639.80	1031.22
640.14	1024.80
640.49	1018.28
640.83	1011.97
641.17	1005.83
641.52	999.55
641.86	993.01
642.20	987.08
642.55	980.55
642.89	974.17
643.23	967.54
643.58	961.79
643.92	955.58
644.26	949.62
644.61	943.43
644.95	937.47
645.29	930.86
645.64	924.14
645.98	917.74
646.32	911.68
646.66	905.61
647.01	899.78
647.35	894.01
647.69	888.05
648.04	882.37
648.38	876.52
648.72	870.53
649.06	864.49
649.41	858.60
649.75	852.73
650.09	846.68
650.43	840.92
650.78	834.86
651.12	828.87
651.46	823.10
651.80	817.43
652.14	811.91
652.49	806.47
652.83	801.21
653.17	795.63
653.51	790.01
653.85	784.58
654.20	779.01
654.54	772.96
654.88	767.17
655.22	761.23
655.56	755.49
655.90	749.93
656.25	744.67
656.59	739.26
656.93	734.18
657.27	729.08
657.61	723.60
657.95	718.34
658.29	713.22
658.64	707.79
658.98	702.41
659.32	696.88
659.66	691.69
660.00	686.45
660.34	681.40
660.68	676.39
661.02	671.31
661.36	666.56
661.70	662.04
662.05	657.74
662.39	653.50
662.73	649.01
663.07	644.57
663.41	640.09
663.75	635.61
664.09	630.95
664.43	626.54
664.77	622.46
665.11	618.22
665.45	614.01
665.79	609.96
666.13	605.84
666.47	601.73
666.81	597.57
667.15	593.31
667.49	589.35
667.83	585.47
668.17	581.50
668.51	577.42
668.85	573.36
669.19	569.40
669.53	565.56
669.87	561.66
670.21	557.98
670.55	554.31
670.89	550.85
671.23	547.45
671.57	543.83
671.91	540.30
672.25	536.72
672.58	533.18
672.92	529.75
673.26	526.49
673.60	523.32
673.94	520.19
674.28	517.28
674.62	514.31
674.96	511.22
675.30	508.30
675.64	505.36
675.97	502.50
676.31	499.61
676.65	496.61
676.99	493.88
677.33	491.00
677.67	488.19
678.01	485.12
678.34	482.15
678.68	479.27
679.02	476.38
679.36	473.57
679.70	470.83
680.04	468.01
680.37	465.14
680.71	462.35
681.05	459.66
681.39	456.89
681.73	454.26
682.06	451.73
682.40	449.13
682.74	446.56
683.08	444.02
683.42	441.43
683.75	438.97
684.09	436.38
684.43	433.89
684.77	431.44
685.10	429.05
685.44	426.67
685.78	424.34
686.12	422.05
686.45	419.74
686.79	417.45
687.13	415.28
687.46	413.11
687.80	410.94
688.14	408.66
688.48	406.60
688.81	404.31
689.15	402.12
689.49	399.98
689.82	397.86
690.16	395.72
690.50	393.77
690.83	391.75
691.17	389.71
691.51	387.77
691.84	385.88
692.18	383.94
692.52	381.96
692.85	380.00
693.19	378.12
693.52	376.26
693.86	374.42
694.20	372.58
694.53	370.80
694.87	368.85
695.21	367.06
695.54	365.20
695.88	363.45
696.21	361.66
696.55	359.95
696.88	358.23
697.22	356.51
697.56	354.80
697.89	353.17
698.23	351.60
698.56	350.00
698.90	348.38
699.23	346.73
699.57	345.16
699.90	343.62
700.24	342.05
700.58	340.50
700.91	339.01
701.25	337.56
701.58	336.19
701.92	334.85
702.25	333.47
702.59	332.11
702.92	330.75
703.26	329.46
703.59	328.12
703.93	326.91
704.26	325.72
704.60	324.44
704.93	323.10
705.26	321.77
705.60	320.52
705.93	319.32
706.27	318.27
706.60	317.22
706.94	316.11
707.27	314.97
707.61	313.91
707.94	312.81
708.27	311.66
708.61	310.47
708.94	309.41
709.28	308.40
709.61	307.39
709.94	306.45
710.28	305.39
710.61	304.41
710.95	303.35
711.28	302.40
711.61	301.39
711.95	300.45
712.28	299.53
712.61	298.52
712.95	297.57
713.28	296.65
713.61	295.67
713.95	294.76
714.28	293.90
714.61	292.97
714.95	292.14
715.28	291.28
715.61	290.40
715.95	289.58
716.28	288.69
716.61	287.87
716.95	287.01
717.28	286.24
717.61	285.43
717.94	284.67
718.28	283.80
718.61	283.10
718.94	282.38
719.27	281.71
719.61	281.06
719.94	280.39
720.27	279.64
720.60	278.99
720.94	278.34
721.27	277.76
721.60	277.19
721.93	276.55
722.27	275.98
722.60	275.44
722.93	274.88
723.26	274.35
723.59	273.75
723.93	273.20
724.26	272.63
724.59	272.09
724.92	271.54
725.25	271.09
725.59	270.50
725.92	270.01
726.25	269.48
726.58	268.99
726.91	268.45
727.24	267.99
727.57	267.49
727.91	266.99
728.24	266.48
728.57	265.94
728.90	265.51
729.23	265.04
729.56	264.60
729.89	264.09
730.22	263.58
730.55	263.12
730.89	262.67
731.22	262.23
731.55	261.79
731.88	261.35
732.21	260.90
732.54	260.54
732.87	260.11
733.20	259.69
733.53	259.30
733.86	258.93
734.19	258.54
734.52	258.15
734.85	257.83
735.18	257.45
735.51	257.13
735.84	256.77
736.17	256.38
736.50	255.98
736.83	255.74
737.16	255.43
737.49	255.11
737.82	254.75
738.15	254.41
738.48	254.07
738.81	253.75
739.14	253.42
739.47	253.09
739.80	252.77
740.13	252.48
740.46	252.15
740.79	251.85
741.12	251.50
741.45	251.24
741.78	250.92
742.11	250.63
742.44	250.31
742.77	249.98
743.10	249.72
743.43	249.45
743.75	249.08
744.08	248.94
744.41	248.65
744.74	248.40
745.07	248.16
745.40	247.94
745.73	247.71
746.06	247.44
746.39	247.16
746.71	246.90
747.04	246.63
747.37	246.37
747.70	246.08
748.03	245.82
748.36	245.57
748.68	245.32
749.01	245.04
749.34	244.80
749.67	244.57
750.00	244.31
750.33	244.11
750.65	243.89
750.98	243.52
751.31	243.30
751.64	243.08
751.97	242.87
752.29	242.61
752.62	242.33
752.95	242.10
753.28	241.87
753.60	241.67
753.93	241.46
754.26	241.29
754.59	241.07
754.91	240.89
755.24	240.68
755.57	240.47
755.90	240.29
756.22	240.07
756.55	239.86
756.88	239.64
757.20	239.40
757.53	239.22
757.86	239.05
758.19	238.88
758.51	238.71
758.84	238.50
759.17	238.31
759.49	238.17
759.82	238.04
760.15	237.88
760.47	237.72
760.80	237.54
761.13	237.37
761.45	237.22
761.78	237.05
762.11	236.90
762.43	236.72
762.76	236.55
763.08	236.44
763.41	236.32
763.74	236.19
764.06	236.04
764.39	235.87
764.71	235.74
765.04	235.59
765.37	235.44
765.69	235.31
766.02	235.19
766.34	235.04
766.67	234.92
767.00	234.83
767.32	234.74
767.65	234.70
767.97	234.58
768.30	234.49
768.62	234.35
768.95	234.22
769.27	234.11
769.60	234.02
769.92	233.90
770.25	233.75
770.57	233.62
770.90	233.51
771.22	233.41
771.55	233.29
771.87	233.22
772.20	233.14
772.52	233.14
772.85	233.18
773.17	233.07
773.50	232.96
773.82	232.83
774.15	232.70
774.47	232.55
774.80	232.49
775.12	232.40
775.45	232.33
775.77	232.27
776.09	232.21
776.42	232.12
776.74	232.05
777.07	231.94
777.39	231.90
777.72	231.84
778.04	231.77
778.36	231.68
778.69	231.59
779.01	231.51
779.33	231.34
779.66	231.17
779.98	231.11
780.31	231.05
780.63	231.04
780.95	230.98
781.28	230.93
781.60	230.86
781.92	230.74
782.25	230.72
782.57	230.65
782.89	230.59
783.22	230.52
783.54	230.47
783.86	230.43
784.19	230.36
784.51	230.35
784.83	230.28
785.16	230.25
785.48	230.21
785.80	230.16
786.12	230.10
786.45	230.02
786.77	230.00
787.09	229.94
