SpectraSuite Data File
++++++++++++++++++++++++++++++++++++
Date: Fri Feb 01 17:31:51 EST 2013
User: group
Dark Spectrum Present: No
Reference Spectrum Present: No
Number of Sampled Component Spectra: 1
Spectrometers: USB2E7196
Integration Time (usec): 35000 (USB2E7196)
Spectra Averaged: 100 (USB2E7196)
Boxcar Smoothing: 10 (USB2E7196)
Correct for Electrical Dark: No (USB2E7196)
Strobe/Lamp Enabled: No (USB2E7196)
Correct for Detector Non-linearity: No (USB2E7196)
Correct for Stray Light: No (USB2E7196)
Number of Pixels in Processed Spectrum: 2048
>>>>>Begin Processed Spectral Data<<<<<
339.09	0.00
339.48	213.17
339.86	214.53
340.24	215.08
340.63	217.65
341.01	220.16
341.39	220.12
341.78	221.47
342.16	222.51
342.54	222.84
342.93	211.53
343.31	222.23
343.69	222.74
344.07	223.14
344.46	223.61
344.84	223.97
345.22	224.18
345.60	224.42
345.99	224.56
346.37	224.67
346.75	224.77
347.13	224.86
347.52	224.92
347.90	224.97
348.28	225.01
348.66	225.02
349.05	225.00
349.43	225.06
349.81	225.09
350.19	225.09
350.57	225.10
350.96	225.18
351.34	225.24
351.72	225.33
352.10	225.47
352.48	225.52
352.87	225.56
353.25	225.62
353.63	225.68
354.01	225.78
354.39	225.85
354.77	225.90
355.15	225.96
355.54	226.00
355.92	226.03
356.30	226.08
356.68	226.20
357.06	226.23
357.44	226.29
357.82	226.36
358.20	226.42
358.58	226.48
358.97	226.54
359.35	226.61
359.73	226.72
360.11	226.79
360.49	226.86
360.87	226.91
361.25	226.99
361.63	227.05
362.01	227.12
362.39	227.17
362.77	227.23
363.15	227.27
363.53	227.31
363.91	227.33
364.29	227.38
364.67	227.31
365.05	227.38
365.43	227.37
365.81	227.40
366.19	227.50
366.57	227.54
366.95	227.54
367.33	227.52
367.71	227.48
368.09	227.50
368.47	227.48
368.85	227.49
369.23	227.49
369.61	227.45
369.99	227.45
370.37	227.42
370.75	227.48
371.13	227.42
371.51	227.39
371.89	227.38
372.27	227.33
372.65	227.32
373.03	227.26
373.41	227.22
373.78	227.16
374.16	227.03
374.54	226.94
374.92	226.88
375.30	226.83
375.68	226.77
376.06	226.70
376.44	226.68
376.82	226.62
377.19	226.55
377.57	226.49
377.95	226.40
378.33	226.32
378.71	226.18
379.09	226.14
379.47	226.08
379.84	226.00
380.22	225.93
380.60	225.84
380.98	225.78
381.36	225.72
381.73	225.67
382.11	225.66
382.49	225.63
382.87	225.59
383.25	225.55
383.62	225.59
384.00	225.49
384.38	225.41
384.76	225.38
385.13	225.34
385.51	225.28
385.89	225.21
386.27	225.19
386.64	225.14
387.02	225.09
387.40	225.02
387.78	225.00
388.15	224.98
388.53	224.95
388.91	224.93
389.29	224.88
389.66	224.85
390.04	224.81
390.42	224.80
390.79	224.77
391.17	224.71
391.55	224.60
391.92	224.62
392.30	224.61
392.68	224.59
393.05	224.59
393.43	224.59
393.81	224.58
394.18	224.57
394.56	224.55
394.94	224.58
395.31	224.62
395.69	224.67
396.06	224.70
396.44	224.76
396.82	224.77
397.19	224.87
397.57	224.87
397.95	224.90
398.32	224.89
398.70	224.94
399.07	225.01
399.45	225.07
399.82	225.10
400.20	225.15
400.58	225.21
400.95	225.23
401.33	225.31
401.70	225.48
402.08	225.55
402.45	225.65
402.83	225.74
403.20	225.83
403.58	225.88
403.95	225.98
404.33	226.07
404.71	226.18
405.08	226.31
405.46	226.46
405.83	226.58
406.21	226.75
406.58	226.90
406.96	227.07
407.33	227.25
407.70	227.45
408.08	227.71
408.45	227.90
408.83	228.16
409.20	228.40
409.58	228.57
409.95	228.85
410.33	229.13
410.70	229.39
411.08	229.69
411.45	230.02
411.82	230.35
412.20	230.71
412.57	231.13
412.95	231.46
413.32	231.89
413.69	232.32
414.07	232.75
414.44	233.26
414.82	233.76
415.19	234.31
415.56	234.86
415.94	235.44
416.31	236.12
416.68	236.75
417.06	237.49
417.43	238.18
417.81	239.00
418.18	239.84
418.55	240.71
418.93	241.62
419.30	242.57
419.67	243.54
420.04	244.54
420.42	245.56
420.79	246.78
421.16	247.95
421.54	249.21
421.91	250.47
422.28	251.73
422.66	253.13
423.03	254.48
423.40	255.91
423.77	257.40
424.15	258.87
424.52	260.44
424.89	262.09
425.26	263.71
425.64	265.19
426.01	266.84
426.38	268.56
426.75	270.31
427.13	272.10
427.50	273.99
427.87	275.97
428.24	277.92
428.61	279.74
428.99	281.81
429.36	284.02
429.73	286.20
430.10	288.37
430.47	290.51
430.85	292.70
431.22	295.02
431.59	297.50
431.96	299.86
432.33	302.43
432.70	304.96
433.08	307.89
433.45	310.64
433.82	313.36
434.19	316.38
434.56	319.33
434.93	322.07
435.30	324.81
435.68	327.79
436.05	330.78
436.42	333.70
436.79	336.34
437.16	339.14
437.53	342.10
437.90	345.00
438.27	347.82
438.64	350.79
439.01	353.48
439.38	355.81
439.75	358.08
440.13	360.64
440.50	363.03
440.87	364.98
441.24	366.99
441.61	369.25
441.98	370.80
442.35	372.66
442.72	374.65
443.09	376.58
443.46	377.64
443.83	378.25
444.20	378.83
444.57	379.70
444.94	379.99
445.31	380.39
445.68	380.82
446.05	380.96
446.42	380.56
446.79	380.19
447.16	379.72
447.53	379.38
447.90	378.25
448.27	377.09
448.64	375.43
449.01	374.26
449.37	372.29
449.74	370.30
450.11	367.96
450.48	365.38
450.85	362.72
451.22	360.49
451.59	358.37
451.96	356.35
452.33	353.64
452.70	351.19
453.07	348.23
453.43	345.15
453.80	342.27
454.17	339.49
454.54	336.79
454.91	333.97
455.28	331.20
455.65	328.61
456.02	326.00
456.38	323.80
456.75	321.05
457.12	318.69
457.49	316.42
457.86	314.17
458.23	312.20
458.59	310.08
458.96	307.92
459.33	305.98
459.70	304.00
460.07	302.42
460.43	300.62
460.80	298.90
461.17	297.38
461.54	295.80
461.91	294.34
462.27	292.86
462.64	291.55
463.01	290.12
463.38	288.73
463.74	287.30
464.11	286.05
464.48	284.97
464.85	283.79
465.21	282.87
465.58	281.90
465.95	280.77
466.32	279.79
466.68	278.83
467.05	277.89
467.42	276.94
467.78	275.98
468.15	275.10
468.52	274.41
468.88	273.57
469.25	272.77
469.62	272.13
469.98	271.41
470.35	270.77
470.72	270.17
471.08	269.50
471.45	268.99
471.82	268.47
472.18	267.87
472.55	267.40
472.92	266.88
473.28	266.41
473.65	265.96
474.02	265.52
474.38	265.14
474.75	264.83
475.11	264.48
475.48	264.22
475.85	263.97
476.21	263.78
476.58	263.58
476.94	263.44
477.31	263.27
477.67	263.10
478.04	263.01
478.41	262.94
478.77	262.96
479.14	262.86
479.50	262.83
479.87	262.94
480.23	263.00
480.60	263.04
480.96	263.14
481.33	263.33
481.69	263.54
482.06	263.71
482.42	263.88
482.79	264.15
483.15	264.42
483.52	264.78
483.88	265.10
484.25	265.48
484.61	265.89
484.98	266.31
485.34	266.88
485.71	267.45
486.07	268.05
486.44	268.64
486.80	269.35
487.17	270.11
487.53	270.86
487.90	271.71
488.26	272.68
488.62	273.63
488.99	274.60
489.35	275.60
489.72	276.74
490.08	277.97
490.44	279.21
490.81	280.53
491.17	281.84
491.54	283.32
491.90	284.86
492.26	286.46
492.63	288.17
492.99	289.93
493.36	291.79
493.72	293.79
494.08	295.86
494.45	298.08
494.81	300.38
495.17	302.81
495.54	305.36
495.90	307.99
496.26	310.81
496.63	313.75
496.99	316.83
497.35	320.06
497.72	323.40
498.08	326.90
498.44	330.52
498.80	334.42
499.17	338.44
499.53	342.56
499.89	346.94
500.26	351.42
500.62	356.00
500.98	360.89
501.34	365.91
501.71	371.22
502.07	376.57
502.43	382.12
502.79	387.85
503.16	393.85
503.52	399.98
503.88	406.24
504.24	412.72
504.60	419.43
504.97	426.44
505.33	433.67
505.69	441.24
506.05	448.95
506.41	456.70
506.78	464.67
507.14	472.93
507.50	481.46
507.86	490.36
508.22	499.38
508.59	508.43
508.95	517.85
509.31	527.40
509.67	537.34
510.03	547.46
510.39	557.82
510.75	568.31
511.12	578.99
511.48	590.06
511.84	601.35
512.20	612.69
512.56	624.36
512.92	636.23
513.28	648.30
513.64	660.48
514.00	672.87
514.37	685.48
514.73	698.26
515.09	710.89
515.45	723.77
515.81	737.06
516.17	750.64
516.53	764.41
516.89	778.29
517.25	792.04
517.61	806.07
517.97	820.15
518.33	834.26
518.69	848.66
519.05	863.20
519.41	877.85
519.77	892.88
520.13	907.96
520.49	922.92
520.85	937.83
521.21	953.05
521.57	968.80
521.93	984.07
522.29	999.93
522.65	1015.75
523.01	1031.56
523.37	1047.19
523.73	1062.84
524.09	1078.34
524.45	1094.07
524.81	1110.23
525.17	1126.36
525.53	1142.62
525.89	1159.01
526.25	1175.33
526.61	1191.20
526.97	1207.48
527.33	1223.48
527.68	1239.49
528.04	1255.38
528.40	1271.50
528.76	1288.00
529.12	1304.06
529.48	1320.46
529.84	1336.01
530.20	1352.18
530.56	1368.65
530.91	1385.47
531.27	1401.82
531.63	1417.94
531.99	1434.11
532.35	1449.69
532.71	1465.30
533.07	1481.22
533.42	1496.77
533.78	1512.45
534.14	1528.46
534.50	1543.54
534.86	1559.10
535.21	1574.09
535.57	1589.79
535.93	1604.85
536.29	1619.34
536.65	1634.15
537.00	1648.70
537.36	1663.79
537.72	1678.00
538.08	1692.21
538.44	1705.58
538.79	1719.26
539.15	1732.61
539.51	1746.09
539.87	1760.20
540.22	1773.60
540.58	1787.23
540.94	1800.19
541.29	1812.79
541.65	1825.28
542.01	1838.25
542.37	1850.38
542.72	1862.57
543.08	1874.28
543.44	1886.69
543.79	1897.95
544.15	1908.82
544.51	1920.34
544.87	1931.27
545.22	1942.09
545.58	1952.30
545.94	1962.26
546.29	1972.26
546.65	1982.17
547.01	1991.58
547.36	2000.30
547.72	2009.07
548.07	2016.94
548.43	2025.28
548.79	2033.44
549.14	2041.12
549.50	2048.64
549.86	2056.39
550.21	2063.78
550.57	2071.18
550.92	2077.95
551.28	2085.25
551.64	2092.66
551.99	2099.41
552.35	2105.69
552.70	2112.16
553.06	2118.56
553.41	2125.20
553.77	2131.29
554.13	2137.61
554.48	2144.06
554.84	2150.11
555.19	2155.54
555.55	2161.28
555.90	2166.16
556.26	2171.56
556.61	2176.52
556.97	2181.29
557.32	2185.94
557.68	2190.55
558.03	2195.07
558.39	2199.20
558.74	2204.11
559.10	2208.26
559.45	2212.12
559.81	2216.78
560.16	2220.93
560.52	2224.44
560.87	2228.25
561.23	2231.24
561.58	2234.50
561.94	2237.35
562.29	2239.84
562.64	2243.10
563.00	2245.80
563.35	2249.66
563.71	2253.04
564.06	2256.60
564.42	2259.78
564.77	2262.68
565.12	2265.45
565.48	2267.82
565.83	2270.06
566.19	2271.90
566.54	2273.11
566.89	2274.93
567.25	2275.98
567.60	2277.65
567.96	2279.82
568.31	2281.06
568.66	2282.82
569.02	2283.94
569.37	2284.63
569.72	2286.03
570.08	2286.56
570.43	2287.01
570.78	2286.95
571.14	2285.77
571.49	2284.95
571.84	2284.96
572.20	2284.21
572.55	2283.61
572.90	2282.30
573.26	2281.37
573.61	2279.88
573.96	2278.75
574.31	2276.15
574.67	2273.70
575.02	2270.47
575.37	2267.32
575.72	2264.05
576.08	2260.85
576.43	2257.78
576.78	2254.77
577.13	2251.78
577.49	2248.93
577.84	2245.85
578.19	2242.40
578.54	2239.44
578.90	2235.63
579.25	2230.43
579.60	2226.04
579.95	2221.33
580.30	2216.81
580.66	2211.98
581.01	2207.42
581.36	2202.91
581.71	2199.04
582.06	2194.88
582.42	2190.91
582.77	2186.22
583.12	2181.98
583.47	2177.73
583.82	2173.30
584.17	2168.19
584.53	2163.08
584.88	2157.87
585.23	2152.57
585.58	2147.31
585.93	2141.96
586.28	2137.36
586.63	2132.59
586.98	2127.65
587.34	2123.19
587.69	2118.55
588.04	2113.48
588.39	2108.18
588.74	2101.82
589.09	2095.95
589.44	2089.40
589.79	2083.55
590.14	2077.97
590.49	2071.53
590.84	2065.44
591.19	2059.53
591.54	2053.28
591.89	2046.44
592.25	2039.99
592.60	2032.94
592.95	2025.73
593.30	2018.71
593.65	2011.40
594.00	2004.58
594.35	1997.51
594.70	1989.64
595.05	1982.85
595.40	1975.81
595.75	1968.39
596.10	1962.51
596.45	1956.01
596.80	1950.12
597.15	1943.67
597.50	1936.87
597.85	1930.55
598.19	1923.97
598.54	1917.12
598.89	1910.66
599.24	1904.65
599.59	1898.13
599.94	1892.03
600.29	1885.76
600.64	1879.16
600.99	1871.80
601.34	1865.29
601.69	1858.37
602.04	1851.63
602.39	1844.30
602.74	1837.51
603.08	1830.90
603.43	1824.05
603.78	1816.72
604.13	1809.52
604.48	1802.29
604.83	1795.46
605.18	1788.79
605.53	1780.93
605.87	1772.90
606.22	1765.73
606.57	1757.85
606.92	1750.50
607.27	1743.45
607.62	1736.50
607.96	1729.26
608.31	1722.87
608.66	1715.18
609.01	1707.72
609.36	1700.12
609.70	1691.94
610.05	1683.90
610.40	1676.34
610.75	1668.14
611.10	1660.55
611.44	1652.05
611.79	1643.99
612.14	1635.27
612.49	1625.82
612.83	1617.28
613.18	1609.07
613.53	1600.82
613.88	1592.16
614.22	1583.68
614.57	1574.82
614.92	1566.75
615.27	1559.21
615.61	1550.70
615.96	1542.47
616.31	1534.73
616.65	1527.33
617.00	1519.73
617.35	1512.01
617.70	1503.52
618.04	1494.84
618.39	1486.35
618.74	1478.62
619.08	1470.13
619.43	1462.42
619.78	1455.36
620.12	1448.23
620.47	1440.70
620.82	1432.43
621.16	1424.85
621.51	1417.13
621.85	1409.38
622.20	1400.84
622.55	1392.29
622.89	1384.43
623.24	1376.62
623.59	1369.06
623.93	1361.42
624.28	1354.14
624.62	1346.57
624.97	1339.24
625.32	1332.42
625.66	1325.39
626.01	1318.18
626.35	1310.88
626.70	1303.00
627.04	1295.29
627.39	1287.36
627.73	1279.82
628.08	1272.90
628.43	1265.58
628.77	1258.26
629.12	1250.73
629.46	1243.48
629.81	1235.98
630.15	1228.54
630.50	1221.12
630.84	1212.84
631.19	1204.76
631.53	1197.17
631.88	1189.32
632.22	1181.62
632.57	1174.15
632.91	1166.43
633.26	1158.97
633.60	1151.36
633.95	1144.10
634.29	1136.90
634.64	1130.14
634.98	1122.68
635.32	1115.40
635.67	1108.77
636.01	1101.97
636.36	1095.12
636.70	1088.44
637.05	1081.85
637.39	1075.31
637.73	1068.80
638.08	1062.93
638.42	1056.84
638.77	1050.30
639.11	1043.78
639.45	1037.34
639.80	1030.69
640.14	1024.36
640.49	1017.83
640.83	1011.51
641.17	1005.41
641.52	999.12
641.86	992.67
642.20	986.82
642.55	980.40
642.89	973.90
643.23	967.18
643.58	961.38
643.92	955.17
644.26	949.09
644.61	943.04
644.95	937.05
645.29	930.49
645.64	923.83
645.98	917.50
646.32	911.63
646.66	905.62
647.01	899.76
647.35	893.93
647.69	887.95
648.04	882.29
648.38	876.48
648.72	870.45
649.06	864.38
649.41	858.47
649.75	852.46
650.09	846.49
650.43	840.80
650.78	834.56
651.12	828.63
651.46	822.87
651.80	817.07
652.14	811.60
652.49	806.12
652.83	800.82
653.17	795.12
653.51	789.37
653.85	783.89
654.20	778.28
654.54	772.27
654.88	766.46
655.22	760.54
655.56	754.70
655.90	749.19
656.25	743.90
656.59	738.46
656.93	733.42
657.27	728.19
657.61	722.67
657.95	717.61
658.29	712.44
658.64	707.11
658.98	701.73
659.32	696.19
659.66	690.96
660.00	685.73
660.34	680.71
660.68	675.81
661.02	670.75
661.36	665.98
661.70	661.48
662.05	657.24
662.39	653.00
662.73	648.52
663.07	644.10
663.41	639.63
663.75	635.13
664.09	630.51
664.43	626.09
664.77	622.02
665.11	617.70
665.45	613.54
665.79	609.52
666.13	605.46
666.47	601.36
666.81	597.22
667.15	593.09
667.49	589.26
667.83	585.40
668.17	581.50
668.51	577.45
668.85	573.37
669.19	569.42
669.53	565.55
669.87	561.71
670.21	557.99
670.55	554.27
670.89	550.84
671.23	547.40
671.57	543.91
671.91	540.36
672.25	536.84
672.58	533.37
672.92	529.85
673.26	526.61
673.60	523.41
673.94	520.29
674.28	517.30
674.62	514.21
674.96	511.06
675.30	508.08
675.64	505.13
675.97	502.34
676.31	499.43
676.65	496.48
676.99	493.70
677.33	490.83
677.67	488.03
678.01	484.98
678.34	482.06
678.68	479.17
679.02	476.32
679.36	473.47
679.70	470.71
680.04	468.00
680.37	465.13
680.71	462.29
681.05	459.61
681.39	456.91
681.73	454.22
682.06	451.67
682.40	449.15
682.74	446.54
683.08	443.99
683.42	441.41
683.75	438.85
684.09	436.27
684.43	433.83
684.77	431.39
685.10	429.01
685.44	426.62
685.78	424.29
686.12	422.05
686.45	419.76
686.79	417.43
687.13	415.23
687.46	413.05
687.80	410.88
688.14	408.65
688.48	406.54
688.81	404.35
689.15	402.19
689.49	399.95
689.82	397.92
690.16	395.73
690.50	393.71
690.83	391.79
691.17	389.78
691.51	387.81
691.84	385.90
692.18	383.95
692.52	381.96
692.85	379.98
693.19	378.06
693.52	376.21
693.86	374.37
694.20	372.52
694.53	370.73
694.87	368.87
695.21	367.06
695.54	365.22
695.88	363.45
696.21	361.72
696.55	359.99
696.88	358.26
697.22	356.60
697.56	354.91
697.89	353.23
698.23	351.63
698.56	350.00
698.90	348.40
699.23	346.69
699.57	345.11
699.90	343.52
700.24	341.94
700.58	340.39
700.91	338.88
701.25	337.41
701.58	335.97
701.92	334.58
702.25	333.22
702.59	331.81
702.92	330.45
703.26	329.11
703.59	327.84
703.93	326.63
704.26	325.40
704.60	324.08
704.93	322.81
705.26	321.52
705.60	320.30
705.93	319.12
706.27	318.15
706.60	317.09
706.94	316.03
707.27	314.89
707.61	313.80
707.94	312.77
708.27	311.65
708.61	310.58
708.94	309.56
709.28	308.54
709.61	307.54
709.94	306.56
710.28	305.55
710.61	304.55
710.95	303.45
711.28	302.49
711.61	301.58
711.95	300.63
712.28	299.68
712.61	298.69
712.95	297.73
713.28	296.77
713.61	295.88
713.95	294.94
714.28	294.08
714.61	293.23
714.95	292.34
715.28	291.44
715.61	290.52
715.95	289.63
716.28	288.77
716.61	287.95
716.95	287.13
717.28	286.36
717.61	285.63
717.94	284.87
718.28	284.10
718.61	283.37
718.94	282.65
719.27	281.98
719.61	281.32
719.94	280.62
720.27	279.88
720.60	279.19
720.94	278.56
721.27	277.90
721.60	277.32
721.93	276.74
722.27	276.19
722.60	275.63
722.93	275.06
723.26	274.49
723.59	273.92
723.93	273.34
724.26	272.74
724.59	272.18
724.92	271.65
725.25	271.13
725.59	270.57
725.92	270.06
726.25	269.52
726.58	269.01
726.91	268.52
727.24	268.04
727.57	267.55
727.91	267.04
728.24	266.61
728.57	266.09
728.90	265.57
729.23	265.09
729.56	264.66
729.89	264.18
730.22	263.69
730.55	263.20
730.89	262.76
731.22	262.35
731.55	261.86
731.88	261.43
732.21	260.96
732.54	260.53
732.87	260.10
733.20	259.70
733.53	259.30
733.86	258.92
734.19	258.53
734.52	258.14
734.85	257.81
735.18	257.40
735.51	257.01
735.84	256.66
736.17	256.33
736.50	255.92
736.83	255.71
737.16	255.38
737.49	255.06
737.82	254.71
738.15	254.34
738.48	254.03
738.81	253.70
739.14	253.40
739.47	253.13
739.80	252.83
740.13	252.53
740.46	252.22
740.79	251.87
741.12	251.56
741.45	251.28
741.78	250.95
742.11	250.69
742.44	250.35
742.77	250.06
743.10	249.77
743.43	249.49
743.75	249.09
744.08	248.96
744.41	248.69
744.74	248.42
745.07	248.18
745.40	247.93
745.73	247.72
746.06	247.43
746.39	247.13
746.71	246.82
747.04	246.54
747.37	246.28
747.70	246.09
748.03	245.86
748.36	245.61
748.68	245.37
749.01	245.09
749.34	244.89
749.67	244.68
750.00	244.43
750.33	244.27
750.65	244.07
750.98	243.69
751.31	243.46
751.64	243.26
751.97	243.09
752.29	242.85
752.62	242.56
752.95	242.37
753.28	242.14
753.60	241.95
753.93	241.79
754.26	241.58
754.59	241.31
754.91	241.07
755.24	240.87
755.57	240.66
755.90	240.50
756.22	240.30
756.55	240.07
756.88	239.86
757.20	239.58
757.53	239.37
757.86	239.20
758.19	239.06
758.51	238.85
758.84	238.63
759.17	238.47
759.49	238.31
759.82	238.15
760.15	237.99
760.47	237.79
760.80	237.59
761.13	237.44
761.45	237.27
761.78	237.12
762.11	236.96
762.43	236.79
762.76	236.59
763.08	236.48
763.41	236.36
763.74	236.22
764.06	236.10
764.39	235.93
764.71	235.77
765.04	235.61
765.37	235.44
765.69	235.31
766.02	235.14
766.34	234.99
766.67	234.87
767.00	234.77
767.32	234.68
767.65	234.62
767.97	234.51
768.30	234.40
768.62	234.27
768.95	234.17
769.27	234.06
769.60	233.98
769.92	233.87
770.25	233.73
770.57	233.63
770.90	233.52
771.22	233.42
771.55	233.32
771.87	233.18
772.20	233.12
772.52	233.10
772.85	233.11
773.17	233.01
773.50	232.88
773.82	232.78
774.15	232.66
774.47	232.51
774.80	232.39
775.12	232.30
775.45	232.24
775.77	232.17
776.09	232.07
776.42	231.96
776.74	231.85
777.07	231.77
777.39	231.67
777.72	231.60
778.04	231.53
778.36	231.45
778.69	231.40
779.01	231.34
779.33	231.20
779.66	231.04
779.98	230.97
780.31	230.89
780.63	230.90
780.95	230.90
781.28	230.84
781.60	230.79
781.92	230.72
782.25	230.67
782.57	230.58
782.89	230.50
783.22	230.45
783.54	230.42
783.86	230.38
784.19	230.30
784.51	230.27
784.83	230.23
785.16	230.17
785.48	230.15
785.80	230.11
786.12	230.04
786.45	229.98
786.77	229.98
787.09	229.95
