SpectraSuite Data File
++++++++++++++++++++++++++++++++++++
Date: Fri Feb 01 18:10:47 EST 2013
User: group
Dark Spectrum Present: No
Reference Spectrum Present: No
Number of Sampled Component Spectra: 1
Spectrometers: USB2E7196
Integration Time (usec): 35000 (USB2E7196)
Spectra Averaged: 100 (USB2E7196)
Boxcar Smoothing: 10 (USB2E7196)
Correct for Electrical Dark: No (USB2E7196)
Strobe/Lamp Enabled: No (USB2E7196)
Correct for Detector Non-linearity: No (USB2E7196)
Correct for Stray Light: No (USB2E7196)
Number of Pixels in Processed Spectrum: 2048
>>>>>Begin Processed Spectral Data<<<<<
339.09	0.00
339.48	212.95
339.86	214.05
340.24	215.74
340.63	217.22
341.01	220.42
341.39	220.06
341.78	220.79
342.16	221.48
342.54	222.85
342.93	211.24
343.31	221.90
343.69	222.45
344.07	222.91
344.46	223.33
344.84	223.69
345.22	223.89
345.60	224.12
345.99	224.35
346.37	224.50
346.75	224.61
347.13	224.67
347.52	224.67
347.90	224.77
348.28	224.82
348.66	224.85
349.05	224.83
349.43	224.88
349.81	224.91
350.19	224.96
350.57	225.02
350.96	225.10
351.34	225.20
351.72	225.24
352.10	225.37
352.48	225.46
352.87	225.53
353.25	225.62
353.63	225.69
354.01	225.74
354.39	225.80
354.77	225.90
355.15	226.01
355.54	226.09
355.92	226.14
356.30	226.21
356.68	226.35
357.06	226.43
357.44	226.50
357.82	226.56
358.20	226.64
358.58	226.73
358.97	226.80
359.35	226.87
359.73	226.98
360.11	227.01
360.49	227.07
360.87	227.12
361.25	227.19
361.63	227.28
362.01	227.34
362.39	227.41
362.77	227.43
363.15	227.47
363.53	227.54
363.91	227.60
364.29	227.65
364.67	227.60
365.05	227.62
365.43	227.66
365.81	227.71
366.19	227.78
366.57	227.81
366.95	227.84
367.33	227.85
367.71	227.87
368.09	227.92
368.47	227.92
368.85	227.92
369.23	227.96
369.61	227.90
369.99	227.91
370.37	227.91
370.75	227.97
371.13	227.92
371.51	227.89
371.89	227.86
372.27	227.84
372.65	227.81
373.03	227.79
373.41	227.76
373.78	227.71
374.16	227.61
374.54	227.53
374.92	227.42
375.30	227.38
375.68	227.31
376.06	227.24
376.44	227.16
376.82	227.11
377.19	227.03
377.57	226.97
377.95	226.91
378.33	226.84
378.71	226.72
379.09	226.69
379.47	226.65
379.84	226.59
380.22	226.49
380.60	226.46
380.98	226.38
381.36	226.29
381.73	226.24
382.11	226.22
382.49	226.20
382.87	226.16
383.25	226.13
383.62	226.20
384.00	226.13
384.38	226.07
384.76	226.04
385.13	226.01
385.51	225.98
385.89	225.92
386.27	225.89
386.64	225.85
387.02	225.79
387.40	225.71
387.78	225.66
388.15	225.62
388.53	225.55
388.91	225.54
389.29	225.50
389.66	225.49
390.04	225.46
390.42	225.46
390.79	225.44
391.17	225.37
391.55	225.20
391.92	225.18
392.30	225.18
392.68	225.14
393.05	225.14
393.43	225.16
393.81	225.14
394.18	225.13
394.56	225.16
394.94	225.18
395.31	225.18
395.69	225.22
396.06	225.29
396.44	225.31
396.82	225.32
397.19	225.39
397.57	225.41
397.95	225.46
398.32	225.46
398.70	225.53
399.07	225.61
399.45	225.69
399.82	225.75
400.20	225.82
400.58	225.92
400.95	225.97
401.33	226.05
401.70	226.18
402.08	226.26
402.45	226.34
402.83	226.44
403.20	226.58
403.58	226.71
403.95	226.83
404.33	226.96
404.71	227.11
405.08	227.31
405.46	227.44
405.83	227.60
406.21	227.76
406.58	227.95
406.96	228.14
407.33	228.34
407.70	228.60
408.08	228.91
408.45	229.18
408.83	229.47
409.20	229.72
409.58	229.99
409.95	230.34
410.33	230.69
410.70	231.04
411.08	231.43
411.45	231.81
411.82	232.20
412.20	232.68
412.57	233.23
412.95	233.65
413.32	234.20
413.69	234.77
414.07	235.38
414.44	236.00
414.82	236.67
415.19	237.44
415.56	238.22
415.94	239.00
416.31	239.87
416.68	240.72
417.06	241.74
417.43	242.66
417.81	243.71
418.18	244.79
418.55	245.96
418.93	247.19
419.30	248.45
419.67	249.76
420.04	251.11
420.42	252.47
420.79	254.08
421.16	255.73
421.54	257.35
421.91	259.02
422.28	260.79
422.66	262.66
423.03	264.44
423.40	266.27
423.77	268.23
424.15	270.20
424.52	272.28
424.89	274.55
425.26	276.73
425.64	278.78
426.01	281.03
426.38	283.35
426.75	285.69
427.13	288.11
427.50	290.68
427.87	293.33
428.24	295.96
428.61	298.44
428.99	301.12
429.36	304.10
429.73	307.01
430.10	309.85
430.47	312.68
430.85	315.68
431.22	318.84
431.59	322.15
431.96	325.34
432.33	328.78
432.70	332.11
433.08	336.08
433.45	339.76
433.82	343.41
434.19	347.42
434.56	351.34
434.93	355.05
435.30	358.67
435.68	362.76
436.05	366.73
436.42	370.63
436.79	374.17
437.16	377.97
437.53	382.01
437.90	385.94
438.27	389.83
438.64	393.83
439.01	397.46
439.38	400.62
439.75	403.68
440.13	407.24
440.50	410.50
440.87	413.11
441.24	415.89
441.61	418.93
441.98	421.04
442.35	423.61
442.72	426.21
443.09	428.77
443.46	430.11
443.83	430.91
444.20	431.67
444.57	432.91
444.94	433.34
445.31	433.74
445.68	434.21
446.05	434.37
446.42	433.82
446.79	433.26
447.16	432.68
447.53	432.21
447.90	430.61
448.27	429.02
448.64	426.73
449.01	425.12
449.37	422.32
449.74	419.71
450.11	416.52
450.48	413.09
450.85	409.54
451.22	406.51
451.59	403.69
451.96	400.99
452.33	397.31
452.70	393.97
453.07	390.02
453.43	385.99
453.80	382.06
454.17	378.34
454.54	374.72
454.91	370.88
455.28	367.08
455.65	363.57
456.02	360.00
456.38	357.00
456.75	353.27
457.12	350.07
457.49	346.91
457.86	343.88
458.23	341.21
458.59	338.36
458.96	335.41
459.33	332.78
459.70	330.08
460.07	327.92
460.43	325.47
460.80	323.17
461.17	321.12
461.54	318.99
461.91	316.92
462.27	314.91
462.64	313.14
463.01	311.22
463.38	309.33
463.74	307.51
464.11	305.92
464.48	304.42
464.85	302.87
465.21	301.61
465.58	300.29
465.95	298.74
466.32	297.45
466.68	296.19
467.05	294.94
467.42	293.70
467.78	292.37
468.15	291.14
468.52	290.20
468.88	289.01
469.25	287.95
469.62	287.08
469.98	286.08
470.35	285.14
470.72	284.30
471.08	283.41
471.45	282.60
471.82	281.77
472.18	280.93
472.55	280.32
472.92	279.59
473.28	278.92
473.65	278.28
474.02	277.61
474.38	277.07
474.75	276.60
475.11	276.07
475.48	275.68
475.85	275.32
476.21	274.94
476.58	274.62
476.94	274.32
477.31	274.02
477.67	273.78
478.04	273.60
478.41	273.43
478.77	273.33
479.14	273.21
479.50	273.09
479.87	273.11
480.23	273.14
480.60	273.14
480.96	273.17
481.33	273.34
481.69	273.50
482.06	273.65
482.42	273.76
482.79	273.98
483.15	274.28
483.52	274.61
483.88	274.94
484.25	275.25
484.61	275.64
484.98	276.08
485.34	276.61
485.71	277.15
486.07	277.74
486.44	278.33
486.80	279.01
487.17	279.77
487.53	280.56
487.90	281.37
488.26	282.34
488.62	283.36
488.99	284.33
489.35	285.42
489.72	286.58
490.08	287.82
490.44	289.09
490.81	290.46
491.17	291.91
491.54	293.48
491.90	295.14
492.26	296.85
492.63	298.70
492.99	300.57
493.36	302.65
493.72	304.87
494.08	307.10
494.45	309.52
494.81	312.06
495.17	314.72
495.54	317.48
495.90	320.36
496.26	323.30
496.63	326.47
496.99	329.82
497.35	333.30
497.72	337.02
498.08	340.81
498.44	344.79
498.80	348.99
499.17	353.29
499.53	357.85
499.89	362.55
500.26	367.32
500.62	372.40
500.98	377.70
501.34	383.13
501.71	388.84
502.07	394.67
502.43	400.70
502.79	406.93
503.16	413.44
503.52	420.12
503.88	427.03
504.24	434.17
504.60	441.52
504.97	449.20
505.33	457.01
505.69	465.32
506.05	473.63
506.41	482.13
506.78	491.01
507.14	500.05
507.50	509.46
507.86	519.27
508.22	529.15
508.59	539.17
508.95	549.49
509.31	560.11
509.67	571.09
510.03	582.28
510.39	593.71
510.75	605.45
511.12	617.32
511.48	629.54
511.84	641.98
512.20	654.55
512.56	667.54
512.92	680.77
513.28	694.21
513.64	707.75
514.00	721.61
514.37	735.71
514.73	750.03
515.09	764.34
515.45	778.87
515.81	793.82
516.17	809.06
516.53	824.63
516.89	840.31
517.25	855.90
517.61	871.73
517.97	887.64
518.33	903.51
518.69	919.82
519.05	936.44
519.41	953.22
519.77	970.30
520.13	987.40
520.49	1004.50
520.85	1021.58
521.21	1039.06
521.57	1057.02
521.93	1074.55
522.29	1092.75
522.65	1110.80
523.01	1128.81
523.37	1146.70
523.73	1164.75
524.09	1182.69
524.45	1200.72
524.81	1219.19
525.17	1237.94
525.53	1256.77
525.89	1275.69
526.25	1294.49
526.61	1312.95
526.97	1331.74
527.33	1350.37
527.68	1369.14
528.04	1387.77
528.40	1406.57
528.76	1425.84
529.12	1444.64
529.48	1463.78
529.84	1481.91
530.20	1500.82
530.56	1520.18
530.91	1539.82
531.27	1558.98
531.63	1577.85
531.99	1596.93
532.35	1615.40
532.71	1633.65
533.07	1652.42
533.42	1670.72
533.78	1689.46
534.14	1708.14
534.50	1725.87
534.86	1744.15
535.21	1761.76
535.57	1780.17
535.93	1798.10
536.29	1815.45
536.65	1833.20
537.00	1850.42
537.36	1868.49
537.72	1885.49
538.08	1902.45
538.44	1918.86
538.79	1935.28
539.15	1951.27
539.51	1967.54
539.87	1984.49
540.22	2000.75
540.58	2017.19
540.94	2033.11
541.29	2048.51
541.65	2063.78
542.01	2079.66
542.37	2094.65
542.72	2109.74
543.08	2124.07
543.44	2139.09
543.79	2152.82
544.15	2166.20
544.51	2180.41
544.87	2193.66
545.22	2207.02
545.58	2219.78
545.94	2231.99
546.29	2244.39
546.65	2256.92
547.01	2268.69
547.36	2279.70
547.72	2290.69
548.07	2300.86
548.43	2311.44
548.79	2321.62
549.14	2331.55
549.50	2341.11
549.86	2351.07
550.21	2360.49
550.57	2370.00
550.92	2378.87
551.28	2388.16
551.64	2397.48
551.99	2406.19
552.35	2414.60
552.70	2422.78
553.06	2430.86
553.41	2439.31
553.77	2447.35
554.13	2455.58
554.48	2463.78
554.84	2471.58
555.19	2478.66
555.55	2485.72
555.90	2492.15
556.26	2499.25
556.61	2505.86
556.97	2512.17
557.32	2518.27
557.68	2524.24
558.03	2530.27
558.39	2535.67
558.74	2542.12
559.10	2547.85
559.45	2553.11
559.81	2559.05
560.16	2564.68
560.52	2569.52
560.87	2574.59
561.23	2578.62
561.58	2582.90
561.94	2586.86
562.29	2590.38
562.64	2594.93
563.00	2598.97
563.35	2603.98
563.71	2608.54
564.06	2613.24
564.42	2617.57
564.77	2621.52
565.12	2625.34
565.48	2628.75
565.83	2631.97
566.19	2634.64
566.54	2636.57
566.89	2639.00
567.25	2640.84
567.60	2643.27
567.96	2646.20
568.31	2648.04
568.66	2650.38
569.02	2652.08
569.37	2653.33
569.72	2655.32
570.08	2656.25
570.43	2657.16
570.78	2657.33
571.14	2656.38
571.49	2655.41
571.84	2655.67
572.20	2654.95
572.55	2654.31
572.90	2652.93
573.26	2652.01
573.61	2650.46
573.96	2649.15
574.31	2646.36
574.67	2643.49
575.02	2639.97
575.37	2636.55
575.72	2632.94
576.08	2629.53
576.43	2626.14
576.78	2622.64
577.13	2619.38
577.49	2616.01
577.84	2612.59
578.19	2608.72
578.54	2605.03
578.90	2600.87
579.25	2594.95
579.60	2589.86
579.95	2584.63
580.30	2579.41
580.66	2573.69
581.01	2568.40
581.36	2563.20
581.71	2558.70
582.06	2554.10
582.42	2549.42
582.77	2543.79
583.12	2538.96
583.47	2534.10
583.82	2528.90
584.17	2523.06
584.53	2517.06
584.88	2510.94
585.23	2504.54
585.58	2498.41
585.93	2492.19
586.28	2486.71
586.63	2481.17
586.98	2475.46
587.34	2470.09
587.69	2464.37
588.04	2458.63
588.39	2452.42
588.74	2444.87
589.09	2437.96
589.44	2430.20
589.79	2423.19
590.14	2416.68
590.49	2408.94
590.84	2401.37
591.19	2394.35
591.54	2386.92
591.89	2378.66
592.25	2371.00
592.60	2362.79
592.95	2354.14
593.30	2345.70
593.65	2336.93
594.00	2328.70
594.35	2320.18
594.70	2310.74
595.05	2302.70
595.40	2294.16
595.75	2285.23
596.10	2278.19
596.45	2270.36
596.80	2263.15
597.15	2255.44
597.50	2247.41
597.85	2239.88
598.19	2232.33
598.54	2224.24
598.89	2216.47
599.24	2209.39
599.59	2201.63
599.94	2194.08
600.29	2186.50
600.64	2178.76
600.99	2170.11
601.34	2162.08
601.69	2153.81
602.04	2146.06
602.39	2137.33
602.74	2129.30
603.08	2121.42
603.43	2113.28
603.78	2104.48
604.13	2095.92
604.48	2087.32
604.83	2078.97
605.18	2070.82
605.53	2061.21
605.87	2051.50
606.22	2042.84
606.57	2033.23
606.92	2024.26
607.27	2015.81
607.62	2007.67
607.96	1999.10
608.31	1991.29
608.66	1982.22
609.01	1973.30
609.36	1964.18
609.70	1954.57
610.05	1945.02
610.40	1935.93
610.75	1926.07
611.10	1916.97
611.44	1906.72
611.79	1897.18
612.14	1886.79
612.49	1875.68
612.83	1865.67
613.18	1855.87
613.53	1846.22
613.88	1836.02
614.22	1826.13
614.57	1815.72
614.92	1806.14
615.27	1797.07
615.61	1787.10
615.96	1777.50
616.31	1768.32
616.65	1759.37
617.00	1750.29
617.35	1740.94
617.70	1730.95
618.04	1720.76
618.39	1710.88
618.74	1702.00
619.08	1692.03
619.43	1683.00
619.78	1674.70
620.12	1666.15
620.47	1657.11
620.82	1647.20
621.16	1638.16
621.51	1628.94
621.85	1619.79
622.20	1609.59
622.55	1599.47
622.89	1589.89
623.24	1580.57
623.59	1571.47
623.93	1562.34
624.28	1553.73
624.62	1544.80
624.97	1536.17
625.32	1527.89
625.66	1519.35
626.01	1510.55
626.35	1501.68
626.70	1492.25
627.04	1482.95
627.39	1473.40
627.73	1464.45
628.08	1456.07
628.43	1447.55
628.77	1438.87
629.12	1429.78
629.46	1421.04
629.81	1411.96
630.15	1403.28
630.50	1394.44
630.84	1384.80
631.19	1375.23
631.53	1366.07
631.88	1356.98
632.22	1347.86
632.57	1339.07
632.91	1330.03
633.26	1321.25
633.60	1312.27
633.95	1303.73
634.29	1295.29
634.64	1287.34
634.98	1278.57
635.32	1270.09
635.67	1262.05
636.01	1254.03
636.36	1245.97
636.70	1238.18
637.05	1230.36
637.39	1222.62
637.73	1214.87
638.08	1207.74
638.42	1200.57
638.77	1192.88
639.11	1185.09
639.45	1177.35
639.80	1169.45
640.14	1161.92
640.49	1154.12
640.83	1146.56
641.17	1139.24
641.52	1131.76
641.86	1124.04
642.20	1117.14
642.55	1109.55
642.89	1101.93
643.23	1094.05
643.58	1087.23
643.92	1079.82
644.26	1072.77
644.61	1065.51
644.95	1058.38
645.29	1050.64
645.64	1042.74
645.98	1035.16
646.32	1028.03
646.66	1020.92
647.01	1014.12
647.35	1007.38
647.69	1000.39
648.04	993.93
648.38	987.08
648.72	980.18
649.06	973.06
649.41	965.98
649.75	959.02
650.09	951.94
650.43	945.18
650.78	937.93
651.12	930.92
651.46	924.13
651.80	917.51
652.14	911.10
652.49	904.77
652.83	898.63
653.17	892.08
653.51	885.45
653.85	879.04
654.20	872.41
654.54	865.25
654.88	858.45
655.22	851.42
655.56	844.64
655.90	837.99
656.25	831.86
656.59	825.52
656.93	819.50
657.27	813.48
657.61	807.03
657.95	800.92
658.29	794.99
658.64	788.65
658.98	782.31
659.32	775.83
659.66	769.74
660.00	763.55
660.34	757.73
660.68	751.93
661.02	746.00
661.36	740.45
661.70	735.17
662.05	730.09
662.39	725.07
662.73	719.82
663.07	714.64
663.41	709.36
663.75	704.16
664.09	698.71
664.43	693.52
664.77	688.76
665.11	683.78
665.45	678.84
665.79	674.15
666.13	669.29
666.47	664.51
666.81	659.52
667.15	654.66
667.49	649.96
667.83	645.35
668.17	640.72
668.51	635.89
668.85	631.08
669.19	626.49
669.53	621.94
669.87	617.42
670.21	613.05
670.55	608.68
670.89	604.61
671.23	600.63
671.57	596.43
671.91	592.19
672.25	588.03
672.58	583.91
672.92	579.81
673.26	576.13
673.60	572.39
673.94	568.79
674.28	565.25
674.62	561.77
674.96	558.14
675.30	554.76
675.64	551.32
675.97	548.02
676.31	544.68
676.65	541.24
676.99	538.06
677.33	534.72
677.67	531.48
678.01	527.94
678.34	524.46
678.68	521.07
679.02	517.82
679.36	514.52
679.70	511.26
680.04	508.04
680.37	504.63
680.71	501.35
681.05	498.24
681.39	495.12
681.73	492.01
682.06	489.08
682.40	486.12
682.74	483.16
683.08	480.21
683.42	477.17
683.75	474.26
684.09	471.19
684.43	468.28
684.77	465.36
685.10	462.57
685.44	459.79
685.78	457.13
686.12	454.47
686.45	451.80
686.79	449.13
687.13	446.54
687.46	443.99
687.80	441.42
688.14	438.83
688.48	436.38
688.81	433.70
689.15	431.21
689.49	428.56
689.82	426.08
690.16	423.60
690.50	421.25
690.83	418.98
691.17	416.66
691.51	414.40
691.84	412.19
692.18	409.94
692.52	407.72
692.85	405.43
693.19	403.18
693.52	401.00
693.86	398.85
694.20	396.73
694.53	394.65
694.87	392.46
695.21	390.35
695.54	388.17
695.88	386.19
696.21	384.10
696.55	382.12
696.88	380.14
697.22	378.18
697.56	376.27
697.89	374.26
698.23	372.42
698.56	370.51
698.90	368.71
699.23	366.77
699.57	364.88
699.90	363.04
700.24	361.22
700.58	359.45
700.91	357.74
701.25	356.05
701.58	354.42
701.92	352.84
702.25	351.17
702.59	349.60
702.92	348.00
703.26	346.47
703.59	345.01
703.93	343.55
704.26	342.09
704.60	340.54
704.93	339.06
705.26	337.56
705.60	336.15
705.93	334.77
706.27	333.54
706.60	332.28
706.94	331.00
707.27	329.66
707.61	328.35
707.94	327.09
708.27	325.76
708.61	324.43
708.94	323.20
709.28	322.03
709.61	320.86
709.94	319.76
710.28	318.55
710.61	317.31
710.95	316.06
711.28	314.95
711.61	313.86
711.95	312.75
712.28	311.65
712.61	310.49
712.95	309.34
713.28	308.28
713.61	307.22
713.95	306.16
714.28	305.14
714.61	304.12
714.95	303.13
715.28	302.18
715.61	301.14
715.95	300.15
716.28	299.12
716.61	298.11
716.95	297.12
717.28	296.21
717.61	295.36
717.94	294.49
718.28	293.55
718.61	292.67
718.94	291.82
719.27	291.05
719.61	290.29
719.94	289.53
720.27	288.69
720.60	287.86
720.94	287.12
721.27	286.42
721.60	285.75
721.93	285.03
722.27	284.36
722.60	283.70
722.93	283.00
723.26	282.40
723.59	281.79
723.93	281.10
724.26	280.47
724.59	279.81
724.92	279.17
725.25	278.59
725.59	278.00
725.92	277.41
726.25	276.78
726.58	276.20
726.91	275.61
727.24	275.05
727.57	274.55
727.91	273.99
728.24	273.45
728.57	272.86
728.90	272.31
729.23	271.73
729.56	271.23
729.89	270.68
730.22	270.10
730.55	269.50
730.89	269.01
731.22	268.47
731.55	267.97
731.88	267.42
732.21	266.91
732.54	266.41
732.87	265.90
733.20	265.42
733.53	264.95
733.86	264.51
734.19	264.05
734.52	263.56
734.85	263.15
735.18	262.65
735.51	262.22
735.84	261.76
736.17	261.34
736.50	260.88
736.83	260.60
737.16	260.18
737.49	259.82
737.82	259.39
738.15	259.00
738.48	258.56
738.81	258.21
739.14	257.83
739.47	257.42
739.80	257.06
740.13	256.65
740.46	256.23
740.79	255.81
741.12	255.44
741.45	255.07
741.78	254.71
742.11	254.36
742.44	253.96
742.77	253.62
743.10	253.27
743.43	252.90
743.75	252.47
744.08	252.27
744.41	251.92
744.74	251.61
745.07	251.27
745.40	251.00
745.73	250.69
746.06	250.36
746.39	250.05
746.71	249.73
747.04	249.45
747.37	249.15
747.70	248.92
748.03	248.58
748.36	248.33
748.68	247.98
749.01	247.70
749.34	247.45
749.67	247.19
750.00	246.94
750.33	246.74
750.65	246.50
750.98	246.13
751.31	245.85
751.64	245.61
751.97	245.43
752.29	245.15
752.62	244.87
752.95	244.60
753.28	244.35
753.60	244.11
753.93	243.91
754.26	243.72
754.59	243.42
754.91	243.22
755.24	242.95
755.57	242.74
755.90	242.53
756.22	242.29
756.55	242.03
756.88	241.78
757.20	241.52
757.53	241.27
757.86	241.07
758.19	240.91
758.51	240.68
758.84	240.42
759.17	240.24
759.49	240.07
759.82	239.91
760.15	239.73
760.47	239.55
760.80	239.33
761.13	239.15
761.45	238.96
761.78	238.77
762.11	238.63
762.43	238.46
762.76	238.30
763.08	238.13
763.41	238.00
763.74	237.85
764.06	237.67
764.39	237.51
764.71	237.38
765.04	237.19
765.37	237.05
765.69	236.88
766.02	236.74
766.34	236.60
766.67	236.42
767.00	236.31
767.32	236.22
767.65	236.17
767.97	236.02
768.30	235.91
768.62	235.76
768.95	235.63
769.27	235.50
769.60	235.39
769.92	235.25
770.25	235.12
770.57	234.98
770.90	234.88
771.22	234.76
771.55	234.61
771.87	234.53
772.20	234.40
772.52	234.39
772.85	234.41
773.17	234.32
773.50	234.24
773.82	234.13
774.15	233.97
774.47	233.78
774.80	233.67
775.12	233.56
775.45	233.44
775.77	233.33
776.09	233.24
776.42	233.13
776.74	233.10
777.07	232.98
777.39	232.91
777.72	232.81
778.04	232.75
778.36	232.67
778.69	232.58
779.01	232.49
779.33	232.33
779.66	232.12
779.98	232.02
780.31	231.96
780.63	231.91
780.95	231.82
781.28	231.75
781.60	231.68
781.92	231.63
782.25	231.58
782.57	231.53
782.89	231.45
783.22	231.35
783.54	231.23
783.86	231.22
784.19	231.13
784.51	231.10
784.83	231.00
785.16	230.92
785.48	230.85
785.80	230.83
786.12	230.78
786.45	230.73
