SpectraSuite Data File
++++++++++++++++++++++++++++++++++++
Date: Fri Feb 01 18:15:30 EST 2013
User: group
Dark Spectrum Present: No
Reference Spectrum Present: No
Number of Sampled Component Spectra: 1
Spectrometers: USB2E7196
Integration Time (usec): 35000 (USB2E7196)
Spectra Averaged: 100 (USB2E7196)
Boxcar Smoothing: 10 (USB2E7196)
Correct for Electrical Dark: No (USB2E7196)
Strobe/Lamp Enabled: No (USB2E7196)
Correct for Detector Non-linearity: No (USB2E7196)
Correct for Stray Light: No (USB2E7196)
Number of Pixels in Processed Spectrum: 2048
>>>>>Begin Processed Spectral Data<<<<<
339.09	0.00
339.48	212.82
339.86	214.06
340.24	215.59
340.63	217.46
341.01	220.01
341.39	220.09
341.78	221.40
342.16	222.01
342.54	223.22
342.93	211.57
343.31	222.26
343.69	222.82
344.07	223.32
344.46	223.79
344.84	224.17
345.22	224.42
345.60	224.68
345.99	224.86
346.37	225.00
346.75	225.09
347.13	225.13
347.52	225.24
347.90	225.28
348.28	225.31
348.66	225.36
349.05	225.31
349.43	225.36
349.81	225.40
350.19	225.41
350.57	225.49
350.96	225.56
351.34	225.65
351.72	225.75
352.10	225.84
352.48	225.87
352.87	225.91
353.25	225.99
353.63	226.04
354.01	226.12
354.39	226.22
354.77	226.30
355.15	226.39
355.54	226.44
355.92	226.49
356.30	226.58
356.68	226.73
357.06	226.80
357.44	226.84
357.82	226.87
358.20	226.93
358.58	226.99
358.97	227.06
359.35	227.13
359.73	227.18
360.11	227.22
360.49	227.29
360.87	227.33
361.25	227.36
361.63	227.44
362.01	227.50
362.39	227.53
362.77	227.56
363.15	227.59
363.53	227.60
363.91	227.63
364.29	227.66
364.67	227.56
365.05	227.59
365.43	227.64
365.81	227.70
366.19	227.74
366.57	227.77
366.95	227.72
367.33	227.67
367.71	227.64
368.09	227.67
368.47	227.66
368.85	227.70
369.23	227.76
369.61	227.67
369.99	227.64
370.37	227.62
370.75	227.67
371.13	227.62
371.51	227.60
371.89	227.58
372.27	227.53
372.65	227.50
373.03	227.48
373.41	227.42
373.78	227.34
374.16	227.27
374.54	227.20
374.92	227.18
375.30	227.13
375.68	227.09
376.06	226.98
376.44	226.93
376.82	226.83
377.19	226.72
377.57	226.71
377.95	226.65
378.33	226.62
378.71	226.49
379.09	226.42
379.47	226.36
379.84	226.30
380.22	226.24
380.60	226.15
380.98	226.09
381.36	226.00
381.73	225.95
382.11	225.92
382.49	225.87
382.87	225.81
383.25	225.78
383.62	225.84
384.00	225.80
384.38	225.70
384.76	225.69
385.13	225.68
385.51	225.64
385.89	225.58
386.27	225.51
386.64	225.48
387.02	225.50
387.40	225.43
387.78	225.38
388.15	225.36
388.53	225.33
388.91	225.31
389.29	225.33
389.66	225.33
390.04	225.29
390.42	225.29
390.79	225.27
391.17	225.23
391.55	225.14
391.92	225.13
392.30	225.16
392.68	225.10
393.05	225.11
393.43	225.09
393.81	225.10
394.18	225.07
394.56	225.07
394.94	225.08
395.31	225.12
395.69	225.18
396.06	225.19
396.44	225.24
396.82	225.22
397.19	225.26
397.57	225.27
397.95	225.32
398.32	225.35
398.70	225.42
399.07	225.50
399.45	225.55
399.82	225.65
400.20	225.73
400.58	225.85
400.95	225.86
401.33	225.97
401.70	226.13
402.08	226.25
402.45	226.34
402.83	226.50
403.20	226.61
403.58	226.75
403.95	226.91
404.33	227.06
404.71	227.22
405.08	227.46
405.46	227.63
405.83	227.81
406.21	227.97
406.58	228.15
406.96	228.36
407.33	228.59
407.70	228.85
408.08	229.15
408.45	229.41
408.83	229.72
409.20	229.99
409.58	230.22
409.95	230.58
410.33	230.92
410.70	231.20
411.08	231.60
411.45	231.97
411.82	232.37
412.20	232.82
412.57	233.36
412.95	233.75
413.32	234.31
413.69	234.84
414.07	235.45
414.44	236.10
414.82	236.74
415.19	237.46
415.56	238.18
415.94	238.97
416.31	239.84
416.68	240.67
417.06	241.62
417.43	242.57
417.81	243.62
418.18	244.72
418.55	245.89
418.93	247.11
419.30	248.34
419.67	249.66
420.04	251.02
420.42	252.44
420.79	254.09
421.16	255.71
421.54	257.40
421.91	259.09
422.28	260.85
422.66	262.73
423.03	264.53
423.40	266.40
423.77	268.39
424.15	270.44
424.52	272.54
424.89	274.83
425.26	277.06
425.64	279.12
426.01	281.34
426.38	283.67
426.75	286.02
427.13	288.45
427.50	291.00
427.87	293.63
428.24	296.25
428.61	298.72
428.99	301.43
429.36	304.40
429.73	307.34
430.10	310.20
430.47	313.09
430.85	316.05
431.22	319.20
431.59	322.50
431.96	325.61
432.33	329.12
432.70	332.47
433.08	336.37
433.45	340.04
433.82	343.74
434.19	347.78
434.56	351.74
434.93	355.47
435.30	359.18
435.68	363.31
436.05	367.29
436.42	371.23
436.79	374.79
437.16	378.55
437.53	382.54
437.90	386.48
438.27	390.32
438.64	394.36
439.01	398.04
439.38	401.22
439.75	404.32
440.13	407.83
440.50	411.08
440.87	413.71
441.24	416.51
441.61	419.54
441.98	421.67
442.35	424.20
442.72	426.85
443.09	429.37
443.46	430.74
443.83	431.54
444.20	432.25
444.57	433.47
444.94	433.92
445.31	434.38
445.68	434.86
446.05	434.99
446.42	434.44
446.79	433.83
447.16	433.21
447.53	432.75
447.90	431.12
448.27	429.58
448.64	427.35
449.01	425.69
449.37	422.90
449.74	420.25
450.11	417.07
450.48	413.55
450.85	410.03
451.22	407.02
451.59	404.19
451.96	401.49
452.33	397.76
452.70	394.45
453.07	390.45
453.43	386.37
453.80	382.47
454.17	378.75
454.54	375.16
454.91	371.32
455.28	367.52
455.65	364.02
456.02	360.43
456.38	357.40
456.75	353.64
457.12	350.48
457.49	347.33
457.86	344.28
458.23	341.67
458.59	338.77
458.96	335.80
459.33	333.19
459.70	330.46
460.07	328.34
460.43	325.88
460.80	323.57
461.17	321.52
461.54	319.41
461.91	317.33
462.27	315.28
462.64	313.52
463.01	311.61
463.38	309.75
463.74	307.89
464.11	306.24
464.48	304.80
464.85	303.24
465.21	301.95
465.58	300.64
465.95	299.13
466.32	297.81
466.68	296.49
467.05	295.21
467.42	293.97
467.78	292.64
468.15	291.39
468.52	290.43
468.88	289.23
469.25	288.09
469.62	287.21
469.98	286.25
470.35	285.31
470.72	284.44
471.08	283.51
471.45	282.72
471.82	281.93
472.18	281.04
472.55	280.39
472.92	279.71
473.28	279.03
473.65	278.35
474.02	277.67
474.38	277.14
474.75	276.67
475.11	276.15
475.48	275.75
475.85	275.40
476.21	275.05
476.58	274.72
476.94	274.51
477.31	274.18
477.67	273.91
478.04	273.68
478.41	273.55
478.77	273.51
479.14	273.34
479.50	273.25
479.87	273.26
480.23	273.28
480.60	273.26
480.96	273.26
481.33	273.38
481.69	273.53
482.06	273.66
482.42	273.76
482.79	273.94
483.15	274.25
483.52	274.61
483.88	274.92
484.25	275.29
484.61	275.68
484.98	276.14
485.34	276.72
485.71	277.32
486.07	277.92
486.44	278.48
486.80	279.23
487.17	279.97
487.53	280.81
487.90	281.66
488.26	282.58
488.62	283.63
488.99	284.67
489.35	285.78
489.72	286.96
490.08	288.24
490.44	289.58
490.81	290.96
491.17	292.38
491.54	293.96
491.90	295.59
492.26	297.36
492.63	299.20
492.99	301.08
493.36	303.10
493.72	305.27
494.08	307.54
494.45	309.92
494.81	312.42
495.17	315.02
495.54	317.77
495.90	320.65
496.26	323.62
496.63	326.79
496.99	330.12
497.35	333.59
497.72	337.25
498.08	341.02
498.44	344.99
498.80	349.18
499.17	353.49
499.53	358.02
499.89	362.75
500.26	367.61
500.62	372.60
500.98	377.91
501.34	383.41
501.71	389.13
502.07	394.99
502.43	401.02
502.79	407.33
503.16	413.86
503.52	420.63
503.88	427.55
504.24	434.66
504.60	442.10
504.97	449.79
505.33	457.66
505.69	465.98
506.05	474.30
506.41	482.77
506.78	491.56
507.14	500.62
507.50	509.98
507.86	519.75
508.22	529.76
508.59	539.71
508.95	550.07
509.31	560.66
509.67	571.57
510.03	582.73
510.39	594.10
510.75	605.85
511.12	617.72
511.48	629.95
511.84	642.49
512.20	655.03
512.56	668.06
512.92	681.38
513.28	694.83
513.64	708.49
514.00	722.42
514.37	736.61
514.73	750.92
515.09	765.16
515.45	779.60
515.81	794.41
516.17	809.74
516.53	825.25
516.89	840.88
517.25	856.51
517.61	872.39
517.97	888.37
518.33	904.29
518.69	920.57
519.05	937.12
519.41	953.90
519.77	971.13
520.13	988.30
520.49	1005.28
520.85	1022.41
521.21	1039.81
521.57	1057.81
521.93	1075.36
522.29	1093.54
522.65	1111.71
523.01	1129.83
523.37	1147.71
523.73	1165.91
524.09	1183.89
524.45	1202.01
524.81	1220.68
525.17	1239.52
525.53	1258.55
525.89	1277.47
526.25	1296.45
526.61	1314.90
526.97	1333.66
527.33	1352.17
527.68	1370.79
528.04	1389.49
528.40	1408.18
528.76	1427.54
529.12	1446.43
529.48	1465.60
529.84	1483.98
530.20	1502.93
530.56	1522.37
530.91	1542.29
531.27	1561.39
531.63	1580.20
531.99	1599.32
532.35	1617.63
532.71	1635.92
533.07	1654.66
533.42	1672.99
533.78	1691.60
534.14	1710.45
534.50	1728.30
534.86	1746.73
535.21	1764.47
535.57	1782.87
535.93	1800.99
536.29	1818.30
536.65	1835.83
537.00	1853.14
537.36	1871.05
537.72	1888.03
538.08	1905.06
538.44	1921.41
538.79	1937.90
539.15	1954.02
539.51	1970.28
539.87	1987.35
540.22	2003.71
540.58	2020.12
540.94	2036.03
541.29	2051.50
541.65	2066.75
542.01	2082.59
542.37	2097.57
542.72	2112.56
543.08	2127.09
543.44	2142.25
543.79	2155.99
544.15	2169.52
544.51	2183.81
544.87	2197.21
545.22	2210.79
545.58	2223.50
545.94	2235.80
546.29	2248.17
546.65	2260.66
547.01	2272.58
547.36	2283.64
547.72	2294.52
548.07	2304.63
548.43	2315.21
548.79	2325.58
549.14	2335.55
549.50	2345.15
549.86	2355.07
550.21	2364.80
550.57	2374.24
550.92	2382.95
551.28	2392.33
551.64	2401.74
551.99	2410.36
552.35	2418.74
552.70	2426.86
553.06	2434.89
553.41	2443.36
553.77	2451.46
554.13	2459.76
554.48	2468.08
554.84	2475.89
555.19	2483.24
555.55	2490.53
555.90	2497.03
556.26	2503.99
556.61	2510.54
556.97	2516.88
557.32	2522.94
557.68	2528.89
558.03	2534.99
558.39	2540.48
558.74	2547.12
559.10	2552.71
559.45	2558.15
559.81	2564.23
560.16	2569.97
560.52	2574.99
560.87	2580.01
561.23	2584.17
561.58	2588.55
561.94	2592.39
562.29	2596.12
562.64	2600.38
563.00	2604.28
563.35	2609.37
563.71	2613.84
564.06	2618.62
564.42	2623.01
564.77	2627.09
565.12	2630.77
565.48	2634.13
565.83	2637.34
566.19	2639.77
566.54	2641.84
566.89	2644.19
567.25	2646.05
567.60	2648.41
567.96	2651.50
568.31	2653.46
568.66	2655.93
569.02	2657.61
569.37	2658.95
569.72	2660.83
570.08	2661.81
570.43	2662.85
570.78	2663.04
571.14	2662.03
571.49	2661.34
571.84	2661.66
572.20	2661.14
572.55	2660.67
572.90	2659.43
573.26	2658.69
573.61	2657.30
573.96	2656.11
574.31	2653.39
574.67	2650.59
575.02	2647.15
575.37	2643.63
575.72	2639.99
576.08	2636.39
576.43	2633.07
576.78	2629.64
577.13	2626.43
577.49	2623.31
577.84	2619.84
578.19	2616.01
578.54	2612.53
578.90	2608.27
579.25	2602.35
579.60	2597.01
579.95	2591.66
580.30	2586.46
580.66	2580.89
581.01	2575.62
581.36	2570.20
581.71	2565.89
582.06	2561.03
582.42	2556.19
582.77	2550.69
583.12	2545.63
583.47	2540.71
583.82	2535.46
584.17	2529.58
584.53	2523.46
584.88	2517.27
585.23	2510.95
585.58	2504.78
585.93	2498.55
586.28	2493.18
586.63	2487.59
586.98	2481.94
587.34	2476.80
587.69	2471.12
588.04	2465.20
588.39	2458.96
588.74	2451.52
589.09	2444.46
589.44	2436.79
589.79	2429.80
590.14	2423.12
590.49	2415.52
590.84	2408.23
591.19	2401.22
591.54	2393.75
591.89	2385.45
592.25	2377.66
592.60	2369.24
592.95	2360.49
593.30	2352.14
593.65	2343.19
594.00	2334.76
594.35	2326.12
594.70	2316.68
595.05	2308.59
595.40	2299.96
595.75	2291.09
596.10	2283.97
596.45	2276.05
596.80	2268.92
597.15	2261.36
597.50	2253.28
597.85	2245.74
598.19	2237.74
598.54	2229.41
598.89	2221.48
599.24	2214.45
599.59	2206.76
599.94	2199.46
600.29	2191.99
600.64	2184.05
600.99	2175.25
601.34	2167.39
601.69	2159.27
602.04	2151.33
602.39	2142.36
602.74	2134.22
603.08	2126.17
603.43	2118.04
603.78	2109.24
604.13	2100.50
604.48	2091.77
604.83	2083.44
605.18	2075.38
605.53	2065.94
605.87	2056.33
606.22	2047.73
606.57	2038.21
606.92	2029.22
607.27	2020.69
607.62	2012.44
607.96	2003.94
608.31	1996.17
608.66	1987.14
609.01	1978.21
609.36	1968.97
609.70	1959.42
610.05	1949.82
610.40	1940.69
610.75	1930.84
611.10	1921.72
611.44	1911.52
611.79	1901.82
612.14	1891.34
612.49	1880.22
612.83	1870.10
613.18	1860.33
613.53	1850.63
613.88	1840.41
614.22	1830.53
614.57	1820.00
614.92	1810.44
615.27	1801.38
615.61	1791.31
615.96	1781.58
616.31	1772.30
616.65	1763.47
617.00	1754.37
617.35	1745.18
617.70	1735.13
618.04	1724.96
618.39	1714.91
618.74	1705.83
619.08	1695.97
619.43	1686.88
619.78	1678.50
620.12	1669.95
620.47	1660.89
620.82	1651.03
621.16	1641.94
621.51	1632.62
621.85	1623.46
622.20	1613.08
622.55	1602.92
622.89	1593.44
623.24	1584.26
623.59	1575.17
623.93	1566.12
624.28	1557.40
624.62	1548.32
624.97	1539.57
625.32	1531.31
625.66	1522.93
626.01	1514.41
626.35	1505.58
626.70	1496.32
627.04	1486.96
627.39	1477.53
627.73	1468.58
628.08	1460.24
628.43	1451.58
628.77	1442.80
629.12	1433.66
629.46	1425.03
629.81	1415.95
630.15	1407.22
630.50	1398.26
630.84	1388.54
631.19	1378.84
631.53	1369.81
631.88	1360.64
632.22	1351.60
632.57	1342.69
632.91	1333.53
633.26	1324.53
633.60	1315.38
633.95	1306.71
634.29	1298.21
634.64	1290.24
634.98	1281.45
635.32	1272.83
635.67	1264.79
636.01	1256.80
636.36	1248.71
636.70	1240.87
637.05	1233.01
637.39	1225.20
637.73	1217.42
638.08	1210.23
638.42	1203.00
638.77	1195.19
639.11	1187.30
639.45	1179.56
639.80	1171.66
640.14	1164.14
640.49	1156.36
640.83	1148.81
641.17	1141.43
641.52	1133.85
641.86	1125.94
642.20	1118.88
642.55	1111.31
642.89	1103.58
643.23	1095.77
643.58	1088.91
643.92	1081.54
644.26	1074.41
644.61	1067.21
644.95	1060.05
645.29	1052.26
645.64	1044.32
645.98	1036.75
646.32	1029.71
646.66	1022.59
647.01	1015.75
647.35	1008.90
647.69	1001.89
648.04	995.30
648.38	988.41
648.72	981.48
649.06	974.41
649.41	967.43
649.75	960.42
650.09	953.42
650.43	946.63
650.78	939.27
651.12	932.21
651.46	925.42
651.80	918.69
652.14	912.24
652.49	905.87
652.83	899.81
653.17	893.21
653.51	886.54
653.85	880.12
654.20	873.37
654.54	866.27
654.88	859.44
655.22	852.47
655.56	845.70
655.90	839.06
656.25	832.92
656.59	826.57
656.93	820.53
657.27	814.41
657.61	807.92
657.95	801.93
658.29	795.94
658.64	789.64
658.98	783.31
659.32	776.85
659.66	770.71
660.00	764.36
660.34	758.50
660.68	752.67
661.02	746.76
661.36	741.22
661.70	735.88
662.05	730.77
662.39	725.69
662.73	720.40
663.07	715.31
663.41	710.00
663.75	704.66
664.09	699.26
664.43	694.02
664.77	689.18
665.11	684.14
665.45	679.23
665.79	674.50
666.13	669.66
666.47	664.80
666.81	659.97
667.15	655.12
667.49	650.48
667.83	646.00
668.17	641.43
668.51	636.60
668.85	631.83
669.19	627.30
669.53	622.77
669.87	618.25
670.21	613.83
670.55	609.48
670.89	605.48
671.23	601.48
671.57	597.29
671.91	593.07
672.25	588.88
672.58	584.74
672.92	580.65
673.26	576.88
673.60	573.17
673.94	569.49
674.28	566.02
674.62	562.51
674.96	558.83
675.30	555.29
675.64	551.88
675.97	548.63
676.31	545.26
676.65	541.82
676.99	538.62
677.33	535.32
677.67	532.00
678.01	528.47
678.34	524.96
678.68	521.63
679.02	518.32
679.36	515.05
679.70	511.82
680.04	508.55
680.37	505.20
680.71	501.92
681.05	498.79
681.39	495.59
681.73	492.49
682.06	489.63
682.40	486.71
682.74	483.73
683.08	480.70
683.42	477.64
683.75	474.77
684.09	471.76
684.43	468.81
684.77	465.92
685.10	463.13
685.44	460.38
685.78	457.65
686.12	455.03
686.45	452.35
686.79	449.69
687.13	447.16
687.46	444.54
687.80	441.98
688.14	439.37
688.48	436.95
688.81	434.27
689.15	431.64
689.49	429.05
689.82	426.61
690.16	424.14
690.50	421.82
690.83	419.46
691.17	417.11
691.51	414.86
691.84	412.69
692.18	410.41
692.52	408.06
692.85	405.77
693.19	403.57
693.52	401.38
693.86	399.22
694.20	397.05
694.53	394.94
694.87	392.75
695.21	390.64
695.54	388.45
695.88	386.40
696.21	384.33
696.55	382.32
696.88	380.35
697.22	378.38
697.56	376.43
697.89	374.49
698.23	372.60
698.56	370.72
698.90	368.84
699.23	366.95
699.57	365.13
699.90	363.29
700.24	361.42
700.58	359.67
700.91	357.91
701.25	356.17
701.58	354.54
701.92	352.92
702.25	351.28
702.59	349.70
702.92	348.19
703.26	346.67
703.59	345.17
703.93	343.71
704.26	342.29
704.60	340.75
704.93	339.25
705.26	337.79
705.60	336.31
705.93	334.91
706.27	333.71
706.60	332.47
706.94	331.20
707.27	329.86
707.61	328.58
707.94	327.36
708.27	326.04
708.61	324.74
708.94	323.59
709.28	322.41
709.61	321.22
709.94	320.03
710.28	318.80
710.61	317.59
710.95	316.33
711.28	315.21
711.61	314.06
711.95	312.95
712.28	311.78
712.61	310.63
712.95	309.50
713.28	308.34
713.61	307.24
713.95	306.18
714.28	305.17
714.61	304.18
714.95	303.14
715.28	302.14
715.61	301.10
715.95	300.05
716.28	299.02
716.61	298.04
716.95	297.05
717.28	296.18
717.61	295.31
717.94	294.45
718.28	293.47
718.61	292.61
718.94	291.78
719.27	291.02
719.61	290.25
719.94	289.50
720.27	288.68
720.60	287.93
720.94	287.16
721.27	286.46
721.60	285.73
721.93	285.02
722.27	284.36
722.60	283.71
722.93	283.04
723.26	282.43
723.59	281.77
723.93	281.15
724.26	280.50
724.59	279.82
724.92	279.15
725.25	278.56
725.59	277.98
725.92	277.37
726.25	276.75
726.58	276.18
726.91	275.53
727.24	274.95
727.57	274.37
727.91	273.78
728.24	273.18
728.57	272.62
728.90	272.08
729.23	271.49
729.56	270.96
729.89	270.39
730.22	269.80
730.55	269.26
730.89	268.68
731.22	268.15
731.55	267.62
731.88	267.14
732.21	266.66
732.54	266.09
732.87	265.60
733.20	265.11
733.53	264.65
733.86	264.25
734.19	263.77
734.52	263.32
734.85	262.97
735.18	262.50
735.51	262.04
735.84	261.60
736.17	261.23
736.50	260.80
736.83	260.53
737.16	260.14
737.49	259.73
737.82	259.36
738.15	258.93
738.48	258.55
738.81	258.16
739.14	257.75
739.47	257.45
739.80	257.07
740.13	256.72
740.46	256.33
740.79	255.95
741.12	255.62
741.45	255.26
741.78	254.88
742.11	254.56
742.44	254.23
742.77	253.88
743.10	253.51
743.43	253.17
743.75	252.71
744.08	252.51
744.41	252.19
744.74	251.87
745.07	251.52
745.40	251.21
745.73	250.94
746.06	250.60
746.39	250.24
746.71	249.92
747.04	249.61
747.37	249.29
747.70	248.98
748.03	248.67
748.36	248.41
748.68	248.09
749.01	247.77
749.34	247.45
749.67	247.20
750.00	246.91
750.33	246.71
750.65	246.49
750.98	246.09
751.31	245.85
751.64	245.64
751.97	245.46
752.29	245.21
752.62	244.94
752.95	244.70
753.28	244.50
753.60	244.28
753.93	244.07
754.26	243.88
754.59	243.61
754.91	243.36
755.24	243.10
755.57	242.89
755.90	242.70
756.22	242.49
756.55	242.24
756.88	242.01
757.20	241.74
757.53	241.50
757.86	241.29
758.19	241.10
758.51	240.88
758.84	240.59
759.17	240.43
759.49	240.25
759.82	240.14
760.15	239.92
760.47	239.74
760.80	239.52
761.13	239.34
761.45	239.16
761.78	238.99
762.11	238.82
762.43	238.63
762.76	238.48
763.08	238.31
763.41	238.17
763.74	238.05
764.06	237.89
764.39	237.73
764.71	237.56
765.04	237.40
765.37	237.24
765.69	237.15
766.02	236.96
766.34	236.77
766.67	236.59
767.00	236.49
767.32	236.39
767.65	236.32
767.97	236.19
768.30	236.07
768.62	235.95
768.95	235.83
769.27	235.71
769.60	235.59
769.92	235.45
770.25	235.31
770.57	235.12
770.90	234.99
771.22	234.87
771.55	234.80
771.87	234.67
772.20	234.56
772.52	234.52
772.85	234.54
773.17	234.48
773.50	234.35
773.82	234.21
774.15	234.09
774.47	233.92
774.80	233.78
775.12	233.70
775.45	233.57
775.77	233.50
776.09	233.43
776.42	233.32
776.74	233.25
777.07	233.17
777.39	233.10
777.72	233.03
778.04	232.96
778.36	232.86
778.69	232.80
779.01	232.71
779.33	232.55
779.66	232.37
779.98	232.28
780.31	232.19
780.63	232.19
780.95	232.08
781.28	232.01
781.60	231.95
781.92	231.89
782.25	231.84
782.57	231.70
782.89	231.63
783.22	231.52
783.54	231.45
783.86	231.38
784.19	231.29
784.51	231.20
784.83	231.12
785.16	231.01
785.48	230.94
785.80	230.88
786.12	230.81
786.45	230.73
