SpectraSuite Data File
++++++++++++++++++++++++++++++++++++
Date: Fri Feb 01 15:47:40 EST 2013
User: group
Dark Spectrum Present: No
Reference Spectrum Present: No
Number of Sampled Component Spectra: 1
Spectrometers: USB2E7196
Integration Time (usec): 35000 (USB2E7196)
Spectra Averaged: 100 (USB2E7196)
Boxcar Smoothing: 10 (USB2E7196)
Correct for Electrical Dark: No (USB2E7196)
Strobe/Lamp Enabled: No (USB2E7196)
Correct for Detector Non-linearity: No (USB2E7196)
Correct for Stray Light: No (USB2E7196)
Number of Pixels in Processed Spectrum: 2048
>>>>>Begin Processed Spectral Data<<<<<
339.09	0.00
339.48	215.48
339.86	216.10
340.24	217.84
340.63	219.27
341.01	222.03
341.39	221.26
341.78	222.72
342.16	224.27
342.54	225.15
342.93	213.08
343.31	223.84
343.69	224.35
344.07	224.80
344.46	225.20
344.84	225.56
345.22	225.74
345.60	226.00
345.99	226.20
346.37	226.31
346.75	226.38
347.13	226.47
347.52	226.49
347.90	226.55
348.28	226.57
348.66	226.60
349.05	226.58
349.43	226.62
349.81	226.67
350.19	226.73
350.57	226.79
350.96	226.87
351.34	226.97
351.72	227.04
352.10	227.14
352.48	227.21
352.87	227.28
353.25	227.39
353.63	227.47
354.01	227.53
354.39	227.63
354.77	227.71
355.15	227.83
355.54	227.90
355.92	227.92
356.30	227.99
356.68	228.14
357.06	228.25
357.44	228.29
357.82	228.37
358.20	228.45
358.58	228.50
358.97	228.57
359.35	228.63
359.73	228.72
360.11	228.79
360.49	228.88
360.87	228.91
361.25	228.97
361.63	229.06
362.01	229.13
362.39	229.15
362.77	229.17
363.15	229.19
363.53	229.23
363.91	229.28
364.29	229.31
364.67	229.23
365.05	229.25
365.43	229.26
365.81	229.29
366.19	229.32
366.57	229.41
366.95	229.42
367.33	229.40
367.71	229.39
368.09	229.39
368.47	229.40
368.85	229.41
369.23	229.36
369.61	229.32
369.99	229.32
370.37	229.29
370.75	229.36
371.13	229.29
371.51	229.22
371.89	229.20
372.27	229.16
372.65	229.15
373.03	229.06
373.41	229.04
373.78	228.97
374.16	228.89
374.54	228.79
374.92	228.69
375.30	228.64
375.68	228.56
376.06	228.52
376.44	228.43
376.82	228.36
377.19	228.34
377.57	228.25
377.95	228.16
378.33	228.10
378.71	227.95
379.09	227.91
379.47	227.88
379.84	227.81
380.22	227.74
380.60	227.66
380.98	227.64
381.36	227.57
381.73	227.50
382.11	227.44
382.49	227.39
382.87	227.33
383.25	227.28
383.62	227.35
384.00	227.25
384.38	227.17
384.76	227.12
385.13	227.09
385.51	227.01
385.89	226.92
386.27	226.87
386.64	226.87
387.02	226.81
387.40	226.74
387.78	226.70
388.15	226.68
388.53	226.63
388.91	226.58
389.29	226.53
389.66	226.51
390.04	226.49
390.42	226.44
390.79	226.45
391.17	226.42
391.55	226.29
391.92	226.28
392.30	226.27
392.68	226.26
393.05	226.26
393.43	226.26
393.81	226.30
394.18	226.26
394.56	226.25
394.94	226.28
395.31	226.31
395.69	226.34
396.06	226.36
396.44	226.39
396.82	226.44
397.19	226.54
397.57	226.58
397.95	226.62
398.32	226.65
398.70	226.70
399.07	226.79
399.45	226.86
399.82	226.92
400.20	227.01
400.58	227.08
400.95	227.13
401.33	227.24
401.70	227.39
402.08	227.51
402.45	227.61
402.83	227.73
403.20	227.86
403.58	227.98
403.95	228.10
404.33	228.26
404.71	228.36
405.08	228.52
405.46	228.66
405.83	228.81
406.21	228.95
406.58	229.16
406.96	229.32
407.33	229.50
407.70	229.72
408.08	229.98
408.45	230.22
408.83	230.47
409.20	230.68
409.58	230.90
409.95	231.19
410.33	231.46
410.70	231.72
411.08	232.00
411.45	232.33
411.82	232.64
412.20	232.99
412.57	233.44
412.95	233.73
413.32	234.17
413.69	234.58
414.07	235.08
414.44	235.48
414.82	235.93
415.19	236.46
415.56	236.98
415.94	237.52
416.31	238.17
416.68	238.77
417.06	239.53
417.43	240.18
417.81	240.90
418.18	241.69
418.55	242.56
418.93	243.45
419.30	244.31
419.67	245.29
420.04	246.22
420.42	247.20
420.79	248.42
421.16	249.57
421.54	250.78
421.91	251.97
422.28	253.24
422.66	254.61
423.03	255.94
423.40	257.26
423.77	258.68
424.15	260.11
424.52	261.61
424.89	263.18
425.26	264.73
425.64	266.18
426.01	267.77
426.38	269.37
426.75	271.01
427.13	272.77
427.50	274.56
427.87	276.44
428.24	278.30
428.61	280.00
428.99	281.94
429.36	284.03
429.73	286.08
430.10	288.10
430.47	290.13
430.85	292.25
431.22	294.54
431.59	296.92
431.96	299.16
432.33	301.62
432.70	304.00
433.08	306.85
433.45	309.51
433.82	312.13
434.19	315.04
434.56	317.83
434.93	320.45
435.30	323.09
435.68	325.99
436.05	328.83
436.42	331.63
436.79	334.11
437.16	336.79
437.53	339.60
437.90	342.44
438.27	345.22
438.64	348.03
439.01	350.60
439.38	352.79
439.75	354.90
440.13	357.40
440.50	359.68
440.87	361.48
441.24	363.37
441.61	365.51
441.98	366.96
442.35	368.73
442.72	370.59
443.09	372.36
443.46	373.37
443.83	373.91
444.20	374.40
444.57	375.23
444.94	375.52
445.31	375.89
445.68	376.24
446.05	376.27
446.42	375.89
446.79	375.45
447.16	374.98
447.53	374.70
447.90	373.52
448.27	372.37
448.64	370.77
449.01	369.64
449.37	367.67
449.74	365.81
450.11	363.60
450.48	361.11
450.85	358.59
451.22	356.37
451.59	354.37
451.96	352.48
452.33	349.87
452.70	347.53
453.07	344.68
453.43	341.80
453.80	339.07
454.17	336.38
454.54	333.87
454.91	331.15
455.28	328.47
455.65	326.03
456.02	323.62
456.38	321.49
456.75	318.84
457.12	316.57
457.49	314.33
457.86	312.18
458.23	310.39
458.59	308.34
458.96	306.32
459.33	304.45
459.70	302.57
460.07	301.09
460.43	299.36
460.80	297.80
461.17	296.33
461.54	294.82
461.91	293.39
462.27	291.95
462.64	290.75
463.01	289.41
463.38	288.13
463.74	286.76
464.11	285.60
464.48	284.60
464.85	283.52
465.21	282.66
465.58	281.73
465.95	280.62
466.32	279.72
466.68	278.81
467.05	277.94
467.42	277.03
467.78	276.06
468.15	275.19
468.52	274.49
468.88	273.64
469.25	272.89
469.62	272.28
469.98	271.61
470.35	270.99
470.72	270.38
471.08	269.68
471.45	269.16
471.82	268.64
472.18	268.06
472.55	267.62
472.92	267.10
473.28	266.67
473.65	266.21
474.02	265.74
474.38	265.40
474.75	265.09
475.11	264.73
475.48	264.49
475.85	264.26
476.21	264.01
476.58	263.78
476.94	263.59
477.31	263.38
477.67	263.25
478.04	263.10
478.41	263.04
478.77	263.13
479.14	263.04
479.50	262.98
479.87	263.06
480.23	263.13
480.60	263.19
480.96	263.24
481.33	263.42
481.69	263.65
482.06	263.82
482.42	264.00
482.79	264.28
483.15	264.58
483.52	265.00
483.88	265.36
484.25	265.79
484.61	266.18
484.98	266.64
485.34	267.19
485.71	267.77
486.07	268.38
486.44	268.90
486.80	269.62
487.17	270.39
487.53	271.12
487.90	271.97
488.26	272.93
488.62	273.91
488.99	274.87
489.35	275.88
489.72	276.97
490.08	278.16
490.44	279.39
490.81	280.71
491.17	281.99
491.54	283.47
491.90	285.01
492.26	286.68
492.63	288.43
492.99	290.20
493.36	292.11
493.72	294.13
494.08	296.26
494.45	298.45
494.81	300.79
495.17	303.26
495.54	305.81
495.90	308.46
496.26	311.25
496.63	314.26
496.99	317.38
497.35	320.65
497.72	324.04
498.08	327.60
498.44	331.31
498.80	335.25
499.17	339.26
499.53	343.43
499.89	347.81
500.26	352.34
500.62	357.02
500.98	361.99
501.34	367.07
501.71	372.40
502.07	377.87
502.43	383.48
502.79	389.31
503.16	395.41
503.52	401.75
503.88	408.15
504.24	414.75
504.60	421.70
504.97	428.86
505.33	436.21
505.69	443.92
506.05	451.70
506.41	459.60
506.78	467.85
507.14	476.35
507.50	485.05
507.86	494.06
508.22	503.25
508.59	512.47
508.95	522.08
509.31	531.91
509.67	542.00
510.03	552.36
510.39	562.90
510.75	573.74
511.12	584.69
511.48	596.09
511.84	607.54
512.20	618.99
512.56	630.99
512.92	643.19
513.28	655.49
513.64	668.02
514.00	680.78
514.37	693.69
514.73	706.66
515.09	719.76
515.45	733.02
515.81	746.62
516.17	760.58
516.53	774.73
516.89	788.89
517.25	803.08
517.61	817.47
517.97	831.96
518.33	846.33
518.69	861.07
519.05	876.03
519.41	891.22
519.77	906.77
520.13	922.11
520.49	937.52
520.85	952.98
521.21	968.65
521.57	984.82
521.93	1000.63
522.29	1017.21
522.65	1033.38
523.01	1049.69
523.37	1065.72
523.73	1081.94
524.09	1098.01
524.45	1114.37
524.81	1131.05
525.17	1147.92
525.53	1164.86
525.89	1181.70
526.25	1198.49
526.61	1214.75
526.97	1231.45
527.33	1247.84
527.68	1264.52
528.04	1280.95
528.40	1297.62
528.76	1314.64
529.12	1331.29
529.48	1348.06
529.84	1364.02
530.20	1380.59
530.56	1397.58
530.91	1414.99
531.27	1431.75
531.63	1448.20
531.99	1464.77
532.35	1480.68
532.71	1496.54
533.07	1512.78
533.42	1528.64
533.78	1544.62
534.14	1560.93
534.50	1576.29
534.86	1592.33
535.21	1607.50
535.57	1623.48
535.93	1638.89
536.29	1653.68
536.65	1668.73
537.00	1683.59
537.36	1698.66
537.72	1713.27
538.08	1727.61
538.44	1741.40
538.79	1755.29
539.15	1769.03
539.51	1782.77
539.87	1797.16
540.22	1810.74
540.58	1824.45
540.94	1837.91
541.29	1850.91
541.65	1863.65
542.01	1876.87
542.37	1889.10
542.72	1901.53
543.08	1913.14
543.44	1925.54
543.79	1936.86
544.15	1947.78
544.51	1959.20
544.87	1970.33
545.22	1981.06
545.58	1991.33
545.94	2001.00
546.29	2010.76
546.65	2020.59
547.01	2029.81
547.36	2038.54
547.72	2047.16
548.07	2055.07
548.43	2063.16
548.79	2071.22
549.14	2078.61
549.50	2085.96
549.86	2093.63
550.21	2100.95
550.57	2108.18
550.92	2114.75
551.28	2121.72
551.64	2128.78
551.99	2135.42
552.35	2141.57
552.70	2147.83
553.06	2153.86
553.41	2160.28
553.77	2166.39
554.13	2172.54
554.48	2178.67
554.84	2184.10
555.19	2189.27
555.55	2194.40
555.90	2198.85
556.26	2203.80
556.61	2208.66
556.97	2212.91
557.32	2217.01
557.68	2221.13
558.03	2225.54
558.39	2229.18
558.74	2233.87
559.10	2237.77
559.45	2241.47
559.81	2245.77
560.16	2249.48
560.52	2252.60
560.87	2256.04
561.23	2258.62
561.58	2261.50
561.94	2264.04
562.29	2266.36
562.64	2269.19
563.00	2271.76
563.35	2275.28
563.71	2278.37
564.06	2281.61
564.42	2284.42
564.77	2286.87
565.12	2288.97
565.48	2290.77
565.83	2292.89
566.19	2294.06
566.54	2295.03
566.89	2296.14
567.25	2296.63
567.60	2298.03
567.96	2299.73
568.31	2300.46
568.66	2301.51
569.02	2302.14
569.37	2302.39
569.72	2303.32
570.08	2303.47
570.43	2303.59
570.78	2302.94
571.14	2301.30
571.49	2299.87
571.84	2299.76
572.20	2298.76
572.55	2297.78
572.90	2296.20
573.26	2294.61
573.61	2292.88
573.96	2290.97
574.31	2287.97
574.67	2285.04
575.02	2281.47
575.37	2278.15
575.72	2274.34
576.08	2271.19
576.43	2267.68
576.78	2264.03
577.13	2260.82
577.49	2257.62
577.84	2254.03
578.19	2250.41
578.54	2246.75
578.90	2242.54
579.25	2236.79
579.60	2231.66
579.95	2226.73
580.30	2221.66
580.66	2216.51
581.01	2211.51
581.36	2206.53
581.71	2202.31
582.06	2197.84
582.42	2193.32
582.77	2188.05
583.12	2183.56
583.47	2178.63
583.82	2173.70
584.17	2168.39
584.53	2162.80
584.88	2157.17
585.23	2151.40
585.58	2145.77
585.93	2140.33
586.28	2135.63
586.63	2130.57
586.98	2125.65
587.34	2120.90
587.69	2116.04
588.04	2110.78
588.39	2105.25
588.74	2098.87
589.09	2092.72
589.44	2085.96
589.79	2080.03
590.14	2074.42
590.49	2067.73
590.84	2061.54
591.19	2055.40
591.54	2048.95
591.89	2041.64
592.25	2034.81
592.60	2027.50
592.95	2019.94
593.30	2012.53
593.65	2004.87
594.00	1997.67
594.35	1990.31
594.70	1982.32
595.05	1975.12
595.40	1967.74
595.75	1960.30
596.10	1954.10
596.45	1947.33
596.80	1941.18
597.15	1934.45
597.50	1927.26
597.85	1920.92
598.19	1913.95
598.54	1906.84
598.89	1900.30
599.24	1894.48
599.59	1887.70
599.94	1881.63
600.29	1875.32
600.64	1868.72
600.99	1861.20
601.34	1854.60
601.69	1847.68
602.04	1840.71
602.39	1833.30
602.74	1826.49
603.08	1819.59
603.43	1812.78
603.78	1805.60
604.13	1798.27
604.48	1790.87
604.83	1783.90
605.18	1776.87
605.53	1769.03
605.87	1761.04
606.22	1753.76
606.57	1745.67
606.92	1738.47
607.27	1731.25
607.62	1724.29
607.96	1716.94
608.31	1710.36
608.66	1702.60
609.01	1695.08
609.36	1687.51
609.70	1679.60
610.05	1671.57
610.40	1663.85
610.75	1655.47
611.10	1647.63
611.44	1639.20
611.79	1631.32
612.14	1622.75
612.49	1613.52
612.83	1605.09
613.18	1596.93
613.53	1588.84
613.88	1580.29
614.22	1571.98
614.57	1563.33
614.92	1555.34
615.27	1547.83
615.61	1539.48
615.96	1531.52
616.31	1523.95
616.65	1516.57
617.00	1508.88
617.35	1501.20
617.70	1492.90
618.04	1484.40
618.39	1476.22
618.74	1468.67
619.08	1460.31
619.43	1452.81
619.78	1446.00
620.12	1438.81
620.47	1431.30
620.82	1423.11
621.16	1415.75
621.51	1408.13
621.85	1400.54
622.20	1392.00
622.55	1383.62
622.89	1375.83
623.24	1368.15
623.59	1360.69
623.93	1353.25
624.28	1346.11
624.62	1338.61
624.97	1331.51
625.32	1324.88
625.66	1317.89
626.01	1310.69
626.35	1303.23
626.70	1295.41
627.04	1287.64
627.39	1279.98
627.73	1272.64
628.08	1265.70
628.43	1258.33
628.77	1250.86
629.12	1243.23
629.46	1236.01
629.81	1228.67
630.15	1221.35
630.50	1213.97
630.84	1205.69
631.19	1197.78
631.53	1190.37
631.88	1182.76
632.22	1175.15
632.57	1167.79
632.91	1160.16
633.26	1152.65
633.60	1145.24
633.95	1138.15
634.29	1131.13
634.64	1124.38
634.98	1117.00
635.32	1109.86
635.67	1103.35
636.01	1096.75
636.36	1090.03
636.70	1083.59
637.05	1076.98
637.39	1070.58
637.73	1064.05
638.08	1058.25
638.42	1052.22
638.77	1045.63
639.11	1039.01
639.45	1032.48
639.80	1025.81
640.14	1019.45
640.49	1013.01
640.83	1006.70
641.17	1000.40
641.52	994.06
641.86	987.60
642.20	981.71
642.55	975.33
642.89	968.77
643.23	962.29
643.58	956.43
643.92	950.15
644.26	944.11
644.61	938.03
644.95	931.98
645.29	925.28
645.64	918.51
645.98	912.25
646.32	906.48
646.66	900.54
647.01	894.70
647.35	888.90
647.69	883.11
648.04	877.65
648.38	871.82
648.72	865.79
649.06	859.79
649.41	853.96
649.75	847.99
650.09	842.10
650.43	836.31
650.78	830.19
651.12	824.24
651.46	818.48
651.80	812.75
652.14	807.38
652.49	802.06
652.83	796.82
653.17	791.01
653.51	785.22
653.85	779.86
654.20	774.24
654.54	768.29
654.88	762.54
655.22	756.65
655.56	751.02
655.90	745.53
656.25	740.24
656.59	734.85
656.93	729.79
657.27	724.61
657.61	719.14
657.95	714.05
658.29	709.04
658.64	703.88
658.98	698.54
659.32	693.14
659.66	688.02
660.00	682.67
660.34	677.83
660.68	672.93
661.02	667.88
661.36	663.19
661.70	658.75
662.05	654.39
662.39	650.03
662.73	645.63
663.07	641.27
663.41	636.83
663.75	632.34
664.09	627.82
664.43	623.45
664.77	619.39
665.11	615.10
665.45	610.96
665.79	606.84
666.13	602.74
666.47	598.63
666.81	594.37
667.15	590.35
667.49	586.44
667.83	582.65
668.17	578.70
668.51	574.64
668.85	570.57
669.19	566.73
669.53	562.88
669.87	558.98
670.21	555.30
670.55	551.60
670.89	548.18
671.23	544.68
671.57	541.15
671.91	537.52
672.25	534.02
672.58	530.53
672.92	527.13
673.26	524.00
673.60	520.84
673.94	517.77
674.28	514.85
674.62	511.87
674.96	508.76
675.30	505.82
675.64	502.90
675.97	500.14
676.31	497.23
676.65	494.26
676.99	491.47
677.33	488.63
677.67	485.87
678.01	482.77
678.34	479.81
678.68	476.95
679.02	474.13
679.36	471.40
679.70	468.59
680.04	465.83
680.37	462.92
680.71	460.16
681.05	457.53
681.39	454.81
681.73	452.19
682.06	449.64
682.40	447.12
682.74	444.57
683.08	442.03
683.42	439.43
683.75	436.97
684.09	434.47
684.43	431.99
684.77	429.52
685.10	427.23
685.44	424.92
685.78	422.66
686.12	420.50
686.45	418.22
686.79	416.00
687.13	413.80
687.46	411.67
687.80	409.52
688.14	407.31
688.48	405.26
688.81	402.96
689.15	400.81
689.49	398.71
689.82	396.66
690.16	394.56
690.50	392.63
690.83	390.69
691.17	388.70
691.51	386.83
691.84	385.03
692.18	383.10
692.52	381.12
692.85	379.21
693.19	377.30
693.52	375.47
693.86	373.66
694.20	371.86
694.53	370.00
694.87	368.15
695.21	366.36
695.54	364.54
695.88	362.89
696.21	361.19
696.55	359.48
696.88	357.78
697.22	356.13
697.56	354.49
697.89	352.86
698.23	351.27
698.56	349.66
698.90	348.03
699.23	346.41
699.57	344.88
699.90	343.35
700.24	341.82
700.58	340.21
700.91	338.68
701.25	337.23
701.58	335.90
701.92	334.52
702.25	333.14
702.59	331.78
702.92	330.41
703.26	329.07
703.59	327.74
703.93	326.56
704.26	325.35
704.60	324.05
704.93	322.75
705.26	321.51
705.60	320.35
705.93	319.20
706.27	318.14
706.60	317.09
706.94	315.96
707.27	314.82
707.61	313.81
707.94	312.80
708.27	311.71
708.61	310.60
708.94	309.61
709.28	308.63
709.61	307.68
709.94	306.74
710.28	305.75
710.61	304.81
710.95	303.73
711.28	302.77
711.61	301.83
711.95	300.93
712.28	299.95
712.61	298.95
712.95	298.00
713.28	297.16
713.61	296.28
713.95	295.38
714.28	294.55
714.61	293.69
714.95	292.85
715.28	292.01
715.61	291.19
715.95	290.30
716.28	289.46
716.61	288.62
716.95	287.83
717.28	287.06
717.61	286.29
717.94	285.58
718.28	284.79
718.61	284.05
718.94	283.35
719.27	282.72
719.61	282.09
719.94	281.44
720.27	280.70
720.60	280.02
720.94	279.39
721.27	278.79
721.60	278.23
721.93	277.62
722.27	277.08
722.60	276.52
722.93	275.92
723.26	275.41
723.59	274.86
723.93	274.31
724.26	273.74
724.59	273.20
724.92	272.67
725.25	272.20
725.59	271.70
725.92	271.23
726.25	270.75
726.58	270.24
726.91	269.75
727.24	269.24
727.57	268.78
727.91	268.30
728.24	267.82
728.57	267.33
728.90	266.91
729.23	266.42
729.56	265.99
729.89	265.57
730.22	265.05
730.55	264.59
730.89	264.11
731.22	263.72
731.55	263.26
731.88	262.82
732.21	262.33
732.54	261.92
732.87	261.46
733.20	261.03
733.53	260.65
733.86	260.26
734.19	259.88
734.52	259.49
734.85	259.18
735.18	258.78
735.51	258.40
735.84	258.03
736.17	257.67
736.50	257.28
736.83	257.05
737.16	256.72
737.49	256.36
737.82	256.00
738.15	255.66
738.48	255.36
738.81	255.04
739.14	254.72
739.47	254.42
739.80	254.12
740.13	253.83
740.46	253.46
740.79	253.14
741.12	252.84
741.45	252.52
741.78	252.17
742.11	251.87
742.44	251.53
742.77	251.22
743.10	250.91
743.43	250.62
743.75	250.22
744.08	250.06
744.41	249.80
744.74	249.53
745.07	249.21
745.40	248.93
745.73	248.69
746.06	248.43
746.39	248.13
746.71	247.85
747.04	247.56
747.37	247.30
747.70	247.03
748.03	246.75
748.36	246.50
748.68	246.24
749.01	245.98
749.34	245.78
749.67	245.54
750.00	245.30
750.33	245.15
750.65	244.97
750.98	244.62
751.31	244.40
751.64	244.20
751.97	244.04
752.29	243.82
752.62	243.55
752.95	243.35
753.28	243.10
753.60	242.89
753.93	242.74
754.26	242.54
754.59	242.29
754.91	242.09
755.24	241.90
755.57	241.72
755.90	241.57
756.22	241.36
756.55	241.16
756.88	240.95
757.20	240.71
757.53	240.50
757.86	240.35
758.19	240.17
758.51	240.01
758.84	239.78
759.17	239.59
759.49	239.43
759.82	239.28
760.15	239.15
760.47	238.99
760.80	238.82
761.13	238.68
761.45	238.56
761.78	238.49
762.11	238.35
762.43	238.21
762.76	238.05
763.08	237.94
763.41	237.83
763.74	237.71
764.06	237.58
764.39	237.43
764.71	237.25
765.04	237.10
765.37	236.97
765.69	236.88
766.02	236.79
766.34	236.68
766.67	236.54
767.00	236.48
767.32	236.44
767.65	236.36
767.97	236.23
768.30	236.12
768.62	235.99
768.95	235.92
769.27	235.80
769.60	235.74
769.92	235.61
770.25	235.48
770.57	235.39
770.90	235.28
771.22	235.20
771.55	235.12
771.87	235.01
772.20	234.94
772.52	234.96
772.85	234.98
773.17	234.90
773.50	234.80
773.82	234.66
774.15	234.53
774.47	234.38
774.80	234.31
775.12	234.22
775.45	234.11
775.77	234.01
776.09	233.95
776.42	233.86
776.74	233.79
777.07	233.72
777.39	233.65
777.72	233.55
778.04	233.48
778.36	233.43
778.69	233.41
779.01	233.31
779.33	233.12
779.66	232.94
779.98	232.82
780.31	232.75
780.63	232.77
780.95	232.69
781.28	232.66
781.60	232.61
781.92	232.57
782.25	232.52
782.57	232.43
782.89	232.34
783.22	232.26
783.54	232.18
783.86	232.11
784.19	232.05
784.51	232.02
784.83	231.96
785.16	231.90
785.48	231.81
785.80	231.74
786.12	231.73
786.45	231.68
786.77	231.64
787.09	231.59
