SpectraSuite Data File
++++++++++++++++++++++++++++++++++++
Date: Fri Feb 01 16:14:39 EST 2013
User: group
Dark Spectrum Present: No
Reference Spectrum Present: No
Number of Sampled Component Spectra: 1
Spectrometers: USB2E7196
Integration Time (usec): 35000 (USB2E7196)
Spectra Averaged: 100 (USB2E7196)
Boxcar Smoothing: 10 (USB2E7196)
Correct for Electrical Dark: No (USB2E7196)
Strobe/Lamp Enabled: No (USB2E7196)
Correct for Detector Non-linearity: No (USB2E7196)
Correct for Stray Light: No (USB2E7196)
Number of Pixels in Processed Spectrum: 2048
>>>>>Begin Processed Spectral Data<<<<<
339.09	0.00
339.48	214.20
339.86	215.06
340.24	217.15
340.63	218.70
341.01	221.43
341.39	221.38
341.78	222.59
342.16	223.11
342.54	224.46
342.93	212.54
343.31	223.29
343.69	223.81
344.07	224.28
344.46	224.68
344.84	225.05
345.22	225.27
345.60	225.48
345.99	225.64
346.37	225.76
346.75	225.82
347.13	225.86
347.52	225.89
347.90	225.94
348.28	225.96
348.66	225.96
349.05	225.93
349.43	225.94
349.81	225.93
350.19	226.00
350.57	226.08
350.96	226.16
351.34	226.21
351.72	226.31
352.10	226.45
352.48	226.55
352.87	226.58
353.25	226.64
353.63	226.71
354.01	226.78
354.39	226.88
354.77	226.95
355.15	227.08
355.54	227.15
355.92	227.22
356.30	227.30
356.68	227.48
357.06	227.54
357.44	227.63
357.82	227.76
358.20	227.80
358.58	227.87
358.97	227.94
359.35	228.03
359.73	228.13
360.11	228.14
360.49	228.17
360.87	228.25
361.25	228.36
361.63	228.44
362.01	228.49
362.39	228.52
362.77	228.60
363.15	228.61
363.53	228.67
363.91	228.68
364.29	228.72
364.67	228.64
365.05	228.70
365.43	228.72
365.81	228.70
366.19	228.78
366.57	228.81
366.95	228.79
367.33	228.78
367.71	228.77
368.09	228.82
368.47	228.83
368.85	228.81
369.23	228.79
369.61	228.79
369.99	228.84
370.37	228.84
370.75	228.83
371.13	228.78
371.51	228.73
371.89	228.71
372.27	228.66
372.65	228.62
373.03	228.57
373.41	228.51
373.78	228.45
374.16	228.37
374.54	228.27
374.92	228.23
375.30	228.18
375.68	228.11
376.06	228.02
376.44	227.95
376.82	227.92
377.19	227.86
377.57	227.77
377.95	227.67
378.33	227.60
378.71	227.49
379.09	227.48
379.47	227.43
379.84	227.34
380.22	227.30
380.60	227.25
380.98	227.18
381.36	227.13
381.73	227.03
382.11	226.95
382.49	226.92
382.87	226.84
383.25	226.80
383.62	226.83
384.00	226.76
384.38	226.70
384.76	226.63
385.13	226.58
385.51	226.52
385.89	226.46
386.27	226.39
386.64	226.39
387.02	226.29
387.40	226.23
387.78	226.21
388.15	226.20
388.53	226.13
388.91	226.12
389.29	226.05
389.66	226.06
390.04	226.02
390.42	226.00
390.79	225.98
391.17	225.92
391.55	225.81
391.92	225.81
392.30	225.79
392.68	225.78
393.05	225.75
393.43	225.74
393.81	225.72
394.18	225.74
394.56	225.70
394.94	225.74
395.31	225.77
395.69	225.82
396.06	225.82
396.44	225.86
396.82	225.85
397.19	225.93
397.57	225.96
397.95	226.00
398.32	226.01
398.70	226.06
399.07	226.16
399.45	226.17
399.82	226.22
400.20	226.26
400.58	226.33
400.95	226.35
401.33	226.43
401.70	226.57
402.08	226.62
402.45	226.68
402.83	226.81
403.20	226.88
403.58	226.95
403.95	227.06
404.33	227.16
404.71	227.27
405.08	227.47
405.46	227.60
405.83	227.77
406.21	227.92
406.58	228.08
406.96	228.21
407.33	228.43
407.70	228.63
408.08	228.89
408.45	229.10
408.83	229.40
409.20	229.61
409.58	229.80
409.95	230.08
410.33	230.38
410.70	230.60
411.08	230.90
411.45	231.23
411.82	231.50
412.20	231.86
412.57	232.30
412.95	232.56
413.32	232.99
413.69	233.40
414.07	233.83
414.44	234.33
414.82	234.82
415.19	235.36
415.56	235.87
415.94	236.43
416.31	237.06
416.68	237.64
417.06	238.36
417.43	239.01
417.81	239.79
418.18	240.57
418.55	241.42
418.93	242.26
419.30	243.15
419.67	244.13
420.04	245.10
420.42	246.08
420.79	247.28
421.16	248.42
421.54	249.61
421.91	250.84
422.28	252.10
422.66	253.42
423.03	254.73
423.40	256.06
423.77	257.47
424.15	258.90
424.52	260.43
424.89	262.03
425.26	263.62
425.64	265.10
426.01	266.69
426.38	268.37
426.75	270.06
427.13	271.78
427.50	273.55
427.87	275.45
428.24	277.30
428.61	279.03
428.99	280.97
429.36	283.10
429.73	285.13
430.10	287.13
430.47	289.14
430.85	291.27
431.22	293.53
431.59	295.92
431.96	298.17
432.33	300.65
432.70	303.00
433.08	305.78
433.45	308.42
433.82	311.01
434.19	313.89
434.56	316.65
434.93	319.32
435.30	321.96
435.68	324.80
436.05	327.60
436.42	330.38
436.79	332.88
437.16	335.50
437.53	338.32
437.90	341.06
438.27	343.81
438.64	346.59
439.01	349.17
439.38	351.32
439.75	353.43
440.13	355.89
440.50	358.21
440.87	360.08
441.24	361.96
441.61	364.07
441.98	365.56
442.35	367.35
442.72	369.16
443.09	370.93
443.46	371.94
443.83	372.55
444.20	373.08
444.57	373.89
444.94	374.17
445.31	374.50
445.68	374.88
446.05	374.96
446.42	374.55
446.79	374.10
447.16	373.69
447.53	373.40
447.90	372.24
448.27	371.08
448.64	369.48
449.01	368.33
449.37	366.39
449.74	364.43
450.11	362.24
450.48	359.80
450.85	357.30
451.22	355.15
451.59	353.12
451.96	351.18
452.33	348.58
452.70	346.30
453.07	343.50
453.43	340.63
453.80	337.87
454.17	335.23
454.54	332.71
454.91	330.00
455.28	327.33
455.65	324.82
456.02	322.38
456.38	320.21
456.75	317.54
457.12	315.29
457.49	313.11
457.86	310.93
458.23	309.07
458.59	307.03
458.96	304.95
459.33	303.10
459.70	301.22
460.07	299.70
460.43	297.98
460.80	296.34
461.17	294.92
461.54	293.47
461.91	292.06
462.27	290.66
462.64	289.45
463.01	288.08
463.38	286.87
463.74	285.53
464.11	284.40
464.48	283.45
464.85	282.36
465.21	281.52
465.58	280.61
465.95	279.54
466.32	278.64
466.68	277.79
467.05	276.93
467.42	276.08
467.78	275.21
468.15	274.30
468.52	273.69
468.88	272.83
469.25	272.08
469.62	271.50
469.98	270.80
470.35	270.20
470.72	269.64
471.08	268.97
471.45	268.47
471.82	267.99
472.18	267.39
472.55	266.97
472.92	266.45
473.28	266.02
473.65	265.64
474.02	265.23
474.38	264.82
474.75	264.49
475.11	264.14
475.48	263.87
475.85	263.65
476.21	263.43
476.58	263.28
476.94	263.15
477.31	262.99
477.67	262.85
478.04	262.75
478.41	262.69
478.77	262.77
479.14	262.71
479.50	262.69
479.87	262.80
480.23	262.90
480.60	262.96
480.96	263.05
481.33	263.21
481.69	263.40
482.06	263.64
482.42	263.82
482.79	264.09
483.15	264.41
483.52	264.81
483.88	265.15
484.25	265.51
484.61	265.91
484.98	266.31
485.34	266.87
485.71	267.45
486.07	268.04
486.44	268.61
486.80	269.30
487.17	270.05
487.53	270.85
487.90	271.69
488.26	272.63
488.62	273.60
488.99	274.56
489.35	275.58
489.72	276.67
490.08	277.87
490.44	279.08
490.81	280.38
491.17	281.73
491.54	283.24
491.90	284.79
492.26	286.39
492.63	288.13
492.99	289.90
493.36	291.76
493.72	293.82
494.08	295.88
494.45	298.11
494.81	300.44
495.17	302.84
495.54	305.38
495.90	308.07
496.26	310.86
496.63	313.83
496.99	316.92
497.35	320.21
497.72	323.67
498.08	327.18
498.44	330.87
498.80	334.79
499.17	338.85
499.53	343.00
499.89	347.44
500.26	351.96
500.62	356.67
500.98	361.65
501.34	366.74
501.71	372.06
502.07	377.53
502.43	383.17
502.79	389.00
503.16	395.12
503.52	401.39
503.88	407.84
504.24	414.49
504.60	421.41
504.97	428.56
505.33	435.84
505.69	443.53
506.05	451.32
506.41	459.24
506.78	467.36
507.14	475.85
507.50	484.53
507.86	493.55
508.22	502.76
508.59	511.96
508.95	521.49
509.31	531.28
509.67	541.44
510.03	551.75
510.39	562.34
510.75	573.15
511.12	584.09
511.48	595.38
511.84	606.80
512.20	618.30
512.56	630.26
512.92	642.41
513.28	654.86
513.64	667.34
514.00	679.97
514.37	692.93
514.73	706.03
515.09	719.10
515.45	732.42
515.81	745.90
516.17	759.86
516.53	774.05
516.89	788.20
517.25	802.24
517.61	816.68
517.97	831.07
518.33	845.37
518.69	860.08
519.05	874.93
519.41	890.08
519.77	905.57
520.13	920.93
520.49	936.31
520.85	951.56
521.21	967.21
521.57	983.43
521.93	999.15
522.29	1015.39
522.65	1031.61
523.01	1047.76
523.37	1063.84
523.73	1079.95
524.09	1096.04
524.45	1112.29
524.81	1128.91
525.17	1145.58
525.53	1162.41
525.89	1179.44
526.25	1196.34
526.61	1212.81
526.97	1229.58
527.33	1245.96
527.68	1262.37
528.04	1278.74
528.40	1295.33
528.76	1312.36
529.12	1328.89
529.48	1345.66
529.84	1361.60
530.20	1378.09
530.56	1394.91
530.91	1412.21
531.27	1428.79
531.63	1445.06
531.99	1461.68
532.35	1477.61
532.71	1493.39
533.07	1509.67
533.42	1525.34
533.78	1541.31
534.14	1557.41
534.50	1572.64
534.86	1588.58
535.21	1603.87
535.57	1619.83
535.93	1635.24
536.29	1649.86
536.65	1664.83
537.00	1679.58
537.36	1694.80
537.72	1709.19
538.08	1723.74
538.44	1737.40
538.79	1751.29
539.15	1764.79
539.51	1778.35
539.87	1792.67
540.22	1806.31
540.58	1819.94
540.94	1833.11
541.29	1845.73
541.65	1858.37
542.01	1871.41
542.37	1883.62
542.72	1895.87
543.08	1907.59
543.44	1919.84
543.79	1931.11
544.15	1942.14
544.51	1953.52
544.87	1964.37
545.22	1975.21
545.58	1985.37
545.94	1995.11
546.29	2004.95
546.65	2014.98
547.01	2024.25
547.36	2032.88
547.72	2041.37
548.07	2049.13
548.43	2057.28
548.79	2065.18
549.14	2072.58
549.50	2079.79
549.86	2087.28
550.21	2094.60
550.57	2101.68
550.92	2108.23
551.28	2115.27
551.64	2122.23
551.99	2128.77
552.35	2135.10
552.70	2141.30
553.06	2147.16
553.41	2153.47
553.77	2159.57
554.13	2165.49
554.48	2171.52
554.84	2177.01
555.19	2182.28
555.55	2187.44
555.90	2191.99
556.26	2197.04
556.61	2201.84
556.97	2206.37
557.32	2210.53
557.68	2214.66
558.03	2219.03
558.39	2222.80
558.74	2227.42
559.10	2231.35
559.45	2234.97
559.81	2239.11
560.16	2242.77
560.52	2245.97
560.87	2249.46
561.23	2251.95
561.58	2254.74
561.94	2257.32
562.29	2259.53
562.64	2262.17
563.00	2264.77
563.35	2268.32
563.71	2271.31
564.06	2274.46
564.42	2277.19
564.77	2279.82
565.12	2282.26
565.48	2284.15
565.83	2286.00
566.19	2287.35
566.54	2288.24
566.89	2289.50
567.25	2290.16
567.60	2291.60
567.96	2293.50
568.31	2294.27
568.66	2295.50
569.02	2296.24
569.37	2296.62
569.72	2297.67
570.08	2297.95
570.43	2298.01
570.78	2297.35
571.14	2295.93
571.49	2294.64
571.84	2294.27
572.20	2293.10
572.55	2291.85
572.90	2290.11
573.26	2288.79
573.61	2287.04
573.96	2285.31
574.31	2282.40
574.67	2279.39
575.02	2275.72
575.37	2272.15
575.72	2268.48
576.08	2265.06
576.43	2261.76
576.78	2258.18
577.13	2254.92
577.49	2251.88
577.84	2248.39
578.19	2244.62
578.54	2241.17
578.90	2237.18
579.25	2231.71
579.60	2226.88
579.95	2221.89
580.30	2217.00
580.66	2211.74
581.01	2206.77
581.36	2201.92
581.71	2197.70
582.06	2193.47
582.42	2189.12
582.77	2183.89
583.12	2179.47
583.47	2174.91
583.82	2170.14
584.17	2164.87
584.53	2159.41
584.88	2153.68
585.23	2147.99
585.58	2142.63
585.93	2137.13
586.28	2132.22
586.63	2127.28
586.98	2122.29
587.34	2117.70
587.69	2112.92
588.04	2107.85
588.39	2102.24
588.74	2095.70
589.09	2089.60
589.44	2082.79
589.79	2076.73
590.14	2071.21
590.49	2064.60
590.84	2058.03
591.19	2051.87
591.54	2045.40
591.89	2038.21
592.25	2031.44
592.60	2024.26
592.95	2016.79
593.30	2009.36
593.65	2001.85
594.00	1994.76
594.35	1987.47
594.70	1979.39
595.05	1972.21
595.40	1964.97
595.75	1957.48
596.10	1951.45
596.45	1944.81
596.80	1938.63
597.15	1932.15
597.50	1925.12
597.85	1918.56
598.19	1912.11
598.54	1905.16
598.89	1898.62
599.24	1892.73
599.59	1886.22
599.94	1879.96
600.29	1873.54
600.64	1867.01
600.99	1859.58
601.34	1852.90
601.69	1845.95
602.04	1839.23
602.39	1831.92
602.74	1825.09
603.08	1818.39
603.43	1811.71
603.78	1804.41
604.13	1797.30
604.48	1789.98
604.83	1783.08
605.18	1776.38
605.53	1768.36
605.87	1760.29
606.22	1753.00
606.57	1744.87
606.92	1737.51
607.27	1730.47
607.62	1723.78
607.96	1716.68
608.31	1710.18
608.66	1702.60
609.01	1695.11
609.36	1687.59
609.70	1679.63
610.05	1671.78
610.40	1664.20
610.75	1655.75
611.10	1648.12
611.44	1639.69
611.79	1631.70
612.14	1623.10
612.49	1613.75
612.83	1605.35
613.18	1597.26
613.53	1589.18
613.88	1580.77
614.22	1572.42
614.57	1563.64
614.92	1555.61
615.27	1547.99
615.61	1539.75
615.96	1531.63
616.31	1523.81
616.65	1516.42
617.00	1508.92
617.35	1501.02
617.70	1492.76
618.04	1484.25
618.39	1475.93
618.74	1468.30
619.08	1459.90
619.43	1452.28
619.78	1445.39
620.12	1438.38
620.47	1430.82
620.82	1422.66
621.16	1415.27
621.51	1407.60
621.85	1400.12
622.20	1391.49
622.55	1383.07
622.89	1375.05
623.24	1367.43
623.59	1360.15
623.93	1352.49
624.28	1345.13
624.62	1337.61
624.97	1330.31
625.32	1323.54
625.66	1316.53
626.01	1309.37
626.35	1302.12
626.70	1294.36
627.04	1286.67
627.39	1278.83
627.73	1271.45
628.08	1264.56
628.43	1257.24
628.77	1250.04
629.12	1242.60
629.46	1235.47
629.81	1228.03
630.15	1220.87
630.50	1213.48
630.84	1205.25
631.19	1197.30
631.53	1189.78
631.88	1182.24
632.22	1174.67
632.57	1167.35
632.91	1159.85
633.26	1152.26
633.60	1144.70
633.95	1137.57
634.29	1130.50
634.64	1123.75
634.98	1116.51
635.32	1109.23
635.67	1102.56
636.01	1095.78
636.36	1088.97
636.70	1082.50
637.05	1075.97
637.39	1069.50
637.73	1063.05
638.08	1057.16
638.42	1051.20
638.77	1044.73
639.11	1038.21
639.45	1031.77
639.80	1025.10
640.14	1018.73
640.49	1012.40
640.83	1006.13
641.17	999.99
641.52	993.75
641.86	987.30
642.20	981.32
642.55	975.06
642.89	968.73
643.23	962.20
643.58	956.40
643.92	950.26
644.26	944.23
644.61	938.19
644.95	932.18
645.29	925.69
645.64	918.99
645.98	912.69
646.32	906.79
646.66	900.86
647.01	895.06
647.35	889.32
647.69	883.38
648.04	877.90
648.38	872.07
648.72	866.09
649.06	860.07
649.41	854.19
649.75	848.30
650.09	842.31
650.43	836.54
650.78	830.34
651.12	824.29
651.46	818.53
651.80	812.76
652.14	807.38
652.49	802.01
652.83	796.93
653.17	791.29
653.51	785.62
653.85	780.13
654.20	774.46
654.54	768.43
654.88	762.69
655.22	756.74
655.56	751.01
655.90	745.47
656.25	740.27
656.59	734.87
656.93	729.82
657.27	724.73
657.61	719.26
657.95	714.24
658.29	709.11
658.64	703.84
658.98	698.51
659.32	692.94
659.66	687.67
660.00	682.31
660.34	677.30
660.68	672.27
661.02	667.27
661.36	662.62
661.70	658.14
662.05	653.82
662.39	649.52
662.73	645.10
663.07	640.77
663.41	636.24
663.75	631.83
664.09	627.13
664.43	622.64
664.77	618.55
665.11	614.29
665.45	610.20
665.79	606.20
666.13	602.05
666.47	597.98
666.81	593.88
667.15	589.80
667.49	585.90
667.83	582.17
668.17	578.23
668.51	574.16
668.85	570.13
669.19	566.28
669.53	562.42
669.87	558.47
670.21	554.70
670.55	551.09
670.89	547.65
671.23	544.31
671.57	540.78
671.91	537.27
672.25	533.74
672.58	530.14
672.92	526.68
673.26	523.54
673.60	520.40
673.94	517.23
674.28	514.25
674.62	511.33
674.96	508.25
675.30	505.37
675.64	502.47
675.97	499.71
676.31	496.84
676.65	493.94
676.99	491.40
677.33	488.55
677.67	485.72
678.01	482.68
678.34	479.72
678.68	476.86
679.02	474.02
679.36	471.24
679.70	468.58
680.04	465.84
680.37	462.97
680.71	460.21
681.05	457.66
681.39	454.97
681.73	452.29
682.06	449.74
682.40	447.17
682.74	444.61
683.08	442.01
683.42	439.46
683.75	437.00
684.09	434.38
684.43	431.94
684.77	429.51
685.10	427.15
685.44	424.84
685.78	422.62
686.12	420.35
686.45	418.10
686.79	415.81
687.13	413.58
687.46	411.44
687.80	409.25
688.14	407.03
688.48	405.02
688.81	402.78
689.15	400.59
689.49	398.44
689.82	396.37
690.16	394.31
690.50	392.31
690.83	390.37
691.17	388.39
691.51	386.51
691.84	384.62
692.18	382.72
692.52	380.70
692.85	378.70
693.19	376.86
693.52	374.96
693.86	373.10
694.20	371.34
694.53	369.50
694.87	367.66
695.21	365.83
695.54	363.97
695.88	362.28
696.21	360.59
696.55	358.93
696.88	357.32
697.22	355.63
697.56	353.98
697.89	352.29
698.23	350.67
698.56	349.04
698.90	347.48
699.23	345.80
699.57	344.27
699.90	342.75
700.24	341.16
700.58	339.65
700.91	338.19
701.25	336.73
701.58	335.42
701.92	334.09
702.25	332.76
702.59	331.39
702.92	330.05
703.26	328.73
703.59	327.41
703.93	326.17
704.26	324.94
704.60	323.62
704.93	322.35
705.26	321.09
705.60	319.85
705.93	318.67
706.27	317.62
706.60	316.57
706.94	315.43
707.27	314.30
707.61	313.22
707.94	312.17
708.27	311.09
708.61	309.93
708.94	308.87
709.28	307.85
709.61	306.88
709.94	305.89
710.28	304.90
710.61	303.92
710.95	302.82
711.28	301.90
711.61	301.00
711.95	300.11
712.28	299.19
712.61	298.25
712.95	297.32
713.28	296.44
713.61	295.51
713.95	294.68
714.28	293.86
714.61	293.00
714.95	292.16
715.28	291.32
715.61	290.47
715.95	289.61
716.28	288.78
716.61	287.96
716.95	287.17
717.28	286.43
717.61	285.64
717.94	284.95
718.28	284.16
718.61	283.42
718.94	282.71
719.27	282.05
719.61	281.39
719.94	280.74
720.27	280.03
720.60	279.42
720.94	278.79
721.27	278.19
721.60	277.61
721.93	277.03
722.27	276.47
722.60	275.90
722.93	275.35
723.26	274.81
723.59	274.24
723.93	273.71
724.26	273.12
724.59	272.59
724.92	272.03
725.25	271.52
725.59	271.01
725.92	270.51
726.25	269.98
726.58	269.49
726.91	268.99
727.24	268.57
727.57	268.06
727.91	267.56
728.24	267.09
728.57	266.60
728.90	266.17
729.23	265.67
729.56	265.28
729.89	264.82
730.22	264.32
730.55	263.87
730.89	263.40
731.22	262.99
731.55	262.57
731.88	262.22
732.21	261.79
732.54	261.38
732.87	260.92
733.20	260.54
733.53	260.17
733.86	259.78
734.19	259.33
734.52	258.97
734.85	258.69
735.18	258.30
735.51	257.96
735.84	257.54
736.17	257.20
736.50	256.78
736.83	256.52
737.16	256.17
737.49	255.84
737.82	255.47
738.15	255.10
738.48	254.73
738.81	254.36
739.14	254.05
739.47	253.72
739.80	253.42
740.13	253.09
740.46	252.79
740.79	252.48
741.12	252.17
741.45	251.83
741.78	251.45
742.11	251.16
742.44	250.82
742.77	250.58
743.10	250.27
743.43	249.99
743.75	249.62
744.08	249.51
744.41	249.22
744.74	249.03
745.07	248.79
745.40	248.54
745.73	248.32
746.06	248.04
746.39	247.74
746.71	247.51
747.04	247.22
747.37	246.95
747.70	246.69
748.03	246.44
748.36	246.24
748.68	245.98
749.01	245.74
749.34	245.50
749.67	245.25
750.00	245.00
750.33	244.83
750.65	244.63
750.98	244.25
751.31	244.04
751.64	243.78
751.97	243.60
752.29	243.39
752.62	243.07
752.95	242.84
753.28	242.60
753.60	242.35
753.93	242.20
754.26	241.96
754.59	241.72
754.91	241.51
755.24	241.30
755.57	241.12
755.90	240.93
756.22	240.73
756.55	240.51
756.88	240.34
757.20	240.09
757.53	239.88
757.86	239.70
758.19	239.51
758.51	239.35
758.84	239.13
759.17	238.97
759.49	238.84
759.82	238.76
760.15	238.62
760.47	238.52
760.80	238.30
761.13	238.19
761.45	238.05
761.78	237.90
762.11	237.73
762.43	237.58
762.76	237.43
763.08	237.34
763.41	237.22
763.74	237.08
764.06	236.95
764.39	236.83
764.71	236.69
765.04	236.55
765.37	236.43
765.69	236.26
766.02	236.12
766.34	236.00
766.67	235.81
767.00	235.72
767.32	235.60
767.65	235.59
767.97	235.45
768.30	235.32
768.62	235.23
768.95	235.15
769.27	235.02
769.60	234.94
769.92	234.80
770.25	234.70
770.57	234.59
770.90	234.50
771.22	234.39
771.55	234.30
771.87	234.20
772.20	234.09
772.52	234.08
772.85	234.12
773.17	234.03
773.50	233.92
773.82	233.85
774.15	233.75
774.47	233.60
774.80	233.55
775.12	233.47
775.45	233.37
775.77	233.30
776.09	233.27
776.42	233.17
776.74	233.12
777.07	233.02
777.39	232.97
777.72	232.89
778.04	232.84
778.36	232.79
778.69	232.75
779.01	232.70
779.33	232.58
779.66	232.37
779.98	232.33
780.31	232.31
780.63	232.29
780.95	232.24
781.28	232.17
781.60	232.10
781.92	232.07
782.25	232.00
782.57	231.95
782.89	231.87
783.22	231.83
783.54	231.78
783.86	231.77
784.19	231.71
784.51	231.66
784.83	231.59
785.16	231.53
785.48	231.48
785.80	231.42
786.12	231.40
786.45	231.36
786.77	231.31
787.09	231.24
