SpectraSuite Data File
++++++++++++++++++++++++++++++++++++
Date: Fri Feb 01 16:08:30 EST 2013
User: group
Dark Spectrum Present: No
Reference Spectrum Present: No
Number of Sampled Component Spectra: 1
Spectrometers: USB2E7196
Integration Time (usec): 35000 (USB2E7196)
Spectra Averaged: 100 (USB2E7196)
Boxcar Smoothing: 10 (USB2E7196)
Correct for Electrical Dark: No (USB2E7196)
Strobe/Lamp Enabled: No (USB2E7196)
Correct for Detector Non-linearity: No (USB2E7196)
Correct for Stray Light: No (USB2E7196)
Number of Pixels in Processed Spectrum: 2048
>>>>>Begin Processed Spectral Data<<<<<
339.09	0.00
339.48	214.57
339.86	215.80
340.24	217.09
340.63	218.54
341.01	221.72
341.39	221.35
341.78	222.55
342.16	223.06
342.54	224.62
342.93	212.71
343.31	223.47
343.69	224.01
344.07	224.50
344.46	224.94
344.84	225.31
345.22	225.54
345.60	225.79
345.99	225.98
346.37	226.15
346.75	226.24
347.13	226.32
347.52	226.35
347.90	226.40
348.28	226.44
348.66	226.52
349.05	226.50
349.43	226.55
349.81	226.58
350.19	226.60
350.57	226.65
350.96	226.70
351.34	226.77
351.72	226.85
352.10	226.91
352.48	226.98
352.87	227.05
353.25	227.08
353.63	227.14
354.01	227.22
354.39	227.28
354.77	227.38
355.15	227.45
355.54	227.53
355.92	227.61
356.30	227.73
356.68	227.88
357.06	227.96
357.44	228.06
357.82	228.13
358.20	228.23
358.58	228.30
358.97	228.41
359.35	228.50
359.73	228.58
360.11	228.64
360.49	228.71
360.87	228.77
361.25	228.86
361.63	228.97
362.01	229.02
362.39	229.07
362.77	229.12
363.15	229.18
363.53	229.22
363.91	229.23
364.29	229.27
364.67	229.18
365.05	229.22
365.43	229.23
365.81	229.24
366.19	229.31
366.57	229.34
366.95	229.29
367.33	229.27
367.71	229.27
368.09	229.31
368.47	229.28
368.85	229.24
369.23	229.23
369.61	229.16
369.99	229.20
370.37	229.18
370.75	229.20
371.13	229.16
371.51	229.13
371.89	229.14
372.27	229.10
372.65	229.07
373.03	229.04
373.41	228.96
373.78	228.92
374.16	228.78
374.54	228.68
374.92	228.65
375.30	228.60
375.68	228.50
376.06	228.42
376.44	228.34
376.82	228.28
377.19	228.24
377.57	228.16
377.95	228.02
378.33	227.93
378.71	227.80
379.09	227.75
379.47	227.66
379.84	227.54
380.22	227.45
380.60	227.39
380.98	227.29
381.36	227.21
381.73	227.12
382.11	227.07
382.49	227.05
382.87	226.94
383.25	226.85
383.62	226.91
384.00	226.82
384.38	226.79
384.76	226.75
385.13	226.70
385.51	226.64
385.89	226.57
386.27	226.52
386.64	226.47
387.02	226.40
387.40	226.39
387.78	226.37
388.15	226.28
388.53	226.20
388.91	226.16
389.29	226.14
389.66	226.14
390.04	226.13
390.42	226.09
390.79	226.10
391.17	226.07
391.55	225.95
391.92	225.92
392.30	225.93
392.68	225.91
393.05	225.90
393.43	225.90
393.81	225.92
394.18	225.91
394.56	225.88
394.94	225.89
395.31	225.85
395.69	225.88
396.06	225.94
396.44	225.98
396.82	226.02
397.19	226.06
397.57	226.08
397.95	226.08
398.32	226.11
398.70	226.16
399.07	226.24
399.45	226.30
399.82	226.38
400.20	226.45
400.58	226.50
400.95	226.57
401.33	226.68
401.70	226.82
402.08	226.92
402.45	227.04
402.83	227.11
403.20	227.27
403.58	227.34
403.95	227.46
404.33	227.56
404.71	227.69
405.08	227.87
405.46	227.99
405.83	228.14
406.21	228.30
406.58	228.48
406.96	228.63
407.33	228.78
407.70	228.98
408.08	229.23
408.45	229.45
408.83	229.63
409.20	229.84
409.58	230.03
409.95	230.26
410.33	230.56
410.70	230.86
411.08	231.14
411.45	231.47
411.82	231.80
412.20	232.17
412.57	232.59
412.95	232.89
413.32	233.31
413.69	233.76
414.07	234.19
414.44	234.64
414.82	235.15
415.19	235.73
415.56	236.28
415.94	236.79
416.31	237.46
416.68	238.09
417.06	238.78
417.43	239.47
417.81	240.26
418.18	240.98
418.55	241.82
418.93	242.70
419.30	243.59
419.67	244.51
420.04	245.44
420.42	246.45
420.79	247.66
421.16	248.83
421.54	250.01
421.91	251.24
422.28	252.50
422.66	253.80
423.03	255.08
423.40	256.43
423.77	257.90
424.15	259.35
424.52	260.83
424.89	262.45
425.26	263.99
425.64	265.45
426.01	267.12
426.38	268.77
426.75	270.43
427.13	272.17
427.50	274.02
427.87	275.93
428.24	277.74
428.61	279.45
428.99	281.42
429.36	283.53
429.73	285.57
430.10	287.61
430.47	289.68
430.85	291.85
431.22	294.09
431.59	296.41
431.96	298.60
432.33	301.13
432.70	303.51
433.08	306.32
433.45	308.98
433.82	311.56
434.19	314.44
434.56	317.27
434.93	319.89
435.30	322.48
435.68	325.35
436.05	328.20
436.42	330.98
436.79	333.46
437.16	336.14
437.53	338.99
437.90	341.77
438.27	344.54
438.64	347.32
439.01	349.87
439.38	352.09
439.75	354.25
440.13	356.73
440.50	359.01
440.87	360.92
441.24	362.85
441.61	365.03
441.98	366.51
442.35	368.34
442.72	370.19
443.09	371.97
443.46	372.97
443.83	373.58
444.20	374.14
444.57	374.95
444.94	375.21
445.31	375.53
445.68	375.88
446.05	375.91
446.42	375.52
446.79	375.09
447.16	374.67
447.53	374.37
447.90	373.22
448.27	372.10
448.64	370.43
449.01	369.32
449.37	367.32
449.74	365.41
450.11	363.11
450.48	360.63
450.85	358.10
451.22	355.90
451.59	353.86
451.96	351.85
452.33	349.25
452.70	346.86
453.07	344.04
453.43	341.17
453.80	338.43
454.17	335.73
454.54	333.23
454.91	330.50
455.28	327.79
455.65	325.26
456.02	322.81
456.38	320.64
456.75	317.96
457.12	315.72
457.49	313.53
457.86	311.38
458.23	309.55
458.59	307.53
458.96	305.48
459.33	303.60
459.70	301.77
460.07	300.29
460.43	298.63
460.80	296.99
461.17	295.58
461.54	294.07
461.91	292.71
462.27	291.26
462.64	289.99
463.01	288.68
463.38	287.39
463.74	286.04
464.11	284.91
464.48	283.88
464.85	282.74
465.21	281.86
465.58	280.93
465.95	279.86
466.32	278.97
466.68	278.10
467.05	277.25
467.42	276.37
467.78	275.43
468.15	274.54
468.52	273.88
468.88	273.00
469.25	272.23
469.62	271.59
469.98	270.88
470.35	270.27
470.72	269.67
471.08	269.04
471.45	268.53
471.82	268.01
472.18	267.37
472.55	266.96
472.92	266.46
473.28	266.02
473.65	265.57
474.02	265.13
474.38	264.73
474.75	264.42
475.11	264.07
475.48	263.81
475.85	263.61
476.21	263.39
476.58	263.23
476.94	263.11
477.31	262.92
477.67	262.81
478.04	262.72
478.41	262.65
478.77	262.71
479.14	262.66
479.50	262.64
479.87	262.77
480.23	262.87
480.60	262.94
480.96	263.06
481.33	263.25
481.69	263.44
482.06	263.63
482.42	263.82
482.79	264.11
483.15	264.42
483.52	264.81
483.88	265.16
484.25	265.51
484.61	265.93
484.98	266.44
485.34	267.02
485.71	267.58
486.07	268.20
486.44	268.76
486.80	269.44
487.17	270.19
487.53	270.96
487.90	271.84
488.26	272.77
488.62	273.76
488.99	274.74
489.35	275.82
489.72	276.98
490.08	278.18
490.44	279.41
490.81	280.77
491.17	282.11
491.54	283.58
491.90	285.14
492.26	286.79
492.63	288.49
492.99	290.29
493.36	292.25
493.72	294.29
494.08	296.44
494.45	298.66
494.81	301.02
495.17	303.49
495.54	306.06
495.90	308.72
496.26	311.52
496.63	314.49
496.99	317.57
497.35	320.78
497.72	324.18
498.08	327.68
498.44	331.38
498.80	335.31
499.17	339.40
499.53	343.57
499.89	347.94
500.26	352.47
500.62	357.09
500.98	361.99
501.34	367.07
501.71	372.39
502.07	377.85
502.43	383.40
502.79	389.29
503.16	395.31
503.52	401.61
503.88	408.04
504.24	414.63
504.60	421.49
504.97	428.67
505.33	435.97
505.69	443.74
506.05	451.49
506.41	459.39
506.78	467.55
507.14	476.07
507.50	484.79
507.86	493.81
508.22	503.02
508.59	512.26
508.95	521.84
509.31	531.67
509.67	541.82
510.03	552.14
510.39	562.63
510.75	573.46
511.12	584.38
511.48	595.62
511.84	607.09
512.20	618.59
512.56	630.57
512.92	642.75
513.28	655.05
513.64	667.51
514.00	680.18
514.37	693.09
514.73	706.06
515.09	719.05
515.45	732.37
515.81	745.94
516.17	759.87
516.53	774.02
516.89	788.14
517.25	802.26
517.61	816.70
517.97	831.17
518.33	845.62
518.69	860.41
519.05	875.44
519.41	890.55
519.77	906.10
520.13	921.54
520.49	936.96
520.85	952.32
521.21	968.02
521.57	984.27
521.93	1000.01
522.29	1016.35
522.65	1032.70
523.01	1048.81
523.37	1064.88
523.73	1081.14
524.09	1097.15
524.45	1113.34
524.81	1129.96
525.17	1146.72
525.53	1163.57
525.89	1180.36
526.25	1197.17
526.61	1213.56
526.97	1230.39
527.33	1246.88
527.68	1263.34
528.04	1279.84
528.40	1296.41
528.76	1313.48
529.12	1330.06
529.48	1346.93
529.84	1363.02
530.20	1379.45
530.56	1396.33
530.91	1413.73
531.27	1430.38
531.63	1446.75
531.99	1463.47
532.35	1479.40
532.71	1495.23
533.07	1511.50
533.42	1527.34
533.78	1543.21
534.14	1559.36
534.50	1574.43
534.86	1590.18
535.21	1605.48
535.57	1621.27
535.93	1636.66
536.29	1651.26
536.65	1666.15
537.00	1680.81
537.36	1695.92
537.72	1710.50
538.08	1725.14
538.44	1738.73
538.79	1752.53
539.15	1766.15
539.51	1779.67
539.87	1793.91
540.22	1807.52
540.58	1821.11
540.94	1834.32
541.29	1847.11
541.65	1859.85
542.01	1873.10
542.37	1885.44
542.72	1897.71
543.08	1909.45
543.44	1921.73
543.79	1933.00
544.15	1943.92
544.51	1955.43
544.87	1966.34
545.22	1976.91
545.58	1986.88
545.94	1996.62
546.29	2006.43
546.65	2016.32
547.01	2025.60
547.36	2034.29
547.72	2042.58
548.07	2050.26
548.43	2058.32
548.79	2066.45
549.14	2073.79
549.50	2081.12
549.86	2088.70
550.21	2095.92
550.57	2103.01
550.92	2109.55
551.28	2116.58
551.64	2123.62
551.99	2130.04
552.35	2136.14
552.70	2142.37
553.06	2148.33
553.41	2154.65
553.77	2160.65
554.13	2166.63
554.48	2172.72
554.84	2178.10
555.19	2183.51
555.55	2188.73
555.90	2193.40
556.26	2198.16
556.61	2202.85
556.97	2207.26
557.32	2211.28
557.68	2215.46
558.03	2219.75
558.39	2223.42
558.74	2227.99
559.10	2231.97
559.45	2235.72
559.81	2239.97
560.16	2243.81
560.52	2247.02
560.87	2250.46
561.23	2253.12
561.58	2256.05
561.94	2258.54
562.29	2261.07
562.64	2263.72
563.00	2266.35
563.35	2269.81
563.71	2272.89
564.06	2276.01
564.42	2278.71
564.77	2281.34
565.12	2283.55
565.48	2285.62
565.83	2287.64
566.19	2289.01
566.54	2289.87
566.89	2291.17
567.25	2292.04
567.60	2293.29
567.96	2295.12
568.31	2295.93
568.66	2297.24
569.02	2297.91
569.37	2298.33
569.72	2299.20
570.08	2299.45
570.43	2299.53
570.78	2298.98
571.14	2297.60
571.49	2296.51
571.84	2296.21
572.20	2295.06
572.55	2294.09
572.90	2292.30
573.26	2291.00
573.61	2289.34
573.96	2287.62
574.31	2284.51
574.67	2281.34
575.02	2277.87
575.37	2274.45
575.72	2270.74
576.08	2267.21
576.43	2263.75
576.78	2260.18
577.13	2256.95
577.49	2253.81
577.84	2250.49
578.19	2246.64
578.54	2243.00
578.90	2238.81
579.25	2233.36
579.60	2228.48
579.95	2223.53
580.30	2218.70
580.66	2213.38
581.01	2208.39
581.36	2203.57
581.71	2199.49
582.06	2195.14
582.42	2190.66
582.77	2185.36
583.12	2180.81
583.47	2176.10
583.82	2171.32
584.17	2166.05
584.53	2160.52
584.88	2155.02
585.23	2149.16
585.58	2143.86
585.93	2138.45
586.28	2133.58
586.63	2128.47
586.98	2123.34
587.34	2118.59
587.69	2113.69
588.04	2108.49
588.39	2102.96
588.74	2096.30
589.09	2090.15
589.44	2083.48
589.79	2077.45
590.14	2071.89
590.49	2065.37
590.84	2058.98
591.19	2052.93
591.54	2046.56
591.89	2039.26
592.25	2032.44
592.60	2025.26
592.95	2017.67
593.30	2010.34
593.65	2002.86
594.00	1995.67
594.35	1988.44
594.70	1980.41
595.05	1973.22
595.40	1966.06
595.75	1958.47
596.10	1952.35
596.45	1945.70
596.80	1939.41
597.15	1932.85
597.50	1925.84
597.85	1919.37
598.19	1912.84
598.54	1905.84
598.89	1899.25
599.24	1893.39
599.59	1886.78
599.94	1880.60
600.29	1874.27
600.64	1867.71
600.99	1860.31
601.34	1853.66
601.69	1846.80
602.04	1839.97
602.39	1832.73
602.74	1825.91
603.08	1819.20
603.43	1812.54
603.78	1805.17
604.13	1797.99
604.48	1790.63
604.83	1783.79
605.18	1776.90
605.53	1768.98
605.87	1760.94
606.22	1753.50
606.57	1745.57
606.92	1738.29
607.27	1731.16
607.62	1724.28
607.96	1717.06
608.31	1710.45
608.66	1702.93
609.01	1695.40
609.36	1687.92
609.70	1679.80
610.05	1671.75
610.40	1664.02
610.75	1655.73
611.10	1648.07
611.44	1639.59
611.79	1631.69
612.14	1623.00
612.49	1613.67
612.83	1605.22
613.18	1597.12
613.53	1589.05
613.88	1580.50
614.22	1572.13
614.57	1563.57
614.92	1555.62
615.27	1547.99
615.61	1539.72
615.96	1531.61
616.31	1523.91
616.65	1516.46
617.00	1508.89
617.35	1501.14
617.70	1492.80
618.04	1484.34
618.39	1476.19
618.74	1468.68
619.08	1460.39
619.43	1452.80
619.78	1446.00
620.12	1438.91
620.47	1431.32
620.82	1423.22
621.16	1415.84
621.51	1408.15
621.85	1400.44
622.20	1391.90
622.55	1383.52
622.89	1375.61
623.24	1367.96
623.59	1360.62
623.93	1353.14
624.28	1346.04
624.62	1338.63
624.97	1331.53
625.32	1324.61
625.66	1317.55
626.01	1310.40
626.35	1302.98
626.70	1295.25
627.04	1287.56
627.39	1279.73
627.73	1272.24
628.08	1265.27
628.43	1257.98
628.77	1250.73
629.12	1243.21
629.46	1236.05
629.81	1228.68
630.15	1221.34
630.50	1214.03
630.84	1205.83
631.19	1197.79
631.53	1190.23
631.88	1182.53
632.22	1174.84
632.57	1167.70
632.91	1160.15
633.26	1152.67
633.60	1145.30
633.95	1138.14
634.29	1131.06
634.64	1124.32
634.98	1117.05
635.32	1109.87
635.67	1103.21
636.01	1096.56
636.36	1089.75
636.70	1083.14
637.05	1076.57
637.39	1070.24
637.73	1063.71
638.08	1057.87
638.42	1051.97
638.77	1045.54
639.11	1039.04
639.45	1032.71
639.80	1025.97
640.14	1019.57
640.49	1013.04
640.83	1006.72
641.17	1000.56
641.52	994.17
641.86	987.70
642.20	981.86
642.55	975.60
642.89	969.12
643.23	962.56
643.58	956.76
643.92	950.56
644.26	944.52
644.61	938.39
644.95	932.41
645.29	925.80
645.64	919.08
645.98	912.71
646.32	906.84
646.66	900.83
647.01	895.08
647.35	889.33
647.69	883.52
648.04	877.89
648.38	872.05
648.72	866.11
649.06	860.07
649.41	854.18
649.75	848.23
650.09	842.37
650.43	836.60
650.78	830.46
651.12	824.52
651.46	818.85
651.80	813.17
652.14	807.75
652.49	802.40
652.83	797.21
653.17	791.57
653.51	785.92
653.85	780.50
654.20	774.81
654.54	768.90
654.88	763.14
655.22	757.31
655.56	751.62
655.90	746.21
656.25	741.04
656.59	735.68
656.93	730.58
657.27	725.40
657.61	719.97
657.95	714.88
658.29	709.77
658.64	704.47
658.98	699.15
659.32	693.66
659.66	688.44
660.00	683.10
660.34	678.16
660.68	673.19
661.02	668.15
661.36	663.50
661.70	658.89
662.05	654.53
662.39	650.23
662.73	645.84
663.07	641.43
663.41	636.91
663.75	632.37
664.09	627.84
664.43	623.40
664.77	619.30
665.11	615.06
665.45	610.97
665.79	606.85
666.13	602.76
666.47	598.64
666.81	594.48
667.15	590.37
667.49	586.37
667.83	582.56
668.17	578.59
668.51	574.46
668.85	570.45
669.19	566.61
669.53	562.74
669.87	558.81
670.21	555.10
670.55	551.49
670.89	548.08
671.23	544.62
671.57	541.16
671.91	537.56
672.25	534.05
672.58	530.55
672.92	527.11
673.26	523.91
673.60	520.78
673.94	517.65
674.28	514.79
674.62	511.86
674.96	508.73
675.30	505.87
675.64	502.98
675.97	500.20
676.31	497.31
676.65	494.40
676.99	491.72
677.33	488.83
677.67	485.97
678.01	482.96
678.34	479.94
678.68	477.01
679.02	474.22
679.36	471.41
679.70	468.64
680.04	465.94
680.37	463.08
680.71	460.22
681.05	457.59
681.39	454.80
681.73	452.17
682.06	449.69
682.40	447.10
682.74	444.55
683.08	441.97
683.42	439.40
683.75	436.91
684.09	434.33
684.43	431.88
684.77	429.49
685.10	427.18
685.44	424.87
685.78	422.63
686.12	420.39
686.45	418.10
686.79	415.83
687.13	413.64
687.46	411.47
687.80	409.33
688.14	407.14
688.48	405.17
688.81	402.93
689.15	400.75
689.49	398.62
689.82	396.54
690.16	394.47
690.50	392.51
690.83	390.50
691.17	388.51
691.51	386.67
691.84	384.76
692.18	382.79
692.52	380.81
692.85	378.85
693.19	376.92
693.52	375.11
693.86	373.30
694.20	371.49
694.53	369.70
694.87	367.87
695.21	366.08
695.54	364.19
695.88	362.50
696.21	360.80
696.55	359.16
696.88	357.51
697.22	355.86
697.56	354.20
697.89	352.53
698.23	350.95
698.56	349.29
698.90	347.74
699.23	346.12
699.57	344.58
699.90	343.02
700.24	341.50
700.58	339.97
700.91	338.50
701.25	337.04
701.58	335.65
701.92	334.31
702.25	332.92
702.59	331.57
702.92	330.19
703.26	328.87
703.59	327.55
703.93	326.31
704.26	325.09
704.60	323.82
704.93	322.59
705.26	321.31
705.60	320.15
705.93	318.97
706.27	317.90
706.60	316.86
706.94	315.77
707.27	314.63
707.61	313.56
707.94	312.49
708.27	311.45
708.61	310.33
708.94	309.27
709.28	308.31
709.61	307.32
709.94	306.39
710.28	305.39
710.61	304.44
710.95	303.36
711.28	302.42
711.61	301.44
711.95	300.52
712.28	299.56
712.61	298.55
712.95	297.60
713.28	296.71
713.61	295.80
713.95	294.97
714.28	294.12
714.61	293.25
714.95	292.41
715.28	291.52
715.61	290.68
715.95	289.84
716.28	288.94
716.61	288.06
716.95	287.23
717.28	286.44
717.61	285.65
717.94	284.90
718.28	284.10
718.61	283.40
718.94	282.68
719.27	282.04
719.61	281.41
719.94	280.74
720.27	280.05
720.60	279.40
720.94	278.73
721.27	278.11
721.60	277.55
721.93	276.91
722.27	276.39
722.60	275.84
722.93	275.28
723.26	274.75
723.59	274.23
723.93	273.68
724.26	273.12
724.59	272.60
724.92	272.07
725.25	271.55
725.59	271.06
725.92	270.58
726.25	270.07
726.58	269.56
726.91	269.13
727.24	268.66
727.57	268.17
727.91	267.67
728.24	267.26
728.57	266.76
728.90	266.33
729.23	265.84
729.56	265.42
729.89	264.94
730.22	264.49
730.55	264.07
730.89	263.62
731.22	263.20
731.55	262.77
731.88	262.36
732.21	261.95
732.54	261.52
732.87	261.11
733.20	260.74
733.53	260.39
733.86	259.99
734.19	259.59
734.52	259.25
734.85	258.95
735.18	258.55
735.51	258.21
735.84	257.85
736.17	257.50
736.50	257.11
736.83	256.88
737.16	256.56
737.49	256.22
737.82	255.85
738.15	255.53
738.48	255.19
738.81	254.88
739.14	254.55
739.47	254.23
739.80	253.93
740.13	253.60
740.46	253.27
740.79	252.95
741.12	252.68
741.45	252.38
741.78	252.04
742.11	251.72
742.44	251.37
742.77	251.06
743.10	250.76
743.43	250.43
743.75	250.05
744.08	249.91
744.41	249.67
744.74	249.43
745.07	249.13
745.40	248.90
745.73	248.67
746.06	248.39
746.39	248.13
746.71	247.82
747.04	247.56
747.37	247.27
747.70	247.02
748.03	246.73
748.36	246.46
748.68	246.22
749.01	246.00
749.34	245.77
749.67	245.53
750.00	245.32
750.33	245.19
750.65	244.96
750.98	244.59
751.31	244.33
751.64	244.11
751.97	243.97
752.29	243.72
752.62	243.47
752.95	243.27
753.28	243.06
753.60	242.87
753.93	242.69
754.26	242.46
754.59	242.22
754.91	242.00
755.24	241.77
755.57	241.60
755.90	241.40
756.22	241.20
756.55	241.02
756.88	240.79
757.20	240.53
757.53	240.34
757.86	240.15
758.19	239.99
758.51	239.82
758.84	239.57
759.17	239.36
759.49	239.22
759.82	239.08
760.15	238.92
760.47	238.77
760.80	238.58
761.13	238.44
761.45	238.32
761.78	238.17
762.11	238.05
762.43	237.88
762.76	237.73
763.08	237.61
763.41	237.46
763.74	237.33
764.06	237.21
764.39	237.07
764.71	236.95
765.04	236.78
765.37	236.62
765.69	236.51
766.02	236.41
766.34	236.24
766.67	236.07
767.00	235.97
767.32	235.90
767.65	235.86
767.97	235.81
768.30	235.69
768.62	235.59
768.95	235.48
769.27	235.39
769.60	235.29
769.92	235.23
770.25	235.15
770.57	235.04
770.90	234.95
771.22	234.82
771.55	234.75
771.87	234.69
772.20	234.60
772.52	234.56
772.85	234.60
773.17	234.57
773.50	234.51
773.82	234.41
774.15	234.27
774.47	234.13
774.80	233.99
775.12	233.92
775.45	233.84
775.77	233.78
776.09	233.70
776.42	233.62
776.74	233.53
777.07	233.42
777.39	233.37
777.72	233.29
778.04	233.23
778.36	233.16
778.69	233.11
779.01	233.05
779.33	232.90
779.66	232.71
779.98	232.61
780.31	232.53
780.63	232.50
780.95	232.47
781.28	232.40
781.60	232.35
781.92	232.25
782.25	232.21
782.57	232.15
782.89	232.09
783.22	232.04
783.54	231.98
783.86	231.92
784.19	231.84
784.51	231.79
784.83	231.71
785.16	231.62
785.48	231.56
785.80	231.56
786.12	231.55
786.45	231.51
786.77	231.47
787.09	231.39
