SpectraSuite Data File
++++++++++++++++++++++++++++++++++++
Date: Fri Feb 01 16:52:10 EST 2013
User: group
Dark Spectrum Present: No
Reference Spectrum Present: No
Number of Sampled Component Spectra: 1
Spectrometers: USB2E7196
Integration Time (usec): 35000 (USB2E7196)
Spectra Averaged: 100 (USB2E7196)
Boxcar Smoothing: 10 (USB2E7196)
Correct for Electrical Dark: No (USB2E7196)
Strobe/Lamp Enabled: No (USB2E7196)
Correct for Detector Non-linearity: No (USB2E7196)
Correct for Stray Light: No (USB2E7196)
Number of Pixels in Processed Spectrum: 2048
>>>>>Begin Processed Spectral Data<<<<<
339.09	0.00
339.48	212.88
339.86	214.46
340.24	216.20
340.63	216.94
341.01	220.45
341.39	220.27
341.78	221.57
342.16	222.53
342.54	223.25
342.93	211.53
343.31	222.23
343.69	222.80
344.07	223.26
344.46	223.68
344.84	224.08
345.22	224.34
345.60	224.59
345.99	224.76
346.37	224.90
346.75	225.00
347.13	225.10
347.52	225.19
347.90	225.28
348.28	225.28
348.66	225.34
349.05	225.33
349.43	225.36
349.81	225.44
350.19	225.51
350.57	225.59
350.96	225.63
351.34	225.72
351.72	225.80
352.10	225.90
352.48	225.97
352.87	226.01
353.25	226.05
353.63	226.09
354.01	226.16
354.39	226.26
354.77	226.33
355.15	226.43
355.54	226.47
355.92	226.47
356.30	226.53
356.68	226.66
357.06	226.74
357.44	226.79
357.82	226.84
358.20	226.92
358.58	226.95
358.97	227.02
359.35	227.10
359.73	227.17
360.11	227.24
360.49	227.28
360.87	227.34
361.25	227.40
361.63	227.49
362.01	227.56
362.39	227.55
362.77	227.59
363.15	227.61
363.53	227.62
363.91	227.67
364.29	227.68
364.67	227.61
365.05	227.60
365.43	227.66
365.81	227.69
366.19	227.73
366.57	227.81
366.95	227.79
367.33	227.75
367.71	227.74
368.09	227.73
368.47	227.73
368.85	227.71
369.23	227.74
369.61	227.65
369.99	227.64
370.37	227.66
370.75	227.65
371.13	227.63
371.51	227.60
371.89	227.58
372.27	227.56
372.65	227.52
373.03	227.49
373.41	227.42
373.78	227.34
374.16	227.24
374.54	227.12
374.92	227.05
375.30	227.01
375.68	226.92
376.06	226.88
376.44	226.79
376.82	226.74
377.19	226.63
377.57	226.57
377.95	226.48
378.33	226.36
378.71	226.27
379.09	226.20
379.47	226.13
379.84	226.04
380.22	226.00
380.60	225.90
380.98	225.84
381.36	225.77
381.73	225.71
382.11	225.63
382.49	225.59
382.87	225.54
383.25	225.46
383.62	225.53
384.00	225.43
384.38	225.39
384.76	225.33
385.13	225.35
385.51	225.33
385.89	225.28
386.27	225.28
386.64	225.24
387.02	225.19
387.40	225.18
387.78	225.15
388.15	225.08
388.53	225.05
388.91	225.03
389.29	225.02
389.66	225.05
390.04	225.04
390.42	225.02
390.79	225.00
391.17	225.02
391.55	224.89
391.92	224.88
392.30	224.88
392.68	224.90
393.05	224.89
393.43	224.89
393.81	224.91
394.18	224.87
394.56	224.88
394.94	224.89
395.31	224.90
395.69	224.95
396.06	225.01
396.44	225.04
396.82	225.06
397.19	225.15
397.57	225.12
397.95	225.17
398.32	225.21
398.70	225.26
399.07	225.32
399.45	225.38
399.82	225.45
400.20	225.47
400.58	225.54
400.95	225.52
401.33	225.59
401.70	225.75
402.08	225.84
402.45	225.89
402.83	226.00
403.20	226.08
403.58	226.15
403.95	226.25
404.33	226.36
404.71	226.47
405.08	226.63
405.46	226.76
405.83	226.92
406.21	227.05
406.58	227.22
406.96	227.38
407.33	227.56
407.70	227.75
408.08	228.05
408.45	228.23
408.83	228.49
409.20	228.70
409.58	228.83
409.95	229.06
410.33	229.36
410.70	229.60
411.08	229.91
411.45	230.22
411.82	230.51
412.20	230.87
412.57	231.30
412.95	231.58
413.32	231.97
413.69	232.34
414.07	232.77
414.44	233.21
414.82	233.68
415.19	234.22
415.56	234.76
415.94	235.30
416.31	235.92
416.68	236.55
417.06	237.25
417.43	237.94
417.81	238.74
418.18	239.51
418.55	240.36
418.93	241.19
419.30	242.07
419.67	243.02
420.04	243.96
420.42	244.94
420.79	246.12
421.16	247.23
421.54	248.42
421.91	249.62
422.28	250.86
422.66	252.21
423.03	253.48
423.40	254.81
423.77	256.22
424.15	257.64
424.52	259.15
424.89	260.77
425.26	262.30
425.64	263.74
426.01	265.32
426.38	266.97
426.75	268.63
427.13	270.36
427.50	272.17
427.87	274.06
428.24	275.92
428.61	277.64
428.99	279.62
429.36	281.71
429.73	283.78
430.10	285.83
430.47	287.85
430.85	289.97
431.22	292.20
431.59	294.52
431.96	296.76
432.33	299.17
432.70	301.51
433.08	304.31
433.45	306.92
433.82	309.51
434.19	312.37
434.56	315.14
434.93	317.78
435.30	320.38
435.68	323.24
436.05	325.99
436.42	328.74
436.79	331.25
437.16	333.95
437.53	336.73
437.90	339.49
438.27	342.21
438.64	344.97
439.01	347.55
439.38	349.80
439.75	351.95
440.13	354.43
440.50	356.79
440.87	358.62
441.24	360.54
441.61	362.66
441.98	364.11
442.35	365.95
442.72	367.79
443.09	369.54
443.46	370.51
443.83	371.13
444.20	371.71
444.57	372.51
444.94	372.79
445.31	373.10
445.68	373.47
446.05	373.54
446.42	373.22
446.79	372.79
447.16	372.34
447.53	372.05
447.90	370.90
448.27	369.72
448.64	368.14
449.01	367.04
449.37	365.12
449.74	363.28
450.11	361.07
450.48	358.62
450.85	356.11
451.22	354.01
451.59	352.03
451.96	350.03
452.33	347.45
452.70	345.11
453.07	342.32
453.43	339.42
453.80	336.69
454.17	334.02
454.54	331.48
454.91	328.77
455.28	326.12
455.65	323.61
456.02	321.17
456.38	319.05
456.75	316.41
457.12	314.14
457.49	311.92
457.86	309.70
458.23	307.89
458.59	305.87
458.96	303.79
459.33	301.92
459.70	300.11
460.07	298.65
460.43	296.92
460.80	295.34
461.17	293.92
461.54	292.44
461.91	291.02
462.27	289.62
462.64	288.40
463.01	287.07
463.38	285.83
463.74	284.46
464.11	283.31
464.48	282.29
464.85	281.23
465.21	280.39
465.58	279.51
465.95	278.40
466.32	277.51
466.68	276.63
467.05	275.75
467.42	274.87
467.78	273.94
468.15	273.11
468.52	272.47
468.88	271.64
469.25	270.86
469.62	270.27
469.98	269.60
470.35	269.00
470.72	268.41
471.08	267.76
471.45	267.23
471.82	266.74
472.18	266.12
472.55	265.69
472.92	265.21
473.28	264.75
473.65	264.35
474.02	263.92
474.38	263.58
474.75	263.29
475.11	262.97
475.48	262.72
475.85	262.53
476.21	262.35
476.58	262.18
476.94	262.07
477.31	261.90
477.67	261.76
478.04	261.65
478.41	261.61
478.77	261.69
479.14	261.66
479.50	261.72
479.87	261.85
480.23	261.94
480.60	262.03
480.96	262.13
481.33	262.38
481.69	262.59
482.06	262.77
482.42	262.96
482.79	263.21
483.15	263.55
483.52	263.92
483.88	264.24
484.25	264.63
484.61	265.07
484.98	265.56
485.34	266.14
485.71	266.70
486.07	267.31
486.44	267.89
486.80	268.59
487.17	269.27
487.53	270.05
487.90	270.94
488.26	271.86
488.62	272.88
488.99	273.83
489.35	274.88
489.72	276.00
490.08	277.18
490.44	278.44
490.81	279.79
491.17	281.14
491.54	282.64
491.90	284.15
492.26	285.80
492.63	287.49
492.99	289.21
493.36	291.10
493.72	293.10
494.08	295.16
494.45	297.41
494.81	299.79
495.17	302.24
495.54	304.76
495.90	307.47
496.26	310.22
496.63	313.17
496.99	316.30
497.35	319.55
497.72	323.01
498.08	326.47
498.44	330.08
498.80	334.00
499.17	338.00
499.53	342.14
499.89	346.50
500.26	351.01
500.62	355.71
500.98	360.67
501.34	365.71
501.71	371.05
502.07	376.48
502.43	382.07
502.79	387.83
503.16	393.85
503.52	400.10
503.88	406.51
504.24	413.05
504.60	419.88
504.97	426.94
505.33	434.14
505.69	441.90
506.05	449.64
506.41	457.46
506.78	465.54
507.14	473.94
507.50	482.53
507.86	491.48
508.22	500.59
508.59	509.69
508.95	519.20
509.31	528.98
509.67	539.03
510.03	549.25
510.39	559.86
510.75	570.57
511.12	581.36
511.48	592.53
511.84	603.92
512.20	615.32
512.56	627.20
512.92	639.34
513.28	651.46
513.64	663.81
514.00	676.47
514.37	689.30
514.73	702.25
515.09	715.23
515.45	728.43
515.81	741.87
516.17	755.77
516.53	769.74
516.89	783.67
517.25	797.64
517.61	811.90
517.97	826.09
518.33	840.39
518.69	855.00
519.05	869.92
519.41	884.95
519.77	900.28
520.13	915.57
520.49	930.80
520.85	946.06
521.21	961.57
521.57	977.52
521.93	993.05
522.29	1009.26
522.65	1025.22
523.01	1041.13
523.37	1056.91
523.73	1072.78
524.09	1088.67
524.45	1104.77
524.81	1121.20
525.17	1137.63
525.53	1154.31
525.89	1170.96
526.25	1187.59
526.61	1203.67
526.97	1220.07
527.33	1236.34
527.68	1252.66
528.04	1268.88
528.40	1285.14
528.76	1301.88
529.12	1318.21
529.48	1334.96
529.84	1350.66
530.20	1367.10
530.56	1383.82
530.91	1401.03
531.27	1417.59
531.63	1433.80
531.99	1450.26
532.35	1465.91
532.71	1481.67
533.07	1497.68
533.42	1513.32
533.78	1529.10
534.14	1545.04
534.50	1560.29
534.86	1575.96
535.21	1591.02
535.57	1606.61
535.93	1621.87
536.29	1636.54
536.65	1651.37
537.00	1665.77
537.36	1680.85
537.72	1695.18
538.08	1709.51
538.44	1723.16
538.79	1736.81
539.15	1750.28
539.51	1763.86
539.87	1778.04
540.22	1791.46
540.58	1804.96
540.94	1818.05
541.29	1830.61
541.65	1843.20
542.01	1856.20
542.37	1868.35
542.72	1880.50
543.08	1892.16
543.44	1904.39
543.79	1915.47
544.15	1926.23
544.51	1937.68
544.87	1948.55
545.22	1959.20
545.58	1969.21
545.94	1978.70
546.29	1988.43
546.65	1998.20
547.01	2007.08
547.36	2015.67
547.72	2024.10
548.07	2031.80
548.43	2039.86
548.79	2047.79
549.14	2055.21
549.50	2062.31
549.86	2069.67
550.21	2076.88
550.57	2084.00
550.92	2090.54
551.28	2097.34
551.64	2104.34
551.99	2110.78
552.35	2116.78
552.70	2122.92
553.06	2128.89
553.41	2135.20
553.77	2140.98
554.13	2147.05
554.48	2153.32
554.84	2158.82
555.19	2163.90
555.55	2169.16
555.90	2173.64
556.26	2178.53
556.61	2183.28
556.97	2187.80
557.32	2192.08
557.68	2196.16
558.03	2200.38
558.39	2204.13
558.74	2208.94
559.10	2212.92
559.45	2216.63
559.81	2220.95
560.16	2224.76
560.52	2228.12
560.87	2231.58
561.23	2234.52
561.58	2237.52
561.94	2240.05
562.29	2242.48
562.64	2245.46
563.00	2247.93
563.35	2251.46
563.71	2254.68
564.06	2257.94
564.42	2260.87
564.77	2263.45
565.12	2265.93
565.48	2268.01
565.83	2270.05
566.19	2271.52
566.54	2272.42
566.89	2273.67
567.25	2274.44
567.60	2275.75
567.96	2277.57
568.31	2278.64
568.66	2279.98
569.02	2280.61
569.37	2281.05
569.72	2282.08
570.08	2282.44
570.43	2282.71
570.78	2282.32
571.14	2280.92
571.49	2279.69
571.84	2279.38
572.20	2278.40
572.55	2277.41
572.90	2275.87
573.26	2274.55
573.61	2272.86
573.96	2271.35
574.31	2268.67
574.67	2265.91
575.02	2262.60
575.37	2259.24
575.72	2255.61
576.08	2252.24
576.43	2249.04
576.78	2245.62
577.13	2242.57
577.49	2239.52
577.84	2236.25
578.19	2232.63
578.54	2229.25
578.90	2225.22
579.25	2219.87
579.60	2215.26
579.95	2210.49
580.30	2205.67
580.66	2200.81
581.01	2196.06
581.36	2191.33
581.71	2187.25
582.06	2182.92
582.42	2178.57
582.77	2173.51
583.12	2169.14
583.47	2164.76
583.82	2160.00
584.17	2154.91
584.53	2149.53
584.88	2144.05
585.23	2138.43
585.58	2133.15
585.93	2127.83
586.28	2123.13
586.63	2118.24
586.98	2113.15
587.34	2108.56
587.69	2103.89
588.04	2098.72
588.39	2093.23
588.74	2086.87
589.09	2080.84
589.44	2074.14
589.79	2068.20
590.14	2062.74
590.49	2056.15
590.84	2049.78
591.19	2043.84
591.54	2037.51
591.89	2030.46
592.25	2023.96
592.60	2016.90
592.95	2009.55
593.30	2002.45
593.65	1995.01
594.00	1988.00
594.35	1980.99
594.70	1973.09
595.05	1966.05
595.40	1958.80
595.75	1951.41
596.10	1945.44
596.45	1938.85
596.80	1933.06
597.15	1926.56
597.50	1919.64
597.85	1913.36
598.19	1906.88
598.54	1899.89
598.89	1893.28
599.24	1887.29
599.59	1880.61
599.94	1874.59
600.29	1868.27
600.64	1861.65
600.99	1854.39
601.34	1847.75
601.69	1840.76
602.04	1834.08
602.39	1826.83
602.74	1820.20
603.08	1813.53
603.43	1806.89
603.78	1799.59
604.13	1792.29
604.48	1785.12
604.83	1778.31
605.18	1771.50
605.53	1763.65
605.87	1755.72
606.22	1748.61
606.57	1740.84
606.92	1733.58
607.27	1726.45
607.62	1719.67
607.96	1712.54
608.31	1706.07
608.66	1698.49
609.01	1691.06
609.36	1683.50
609.70	1675.59
610.05	1667.66
610.40	1660.12
610.75	1651.90
611.10	1644.30
611.44	1635.86
611.79	1627.97
612.14	1619.37
612.49	1610.27
612.83	1601.91
613.18	1593.94
613.53	1585.98
613.88	1577.44
614.22	1569.26
614.57	1560.68
614.92	1552.76
615.27	1545.27
615.61	1536.93
615.96	1529.04
616.31	1521.51
616.65	1514.10
617.00	1506.53
617.35	1498.72
617.70	1490.42
618.04	1481.89
618.39	1473.81
618.74	1466.33
619.08	1458.05
619.43	1450.36
619.78	1443.36
620.12	1436.24
620.47	1428.71
620.82	1420.37
621.16	1412.98
621.51	1405.25
621.85	1397.61
622.20	1389.06
622.55	1380.64
622.89	1372.83
623.24	1365.12
623.59	1357.64
623.93	1350.22
624.28	1343.02
624.62	1335.64
624.97	1328.54
625.32	1321.72
625.66	1314.60
626.01	1307.43
626.35	1300.00
626.70	1292.35
627.04	1284.63
627.39	1276.80
627.73	1269.28
628.08	1262.43
628.43	1255.17
628.77	1247.92
629.12	1240.34
629.46	1233.21
629.81	1225.85
630.15	1218.65
630.50	1211.24
630.84	1203.11
631.19	1195.08
631.53	1187.62
631.88	1180.07
632.22	1172.47
632.57	1165.20
632.91	1157.67
633.26	1150.25
633.60	1142.88
633.95	1135.78
634.29	1128.77
634.64	1122.09
634.98	1114.91
635.32	1107.74
635.67	1101.11
636.01	1094.50
636.36	1087.81
636.70	1081.19
637.05	1074.61
637.39	1068.16
637.73	1061.72
638.08	1055.78
638.42	1049.84
638.77	1043.40
639.11	1036.83
639.45	1030.37
639.80	1023.76
640.14	1017.35
640.49	1010.94
640.83	1004.60
641.17	998.46
641.52	992.13
641.86	985.63
642.20	979.73
642.55	973.48
642.89	967.10
643.23	960.51
643.58	954.73
643.92	948.61
644.26	942.59
644.61	936.50
644.95	930.46
645.29	923.87
645.64	917.09
645.98	910.71
646.32	904.89
646.66	898.85
647.01	893.06
647.35	887.43
647.69	881.51
648.04	876.05
648.38	870.21
648.72	864.31
649.06	858.32
649.41	852.38
649.75	846.47
650.09	840.45
650.43	834.65
650.78	828.47
651.12	822.58
651.46	816.83
651.80	811.14
652.14	805.76
652.49	800.49
652.83	795.41
653.17	789.75
653.51	783.98
653.85	778.64
654.20	773.04
654.54	766.98
654.88	761.18
655.22	755.28
655.56	749.55
655.90	744.15
656.25	738.94
656.59	733.55
656.93	728.41
657.27	723.31
657.61	717.94
657.95	712.85
658.29	707.65
658.64	702.43
658.98	697.14
659.32	691.72
659.66	686.52
660.00	681.22
660.34	676.31
660.68	671.37
661.02	666.32
661.36	661.59
661.70	657.16
662.05	652.97
662.39	648.71
662.73	644.26
663.07	639.82
663.41	635.33
663.75	630.97
664.09	626.46
664.43	622.03
664.77	617.92
665.11	613.69
665.45	609.64
665.79	605.52
666.13	601.35
666.47	597.24
666.81	593.09
667.15	588.95
667.49	584.99
667.83	581.20
668.17	577.25
668.51	573.19
668.85	569.17
669.19	565.28
669.53	561.43
669.87	557.59
670.21	553.91
670.55	550.32
670.89	546.82
671.23	543.40
671.57	539.93
671.91	536.43
672.25	532.95
672.58	529.41
672.92	526.01
673.26	522.88
673.60	519.69
673.94	516.57
674.28	513.67
674.62	510.81
674.96	507.69
675.30	504.79
675.64	501.92
675.97	499.09
676.31	496.19
676.65	493.27
676.99	490.59
677.33	487.66
677.67	484.80
678.01	481.82
678.34	478.82
678.68	475.92
679.02	473.07
679.36	470.27
679.70	467.55
680.04	464.82
680.37	461.93
680.71	459.18
681.05	456.54
681.39	453.83
681.73	451.07
682.06	448.58
682.40	446.02
682.74	443.45
683.08	440.92
683.42	438.34
683.75	435.82
684.09	433.21
684.43	430.83
684.77	428.39
685.10	426.03
685.44	423.74
685.78	421.42
686.12	419.14
686.45	416.86
686.79	414.53
687.13	412.33
687.46	410.18
687.80	407.98
688.14	405.75
688.48	403.68
688.81	401.49
689.15	399.33
689.49	397.17
689.82	395.08
690.16	392.99
690.50	390.98
690.83	389.01
691.17	387.08
691.51	385.13
691.84	383.25
692.18	381.30
692.52	379.29
692.85	377.39
693.19	375.57
693.52	373.72
693.86	371.88
694.20	370.09
694.53	368.29
694.87	366.47
695.21	364.65
695.54	362.81
695.88	361.05
696.21	359.31
696.55	357.66
696.88	355.93
697.22	354.25
697.56	352.63
697.89	351.03
698.23	349.42
698.56	347.82
698.90	346.25
699.23	344.60
699.57	343.11
699.90	341.60
700.24	340.06
700.58	338.54
700.91	337.10
701.25	335.69
701.58	334.30
701.92	332.95
702.25	331.61
702.59	330.29
702.92	328.96
703.26	327.67
703.59	326.39
703.93	325.22
704.26	324.01
704.60	322.71
704.93	321.42
705.26	320.17
705.60	319.02
705.93	317.88
706.27	316.90
706.60	315.82
706.94	314.69
707.27	313.55
707.61	312.51
707.94	311.46
708.27	310.36
708.61	309.27
708.94	308.26
709.28	307.31
709.61	306.32
709.94	305.40
710.28	304.35
710.61	303.34
710.95	302.24
711.28	301.34
711.61	300.41
711.95	299.47
712.28	298.50
712.61	297.44
712.95	296.47
713.28	295.55
713.61	294.61
713.95	293.72
714.28	292.83
714.61	291.93
714.95	291.07
715.28	290.20
715.61	289.35
715.95	288.49
716.28	287.60
716.61	286.76
716.95	285.92
717.28	285.18
717.61	284.38
717.94	283.70
718.28	282.86
718.61	282.12
718.94	281.44
719.27	280.79
719.61	280.16
719.94	279.52
720.27	278.81
720.60	278.14
720.94	277.53
721.27	276.96
721.60	276.43
721.93	275.82
722.27	275.28
722.60	274.73
722.93	274.17
723.26	273.67
723.59	273.13
723.93	272.56
724.26	272.03
724.59	271.53
724.92	270.97
725.25	270.48
725.59	269.94
725.92	269.46
726.25	268.95
726.58	268.51
726.91	267.99
727.24	267.54
727.57	267.07
727.91	266.57
728.24	266.11
728.57	265.60
728.90	265.17
729.23	264.67
729.56	264.22
729.89	263.74
730.22	263.26
730.55	262.78
730.89	262.35
731.22	261.90
731.55	261.46
731.88	261.06
732.21	260.63
732.54	260.24
732.87	259.80
733.20	259.43
733.53	259.05
733.86	258.72
734.19	258.32
734.52	257.95
734.85	257.67
735.18	257.22
735.51	256.88
735.84	256.53
736.17	256.18
736.50	255.80
736.83	255.61
737.16	255.29
737.49	254.94
737.82	254.59
738.15	254.25
738.48	253.93
738.81	253.58
739.14	253.27
739.47	252.94
739.80	252.67
740.13	252.35
740.46	251.99
740.79	251.62
741.12	251.32
741.45	251.01
741.78	250.61
742.11	250.37
742.44	250.01
742.77	249.71
743.10	249.44
743.43	249.14
743.75	248.73
744.08	248.58
744.41	248.34
744.74	248.10
745.07	247.82
745.40	247.57
745.73	247.32
746.06	247.07
746.39	246.84
746.71	246.54
747.04	246.25
747.37	246.02
747.70	245.80
748.03	245.51
748.36	245.31
748.68	245.08
749.01	244.79
749.34	244.60
749.67	244.38
750.00	244.12
750.33	243.99
750.65	243.77
750.98	243.45
751.31	243.23
751.64	242.99
751.97	242.86
752.29	242.61
752.62	242.40
752.95	242.18
753.28	241.90
753.60	241.68
753.93	241.50
754.26	241.30
754.59	241.05
754.91	240.86
755.24	240.65
755.57	240.46
755.90	240.31
756.22	240.10
756.55	239.87
756.88	239.68
757.20	239.40
757.53	239.19
757.86	238.96
758.19	238.78
758.51	238.61
758.84	238.36
759.17	238.19
759.49	238.04
759.82	237.92
760.15	237.81
760.47	237.68
760.80	237.48
761.13	237.34
761.45	237.19
761.78	237.03
762.11	236.91
762.43	236.75
762.76	236.60
763.08	236.46
763.41	236.32
763.74	236.20
764.06	236.07
764.39	235.93
764.71	235.83
765.04	235.70
765.37	235.58
765.69	235.47
766.02	235.36
766.34	235.20
766.67	235.03
767.00	234.93
767.32	234.84
767.65	234.83
767.97	234.69
768.30	234.59
768.62	234.50
768.95	234.34
769.27	234.23
769.60	234.14
769.92	234.00
770.25	233.91
770.57	233.75
770.90	233.65
771.22	233.60
771.55	233.51
771.87	233.40
772.20	233.30
772.52	233.30
772.85	233.34
773.17	233.26
773.50	233.19
773.82	233.09
774.15	232.97
774.47	232.81
774.80	232.75
775.12	232.71
775.45	232.61
775.77	232.54
776.09	232.48
776.42	232.37
776.74	232.38
777.07	232.31
777.39	232.29
777.72	232.21
778.04	232.11
778.36	232.01
778.69	231.98
779.01	231.92
779.33	231.79
779.66	231.61
779.98	231.56
780.31	231.50
780.63	231.47
780.95	231.41
781.28	231.35
781.60	231.28
781.92	231.19
782.25	231.17
782.57	231.11
782.89	231.03
783.22	230.99
783.54	230.88
783.86	230.86
784.19	230.75
784.51	230.71
784.83	230.63
785.16	230.60
785.48	230.54
785.80	230.52
786.12	230.47
786.45	230.42
786.77	230.36
787.09	230.31
