SpectraSuite Data File
++++++++++++++++++++++++++++++++++++
Date: Fri Feb 01 15:59:43 EST 2013
User: group
Dark Spectrum Present: No
Reference Spectrum Present: No
Number of Sampled Component Spectra: 1
Spectrometers: USB2E7196
Integration Time (usec): 35000 (USB2E7196)
Spectra Averaged: 100 (USB2E7196)
Boxcar Smoothing: 10 (USB2E7196)
Correct for Electrical Dark: No (USB2E7196)
Strobe/Lamp Enabled: No (USB2E7196)
Correct for Detector Non-linearity: No (USB2E7196)
Correct for Stray Light: No (USB2E7196)
Number of Pixels in Processed Spectrum: 2048
>>>>>Begin Processed Spectral Data<<<<<
339.09	0.00
339.48	214.80
339.86	216.30
340.24	217.53
340.63	218.87
341.01	221.58
341.39	221.66
341.78	223.43
342.16	224.28
342.54	224.85
342.93	213.02
343.31	223.78
343.69	224.29
344.07	224.74
344.46	225.14
344.84	225.51
345.22	225.75
345.60	225.98
345.99	226.13
346.37	226.25
346.75	226.33
347.13	226.42
347.52	226.48
347.90	226.53
348.28	226.59
348.66	226.65
349.05	226.63
349.43	226.66
349.81	226.72
350.19	226.75
350.57	226.79
350.96	226.86
351.34	226.94
351.72	227.03
352.10	227.11
352.48	227.16
352.87	227.24
353.25	227.31
353.63	227.39
354.01	227.46
354.39	227.53
354.77	227.59
355.15	227.65
355.54	227.70
355.92	227.76
356.30	227.80
356.68	227.91
357.06	227.99
357.44	228.03
357.82	228.10
358.20	228.19
358.58	228.29
358.97	228.39
359.35	228.46
359.73	228.51
360.11	228.58
360.49	228.68
360.87	228.70
361.25	228.75
361.63	228.83
362.01	228.89
362.39	228.93
362.77	228.97
363.15	229.02
363.53	229.07
363.91	229.09
364.29	229.11
364.67	229.05
365.05	229.05
365.43	229.09
365.81	229.08
366.19	229.10
366.57	229.12
366.95	229.07
367.33	229.05
367.71	229.06
368.09	229.05
368.47	229.04
368.85	229.03
369.23	229.02
369.61	228.94
369.99	228.94
370.37	228.90
370.75	228.92
371.13	228.86
371.51	228.81
371.89	228.80
372.27	228.78
372.65	228.72
373.03	228.70
373.41	228.62
373.78	228.58
374.16	228.50
374.54	228.40
374.92	228.37
375.30	228.33
375.68	228.27
376.06	228.23
376.44	228.16
376.82	228.10
377.19	228.03
377.57	228.00
377.95	227.88
378.33	227.83
378.71	227.72
379.09	227.65
379.47	227.59
379.84	227.47
380.22	227.39
380.60	227.34
380.98	227.28
381.36	227.22
381.73	227.15
382.11	227.07
382.49	227.04
382.87	226.99
383.25	226.91
383.62	226.98
384.00	226.88
384.38	226.82
384.76	226.79
385.13	226.78
385.51	226.72
385.89	226.68
386.27	226.64
386.64	226.61
387.02	226.59
387.40	226.51
387.78	226.50
388.15	226.50
388.53	226.47
388.91	226.45
389.29	226.40
389.66	226.40
390.04	226.39
390.42	226.36
390.79	226.33
391.17	226.31
391.55	226.20
391.92	226.21
392.30	226.23
392.68	226.19
393.05	226.19
393.43	226.21
393.81	226.21
394.18	226.17
394.56	226.18
394.94	226.18
395.31	226.21
395.69	226.28
396.06	226.27
396.44	226.30
396.82	226.29
397.19	226.35
397.57	226.36
397.95	226.43
398.32	226.43
398.70	226.51
399.07	226.59
399.45	226.64
399.82	226.67
400.20	226.68
400.58	226.76
400.95	226.79
401.33	226.86
401.70	227.03
402.08	227.16
402.45	227.26
402.83	227.42
403.20	227.52
403.58	227.61
403.95	227.76
404.33	227.89
404.71	228.03
405.08	228.23
405.46	228.39
405.83	228.52
406.21	228.67
406.58	228.82
406.96	228.94
407.33	229.08
407.70	229.30
408.08	229.61
408.45	229.84
408.83	230.08
409.20	230.28
409.58	230.46
409.95	230.70
410.33	230.95
410.70	231.21
411.08	231.50
411.45	231.81
411.82	232.13
412.20	232.48
412.57	232.94
412.95	233.21
413.32	233.62
413.69	234.01
414.07	234.49
414.44	234.95
414.82	235.46
415.19	236.06
415.56	236.62
415.94	237.16
416.31	237.81
416.68	238.41
417.06	239.15
417.43	239.85
417.81	240.60
418.18	241.41
418.55	242.22
418.93	243.09
419.30	243.98
419.67	244.88
420.04	245.84
420.42	246.81
420.79	248.00
421.16	249.18
421.54	250.37
421.91	251.60
422.28	252.87
422.66	254.19
423.03	255.49
423.40	256.80
423.77	258.24
424.15	259.63
424.52	261.14
424.89	262.73
425.26	264.24
425.64	265.71
426.01	267.31
426.38	268.96
426.75	270.61
427.13	272.36
427.50	274.12
427.87	275.96
428.24	277.79
428.61	279.53
428.99	281.45
429.36	283.56
429.73	285.62
430.10	287.61
430.47	289.70
430.85	291.79
431.22	294.04
431.59	296.39
431.96	298.63
432.33	301.10
432.70	303.49
433.08	306.34
433.45	309.02
433.82	311.58
434.19	314.49
434.56	317.35
434.93	319.97
435.30	322.62
435.68	325.54
436.05	328.40
436.42	331.15
436.79	333.65
437.16	336.37
437.53	339.23
437.90	342.10
438.27	344.83
438.64	347.65
439.01	350.24
439.38	352.47
439.75	354.68
440.13	357.20
440.50	359.54
440.87	361.39
441.24	363.29
441.61	365.50
441.98	366.98
442.35	368.71
442.72	370.61
443.09	372.39
443.46	373.39
443.83	373.97
444.20	374.46
444.57	375.30
444.94	375.54
445.31	375.82
445.68	376.09
446.05	376.15
446.42	375.73
446.79	375.28
447.16	374.82
447.53	374.48
447.90	373.30
448.27	372.13
448.64	370.54
449.01	369.41
449.37	367.40
449.74	365.49
450.11	363.24
450.48	360.75
450.85	358.25
451.22	356.13
451.59	354.11
451.96	352.18
452.33	349.57
452.70	347.17
453.07	344.33
453.43	341.46
453.80	338.73
454.17	336.08
454.54	333.56
454.91	330.83
455.28	328.17
455.65	325.69
456.02	323.22
456.38	321.08
456.75	318.42
457.12	316.18
457.49	313.99
457.86	311.86
458.23	310.01
458.59	307.96
458.96	305.85
459.33	303.96
459.70	302.14
460.07	300.64
460.43	298.99
460.80	297.43
461.17	296.01
461.54	294.47
461.91	293.06
462.27	291.64
462.64	290.43
463.01	289.07
463.38	287.76
463.74	286.41
464.11	285.21
464.48	284.20
464.85	283.10
465.21	282.26
465.58	281.35
465.95	280.25
466.32	279.37
466.68	278.49
467.05	277.63
467.42	276.75
467.78	275.88
468.15	275.00
468.52	274.32
468.88	273.44
469.25	272.68
469.62	272.11
469.98	271.41
470.35	270.76
470.72	270.15
471.08	269.51
471.45	268.97
471.82	268.46
472.18	267.81
472.55	267.39
472.92	266.83
473.28	266.38
473.65	265.92
474.02	265.46
474.38	265.10
474.75	264.81
475.11	264.47
475.48	264.14
475.85	263.95
476.21	263.71
476.58	263.54
476.94	263.40
477.31	263.18
477.67	263.07
478.04	262.96
478.41	262.95
478.77	262.99
479.14	262.93
479.50	262.95
479.87	263.04
480.23	263.11
480.60	263.19
480.96	263.27
481.33	263.48
481.69	263.71
482.06	263.89
482.42	264.07
482.79	264.28
483.15	264.59
483.52	264.94
483.88	265.29
484.25	265.70
484.61	266.14
484.98	266.61
485.34	267.16
485.71	267.72
486.07	268.29
486.44	268.86
486.80	269.57
487.17	270.26
487.53	271.08
487.90	271.95
488.26	272.89
488.62	273.86
488.99	274.82
489.35	275.82
489.72	276.93
490.08	278.08
490.44	279.33
490.81	280.66
491.17	281.98
491.54	283.49
491.90	285.00
492.26	286.64
492.63	288.38
492.99	290.10
493.36	292.01
493.72	294.01
494.08	296.09
494.45	298.36
494.81	300.76
495.17	303.19
495.54	305.75
495.90	308.41
496.26	311.22
496.63	314.16
496.99	317.27
497.35	320.55
497.72	323.98
498.08	327.52
498.44	331.23
498.80	335.15
499.17	339.18
499.53	343.39
499.89	347.72
500.26	352.28
500.62	357.02
500.98	362.00
501.34	367.12
501.71	372.46
502.07	377.85
502.43	383.42
502.79	389.27
503.16	395.33
503.52	401.63
503.88	408.10
504.24	414.78
504.60	421.73
504.97	428.90
505.33	436.22
505.69	443.93
506.05	451.68
506.41	459.57
506.78	467.72
507.14	476.17
507.50	484.92
507.86	493.86
508.22	503.02
508.59	512.22
508.95	521.83
509.31	531.68
509.67	541.83
510.03	552.19
510.39	562.76
510.75	573.59
511.12	584.49
511.48	595.75
511.84	607.21
512.20	618.64
512.56	630.46
512.92	642.69
513.28	655.07
513.64	667.53
514.00	680.22
514.37	693.16
514.73	706.24
515.09	719.34
515.45	732.69
515.81	746.28
516.17	760.30
516.53	774.45
516.89	788.56
517.25	802.74
517.61	817.15
517.97	831.55
518.33	845.92
518.69	860.74
519.05	875.77
519.41	890.90
519.77	906.53
520.13	922.10
520.49	937.39
520.85	952.78
521.21	968.55
521.57	984.79
521.93	1000.51
522.29	1016.86
522.65	1033.06
523.01	1049.28
523.37	1065.32
523.73	1081.45
524.09	1097.46
524.45	1113.66
524.81	1130.22
525.17	1147.02
525.53	1163.97
525.89	1180.88
526.25	1197.65
526.61	1214.00
526.97	1230.83
527.33	1247.23
527.68	1263.74
528.04	1280.27
528.40	1296.81
528.76	1313.82
529.12	1330.45
529.48	1347.32
529.84	1363.32
530.20	1379.79
530.56	1396.71
530.91	1414.01
531.27	1430.75
531.63	1447.31
531.99	1464.00
532.35	1479.98
532.71	1495.91
533.07	1512.05
533.42	1527.86
533.78	1543.88
534.14	1560.14
534.50	1575.31
534.86	1591.15
535.21	1606.23
535.57	1622.10
535.93	1637.51
536.29	1652.14
536.65	1667.22
537.00	1682.00
537.36	1697.20
537.72	1711.82
538.08	1726.14
538.44	1740.00
538.79	1753.73
539.15	1767.28
539.51	1780.94
539.87	1795.19
540.22	1808.76
540.58	1822.52
540.94	1835.80
541.29	1848.76
541.65	1861.33
542.01	1874.63
542.37	1887.03
542.72	1899.57
543.08	1911.42
543.44	1923.81
543.79	1935.12
544.15	1945.98
544.51	1957.54
544.87	1968.48
545.22	1979.32
545.58	1989.52
545.94	1999.17
546.29	2009.00
546.65	2018.82
547.01	2028.04
547.36	2036.79
547.72	2045.22
548.07	2053.02
548.43	2061.20
548.79	2069.07
549.14	2076.59
549.50	2083.88
549.86	2091.51
550.21	2098.60
550.57	2105.56
550.92	2112.05
551.28	2119.04
551.64	2126.05
551.99	2132.52
552.35	2138.69
552.70	2144.66
553.06	2150.65
553.41	2156.97
553.77	2163.06
554.13	2169.20
554.48	2175.34
554.84	2180.78
555.19	2186.07
555.55	2191.23
555.90	2195.75
556.26	2200.60
556.61	2205.46
556.97	2209.62
557.32	2213.63
557.68	2217.96
558.03	2222.40
558.39	2226.18
558.74	2230.76
559.10	2234.68
559.45	2238.21
559.81	2242.54
560.16	2246.43
560.52	2249.63
560.87	2253.06
561.23	2255.82
561.58	2258.60
561.94	2261.06
562.29	2263.32
562.64	2266.07
563.00	2268.64
563.35	2272.15
563.71	2275.39
564.06	2278.60
564.42	2281.45
564.77	2284.06
565.12	2286.33
565.48	2288.13
565.83	2290.02
566.19	2291.43
566.54	2292.28
566.89	2293.62
567.25	2294.16
567.60	2295.40
567.96	2297.06
568.31	2298.09
568.66	2299.18
569.02	2299.85
569.37	2300.28
569.72	2301.23
570.08	2301.30
570.43	2301.39
570.78	2300.90
571.14	2299.47
571.49	2298.11
571.84	2297.89
572.20	2296.75
572.55	2295.67
572.90	2294.12
573.26	2292.72
573.61	2290.93
573.96	2289.22
574.31	2286.03
574.67	2283.17
575.02	2279.62
575.37	2276.44
575.72	2272.45
576.08	2269.04
576.43	2265.64
576.78	2261.97
577.13	2258.79
577.49	2255.85
577.84	2252.42
578.19	2248.76
578.54	2244.93
578.90	2240.65
579.25	2235.17
579.60	2230.19
579.95	2225.21
580.30	2220.38
580.66	2215.31
581.01	2210.56
581.36	2205.61
581.71	2201.66
582.06	2197.08
582.42	2192.62
582.77	2187.39
583.12	2182.91
583.47	2178.14
583.82	2173.32
584.17	2168.10
584.53	2162.77
584.88	2157.06
585.23	2151.22
585.58	2145.63
585.93	2140.27
586.28	2135.62
586.63	2130.53
586.98	2125.44
587.34	2120.75
587.69	2115.80
588.04	2110.42
588.39	2104.74
588.74	2098.28
589.09	2091.95
589.44	2085.07
589.79	2079.08
590.14	2073.39
590.49	2066.89
590.84	2060.57
591.19	2054.47
591.54	2047.97
591.89	2040.39
592.25	2033.51
592.60	2026.33
592.95	2018.67
593.30	2011.30
593.65	2003.61
594.00	1996.57
594.35	1989.31
594.70	1981.31
595.05	1973.91
595.40	1966.77
595.75	1959.14
596.10	1952.86
596.45	1946.24
596.80	1940.25
597.15	1933.68
597.50	1926.46
597.85	1920.10
598.19	1913.41
598.54	1906.21
598.89	1899.68
599.24	1893.85
599.59	1887.13
599.94	1880.98
600.29	1874.63
600.64	1868.00
600.99	1860.65
601.34	1853.77
601.69	1846.94
602.04	1840.08
602.39	1832.86
602.74	1825.99
603.08	1819.28
603.43	1812.71
603.78	1805.43
604.13	1798.21
604.48	1790.87
604.83	1784.17
605.18	1777.07
605.53	1769.06
605.87	1761.07
606.22	1753.75
606.57	1745.85
606.92	1738.67
607.27	1731.46
607.62	1724.60
607.96	1717.40
608.31	1710.60
608.66	1702.94
609.01	1695.26
609.36	1687.68
609.70	1679.66
610.05	1671.57
610.40	1663.83
610.75	1655.45
611.10	1647.73
611.44	1639.38
611.79	1631.45
612.14	1622.71
612.49	1613.52
612.83	1605.23
613.18	1597.10
613.53	1589.16
613.88	1580.62
614.22	1572.31
614.57	1563.61
614.92	1555.52
615.27	1547.86
615.61	1539.57
615.96	1531.65
616.31	1524.04
616.65	1516.65
617.00	1509.16
617.35	1501.52
617.70	1493.29
618.04	1484.76
618.39	1476.53
618.74	1468.75
619.08	1460.37
619.43	1452.90
619.78	1446.06
620.12	1438.83
620.47	1431.41
620.82	1423.13
621.16	1415.74
621.51	1408.14
621.85	1400.69
622.20	1392.20
622.55	1383.93
622.89	1376.15
623.24	1368.58
623.59	1361.19
623.93	1353.58
624.28	1346.32
624.62	1338.79
624.97	1331.54
625.32	1324.87
625.66	1317.92
626.01	1310.81
626.35	1303.38
626.70	1295.56
627.04	1287.75
627.39	1280.05
627.73	1272.60
628.08	1265.70
628.43	1258.29
628.77	1250.80
629.12	1243.20
629.46	1236.15
629.81	1228.75
630.15	1221.47
630.50	1213.96
630.84	1205.85
631.19	1198.01
631.53	1190.44
631.88	1182.96
632.22	1175.38
632.57	1168.05
632.91	1160.52
633.26	1153.10
633.60	1145.80
633.95	1138.68
634.29	1131.73
634.64	1125.05
634.98	1117.77
635.32	1110.60
635.67	1104.03
636.01	1097.44
636.36	1090.66
636.70	1084.01
637.05	1077.41
637.39	1070.92
637.73	1064.47
638.08	1058.58
638.42	1052.54
638.77	1046.10
639.11	1039.35
639.45	1032.98
639.80	1026.34
640.14	1019.86
640.49	1013.39
640.83	1006.97
641.17	1000.73
641.52	994.33
641.86	987.85
642.20	981.85
642.55	975.56
642.89	969.10
643.23	962.59
643.58	956.77
643.92	950.64
644.26	944.47
644.61	938.51
644.95	932.39
645.29	925.71
645.64	919.05
645.98	912.71
646.32	906.99
646.66	900.97
647.01	895.16
647.35	889.46
647.69	883.56
648.04	878.12
648.38	872.35
648.72	866.31
649.06	860.17
649.41	854.39
649.75	848.38
650.09	842.45
650.43	836.61
650.78	830.46
651.12	824.45
651.46	818.83
651.80	813.08
652.14	807.70
652.49	802.33
652.83	797.11
653.17	791.40
653.51	785.63
653.85	780.26
654.20	774.54
654.54	768.52
654.88	762.81
655.22	756.88
655.56	751.21
655.90	745.83
656.25	740.60
656.59	735.23
656.93	730.19
657.27	725.08
657.61	719.70
657.95	714.56
658.29	709.47
658.64	704.20
658.98	698.89
659.32	693.38
659.66	688.16
660.00	682.79
660.34	677.92
660.68	672.99
661.02	667.89
661.36	663.22
661.70	658.72
662.05	654.33
662.39	650.00
662.73	645.52
663.07	641.08
663.41	636.65
663.75	632.11
664.09	627.46
664.43	623.01
664.77	618.89
665.11	614.64
665.45	610.58
665.79	606.42
666.13	602.27
666.47	598.30
666.81	594.13
667.15	590.07
667.49	586.14
667.83	582.37
668.17	578.46
668.51	574.41
668.85	570.43
669.19	566.61
669.53	562.79
669.87	558.90
670.21	555.19
670.55	551.57
670.89	548.15
671.23	544.76
671.57	541.25
671.91	537.69
672.25	534.23
672.58	530.65
672.92	527.33
673.26	524.15
673.60	520.91
673.94	517.82
674.28	514.93
674.62	512.01
674.96	508.91
675.30	505.99
675.64	503.04
675.97	500.23
676.31	497.32
676.65	494.43
676.99	491.72
677.33	488.87
677.67	486.09
678.01	483.07
678.34	480.08
678.68	477.19
679.02	474.39
679.36	471.63
679.70	468.95
680.04	466.20
680.37	463.30
680.71	460.49
681.05	457.87
681.39	455.09
681.73	452.38
682.06	449.82
682.40	447.25
682.74	444.75
683.08	442.27
683.42	439.73
683.75	437.20
684.09	434.64
684.43	432.16
684.77	429.69
685.10	427.35
685.44	425.03
685.78	422.73
686.12	420.51
686.45	418.18
686.79	415.82
687.13	413.61
687.46	411.49
687.80	409.39
688.14	407.21
688.48	405.16
688.81	402.91
689.15	400.72
689.49	398.55
689.82	396.47
690.16	394.33
690.50	392.33
690.83	390.36
691.17	388.37
691.51	386.46
691.84	384.59
692.18	382.62
692.52	380.60
692.85	378.68
693.19	376.75
693.52	374.97
693.86	373.19
694.20	371.38
694.53	369.55
694.87	367.70
695.21	365.83
695.54	364.01
695.88	362.29
696.21	360.60
696.55	358.96
696.88	357.23
697.22	355.58
697.56	353.98
697.89	352.34
698.23	350.75
698.56	349.15
698.90	347.56
699.23	345.93
699.57	344.43
699.90	342.91
700.24	341.36
700.58	339.82
700.91	338.26
701.25	336.82
701.58	335.46
701.92	334.12
702.25	332.78
702.59	331.38
702.92	330.08
703.26	328.78
703.59	327.46
703.93	326.31
704.26	325.06
704.60	323.71
704.93	322.45
705.26	321.21
705.60	320.04
705.93	318.88
706.27	317.86
706.60	316.79
706.94	315.72
707.27	314.63
707.61	313.58
707.94	312.63
708.27	311.54
708.61	310.47
708.94	309.41
709.28	308.47
709.61	307.54
709.94	306.59
710.28	305.60
710.61	304.66
710.95	303.59
711.28	302.71
711.61	301.83
711.95	300.93
712.28	300.00
712.61	299.01
712.95	298.08
713.28	297.22
713.61	296.34
713.95	295.49
714.28	294.66
714.61	293.80
714.95	292.95
715.28	292.13
715.61	291.26
715.95	290.42
716.28	289.57
716.61	288.76
716.95	287.94
717.28	287.18
717.61	286.44
717.94	285.70
718.28	284.90
718.61	284.17
718.94	283.45
719.27	282.79
719.61	282.19
719.94	281.56
720.27	280.84
720.60	280.16
720.94	279.54
721.27	278.95
721.60	278.37
721.93	277.75
722.27	277.17
722.60	276.63
722.93	276.09
723.26	275.51
723.59	274.94
723.93	274.40
724.26	273.83
724.59	273.27
724.92	272.75
725.25	272.24
725.59	271.73
725.92	271.25
726.25	270.72
726.58	270.21
726.91	269.70
727.24	269.22
727.57	268.75
727.91	268.19
728.24	267.70
728.57	267.22
728.90	266.77
729.23	266.30
729.56	265.84
729.89	265.36
730.22	264.93
730.55	264.44
730.89	263.99
731.22	263.55
731.55	263.09
731.88	262.67
732.21	262.19
732.54	261.74
732.87	261.27
733.20	260.86
733.53	260.44
733.86	260.05
734.19	259.64
734.52	259.25
734.85	258.96
735.18	258.53
735.51	258.15
735.84	257.75
736.17	257.40
736.50	257.00
736.83	256.78
737.16	256.42
737.49	256.09
737.82	255.74
738.15	255.38
738.48	255.03
738.81	254.70
739.14	254.41
739.47	254.07
739.80	253.76
740.13	253.47
740.46	253.14
740.79	252.80
741.12	252.46
741.45	252.13
741.78	251.75
742.11	251.48
742.44	251.12
742.77	250.83
743.10	250.49
743.43	250.18
743.75	249.79
744.08	249.64
744.41	249.35
744.74	249.07
745.07	248.80
745.40	248.55
745.73	248.31
746.06	248.02
746.39	247.76
746.71	247.53
747.04	247.26
747.37	247.01
747.70	246.79
748.03	246.59
748.36	246.34
748.68	246.11
749.01	245.85
749.34	245.64
749.67	245.43
750.00	245.20
750.33	245.04
750.65	244.80
750.98	244.44
751.31	244.22
751.64	244.02
751.97	243.86
752.29	243.67
752.62	243.40
752.95	243.21
753.28	243.01
753.60	242.78
753.93	242.59
754.26	242.40
754.59	242.18
754.91	241.98
755.24	241.81
755.57	241.63
755.90	241.47
756.22	241.30
756.55	241.08
756.88	240.93
757.20	240.70
757.53	240.54
757.86	240.39
758.19	240.24
758.51	240.08
758.84	239.88
759.17	239.70
759.49	239.56
759.82	239.47
760.15	239.31
760.47	239.19
760.80	239.05
761.13	238.91
761.45	238.78
761.78	238.62
762.11	238.50
762.43	238.34
762.76	238.20
763.08	238.04
763.41	237.93
763.74	237.78
764.06	237.63
764.39	237.51
764.71	237.38
765.04	237.24
765.37	237.09
765.69	236.98
766.02	236.86
766.34	236.72
766.67	236.54
767.00	236.47
767.32	236.39
767.65	236.28
767.97	236.19
768.30	236.08
768.62	235.97
768.95	235.85
769.27	235.75
769.60	235.65
769.92	235.55
770.25	235.46
770.57	235.36
770.90	235.28
771.22	235.16
771.55	235.07
771.87	235.00
772.20	234.90
772.52	234.87
772.85	234.91
773.17	234.83
773.50	234.74
773.82	234.60
774.15	234.47
774.47	234.35
774.80	234.22
775.12	234.12
775.45	234.05
775.77	233.94
776.09	233.89
776.42	233.80
776.74	233.75
777.07	233.64
777.39	233.56
777.72	233.46
778.04	233.40
778.36	233.31
778.69	233.22
779.01	233.15
779.33	232.99
779.66	232.80
779.98	232.70
780.31	232.63
780.63	232.61
780.95	232.54
781.28	232.46
781.60	232.40
781.92	232.32
782.25	232.23
782.57	232.22
782.89	232.17
783.22	232.09
783.54	232.00
783.86	231.94
784.19	231.87
784.51	231.85
784.83	231.79
785.16	231.73
785.48	231.66
785.80	231.62
786.12	231.60
786.45	231.54
786.77	231.50
787.09	231.43
