SpectraSuite Data File
++++++++++++++++++++++++++++++++++++
Date: Fri Feb 01 16:11:34 EST 2013
User: group
Dark Spectrum Present: No
Reference Spectrum Present: No
Number of Sampled Component Spectra: 1
Spectrometers: USB2E7196
Integration Time (usec): 35000 (USB2E7196)
Spectra Averaged: 100 (USB2E7196)
Boxcar Smoothing: 10 (USB2E7196)
Correct for Electrical Dark: No (USB2E7196)
Strobe/Lamp Enabled: No (USB2E7196)
Correct for Detector Non-linearity: No (USB2E7196)
Correct for Stray Light: No (USB2E7196)
Number of Pixels in Processed Spectrum: 2048
>>>>>Begin Processed Spectral Data<<<<<
339.09	0.00
339.48	214.28
339.86	215.69
340.24	216.79
340.63	218.63
341.01	221.72
341.39	221.21
341.78	222.33
342.16	223.87
342.54	224.54
342.93	212.64
343.31	223.38
343.69	223.93
344.07	224.41
344.46	224.84
344.84	225.21
345.22	225.41
345.60	225.68
345.99	225.86
346.37	225.98
346.75	226.07
347.13	226.14
347.52	226.20
347.90	226.27
348.28	226.26
348.66	226.30
349.05	226.32
349.43	226.36
349.81	226.42
350.19	226.46
350.57	226.51
350.96	226.58
351.34	226.66
351.72	226.76
352.10	226.83
352.48	226.93
352.87	227.00
353.25	227.10
353.63	227.15
354.01	227.23
354.39	227.34
354.77	227.40
355.15	227.50
355.54	227.59
355.92	227.62
356.30	227.71
356.68	227.87
357.06	227.99
357.44	228.05
357.82	228.13
358.20	228.23
358.58	228.31
358.97	228.38
359.35	228.44
359.73	228.49
360.11	228.55
360.49	228.57
360.87	228.62
361.25	228.66
361.63	228.73
362.01	228.77
362.39	228.77
362.77	228.83
363.15	228.87
363.53	228.89
363.91	228.92
364.29	228.92
364.67	228.85
365.05	228.84
365.43	228.83
365.81	228.81
366.19	228.85
366.57	228.91
366.95	228.87
367.33	228.85
367.71	228.87
368.09	228.91
368.47	228.90
368.85	228.90
369.23	228.91
369.61	228.85
369.99	228.86
370.37	228.83
370.75	228.83
371.13	228.77
371.51	228.71
371.89	228.66
372.27	228.67
372.65	228.60
373.03	228.54
373.41	228.49
373.78	228.45
374.16	228.34
374.54	228.23
374.92	228.16
375.30	228.08
375.68	227.94
376.06	227.87
376.44	227.80
376.82	227.71
377.19	227.62
377.57	227.57
377.95	227.44
378.33	227.37
378.71	227.25
379.09	227.19
379.47	227.11
379.84	227.06
380.22	226.94
380.60	226.86
380.98	226.76
381.36	226.69
381.73	226.62
382.11	226.59
382.49	226.58
382.87	226.56
383.25	226.52
383.62	226.64
384.00	226.54
384.38	226.51
384.76	226.47
385.13	226.46
385.51	226.39
385.89	226.35
386.27	226.34
386.64	226.32
387.02	226.26
387.40	226.26
387.78	226.21
388.15	226.20
388.53	226.16
388.91	226.17
389.29	226.16
389.66	226.14
390.04	226.03
390.42	225.97
390.79	225.94
391.17	225.91
391.55	225.74
391.92	225.76
392.30	225.74
392.68	225.72
393.05	225.72
393.43	225.75
393.81	225.75
394.18	225.74
394.56	225.74
394.94	225.80
395.31	225.80
395.69	225.87
396.06	225.89
396.44	225.92
396.82	225.94
397.19	226.01
397.57	226.04
397.95	226.14
398.32	226.16
398.70	226.22
399.07	226.28
399.45	226.36
399.82	226.41
400.20	226.48
400.58	226.56
400.95	226.57
401.33	226.65
401.70	226.82
402.08	226.89
402.45	226.96
402.83	227.07
403.20	227.18
403.58	227.25
403.95	227.39
404.33	227.55
404.71	227.67
405.08	227.83
405.46	227.97
405.83	228.10
406.21	228.24
406.58	228.40
406.96	228.57
407.33	228.77
407.70	228.92
408.08	229.17
408.45	229.38
408.83	229.60
409.20	229.83
409.58	229.99
409.95	230.26
410.33	230.56
410.70	230.79
411.08	231.05
411.45	231.33
411.82	231.64
412.20	231.96
412.57	232.38
412.95	232.67
413.32	233.07
413.69	233.49
414.07	233.95
414.44	234.41
414.82	234.89
415.19	235.42
415.56	236.00
415.94	236.55
416.31	237.18
416.68	237.80
417.06	238.47
417.43	239.18
417.81	239.96
418.18	240.70
418.55	241.55
418.93	242.45
419.30	243.38
419.67	244.32
420.04	245.26
420.42	246.26
420.79	247.47
421.16	248.60
421.54	249.83
421.91	251.05
422.28	252.34
422.66	253.66
423.03	254.99
423.40	256.32
423.77	257.74
424.15	259.18
424.52	260.68
424.89	262.32
425.26	263.85
425.64	265.28
426.01	266.88
426.38	268.52
426.75	270.19
427.13	271.91
427.50	273.68
427.87	275.59
428.24	277.43
428.61	279.16
428.99	281.14
429.36	283.18
429.73	285.25
430.10	287.26
430.47	289.32
430.85	291.41
431.22	293.66
431.59	296.04
431.96	298.30
432.33	300.80
432.70	303.14
433.08	305.94
433.45	308.57
433.82	311.18
434.19	314.07
434.56	316.92
434.93	319.53
435.30	322.15
435.68	325.01
436.05	327.86
436.42	330.69
436.79	333.21
437.16	335.93
437.53	338.78
437.90	341.57
438.27	344.35
438.64	347.15
439.01	349.79
439.38	352.06
439.75	354.21
440.13	356.68
440.50	359.04
440.87	360.87
441.24	362.85
441.61	364.99
441.98	366.48
442.35	368.23
442.72	370.11
443.09	371.93
443.46	372.92
443.83	373.49
444.20	373.95
444.57	374.74
444.94	374.99
445.31	375.26
445.68	375.62
446.05	375.67
446.42	375.31
446.79	374.83
447.16	374.32
447.53	374.04
447.90	372.88
448.27	371.72
448.64	370.17
449.01	368.99
449.37	366.99
449.74	365.10
450.11	362.88
450.48	360.41
450.85	357.89
451.22	355.79
451.59	353.80
451.96	351.85
452.33	349.22
452.70	346.86
453.07	344.02
453.43	341.07
453.80	338.28
454.17	335.61
454.54	333.06
454.91	330.35
455.28	327.63
455.65	325.15
456.02	322.71
456.38	320.59
456.75	317.92
457.12	315.73
457.49	313.52
457.86	311.33
458.23	309.48
458.59	307.41
458.96	305.31
459.33	303.44
459.70	301.59
460.07	300.19
460.43	298.47
460.80	296.92
461.17	295.58
461.54	294.11
461.91	292.70
462.27	291.25
462.64	290.01
463.01	288.68
463.38	287.36
463.74	285.99
464.11	284.82
464.48	283.85
464.85	282.75
465.21	281.89
465.58	281.02
465.95	279.94
466.32	279.06
466.68	278.17
467.05	277.25
467.42	276.37
467.78	275.39
468.15	274.57
468.52	273.92
468.88	273.01
469.25	272.25
469.62	271.66
469.98	270.97
470.35	270.29
470.72	269.71
471.08	269.06
471.45	268.56
471.82	268.02
472.18	267.36
472.55	266.93
472.92	266.40
473.28	265.92
473.65	265.48
474.02	265.06
474.38	264.68
474.75	264.39
475.11	264.06
475.48	263.83
475.85	263.58
476.21	263.34
476.58	263.14
476.94	262.97
477.31	262.79
477.67	262.67
478.04	262.62
478.41	262.57
478.77	262.63
479.14	262.54
479.50	262.57
479.87	262.70
480.23	262.77
480.60	262.83
480.96	262.92
481.33	263.11
481.69	263.32
482.06	263.52
482.42	263.73
482.79	263.96
483.15	264.25
483.52	264.63
483.88	264.98
484.25	265.40
484.61	265.84
484.98	266.27
485.34	266.84
485.71	267.43
486.07	268.02
486.44	268.53
486.80	269.24
487.17	269.98
487.53	270.77
487.90	271.64
488.26	272.56
488.62	273.55
488.99	274.53
489.35	275.56
489.72	276.69
490.08	277.86
490.44	279.13
490.81	280.46
491.17	281.81
491.54	283.30
491.90	284.83
492.26	286.48
492.63	288.24
492.99	289.99
493.36	291.88
493.72	293.93
494.08	296.11
494.45	298.35
494.81	300.70
495.17	303.13
495.54	305.67
495.90	308.37
496.26	311.18
496.63	314.12
496.99	317.23
497.35	320.52
497.72	323.96
498.08	327.51
498.44	331.21
498.80	335.14
499.17	339.21
499.53	343.42
499.89	347.81
500.26	352.33
500.62	357.04
500.98	362.02
501.34	367.11
501.71	372.39
502.07	377.85
502.43	383.46
502.79	389.27
503.16	395.32
503.52	401.60
503.88	407.99
504.24	414.65
504.60	421.58
504.97	428.66
505.33	435.97
505.69	443.70
506.05	451.45
506.41	459.38
506.78	467.54
507.14	475.95
507.50	484.67
507.86	493.60
508.22	502.78
508.59	512.00
508.95	521.56
509.31	531.39
509.67	541.51
510.03	551.79
510.39	562.34
510.75	573.15
511.12	584.08
511.48	595.36
511.84	606.78
512.20	618.36
512.56	630.29
512.92	642.51
513.28	654.78
513.64	667.19
514.00	679.92
514.37	692.85
514.73	705.96
515.09	718.99
515.45	732.36
515.81	745.92
516.17	759.85
516.53	774.01
516.89	788.25
517.25	802.41
517.61	816.91
517.97	831.37
518.33	845.92
518.69	860.65
519.05	875.69
519.41	891.02
519.77	906.43
520.13	922.05
520.49	937.47
520.85	952.86
521.21	968.62
521.57	984.73
521.93	1000.43
522.29	1016.74
522.65	1032.94
523.01	1049.08
523.37	1065.15
523.73	1081.24
524.09	1097.30
524.45	1113.52
524.81	1130.07
525.17	1146.76
525.53	1163.56
525.89	1180.33
526.25	1197.10
526.61	1213.44
526.97	1230.08
527.33	1246.45
527.68	1262.84
528.04	1279.22
528.40	1295.70
528.76	1312.76
529.12	1329.44
529.48	1346.35
529.84	1362.22
530.20	1378.78
530.56	1395.65
530.91	1412.97
531.27	1429.86
531.63	1446.23
531.99	1462.74
532.35	1478.64
532.71	1494.40
533.07	1510.61
533.42	1526.44
533.78	1542.49
534.14	1558.71
534.50	1573.87
534.86	1589.73
535.21	1604.81
535.57	1620.63
535.93	1636.13
536.29	1650.86
536.65	1665.71
537.00	1680.35
537.36	1695.63
537.72	1710.09
538.08	1724.66
538.44	1738.32
538.79	1751.98
539.15	1765.51
539.51	1779.23
539.87	1793.58
540.22	1807.21
540.58	1820.91
540.94	1834.08
541.29	1846.75
541.65	1859.34
542.01	1872.58
542.37	1884.91
542.72	1897.46
543.08	1909.22
543.44	1921.48
543.79	1932.76
544.15	1943.69
544.51	1955.08
544.87	1966.07
545.22	1976.84
545.58	1986.95
545.94	1996.75
546.29	2006.65
546.65	2016.60
547.01	2025.81
547.36	2034.42
547.72	2042.97
548.07	2050.89
548.43	2059.04
548.79	2066.97
549.14	2074.50
549.50	2081.68
549.86	2089.13
550.21	2096.21
550.57	2103.28
550.92	2109.84
551.28	2116.74
551.64	2123.83
551.99	2130.56
552.35	2136.61
552.70	2142.75
553.06	2148.75
553.41	2155.11
553.77	2161.05
554.13	2166.99
554.48	2173.08
554.84	2178.67
555.19	2183.95
555.55	2189.14
555.90	2193.65
556.26	2198.68
556.61	2203.51
556.97	2207.96
557.32	2212.16
557.68	2216.30
558.03	2220.58
558.39	2224.33
558.74	2228.87
559.10	2232.71
559.45	2236.14
559.81	2240.30
560.16	2244.07
560.52	2247.24
560.87	2250.62
561.23	2253.35
561.58	2256.25
561.94	2258.78
562.29	2260.94
562.64	2263.62
563.00	2266.07
563.35	2269.59
563.71	2272.68
564.06	2275.72
564.42	2278.50
564.77	2281.14
565.12	2283.69
565.48	2285.72
565.83	2287.61
566.19	2289.06
566.54	2289.97
566.89	2291.36
567.25	2292.21
567.60	2293.51
567.96	2295.21
568.31	2296.04
568.66	2297.23
569.02	2297.91
569.37	2298.23
569.72	2299.33
570.08	2299.54
570.43	2299.55
570.78	2299.06
571.14	2297.57
571.49	2296.30
571.84	2296.04
572.20	2294.97
572.55	2293.84
572.90	2292.12
573.26	2290.78
573.61	2289.10
573.96	2287.43
574.31	2284.41
574.67	2281.26
575.02	2277.75
575.37	2274.34
575.72	2270.62
576.08	2267.11
576.43	2263.74
576.78	2260.23
577.13	2256.91
577.49	2253.63
577.84	2250.18
578.19	2246.42
578.54	2243.02
578.90	2238.97
579.25	2233.44
579.60	2228.46
579.95	2223.38
580.30	2218.50
580.66	2213.18
581.01	2208.19
581.36	2203.31
581.71	2199.25
582.06	2194.98
582.42	2190.61
582.77	2185.38
583.12	2180.85
583.47	2176.20
583.82	2171.35
584.17	2166.01
584.53	2160.50
584.88	2155.08
585.23	2149.49
585.58	2143.95
585.93	2138.33
586.28	2133.39
586.63	2128.37
586.98	2123.28
587.34	2118.49
587.69	2113.68
588.04	2108.55
588.39	2102.98
588.74	2096.41
589.09	2090.15
589.44	2083.40
589.79	2077.29
590.14	2071.67
590.49	2065.03
590.84	2058.78
591.19	2052.72
591.54	2046.38
591.89	2039.26
592.25	2032.42
592.60	2025.15
592.95	2017.83
593.30	2010.48
593.65	2002.84
594.00	1995.85
594.35	1988.58
594.70	1980.69
595.05	1973.47
595.40	1966.29
595.75	1958.81
596.10	1952.76
596.45	1946.10
596.80	1939.95
597.15	1933.39
597.50	1926.64
597.85	1920.24
598.19	1913.61
598.54	1906.65
598.89	1899.96
599.24	1893.97
599.59	1887.37
599.94	1881.18
600.29	1874.75
600.64	1868.17
600.99	1860.89
601.34	1853.99
601.69	1847.07
602.04	1840.23
602.39	1832.89
602.74	1826.17
603.08	1819.47
603.43	1812.73
603.78	1805.44
604.13	1798.23
604.48	1791.03
604.83	1783.96
605.18	1777.19
605.53	1769.21
605.87	1761.08
606.22	1753.83
606.57	1745.86
606.92	1738.54
607.27	1731.44
607.62	1724.57
607.96	1717.51
608.31	1710.93
608.66	1703.26
609.01	1695.85
609.36	1688.35
609.70	1680.40
610.05	1672.37
610.40	1664.73
610.75	1656.35
611.10	1648.58
611.44	1640.20
611.79	1632.09
612.14	1623.35
612.49	1614.03
612.83	1605.51
613.18	1597.49
613.53	1589.33
613.88	1580.81
614.22	1572.66
614.57	1564.08
614.92	1556.14
615.27	1548.74
615.61	1540.41
615.96	1532.52
616.31	1524.88
616.65	1517.51
617.00	1510.05
617.35	1502.39
617.70	1493.98
618.04	1485.64
618.39	1477.57
618.74	1469.93
619.08	1461.69
619.43	1454.23
619.78	1447.34
620.12	1440.34
620.47	1432.77
620.82	1424.64
621.16	1417.26
621.51	1409.41
621.85	1401.68
622.20	1393.02
622.55	1384.39
622.89	1376.47
623.24	1368.86
623.59	1361.39
623.93	1353.78
624.28	1346.45
624.62	1338.83
624.97	1331.64
625.32	1324.73
625.66	1317.59
626.01	1310.44
626.35	1302.99
626.70	1295.17
627.04	1287.44
627.39	1279.51
627.73	1272.09
628.08	1265.22
628.43	1257.94
628.77	1250.66
629.12	1243.17
629.46	1236.05
629.81	1228.56
630.15	1221.38
630.50	1213.84
630.84	1205.61
631.19	1197.62
631.53	1190.05
631.88	1182.46
632.22	1174.85
632.57	1167.53
632.91	1160.02
633.26	1152.64
633.60	1145.21
633.95	1138.07
634.29	1131.03
634.64	1124.40
634.98	1117.10
635.32	1109.98
635.67	1103.32
636.01	1096.73
636.36	1089.88
636.70	1083.29
637.05	1076.77
637.39	1070.30
637.73	1063.89
638.08	1058.00
638.42	1052.08
638.77	1045.75
639.11	1039.18
639.45	1032.79
639.80	1026.16
640.14	1019.79
640.49	1013.23
640.83	1007.00
641.17	1000.91
641.52	994.59
641.86	988.14
642.20	982.22
642.55	975.80
642.89	969.46
643.23	962.83
643.58	957.09
643.92	950.96
644.26	944.95
644.61	938.96
644.95	933.00
645.29	926.52
645.64	919.76
645.98	913.36
646.32	907.49
646.66	901.48
647.01	895.67
647.35	889.94
647.69	884.02
648.04	878.38
648.38	872.48
648.72	866.55
649.06	860.51
649.41	854.60
649.75	848.75
650.09	842.70
650.43	836.96
650.78	830.82
651.12	824.80
651.46	819.10
651.80	813.39
652.14	807.94
652.49	802.46
652.83	797.27
653.17	791.59
653.51	785.90
653.85	780.49
654.20	774.83
654.54	768.83
654.88	763.20
655.22	757.33
655.56	751.68
655.90	746.16
656.25	740.97
656.59	735.63
656.93	730.53
657.27	725.51
657.61	720.05
657.95	714.93
658.29	709.81
658.64	704.44
658.98	699.09
659.32	693.57
659.66	688.40
660.00	683.13
660.34	678.24
660.68	673.29
661.02	668.26
661.36	663.60
661.70	659.09
662.05	654.69
662.39	650.45
662.73	645.94
663.07	641.53
663.41	637.01
663.75	632.54
664.09	627.90
664.43	623.41
664.77	619.36
665.11	615.08
665.45	611.00
665.79	607.00
666.13	602.76
666.47	598.60
666.81	594.46
667.15	590.33
667.49	586.34
667.83	582.50
668.17	578.57
668.51	574.46
668.85	570.38
669.19	566.50
669.53	562.65
669.87	558.80
670.21	555.08
670.55	551.46
670.89	548.02
671.23	544.62
671.57	541.07
671.91	537.46
672.25	533.97
672.58	530.45
672.92	527.02
673.26	523.92
673.60	520.82
673.94	517.78
674.28	514.82
674.62	511.94
674.96	508.80
675.30	505.88
675.64	502.97
675.97	500.25
676.31	497.40
676.65	494.44
676.99	491.77
677.33	488.90
677.67	486.02
678.01	482.97
678.34	480.01
678.68	477.10
679.02	474.31
679.36	471.54
679.70	468.83
680.04	466.11
680.37	463.20
680.71	460.38
681.05	457.68
681.39	454.97
681.73	452.26
682.06	449.73
682.40	447.25
682.74	444.68
683.08	442.15
683.42	439.53
683.75	437.04
684.09	434.46
684.43	432.03
684.77	429.64
685.10	427.28
685.44	425.00
685.78	422.74
686.12	420.48
686.45	418.17
686.79	415.85
687.13	413.65
687.46	411.53
687.80	409.42
688.14	407.21
688.48	405.19
688.81	402.97
689.15	400.87
689.49	398.66
689.82	396.61
690.16	394.51
690.50	392.60
690.83	390.66
691.17	388.65
691.51	386.75
691.84	384.88
692.18	382.98
692.52	380.98
692.85	379.01
693.19	377.12
693.52	375.32
693.86	373.53
694.20	371.73
694.53	369.92
694.87	368.09
695.21	366.28
695.54	364.43
695.88	362.73
696.21	360.96
696.55	359.29
696.88	357.60
697.22	355.90
697.56	354.25
697.89	352.61
698.23	351.01
698.56	349.39
698.90	347.85
699.23	346.25
699.57	344.73
699.90	343.21
700.24	341.64
700.58	340.10
700.91	338.57
701.25	337.08
701.58	335.69
701.92	334.27
702.25	332.93
702.59	331.57
702.92	330.17
703.26	328.87
703.59	327.58
703.93	326.37
704.26	325.14
704.60	323.82
704.93	322.53
705.26	321.26
705.60	320.06
705.93	318.84
706.27	317.76
706.60	316.67
706.94	315.58
707.27	314.47
707.61	313.37
707.94	312.35
708.27	311.26
708.61	310.17
708.94	309.19
709.28	308.20
709.61	307.26
709.94	306.32
710.28	305.33
710.61	304.33
710.95	303.25
711.28	302.34
711.61	301.38
711.95	300.48
712.28	299.56
712.61	298.58
712.95	297.64
713.28	296.76
713.61	295.85
713.95	294.97
714.28	294.13
714.61	293.27
714.95	292.43
715.28	291.57
715.61	290.73
715.95	289.86
716.28	289.00
716.61	288.12
716.95	287.31
717.28	286.55
717.61	285.78
717.94	285.07
718.28	284.24
718.61	283.50
718.94	282.80
719.27	282.13
719.61	281.49
719.94	280.86
720.27	280.15
720.60	279.49
720.94	278.86
721.27	278.26
721.60	277.72
721.93	277.13
722.27	276.62
722.60	276.07
722.93	275.53
723.26	274.98
723.59	274.45
723.93	273.90
724.26	273.34
724.59	272.80
724.92	272.26
725.25	271.79
725.59	271.32
725.92	270.82
726.25	270.32
726.58	269.84
726.91	269.33
727.24	268.86
727.57	268.39
727.91	267.87
728.24	267.43
728.57	266.93
728.90	266.48
729.23	265.97
729.56	265.57
729.89	265.12
730.22	264.65
730.55	264.21
730.89	263.78
731.22	263.35
731.55	262.95
731.88	262.53
732.21	262.10
732.54	261.64
732.87	261.24
733.20	260.84
733.53	260.44
733.86	260.06
734.19	259.64
734.52	259.24
734.85	258.95
735.18	258.50
735.51	258.13
735.84	257.73
736.17	257.37
736.50	256.91
736.83	256.67
737.16	256.34
737.49	255.96
737.82	255.60
738.15	255.25
738.48	254.90
738.81	254.55
739.14	254.28
739.47	253.95
739.80	253.64
740.13	253.29
740.46	252.94
740.79	252.63
741.12	252.31
741.45	251.99
741.78	251.63
742.11	251.38
742.44	251.04
742.77	250.75
743.10	250.43
743.43	250.14
743.75	249.74
744.08	249.57
744.41	249.33
744.74	249.04
745.07	248.72
745.40	248.47
745.73	248.25
746.06	247.92
746.39	247.66
746.71	247.34
747.04	247.13
747.37	246.87
747.70	246.62
748.03	246.38
748.36	246.18
748.68	245.92
749.01	245.67
749.34	245.44
749.67	245.22
750.00	245.03
750.33	244.86
750.65	244.65
750.98	244.32
751.31	244.09
751.64	243.90
751.97	243.79
752.29	243.55
752.62	243.29
752.95	243.08
753.28	242.87
753.60	242.68
753.93	242.50
754.26	242.27
754.59	242.07
754.91	241.85
755.24	241.60
755.57	241.42
755.90	241.24
756.22	241.06
756.55	240.86
756.88	240.63
757.20	240.42
757.53	240.22
757.86	240.04
758.19	239.85
758.51	239.66
758.84	239.43
759.17	239.27
759.49	239.12
759.82	239.01
760.15	238.88
760.47	238.70
760.80	238.51
761.13	238.44
761.45	238.25
761.78	238.12
762.11	237.99
762.43	237.86
762.76	237.71
763.08	237.56
763.41	237.44
763.74	237.30
764.06	237.17
764.39	237.04
764.71	236.91
765.04	236.79
765.37	236.69
765.69	236.58
766.02	236.45
766.34	236.35
766.67	236.21
767.00	236.10
767.32	236.07
767.65	236.01
767.97	235.88
768.30	235.79
768.62	235.67
768.95	235.59
769.27	235.47
769.60	235.38
769.92	235.28
770.25	235.18
770.57	235.12
770.90	234.99
771.22	234.92
771.55	234.85
771.87	234.74
772.20	234.65
772.52	234.66
772.85	234.69
773.17	234.59
773.50	234.48
773.82	234.35
774.15	234.22
774.47	234.04
774.80	233.96
775.12	233.89
775.45	233.83
775.77	233.74
776.09	233.67
776.42	233.58
776.74	233.55
777.07	233.45
777.39	233.36
777.72	233.33
778.04	233.25
778.36	233.13
778.69	233.07
779.01	232.99
779.33	232.78
779.66	232.59
779.98	232.53
780.31	232.46
780.63	232.45
780.95	232.45
781.28	232.44
781.60	232.38
781.92	232.28
782.25	232.20
782.57	232.14
782.89	232.10
783.22	232.03
783.54	231.94
783.86	231.88
784.19	231.82
784.51	231.77
784.83	231.71
785.16	231.66
785.48	231.61
785.80	231.58
786.12	231.58
786.45	231.54
786.77	231.49
787.09	231.47
