SpectraSuite Data File
++++++++++++++++++++++++++++++++++++
Date: Fri Feb 01 16:35:35 EST 2013
User: group
Dark Spectrum Present: No
Reference Spectrum Present: No
Number of Sampled Component Spectra: 1
Spectrometers: USB2E7196
Integration Time (usec): 35000 (USB2E7196)
Spectra Averaged: 100 (USB2E7196)
Boxcar Smoothing: 10 (USB2E7196)
Correct for Electrical Dark: No (USB2E7196)
Strobe/Lamp Enabled: No (USB2E7196)
Correct for Detector Non-linearity: No (USB2E7196)
Correct for Stray Light: No (USB2E7196)
Number of Pixels in Processed Spectrum: 2048
>>>>>Begin Processed Spectral Data<<<<<
339.09	0.00
339.48	213.05
339.86	215.37
340.24	216.36
340.63	218.19
341.01	220.80
341.39	220.93
341.78	222.03
342.16	223.37
342.54	223.33
342.93	212.14
343.31	222.85
343.69	223.42
344.07	223.87
344.46	224.30
344.84	224.66
345.22	224.88
345.60	225.12
345.99	225.29
346.37	225.42
346.75	225.53
347.13	225.59
347.52	225.64
347.90	225.68
348.28	225.72
348.66	225.77
349.05	225.74
349.43	225.74
349.81	225.79
350.19	225.82
350.57	225.89
350.96	225.98
351.34	226.05
351.72	226.11
352.10	226.23
352.48	226.30
352.87	226.33
353.25	226.41
353.63	226.47
354.01	226.54
354.39	226.60
354.77	226.66
355.15	226.72
355.54	226.76
355.92	226.82
356.30	226.88
356.68	227.03
357.06	227.10
357.44	227.17
357.82	227.26
358.20	227.30
358.58	227.35
358.97	227.41
359.35	227.53
359.73	227.63
360.11	227.64
360.49	227.69
360.87	227.75
361.25	227.83
361.63	227.89
362.01	227.94
362.39	227.97
362.77	228.04
363.15	228.11
363.53	228.15
363.91	228.16
364.29	228.19
364.67	228.08
365.05	228.08
365.43	228.11
365.81	228.15
366.19	228.23
366.57	228.29
366.95	228.30
367.33	228.26
367.71	228.22
368.09	228.23
368.47	228.24
368.85	228.27
369.23	228.29
369.61	228.26
369.99	228.28
370.37	228.29
370.75	228.29
371.13	228.22
371.51	228.18
371.89	228.18
372.27	228.13
372.65	228.13
373.03	228.11
373.41	228.08
373.78	227.99
374.16	227.88
374.54	227.80
374.92	227.73
375.30	227.71
375.68	227.66
376.06	227.64
376.44	227.57
376.82	227.50
377.19	227.41
377.57	227.33
377.95	227.24
378.33	227.17
378.71	227.05
379.09	227.01
379.47	227.00
379.84	226.90
380.22	226.88
380.60	226.80
380.98	226.72
381.36	226.63
381.73	226.57
382.11	226.55
382.49	226.49
382.87	226.43
383.25	226.35
383.62	226.41
384.00	226.33
384.38	226.29
384.76	226.26
385.13	226.24
385.51	226.22
385.89	226.14
386.27	226.10
386.64	226.08
387.02	226.02
387.40	225.97
387.78	225.93
388.15	225.88
388.53	225.84
388.91	225.83
389.29	225.78
389.66	225.79
390.04	225.73
390.42	225.72
390.79	225.70
391.17	225.68
391.55	225.54
391.92	225.54
392.30	225.52
392.68	225.48
393.05	225.45
393.43	225.43
393.81	225.46
394.18	225.41
394.56	225.42
394.94	225.44
395.31	225.41
395.69	225.46
396.06	225.50
396.44	225.54
396.82	225.53
397.19	225.62
397.57	225.61
397.95	225.67
398.32	225.68
398.70	225.74
399.07	225.81
399.45	225.89
399.82	225.93
400.20	226.01
400.58	226.10
400.95	226.12
401.33	226.19
401.70	226.34
402.08	226.46
402.45	226.55
402.83	226.66
403.20	226.78
403.58	226.88
403.95	226.99
404.33	227.09
404.71	227.25
405.08	227.43
405.46	227.55
405.83	227.69
406.21	227.83
406.58	227.98
406.96	228.12
407.33	228.28
407.70	228.49
408.08	228.74
408.45	228.93
408.83	229.16
409.20	229.36
409.58	229.55
409.95	229.79
410.33	230.03
410.70	230.32
411.08	230.61
411.45	230.91
411.82	231.20
412.20	231.55
412.57	231.96
412.95	232.28
413.32	232.73
413.69	233.13
414.07	233.58
414.44	234.07
414.82	234.54
415.19	235.08
415.56	235.66
415.94	236.17
416.31	236.81
416.68	237.45
417.06	238.16
417.43	238.84
417.81	239.62
418.18	240.41
418.55	241.23
418.93	242.11
419.30	243.03
419.67	243.95
420.04	244.91
420.42	245.90
420.79	247.06
421.16	248.19
421.54	249.39
421.91	250.58
422.28	251.82
422.66	253.18
423.03	254.49
423.40	255.76
423.77	257.14
424.15	258.56
424.52	260.04
424.89	261.64
425.26	263.16
425.64	264.60
426.01	266.24
426.38	267.89
426.75	269.54
427.13	271.24
427.50	273.08
427.87	274.88
428.24	276.72
428.61	278.47
428.99	280.37
429.36	282.45
429.73	284.49
430.10	286.48
430.47	288.49
430.85	290.61
431.22	292.83
431.59	295.24
431.96	297.45
432.33	299.91
432.70	302.28
433.08	305.10
433.45	307.68
433.82	310.21
434.19	313.03
434.56	315.84
434.93	318.43
435.30	320.98
435.68	323.91
436.05	326.73
436.42	329.50
436.79	331.98
437.16	334.63
437.53	337.43
437.90	340.22
438.27	342.98
438.64	345.73
439.01	348.31
439.38	350.53
439.75	352.67
440.13	355.14
440.50	357.42
440.87	359.23
441.24	361.18
441.61	363.33
441.98	364.86
442.35	366.65
442.72	368.52
443.09	370.38
443.46	371.35
443.83	371.91
444.20	372.39
444.57	373.24
444.94	373.55
445.31	373.89
445.68	374.21
446.05	374.25
446.42	373.88
446.79	373.47
447.16	373.01
447.53	372.68
447.90	371.54
448.27	370.44
448.64	368.89
449.01	367.73
449.37	365.76
449.74	363.82
450.11	361.59
450.48	359.09
450.85	356.54
451.22	354.37
451.59	352.36
451.96	350.41
452.33	347.83
452.70	345.47
453.07	342.66
453.43	339.79
453.80	337.04
454.17	334.39
454.54	331.88
454.91	329.17
455.28	326.56
455.65	324.11
456.02	321.64
456.38	319.50
456.75	316.93
457.12	314.71
457.49	312.56
457.86	310.38
458.23	308.58
458.59	306.54
458.96	304.48
459.33	302.65
459.70	300.81
460.07	299.32
460.43	297.65
460.80	296.07
461.17	294.68
461.54	293.22
461.91	291.79
462.27	290.36
462.64	289.13
463.01	287.79
463.38	286.47
463.74	285.11
464.11	283.95
464.48	282.91
464.85	281.84
465.21	280.97
465.58	280.04
465.95	278.98
466.32	278.12
466.68	277.22
467.05	276.32
467.42	275.48
467.78	274.55
468.15	273.69
468.52	272.98
468.88	272.12
469.25	271.38
469.62	270.80
469.98	270.15
470.35	269.50
470.72	268.92
471.08	268.28
471.45	267.76
471.82	267.21
472.18	266.63
472.55	266.20
472.92	265.68
473.28	265.25
473.65	264.79
474.02	264.35
474.38	264.01
474.75	263.74
475.11	263.38
475.48	263.14
475.85	262.89
476.21	262.74
476.58	262.54
476.94	262.39
477.31	262.19
477.67	262.03
478.04	261.95
478.41	261.89
478.77	262.01
479.14	261.99
479.50	262.03
479.87	262.10
480.23	262.16
480.60	262.20
480.96	262.25
481.33	262.42
481.69	262.61
482.06	262.82
482.42	262.99
482.79	263.25
483.15	263.55
483.52	263.91
483.88	264.21
484.25	264.60
484.61	265.03
484.98	265.51
485.34	266.05
485.71	266.61
486.07	267.18
486.44	267.69
486.80	268.39
487.17	269.10
487.53	269.87
487.90	270.70
488.26	271.64
488.62	272.66
488.99	273.69
489.35	274.68
489.72	275.81
490.08	277.05
490.44	278.27
490.81	279.58
491.17	280.98
491.54	282.47
491.90	284.05
492.26	285.69
492.63	287.39
492.99	289.20
493.36	291.12
493.72	293.21
494.08	295.30
494.45	297.52
494.81	299.91
495.17	302.36
495.54	304.97
495.90	307.71
496.26	310.53
496.63	313.49
496.99	316.68
497.35	319.93
497.72	323.31
498.08	326.85
498.44	330.57
498.80	334.50
499.17	338.56
499.53	342.72
499.89	347.11
500.26	351.67
500.62	356.35
500.98	361.32
501.34	366.42
501.71	371.76
502.07	377.26
502.43	382.91
502.79	388.76
503.16	394.79
503.52	401.09
503.88	407.51
504.24	414.18
504.60	421.11
504.97	428.29
505.33	435.68
505.69	443.36
506.05	451.12
506.41	459.04
506.78	467.22
507.14	475.68
507.50	484.40
507.86	493.46
508.22	502.70
508.59	511.90
508.95	521.47
509.31	531.32
509.67	541.40
510.03	551.68
510.39	562.27
510.75	573.10
511.12	583.99
511.48	595.26
511.84	606.70
512.20	618.05
512.56	630.01
512.92	642.07
513.28	654.52
513.64	667.01
514.00	679.69
514.37	692.63
514.73	705.63
515.09	718.60
515.45	731.77
515.81	745.29
516.17	759.27
516.53	773.36
516.89	787.51
517.25	801.69
517.61	816.07
517.97	830.48
518.33	844.81
518.69	859.50
519.05	874.45
519.41	889.58
519.77	905.14
520.13	920.47
520.49	935.89
520.85	951.17
521.21	966.74
521.57	982.91
521.93	998.58
522.29	1014.90
522.65	1031.15
523.01	1047.33
523.37	1063.23
523.73	1079.31
524.09	1095.30
524.45	1111.50
524.81	1127.90
525.17	1144.58
525.53	1161.30
525.89	1178.15
526.25	1194.96
526.61	1211.22
526.97	1227.87
527.33	1244.30
527.68	1260.75
528.04	1277.00
528.40	1293.34
528.76	1310.39
529.12	1326.79
529.48	1343.58
529.84	1359.50
530.20	1375.97
530.56	1392.78
530.91	1410.11
531.27	1426.82
531.63	1443.10
531.99	1459.63
532.35	1475.68
532.71	1491.49
533.07	1507.70
533.42	1523.59
533.78	1539.62
534.14	1555.91
534.50	1571.07
534.86	1586.75
535.21	1601.83
535.57	1617.65
535.93	1633.05
536.29	1647.61
536.65	1662.51
537.00	1677.08
537.36	1692.23
537.72	1706.46
538.08	1720.68
538.44	1734.26
538.79	1747.93
539.15	1761.36
539.51	1774.77
539.87	1788.76
540.22	1802.28
540.58	1815.73
540.94	1828.72
541.29	1841.07
541.65	1853.33
542.01	1866.28
542.37	1878.49
542.72	1890.72
543.08	1902.36
543.44	1914.60
543.79	1925.73
544.15	1936.63
544.51	1948.00
544.87	1958.71
545.22	1969.65
545.58	1979.99
545.94	1989.75
546.29	1999.58
546.65	2009.57
547.01	2018.91
547.36	2027.75
547.72	2036.18
548.07	2044.12
548.43	2052.24
548.79	2060.29
549.14	2068.00
549.50	2075.24
549.86	2082.81
550.21	2090.24
550.57	2097.45
550.92	2104.09
551.28	2111.29
551.64	2118.33
551.99	2125.03
552.35	2131.31
552.70	2137.32
553.06	2143.31
553.41	2149.66
553.77	2155.42
554.13	2161.42
554.48	2167.55
554.84	2173.04
555.19	2178.10
555.55	2183.37
555.90	2187.93
556.26	2193.15
556.61	2197.72
556.97	2202.44
557.32	2206.55
557.68	2210.65
558.03	2214.93
558.39	2218.69
558.74	2223.19
559.10	2227.15
559.45	2230.70
559.81	2234.88
560.16	2238.89
560.52	2242.09
560.87	2245.43
561.23	2248.31
561.58	2251.16
561.94	2253.72
562.29	2255.96
562.64	2258.91
563.00	2261.36
563.35	2264.95
563.71	2267.91
564.06	2271.27
564.42	2274.02
564.77	2276.74
565.12	2279.18
565.48	2281.29
565.83	2283.28
566.19	2284.75
566.54	2285.57
566.89	2286.90
567.25	2287.80
567.60	2288.99
567.96	2290.86
568.31	2291.78
568.66	2292.90
569.02	2293.54
569.37	2293.87
569.72	2294.96
570.08	2295.20
570.43	2295.30
570.78	2294.66
571.14	2293.22
571.49	2291.79
571.84	2291.38
572.20	2290.35
572.55	2289.33
572.90	2287.59
573.26	2286.18
573.61	2284.32
573.96	2282.74
574.31	2279.78
574.67	2276.74
575.02	2273.24
575.37	2269.66
575.72	2266.13
576.08	2262.81
576.43	2259.45
576.78	2255.85
577.13	2252.50
577.49	2249.30
577.84	2245.93
578.19	2242.19
578.54	2238.61
578.90	2234.60
579.25	2229.22
579.60	2224.37
579.95	2219.35
580.30	2214.51
580.66	2209.38
581.01	2204.49
581.36	2199.56
581.71	2195.47
582.06	2191.19
582.42	2186.79
582.77	2181.73
583.12	2177.09
583.47	2172.56
583.82	2167.93
584.17	2162.70
584.53	2157.36
584.88	2151.86
585.23	2146.27
585.58	2140.83
585.93	2135.37
586.28	2130.49
586.63	2125.50
586.98	2120.43
587.34	2115.65
587.69	2110.72
588.04	2105.68
588.39	2100.21
588.74	2093.79
589.09	2087.56
589.44	2080.91
589.79	2074.80
590.14	2069.13
590.49	2062.57
590.84	2056.12
591.19	2049.98
591.54	2043.62
591.89	2036.58
592.25	2029.93
592.60	2022.64
592.95	2015.27
593.30	2008.07
593.65	2000.50
594.00	1993.32
594.35	1985.97
594.70	1977.94
595.05	1970.99
595.40	1963.56
595.75	1956.02
596.10	1949.99
596.45	1943.43
596.80	1937.29
597.15	1930.75
597.50	1923.94
597.85	1917.51
598.19	1911.08
598.54	1904.20
598.89	1897.59
599.24	1891.43
599.59	1884.96
599.94	1878.78
600.29	1872.39
600.64	1865.74
600.99	1858.47
601.34	1851.85
601.69	1844.91
602.04	1838.16
602.39	1830.74
602.74	1824.06
603.08	1817.44
603.43	1810.73
603.78	1803.38
604.13	1796.05
604.48	1788.87
604.83	1781.84
605.18	1775.08
605.53	1767.00
605.87	1758.91
606.22	1751.58
606.57	1743.60
606.92	1735.98
607.27	1728.86
607.62	1722.15
607.96	1714.96
608.31	1708.53
608.66	1700.99
609.01	1693.58
609.36	1686.07
609.70	1678.01
610.05	1670.04
610.40	1662.37
610.75	1653.94
611.10	1646.33
611.44	1637.97
611.79	1629.94
612.14	1621.37
612.49	1612.12
612.83	1603.78
613.18	1595.69
613.53	1587.68
613.88	1579.25
614.22	1571.04
614.57	1562.46
614.92	1554.38
615.27	1547.02
615.61	1538.61
615.96	1530.45
616.31	1522.83
616.65	1515.49
617.00	1507.97
617.35	1500.15
617.70	1491.87
618.04	1483.52
618.39	1475.34
618.74	1467.82
619.08	1459.67
619.43	1452.02
619.78	1445.12
620.12	1437.96
620.47	1430.44
620.82	1422.31
621.16	1414.90
621.51	1407.28
621.85	1399.62
622.20	1391.08
622.55	1382.57
622.89	1374.70
623.24	1367.05
623.59	1359.59
623.93	1352.12
624.28	1344.92
624.62	1337.52
624.97	1330.35
625.32	1323.54
625.66	1316.44
626.01	1309.22
626.35	1301.80
626.70	1294.06
627.04	1286.45
627.39	1278.72
627.73	1271.26
628.08	1264.35
628.43	1257.04
628.77	1249.84
629.12	1242.44
629.46	1235.32
629.81	1227.90
630.15	1220.70
630.50	1213.43
630.84	1205.38
631.19	1197.35
631.53	1189.85
631.88	1182.24
632.22	1174.61
632.57	1167.23
632.91	1159.81
633.26	1152.42
633.60	1144.90
633.95	1137.76
634.29	1130.57
634.64	1123.89
634.98	1116.59
635.32	1109.48
635.67	1102.87
636.01	1096.10
636.36	1089.23
636.70	1082.66
637.05	1076.15
637.39	1069.72
637.73	1063.21
638.08	1057.19
638.42	1051.30
638.77	1044.84
639.11	1038.27
639.45	1031.84
639.80	1025.24
640.14	1018.88
640.49	1012.40
640.83	1006.17
641.17	999.98
641.52	993.68
641.86	987.12
642.20	981.26
642.55	974.86
642.89	968.50
643.23	961.94
643.58	956.18
643.92	949.98
644.26	943.98
644.61	937.94
644.95	931.98
645.29	925.58
645.64	918.83
645.98	912.45
646.32	906.57
646.66	900.62
647.01	894.83
647.35	889.05
647.69	883.12
648.04	877.59
648.38	871.81
648.72	865.88
649.06	859.99
649.41	854.12
649.75	848.23
650.09	842.25
650.43	836.52
650.78	830.43
651.12	824.47
651.46	818.74
651.80	813.03
652.14	807.62
652.49	802.14
652.83	796.89
653.17	791.34
653.51	785.71
653.85	780.22
654.20	774.68
654.54	768.59
654.88	762.83
655.22	756.95
655.56	751.22
655.90	745.68
656.25	740.33
656.59	734.95
656.93	729.89
657.27	724.70
657.61	719.24
657.95	714.02
658.29	708.97
658.64	703.64
658.98	698.24
659.32	692.71
659.66	687.53
660.00	682.29
660.34	677.30
660.68	672.39
661.02	667.41
661.36	662.60
661.70	658.13
662.05	653.86
662.39	649.58
662.73	645.15
663.07	640.79
663.41	636.34
663.75	631.91
664.09	627.29
664.43	622.95
664.77	618.86
665.11	614.69
665.45	610.49
665.79	606.42
666.13	602.33
666.47	598.26
666.81	594.13
667.15	590.01
667.49	586.08
667.83	582.21
668.17	578.28
668.51	574.28
668.85	570.24
669.19	566.28
669.53	562.41
669.87	558.58
670.21	554.95
670.55	551.33
670.89	547.84
671.23	544.47
671.57	540.92
671.91	537.37
672.25	533.84
672.58	530.40
672.92	526.91
673.26	523.71
673.60	520.52
673.94	517.38
674.28	514.44
674.62	511.48
674.96	508.34
675.30	505.44
675.64	502.49
675.97	499.74
676.31	496.92
676.65	493.99
676.99	491.26
677.33	488.29
677.67	485.45
678.01	482.47
678.34	479.52
678.68	476.67
679.02	473.83
679.36	471.06
679.70	468.27
680.04	465.55
680.37	462.66
680.71	459.85
681.05	457.29
681.39	454.53
681.73	451.88
682.06	449.40
682.40	446.83
682.74	444.25
683.08	441.65
683.42	439.05
683.75	436.54
684.09	433.98
684.43	431.55
684.77	429.07
685.10	426.68
685.44	424.32
685.78	422.02
686.12	419.75
686.45	417.43
686.79	415.17
687.13	412.95
687.46	410.79
687.80	408.64
688.14	406.37
688.48	404.35
688.81	402.18
689.15	400.02
689.49	397.88
689.82	395.79
690.16	393.73
690.50	391.77
690.83	389.87
691.17	387.83
691.51	385.95
691.84	384.10
692.18	382.20
692.52	380.22
692.85	378.23
693.19	376.37
693.52	374.51
693.86	372.66
694.20	370.92
694.53	369.11
694.87	367.22
695.21	365.42
695.54	363.60
695.88	361.77
696.21	360.00
696.55	358.29
696.88	356.63
697.22	354.94
697.56	353.25
697.89	351.56
698.23	350.02
698.56	348.40
698.90	346.84
699.23	345.20
699.57	343.63
699.90	342.12
700.24	340.56
700.58	339.09
700.91	337.60
701.25	336.16
701.58	334.84
701.92	333.54
702.25	332.19
702.59	330.78
702.92	329.47
703.26	328.20
703.59	326.94
703.93	325.72
704.26	324.50
704.60	323.25
704.93	321.99
705.26	320.70
705.60	319.46
705.93	318.27
706.27	317.22
706.60	316.17
706.94	315.08
707.27	313.96
707.61	312.86
707.94	311.81
708.27	310.73
708.61	309.65
708.94	308.58
709.28	307.59
709.61	306.66
709.94	305.74
710.28	304.73
710.61	303.75
710.95	302.70
711.28	301.79
711.61	300.86
711.95	299.90
712.28	298.98
712.61	298.03
712.95	297.12
713.28	296.26
713.61	295.37
713.95	294.51
714.28	293.67
714.61	292.86
714.95	292.04
715.28	291.20
715.61	290.32
715.95	289.50
716.28	288.63
716.61	287.77
716.95	286.90
717.28	286.15
717.61	285.40
717.94	284.67
718.28	283.83
718.61	283.08
718.94	282.41
719.27	281.78
719.61	281.11
719.94	280.47
720.27	279.70
720.60	279.04
720.94	278.38
721.27	277.77
721.60	277.21
721.93	276.63
722.27	276.04
722.60	275.50
722.93	274.92
723.26	274.39
723.59	273.87
723.93	273.37
724.26	272.81
724.59	272.19
724.92	271.67
725.25	271.20
725.59	270.71
725.92	270.20
726.25	269.64
726.58	269.18
726.91	268.65
727.24	268.22
727.57	267.75
727.91	267.24
728.24	266.77
728.57	266.27
728.90	265.79
729.23	265.29
729.56	264.87
729.89	264.39
730.22	263.86
730.55	263.39
730.89	262.93
731.22	262.50
731.55	262.10
731.88	261.64
732.21	261.21
732.54	260.77
732.87	260.34
733.20	259.96
733.53	259.52
733.86	259.14
734.19	258.73
734.52	258.36
734.85	258.05
735.18	257.66
735.51	257.29
735.84	256.90
736.17	256.59
736.50	256.15
736.83	255.92
737.16	255.63
737.49	255.28
737.82	254.91
738.15	254.60
738.48	254.27
738.81	253.97
739.14	253.65
739.47	253.34
739.80	253.01
740.13	252.68
740.46	252.38
740.79	252.06
741.12	251.76
741.45	251.45
741.78	251.12
742.11	250.84
742.44	250.50
742.77	250.26
743.10	249.93
743.43	249.66
743.75	249.27
744.08	249.14
744.41	248.90
744.74	248.64
745.07	248.33
745.40	248.05
745.73	247.84
746.06	247.54
746.39	247.27
746.71	247.02
747.04	246.79
747.37	246.53
747.70	246.29
748.03	246.09
748.36	245.86
748.68	245.60
749.01	245.36
749.34	245.16
749.67	244.95
750.00	244.72
750.33	244.57
750.65	244.38
750.98	244.01
751.31	243.73
751.64	243.56
751.97	243.41
752.29	243.21
752.62	242.94
752.95	242.74
753.28	242.52
753.60	242.31
753.93	242.10
754.26	241.92
754.59	241.70
754.91	241.42
755.24	241.20
755.57	241.04
755.90	240.83
756.22	240.62
756.55	240.38
756.88	240.16
757.20	239.92
757.53	239.73
757.86	239.56
758.19	239.44
758.51	239.24
758.84	239.02
759.17	238.84
759.49	238.68
759.82	238.56
760.15	238.43
760.47	238.29
760.80	238.12
761.13	237.98
761.45	237.83
761.78	237.71
762.11	237.56
762.43	237.39
762.76	237.28
763.08	237.15
763.41	237.04
763.74	236.93
764.06	236.74
764.39	236.59
764.71	236.45
765.04	236.32
765.37	236.19
765.69	236.08
766.02	235.93
766.34	235.77
766.67	235.62
767.00	235.53
767.32	235.43
767.65	235.39
767.97	235.25
768.30	235.11
768.62	234.99
768.95	234.84
769.27	234.75
769.60	234.68
769.92	234.53
770.25	234.41
770.57	234.29
770.90	234.24
771.22	234.13
771.55	234.02
771.87	233.94
772.20	233.85
772.52	233.85
772.85	233.89
773.17	233.81
773.50	233.78
773.82	233.65
774.15	233.51
774.47	233.36
774.80	233.26
775.12	233.20
775.45	233.14
775.77	233.08
776.09	233.01
776.42	232.89
776.74	232.86
777.07	232.77
777.39	232.71
777.72	232.63
778.04	232.58
778.36	232.53
778.69	232.43
779.01	232.38
779.33	232.23
779.66	232.06
779.98	232.01
780.31	231.86
780.63	231.86
780.95	231.85
781.28	231.78
781.60	231.73
781.92	231.70
782.25	231.65
782.57	231.61
782.89	231.56
783.22	231.50
783.54	231.44
783.86	231.42
784.19	231.37
784.51	231.36
784.83	231.29
785.16	231.24
785.48	231.18
785.80	231.10
786.12	231.04
786.45	231.00
786.77	230.99
787.09	230.96
