SpectraSuite Data File
++++++++++++++++++++++++++++++++++++
Date: Fri Feb 01 16:55:51 EST 2013
User: group
Dark Spectrum Present: No
Reference Spectrum Present: No
Number of Sampled Component Spectra: 1
Spectrometers: USB2E7196
Integration Time (usec): 35000 (USB2E7196)
Spectra Averaged: 100 (USB2E7196)
Boxcar Smoothing: 10 (USB2E7196)
Correct for Electrical Dark: No (USB2E7196)
Strobe/Lamp Enabled: No (USB2E7196)
Correct for Detector Non-linearity: No (USB2E7196)
Correct for Stray Light: No (USB2E7196)
Number of Pixels in Processed Spectrum: 2048
>>>>>Begin Processed Spectral Data<<<<<
339.09	0.00
339.48	213.65
339.86	214.94
340.24	216.43
340.63	217.46
341.01	220.45
341.39	220.05
341.78	221.38
342.16	222.98
342.54	223.57
342.93	211.81
343.31	222.51
343.69	223.06
344.07	223.50
344.46	223.91
344.84	224.29
345.22	224.55
345.60	224.79
345.99	224.99
346.37	225.10
346.75	225.19
347.13	225.28
347.52	225.30
347.90	225.38
348.28	225.40
348.66	225.45
349.05	225.48
349.43	225.45
349.81	225.47
350.19	225.52
350.57	225.57
350.96	225.62
351.34	225.67
351.72	225.71
352.10	225.83
352.48	225.90
352.87	225.95
353.25	225.99
353.63	226.06
354.01	226.09
354.39	226.17
354.77	226.20
355.15	226.28
355.54	226.37
355.92	226.40
356.30	226.47
356.68	226.58
357.06	226.61
357.44	226.67
357.82	226.71
358.20	226.79
358.58	226.82
358.97	226.91
359.35	227.01
359.73	227.09
360.11	227.12
360.49	227.18
360.87	227.25
361.25	227.29
361.63	227.37
362.01	227.43
362.39	227.46
362.77	227.53
363.15	227.55
363.53	227.53
363.91	227.52
364.29	227.55
364.67	227.49
365.05	227.52
365.43	227.57
365.81	227.61
366.19	227.66
366.57	227.73
366.95	227.68
367.33	227.66
367.71	227.66
368.09	227.67
368.47	227.65
368.85	227.61
369.23	227.61
369.61	227.57
369.99	227.60
370.37	227.59
370.75	227.62
371.13	227.60
371.51	227.61
371.89	227.60
372.27	227.55
372.65	227.50
373.03	227.49
373.41	227.44
373.78	227.36
374.16	227.24
374.54	227.13
374.92	227.09
375.30	227.02
375.68	226.94
376.06	226.87
376.44	226.79
376.82	226.72
377.19	226.68
377.57	226.59
377.95	226.46
378.33	226.37
378.71	226.25
379.09	226.16
379.47	226.10
379.84	226.03
380.22	225.97
380.60	225.90
380.98	225.81
381.36	225.72
381.73	225.67
382.11	225.65
382.49	225.60
382.87	225.51
383.25	225.50
383.62	225.55
384.00	225.47
384.38	225.43
384.76	225.40
385.13	225.36
385.51	225.33
385.89	225.27
386.27	225.26
386.64	225.22
387.02	225.18
387.40	225.11
387.78	225.11
388.15	225.10
388.53	225.06
388.91	225.01
389.29	225.00
389.66	224.99
390.04	224.93
390.42	224.94
390.79	224.96
391.17	224.92
391.55	224.82
391.92	224.82
392.30	224.80
392.68	224.77
393.05	224.74
393.43	224.73
393.81	224.73
394.18	224.70
394.56	224.71
394.94	224.74
395.31	224.76
395.69	224.77
396.06	224.78
396.44	224.81
396.82	224.82
397.19	224.92
397.57	224.92
397.95	225.00
398.32	224.97
398.70	224.99
399.07	225.06
399.45	225.09
399.82	225.14
400.20	225.23
400.58	225.30
400.95	225.35
401.33	225.45
401.70	225.59
402.08	225.68
402.45	225.78
402.83	225.88
403.20	225.97
403.58	226.07
403.95	226.18
404.33	226.32
404.71	226.44
405.08	226.59
405.46	226.74
405.83	226.87
406.21	227.01
406.58	227.21
406.96	227.34
407.33	227.53
407.70	227.72
408.08	227.92
408.45	228.16
408.83	228.36
409.20	228.53
409.58	228.73
409.95	228.97
410.33	229.21
410.70	229.44
411.08	229.75
411.45	230.03
411.82	230.30
412.20	230.65
412.57	231.08
412.95	231.37
413.32	231.77
413.69	232.16
414.07	232.65
414.44	233.10
414.82	233.58
415.19	234.12
415.56	234.67
415.94	235.28
416.31	235.87
416.68	236.50
417.06	237.24
417.43	237.92
417.81	238.69
418.18	239.46
418.55	240.32
418.93	241.17
419.30	242.06
419.67	243.02
420.04	243.96
420.42	244.94
420.79	246.12
421.16	247.28
421.54	248.46
421.91	249.61
422.28	250.84
422.66	252.20
423.03	253.47
423.40	254.79
423.77	256.16
424.15	257.61
424.52	259.09
424.89	260.69
425.26	262.22
425.64	263.69
426.01	265.27
426.38	266.88
426.75	268.58
427.13	270.33
427.50	272.12
427.87	273.95
428.24	275.83
428.61	277.55
428.99	279.49
429.36	281.61
429.73	283.70
430.10	285.72
430.47	287.73
430.85	289.88
431.22	292.12
431.59	294.49
431.96	296.70
432.33	299.19
432.70	301.58
433.08	304.43
433.45	307.02
433.82	309.61
434.19	312.51
434.56	315.30
434.93	317.94
435.30	320.56
435.68	323.47
436.05	326.27
436.42	329.06
436.79	331.56
437.16	334.22
437.53	337.02
437.90	339.80
438.27	342.52
438.64	345.33
439.01	347.91
439.38	350.13
439.75	352.30
440.13	354.76
440.50	356.99
440.87	358.80
441.24	360.71
441.61	362.87
441.98	364.29
442.35	366.04
442.72	367.87
443.09	369.62
443.46	370.62
443.83	371.18
444.20	371.70
444.57	372.53
444.94	372.81
445.31	373.17
445.68	373.57
446.05	373.69
446.42	373.30
446.79	372.87
447.16	372.41
447.53	372.08
447.90	370.95
448.27	369.82
448.64	368.23
449.01	367.14
449.37	365.16
449.74	363.30
450.11	361.08
450.48	358.66
450.85	356.21
451.22	354.07
451.59	352.07
451.96	350.14
452.33	347.54
452.70	345.19
453.07	342.39
453.43	339.47
453.80	336.71
454.17	334.06
454.54	331.55
454.91	328.87
455.28	326.22
455.65	323.73
456.02	321.32
456.38	319.21
456.75	316.61
457.12	314.42
457.49	312.22
457.86	310.06
458.23	308.19
458.59	306.13
458.96	304.07
459.33	302.24
459.70	300.39
460.07	298.91
460.43	297.20
460.80	295.58
461.17	294.20
461.54	292.70
461.91	291.25
462.27	289.77
462.64	288.55
463.01	287.21
463.38	285.92
463.74	284.61
464.11	283.45
464.48	282.40
464.85	281.24
465.21	280.39
465.58	279.50
465.95	278.44
466.32	277.56
466.68	276.69
467.05	275.79
467.42	274.93
467.78	274.00
468.15	273.18
468.52	272.52
468.88	271.65
469.25	270.91
469.62	270.35
469.98	269.75
470.35	269.14
470.72	268.60
471.08	267.95
471.45	267.38
471.82	266.89
472.18	266.32
472.55	265.95
472.92	265.48
473.28	265.08
473.65	264.63
474.02	264.24
474.38	263.90
474.75	263.63
475.11	263.30
475.48	263.09
475.85	262.88
476.21	262.70
476.58	262.53
476.94	262.43
477.31	262.23
477.67	262.08
478.04	262.01
478.41	261.97
478.77	262.05
479.14	262.03
479.50	262.02
479.87	262.11
480.23	262.22
480.60	262.27
480.96	262.33
481.33	262.55
481.69	262.72
482.06	262.90
482.42	263.10
482.79	263.36
483.15	263.66
483.52	264.01
483.88	264.37
484.25	264.73
484.61	265.16
484.98	265.66
485.34	266.23
485.71	266.78
486.07	267.35
486.44	267.93
486.80	268.64
487.17	269.38
487.53	270.19
487.90	270.99
488.26	271.93
488.62	272.94
488.99	273.93
489.35	274.98
489.72	276.06
490.08	277.21
490.44	278.43
490.81	279.75
491.17	281.14
491.54	282.57
491.90	284.12
492.26	285.76
492.63	287.45
492.99	289.19
493.36	291.07
493.72	293.10
494.08	295.16
494.45	297.38
494.81	299.74
495.17	302.16
495.54	304.75
495.90	307.43
496.26	310.21
496.63	313.15
496.99	316.22
497.35	319.51
497.72	322.90
498.08	326.46
498.44	330.10
498.80	333.96
499.17	338.00
499.53	342.12
499.89	346.46
500.26	350.93
500.62	355.60
500.98	360.56
501.34	365.58
501.71	370.91
502.07	376.37
502.43	381.94
502.79	387.70
503.16	393.78
503.52	400.05
503.88	406.37
504.24	412.93
504.60	419.77
504.97	426.81
505.33	434.09
505.69	441.65
506.05	449.37
506.41	457.23
506.78	465.30
507.14	473.73
507.50	482.36
507.86	491.35
508.22	500.43
508.59	509.55
508.95	519.05
509.31	528.73
509.67	538.71
510.03	548.89
510.39	559.44
510.75	570.07
511.12	580.87
511.48	592.11
511.84	603.49
512.20	614.90
512.56	626.76
512.92	638.81
513.28	651.13
513.64	663.48
514.00	676.08
514.37	688.94
514.73	701.83
515.09	714.75
515.45	727.90
515.81	741.28
516.17	755.11
516.53	769.03
516.89	783.14
517.25	797.10
517.61	811.33
517.97	825.53
518.33	839.77
518.69	854.40
519.05	869.16
519.41	884.11
519.77	899.44
520.13	914.69
520.49	929.85
520.85	944.94
521.21	960.40
521.57	976.27
521.93	991.73
522.29	1007.83
522.65	1023.78
523.01	1039.69
523.37	1055.56
523.73	1071.40
524.09	1087.33
524.45	1103.22
524.81	1119.57
525.17	1136.06
525.53	1152.72
525.89	1169.38
526.25	1185.87
526.61	1201.99
526.97	1218.35
527.33	1234.54
527.68	1250.94
528.04	1267.14
528.40	1283.45
528.76	1300.13
529.12	1316.58
529.48	1333.27
529.84	1348.90
530.20	1365.28
530.56	1381.97
530.91	1399.13
531.27	1415.72
531.63	1431.94
531.99	1448.29
532.35	1463.97
532.71	1479.72
533.07	1495.58
533.42	1511.11
533.78	1526.99
534.14	1542.94
534.50	1558.15
534.86	1573.74
535.21	1588.54
535.57	1604.20
535.93	1619.38
536.29	1633.97
536.65	1648.59
537.00	1662.90
537.36	1678.08
537.72	1692.40
538.08	1706.55
538.44	1720.00
538.79	1733.58
539.15	1746.86
539.51	1760.29
539.87	1774.41
540.22	1787.71
540.58	1801.28
540.94	1814.20
541.29	1826.70
541.65	1839.09
542.01	1852.01
542.37	1864.15
542.72	1876.26
543.08	1887.77
543.44	1900.09
543.79	1911.26
544.15	1922.04
544.51	1933.50
544.87	1944.14
545.22	1954.73
545.58	1964.81
545.94	1974.37
546.29	1984.22
546.65	1993.91
547.01	2003.07
547.36	2011.65
547.72	2019.99
548.07	2027.70
548.43	2035.76
548.79	2043.60
549.14	2051.16
549.50	2058.33
549.86	2065.80
550.21	2073.07
550.57	2080.28
550.92	2086.78
551.28	2093.66
551.64	2100.68
551.99	2107.17
552.35	2113.43
552.70	2119.54
553.06	2125.60
553.41	2131.82
553.77	2137.59
554.13	2143.58
554.48	2149.60
554.84	2155.24
555.19	2160.48
555.55	2165.63
555.90	2170.23
556.26	2175.28
556.61	2180.01
556.97	2184.51
557.32	2188.59
557.68	2192.82
558.03	2197.07
558.39	2200.66
558.74	2205.24
559.10	2209.24
559.45	2212.99
559.81	2217.19
560.16	2221.07
560.52	2224.34
560.87	2227.95
561.23	2230.82
561.58	2233.89
561.94	2236.57
562.29	2238.81
562.64	2241.77
563.00	2244.50
563.35	2248.11
563.71	2251.24
564.06	2254.42
564.42	2257.35
564.77	2260.18
565.12	2262.69
565.48	2264.77
565.83	2266.92
566.19	2268.62
566.54	2269.57
566.89	2270.84
567.25	2271.69
567.60	2273.09
567.96	2274.98
568.31	2275.96
568.66	2277.25
569.02	2278.09
569.37	2278.58
569.72	2279.82
570.08	2279.99
570.43	2280.17
570.78	2279.85
571.14	2278.53
571.49	2277.39
571.84	2277.22
572.20	2276.30
572.55	2275.34
572.90	2273.87
573.26	2272.69
573.61	2270.99
573.96	2269.53
574.31	2266.62
574.67	2263.75
575.02	2260.26
575.37	2256.84
575.72	2253.31
576.08	2249.87
576.43	2246.60
576.78	2243.23
577.13	2240.14
577.49	2237.14
577.84	2233.84
578.19	2230.20
578.54	2226.92
578.90	2223.02
579.25	2217.49
579.60	2212.73
579.95	2208.00
580.30	2203.08
580.66	2198.06
581.01	2193.23
581.36	2188.38
581.71	2184.64
582.06	2180.54
582.42	2176.38
582.77	2171.56
583.12	2167.21
583.47	2162.88
583.82	2158.24
584.17	2153.30
584.53	2147.86
584.88	2142.53
585.23	2137.06
585.58	2131.72
585.93	2126.29
586.28	2121.59
586.63	2116.88
586.98	2111.94
587.34	2107.18
587.69	2102.49
588.04	2097.32
588.39	2091.95
588.74	2085.69
589.09	2079.50
589.44	2072.80
589.79	2066.77
590.14	2061.08
590.49	2054.41
590.84	2048.07
591.19	2042.09
591.54	2035.57
591.89	2028.56
592.25	2021.94
592.60	2014.74
592.95	2007.41
593.30	2000.24
593.65	1992.72
594.00	1985.69
594.35	1978.47
594.70	1970.72
595.05	1963.69
595.40	1956.64
595.75	1949.27
596.10	1943.20
596.45	1936.67
596.80	1930.60
597.15	1924.31
597.50	1917.49
597.85	1911.30
598.19	1904.84
598.54	1897.85
598.89	1891.40
599.24	1885.46
599.59	1878.97
599.94	1872.92
600.29	1866.65
600.64	1860.15
600.99	1852.95
601.34	1846.45
601.69	1839.57
602.04	1832.89
602.39	1825.64
602.74	1818.97
603.08	1812.22
603.43	1805.50
603.78	1798.37
604.13	1791.26
604.48	1783.99
604.83	1777.08
605.18	1770.38
605.53	1762.49
605.87	1754.60
606.22	1747.33
606.57	1739.55
606.92	1732.28
607.27	1725.29
607.62	1718.49
607.96	1711.41
608.31	1705.04
608.66	1697.47
609.01	1690.10
609.36	1682.52
609.70	1674.63
610.05	1666.63
610.40	1659.06
610.75	1650.90
611.10	1643.23
611.44	1634.83
611.79	1626.86
612.14	1618.38
612.49	1609.06
612.83	1600.67
613.18	1592.57
613.53	1584.59
613.88	1576.03
614.22	1567.81
614.57	1559.11
614.92	1551.13
615.27	1543.55
615.61	1535.17
615.96	1527.08
616.31	1519.46
616.65	1512.09
617.00	1504.61
617.35	1496.93
617.70	1488.73
618.04	1480.33
618.39	1472.18
618.74	1464.70
619.08	1456.43
619.43	1448.86
619.78	1442.14
620.12	1435.16
620.47	1427.67
620.82	1419.48
621.16	1412.08
621.51	1404.42
621.85	1396.86
622.20	1388.42
622.55	1380.08
622.89	1372.23
623.24	1364.54
623.59	1357.13
623.93	1349.63
624.28	1342.43
624.62	1334.96
624.97	1327.76
625.32	1320.93
625.66	1313.85
626.01	1306.79
626.35	1299.52
626.70	1291.81
627.04	1284.10
627.39	1276.23
627.73	1268.88
628.08	1262.02
628.43	1254.88
628.77	1247.64
629.12	1240.13
629.46	1233.06
629.81	1225.48
630.15	1218.20
630.50	1210.89
630.84	1202.76
631.19	1194.80
631.53	1187.27
631.88	1179.75
632.22	1172.11
632.57	1164.84
632.91	1157.36
633.26	1149.85
633.60	1142.43
633.95	1135.25
634.29	1128.12
634.64	1121.47
634.98	1114.18
635.32	1107.15
635.67	1100.44
636.01	1093.70
636.36	1086.89
636.70	1080.23
637.05	1073.82
637.39	1067.39
637.73	1061.00
638.08	1055.12
638.42	1049.10
638.77	1042.65
639.11	1036.09
639.45	1029.77
639.80	1023.16
640.14	1016.76
640.49	1010.27
640.83	1003.93
641.17	997.70
641.52	991.40
641.86	984.94
642.20	979.07
642.55	972.58
642.89	966.14
643.23	959.58
643.58	953.90
643.92	947.72
644.26	941.73
644.61	935.71
644.95	929.70
645.29	923.12
645.64	916.48
645.98	910.17
646.32	904.16
646.66	898.13
647.01	892.38
647.35	886.71
647.69	880.83
648.04	875.25
648.38	869.52
648.72	863.70
649.06	857.68
649.41	851.79
649.75	845.89
650.09	839.97
650.43	834.30
650.78	828.16
651.12	822.27
651.46	816.58
651.80	810.95
652.14	805.54
652.49	800.20
652.83	795.00
653.17	789.37
653.51	783.78
653.85	778.36
654.20	772.75
654.54	766.80
654.88	761.08
655.22	755.21
655.56	749.51
655.90	743.94
656.25	738.72
656.59	733.36
656.93	728.35
657.27	723.26
657.61	717.82
657.95	712.79
658.29	707.72
658.64	702.37
658.98	697.02
659.32	691.57
659.66	686.39
660.00	681.17
660.34	676.23
660.68	671.37
661.02	666.37
661.36	661.60
661.70	657.05
662.05	652.76
662.39	648.51
662.73	644.09
663.07	639.82
663.41	635.44
663.75	630.99
664.09	626.41
664.43	622.01
664.77	617.92
665.11	613.58
665.45	609.36
665.79	605.32
666.13	601.22
666.47	597.11
666.81	592.97
667.15	588.85
667.49	584.93
667.83	581.02
668.17	577.07
668.51	573.05
668.85	569.04
669.19	565.15
669.53	561.37
669.87	557.55
670.21	553.79
670.55	550.10
670.89	546.64
671.23	543.22
671.57	539.69
671.91	536.16
672.25	532.63
672.58	529.23
672.92	525.84
673.26	522.68
673.60	519.55
673.94	516.44
674.28	513.54
674.62	510.60
674.96	507.60
675.30	504.73
675.64	501.81
675.97	499.01
676.31	496.16
676.65	493.20
676.99	490.50
677.33	487.67
677.67	484.87
678.01	481.87
678.34	478.93
678.68	476.04
679.02	473.21
679.36	470.52
679.70	467.74
680.04	465.00
680.37	462.15
680.71	459.32
681.05	456.70
681.39	453.98
681.73	451.32
682.06	448.76
682.40	446.22
682.74	443.64
683.08	441.07
683.42	438.52
683.75	436.01
684.09	433.36
684.43	430.86
684.77	428.37
685.10	426.02
685.44	423.69
685.78	421.41
686.12	419.14
686.45	416.80
686.79	414.53
687.13	412.35
687.46	410.17
687.80	408.05
688.14	405.75
688.48	403.66
688.81	401.45
689.15	399.30
689.49	397.15
689.82	395.09
690.16	393.01
690.50	391.01
690.83	389.08
691.17	387.11
691.51	385.21
691.84	383.37
692.18	381.45
692.52	379.43
692.85	377.50
693.19	375.69
693.52	373.85
693.86	372.03
694.20	370.24
694.53	368.44
694.87	366.55
695.21	364.82
695.54	362.98
695.88	361.21
696.21	359.46
696.55	357.74
696.88	356.06
697.22	354.42
697.56	352.85
697.89	351.21
698.23	349.63
698.56	347.99
698.90	346.45
699.23	344.82
699.57	343.30
699.90	341.73
700.24	340.12
700.58	338.61
700.91	337.16
701.25	335.70
701.58	334.31
701.92	332.97
702.25	331.64
702.59	330.30
702.92	328.99
703.26	327.68
703.59	326.42
703.93	325.27
704.26	324.04
704.60	322.69
704.93	321.42
705.26	320.16
705.60	318.98
705.93	317.81
706.27	316.79
706.60	315.76
706.94	314.73
707.27	313.65
707.61	312.60
707.94	311.52
708.27	310.41
708.61	309.36
708.94	308.32
709.28	307.29
709.61	306.33
709.94	305.43
710.28	304.46
710.61	303.46
710.95	302.40
711.28	301.48
711.61	300.53
711.95	299.60
712.28	298.69
712.61	297.72
712.95	296.77
713.28	295.85
713.61	294.93
713.95	294.02
714.28	293.18
714.61	292.30
714.95	291.45
715.28	290.61
715.61	289.69
715.95	288.87
716.28	288.01
716.61	287.17
716.95	286.31
717.28	285.54
717.61	284.77
717.94	283.99
718.28	283.18
718.61	282.46
718.94	281.77
719.27	281.10
719.61	280.46
719.94	279.80
720.27	279.11
720.60	278.46
720.94	277.81
721.27	277.18
721.60	276.64
721.93	276.08
722.27	275.54
722.60	274.97
722.93	274.39
723.26	273.86
723.59	273.29
723.93	272.76
724.26	272.17
724.59	271.62
724.92	271.13
725.25	270.66
725.59	270.14
725.92	269.63
726.25	269.10
726.58	268.60
726.91	268.11
727.24	267.63
727.57	267.16
727.91	266.64
728.24	266.20
728.57	265.65
728.90	265.18
729.23	264.68
729.56	264.25
729.89	263.80
730.22	263.32
730.55	262.86
730.89	262.37
731.22	261.88
731.55	261.45
731.88	260.97
732.21	260.48
732.54	260.07
732.87	259.63
733.20	259.24
733.53	258.86
733.86	258.47
734.19	258.04
734.52	257.61
734.85	257.30
735.18	256.92
735.51	256.59
735.84	256.19
736.17	255.83
736.50	255.45
736.83	255.19
737.16	254.86
737.49	254.51
737.82	254.20
738.15	253.92
738.48	253.60
738.81	253.30
739.14	253.02
739.47	252.69
739.80	252.39
740.13	252.07
740.46	251.75
740.79	251.41
741.12	251.12
741.45	250.86
741.78	250.49
742.11	250.21
742.44	249.88
742.77	249.59
743.10	249.31
743.43	249.03
743.75	248.62
744.08	248.45
744.41	248.19
744.74	247.92
745.07	247.65
745.40	247.39
745.73	247.14
746.06	246.88
746.39	246.62
746.71	246.31
747.04	246.04
747.37	245.77
747.70	245.54
748.03	245.26
748.36	245.06
748.68	244.82
749.01	244.55
749.34	244.34
749.67	244.14
750.00	243.89
750.33	243.73
750.65	243.53
750.98	243.19
751.31	242.98
751.64	242.79
751.97	242.64
752.29	242.43
752.62	242.18
752.95	241.97
753.28	241.77
753.60	241.59
753.93	241.40
754.26	241.20
754.59	240.96
754.91	240.80
755.24	240.56
755.57	240.38
755.90	240.17
756.22	239.97
756.55	239.77
756.88	239.59
757.20	239.35
757.53	239.17
757.86	238.98
758.19	238.83
758.51	238.67
758.84	238.44
759.17	238.28
759.49	238.14
759.82	238.01
760.15	237.87
760.47	237.72
760.80	237.58
761.13	237.46
761.45	237.33
761.78	237.18
762.11	237.03
762.43	236.91
762.76	236.78
763.08	236.63
763.41	236.49
763.74	236.30
764.06	236.18
764.39	236.04
764.71	235.95
765.04	235.82
765.37	235.65
765.69	235.51
766.02	235.39
766.34	235.23
766.67	235.11
767.00	234.99
767.32	234.91
767.65	234.85
767.97	234.72
768.30	234.61
768.62	234.52
768.95	234.40
769.27	234.28
769.60	234.17
769.92	234.04
770.25	233.92
770.57	233.84
770.90	233.73
771.22	233.60
771.55	233.48
771.87	233.37
772.20	233.29
772.52	233.27
772.85	233.29
773.17	233.21
773.50	233.09
773.82	232.97
774.15	232.85
774.47	232.69
774.80	232.57
775.12	232.46
775.45	232.36
775.77	232.31
776.09	232.23
776.42	232.19
776.74	232.14
777.07	232.08
777.39	232.00
777.72	231.93
778.04	231.87
778.36	231.82
778.69	231.76
779.01	231.68
779.33	231.52
779.66	231.34
779.98	231.26
780.31	231.18
780.63	231.17
780.95	231.11
781.28	231.04
781.60	231.00
781.92	230.94
782.25	230.89
782.57	230.80
782.89	230.71
783.22	230.63
783.54	230.56
783.86	230.51
784.19	230.47
784.51	230.45
784.83	230.39
785.16	230.33
785.48	230.26
785.80	230.20
786.12	230.15
786.45	230.10
786.77	230.05
787.09	230.03
