SpectraSuite Data File
++++++++++++++++++++++++++++++++++++
Date: Fri Feb 01 15:40:25 EST 2013
User: group
Dark Spectrum Present: No
Reference Spectrum Present: No
Number of Sampled Component Spectra: 1
Spectrometers: USB2E7196
Integration Time (usec): 35000 (USB2E7196)
Spectra Averaged: 100 (USB2E7196)
Boxcar Smoothing: 10 (USB2E7196)
Correct for Electrical Dark: No (USB2E7196)
Strobe/Lamp Enabled: No (USB2E7196)
Correct for Detector Non-linearity: No (USB2E7196)
Correct for Stray Light: No (USB2E7196)
Number of Pixels in Processed Spectrum: 2048
>>>>>Begin Processed Spectral Data<<<<<
339.09	0.00
339.48	215.07
339.86	216.77
340.24	217.62
340.63	219.40
341.01	221.96
341.39	222.40
341.78	223.12
342.16	224.35
342.54	225.17
342.93	213.46
343.31	224.23
343.69	224.81
344.07	225.26
344.46	225.68
344.84	226.06
345.22	226.32
345.60	226.57
345.99	226.77
346.37	226.90
346.75	227.01
347.13	227.05
347.52	227.10
347.90	227.17
348.28	227.18
348.66	227.24
349.05	227.24
349.43	227.27
349.81	227.31
350.19	227.33
350.57	227.39
350.96	227.45
351.34	227.56
351.72	227.61
352.10	227.69
352.48	227.77
352.87	227.82
353.25	227.88
353.63	227.92
354.01	227.97
354.39	228.07
354.77	228.10
355.15	228.23
355.54	228.31
355.92	228.36
356.30	228.43
356.68	228.52
357.06	228.58
357.44	228.64
357.82	228.69
358.20	228.77
358.58	228.83
358.97	228.87
359.35	228.93
359.73	229.00
360.11	229.05
360.49	229.11
360.87	229.14
361.25	229.21
361.63	229.27
362.01	229.31
362.39	229.35
362.77	229.42
363.15	229.46
363.53	229.46
363.91	229.48
364.29	229.47
364.67	229.44
365.05	229.47
365.43	229.50
365.81	229.53
366.19	229.60
366.57	229.65
366.95	229.63
367.33	229.61
367.71	229.63
368.09	229.66
368.47	229.62
368.85	229.61
369.23	229.59
369.61	229.56
369.99	229.58
370.37	229.52
370.75	229.53
371.13	229.48
371.51	229.45
371.89	229.42
372.27	229.42
372.65	229.37
373.03	229.33
373.41	229.27
373.78	229.20
374.16	229.07
374.54	228.99
374.92	228.94
375.30	228.86
375.68	228.74
376.06	228.66
376.44	228.62
376.82	228.55
377.19	228.49
377.57	228.37
377.95	228.28
378.33	228.21
378.71	228.06
379.09	227.96
379.47	227.89
379.84	227.82
380.22	227.71
380.60	227.60
380.98	227.48
381.36	227.42
381.73	227.32
382.11	227.28
382.49	227.16
382.87	227.07
383.25	227.02
383.62	227.09
384.00	227.05
384.38	226.96
384.76	226.91
385.13	226.85
385.51	226.81
385.89	226.74
386.27	226.71
386.64	226.70
387.02	226.68
387.40	226.63
387.78	226.58
388.15	226.55
388.53	226.52
388.91	226.49
389.29	226.43
389.66	226.41
390.04	226.34
390.42	226.37
390.79	226.32
391.17	226.29
391.55	226.15
391.92	226.14
392.30	226.16
392.68	226.13
393.05	226.15
393.43	226.17
393.81	226.19
394.18	226.21
394.56	226.19
394.94	226.22
395.31	226.22
395.69	226.32
396.06	226.33
396.44	226.36
396.82	226.41
397.19	226.48
397.57	226.51
397.95	226.59
398.32	226.58
398.70	226.67
399.07	226.75
399.45	226.77
399.82	226.78
400.20	226.87
400.58	226.93
400.95	226.94
401.33	227.00
401.70	227.12
402.08	227.22
402.45	227.31
402.83	227.39
403.20	227.50
403.58	227.54
403.95	227.70
404.33	227.81
404.71	227.94
405.08	228.12
405.46	228.27
405.83	228.42
406.21	228.61
406.58	228.80
406.96	228.95
407.33	229.15
407.70	229.38
408.08	229.60
408.45	229.84
408.83	230.06
409.20	230.29
409.58	230.48
409.95	230.70
410.33	231.01
410.70	231.31
411.08	231.61
411.45	231.94
411.82	232.23
412.20	232.61
412.57	233.02
412.95	233.34
413.32	233.72
413.69	234.15
414.07	234.58
414.44	235.03
414.82	235.54
415.19	236.09
415.56	236.63
415.94	237.14
416.31	237.78
416.68	238.38
417.06	239.12
417.43	239.82
417.81	240.58
418.18	241.32
418.55	242.16
418.93	243.02
419.30	243.90
419.67	244.86
420.04	245.83
420.42	246.82
420.79	247.99
421.16	249.15
421.54	250.31
421.91	251.50
422.28	252.74
422.66	254.06
423.03	255.42
423.40	256.76
423.77	258.18
424.15	259.61
424.52	261.19
424.89	262.76
425.26	264.31
425.64	265.76
426.01	267.36
426.38	268.99
426.75	270.67
427.13	272.40
427.50	274.20
427.87	276.07
428.24	277.90
428.61	279.68
428.99	281.63
429.36	283.76
429.73	285.87
430.10	287.93
430.47	290.00
430.85	292.09
431.22	294.34
431.59	296.77
431.96	299.01
432.33	301.46
432.70	303.90
433.08	306.70
433.45	309.36
433.82	311.99
434.19	314.91
434.56	317.75
434.93	320.43
435.30	323.05
435.68	325.96
436.05	328.80
436.42	331.60
436.79	334.14
437.16	336.84
437.53	339.66
437.90	342.45
438.27	345.19
438.64	348.04
439.01	350.60
439.38	352.83
439.75	355.02
440.13	357.50
440.50	359.82
440.87	361.68
441.24	363.60
441.61	365.79
441.98	367.30
442.35	369.09
442.72	370.90
443.09	372.75
443.46	373.74
443.83	374.33
444.20	374.81
444.57	375.63
444.94	375.88
445.31	376.21
445.68	376.57
446.05	376.65
446.42	376.23
446.79	375.86
447.16	375.42
447.53	375.12
447.90	373.97
448.27	372.80
448.64	371.21
449.01	370.10
449.37	368.10
449.74	366.19
450.11	363.98
450.48	361.47
450.85	358.92
451.22	356.79
451.59	354.79
451.96	352.87
452.33	350.26
452.70	347.93
453.07	345.10
453.43	342.21
453.80	339.41
454.17	336.74
454.54	334.18
454.91	331.44
455.28	328.74
455.65	326.26
456.02	323.79
456.38	321.65
456.75	318.98
457.12	316.72
457.49	314.44
457.86	312.26
458.23	310.49
458.59	308.41
458.96	306.28
459.33	304.36
459.70	302.49
460.07	301.00
460.43	299.25
460.80	297.62
461.17	296.19
461.54	294.71
461.91	293.32
462.27	291.86
462.64	290.58
463.01	289.23
463.38	287.94
463.74	286.59
464.11	285.39
464.48	284.38
464.85	283.26
465.21	282.41
465.58	281.48
465.95	280.34
466.32	279.44
466.68	278.56
467.05	277.68
467.42	276.79
467.78	275.81
468.15	274.96
468.52	274.32
468.88	273.44
469.25	272.70
469.62	272.04
469.98	271.37
470.35	270.74
470.72	270.13
471.08	269.45
471.45	268.92
471.82	268.41
472.18	267.79
472.55	267.36
472.92	266.80
473.28	266.32
473.65	265.88
474.02	265.43
474.38	265.08
474.75	264.77
475.11	264.44
475.48	264.22
475.85	264.00
476.21	263.76
476.58	263.59
476.94	263.39
477.31	263.21
477.67	263.09
478.04	262.98
478.41	262.94
478.77	263.03
479.14	262.95
479.50	262.94
479.87	263.05
480.23	263.16
480.60	263.24
480.96	263.38
481.33	263.60
481.69	263.83
482.06	264.03
482.42	264.24
482.79	264.52
483.15	264.88
483.52	265.28
483.88	265.65
484.25	266.03
484.61	266.47
484.98	266.95
485.34	267.50
485.71	268.09
486.07	268.68
486.44	269.24
486.80	269.99
487.17	270.74
487.53	271.54
487.90	272.37
488.26	273.33
488.62	274.28
488.99	275.25
489.35	276.25
489.72	277.36
490.08	278.51
490.44	279.72
490.81	281.03
491.17	282.39
491.54	283.86
491.90	285.41
492.26	287.08
492.63	288.81
492.99	290.59
493.36	292.46
493.72	294.50
494.08	296.60
494.45	298.84
494.81	301.22
495.17	303.67
495.54	306.24
495.90	308.91
496.26	311.70
496.63	314.65
496.99	317.79
497.35	321.07
497.72	324.51
498.08	328.03
498.44	331.65
498.80	335.56
499.17	339.56
499.53	343.74
499.89	348.07
500.26	352.59
500.62	357.25
500.98	362.20
501.34	367.27
501.71	372.59
502.07	377.97
502.43	383.54
502.79	389.34
503.16	395.40
503.52	401.65
503.88	408.08
504.24	414.72
504.60	421.64
504.97	428.72
505.33	436.02
505.69	443.73
506.05	451.57
506.41	459.40
506.78	467.55
507.14	475.96
507.50	484.65
507.86	493.59
508.22	502.82
508.59	512.05
508.95	521.63
509.31	531.43
509.67	541.56
510.03	551.82
510.39	562.39
510.75	573.18
511.12	584.17
511.48	595.47
511.84	606.93
512.20	618.48
512.56	630.45
512.92	642.71
513.28	655.06
513.64	667.46
514.00	680.17
514.37	693.24
514.73	706.32
515.09	719.40
515.45	732.70
515.81	746.25
516.17	760.28
516.53	774.45
516.89	788.63
517.25	802.85
517.61	817.36
517.97	831.80
518.33	846.12
518.69	860.89
519.05	875.95
519.41	891.06
519.77	906.55
520.13	922.03
520.49	937.37
520.85	952.83
521.21	968.69
521.57	984.93
521.93	1000.60
522.29	1016.99
522.65	1033.24
523.01	1049.54
523.37	1065.61
523.73	1081.82
524.09	1097.83
524.45	1114.24
524.81	1130.89
525.17	1147.75
525.53	1164.66
525.89	1181.71
526.25	1198.49
526.61	1214.88
526.97	1231.66
527.33	1248.16
527.68	1264.78
528.04	1281.22
528.40	1297.83
528.76	1314.85
529.12	1331.50
529.48	1348.40
529.84	1364.57
530.20	1381.24
530.56	1398.38
530.91	1415.80
531.27	1432.56
531.63	1449.07
531.99	1465.63
532.35	1481.48
532.71	1497.33
533.07	1513.67
533.42	1529.49
533.78	1545.62
534.14	1561.89
534.50	1577.34
534.86	1593.24
535.21	1608.41
535.57	1624.38
535.93	1639.97
536.29	1654.79
536.65	1669.95
537.00	1684.87
537.36	1700.05
537.72	1714.59
538.08	1728.86
538.44	1742.70
538.79	1756.65
539.15	1770.28
539.51	1783.95
539.87	1798.32
540.22	1812.14
540.58	1825.88
540.94	1839.30
541.29	1852.20
541.65	1864.88
542.01	1878.08
542.37	1890.44
542.72	1902.89
543.08	1914.74
543.44	1926.95
543.79	1938.19
544.15	1949.17
544.51	1960.58
544.87	1971.60
545.22	1982.48
545.58	1992.70
545.94	2002.51
546.29	2012.35
546.65	2022.29
547.01	2031.64
547.36	2040.44
547.72	2048.93
548.07	2056.69
548.43	2064.77
548.79	2072.84
549.14	2080.40
549.50	2087.71
549.86	2095.43
550.21	2102.77
550.57	2110.01
550.92	2116.68
551.28	2123.74
551.64	2130.71
551.99	2137.14
552.35	2143.30
552.70	2149.38
553.06	2155.44
553.41	2161.70
553.77	2167.75
554.13	2173.94
554.48	2180.03
554.84	2185.39
555.19	2190.58
555.55	2195.71
555.90	2200.24
556.26	2205.13
556.61	2209.94
556.97	2214.09
557.32	2218.06
557.68	2222.21
558.03	2226.35
558.39	2230.03
558.74	2234.66
559.10	2238.64
559.45	2242.57
559.81	2246.81
560.16	2250.66
560.52	2253.75
560.87	2257.19
561.23	2259.70
561.58	2262.58
561.94	2265.22
562.29	2267.69
562.64	2270.37
563.00	2272.95
563.35	2276.58
563.71	2279.59
564.06	2282.67
564.42	2285.55
564.77	2288.15
565.12	2290.26
565.48	2292.19
565.83	2293.97
566.19	2295.12
566.54	2296.00
566.89	2297.01
567.25	2297.62
567.60	2298.94
567.96	2300.62
568.31	2301.43
568.66	2302.43
569.02	2302.86
569.37	2303.07
569.72	2303.95
570.08	2304.09
570.43	2304.16
570.78	2303.39
571.14	2301.82
571.49	2300.47
571.84	2300.15
572.20	2298.97
572.55	2298.01
572.90	2296.54
573.26	2295.21
573.61	2293.60
573.96	2291.72
574.31	2288.67
574.67	2285.54
575.02	2281.91
575.37	2278.54
575.72	2274.69
576.08	2271.60
576.43	2268.39
576.78	2264.69
577.13	2261.44
577.49	2258.38
577.84	2254.99
578.19	2251.29
578.54	2247.61
578.90	2243.35
579.25	2237.71
579.60	2232.62
579.95	2227.63
580.30	2222.48
580.66	2217.29
581.01	2212.31
581.36	2207.33
581.71	2203.02
582.06	2198.61
582.42	2194.09
582.77	2188.88
583.12	2184.29
583.47	2179.36
583.82	2174.25
584.17	2168.90
584.53	2163.37
584.88	2157.67
585.23	2151.77
585.58	2146.24
585.93	2140.74
586.28	2135.98
586.63	2130.85
586.98	2125.83
587.34	2121.14
587.69	2116.20
588.04	2110.81
588.39	2105.05
588.74	2098.60
589.09	2092.58
589.44	2085.74
589.79	2079.62
590.14	2073.93
590.49	2067.34
590.84	2061.11
591.19	2055.11
591.54	2048.75
591.89	2041.22
592.25	2034.40
592.60	2027.18
592.95	2019.57
593.30	2012.25
593.65	2004.57
594.00	1997.64
594.35	1990.38
594.70	1982.27
595.05	1974.98
595.40	1967.70
595.75	1960.22
596.10	1953.90
596.45	1947.10
596.80	1940.84
597.15	1934.22
597.50	1926.98
597.85	1920.65
598.19	1913.76
598.54	1906.45
598.89	1899.66
599.24	1893.75
599.59	1886.97
599.94	1880.81
600.29	1874.51
600.64	1867.97
600.99	1860.53
601.34	1853.63
601.69	1846.58
602.04	1839.64
602.39	1832.36
602.74	1825.38
603.08	1818.71
603.43	1812.01
603.78	1804.77
604.13	1797.67
604.48	1790.25
604.83	1783.54
605.18	1776.38
605.53	1768.36
605.87	1760.36
606.22	1753.23
606.57	1745.35
606.92	1738.10
607.27	1730.72
607.62	1723.69
607.96	1716.33
608.31	1709.61
608.66	1701.94
609.01	1694.32
609.36	1686.72
609.70	1678.71
610.05	1670.81
610.40	1663.00
610.75	1654.61
611.10	1646.81
611.44	1638.36
611.79	1630.41
612.14	1621.59
612.49	1612.44
612.83	1604.12
613.18	1596.03
613.53	1587.89
613.88	1579.44
614.22	1571.05
614.57	1562.57
614.92	1554.45
615.27	1546.91
615.61	1538.66
615.96	1530.67
616.31	1523.20
616.65	1515.79
617.00	1508.19
617.35	1500.54
617.70	1492.23
618.04	1483.92
618.39	1475.70
618.74	1468.12
619.08	1459.84
619.43	1452.32
619.78	1445.49
620.12	1438.28
620.47	1430.85
620.82	1422.70
621.16	1415.16
621.51	1407.60
621.85	1399.96
622.20	1391.43
622.55	1383.02
622.89	1375.24
623.24	1367.60
623.59	1360.18
623.93	1352.69
624.28	1345.48
624.62	1337.83
624.97	1330.64
625.32	1323.80
625.66	1316.82
626.01	1309.53
626.35	1302.13
626.70	1294.39
627.04	1286.58
627.39	1278.84
627.73	1271.45
628.08	1264.55
628.43	1257.20
628.77	1249.81
629.12	1242.36
629.46	1235.36
629.81	1227.99
630.15	1220.70
630.50	1213.37
630.84	1205.20
631.19	1197.29
631.53	1189.79
631.88	1182.26
632.22	1174.66
632.57	1167.43
632.91	1159.92
633.26	1152.52
633.60	1145.17
633.95	1138.22
634.29	1131.15
634.64	1124.48
634.98	1117.11
635.32	1109.85
635.67	1103.31
636.01	1096.63
636.36	1089.75
636.70	1083.24
637.05	1076.65
637.39	1070.22
637.73	1063.75
638.08	1057.77
638.42	1051.77
638.77	1045.28
639.11	1038.76
639.45	1032.39
639.80	1025.56
640.14	1019.07
640.49	1012.54
640.83	1006.25
641.17	999.93
641.52	993.65
641.86	987.28
642.20	981.43
642.55	975.21
642.89	968.69
643.23	962.27
643.58	956.46
643.92	950.14
644.26	944.02
644.61	938.05
644.95	931.89
645.29	925.37
645.64	918.71
645.98	912.39
646.32	906.56
646.66	900.52
647.01	894.79
647.35	889.18
647.69	883.35
648.04	877.82
648.38	872.04
648.72	865.95
649.06	859.86
649.41	854.02
649.75	847.95
650.09	842.09
650.43	836.22
650.78	830.15
651.12	824.23
651.46	818.58
651.80	812.76
652.14	807.41
652.49	802.04
652.83	796.72
653.17	791.01
653.51	785.32
653.85	779.87
654.20	774.20
654.54	768.08
654.88	762.36
655.22	756.45
655.56	750.75
655.90	745.42
656.25	740.16
656.59	734.68
656.93	729.67
657.27	724.48
657.61	719.09
657.95	713.93
658.29	708.89
658.64	703.63
658.98	698.35
659.32	692.89
659.66	687.65
660.00	682.47
660.34	677.51
660.68	672.59
661.02	667.60
661.36	662.83
661.70	658.39
662.05	654.06
662.39	649.72
662.73	645.22
663.07	640.84
663.41	636.38
663.75	631.95
664.09	627.38
664.43	623.06
664.77	618.96
665.11	614.75
665.45	610.62
665.79	606.50
666.13	602.37
666.47	598.26
666.81	594.13
667.15	589.99
667.49	586.14
667.83	582.35
668.17	578.46
668.51	574.42
668.85	570.38
669.19	566.57
669.53	562.76
669.87	558.91
670.21	555.21
670.55	551.60
670.89	548.13
671.23	544.70
671.57	541.09
671.91	537.51
672.25	533.98
672.58	530.49
672.92	527.12
673.26	524.01
673.60	520.87
673.94	517.76
674.28	514.83
674.62	511.90
674.96	508.73
675.30	505.74
675.64	502.85
675.97	500.11
676.31	497.18
676.65	494.21
676.99	491.49
677.33	488.65
677.67	485.82
678.01	482.83
678.34	479.84
678.68	477.03
679.02	474.20
679.36	471.47
679.70	468.77
680.04	465.97
680.37	463.00
680.71	460.27
681.05	457.67
681.39	454.99
681.73	452.34
682.06	449.86
682.40	447.36
682.74	444.86
683.08	442.29
683.42	439.75
683.75	437.28
684.09	434.73
684.43	432.24
684.77	429.77
685.10	427.46
685.44	425.18
685.78	422.89
686.12	420.64
686.45	418.35
686.79	415.99
687.13	413.89
687.46	411.76
687.80	409.57
688.14	407.36
688.48	405.30
688.81	403.04
689.15	400.85
689.49	398.72
689.82	396.67
690.16	394.59
690.50	392.65
690.83	390.71
691.17	388.73
691.51	386.87
691.84	385.01
692.18	383.05
692.52	381.04
692.85	379.13
693.19	377.27
693.52	375.45
693.86	373.67
694.20	371.86
694.53	370.08
694.87	368.28
695.21	366.46
695.54	364.61
695.88	362.88
696.21	361.20
696.55	359.53
696.88	357.80
697.22	356.18
697.56	354.59
697.89	352.95
698.23	351.35
698.56	349.69
698.90	348.13
699.23	346.50
699.57	344.94
699.90	343.33
700.24	341.79
700.58	340.27
700.91	338.79
701.25	337.31
701.58	335.93
701.92	334.56
702.25	333.22
702.59	331.85
702.92	330.58
703.26	329.26
703.59	327.97
703.93	326.82
704.26	325.54
704.60	324.19
704.93	322.92
705.26	321.64
705.60	320.47
705.93	319.30
706.27	318.23
706.60	317.22
706.94	316.17
707.27	315.04
707.61	313.95
707.94	312.93
708.27	311.83
708.61	310.74
708.94	309.74
709.28	308.74
709.61	307.81
709.94	306.84
710.28	305.80
710.61	304.77
710.95	303.67
711.28	302.75
711.61	301.79
711.95	300.82
712.28	299.90
712.61	298.92
712.95	297.94
713.28	297.10
713.61	296.20
713.95	295.31
714.28	294.48
714.61	293.65
714.95	292.78
715.28	291.95
715.61	291.10
715.95	290.21
716.28	289.38
716.61	288.51
716.95	287.68
717.28	286.95
717.61	286.23
717.94	285.48
718.28	284.66
718.61	283.97
718.94	283.32
719.27	282.63
719.61	281.97
719.94	281.34
720.27	280.61
720.60	279.95
720.94	279.32
721.27	278.70
721.60	278.10
721.93	277.51
722.27	276.99
722.60	276.43
722.93	275.87
723.26	275.30
723.59	274.77
723.93	274.20
724.26	273.65
724.59	273.05
724.92	272.53
725.25	272.08
725.59	271.56
725.92	271.04
726.25	270.56
726.58	270.06
726.91	269.57
727.24	269.06
727.57	268.60
727.91	268.15
728.24	267.71
728.57	267.22
728.90	266.77
729.23	266.29
729.56	265.86
729.89	265.33
730.22	264.89
730.55	264.38
730.89	263.97
731.22	263.52
731.55	263.13
731.88	262.71
732.21	262.27
732.54	261.81
732.87	261.42
733.20	261.02
733.53	260.61
733.86	260.26
734.19	259.88
734.52	259.47
734.85	259.12
735.18	258.70
735.51	258.34
735.84	257.94
736.17	257.56
736.50	257.16
736.83	256.97
737.16	256.64
737.49	256.32
737.82	256.00
738.15	255.67
738.48	255.30
738.81	255.00
739.14	254.66
739.47	254.37
739.80	254.04
740.13	253.76
740.46	253.47
740.79	253.12
741.12	252.82
741.45	252.55
741.78	252.19
742.11	251.90
742.44	251.59
742.77	251.31
743.10	251.02
743.43	250.77
743.75	250.39
744.08	250.27
744.41	250.02
744.74	249.73
745.07	249.47
745.40	249.22
745.73	248.98
746.06	248.71
746.39	248.41
746.71	248.14
747.04	247.86
747.37	247.60
747.70	247.41
748.03	247.15
748.36	246.90
748.68	246.67
749.01	246.44
749.34	246.20
749.67	245.97
750.00	245.81
750.33	245.61
750.65	245.44
750.98	245.08
751.31	244.86
751.64	244.64
751.97	244.47
752.29	244.28
752.62	244.01
752.95	243.82
753.28	243.63
753.60	243.40
753.93	243.23
754.26	243.02
754.59	242.77
754.91	242.56
755.24	242.38
755.57	242.16
755.90	241.97
756.22	241.77
756.55	241.57
756.88	241.33
757.20	241.10
757.53	240.87
757.86	240.69
758.19	240.55
758.51	240.41
758.84	240.16
759.17	239.99
759.49	239.85
759.82	239.70
760.15	239.56
760.47	239.45
760.80	239.25
761.13	239.15
761.45	238.98
761.78	238.86
762.11	238.70
762.43	238.57
762.76	238.42
763.08	238.33
763.41	238.17
763.74	238.04
764.06	237.89
764.39	237.75
764.71	237.63
765.04	237.47
765.37	237.30
765.69	237.20
766.02	237.07
766.34	236.95
766.67	236.83
767.00	236.72
767.32	236.66
767.65	236.66
767.97	236.52
768.30	236.42
768.62	236.31
768.95	236.19
769.27	236.09
769.60	235.99
769.92	235.87
770.25	235.76
770.57	235.64
770.90	235.55
771.22	235.46
771.55	235.35
771.87	235.26
772.20	235.17
772.52	235.18
772.85	235.16
773.17	235.03
773.50	234.91
773.82	234.78
774.15	234.62
774.47	234.45
774.80	234.32
775.12	234.22
775.45	234.09
775.77	234.04
776.09	233.95
776.42	233.88
776.74	233.81
777.07	233.73
777.39	233.67
777.72	233.59
778.04	233.52
778.36	233.41
778.69	233.35
779.01	233.31
779.33	233.15
779.66	233.03
779.98	232.94
780.31	232.87
780.63	232.88
780.95	232.85
781.28	232.80
781.60	232.78
781.92	232.75
782.25	232.70
782.57	232.61
782.89	232.57
783.22	232.50
783.54	232.43
783.86	232.40
784.19	232.36
784.51	232.35
784.83	232.30
785.16	232.27
785.48	232.20
785.80	232.14
786.12	232.09
786.45	232.02
786.77	232.01
787.09	231.98
