SpectraSuite Data File
++++++++++++++++++++++++++++++++++++
Date: Fri Feb 01 15:37:49 EST 2013
User: group
Dark Spectrum Present: No
Reference Spectrum Present: No
Number of Sampled Component Spectra: 1
Spectrometers: USB2E7196
Integration Time (usec): 35000 (USB2E7196)
Spectra Averaged: 100 (USB2E7196)
Boxcar Smoothing: 10 (USB2E7196)
Correct for Electrical Dark: No (USB2E7196)
Strobe/Lamp Enabled: No (USB2E7196)
Correct for Detector Non-linearity: No (USB2E7196)
Correct for Stray Light: No (USB2E7196)
Number of Pixels in Processed Spectrum: 2048
>>>>>Begin Processed Spectral Data<<<<<
339.09	0.00
339.48	214.71
339.86	215.97
340.24	217.82
340.63	219.20
341.01	222.21
341.39	221.37
341.78	222.81
342.16	224.75
342.54	224.63
342.93	213.23
343.31	224.01
343.69	224.58
344.07	225.06
344.46	225.48
344.84	225.85
345.22	226.09
345.60	226.35
345.99	226.54
346.37	226.66
346.75	226.78
347.13	226.86
347.52	226.89
347.90	226.93
348.28	226.97
348.66	227.02
349.05	227.01
349.43	227.04
349.81	227.10
350.19	227.11
350.57	227.14
350.96	227.23
351.34	227.30
351.72	227.37
352.10	227.44
352.48	227.53
352.87	227.59
353.25	227.64
353.63	227.72
354.01	227.80
354.39	227.85
354.77	227.91
355.15	228.00
355.54	228.06
355.92	228.09
356.30	228.17
356.68	228.29
357.06	228.35
357.44	228.41
357.82	228.48
358.20	228.56
358.58	228.64
358.97	228.67
359.35	228.76
359.73	228.83
360.11	228.91
360.49	228.92
360.87	228.96
361.25	228.98
361.63	229.03
362.01	229.05
362.39	229.09
362.77	229.12
363.15	229.12
363.53	229.16
363.91	229.18
364.29	229.19
364.67	229.12
365.05	229.13
365.43	229.14
365.81	229.12
366.19	229.18
366.57	229.20
366.95	229.22
367.33	229.14
367.71	229.08
368.09	229.06
368.47	229.03
368.85	228.99
369.23	229.00
369.61	228.95
369.99	228.96
370.37	228.94
370.75	228.96
371.13	228.89
371.51	228.81
371.89	228.77
372.27	228.73
372.65	228.66
373.03	228.59
373.41	228.51
373.78	228.45
374.16	228.29
374.54	228.20
374.92	228.11
375.30	228.08
375.68	228.03
376.06	227.99
376.44	227.90
376.82	227.87
377.19	227.78
377.57	227.70
377.95	227.64
378.33	227.56
378.71	227.42
379.09	227.40
379.47	227.35
379.84	227.28
380.22	227.17
380.60	227.13
380.98	227.09
381.36	227.05
381.73	226.99
382.11	226.98
382.49	226.91
382.87	226.84
383.25	226.76
383.62	226.81
384.00	226.73
384.38	226.72
384.76	226.66
385.13	226.67
385.51	226.61
385.89	226.53
386.27	226.48
386.64	226.47
387.02	226.41
387.40	226.41
387.78	226.38
388.15	226.36
388.53	226.34
388.91	226.31
389.29	226.26
389.66	226.21
390.04	226.18
390.42	226.19
390.79	226.21
391.17	226.24
391.55	226.12
391.92	226.12
392.30	226.12
392.68	226.14
393.05	226.13
393.43	226.14
393.81	226.17
394.18	226.19
394.56	226.20
394.94	226.25
395.31	226.26
395.69	226.35
396.06	226.42
396.44	226.45
396.82	226.48
397.19	226.60
397.57	226.69
397.95	226.73
398.32	226.79
398.70	226.85
399.07	226.89
399.45	226.95
399.82	227.02
400.20	227.10
400.58	227.13
400.95	227.17
401.33	227.31
401.70	227.43
402.08	227.52
402.45	227.64
402.83	227.70
403.20	227.79
403.58	227.88
403.95	227.95
404.33	228.08
404.71	228.23
405.08	228.38
405.46	228.51
405.83	228.70
406.21	228.81
406.58	228.94
406.96	229.11
407.33	229.31
407.70	229.51
408.08	229.78
408.45	230.00
408.83	230.24
409.20	230.42
409.58	230.65
409.95	230.91
410.33	231.19
410.70	231.48
411.08	231.77
411.45	232.08
411.82	232.39
412.20	232.75
412.57	233.16
412.95	233.47
413.32	233.91
413.69	234.28
414.07	234.75
414.44	235.21
414.82	235.70
415.19	236.25
415.56	236.81
415.94	237.35
416.31	237.98
416.68	238.61
417.06	239.34
417.43	239.99
417.81	240.75
418.18	241.52
418.55	242.36
418.93	243.27
419.30	244.15
419.67	245.08
420.04	246.02
420.42	247.01
420.79	248.17
421.16	249.30
421.54	250.52
421.91	251.73
422.28	253.03
422.66	254.37
423.03	255.67
423.40	256.96
423.77	258.37
424.15	259.84
424.52	261.31
424.89	262.90
425.26	264.47
425.64	265.90
426.01	267.48
426.38	269.13
426.75	270.78
427.13	272.50
427.50	274.32
427.87	276.23
428.24	278.10
428.61	279.82
428.99	281.77
429.36	283.86
429.73	285.93
430.10	287.92
430.47	289.96
430.85	292.12
431.22	294.35
431.59	296.74
431.96	298.95
432.33	301.49
432.70	303.88
433.08	306.69
433.45	309.31
433.82	311.94
434.19	314.85
434.56	317.71
434.93	320.39
435.30	323.00
435.68	325.89
436.05	328.71
436.42	331.54
436.79	334.04
437.16	336.79
437.53	339.64
437.90	342.53
438.27	345.31
438.64	348.12
439.01	350.76
439.38	353.00
439.75	355.19
440.13	357.65
440.50	359.97
440.87	361.80
441.24	363.81
441.61	366.00
441.98	367.49
442.35	369.25
442.72	371.09
443.09	372.93
443.46	373.89
443.83	374.47
444.20	374.99
444.57	375.85
444.94	376.13
445.31	376.47
445.68	376.78
446.05	376.84
446.42	376.50
446.79	376.12
447.16	375.64
447.53	375.33
447.90	374.21
448.27	373.07
448.64	371.51
449.01	370.36
449.37	368.38
449.74	366.46
450.11	364.23
450.48	361.77
450.85	359.25
451.22	357.12
451.59	355.12
451.96	353.19
452.33	350.57
452.70	348.17
453.07	345.30
453.43	342.40
453.80	339.65
454.17	336.87
454.54	334.27
454.91	331.56
455.28	328.89
455.65	326.35
456.02	323.87
456.38	321.72
456.75	319.02
457.12	316.74
457.49	314.54
457.86	312.34
458.23	310.48
458.59	308.43
458.96	306.37
459.33	304.49
459.70	302.61
460.07	301.10
460.43	299.34
460.80	297.71
461.17	296.26
461.54	294.76
461.91	293.36
462.27	291.93
462.64	290.70
463.01	289.33
463.38	288.05
463.74	286.67
464.11	285.50
464.48	284.48
464.85	283.36
465.21	282.47
465.58	281.56
465.95	280.45
466.32	279.52
466.68	278.61
467.05	277.70
467.42	276.80
467.78	275.87
468.15	275.06
468.52	274.41
468.88	273.54
469.25	272.78
469.62	272.19
469.98	271.50
470.35	270.85
470.72	270.20
471.08	269.51
471.45	268.97
471.82	268.45
472.18	267.90
472.55	267.43
472.92	266.94
473.28	266.48
473.65	266.03
474.02	265.59
474.38	265.23
474.75	264.93
475.11	264.59
475.48	264.31
475.85	264.03
476.21	263.77
476.58	263.58
476.94	263.43
477.31	263.24
477.67	263.09
478.04	263.00
478.41	262.99
478.77	263.05
479.14	263.01
479.50	263.01
479.87	263.04
480.23	263.16
480.60	263.19
480.96	263.24
481.33	263.44
481.69	263.64
482.06	263.81
482.42	264.01
482.79	264.28
483.15	264.60
483.52	265.00
483.88	265.38
484.25	265.76
484.61	266.18
484.98	266.65
485.34	267.19
485.71	267.75
486.07	268.36
486.44	268.93
486.80	269.65
487.17	270.36
487.53	271.16
487.90	271.98
488.26	272.96
488.62	273.96
488.99	274.94
489.35	276.00
489.72	277.16
490.08	278.37
490.44	279.59
490.81	280.91
491.17	282.29
491.54	283.74
491.90	285.31
492.26	286.93
492.63	288.66
492.99	290.43
493.36	292.37
493.72	294.43
494.08	296.53
494.45	298.77
494.81	301.14
495.17	303.64
495.54	306.22
495.90	308.84
496.26	311.67
496.63	314.62
496.99	317.75
497.35	320.99
497.72	324.36
498.08	327.93
498.44	331.60
498.80	335.55
499.17	339.65
499.53	343.76
499.89	348.12
500.26	352.61
500.62	357.32
500.98	362.25
501.34	367.29
501.71	372.62
502.07	378.04
502.43	383.66
502.79	389.44
503.16	395.49
503.52	401.78
503.88	408.17
504.24	414.81
504.60	421.65
504.97	428.78
505.33	436.16
505.69	443.87
506.05	451.66
506.41	459.51
506.78	467.69
507.14	476.14
507.50	484.84
507.86	493.94
508.22	503.08
508.59	512.28
508.95	521.87
509.31	531.68
509.67	541.80
510.03	552.11
510.39	562.68
510.75	573.48
511.12	584.40
511.48	595.69
511.84	607.20
512.20	618.70
512.56	630.62
512.92	642.78
513.28	655.13
513.64	667.62
514.00	680.30
514.37	693.24
514.73	706.37
515.09	719.45
515.45	732.68
515.81	746.34
516.17	760.28
516.53	774.44
516.89	788.59
517.25	802.82
517.61	817.23
517.97	831.70
518.33	846.09
518.69	860.85
519.05	875.89
519.41	891.06
519.77	906.66
520.13	922.09
520.49	937.47
520.85	952.86
521.21	968.58
521.57	984.80
521.93	1000.50
522.29	1016.89
522.65	1033.12
523.01	1049.37
523.37	1065.35
523.73	1081.62
524.09	1097.70
524.45	1114.12
524.81	1130.74
525.17	1147.66
525.53	1164.46
525.89	1181.46
526.25	1198.40
526.61	1214.80
526.97	1231.50
527.33	1247.99
527.68	1264.62
528.04	1281.03
528.40	1297.65
528.76	1314.83
529.12	1331.45
529.48	1348.30
529.84	1364.31
530.20	1381.03
530.56	1398.09
530.91	1415.69
531.27	1432.42
531.63	1448.88
531.99	1465.46
532.35	1481.46
532.71	1497.28
533.07	1513.59
533.42	1529.42
533.78	1545.37
534.14	1561.72
534.50	1577.02
534.86	1593.00
535.21	1608.19
535.57	1624.23
535.93	1639.73
536.29	1654.45
536.65	1669.63
537.00	1684.60
537.36	1699.90
537.72	1714.34
538.08	1728.79
538.44	1742.45
538.79	1756.37
539.15	1770.05
539.51	1783.83
539.87	1798.14
540.22	1811.97
540.58	1825.82
540.94	1839.23
541.29	1852.30
541.65	1865.01
542.01	1878.31
542.37	1890.54
542.72	1903.04
543.08	1914.76
543.44	1927.17
543.79	1938.41
544.15	1949.36
544.51	1960.91
544.87	1971.99
545.22	1982.86
545.58	1993.01
545.94	2002.87
546.29	2012.73
546.65	2022.71
547.01	2031.82
547.36	2040.54
547.72	2048.99
548.07	2056.74
548.43	2064.90
548.79	2072.92
549.14	2080.43
549.50	2087.79
549.86	2095.51
550.21	2102.86
550.57	2110.08
550.92	2116.61
551.28	2123.75
551.64	2130.85
551.99	2137.30
552.35	2143.32
552.70	2149.62
553.06	2155.52
553.41	2161.83
553.77	2167.92
554.13	2173.96
554.48	2180.24
554.84	2185.76
555.19	2191.15
555.55	2196.34
555.90	2200.78
556.26	2205.58
556.61	2210.26
556.97	2214.45
557.32	2218.47
557.68	2222.56
558.03	2226.83
558.39	2230.51
558.74	2235.00
559.10	2238.79
559.45	2242.49
559.81	2246.97
560.16	2250.56
560.52	2254.02
560.87	2257.50
561.23	2260.09
561.58	2263.04
561.94	2265.51
562.29	2267.88
562.64	2270.38
563.00	2273.18
563.35	2276.84
563.71	2279.86
564.06	2283.11
564.42	2286.11
564.77	2288.62
565.12	2290.86
565.48	2292.73
565.83	2294.64
566.19	2295.88
566.54	2296.89
566.89	2297.90
567.25	2298.38
567.60	2299.74
567.96	2301.18
568.31	2301.91
568.66	2303.09
569.02	2303.73
569.37	2304.11
569.72	2304.85
570.08	2305.00
570.43	2304.77
570.78	2304.00
571.14	2302.51
571.49	2301.09
571.84	2300.69
572.20	2299.71
572.55	2298.63
572.90	2297.01
573.26	2295.53
573.61	2293.86
573.96	2292.00
574.31	2289.04
574.67	2285.89
575.02	2282.29
575.37	2278.88
575.72	2275.03
576.08	2271.74
576.43	2268.32
576.78	2264.54
577.13	2261.40
577.49	2258.34
577.84	2254.83
578.19	2251.20
578.54	2247.57
578.90	2243.41
579.25	2237.78
579.60	2232.65
579.95	2227.63
580.30	2222.61
580.66	2217.45
581.01	2212.65
581.36	2207.72
581.71	2203.46
582.06	2199.02
582.42	2194.52
582.77	2189.26
583.12	2184.58
583.47	2179.64
583.82	2174.57
584.17	2169.27
584.53	2163.76
584.88	2157.97
585.23	2152.01
585.58	2146.31
585.93	2140.72
586.28	2135.92
586.63	2130.81
586.98	2125.63
587.34	2120.89
587.69	2116.02
588.04	2110.66
588.39	2104.90
588.74	2098.37
589.09	2092.19
589.44	2085.36
589.79	2079.33
590.14	2073.74
590.49	2067.15
590.84	2060.77
591.19	2054.70
591.54	2048.28
591.89	2040.81
592.25	2033.99
592.60	2026.98
592.95	2019.49
593.30	2012.24
593.65	2004.37
594.00	1997.39
594.35	1990.27
594.70	1982.16
595.05	1974.73
595.40	1967.61
595.75	1959.97
596.10	1953.71
596.45	1946.93
596.80	1940.90
597.15	1934.17
597.50	1926.89
597.85	1920.44
598.19	1913.67
598.54	1906.45
598.89	1899.61
599.24	1893.70
599.59	1887.01
599.94	1880.81
600.29	1874.49
600.64	1867.87
600.99	1860.54
601.34	1853.58
601.69	1846.46
602.04	1839.50
602.39	1832.33
602.74	1825.35
603.08	1818.55
603.43	1811.79
603.78	1804.51
604.13	1797.20
604.48	1789.86
604.83	1783.17
605.18	1776.19
605.53	1768.26
605.87	1760.25
606.22	1753.20
606.57	1745.28
606.92	1737.95
607.27	1730.76
607.62	1723.75
607.96	1716.39
608.31	1709.74
608.66	1702.18
609.01	1694.75
609.36	1687.29
609.70	1679.26
610.05	1671.23
610.40	1663.61
610.75	1655.27
611.10	1647.60
611.44	1639.20
611.79	1631.25
612.14	1622.46
612.49	1613.32
612.83	1604.92
613.18	1596.80
613.53	1588.65
613.88	1580.06
614.22	1571.69
614.57	1563.00
614.92	1554.96
615.27	1547.46
615.61	1539.05
615.96	1531.05
616.31	1523.33
616.65	1515.85
617.00	1508.26
617.35	1500.69
617.70	1492.24
618.04	1483.80
618.39	1475.58
618.74	1467.91
619.08	1459.67
619.43	1452.21
619.78	1445.22
620.12	1437.98
620.47	1430.51
620.82	1422.35
621.16	1414.90
621.51	1407.45
621.85	1399.91
622.20	1391.38
622.55	1382.86
622.89	1375.06
623.24	1367.36
623.59	1359.98
623.93	1352.48
624.28	1345.24
624.62	1337.55
624.97	1330.47
625.32	1323.65
625.66	1316.55
626.01	1309.31
626.35	1301.75
626.70	1294.01
627.04	1286.40
627.39	1278.64
627.73	1271.21
628.08	1264.27
628.43	1256.99
628.77	1249.55
629.12	1241.95
629.46	1234.84
629.81	1227.52
630.15	1220.33
630.50	1212.95
630.84	1204.77
631.19	1196.92
631.53	1189.49
631.88	1181.91
632.22	1174.24
632.57	1166.98
632.91	1159.46
633.26	1152.13
633.60	1144.83
633.95	1137.71
634.29	1130.61
634.64	1123.97
634.98	1116.66
635.32	1109.49
635.67	1102.99
636.01	1096.31
636.36	1089.51
636.70	1082.99
637.05	1076.49
637.39	1070.03
637.73	1063.50
638.08	1057.68
638.42	1051.63
638.77	1045.14
639.11	1038.52
639.45	1032.25
639.80	1025.61
640.14	1019.23
640.49	1012.78
640.83	1006.44
641.17	1000.10
641.52	993.79
641.86	987.32
642.20	981.47
642.55	975.24
642.89	968.63
643.23	962.13
643.58	956.42
643.92	950.15
644.26	944.05
644.61	938.00
644.95	931.96
645.29	925.38
645.64	918.70
645.98	912.35
646.32	906.61
646.66	900.50
647.01	894.71
647.35	889.01
647.69	883.15
648.04	877.65
648.38	871.93
648.72	865.98
649.06	860.00
649.41	854.14
649.75	848.10
650.09	842.25
650.43	836.42
650.78	830.20
651.12	824.28
651.46	818.58
651.80	812.93
652.14	807.62
652.49	802.21
652.83	797.05
653.17	791.35
653.51	785.60
653.85	780.27
654.20	774.56
654.54	768.51
654.88	762.74
655.22	756.82
655.56	751.14
655.90	745.65
656.25	740.36
656.59	734.97
656.93	729.93
657.27	724.75
657.61	719.38
657.95	714.28
658.29	709.17
658.64	703.89
658.98	698.52
659.32	693.01
659.66	687.81
660.00	682.44
660.34	677.48
660.68	672.55
661.02	667.44
661.36	662.79
661.70	658.33
662.05	653.99
662.39	649.70
662.73	645.25
663.07	640.88
663.41	636.42
663.75	631.88
664.09	627.30
664.43	622.89
664.77	618.71
665.11	614.47
665.45	610.39
665.79	606.27
666.13	602.13
666.47	598.04
666.81	593.89
667.15	589.76
667.49	585.93
667.83	582.18
668.17	578.27
668.51	574.16
668.85	570.14
669.19	566.26
669.53	562.43
669.87	558.52
670.21	554.82
670.55	551.21
670.89	547.76
671.23	544.34
671.57	540.83
671.91	537.32
672.25	533.83
672.58	530.30
672.92	526.96
673.26	523.80
673.60	520.65
673.94	517.48
674.28	514.61
674.62	511.62
674.96	508.45
675.30	505.53
675.64	502.65
675.97	499.87
676.31	497.03
676.65	494.07
676.99	491.36
677.33	488.57
677.67	485.68
678.01	482.65
678.34	479.63
678.68	476.79
679.02	473.94
679.36	471.20
679.70	468.53
680.04	465.76
680.37	462.92
680.71	460.15
681.05	457.57
681.39	454.88
681.73	452.23
682.06	449.75
682.40	447.17
682.74	444.62
683.08	442.07
683.42	439.44
683.75	436.92
684.09	434.33
684.43	431.79
684.77	429.34
685.10	427.07
685.44	424.78
685.78	422.50
686.12	420.24
686.45	417.93
686.79	415.60
687.13	413.38
687.46	411.21
687.80	409.06
688.14	406.87
688.48	404.81
688.81	402.57
689.15	400.39
689.49	398.30
689.82	396.25
690.16	394.24
690.50	392.32
690.83	390.42
691.17	388.50
691.51	386.61
691.84	384.80
692.18	382.87
692.52	380.87
692.85	378.94
693.19	377.16
693.52	375.36
693.86	373.57
694.20	371.85
694.53	370.06
694.87	368.26
695.21	366.51
695.54	364.70
695.88	363.01
696.21	361.35
696.55	359.65
696.88	357.94
697.22	356.24
697.56	354.62
697.89	352.98
698.23	351.36
698.56	349.81
698.90	348.18
699.23	346.48
699.57	344.96
699.90	343.40
700.24	341.80
700.58	340.25
700.91	338.73
701.25	337.25
701.58	335.90
701.92	334.50
702.25	333.05
702.59	331.64
702.92	330.27
703.26	328.93
703.59	327.68
703.93	326.51
704.26	325.28
704.60	323.97
704.93	322.69
705.26	321.44
705.60	320.27
705.93	319.12
706.27	318.10
706.60	317.04
706.94	315.97
707.27	314.85
707.61	313.80
707.94	312.76
708.27	311.71
708.61	310.58
708.94	309.58
709.28	308.62
709.61	307.68
709.94	306.76
710.28	305.73
710.61	304.75
710.95	303.69
711.28	302.74
711.61	301.81
711.95	300.90
712.28	299.94
712.61	298.92
712.95	298.03
713.28	297.15
713.61	296.29
713.95	295.40
714.28	294.62
714.61	293.75
714.95	292.89
715.28	292.03
715.61	291.17
715.95	290.31
716.28	289.49
716.61	288.65
716.95	287.82
717.28	287.10
717.61	286.30
717.94	285.55
718.28	284.75
718.61	284.05
718.94	283.39
719.27	282.75
719.61	282.12
719.94	281.46
720.27	280.74
720.60	280.06
720.94	279.45
721.27	278.83
721.60	278.25
721.93	277.68
722.27	277.10
722.60	276.57
722.93	276.03
723.26	275.46
723.59	274.93
723.93	274.37
724.26	273.80
724.59	273.25
724.92	272.74
725.25	272.26
725.59	271.73
725.92	271.20
726.25	270.64
726.58	270.14
726.91	269.65
727.24	269.15
727.57	268.65
727.91	268.11
728.24	267.63
728.57	267.15
728.90	266.65
729.23	266.15
729.56	265.71
729.89	265.26
730.22	264.79
730.55	264.29
730.89	263.83
731.22	263.37
731.55	262.98
731.88	262.54
732.21	262.08
732.54	261.62
732.87	261.19
733.20	260.84
733.53	260.45
733.86	260.07
734.19	259.68
734.52	259.33
734.85	259.00
735.18	258.57
735.51	258.22
735.84	257.84
736.17	257.50
736.50	257.08
736.83	256.81
737.16	256.47
737.49	256.16
737.82	255.84
738.15	255.53
738.48	255.17
738.81	254.83
739.14	254.52
739.47	254.23
739.80	253.92
740.13	253.57
740.46	253.22
740.79	252.87
741.12	252.57
741.45	252.24
741.78	251.89
742.11	251.60
742.44	251.30
742.77	251.04
743.10	250.72
743.43	250.45
743.75	250.06
744.08	249.90
744.41	249.61
744.74	249.31
745.07	249.03
745.40	248.78
745.73	248.59
746.06	248.32
746.39	248.09
746.71	247.85
747.04	247.62
747.37	247.38
747.70	247.16
748.03	246.91
748.36	246.70
748.68	246.50
749.01	246.25
749.34	245.98
749.67	245.74
750.00	245.54
750.33	245.37
750.65	245.18
750.98	244.85
751.31	244.65
751.64	244.46
751.97	244.31
752.29	244.10
752.62	243.85
752.95	243.62
753.28	243.41
753.60	243.17
753.93	242.99
754.26	242.77
754.59	242.54
754.91	242.36
755.24	242.17
755.57	241.97
755.90	241.81
756.22	241.61
756.55	241.42
756.88	241.24
757.20	241.01
757.53	240.80
757.86	240.62
758.19	240.48
758.51	240.30
758.84	240.06
759.17	239.88
759.49	239.71
759.82	239.60
760.15	239.42
760.47	239.24
760.80	239.07
761.13	238.98
761.45	238.82
761.78	238.69
762.11	238.50
762.43	238.37
762.76	238.27
763.08	238.16
763.41	238.03
763.74	237.89
764.06	237.75
764.39	237.63
764.71	237.52
765.04	237.38
765.37	237.25
765.69	237.17
766.02	237.05
766.34	236.93
766.67	236.77
767.00	236.63
767.32	236.62
767.65	236.57
767.97	236.45
768.30	236.36
768.62	236.22
768.95	236.11
769.27	235.99
769.60	235.87
769.92	235.75
770.25	235.63
770.57	235.52
770.90	235.43
771.22	235.31
771.55	235.20
771.87	235.11
772.20	235.04
772.52	235.02
772.85	235.02
773.17	234.92
773.50	234.80
773.82	234.73
774.15	234.59
774.47	234.42
774.80	234.30
775.12	234.20
775.45	234.15
775.77	234.14
776.09	234.06
776.42	233.99
776.74	233.94
777.07	233.88
777.39	233.81
777.72	233.72
778.04	233.67
778.36	233.64
778.69	233.57
779.01	233.49
779.33	233.32
779.66	233.17
779.98	233.12
780.31	233.09
780.63	233.07
780.95	233.01
781.28	232.97
781.60	232.92
781.92	232.83
782.25	232.77
782.57	232.66
782.89	232.57
783.22	232.50
783.54	232.43
783.86	232.38
784.19	232.34
784.51	232.31
784.83	232.23
785.16	232.15
785.48	232.13
785.80	232.06
786.12	232.03
786.45	231.97
786.77	231.92
787.09	231.84
