SpectraSuite Data File
++++++++++++++++++++++++++++++++++++
Date: Fri Feb 01 17:39:23 EST 2013
User: group
Dark Spectrum Present: No
Reference Spectrum Present: No
Number of Sampled Component Spectra: 1
Spectrometers: USB2E7196
Integration Time (usec): 35000 (USB2E7196)
Spectra Averaged: 100 (USB2E7196)
Boxcar Smoothing: 10 (USB2E7196)
Correct for Electrical Dark: No (USB2E7196)
Strobe/Lamp Enabled: No (USB2E7196)
Correct for Detector Non-linearity: No (USB2E7196)
Correct for Stray Light: No (USB2E7196)
Number of Pixels in Processed Spectrum: 2048
>>>>>Begin Processed Spectral Data<<<<<
339.09	0.00
339.48	212.51
339.86	214.39
340.24	215.44
340.63	216.78
341.01	219.86
341.39	219.88
341.78	220.93
342.16	221.93
342.54	223.33
342.93	211.33
343.31	222.02
343.69	222.58
344.07	223.06
344.46	223.50
344.84	223.90
345.22	224.14
345.60	224.41
345.99	224.60
346.37	224.78
346.75	224.86
347.13	224.97
347.52	225.03
347.90	225.11
348.28	225.15
348.66	225.22
349.05	225.22
349.43	225.25
349.81	225.27
350.19	225.32
350.57	225.42
350.96	225.50
351.34	225.58
351.72	225.67
352.10	225.76
352.48	225.84
352.87	225.89
353.25	225.97
353.63	226.04
354.01	226.12
354.39	226.20
354.77	226.28
355.15	226.35
355.54	226.42
355.92	226.45
356.30	226.54
356.68	226.67
357.06	226.73
357.44	226.79
357.82	226.86
358.20	226.96
358.58	227.00
358.97	227.04
359.35	227.13
359.73	227.22
360.11	227.29
360.49	227.35
360.87	227.40
361.25	227.47
361.63	227.49
362.01	227.55
362.39	227.56
362.77	227.63
363.15	227.61
363.53	227.63
363.91	227.65
364.29	227.65
364.67	227.56
365.05	227.60
365.43	227.60
365.81	227.62
366.19	227.67
366.57	227.70
366.95	227.70
367.33	227.66
367.71	227.62
368.09	227.64
368.47	227.61
368.85	227.60
369.23	227.58
369.61	227.52
369.99	227.53
370.37	227.52
370.75	227.53
371.13	227.50
371.51	227.47
371.89	227.43
372.27	227.38
372.65	227.33
373.03	227.27
373.41	227.23
373.78	227.18
374.16	227.05
374.54	226.93
374.92	226.88
375.30	226.82
375.68	226.73
376.06	226.64
376.44	226.57
376.82	226.51
377.19	226.43
377.57	226.38
377.95	226.25
378.33	226.15
378.71	226.01
379.09	225.96
379.47	225.90
379.84	225.83
380.22	225.75
380.60	225.67
380.98	225.61
381.36	225.53
381.73	225.43
382.11	225.38
382.49	225.36
382.87	225.27
383.25	225.22
383.62	225.29
384.00	225.19
384.38	225.15
384.76	225.13
385.13	225.10
385.51	225.06
385.89	225.00
386.27	224.95
386.64	224.95
387.02	224.92
387.40	224.86
387.78	224.84
388.15	224.84
388.53	224.82
388.91	224.80
389.29	224.78
389.66	224.82
390.04	224.79
390.42	224.79
390.79	224.80
391.17	224.78
391.55	224.65
391.92	224.68
392.30	224.71
392.68	224.64
393.05	224.64
393.43	224.68
393.81	224.69
394.18	224.73
394.56	224.73
394.94	224.73
395.31	224.78
395.69	224.83
396.06	224.82
396.44	224.84
396.82	224.85
397.19	224.92
397.57	224.90
397.95	224.95
398.32	224.98
398.70	225.03
399.07	225.12
399.45	225.17
399.82	225.19
400.20	225.24
400.58	225.35
400.95	225.36
401.33	225.39
401.70	225.52
402.08	225.60
402.45	225.66
402.83	225.79
403.20	225.86
403.58	225.96
403.95	226.11
404.33	226.25
404.71	226.38
405.08	226.53
405.46	226.67
405.83	226.82
406.21	226.96
406.58	227.12
406.96	227.26
407.33	227.42
407.70	227.64
408.08	227.89
408.45	228.11
408.83	228.40
409.20	228.65
409.58	228.86
409.95	229.11
410.33	229.42
410.70	229.64
411.08	229.95
411.45	230.24
411.82	230.54
412.20	230.89
412.57	231.37
412.95	231.68
413.32	232.11
413.69	232.51
414.07	232.96
414.44	233.47
414.82	233.93
415.19	234.53
415.56	235.11
415.94	235.67
416.31	236.33
416.68	236.97
417.06	237.73
417.43	238.43
417.81	239.25
418.18	240.02
418.55	240.93
418.93	241.87
419.30	242.85
419.67	243.84
420.04	244.86
420.42	245.87
420.79	247.11
421.16	248.33
421.54	249.61
421.91	250.90
422.28	252.21
422.66	253.64
423.03	255.00
423.40	256.43
423.77	257.92
424.15	259.43
424.52	261.01
424.89	262.69
425.26	264.35
425.64	265.89
426.01	267.61
426.38	269.38
426.75	271.14
427.13	272.97
427.50	274.90
427.87	276.89
428.24	278.84
428.61	280.73
428.99	282.75
429.36	284.97
429.73	287.15
430.10	289.28
430.47	291.48
430.85	293.75
431.22	296.10
431.59	298.64
431.96	301.01
432.33	303.65
432.70	306.17
433.08	309.14
433.45	311.95
433.82	314.73
434.19	317.73
434.56	320.71
434.93	323.52
435.30	326.26
435.68	329.33
436.05	332.35
436.42	335.32
436.79	338.06
437.16	340.94
437.53	343.97
437.90	346.98
438.27	349.90
438.64	352.97
439.01	355.75
439.38	358.12
439.75	360.47
440.13	363.10
440.50	365.60
440.87	367.61
441.24	369.72
441.61	372.01
441.98	373.63
442.35	375.59
442.72	377.61
443.09	379.60
443.46	380.68
443.83	381.34
444.20	381.88
444.57	382.77
444.94	383.11
445.31	383.48
445.68	383.88
446.05	383.99
446.42	383.58
446.79	383.17
447.16	382.74
447.53	382.42
447.90	381.23
448.27	380.06
448.64	378.41
449.01	377.23
449.37	375.14
449.74	373.20
450.11	370.83
450.48	368.21
450.85	365.56
451.22	363.29
451.59	361.15
451.96	359.11
452.33	356.38
452.70	353.89
453.07	350.91
453.43	347.82
453.80	344.91
454.17	342.05
454.54	339.33
454.91	336.43
455.28	333.57
455.65	330.97
456.02	328.31
456.38	325.97
456.75	323.08
457.12	320.69
457.49	318.27
457.86	315.99
458.23	313.95
458.59	311.73
458.96	309.50
459.33	307.54
459.70	305.53
460.07	303.93
460.43	302.08
460.80	300.36
461.17	298.84
461.54	297.19
461.91	295.65
462.27	294.10
462.64	292.75
463.01	291.29
463.38	289.87
463.74	288.44
464.11	287.22
464.48	286.15
464.85	284.97
465.21	284.02
465.58	282.99
465.95	281.83
466.32	280.87
466.68	279.90
467.05	278.92
467.42	278.00
467.78	276.99
468.15	276.04
468.52	275.33
468.88	274.38
469.25	273.61
469.62	272.97
469.98	272.25
470.35	271.57
470.72	270.93
471.08	270.24
471.45	269.67
471.82	269.12
472.18	268.44
472.55	267.96
472.92	267.46
473.28	266.96
473.65	266.53
474.02	266.06
474.38	265.67
474.75	265.33
475.11	264.96
475.48	264.65
475.85	264.42
476.21	264.19
476.58	263.99
476.94	263.83
477.31	263.59
477.67	263.43
478.04	263.33
478.41	263.26
478.77	263.25
479.14	263.15
479.50	263.14
479.87	263.24
480.23	263.33
480.60	263.35
480.96	263.45
481.33	263.61
481.69	263.80
482.06	263.98
482.42	264.16
482.79	264.37
483.15	264.71
483.52	265.06
483.88	265.38
484.25	265.76
484.61	266.17
484.98	266.61
485.34	267.18
485.71	267.75
486.07	268.33
486.44	268.90
486.80	269.61
487.17	270.27
487.53	271.07
487.90	271.93
488.26	272.88
488.62	273.87
488.99	274.85
489.35	275.86
489.72	277.00
490.08	278.18
490.44	279.42
490.81	280.72
491.17	282.06
491.54	283.52
491.90	285.03
492.26	286.65
492.63	288.39
492.99	290.14
493.36	292.02
493.72	294.07
494.08	296.20
494.45	298.43
494.81	300.85
495.17	303.27
495.54	305.80
495.90	308.46
496.26	311.20
496.63	314.14
496.99	317.24
497.35	320.47
497.72	323.87
498.08	327.37
498.44	331.04
498.80	334.94
499.17	339.01
499.53	343.19
499.89	347.51
500.26	352.01
500.62	356.61
500.98	361.50
501.34	366.55
501.71	371.84
502.07	377.25
502.43	382.81
502.79	388.51
503.16	394.55
503.52	400.70
503.88	407.02
504.24	413.52
504.60	420.32
504.97	427.28
505.33	434.51
505.69	442.17
506.05	449.83
506.41	457.61
506.78	465.61
507.14	473.91
507.50	482.50
507.86	491.37
508.22	500.42
508.59	509.57
508.95	518.88
509.31	528.48
509.67	538.37
510.03	548.51
510.39	558.99
510.75	569.54
511.12	580.26
511.48	591.38
511.84	602.73
512.20	613.95
512.56	625.67
512.92	637.55
513.28	649.56
513.64	661.71
514.00	674.15
514.37	686.83
514.73	699.56
515.09	712.33
515.45	725.31
515.81	738.61
516.17	752.22
516.53	766.08
516.89	779.90
517.25	793.75
517.61	807.70
517.97	821.76
518.33	835.87
518.69	850.35
519.05	864.93
519.41	879.58
519.77	894.71
520.13	909.86
520.49	924.92
520.85	939.90
521.21	955.28
521.57	971.08
521.93	986.49
522.29	1002.40
522.65	1018.28
523.01	1034.09
523.37	1049.75
523.73	1065.52
524.09	1081.18
524.45	1097.20
524.81	1113.49
525.17	1129.94
525.53	1146.32
525.89	1162.72
526.25	1179.08
526.61	1195.13
526.97	1211.49
527.33	1227.77
527.68	1243.95
528.04	1260.03
528.40	1276.25
528.76	1292.87
529.12	1309.14
529.48	1325.60
529.84	1341.29
530.20	1357.51
530.56	1374.05
530.91	1391.00
531.27	1407.42
531.63	1423.64
531.99	1439.79
532.35	1455.49
532.71	1471.07
533.07	1487.09
533.42	1502.82
533.78	1518.72
534.14	1534.66
534.50	1549.91
534.86	1565.39
535.21	1580.25
535.57	1595.89
535.93	1611.16
536.29	1625.67
536.65	1640.43
537.00	1654.87
537.36	1670.17
537.72	1684.25
538.08	1698.47
538.44	1712.18
538.79	1725.97
539.15	1739.39
539.51	1752.93
539.87	1767.05
540.22	1780.56
540.58	1794.04
540.94	1806.93
541.29	1819.49
541.65	1831.98
542.01	1844.92
542.37	1857.31
542.72	1869.81
543.08	1881.76
543.44	1894.19
543.79	1905.56
544.15	1916.54
544.51	1928.31
544.87	1939.13
545.22	1950.34
545.58	1960.75
545.94	1970.75
546.29	1980.70
546.65	1990.84
547.01	2000.51
547.36	2009.60
547.72	2018.51
548.07	2027.00
548.43	2035.64
548.79	2043.87
549.14	2052.06
549.50	2059.69
549.86	2067.49
550.21	2075.01
550.57	2082.49
550.92	2089.37
551.28	2096.83
551.64	2104.31
551.99	2111.04
552.35	2117.67
552.70	2124.18
553.06	2130.70
553.41	2137.30
553.77	2143.57
554.13	2149.90
554.48	2156.26
554.84	2162.26
555.19	2167.72
555.55	2173.15
555.90	2178.08
556.26	2183.66
556.61	2188.61
556.97	2193.46
557.32	2198.11
557.68	2202.75
558.03	2207.30
558.39	2211.51
558.74	2216.50
559.10	2220.82
559.45	2225.00
559.81	2229.64
560.16	2233.90
560.52	2237.43
560.87	2241.24
561.23	2244.39
561.58	2247.63
561.94	2250.62
562.29	2253.20
562.64	2256.81
563.00	2259.76
563.35	2263.69
563.71	2267.26
564.06	2270.78
564.42	2274.20
564.77	2277.38
565.12	2280.31
565.48	2282.82
565.83	2285.19
566.19	2287.31
566.54	2288.62
566.89	2290.38
567.25	2291.70
567.60	2293.39
567.96	2295.85
568.31	2297.41
568.66	2299.20
569.02	2300.37
569.37	2301.26
569.72	2302.69
570.08	2303.15
570.43	2303.62
570.78	2303.69
571.14	2302.65
571.49	2301.84
571.84	2301.73
572.20	2300.97
572.55	2300.41
572.90	2299.15
573.26	2298.34
573.61	2296.75
573.96	2295.65
574.31	2293.11
574.67	2290.48
575.02	2287.30
575.37	2284.09
575.72	2280.68
576.08	2277.59
576.43	2274.49
576.78	2271.42
577.13	2268.59
577.49	2265.62
577.84	2262.62
578.19	2259.21
578.54	2256.00
578.90	2252.40
579.25	2247.37
579.60	2242.86
579.95	2238.26
580.30	2233.76
580.66	2228.79
581.01	2224.17
581.36	2219.46
581.71	2215.74
582.06	2211.71
582.42	2207.73
582.77	2202.94
583.12	2198.55
583.47	2194.50
583.82	2189.99
584.17	2184.93
584.53	2179.68
584.88	2174.45
585.23	2169.13
585.58	2163.78
585.93	2158.59
586.28	2153.71
586.63	2149.04
586.98	2144.00
587.34	2139.34
587.69	2134.48
588.04	2129.49
588.39	2124.03
588.74	2117.70
589.09	2111.61
589.44	2105.05
589.79	2099.00
590.14	2093.37
590.49	2086.99
590.84	2080.39
591.19	2074.61
591.54	2068.30
591.89	2061.20
592.25	2054.73
592.60	2047.74
592.95	2040.46
593.30	2033.23
593.65	2025.88
594.00	2018.79
594.35	2011.99
594.70	2003.95
595.05	1997.07
595.40	1989.95
595.75	1982.57
596.10	1976.71
596.45	1970.23
596.80	1964.12
597.15	1957.71
597.50	1951.07
597.85	1944.74
598.19	1938.20
598.54	1931.40
598.89	1924.78
599.24	1918.89
599.59	1912.45
599.94	1905.98
600.29	1899.61
600.64	1893.03
600.99	1885.71
601.34	1879.06
601.69	1871.77
602.04	1865.16
602.39	1857.76
602.74	1850.89
603.08	1844.30
603.43	1837.38
603.78	1830.11
604.13	1822.80
604.48	1815.67
604.83	1808.78
605.18	1801.94
605.53	1794.10
605.87	1785.91
606.22	1778.57
606.57	1770.64
606.92	1762.79
607.27	1755.81
607.62	1748.97
607.96	1741.73
608.31	1735.28
608.66	1727.66
609.01	1720.19
609.36	1712.55
609.70	1704.51
610.05	1696.49
610.40	1688.64
610.75	1680.39
611.10	1672.53
611.44	1663.98
611.79	1655.63
612.14	1646.68
612.49	1637.37
612.83	1628.87
613.18	1620.57
613.53	1612.28
613.88	1603.68
614.22	1595.38
614.57	1586.54
614.92	1578.34
615.27	1570.82
615.61	1562.29
615.96	1554.09
616.31	1546.16
616.65	1538.59
617.00	1530.92
617.35	1523.12
617.70	1514.68
618.04	1506.05
618.39	1497.55
618.74	1490.09
619.08	1481.71
619.43	1473.97
619.78	1466.71
620.12	1459.44
620.47	1451.83
620.82	1443.45
621.16	1435.61
621.51	1427.81
621.85	1419.95
622.20	1411.29
622.55	1402.53
622.89	1394.46
623.24	1386.47
623.59	1378.84
623.93	1371.17
624.28	1363.76
624.62	1356.04
624.97	1348.70
625.32	1341.55
625.66	1334.39
626.01	1326.82
626.35	1319.40
626.70	1311.50
627.04	1303.83
627.39	1295.88
627.73	1288.18
628.08	1281.27
628.43	1274.04
628.77	1266.82
629.12	1259.24
629.46	1251.94
629.81	1244.25
630.15	1236.85
630.50	1229.44
630.84	1221.35
631.19	1213.15
631.53	1205.37
631.88	1197.65
632.22	1189.95
632.57	1182.51
632.91	1174.87
633.26	1167.32
633.60	1159.67
633.95	1152.32
634.29	1144.99
634.64	1138.00
634.98	1130.59
635.32	1123.32
635.67	1116.48
636.01	1109.54
636.36	1102.81
636.70	1096.07
637.05	1089.49
637.39	1082.90
637.73	1076.37
638.08	1070.28
638.42	1064.31
638.77	1057.88
639.11	1051.25
639.45	1044.73
639.80	1038.14
640.14	1031.66
640.49	1025.14
640.83	1018.68
641.17	1012.47
641.52	1006.13
641.86	999.63
642.20	993.77
642.55	987.30
642.89	980.76
643.23	974.02
643.58	967.95
643.92	961.70
644.26	955.68
644.61	949.46
644.95	943.29
645.29	936.69
645.64	929.86
645.98	923.34
646.32	917.17
646.66	911.02
647.01	905.04
647.35	899.29
647.69	893.26
648.04	887.65
648.38	881.75
648.72	875.79
649.06	869.64
649.41	863.48
649.75	857.59
650.09	851.59
650.43	845.81
650.78	839.64
651.12	833.61
651.46	827.73
651.80	822.10
652.14	816.56
652.49	811.10
652.83	805.84
653.17	800.29
653.51	794.70
653.85	789.19
654.20	783.55
654.54	777.49
654.88	771.61
655.22	765.70
655.56	759.87
655.90	754.21
656.25	748.90
656.59	743.59
656.93	738.31
657.27	733.08
657.61	727.51
657.95	722.26
658.29	717.10
658.64	711.72
658.98	706.23
659.32	700.68
659.66	695.41
660.00	690.04
660.34	684.93
660.68	679.89
661.02	674.81
661.36	670.01
661.70	665.36
662.05	661.04
662.39	656.68
662.73	652.20
663.07	647.69
663.41	643.27
663.75	638.75
664.09	634.12
664.43	629.63
664.77	625.55
665.11	621.31
665.45	617.05
665.79	612.93
666.13	608.83
666.47	604.75
666.81	600.48
667.15	596.32
667.49	592.31
667.83	588.37
668.17	584.37
668.51	580.28
668.85	576.22
669.19	572.24
669.53	568.36
669.87	564.49
670.21	560.80
670.55	557.04
670.89	553.55
671.23	550.11
671.57	546.52
671.91	542.92
672.25	539.27
672.58	535.77
672.92	532.31
673.26	529.02
673.60	525.78
673.94	522.74
674.28	519.74
674.62	516.82
674.96	513.79
675.30	510.87
675.64	507.87
675.97	505.06
676.31	502.19
676.65	499.21
676.99	496.39
677.33	493.45
677.67	490.60
678.01	487.55
678.34	484.57
678.68	481.69
679.02	478.82
679.36	476.04
679.70	473.24
680.04	470.41
680.37	467.57
680.71	464.71
681.05	462.00
681.39	459.25
681.73	456.49
682.06	453.86
682.40	451.34
682.74	448.76
683.08	446.11
683.42	443.45
683.75	440.88
684.09	438.27
684.43	435.78
684.77	433.28
685.10	430.85
685.44	428.40
685.78	426.10
686.12	423.80
686.45	421.47
686.79	419.21
687.13	416.94
687.46	414.71
687.80	412.56
688.14	410.25
688.48	408.09
688.81	405.86
689.15	403.68
689.49	401.39
689.82	399.27
690.16	397.14
690.50	395.12
690.83	393.16
691.17	391.17
691.51	389.19
691.84	387.28
692.18	385.35
692.52	383.44
692.85	381.43
693.19	379.53
693.52	377.67
693.86	375.79
694.20	373.98
694.53	372.17
694.87	370.26
695.21	368.48
695.54	366.63
695.88	364.80
696.21	363.00
696.55	361.26
696.88	359.51
697.22	357.79
697.56	356.12
697.89	354.44
698.23	352.78
698.56	351.14
698.90	349.56
699.23	347.90
699.57	346.24
699.90	344.68
700.24	343.07
700.58	341.52
700.91	340.02
701.25	338.58
701.58	337.12
701.92	335.69
702.25	334.26
702.59	332.90
702.92	331.59
703.26	330.30
703.59	329.04
703.93	327.81
704.26	326.61
704.60	325.33
704.93	324.05
705.26	322.73
705.60	321.51
705.93	320.28
706.27	319.17
706.60	318.11
706.94	316.97
707.27	315.81
707.61	314.67
707.94	313.54
708.27	312.39
708.61	311.27
708.94	310.27
709.28	309.23
709.61	308.19
709.94	307.22
710.28	306.16
710.61	305.13
710.95	304.00
711.28	303.00
711.61	302.01
711.95	301.05
712.28	300.14
712.61	299.17
712.95	298.21
713.28	297.29
713.61	296.34
713.95	295.46
714.28	294.57
714.61	293.66
714.95	292.79
715.28	291.94
715.61	291.04
715.95	290.15
716.28	289.28
716.61	288.43
716.95	287.56
717.28	286.77
717.61	285.98
717.94	285.27
718.28	284.44
718.61	283.66
718.94	282.96
719.27	282.28
719.61	281.63
719.94	280.92
720.27	280.19
720.60	279.54
720.94	278.88
721.27	278.29
721.60	277.76
721.93	277.18
722.27	276.60
722.60	276.02
722.93	275.44
723.26	274.91
723.59	274.33
723.93	273.74
724.26	273.16
724.59	272.57
724.92	272.01
725.25	271.52
725.59	271.02
725.92	270.46
726.25	269.88
726.58	269.29
726.91	268.80
727.24	268.27
727.57	267.78
727.91	267.26
728.24	266.79
728.57	266.22
728.90	265.74
729.23	265.24
729.56	264.82
729.89	264.35
730.22	263.83
730.55	263.35
730.89	262.91
731.22	262.43
731.55	262.02
731.88	261.55
732.21	261.10
732.54	260.65
732.87	260.20
733.20	259.81
733.53	259.45
733.86	259.09
734.19	258.71
734.52	258.32
734.85	258.00
735.18	257.57
735.51	257.24
735.84	256.84
736.17	256.50
736.50	256.06
736.83	255.82
737.16	255.51
737.49	255.21
737.82	254.86
738.15	254.59
738.48	254.25
738.81	253.94
739.14	253.58
739.47	253.26
739.80	252.94
740.13	252.66
740.46	252.33
740.79	251.97
741.12	251.67
741.45	251.36
741.78	251.00
742.11	250.75
742.44	250.40
742.77	250.11
743.10	249.78
743.43	249.49
743.75	249.06
744.08	248.91
744.41	248.61
744.74	248.30
745.07	247.99
745.40	247.76
745.73	247.50
746.06	247.25
746.39	247.00
746.71	246.75
747.04	246.45
747.37	246.17
747.70	245.96
748.03	245.68
748.36	245.42
748.68	245.19
749.01	244.90
749.34	244.69
749.67	244.43
750.00	244.20
750.33	244.04
750.65	243.82
750.98	243.44
751.31	243.18
751.64	242.96
751.97	242.79
752.29	242.52
752.62	242.27
752.95	242.07
753.28	241.85
753.60	241.63
753.93	241.43
754.26	241.22
754.59	240.94
754.91	240.75
755.24	240.52
755.57	240.30
755.90	240.11
756.22	239.90
756.55	239.70
756.88	239.47
757.20	239.23
757.53	239.02
757.86	238.82
758.19	238.66
758.51	238.51
758.84	238.27
759.17	238.09
759.49	237.91
759.82	237.77
760.15	237.59
760.47	237.41
760.80	237.22
761.13	237.10
761.45	236.95
761.78	236.81
762.11	236.64
762.43	236.50
762.76	236.33
763.08	236.19
763.41	236.09
763.74	235.96
764.06	235.82
764.39	235.73
764.71	235.63
765.04	235.50
765.37	235.34
765.69	235.20
766.02	235.08
766.34	234.94
766.67	234.79
767.00	234.71
767.32	234.66
767.65	234.64
767.97	234.55
768.30	234.45
768.62	234.28
768.95	234.20
769.27	234.09
769.60	234.00
769.92	233.89
770.25	233.75
770.57	233.65
770.90	233.57
771.22	233.46
771.55	233.36
771.87	233.28
772.20	233.17
772.52	233.21
772.85	233.22
773.17	233.16
773.50	233.06
773.82	232.93
774.15	232.80
774.47	232.63
774.80	232.48
775.12	232.42
775.45	232.38
775.77	232.34
776.09	232.23
776.42	232.15
776.74	232.10
777.07	232.04
777.39	231.97
777.72	231.84
778.04	231.80
778.36	231.72
778.69	231.67
779.01	231.63
779.33	231.48
779.66	231.33
779.98	231.23
780.31	231.18
780.63	231.15
780.95	231.11
781.28	231.05
781.60	231.01
781.92	230.94
782.25	230.85
782.57	230.77
782.89	230.70
783.22	230.62
783.54	230.52
783.86	230.44
784.19	230.38
784.51	230.34
784.83	230.27
785.16	230.20
785.48	230.13
785.80	230.07
786.12	230.01
786.45	229.93
786.77	229.90
787.09	229.81
