SpectraSuite Data File
++++++++++++++++++++++++++++++++++++
Date: Fri Feb 01 15:21:51 EST 2013
User: group
Dark Spectrum Present: No
Reference Spectrum Present: No
Number of Sampled Component Spectra: 1
Spectrometers: USB2E7196
Integration Time (usec): 35000 (USB2E7196)
Spectra Averaged: 100 (USB2E7196)
Boxcar Smoothing: 10 (USB2E7196)
Correct for Electrical Dark: No (USB2E7196)
Strobe/Lamp Enabled: No (USB2E7196)
Correct for Detector Non-linearity: No (USB2E7196)
Correct for Stray Light: No (USB2E7196)
Number of Pixels in Processed Spectrum: 2048
>>>>>Begin Processed Spectral Data<<<<<
339.09	0.00
339.48	215.78
339.86	216.11
340.24	217.91
340.63	219.01
341.01	222.31
341.39	222.14
341.78	223.55
342.16	224.42
342.54	224.77
342.93	213.50
343.31	224.30
343.69	224.82
344.07	225.29
344.46	225.72
344.84	226.11
345.22	226.35
345.60	226.61
345.99	226.81
346.37	226.96
346.75	227.05
347.13	227.13
347.52	227.22
347.90	227.29
348.28	227.30
348.66	227.37
349.05	227.38
349.43	227.43
349.81	227.47
350.19	227.48
350.57	227.53
350.96	227.62
351.34	227.68
351.72	227.74
352.10	227.86
352.48	227.94
352.87	228.01
353.25	228.08
353.63	228.11
354.01	228.15
354.39	228.20
354.77	228.31
355.15	228.41
355.54	228.48
355.92	228.52
356.30	228.61
356.68	228.75
357.06	228.79
357.44	228.82
357.82	228.88
358.20	228.96
358.58	228.98
358.97	229.03
359.35	229.08
359.73	229.16
360.11	229.20
360.49	229.24
360.87	229.29
361.25	229.35
361.63	229.45
362.01	229.49
362.39	229.52
362.77	229.54
363.15	229.52
363.53	229.54
363.91	229.54
364.29	229.51
364.67	229.39
365.05	229.44
365.43	229.44
365.81	229.46
366.19	229.49
366.57	229.53
366.95	229.51
367.33	229.49
367.71	229.47
368.09	229.47
368.47	229.47
368.85	229.44
369.23	229.37
369.61	229.30
369.99	229.29
370.37	229.27
370.75	229.29
371.13	229.24
371.51	229.18
371.89	229.16
372.27	229.15
372.65	229.11
373.03	229.03
373.41	228.96
373.78	228.86
374.16	228.77
374.54	228.68
374.92	228.58
375.30	228.50
375.68	228.43
376.06	228.37
376.44	228.28
376.82	228.19
377.19	228.16
377.57	228.08
377.95	228.00
378.33	227.98
378.71	227.85
379.09	227.79
379.47	227.71
379.84	227.64
380.22	227.56
380.60	227.51
380.98	227.43
381.36	227.36
381.73	227.32
382.11	227.26
382.49	227.19
382.87	227.12
383.25	227.10
383.62	227.11
384.00	227.01
384.38	226.95
384.76	226.93
385.13	226.89
385.51	226.86
385.89	226.77
386.27	226.64
386.64	226.59
387.02	226.53
387.40	226.48
387.78	226.43
388.15	226.38
388.53	226.31
388.91	226.29
389.29	226.26
389.66	226.23
390.04	226.18
390.42	226.20
390.79	226.20
391.17	226.16
391.55	226.10
391.92	226.13
392.30	226.14
392.68	226.12
393.05	226.13
393.43	226.11
393.81	226.11
394.18	226.15
394.56	226.18
394.94	226.23
395.31	226.27
395.69	226.30
396.06	226.37
396.44	226.48
396.82	226.53
397.19	226.67
397.57	226.74
397.95	226.82
398.32	226.84
398.70	226.95
399.07	227.07
399.45	227.13
399.82	227.20
400.20	227.27
400.58	227.36
400.95	227.39
401.33	227.50
401.70	227.67
402.08	227.80
402.45	227.90
402.83	228.02
403.20	228.15
403.58	228.29
403.95	228.40
404.33	228.49
404.71	228.62
405.08	228.78
405.46	228.91
405.83	229.10
406.21	229.27
406.58	229.42
406.96	229.58
407.33	229.77
407.70	229.94
408.08	230.21
408.45	230.40
408.83	230.65
409.20	230.87
409.58	231.06
409.95	231.32
410.33	231.60
410.70	231.87
411.08	232.14
411.45	232.45
411.82	232.78
412.20	233.15
412.57	233.57
412.95	233.86
413.32	234.26
413.69	234.62
414.07	235.01
414.44	235.47
414.82	235.94
415.19	236.49
415.56	237.04
415.94	237.57
416.31	238.22
416.68	238.85
417.06	239.58
417.43	240.27
417.81	241.04
418.18	241.82
418.55	242.68
418.93	243.55
419.30	244.47
419.67	245.38
420.04	246.32
420.42	247.28
420.79	248.45
421.16	249.61
421.54	250.79
421.91	252.07
422.28	253.31
422.66	254.62
423.03	255.89
423.40	257.25
423.77	258.65
424.15	260.08
424.52	261.55
424.89	263.15
425.26	264.69
425.64	266.12
426.01	267.70
426.38	269.34
426.75	271.02
427.13	272.72
427.50	274.53
427.87	276.41
428.24	278.30
428.61	280.03
428.99	281.95
429.36	284.08
429.73	286.14
430.10	288.16
430.47	290.25
430.85	292.38
431.22	294.61
431.59	297.02
431.96	299.29
432.33	301.79
432.70	304.18
433.08	307.03
433.45	309.67
433.82	312.31
434.19	315.20
434.56	318.07
434.93	320.72
435.30	323.35
435.68	326.30
436.05	329.17
436.42	331.99
436.79	334.53
437.16	337.19
437.53	340.00
437.90	342.85
438.27	345.62
438.64	348.47
439.01	351.10
439.38	353.38
439.75	355.56
440.13	358.06
440.50	360.40
440.87	362.25
441.24	364.20
441.61	366.35
441.98	367.82
442.35	369.61
442.72	371.51
443.09	373.34
443.46	374.24
443.83	374.79
444.20	375.29
444.57	376.16
444.94	376.48
445.31	376.83
445.68	377.20
446.05	377.26
446.42	376.87
446.79	376.47
447.16	376.01
447.53	375.61
447.90	374.50
448.27	373.37
448.64	371.79
449.01	370.64
449.37	368.65
449.74	366.74
450.11	364.47
450.48	361.99
450.85	359.45
451.22	357.38
451.59	355.36
451.96	353.42
452.33	350.79
452.70	348.44
453.07	345.59
453.43	342.69
453.80	339.92
454.17	337.22
454.54	334.62
454.91	331.88
455.28	329.26
455.65	326.75
456.02	324.26
456.38	322.08
456.75	319.40
457.12	317.19
457.49	315.00
457.86	312.83
458.23	310.92
458.59	308.88
458.96	306.80
459.33	304.88
459.70	303.01
460.07	301.49
460.43	299.78
460.80	298.17
461.17	296.70
461.54	295.18
461.91	293.77
462.27	292.32
462.64	291.05
463.01	289.68
463.38	288.33
463.74	286.93
464.11	285.78
464.48	284.79
464.85	283.66
465.21	282.75
465.58	281.83
465.95	280.76
466.32	279.82
466.68	278.90
467.05	278.05
467.42	277.14
467.78	276.23
468.15	275.34
468.52	274.63
468.88	273.80
469.25	273.02
469.62	272.40
469.98	271.71
470.35	271.09
470.72	270.51
471.08	269.86
471.45	269.32
471.82	268.77
472.18	268.16
472.55	267.73
472.92	267.24
473.28	266.75
473.65	266.27
474.02	265.80
474.38	265.42
474.75	265.11
475.11	264.76
475.48	264.48
475.85	264.23
476.21	264.02
476.58	263.81
476.94	263.67
477.31	263.47
477.67	263.32
478.04	263.21
478.41	263.13
478.77	263.18
479.14	263.13
479.50	263.11
479.87	263.19
480.23	263.24
480.60	263.29
480.96	263.38
481.33	263.62
481.69	263.87
482.06	264.06
482.42	264.22
482.79	264.49
483.15	264.81
483.52	265.19
483.88	265.51
484.25	265.93
484.61	266.35
484.98	266.82
485.34	267.39
485.71	267.96
486.07	268.55
486.44	269.09
486.80	269.80
487.17	270.56
487.53	271.36
487.90	272.22
488.26	273.14
488.62	274.11
488.99	275.07
489.35	276.07
489.72	277.21
490.08	278.44
490.44	279.68
490.81	281.04
491.17	282.41
491.54	283.92
491.90	285.46
492.26	287.08
492.63	288.81
492.99	290.60
493.36	292.49
493.72	294.56
494.08	296.69
494.45	298.93
494.81	301.29
495.17	303.72
495.54	306.30
495.90	309.04
496.26	311.89
496.63	314.83
496.99	317.94
497.35	321.20
497.72	324.62
498.08	328.17
498.44	331.77
498.80	335.70
499.17	339.68
499.53	343.80
499.89	348.26
500.26	352.75
500.62	357.40
500.98	362.38
501.34	367.45
501.71	372.82
502.07	378.27
502.43	383.87
502.79	389.66
503.16	395.75
503.52	401.98
503.88	408.42
504.24	415.08
504.60	421.97
504.97	429.09
505.33	436.38
505.69	444.05
506.05	451.84
506.41	459.78
506.78	467.97
507.14	476.45
507.50	485.17
507.86	494.18
508.22	503.40
508.59	512.57
508.95	522.17
509.31	531.95
509.67	542.02
510.03	552.35
510.39	562.93
510.75	573.74
511.12	584.70
511.48	595.95
511.84	607.45
512.20	619.03
512.56	631.02
512.92	643.27
513.28	655.57
513.64	668.14
514.00	680.75
514.37	693.64
514.73	706.66
515.09	719.63
515.45	733.02
515.81	746.56
516.17	760.56
516.53	774.64
516.89	788.82
517.25	803.04
517.61	817.44
517.97	831.88
518.33	846.33
518.69	861.16
519.05	876.18
519.41	891.32
519.77	906.91
520.13	922.31
520.49	937.72
520.85	953.21
521.21	968.90
521.57	985.19
521.93	1001.10
522.29	1017.60
522.65	1033.90
523.01	1050.14
523.37	1066.33
523.73	1082.61
524.09	1098.77
524.45	1115.15
524.81	1131.79
525.17	1148.77
525.53	1165.76
525.89	1182.60
526.25	1199.49
526.61	1215.96
526.97	1232.82
527.33	1249.20
527.68	1265.90
528.04	1282.48
528.40	1299.22
528.76	1316.39
529.12	1333.02
529.48	1349.99
529.84	1366.13
530.20	1382.77
530.56	1399.86
530.91	1417.19
531.27	1434.05
531.63	1450.55
531.99	1467.26
532.35	1483.43
532.71	1499.26
533.07	1515.59
533.42	1531.55
533.78	1547.64
534.14	1563.91
534.50	1579.23
534.86	1595.29
535.21	1610.49
535.57	1626.48
535.93	1642.04
536.29	1656.82
536.65	1672.06
537.00	1686.92
537.36	1702.22
537.72	1716.90
538.08	1731.44
538.44	1745.37
538.79	1759.21
539.15	1773.04
539.51	1786.75
539.87	1801.08
540.22	1814.98
540.58	1828.85
540.94	1842.44
541.29	1855.45
541.65	1868.19
542.01	1881.51
542.37	1893.88
542.72	1906.46
543.08	1918.22
543.44	1930.75
543.79	1942.04
544.15	1953.10
544.51	1964.63
544.87	1975.71
545.22	1986.47
545.58	1996.60
545.94	2006.45
546.29	2016.47
546.65	2026.29
547.01	2035.50
547.36	2044.37
547.72	2052.79
548.07	2060.67
548.43	2068.78
548.79	2076.85
549.14	2084.53
549.50	2091.90
549.86	2099.62
550.21	2106.86
550.57	2114.20
550.92	2120.66
551.28	2127.81
551.64	2134.75
551.99	2141.26
552.35	2147.32
552.70	2153.43
553.06	2159.43
553.41	2165.74
553.77	2171.81
554.13	2177.93
554.48	2184.10
554.84	2189.33
555.19	2194.75
555.55	2199.74
555.90	2204.21
556.26	2209.00
556.61	2213.65
556.97	2217.91
557.32	2221.97
557.68	2226.09
558.03	2230.40
558.39	2234.30
558.74	2238.86
559.10	2242.79
559.45	2246.60
559.81	2251.02
560.16	2254.89
560.52	2258.14
560.87	2261.59
561.23	2264.24
561.58	2267.19
561.94	2269.71
562.29	2272.23
562.64	2274.79
563.00	2277.61
563.35	2281.18
563.71	2284.26
564.06	2287.43
564.42	2290.20
564.77	2292.69
565.12	2294.93
565.48	2296.50
565.83	2298.04
566.19	2299.25
566.54	2300.18
566.89	2301.27
567.25	2301.65
567.60	2303.04
567.96	2304.64
568.31	2305.46
568.66	2306.37
569.02	2306.92
569.37	2307.27
569.72	2307.99
570.08	2308.02
570.43	2307.76
570.78	2306.99
571.14	2305.44
571.49	2304.12
571.84	2303.84
572.20	2302.51
572.55	2301.47
572.90	2300.03
573.26	2298.69
573.61	2297.13
573.96	2295.18
574.31	2291.96
574.67	2288.88
575.02	2285.16
575.37	2281.77
575.72	2277.80
576.08	2274.45
576.43	2271.02
576.78	2267.27
577.13	2264.10
577.49	2261.02
577.84	2257.50
578.19	2253.75
578.54	2249.86
578.90	2245.50
579.25	2239.83
579.60	2235.01
579.95	2230.07
580.30	2224.90
580.66	2219.77
581.01	2214.58
581.36	2209.64
581.71	2205.44
582.06	2200.92
582.42	2196.31
582.77	2190.87
583.12	2186.24
583.47	2181.36
583.82	2176.19
584.17	2170.73
584.53	2165.24
584.88	2159.45
585.23	2153.48
585.58	2147.92
585.93	2142.55
586.28	2137.80
586.63	2132.59
586.98	2127.36
587.34	2122.43
587.69	2117.65
588.04	2112.08
588.39	2106.35
588.74	2099.68
589.09	2093.50
589.44	2086.61
589.79	2080.62
590.14	2074.98
590.49	2068.35
590.84	2061.93
591.19	2055.81
591.54	2049.34
591.89	2041.68
592.25	2034.87
592.60	2027.75
592.95	2019.94
593.30	2012.44
593.65	2004.84
594.00	1997.88
594.35	1990.57
594.70	1982.38
595.05	1974.85
595.40	1967.65
595.75	1960.22
596.10	1954.11
596.45	1947.24
596.80	1941.03
597.15	1934.28
597.50	1927.02
597.85	1920.56
598.19	1913.87
598.54	1906.80
598.89	1900.08
599.24	1894.22
599.59	1887.47
599.94	1881.25
600.29	1874.99
600.64	1868.47
600.99	1860.76
601.34	1853.75
601.69	1846.77
602.04	1839.85
602.39	1832.44
602.74	1825.50
603.08	1818.59
603.43	1811.80
603.78	1804.50
604.13	1797.29
604.48	1789.87
604.83	1783.04
605.18	1775.92
605.53	1767.81
605.87	1759.83
606.22	1752.62
606.57	1744.62
606.92	1737.21
607.27	1729.96
607.62	1723.05
607.96	1715.60
608.31	1708.94
608.66	1701.26
609.01	1693.66
609.36	1686.07
609.70	1678.07
610.05	1669.91
610.40	1662.13
610.75	1653.77
611.10	1646.06
611.44	1637.69
611.79	1629.78
612.14	1621.03
612.49	1612.05
612.83	1603.75
613.18	1595.52
613.53	1587.51
613.88	1578.95
614.22	1570.66
614.57	1562.07
614.92	1553.90
615.27	1546.31
615.61	1538.08
615.96	1530.13
616.31	1522.52
616.65	1515.26
617.00	1507.79
617.35	1500.31
617.70	1491.97
618.04	1483.41
618.39	1475.13
618.74	1467.51
619.08	1459.15
619.43	1451.73
619.78	1444.70
620.12	1437.48
620.47	1429.95
620.82	1421.79
621.16	1414.40
621.51	1406.86
621.85	1399.35
622.20	1390.84
622.55	1382.61
622.89	1374.72
623.24	1367.11
623.59	1359.71
623.93	1352.23
624.28	1344.87
624.62	1337.18
624.97	1330.14
625.32	1323.45
625.66	1316.54
626.01	1309.23
626.35	1301.81
626.70	1293.92
627.04	1286.18
627.39	1278.46
627.73	1271.15
628.08	1264.16
628.43	1256.79
628.77	1249.38
629.12	1241.69
629.46	1234.58
629.81	1227.18
630.15	1219.96
630.50	1212.54
630.84	1204.37
631.19	1196.37
631.53	1188.98
631.88	1181.55
632.22	1173.95
632.57	1166.66
632.91	1159.09
633.26	1151.83
633.60	1144.58
633.95	1137.64
634.29	1130.66
634.64	1123.95
634.98	1116.54
635.32	1109.44
635.67	1102.93
636.01	1096.33
636.36	1089.59
636.70	1083.09
637.05	1076.52
637.39	1070.07
637.73	1063.57
638.08	1057.72
638.42	1051.76
638.77	1045.27
639.11	1038.62
639.45	1032.17
639.80	1025.57
640.14	1019.11
640.49	1012.63
640.83	1006.27
641.17	1000.01
641.52	993.67
641.86	987.34
642.20	981.48
642.55	975.14
642.89	968.57
643.23	962.05
643.58	956.19
643.92	949.97
644.26	943.86
644.61	937.91
644.95	931.87
645.29	925.24
645.64	918.45
645.98	912.20
646.32	906.48
646.66	900.40
647.01	894.48
647.35	888.90
647.69	882.94
648.04	877.38
648.38	871.52
648.72	865.41
649.06	859.27
649.41	853.41
649.75	847.38
650.09	841.50
650.43	835.64
650.78	829.52
651.12	823.53
651.46	817.82
651.80	812.05
652.14	806.63
652.49	801.28
652.83	796.15
653.17	790.38
653.51	784.51
653.85	779.21
654.20	773.57
654.54	767.52
654.88	761.79
655.22	755.93
655.56	750.27
655.90	744.91
656.25	739.64
656.59	734.30
656.93	729.19
657.27	723.95
657.61	718.55
657.95	713.44
658.29	708.37
658.64	703.15
658.98	697.85
659.32	692.42
659.66	687.18
660.00	681.84
660.34	676.88
660.68	672.01
661.02	666.92
661.36	662.23
661.70	657.71
662.05	653.41
662.39	649.14
662.73	644.69
663.07	640.29
663.41	635.85
663.75	631.31
664.09	626.78
664.43	622.48
664.77	618.41
665.11	614.16
665.45	610.09
665.79	605.96
666.13	601.76
666.47	597.66
666.81	593.52
667.15	589.42
667.49	585.57
667.83	581.78
668.17	577.88
668.51	573.84
668.85	569.79
669.19	565.96
669.53	562.09
669.87	558.17
670.21	554.48
670.55	550.85
670.89	547.42
671.23	544.05
671.57	540.58
671.91	537.03
672.25	533.61
672.58	530.16
672.92	526.83
673.26	523.70
673.60	520.57
673.94	517.46
674.28	514.55
674.62	511.62
674.96	508.47
675.30	505.54
675.64	502.57
675.97	499.84
676.31	496.95
676.65	494.00
676.99	491.34
677.33	488.48
677.67	485.65
678.01	482.65
678.34	479.67
678.68	476.79
679.02	474.00
679.36	471.25
679.70	468.50
680.04	465.70
680.37	462.81
680.71	460.07
681.05	457.52
681.39	454.83
681.73	452.21
682.06	449.73
682.40	447.23
682.74	444.75
683.08	442.23
683.42	439.62
683.75	437.11
684.09	434.58
684.43	432.19
684.77	429.77
685.10	427.43
685.44	425.12
685.78	422.84
686.12	420.56
686.45	418.25
686.79	415.93
687.13	413.76
687.46	411.65
687.80	409.45
688.14	407.20
688.48	405.11
688.81	402.81
689.15	400.60
689.49	398.39
689.82	396.28
690.16	394.21
690.50	392.29
690.83	390.36
691.17	388.38
691.51	386.44
691.84	384.61
692.18	382.66
692.52	380.66
692.85	378.76
693.19	376.90
693.52	375.09
693.86	373.26
694.20	371.53
694.53	369.70
694.87	367.90
695.21	366.14
695.54	364.35
695.88	362.66
696.21	360.99
696.55	359.33
696.88	357.65
697.22	355.99
697.56	354.38
697.89	352.75
698.23	351.14
698.56	349.56
698.90	347.91
699.23	346.29
699.57	344.76
699.90	343.17
700.24	341.60
700.58	340.04
700.91	338.52
701.25	337.05
701.58	335.67
701.92	334.27
702.25	332.85
702.59	331.45
702.92	330.15
703.26	328.81
703.59	327.55
703.93	326.40
704.26	325.10
704.60	323.81
704.93	322.55
705.26	321.30
705.60	320.10
705.93	319.00
706.27	317.96
706.60	316.97
706.94	315.92
707.27	314.81
707.61	313.81
707.94	312.80
708.27	311.70
708.61	310.68
708.94	309.68
709.28	308.73
709.61	307.80
709.94	306.86
710.28	305.87
710.61	304.91
710.95	303.81
711.28	302.92
711.61	301.99
711.95	301.08
712.28	300.16
712.61	299.17
712.95	298.24
713.28	297.36
713.61	296.42
713.95	295.54
714.28	294.72
714.61	293.86
714.95	293.02
715.28	292.20
715.61	291.30
715.95	290.46
716.28	289.64
716.61	288.81
716.95	288.00
717.28	287.31
717.61	286.53
717.94	285.85
718.28	285.10
718.61	284.38
718.94	283.67
719.27	283.01
719.61	282.35
719.94	281.72
720.27	281.00
720.60	280.35
720.94	279.72
721.27	279.11
721.60	278.53
721.93	277.95
722.27	277.42
722.60	276.88
722.93	276.35
723.26	275.81
723.59	275.25
723.93	274.69
724.26	274.15
724.59	273.61
724.92	273.08
725.25	272.57
725.59	272.01
725.92	271.50
726.25	271.02
726.58	270.52
726.91	270.02
727.24	269.58
727.57	269.10
727.91	268.62
728.24	268.13
728.57	267.63
728.90	267.15
729.23	266.63
729.56	266.18
729.89	265.68
730.22	265.19
730.55	264.75
730.89	264.27
731.22	263.79
731.55	263.37
731.88	262.92
732.21	262.47
732.54	262.02
732.87	261.57
733.20	261.16
733.53	260.80
733.86	260.40
734.19	259.97
734.52	259.59
734.85	259.26
735.18	258.87
735.51	258.47
735.84	258.09
736.17	257.75
736.50	257.36
736.83	257.10
737.16	256.72
737.49	256.41
737.82	256.05
738.15	255.71
738.48	255.34
738.81	254.99
739.14	254.65
739.47	254.37
739.80	254.07
740.13	253.75
740.46	253.39
740.79	253.09
741.12	252.78
741.45	252.45
741.78	252.08
742.11	251.77
742.44	251.47
742.77	251.19
743.10	250.91
743.43	250.63
743.75	250.26
744.08	250.12
744.41	249.82
744.74	249.58
745.07	249.29
745.40	249.05
745.73	248.87
746.06	248.59
746.39	248.33
746.71	248.06
747.04	247.79
747.37	247.55
747.70	247.31
748.03	247.07
748.36	246.87
748.68	246.68
749.01	246.43
749.34	246.16
749.67	245.93
750.00	245.71
750.33	245.54
750.65	245.33
750.98	244.99
751.31	244.76
751.64	244.56
751.97	244.40
752.29	244.16
752.62	243.90
752.95	243.70
753.28	243.51
753.60	243.29
753.93	243.12
754.26	242.96
754.59	242.73
754.91	242.53
755.24	242.35
755.57	242.13
755.90	241.99
756.22	241.82
756.55	241.61
756.88	241.38
757.20	241.16
757.53	240.97
757.86	240.83
758.19	240.70
758.51	240.52
758.84	240.32
759.17	240.19
759.49	240.05
759.82	239.97
760.15	239.80
760.47	239.68
760.80	239.50
761.13	239.33
761.45	239.20
761.78	239.03
762.11	238.88
762.43	238.75
762.76	238.58
763.08	238.48
763.41	238.36
763.74	238.27
764.06	238.13
764.39	238.01
764.71	237.83
765.04	237.67
765.37	237.53
765.69	237.42
766.02	237.27
766.34	237.12
766.67	236.95
767.00	236.85
767.32	236.77
767.65	236.71
767.97	236.59
768.30	236.47
768.62	236.37
768.95	236.21
769.27	236.08
769.60	235.99
769.92	235.88
770.25	235.76
770.57	235.62
770.90	235.51
771.22	235.40
771.55	235.31
771.87	235.22
772.20	235.11
772.52	235.06
772.85	235.09
773.17	234.98
773.50	234.86
773.82	234.74
774.15	234.59
774.47	234.43
774.80	234.33
775.12	234.23
775.45	234.13
775.77	234.06
776.09	233.97
776.42	233.90
776.74	233.84
777.07	233.75
777.39	233.66
777.72	233.59
778.04	233.51
778.36	233.48
778.69	233.36
779.01	233.30
779.33	233.17
779.66	233.00
779.98	232.93
780.31	232.90
780.63	232.88
780.95	232.83
781.28	232.77
781.60	232.71
781.92	232.65
782.25	232.61
782.57	232.55
782.89	232.50
783.22	232.42
783.54	232.36
783.86	232.30
784.19	232.25
784.51	232.21
784.83	232.18
785.16	232.07
785.48	232.07
785.80	232.04
786.12	231.98
786.45	231.90
786.77	231.89
787.09	231.79
