SpectraSuite Data File
++++++++++++++++++++++++++++++++++++
Date: Fri Feb 01 17:23:38 EST 2013
User: group
Dark Spectrum Present: No
Reference Spectrum Present: No
Number of Sampled Component Spectra: 1
Spectrometers: USB2E7196
Integration Time (usec): 35000 (USB2E7196)
Spectra Averaged: 100 (USB2E7196)
Boxcar Smoothing: 10 (USB2E7196)
Correct for Electrical Dark: No (USB2E7196)
Strobe/Lamp Enabled: No (USB2E7196)
Correct for Detector Non-linearity: No (USB2E7196)
Correct for Stray Light: No (USB2E7196)
Number of Pixels in Processed Spectrum: 2048
>>>>>Begin Processed Spectral Data<<<<<
339.09	0.00
339.48	213.13
339.86	214.93
340.24	215.48
340.63	217.03
341.01	219.93
341.39	219.88
341.78	222.10
342.16	222.84
342.54	223.00
342.93	211.47
343.31	222.14
343.69	222.69
344.07	223.12
344.46	223.58
344.84	223.97
345.22	224.21
345.60	224.43
345.99	224.60
346.37	224.71
346.75	224.80
347.13	224.85
347.52	224.93
347.90	225.01
348.28	225.03
348.66	225.04
349.05	225.04
349.43	225.08
349.81	225.13
350.19	225.18
350.57	225.22
350.96	225.28
351.34	225.37
351.72	225.42
352.10	225.49
352.48	225.53
352.87	225.59
353.25	225.67
353.63	225.74
354.01	225.76
354.39	225.84
354.77	225.94
355.15	226.02
355.54	226.04
355.92	226.08
356.30	226.12
356.68	226.27
357.06	226.35
357.44	226.40
357.82	226.45
358.20	226.48
358.58	226.52
358.97	226.58
359.35	226.64
359.73	226.72
360.11	226.80
360.49	226.85
360.87	226.89
361.25	226.94
361.63	227.02
362.01	227.08
362.39	227.10
362.77	227.10
363.15	227.12
363.53	227.16
363.91	227.18
364.29	227.21
364.67	227.10
365.05	227.06
365.43	227.10
365.81	227.13
366.19	227.19
366.57	227.24
366.95	227.23
367.33	227.22
367.71	227.19
368.09	227.18
368.47	227.19
368.85	227.17
369.23	227.16
369.61	227.08
369.99	227.11
370.37	227.10
370.75	227.16
371.13	227.11
371.51	227.05
371.89	227.05
372.27	227.03
372.65	227.00
373.03	226.99
373.41	226.92
373.78	226.89
374.16	226.80
374.54	226.73
374.92	226.68
375.30	226.63
375.68	226.58
376.06	226.55
376.44	226.47
376.82	226.39
377.19	226.31
377.57	226.25
377.95	226.12
378.33	226.06
378.71	225.93
379.09	225.90
379.47	225.88
379.84	225.79
380.22	225.71
380.60	225.66
380.98	225.59
381.36	225.53
381.73	225.43
382.11	225.40
382.49	225.35
382.87	225.26
383.25	225.18
383.62	225.25
384.00	225.13
384.38	225.09
384.76	225.08
385.13	225.06
385.51	225.04
385.89	225.00
386.27	224.94
386.64	224.89
387.02	224.83
387.40	224.77
387.78	224.74
388.15	224.68
388.53	224.64
388.91	224.62
389.29	224.56
389.66	224.55
390.04	224.52
390.42	224.50
390.79	224.50
391.17	224.47
391.55	224.33
391.92	224.35
392.30	224.36
392.68	224.34
393.05	224.33
393.43	224.33
393.81	224.31
394.18	224.29
394.56	224.32
394.94	224.35
395.31	224.38
395.69	224.42
396.06	224.45
396.44	224.44
396.82	224.47
397.19	224.57
397.57	224.60
397.95	224.60
398.32	224.63
398.70	224.69
399.07	224.78
399.45	224.83
399.82	224.89
400.20	224.93
400.58	224.97
400.95	225.05
401.33	225.14
401.70	225.30
402.08	225.39
402.45	225.46
402.83	225.55
403.20	225.62
403.58	225.69
403.95	225.81
404.33	225.96
404.71	226.07
405.08	226.24
405.46	226.39
405.83	226.56
406.21	226.70
406.58	226.86
406.96	227.00
407.33	227.17
407.70	227.38
408.08	227.65
408.45	227.87
408.83	228.07
409.20	228.25
409.58	228.44
409.95	228.71
410.33	228.97
410.70	229.21
411.08	229.53
411.45	229.85
411.82	230.18
412.20	230.56
412.57	230.99
412.95	231.29
413.32	231.70
413.69	232.09
414.07	232.54
414.44	233.01
414.82	233.55
415.19	234.12
415.56	234.67
415.94	235.25
416.31	235.90
416.68	236.53
417.06	237.26
417.43	237.97
417.81	238.76
418.18	239.61
418.55	240.50
418.93	241.46
419.30	242.40
419.67	243.39
420.04	244.37
420.42	245.38
420.79	246.61
421.16	247.82
421.54	249.08
421.91	250.35
422.28	251.65
422.66	252.99
423.03	254.35
423.40	255.74
423.77	257.19
424.15	258.73
424.52	260.31
424.89	261.98
425.26	263.60
425.64	265.10
426.01	266.74
426.38	268.51
426.75	270.18
427.13	271.98
427.50	273.87
427.87	275.81
428.24	277.76
428.61	279.58
428.99	281.56
429.36	283.76
429.73	285.90
430.10	288.00
430.47	290.19
430.85	292.40
431.22	294.70
431.59	297.17
431.96	299.43
432.33	301.95
432.70	304.42
433.08	307.33
433.45	310.06
433.82	312.77
434.19	315.68
434.56	318.63
434.93	321.37
435.30	324.09
435.68	327.11
436.05	330.05
436.42	332.96
436.79	335.57
437.16	338.33
437.53	341.29
437.90	344.17
438.27	346.99
438.64	349.93
439.01	352.64
439.38	354.91
439.75	357.19
440.13	359.83
440.50	362.22
440.87	364.15
441.24	366.15
441.61	368.36
441.98	369.92
442.35	371.79
442.72	373.74
443.09	375.56
443.46	376.55
443.83	377.14
444.20	377.67
444.57	378.54
444.94	378.86
445.31	379.21
445.68	379.63
446.05	379.72
446.42	379.31
446.79	378.89
447.16	378.47
447.53	378.14
447.90	376.96
448.27	375.80
448.64	374.19
449.01	373.04
449.37	371.05
449.74	369.14
450.11	366.79
450.48	364.24
450.85	361.67
451.22	359.51
451.59	357.42
451.96	355.42
452.33	352.80
452.70	350.36
453.07	347.43
453.43	344.42
453.80	341.53
454.17	338.79
454.54	336.12
454.91	333.31
455.28	330.58
455.65	327.99
456.02	325.43
456.38	323.18
456.75	320.41
457.12	318.08
457.49	315.77
457.86	313.52
458.23	311.57
458.59	309.45
458.96	307.22
459.33	305.30
459.70	303.36
460.07	301.80
460.43	300.07
460.80	298.38
461.17	296.89
461.54	295.34
461.91	293.87
462.27	292.39
462.64	291.14
463.01	289.73
463.38	288.44
463.74	287.06
464.11	285.86
464.48	284.79
464.85	283.63
465.21	282.74
465.58	281.84
465.95	280.75
466.32	279.83
466.68	278.97
467.05	278.06
467.42	277.13
467.78	276.14
468.15	275.21
468.52	274.52
468.88	273.64
469.25	272.90
469.62	272.27
469.98	271.60
470.35	270.94
470.72	270.32
471.08	269.63
471.45	269.05
471.82	268.50
472.18	267.92
472.55	267.48
472.92	266.93
473.28	266.42
473.65	265.94
474.02	265.46
474.38	265.05
474.75	264.69
475.11	264.32
475.48	264.02
475.85	263.82
476.21	263.60
476.58	263.42
476.94	263.24
477.31	263.04
477.67	262.88
478.04	262.71
478.41	262.62
478.77	262.65
479.14	262.58
479.50	262.55
479.87	262.61
480.23	262.68
480.60	262.72
480.96	262.81
481.33	263.02
481.69	263.22
482.06	263.43
482.42	263.62
482.79	263.90
483.15	264.23
483.52	264.58
483.88	264.93
484.25	265.32
484.61	265.75
484.98	266.20
485.34	266.76
485.71	267.39
486.07	268.02
486.44	268.60
486.80	269.29
487.17	270.03
487.53	270.85
487.90	271.67
488.26	272.60
488.62	273.59
488.99	274.56
489.35	275.61
489.72	276.71
490.08	277.93
490.44	279.16
490.81	280.47
491.17	281.79
491.54	283.28
491.90	284.77
492.26	286.36
492.63	288.06
492.99	289.79
493.36	291.64
493.72	293.64
494.08	295.69
494.45	297.92
494.81	300.26
495.17	302.63
495.54	305.20
495.90	307.89
496.26	310.66
496.63	313.62
496.99	316.68
497.35	319.91
497.72	323.27
498.08	326.71
498.44	330.35
498.80	334.25
499.17	338.23
499.53	342.39
499.89	346.75
500.26	351.20
500.62	355.87
500.98	360.81
501.34	365.80
501.71	371.11
502.07	376.51
502.43	382.08
502.79	387.83
503.16	393.79
503.52	400.00
503.88	406.33
504.24	412.83
504.60	419.62
504.97	426.64
505.33	433.92
505.69	441.54
506.05	449.19
506.41	456.94
506.78	464.99
507.14	473.19
507.50	481.73
507.86	490.59
508.22	499.61
508.59	508.68
508.95	518.12
509.31	527.72
509.67	537.70
510.03	547.81
510.39	558.19
510.75	568.79
511.12	579.45
511.48	590.54
511.84	601.89
512.20	613.19
512.56	624.90
512.92	636.82
513.28	649.01
513.64	661.18
514.00	673.60
514.37	686.33
514.73	699.18
515.09	711.95
515.45	724.99
515.81	738.26
516.17	751.91
516.53	765.76
516.89	779.66
517.25	793.46
517.61	807.50
517.97	821.62
518.33	835.73
518.69	850.19
519.05	864.76
519.41	879.47
519.77	894.63
520.13	909.68
520.49	924.72
520.85	939.54
521.21	954.87
521.57	970.68
521.93	985.92
522.29	1001.93
522.65	1017.84
523.01	1033.61
523.37	1049.25
523.73	1065.07
524.09	1080.77
524.45	1096.48
524.81	1112.68
525.17	1129.04
525.53	1145.49
525.89	1161.94
526.25	1178.43
526.61	1194.52
526.97	1210.89
527.33	1226.98
527.68	1243.07
528.04	1259.15
528.40	1275.39
528.76	1292.10
529.12	1308.46
529.48	1324.96
529.84	1340.53
530.20	1356.76
530.56	1373.37
530.91	1390.38
531.27	1406.67
531.63	1422.66
531.99	1439.00
532.35	1454.69
532.71	1470.33
533.07	1486.19
533.42	1501.93
533.78	1517.51
534.14	1533.40
534.50	1548.44
534.86	1563.98
535.21	1578.98
535.57	1594.58
535.93	1609.78
536.29	1624.25
536.65	1638.92
537.00	1653.51
537.36	1668.67
537.72	1682.86
538.08	1697.05
538.44	1710.67
538.79	1724.31
539.15	1737.88
539.51	1751.39
539.87	1765.61
540.22	1779.09
540.58	1792.65
540.94	1805.48
541.29	1818.18
541.65	1830.68
542.01	1843.65
542.37	1855.83
542.72	1868.06
543.08	1879.82
543.44	1892.11
543.79	1903.50
544.15	1914.42
544.51	1925.91
544.87	1936.87
545.22	1947.87
545.58	1958.02
545.94	1967.84
546.29	1977.78
546.65	1987.71
547.01	1997.18
547.36	2005.77
547.72	2014.41
548.07	2022.56
548.43	2030.90
548.79	2038.91
549.14	2046.89
549.50	2054.36
549.86	2062.08
550.21	2069.61
550.57	2076.95
550.92	2083.77
551.28	2090.74
551.64	2098.16
551.99	2104.81
552.35	2111.13
552.70	2117.35
553.06	2123.73
553.41	2130.30
553.77	2136.49
554.13	2142.68
554.48	2148.93
554.84	2154.81
555.19	2160.19
555.55	2165.45
555.90	2170.28
556.26	2175.83
556.61	2180.52
556.97	2185.28
557.32	2189.77
557.68	2194.28
558.03	2198.75
558.39	2202.74
558.74	2207.86
559.10	2211.85
559.45	2215.87
559.81	2220.34
560.16	2224.49
560.52	2227.96
560.87	2231.53
561.23	2234.52
561.58	2237.69
561.94	2240.68
562.29	2243.24
562.64	2246.52
563.00	2249.49
563.35	2253.36
563.71	2256.62
564.06	2259.96
564.42	2263.13
564.77	2266.13
565.12	2268.95
565.48	2271.31
565.83	2273.64
566.19	2275.38
566.54	2276.61
566.89	2278.33
567.25	2279.44
567.60	2281.07
567.96	2283.36
568.31	2284.65
568.66	2286.34
569.02	2287.41
569.37	2288.05
569.72	2289.50
570.08	2290.17
570.43	2290.63
570.78	2290.47
571.14	2289.43
571.49	2288.76
571.84	2288.75
572.20	2288.05
572.55	2287.28
572.90	2285.94
573.26	2284.97
573.61	2283.39
573.96	2282.28
574.31	2279.53
574.67	2277.04
575.02	2273.94
575.37	2270.80
575.72	2267.56
576.08	2264.32
576.43	2261.29
576.78	2258.00
577.13	2254.90
577.49	2251.92
577.84	2248.87
578.19	2245.43
578.54	2242.14
578.90	2238.35
579.25	2233.17
579.60	2228.62
579.95	2223.93
580.30	2219.26
580.66	2214.41
581.01	2209.80
581.36	2205.12
581.71	2201.41
582.06	2197.32
582.42	2193.09
582.77	2188.24
583.12	2183.90
583.47	2179.62
583.82	2174.99
584.17	2170.17
584.53	2165.09
584.88	2159.80
585.23	2154.41
585.58	2149.16
585.93	2143.86
586.28	2139.08
586.63	2134.36
586.98	2129.38
587.34	2124.85
587.69	2120.27
588.04	2115.35
588.39	2109.95
588.74	2103.52
589.09	2097.51
589.44	2090.87
589.79	2084.92
590.14	2079.33
590.49	2073.01
590.84	2066.78
591.19	2061.01
591.54	2054.61
591.89	2047.54
592.25	2041.02
592.60	2034.02
592.95	2026.69
593.30	2019.56
593.65	2012.17
594.00	2005.09
594.35	1997.97
594.70	1989.94
595.05	1982.99
595.40	1975.67
595.75	1968.42
596.10	1962.50
596.45	1955.90
596.80	1949.90
597.15	1943.50
597.50	1936.76
597.85	1930.29
598.19	1923.80
598.54	1916.98
598.89	1910.53
599.24	1904.76
599.59	1898.28
599.94	1891.99
600.29	1885.71
600.64	1879.22
600.99	1872.05
601.34	1865.56
601.69	1858.66
602.04	1851.95
602.39	1844.63
602.74	1837.95
603.08	1831.19
603.43	1824.40
603.78	1817.14
604.13	1809.87
604.48	1802.85
604.83	1795.87
605.18	1789.20
605.53	1781.34
605.87	1773.25
606.22	1765.85
606.57	1757.82
606.92	1750.28
607.27	1743.17
607.62	1736.36
607.96	1729.23
608.31	1722.71
608.66	1715.11
609.01	1707.68
609.36	1700.21
609.70	1692.17
610.05	1684.07
610.40	1676.45
610.75	1668.30
611.10	1660.67
611.44	1652.20
611.79	1643.99
612.14	1635.34
612.49	1626.07
612.83	1617.53
613.18	1609.26
613.53	1601.20
613.88	1592.69
614.22	1584.41
614.57	1575.65
614.92	1567.60
615.27	1560.04
615.61	1551.69
615.96	1543.55
616.31	1535.78
616.65	1528.28
617.00	1520.62
617.35	1512.82
617.70	1504.55
618.04	1496.01
618.39	1487.51
618.74	1479.97
619.08	1471.56
619.43	1463.81
619.78	1456.71
620.12	1449.59
620.47	1441.96
620.82	1433.70
621.16	1426.07
621.51	1418.33
621.85	1410.62
622.20	1402.05
622.55	1393.53
622.89	1385.48
623.24	1377.61
623.59	1370.00
623.93	1362.39
624.28	1355.07
624.62	1347.58
624.97	1340.17
625.32	1333.21
625.66	1326.07
626.01	1318.82
626.35	1311.53
626.70	1303.73
627.04	1295.98
627.39	1288.04
627.73	1280.56
628.08	1273.60
628.43	1266.32
628.77	1258.90
629.12	1251.30
629.46	1243.98
629.81	1236.28
630.15	1228.92
630.50	1221.57
630.84	1213.53
631.19	1205.54
631.53	1198.01
631.88	1190.24
632.22	1182.64
632.57	1175.13
632.91	1167.59
633.26	1160.01
633.60	1152.33
633.95	1145.03
634.29	1137.78
634.64	1130.99
634.98	1123.62
635.32	1116.35
635.67	1109.64
636.01	1102.92
636.36	1096.12
636.70	1089.55
637.05	1083.00
637.39	1076.51
637.73	1069.94
638.08	1063.85
638.42	1057.83
638.77	1051.27
639.11	1044.76
639.45	1038.24
639.80	1031.65
640.14	1025.29
640.49	1018.75
640.83	1012.32
641.17	1006.17
641.52	999.90
641.86	993.26
642.20	987.35
642.55	980.91
642.89	974.35
643.23	967.68
643.58	961.78
643.92	955.45
644.26	949.49
644.61	943.27
644.95	937.13
645.29	930.56
645.64	923.72
645.98	917.33
646.32	911.29
646.66	905.25
647.01	899.38
647.35	893.55
647.69	887.65
648.04	882.07
648.38	876.22
648.72	870.28
649.06	864.30
649.41	858.33
649.75	852.38
650.09	846.40
650.43	840.65
650.78	834.56
651.12	828.61
651.46	822.74
651.80	817.11
652.14	811.69
652.49	806.37
652.83	801.20
653.17	795.58
653.51	789.93
653.85	784.44
654.20	778.75
654.54	772.72
654.88	766.87
655.22	761.03
655.56	755.26
655.90	749.69
656.25	744.48
656.59	739.08
656.93	734.00
657.27	728.84
657.61	723.28
657.95	718.12
658.29	713.00
658.64	707.65
658.98	702.19
659.32	696.68
659.66	691.39
660.00	686.11
660.34	681.14
660.68	676.14
661.02	671.10
661.36	666.37
661.70	661.93
662.05	657.60
662.39	653.29
662.73	648.84
663.07	644.45
663.41	639.99
663.75	635.47
664.09	630.89
664.43	626.49
664.77	622.43
665.11	618.23
665.45	614.09
665.79	610.04
666.13	605.93
666.47	601.84
666.81	597.70
667.15	593.52
667.49	589.51
667.83	585.64
668.17	581.72
668.51	577.67
668.85	573.53
669.19	569.62
669.53	565.72
669.87	561.82
670.21	558.09
670.55	554.34
670.89	550.92
671.23	547.46
671.57	543.89
671.91	540.34
672.25	536.73
672.58	533.20
672.92	529.77
673.26	526.56
673.60	523.34
673.94	520.22
674.28	517.23
674.62	514.30
674.96	511.22
675.30	508.28
675.64	505.31
675.97	502.53
676.31	499.66
676.65	496.74
676.99	494.05
677.33	491.12
677.67	488.28
678.01	485.21
678.34	482.27
678.68	479.32
679.02	476.41
679.36	473.60
679.70	470.80
680.04	468.03
680.37	465.17
680.71	462.33
681.05	459.61
681.39	456.89
681.73	454.14
682.06	451.58
682.40	449.03
682.74	446.49
683.08	443.86
683.42	441.25
683.75	438.65
684.09	436.02
684.43	433.53
684.77	431.09
685.10	428.73
685.44	426.35
685.78	424.11
686.12	421.88
686.45	419.53
686.79	417.25
687.13	415.01
687.46	412.79
687.80	410.67
688.14	408.45
688.48	406.36
688.81	404.19
689.15	402.00
689.49	399.78
689.82	397.64
690.16	395.54
690.50	393.55
690.83	391.62
691.17	389.58
691.51	387.71
691.84	385.80
692.18	383.84
692.52	381.85
692.85	379.84
693.19	377.96
693.52	376.13
693.86	374.22
694.20	372.42
694.53	370.65
694.87	368.74
695.21	366.92
695.54	365.01
695.88	363.25
696.21	361.54
696.55	359.85
696.88	358.20
697.22	356.51
697.56	354.82
697.89	353.16
698.23	351.60
698.56	349.92
698.90	348.34
699.23	346.75
699.57	345.21
699.90	343.68
700.24	342.10
700.58	340.55
700.91	339.10
701.25	337.62
701.58	336.25
701.92	334.95
702.25	333.58
702.59	332.26
702.92	330.92
703.26	329.54
703.59	328.27
703.93	327.04
704.26	325.83
704.60	324.57
704.93	323.31
705.26	322.02
705.60	320.84
705.93	319.64
706.27	318.54
706.60	317.46
706.94	316.38
707.27	315.26
707.61	314.21
707.94	313.15
708.27	312.07
708.61	310.93
708.94	309.83
709.28	308.81
709.61	307.79
709.94	306.79
710.28	305.75
710.61	304.72
710.95	303.60
711.28	302.60
711.61	301.63
711.95	300.69
712.28	299.74
712.61	298.69
712.95	297.73
713.28	296.81
713.61	295.85
713.95	294.93
714.28	294.06
714.61	293.18
714.95	292.31
715.28	291.40
715.61	290.51
715.95	289.65
716.28	288.78
716.61	287.93
716.95	287.09
717.28	286.37
717.61	285.62
717.94	284.85
718.28	284.06
718.61	283.28
718.94	282.55
719.27	281.86
719.61	281.22
719.94	280.59
720.27	279.87
720.60	279.19
720.94	278.50
721.27	277.86
721.60	277.24
721.93	276.61
722.27	276.03
722.60	275.47
722.93	274.86
723.26	274.32
723.59	273.77
723.93	273.24
724.26	272.64
724.59	272.00
724.92	271.47
725.25	270.93
725.59	270.44
725.92	269.91
726.25	269.36
726.58	268.85
726.91	268.29
727.24	267.77
727.57	267.29
727.91	266.80
728.24	266.33
728.57	265.80
728.90	265.35
729.23	264.86
729.56	264.40
729.89	263.93
730.22	263.44
730.55	262.95
730.89	262.48
731.22	262.00
731.55	261.61
731.88	261.20
732.21	260.79
732.54	260.33
732.87	259.90
733.20	259.53
733.53	259.10
733.86	258.76
734.19	258.37
734.52	257.97
734.85	257.65
735.18	257.27
735.51	256.91
735.84	256.52
736.17	256.20
736.50	255.80
736.83	255.58
737.16	255.26
737.49	254.97
737.82	254.61
738.15	254.32
738.48	253.98
738.81	253.63
739.14	253.29
739.47	252.97
739.80	252.65
740.13	252.31
740.46	252.02
740.79	251.67
741.12	251.38
741.45	251.07
741.78	250.76
742.11	250.49
742.44	250.20
742.77	249.91
743.10	249.63
743.43	249.31
743.75	248.91
744.08	248.76
744.41	248.47
744.74	248.20
745.07	247.89
745.40	247.62
745.73	247.39
746.06	247.13
746.39	246.87
746.71	246.62
747.04	246.39
747.37	246.11
747.70	245.88
748.03	245.63
748.36	245.44
748.68	245.20
749.01	244.93
749.34	244.73
749.67	244.52
750.00	244.26
750.33	244.12
750.65	243.92
750.98	243.56
751.31	243.31
751.64	243.09
751.97	242.94
752.29	242.68
752.62	242.45
752.95	242.22
753.28	241.98
753.60	241.77
753.93	241.57
754.26	241.40
754.59	241.16
754.91	240.93
755.24	240.69
755.57	240.46
755.90	240.26
756.22	240.02
756.55	239.82
756.88	239.62
757.20	239.39
757.53	239.19
757.86	239.00
758.19	238.86
758.51	238.68
758.84	238.46
759.17	238.29
759.49	238.10
759.82	238.00
760.15	237.87
760.47	237.72
760.80	237.54
761.13	237.39
761.45	237.24
761.78	237.09
762.11	236.91
762.43	236.76
762.76	236.60
763.08	236.44
763.41	236.31
763.74	236.17
764.06	236.00
764.39	235.85
764.71	235.69
765.04	235.52
765.37	235.36
765.69	235.22
766.02	235.10
766.34	234.94
766.67	234.76
767.00	234.62
767.32	234.56
767.65	234.49
767.97	234.32
768.30	234.22
768.62	234.09
768.95	233.99
769.27	233.88
769.60	233.78
769.92	233.71
770.25	233.54
770.57	233.43
770.90	233.32
771.22	233.23
771.55	233.15
771.87	233.09
772.20	233.00
772.52	233.02
772.85	233.04
773.17	232.99
773.50	232.89
773.82	232.82
774.15	232.64
774.47	232.50
774.80	232.39
775.12	232.29
775.45	232.22
775.77	232.15
776.09	232.08
776.42	232.00
776.74	231.93
777.07	231.86
777.39	231.79
777.72	231.69
778.04	231.64
778.36	231.57
778.69	231.51
779.01	231.44
779.33	231.26
779.66	231.13
779.98	231.04
780.31	231.01
780.63	230.95
780.95	230.96
781.28	230.91
781.60	230.88
781.92	230.81
782.25	230.75
782.57	230.66
782.89	230.63
783.22	230.56
783.54	230.49
783.86	230.46
784.19	230.43
784.51	230.44
784.83	230.37
785.16	230.34
785.48	230.27
785.80	230.25
786.12	230.23
786.45	230.15
786.77	230.12
787.09	230.07
