SpectraSuite Data File
++++++++++++++++++++++++++++++++++++
Date: Fri Feb 01 18:11:55 EST 2013
User: group
Dark Spectrum Present: No
Reference Spectrum Present: No
Number of Sampled Component Spectra: 1
Spectrometers: USB2E7196
Integration Time (usec): 35000 (USB2E7196)
Spectra Averaged: 100 (USB2E7196)
Boxcar Smoothing: 10 (USB2E7196)
Correct for Electrical Dark: No (USB2E7196)
Strobe/Lamp Enabled: No (USB2E7196)
Correct for Detector Non-linearity: No (USB2E7196)
Correct for Stray Light: No (USB2E7196)
Number of Pixels in Processed Spectrum: 2048
>>>>>Begin Processed Spectral Data<<<<<
339.09	0.00
339.48	212.81
339.86	214.75
340.24	216.31
340.63	217.52
341.01	220.09
341.39	220.17
341.78	221.22
342.16	222.20
342.54	223.60
342.93	211.52
343.31	222.20
343.69	222.75
344.07	223.18
344.46	223.60
344.84	223.97
345.22	224.20
345.60	224.46
345.99	224.66
346.37	224.80
346.75	224.86
347.13	224.94
347.52	225.00
347.90	225.07
348.28	225.09
348.66	225.15
349.05	225.13
349.43	225.15
349.81	225.17
350.19	225.21
350.57	225.29
350.96	225.38
351.34	225.47
351.72	225.56
352.10	225.67
352.48	225.73
352.87	225.79
353.25	225.86
353.63	225.91
354.01	225.96
354.39	226.02
354.77	226.10
355.15	226.18
355.54	226.21
355.92	226.20
356.30	226.33
356.68	226.45
357.06	226.50
357.44	226.56
357.82	226.64
358.20	226.71
358.58	226.78
358.97	226.83
359.35	226.89
359.73	226.99
360.11	227.04
360.49	227.11
360.87	227.16
361.25	227.19
361.63	227.28
362.01	227.33
362.39	227.39
362.77	227.45
363.15	227.48
363.53	227.54
363.91	227.61
364.29	227.61
364.67	227.55
365.05	227.58
365.43	227.63
365.81	227.67
366.19	227.70
366.57	227.73
366.95	227.73
367.33	227.73
367.71	227.70
368.09	227.74
368.47	227.73
368.85	227.69
369.23	227.73
369.61	227.67
369.99	227.67
370.37	227.62
370.75	227.63
371.13	227.58
371.51	227.56
371.89	227.53
372.27	227.47
372.65	227.44
373.03	227.38
373.41	227.33
373.78	227.25
374.16	227.16
374.54	227.07
374.92	227.03
375.30	226.96
375.68	226.92
376.06	226.87
376.44	226.78
376.82	226.76
377.19	226.69
377.57	226.64
377.95	226.57
378.33	226.55
378.71	226.43
379.09	226.42
379.47	226.36
379.84	226.28
380.22	226.25
380.60	226.18
380.98	226.14
381.36	226.10
381.73	226.05
382.11	226.00
382.49	225.97
382.87	225.90
383.25	225.89
383.62	225.93
384.00	225.85
384.38	225.82
384.76	225.79
385.13	225.77
385.51	225.73
385.89	225.67
386.27	225.63
386.64	225.60
387.02	225.55
387.40	225.48
387.78	225.42
388.15	225.39
388.53	225.37
388.91	225.34
389.29	225.26
389.66	225.28
390.04	225.27
390.42	225.26
390.79	225.27
391.17	225.21
391.55	225.07
391.92	225.08
392.30	225.06
392.68	225.02
393.05	225.03
393.43	225.03
393.81	225.01
394.18	224.99
394.56	225.01
394.94	225.04
395.31	225.06
395.69	225.15
396.06	225.18
396.44	225.21
396.82	225.25
397.19	225.36
397.57	225.34
397.95	225.38
398.32	225.40
398.70	225.42
399.07	225.51
399.45	225.58
399.82	225.65
400.20	225.74
400.58	225.81
400.95	225.82
401.33	225.92
401.70	226.09
402.08	226.18
402.45	226.28
402.83	226.42
403.20	226.54
403.58	226.64
403.95	226.79
404.33	226.92
404.71	227.05
405.08	227.25
405.46	227.43
405.83	227.60
406.21	227.78
406.58	228.00
406.96	228.19
407.33	228.42
407.70	228.64
408.08	228.93
408.45	229.18
408.83	229.52
409.20	229.78
409.58	230.03
409.95	230.37
410.33	230.73
410.70	231.03
411.08	231.42
411.45	231.81
411.82	232.21
412.20	232.68
412.57	233.22
412.95	233.62
413.32	234.15
413.69	234.71
414.07	235.32
414.44	235.97
414.82	236.62
415.19	237.36
415.56	238.12
415.94	238.93
416.31	239.86
416.68	240.71
417.06	241.72
417.43	242.66
417.81	243.74
418.18	244.82
418.55	246.03
418.93	247.23
419.30	248.52
419.67	249.81
420.04	251.13
420.42	252.52
420.79	254.16
421.16	255.78
421.54	257.44
421.91	259.16
422.28	260.89
422.66	262.75
423.03	264.56
423.40	266.44
423.77	268.40
424.15	270.36
424.52	272.44
424.89	274.69
425.26	276.87
425.64	278.90
426.01	281.12
426.38	283.41
426.75	285.75
427.13	288.14
427.50	290.67
427.87	293.32
428.24	295.92
428.61	298.41
428.99	301.14
429.36	304.14
429.73	307.00
430.10	309.84
430.47	312.71
430.85	315.70
431.22	318.86
431.59	322.13
431.96	325.30
432.33	328.80
432.70	332.14
433.08	336.07
433.45	339.75
433.82	343.43
434.19	347.50
434.56	351.47
434.93	355.16
435.30	358.87
435.68	362.98
436.05	367.00
436.42	370.91
436.79	374.47
437.16	378.25
437.53	382.26
437.90	386.24
438.27	390.10
438.64	394.07
439.01	397.70
439.38	400.95
439.75	404.01
440.13	407.53
440.50	410.82
440.87	413.45
441.24	416.26
441.61	419.32
441.98	421.42
442.35	423.99
442.72	426.62
443.09	429.13
443.46	430.52
443.83	431.37
444.20	432.11
444.57	433.28
444.94	433.68
445.31	434.14
445.68	434.55
446.05	434.69
446.42	434.18
446.79	433.58
447.16	432.97
447.53	432.56
447.90	430.90
448.27	429.29
448.64	426.99
449.01	425.35
449.37	422.51
449.74	419.84
450.11	416.67
450.48	413.22
450.85	409.73
451.22	406.68
451.59	403.82
451.96	401.06
452.33	397.42
452.70	394.12
453.07	390.16
453.43	386.17
453.80	382.28
454.17	378.53
454.54	374.96
454.91	371.13
455.28	367.30
455.65	363.80
456.02	360.32
456.38	357.34
456.75	353.61
457.12	350.49
457.49	347.33
457.86	344.25
458.23	341.62
458.59	338.71
458.96	335.78
459.33	333.17
459.70	330.57
460.07	328.40
460.43	325.96
460.80	323.66
461.17	321.61
461.54	319.48
461.91	317.44
462.27	315.41
462.64	313.59
463.01	311.69
463.38	309.89
463.74	307.95
464.11	306.34
464.48	304.83
464.85	303.26
465.21	302.05
465.58	300.74
465.95	299.22
466.32	297.89
466.68	296.61
467.05	295.32
467.42	293.99
467.78	292.69
468.15	291.44
468.52	290.44
468.88	289.24
469.25	288.15
469.62	287.27
469.98	286.28
470.35	285.36
470.72	284.50
471.08	283.58
471.45	282.79
471.82	282.00
472.18	281.16
472.55	280.48
472.92	279.71
473.28	279.02
473.65	278.32
474.02	277.72
474.38	277.14
474.75	276.63
475.11	276.12
475.48	275.67
475.85	275.31
476.21	274.98
476.58	274.62
476.94	274.35
477.31	274.01
477.67	273.72
478.04	273.53
478.41	273.37
478.77	273.29
479.14	273.10
479.50	273.01
479.87	273.02
480.23	273.03
480.60	273.02
480.96	273.06
481.33	273.26
481.69	273.38
482.06	273.54
482.42	273.69
482.79	273.91
483.15	274.22
483.52	274.57
483.88	274.86
484.25	275.22
484.61	275.63
484.98	276.08
485.34	276.63
485.71	277.23
486.07	277.81
486.44	278.40
486.80	279.16
487.17	279.90
487.53	280.71
487.90	281.65
488.26	282.64
488.62	283.68
488.99	284.68
489.35	285.80
489.72	286.95
490.08	288.18
490.44	289.50
490.81	290.89
491.17	292.32
491.54	293.90
491.90	295.54
492.26	297.27
492.63	299.07
492.99	300.93
493.36	302.89
493.72	305.10
494.08	307.34
494.45	309.69
494.81	312.16
495.17	314.72
495.54	317.39
495.90	320.25
496.26	323.22
496.63	326.34
496.99	329.63
497.35	333.16
497.72	336.84
498.08	340.60
498.44	344.54
498.80	348.72
499.17	353.04
499.53	357.50
499.89	362.19
500.26	367.06
500.62	372.11
500.98	377.41
501.34	382.88
501.71	388.55
502.07	394.44
502.43	400.49
502.79	406.79
503.16	413.32
503.52	420.06
503.88	426.97
504.24	434.12
504.60	441.52
504.97	449.17
505.33	457.04
505.69	465.30
506.05	473.68
506.41	482.17
506.78	490.98
507.14	500.18
507.50	509.60
507.86	519.36
508.22	529.26
508.59	539.27
508.95	549.56
509.31	560.18
509.67	571.13
510.03	582.28
510.39	593.74
510.75	605.44
511.12	617.30
511.48	629.55
511.84	642.06
512.20	654.59
512.56	667.55
512.92	680.81
513.28	694.37
513.64	707.99
514.00	721.96
514.37	736.15
514.73	750.34
515.09	764.60
515.45	779.13
515.81	794.07
516.17	809.30
516.53	824.79
516.89	840.43
517.25	856.02
517.61	871.96
517.97	887.90
518.33	903.80
518.69	920.15
519.05	936.63
519.41	953.39
519.77	970.55
520.13	987.72
520.49	1004.77
520.85	1021.83
521.21	1039.18
521.57	1057.11
521.93	1074.62
522.29	1092.83
522.65	1111.06
523.01	1129.18
523.37	1147.10
523.73	1165.28
524.09	1183.29
524.45	1201.46
524.81	1220.01
525.17	1238.77
525.53	1257.70
525.89	1276.74
526.25	1295.65
526.61	1314.08
526.97	1332.98
527.33	1351.60
527.68	1370.23
528.04	1388.89
528.40	1407.60
528.76	1426.87
529.12	1445.73
529.48	1464.85
529.84	1483.12
530.20	1501.86
530.56	1521.03
530.91	1540.81
531.27	1559.86
531.63	1578.64
531.99	1597.61
532.35	1616.19
532.71	1634.61
533.07	1653.24
533.42	1671.63
533.78	1690.22
534.14	1709.08
534.50	1726.74
534.86	1745.16
535.21	1762.86
535.57	1781.36
535.93	1799.45
536.29	1816.86
536.65	1834.37
537.00	1851.68
537.36	1869.51
537.72	1886.65
538.08	1903.79
538.44	1920.23
538.79	1936.84
539.15	1953.03
539.51	1969.32
539.87	1986.21
540.22	2002.38
540.58	2018.77
540.94	2034.54
541.29	2049.91
541.65	2065.22
542.01	2081.12
542.37	2095.95
542.72	2110.92
543.08	2125.25
543.44	2140.24
543.79	2154.02
544.15	2167.63
544.51	2181.75
544.87	2195.39
545.22	2208.72
545.58	2221.40
545.94	2233.53
546.29	2245.85
546.65	2258.37
547.01	2270.13
547.36	2281.18
547.72	2292.07
548.07	2302.36
548.43	2312.95
548.79	2323.27
549.14	2333.14
549.50	2342.67
549.86	2352.72
550.21	2362.30
550.57	2371.74
550.92	2380.67
551.28	2390.03
551.64	2399.41
551.99	2408.30
552.35	2416.66
552.70	2424.92
553.06	2433.13
553.41	2441.60
553.77	2449.61
554.13	2457.66
554.48	2466.13
554.84	2473.79
555.19	2480.95
555.55	2488.05
555.90	2494.54
556.26	2501.63
556.61	2508.37
556.97	2514.77
557.32	2520.70
557.68	2526.85
558.03	2533.07
558.39	2538.35
558.74	2544.80
559.10	2550.39
559.45	2555.66
559.81	2561.44
560.16	2566.97
560.52	2571.79
560.87	2576.83
561.23	2581.11
561.58	2585.74
561.94	2589.53
562.29	2593.15
562.64	2597.55
563.00	2601.53
563.35	2606.51
563.71	2610.89
564.06	2615.47
564.42	2619.70
564.77	2623.69
565.12	2627.29
565.48	2630.42
565.83	2633.81
566.19	2636.40
566.54	2638.29
566.89	2640.64
567.25	2642.57
567.60	2645.05
567.96	2647.95
568.31	2649.86
568.66	2652.10
569.02	2653.50
569.37	2654.82
569.72	2656.90
570.08	2658.00
570.43	2658.86
570.78	2659.13
571.14	2658.27
571.49	2657.34
571.84	2657.80
572.20	2657.32
572.55	2656.90
572.90	2655.91
573.26	2655.11
573.61	2653.78
573.96	2652.55
574.31	2649.76
574.67	2646.92
575.02	2643.52
575.37	2640.26
575.72	2636.49
576.08	2633.06
576.43	2629.72
576.78	2626.12
577.13	2622.81
577.49	2619.49
577.84	2616.13
578.19	2612.10
578.54	2608.45
578.90	2604.34
579.25	2598.18
579.60	2592.93
579.95	2587.58
580.30	2582.14
580.66	2576.41
581.01	2570.82
581.36	2565.61
581.71	2561.13
582.06	2556.49
582.42	2551.54
582.77	2545.90
583.12	2541.07
583.47	2536.18
583.82	2530.93
584.17	2525.25
584.53	2519.42
584.88	2513.34
585.23	2507.09
585.58	2501.11
585.93	2495.05
586.28	2489.59
586.63	2484.21
586.98	2478.62
587.34	2473.36
587.69	2467.80
588.04	2461.82
588.39	2455.67
588.74	2448.24
589.09	2441.35
589.44	2433.54
589.79	2426.53
590.14	2419.94
590.49	2412.18
590.84	2404.67
591.19	2397.70
591.54	2390.22
591.89	2381.72
592.25	2373.88
592.60	2365.33
592.95	2356.60
593.30	2348.02
593.65	2339.24
594.00	2330.89
594.35	2322.26
594.70	2312.68
595.05	2304.54
595.40	2296.09
595.75	2287.37
596.10	2280.09
596.45	2272.11
596.80	2264.94
597.15	2257.47
597.50	2249.49
597.85	2242.11
598.19	2234.41
598.54	2226.21
598.89	2218.26
599.24	2211.27
599.59	2203.63
599.94	2196.44
600.29	2188.91
600.64	2181.00
600.99	2172.33
601.34	2164.34
601.69	2156.24
602.04	2148.29
602.39	2139.50
602.74	2131.43
603.08	2123.31
603.43	2115.30
603.78	2106.64
604.13	2098.03
604.48	2089.40
604.83	2080.92
605.18	2072.80
605.53	2063.29
605.87	2053.58
606.22	2044.92
606.57	2035.23
606.92	2026.14
607.27	2017.54
607.62	2009.31
607.96	2000.78
608.31	1992.84
608.66	1983.74
609.01	1974.66
609.36	1965.64
609.70	1956.01
610.05	1946.22
610.40	1937.06
610.75	1927.16
611.10	1918.07
611.44	1907.80
611.79	1898.16
612.14	1887.86
612.49	1876.68
612.83	1866.68
613.18	1857.01
613.53	1847.39
613.88	1837.18
614.22	1827.31
614.57	1816.85
614.92	1807.21
615.27	1798.31
615.61	1788.42
615.96	1778.69
616.31	1769.48
616.65	1760.47
617.00	1751.38
617.35	1742.27
617.70	1732.45
618.04	1722.31
618.39	1712.36
618.74	1703.40
619.08	1693.40
619.43	1684.20
619.78	1675.95
620.12	1667.33
620.47	1658.26
620.82	1648.32
621.16	1639.48
621.51	1630.32
621.85	1621.21
622.20	1610.93
622.55	1600.70
622.89	1591.09
623.24	1581.89
623.59	1572.88
623.93	1563.92
624.28	1555.20
624.62	1546.12
624.97	1537.33
625.32	1529.11
625.66	1520.59
626.01	1511.97
626.35	1503.12
626.70	1493.83
627.04	1484.41
627.39	1474.95
627.73	1466.03
628.08	1457.80
628.43	1449.06
628.77	1440.28
629.12	1431.19
629.46	1422.69
629.81	1413.67
630.15	1405.07
630.50	1396.18
630.84	1386.41
631.19	1376.78
631.53	1367.75
631.88	1358.72
632.22	1349.56
632.57	1340.76
632.91	1331.74
633.26	1322.83
633.60	1313.84
633.95	1305.29
634.29	1296.86
634.64	1288.85
634.98	1280.07
635.32	1271.47
635.67	1263.48
636.01	1255.48
636.36	1247.32
636.70	1239.30
637.05	1231.38
637.39	1223.56
637.73	1215.79
638.08	1208.62
638.42	1201.56
638.77	1193.85
639.11	1185.93
639.45	1178.22
639.80	1170.22
640.14	1162.61
640.49	1154.86
640.83	1147.36
641.17	1139.98
641.52	1132.42
641.86	1124.60
642.20	1117.64
642.55	1110.12
642.89	1102.45
643.23	1094.51
643.58	1087.73
643.92	1080.43
644.26	1073.33
644.61	1066.06
644.95	1059.01
645.29	1051.39
645.64	1043.42
645.98	1035.79
646.32	1028.82
646.66	1021.67
647.01	1014.80
647.35	1007.92
647.69	1000.86
648.04	994.28
648.38	987.42
648.72	980.43
649.06	973.41
649.41	966.32
649.75	959.36
650.09	952.29
650.43	945.57
650.78	938.22
651.12	931.23
651.46	924.50
651.80	917.79
652.14	911.29
652.49	904.90
652.83	898.79
653.17	892.13
653.51	885.44
653.85	879.09
654.20	872.43
654.54	865.41
654.88	858.59
655.22	851.63
655.56	844.86
655.90	838.32
656.25	832.06
656.59	825.75
656.93	819.65
657.27	813.54
657.61	807.05
657.95	801.06
658.29	795.08
658.64	788.78
658.98	782.54
659.32	776.08
659.66	769.94
660.00	763.63
660.34	757.79
660.68	751.97
661.02	746.00
661.36	740.45
661.70	735.14
662.05	730.06
662.39	724.97
662.73	719.69
663.07	714.56
663.41	709.27
663.75	704.00
664.09	698.56
664.43	693.37
664.77	688.56
665.11	683.54
665.45	678.63
665.79	673.82
666.13	668.95
666.47	664.15
666.81	659.26
667.15	654.43
667.49	649.87
667.83	645.37
668.17	640.80
668.51	636.08
668.85	631.32
669.19	626.76
669.53	622.26
669.87	617.69
670.21	613.26
670.55	608.98
670.89	604.87
671.23	600.86
671.57	596.77
671.91	592.59
672.25	588.46
672.58	584.35
672.92	580.32
673.26	576.57
673.60	572.85
673.94	569.15
674.28	565.66
674.62	562.19
674.96	558.53
675.30	555.13
675.64	551.65
675.97	548.34
676.31	544.94
676.65	541.55
676.99	538.35
677.33	535.06
677.67	531.80
678.01	528.35
678.34	524.88
678.68	521.44
679.02	518.18
679.36	514.94
679.70	511.65
680.04	508.44
680.37	505.09
680.71	501.80
681.05	498.67
681.39	495.49
681.73	492.35
682.06	489.37
682.40	486.35
682.74	483.36
683.08	480.36
683.42	477.33
683.75	474.33
684.09	471.38
684.43	468.40
684.77	465.49
685.10	462.67
685.44	459.90
685.78	457.25
686.12	454.56
686.45	451.81
686.79	449.14
687.13	446.52
687.46	443.92
687.80	441.31
688.14	438.66
688.48	436.23
688.81	433.63
689.15	431.08
689.49	428.46
689.82	425.98
690.16	423.51
690.50	421.21
690.83	418.85
691.17	416.49
691.51	414.27
691.84	412.02
692.18	409.75
692.52	407.47
692.85	405.13
693.19	402.87
693.52	400.72
693.86	398.56
694.20	396.47
694.53	394.41
694.87	392.20
695.21	390.14
695.54	388.00
695.88	385.90
696.21	383.84
696.55	381.93
696.88	379.94
697.22	377.96
697.56	376.03
697.89	374.13
698.23	372.23
698.56	370.32
698.90	368.48
699.23	366.57
699.57	364.69
699.90	362.90
700.24	361.09
700.58	359.31
700.91	357.61
701.25	355.89
701.58	354.23
701.92	352.72
702.25	351.14
702.59	349.53
702.92	347.98
703.26	346.45
703.59	344.93
703.93	343.55
704.26	342.13
704.60	340.63
704.93	339.13
705.26	337.66
705.60	336.25
705.93	334.89
706.27	333.65
706.60	332.42
706.94	331.12
707.27	329.79
707.61	328.46
707.94	327.18
708.27	325.86
708.61	324.51
708.94	323.29
709.28	322.05
709.61	320.91
709.94	319.77
710.28	318.55
710.61	317.34
710.95	316.02
711.28	314.92
711.61	313.76
711.95	312.67
712.28	311.53
712.61	310.42
712.95	309.31
713.28	308.23
713.61	307.15
713.95	306.11
714.28	305.14
714.61	304.17
714.95	303.17
715.28	302.21
715.61	301.25
715.95	300.24
716.28	299.25
716.61	298.20
716.95	297.21
717.28	296.33
717.61	295.40
717.94	294.55
718.28	293.61
718.61	292.75
718.94	291.94
719.27	291.19
719.61	290.38
719.94	289.58
720.27	288.77
720.60	287.98
720.94	287.25
721.27	286.48
721.60	285.79
721.93	285.11
722.27	284.44
722.60	283.78
722.93	283.06
723.26	282.41
723.59	281.77
723.93	281.14
724.26	280.47
724.59	279.85
724.92	279.21
725.25	278.61
725.59	277.97
725.92	277.34
726.25	276.68
726.58	276.08
726.91	275.49
727.24	274.90
727.57	274.36
727.91	273.72
728.24	273.19
728.57	272.57
728.90	272.02
729.23	271.42
729.56	270.87
729.89	270.38
730.22	269.76
730.55	269.26
730.89	268.71
731.22	268.18
731.55	267.64
731.88	267.16
732.21	266.62
732.54	266.15
732.87	265.65
733.20	265.19
733.53	264.72
733.86	264.29
734.19	263.81
734.52	263.36
734.85	262.98
735.18	262.48
735.51	262.06
735.84	261.58
736.17	261.17
736.50	260.72
736.83	260.40
737.16	260.03
737.49	259.62
737.82	259.25
738.15	258.87
738.48	258.51
738.81	258.14
739.14	257.76
739.47	257.37
739.80	256.97
740.13	256.62
740.46	256.21
740.79	255.79
741.12	255.41
741.45	255.04
741.78	254.68
742.11	254.38
742.44	253.97
742.77	253.65
743.10	253.31
743.43	252.97
743.75	252.52
744.08	252.31
744.41	251.98
744.74	251.65
745.07	251.32
745.40	250.98
745.73	250.66
746.06	250.33
746.39	250.04
746.71	249.74
747.04	249.44
747.37	249.17
747.70	248.91
748.03	248.64
748.36	248.36
748.68	248.05
749.01	247.75
749.34	247.52
749.67	247.25
750.00	246.97
750.33	246.77
750.65	246.54
750.98	246.17
751.31	245.88
751.64	245.63
751.97	245.42
752.29	245.19
752.62	244.91
752.95	244.69
753.28	244.46
753.60	244.23
753.93	244.01
754.26	243.76
754.59	243.50
754.91	243.27
755.24	243.05
755.57	242.82
755.90	242.61
756.22	242.33
756.55	242.09
756.88	241.87
757.20	241.59
757.53	241.39
757.86	241.21
758.19	241.07
758.51	240.88
758.84	240.64
759.17	240.43
759.49	240.25
759.82	240.09
760.15	239.89
760.47	239.69
760.80	239.48
761.13	239.33
761.45	239.20
761.78	239.00
762.11	238.81
762.43	238.64
762.76	238.48
763.08	238.36
763.41	238.19
763.74	238.03
764.06	237.87
764.39	237.67
764.71	237.50
765.04	237.31
765.37	237.14
765.69	236.99
766.02	236.87
766.34	236.73
766.67	236.56
767.00	236.43
767.32	236.37
767.65	236.29
767.97	236.16
768.30	236.02
768.62	235.88
768.95	235.76
769.27	235.66
769.60	235.54
769.92	235.42
770.25	235.26
770.57	235.09
770.90	234.98
771.22	234.84
771.55	234.71
771.87	234.56
772.20	234.45
772.52	234.41
772.85	234.39
773.17	234.28
773.50	234.17
773.82	234.04
774.15	233.82
774.47	233.67
774.80	233.52
775.12	233.38
775.45	233.29
775.77	233.21
776.09	233.07
776.42	232.94
776.74	232.87
777.07	232.83
777.39	232.77
777.72	232.63
778.04	232.55
778.36	232.49
778.69	232.44
779.01	232.37
779.33	232.18
779.66	231.99
779.98	231.91
780.31	231.83
780.63	231.79
780.95	231.79
781.28	231.71
781.60	231.64
781.92	231.59
782.25	231.50
782.57	231.38
782.89	231.32
783.22	231.26
783.54	231.19
783.86	231.09
784.19	231.03
784.51	231.04
784.83	230.98
785.16	230.90
785.48	230.88
785.80	230.81
786.12	230.81
786.45	230.76
