SpectraSuite Data File
++++++++++++++++++++++++++++++++++++
Date: Fri Feb 01 15:29:53 EST 2013
User: group
Dark Spectrum Present: No
Reference Spectrum Present: No
Number of Sampled Component Spectra: 1
Spectrometers: USB2E7196
Integration Time (usec): 35000 (USB2E7196)
Spectra Averaged: 100 (USB2E7196)
Boxcar Smoothing: 10 (USB2E7196)
Correct for Electrical Dark: No (USB2E7196)
Strobe/Lamp Enabled: No (USB2E7196)
Correct for Detector Non-linearity: No (USB2E7196)
Correct for Stray Light: No (USB2E7196)
Number of Pixels in Processed Spectrum: 2048
>>>>>Begin Processed Spectral Data<<<<<
339.09	0.00
339.48	215.16
339.86	216.63
340.24	217.64
340.63	219.02
341.01	222.46
341.39	221.95
341.78	223.65
342.16	224.42
342.54	224.72
342.93	213.46
343.31	224.25
343.69	224.80
344.07	225.23
344.46	225.63
344.84	226.02
345.22	226.24
345.60	226.49
345.99	226.67
346.37	226.80
346.75	226.91
347.13	226.94
347.52	226.94
347.90	227.00
348.28	227.04
348.66	227.10
349.05	227.09
349.43	227.09
349.81	227.14
350.19	227.18
350.57	227.20
350.96	227.27
351.34	227.32
351.72	227.41
352.10	227.54
352.48	227.64
352.87	227.72
353.25	227.77
353.63	227.82
354.01	227.90
354.39	227.96
354.77	228.04
355.15	228.18
355.54	228.28
355.92	228.32
356.30	228.40
356.68	228.50
357.06	228.60
357.44	228.67
357.82	228.75
358.20	228.85
358.58	228.93
358.97	228.97
359.35	229.08
359.73	229.14
360.11	229.17
360.49	229.25
360.87	229.26
361.25	229.34
361.63	229.43
362.01	229.45
362.39	229.50
362.77	229.53
363.15	229.51
363.53	229.55
363.91	229.59
364.29	229.63
364.67	229.55
365.05	229.55
365.43	229.55
365.81	229.56
366.19	229.57
366.57	229.59
366.95	229.60
367.33	229.56
367.71	229.53
368.09	229.56
368.47	229.53
368.85	229.48
369.23	229.46
369.61	229.37
369.99	229.36
370.37	229.33
370.75	229.37
371.13	229.34
371.51	229.27
371.89	229.23
372.27	229.17
372.65	229.14
373.03	229.12
373.41	229.06
373.78	228.99
374.16	228.89
374.54	228.82
374.92	228.74
375.30	228.68
375.68	228.60
376.06	228.52
376.44	228.43
376.82	228.39
377.19	228.31
377.57	228.24
377.95	228.15
378.33	228.09
378.71	227.91
379.09	227.85
379.47	227.77
379.84	227.70
380.22	227.60
380.60	227.50
380.98	227.40
381.36	227.34
381.73	227.25
382.11	227.21
382.49	227.14
382.87	227.05
383.25	226.99
383.62	227.03
384.00	226.91
384.38	226.88
384.76	226.89
385.13	226.86
385.51	226.82
385.89	226.75
386.27	226.69
386.64	226.66
387.02	226.62
387.40	226.57
387.78	226.51
388.15	226.45
388.53	226.42
388.91	226.36
389.29	226.34
389.66	226.33
390.04	226.31
390.42	226.30
390.79	226.30
391.17	226.28
391.55	226.19
391.92	226.23
392.30	226.22
392.68	226.19
393.05	226.20
393.43	226.23
393.81	226.26
394.18	226.24
394.56	226.29
394.94	226.31
395.31	226.34
395.69	226.43
396.06	226.49
396.44	226.54
396.82	226.62
397.19	226.69
397.57	226.73
397.95	226.80
398.32	226.83
398.70	226.87
399.07	226.96
399.45	227.01
399.82	227.08
400.20	227.15
400.58	227.20
400.95	227.26
401.33	227.35
401.70	227.52
402.08	227.60
402.45	227.70
402.83	227.83
403.20	227.98
403.58	228.09
403.95	228.22
404.33	228.34
404.71	228.46
405.08	228.65
405.46	228.78
405.83	228.95
406.21	229.12
406.58	229.33
406.96	229.50
407.33	229.67
407.70	229.87
408.08	230.16
408.45	230.41
408.83	230.63
409.20	230.87
409.58	231.03
409.95	231.36
410.33	231.63
410.70	231.89
411.08	232.16
411.45	232.43
411.82	232.74
412.20	233.11
412.57	233.53
412.95	233.82
413.32	234.26
413.69	234.62
414.07	235.08
414.44	235.53
414.82	235.97
415.19	236.55
415.56	237.12
415.94	237.66
416.31	238.29
416.68	238.94
417.06	239.65
417.43	240.32
417.81	241.05
418.18	241.80
418.55	242.62
418.93	243.51
419.30	244.42
419.67	245.36
420.04	246.33
420.42	247.32
420.79	248.52
421.16	249.67
421.54	250.90
421.91	252.11
422.28	253.36
422.66	254.68
423.03	255.99
423.40	257.29
423.77	258.70
424.15	260.11
424.52	261.61
424.89	263.22
425.26	264.81
425.64	266.25
426.01	267.88
426.38	269.55
426.75	271.22
427.13	272.95
427.50	274.74
427.87	276.61
428.24	278.46
428.61	280.16
428.99	282.12
429.36	284.21
429.73	286.26
430.10	288.30
430.47	290.41
430.85	292.54
431.22	294.78
431.59	297.14
431.96	299.42
432.33	301.87
432.70	304.32
433.08	307.13
433.45	309.79
433.82	312.40
434.19	315.28
434.56	318.09
434.93	320.75
435.30	323.42
435.68	326.33
436.05	329.20
436.42	332.04
436.79	334.57
437.16	337.27
437.53	340.13
437.90	342.96
438.27	345.68
438.64	348.51
439.01	351.12
439.38	353.38
439.75	355.53
440.13	358.05
440.50	360.34
440.87	362.21
441.24	364.11
441.61	366.31
441.98	367.85
442.35	369.62
442.72	371.52
443.09	373.32
443.46	374.29
443.83	374.86
444.20	375.33
444.57	376.11
444.94	376.44
445.31	376.69
445.68	377.07
446.05	377.17
446.42	376.79
446.79	376.35
447.16	375.87
447.53	375.51
447.90	374.33
448.27	373.15
448.64	371.56
449.01	370.45
449.37	368.44
449.74	366.48
450.11	364.26
450.48	361.74
450.85	359.18
451.22	357.04
451.59	355.01
451.96	353.05
452.33	350.47
452.70	348.06
453.07	345.28
453.43	342.34
453.80	339.55
454.17	336.89
454.54	334.33
454.91	331.59
455.28	328.95
455.65	326.46
456.02	323.99
456.38	321.81
456.75	319.11
457.12	316.87
457.49	314.67
457.86	312.48
458.23	310.59
458.59	308.51
458.96	306.37
459.33	304.50
459.70	302.65
460.07	301.14
460.43	299.44
460.80	297.83
461.17	296.37
461.54	294.87
461.91	293.39
462.27	291.97
462.64	290.75
463.01	289.36
463.38	288.06
463.74	286.68
464.11	285.54
464.48	284.51
464.85	283.39
465.21	282.50
465.58	281.55
465.95	280.50
466.32	279.63
466.68	278.77
467.05	277.89
467.42	277.03
467.78	276.05
468.15	275.16
468.52	274.49
468.88	273.61
469.25	272.82
469.62	272.22
469.98	271.54
470.35	270.91
470.72	270.30
471.08	269.62
471.45	269.08
471.82	268.49
472.18	267.91
472.55	267.46
472.92	266.93
473.28	266.46
473.65	266.01
474.02	265.56
474.38	265.19
474.75	264.86
475.11	264.48
475.48	264.22
475.85	264.01
476.21	263.76
476.58	263.61
476.94	263.46
477.31	263.30
477.67	263.14
478.04	263.03
478.41	263.00
478.77	263.05
479.14	263.01
479.50	263.02
479.87	263.07
480.23	263.18
480.60	263.25
480.96	263.40
481.33	263.61
481.69	263.75
482.06	263.93
482.42	264.15
482.79	264.45
483.15	264.75
483.52	265.12
483.88	265.44
484.25	265.82
484.61	266.27
484.98	266.68
485.34	267.25
485.71	267.83
486.07	268.43
486.44	268.99
486.80	269.65
487.17	270.40
487.53	271.22
487.90	272.07
488.26	273.03
488.62	274.00
488.99	274.95
489.35	276.05
489.72	277.19
490.08	278.36
490.44	279.57
490.81	280.91
491.17	282.28
491.54	283.78
491.90	285.34
492.26	286.98
492.63	288.73
492.99	290.48
493.36	292.38
493.72	294.43
494.08	296.55
494.45	298.83
494.81	301.22
495.17	303.68
495.54	306.23
495.90	308.87
496.26	311.66
496.63	314.65
496.99	317.76
497.35	321.04
497.72	324.47
498.08	327.96
498.44	331.66
498.80	335.56
499.17	339.59
499.53	343.74
499.89	348.12
500.26	352.61
500.62	357.30
500.98	362.28
501.34	367.30
501.71	372.63
502.07	378.05
502.43	383.67
502.79	389.48
503.16	395.53
503.52	401.80
503.88	408.22
504.24	414.87
504.60	421.81
504.97	428.89
505.33	436.23
505.69	443.97
506.05	451.78
506.41	459.72
506.78	467.89
507.14	476.42
507.50	485.13
507.86	494.12
508.22	503.33
508.59	512.51
508.95	522.14
509.31	531.97
509.67	542.05
510.03	552.32
510.39	562.89
510.75	573.77
511.12	584.78
511.48	596.04
511.84	607.47
512.20	618.95
512.56	630.92
512.92	643.13
513.28	655.44
513.64	667.92
514.00	680.64
514.37	693.60
514.73	706.62
515.09	719.68
515.45	733.03
515.81	746.67
516.17	760.63
516.53	774.79
516.89	788.96
517.25	803.21
517.61	817.72
517.97	832.23
518.33	846.60
518.69	861.40
519.05	876.48
519.41	891.77
519.77	907.45
520.13	922.93
520.49	938.36
520.85	953.88
521.21	969.59
521.57	985.92
521.93	1001.72
522.29	1018.15
522.65	1034.44
523.01	1050.71
523.37	1066.86
523.73	1083.18
524.09	1099.31
524.45	1115.69
524.81	1132.34
525.17	1149.22
525.53	1166.26
525.89	1183.21
526.25	1199.99
526.61	1216.38
526.97	1233.02
527.33	1249.49
527.68	1266.18
528.04	1282.73
528.40	1299.39
528.76	1316.69
529.12	1333.26
529.48	1350.25
529.84	1366.44
530.20	1383.06
530.56	1400.19
530.91	1417.47
531.27	1434.22
531.63	1450.79
531.99	1467.52
532.35	1483.62
532.71	1499.50
533.07	1515.78
533.42	1531.72
533.78	1547.91
534.14	1564.25
534.50	1579.70
534.86	1595.56
535.21	1610.77
535.57	1626.67
535.93	1642.26
536.29	1656.90
536.65	1672.12
537.00	1686.97
537.36	1702.17
537.72	1716.80
538.08	1731.12
538.44	1745.10
538.79	1759.08
539.15	1772.86
539.51	1786.54
539.87	1801.00
540.22	1814.79
540.58	1828.48
540.94	1842.12
541.29	1855.13
541.65	1867.86
542.01	1881.27
542.37	1893.72
542.72	1906.27
543.08	1918.12
543.44	1930.32
543.79	1941.66
544.15	1952.52
544.51	1964.14
544.87	1975.34
545.22	1986.19
545.58	1996.55
545.94	2006.24
546.29	2016.08
546.65	2025.91
547.01	2035.21
547.36	2043.90
547.72	2052.35
548.07	2060.22
548.43	2068.22
548.79	2076.26
549.14	2083.89
549.50	2091.22
549.86	2098.88
550.21	2106.15
550.57	2113.46
550.92	2120.22
551.28	2127.32
551.64	2134.38
551.99	2140.86
552.35	2147.01
552.70	2153.19
553.06	2159.28
553.41	2165.66
553.77	2171.69
554.13	2177.74
554.48	2183.91
554.84	2189.33
555.19	2194.70
555.55	2199.97
555.90	2204.37
556.26	2209.16
556.61	2213.81
556.97	2218.05
557.32	2222.28
557.68	2226.39
558.03	2230.41
558.39	2234.13
558.74	2238.73
559.10	2242.72
559.45	2246.25
559.81	2250.41
560.16	2254.17
560.52	2257.33
560.87	2260.81
561.23	2263.46
561.58	2266.47
561.94	2268.93
562.29	2271.47
562.64	2274.22
563.00	2276.78
563.35	2280.36
563.71	2283.43
564.06	2286.70
564.42	2289.43
564.77	2291.86
565.12	2294.13
565.48	2296.18
565.83	2298.13
566.19	2299.42
566.54	2300.40
566.89	2301.60
567.25	2302.26
567.60	2303.69
567.96	2305.33
568.31	2306.17
568.66	2307.25
569.02	2307.75
569.37	2308.07
569.72	2308.72
570.08	2308.72
570.43	2308.75
570.78	2308.11
571.14	2306.65
571.49	2305.28
571.84	2304.97
572.20	2303.66
572.55	2302.58
572.90	2301.01
573.26	2299.50
573.61	2297.79
573.96	2295.93
574.31	2292.88
574.67	2289.73
575.02	2286.06
575.37	2282.57
575.72	2278.68
576.08	2275.38
576.43	2272.03
576.78	2268.29
577.13	2265.09
577.49	2261.97
577.84	2258.44
578.19	2254.72
578.54	2250.91
578.90	2246.52
579.25	2240.90
579.60	2235.95
579.95	2230.87
580.30	2225.67
580.66	2220.34
581.01	2215.28
581.36	2210.40
581.71	2206.24
582.06	2201.75
582.42	2197.10
582.77	2191.82
583.12	2187.17
583.47	2182.25
583.82	2177.00
584.17	2171.67
584.53	2166.09
584.88	2160.20
585.23	2154.23
585.58	2148.54
585.93	2143.08
586.28	2138.31
586.63	2133.04
586.98	2127.87
587.34	2122.98
587.69	2118.13
588.04	2112.87
588.39	2107.07
588.74	2100.36
589.09	2094.14
589.44	2087.17
589.79	2081.04
590.14	2075.42
590.49	2068.79
590.84	2062.35
591.19	2056.36
591.54	2049.93
591.89	2042.54
592.25	2035.81
592.60	2028.63
592.95	2021.13
593.30	2013.80
593.65	2006.20
594.00	1999.24
594.35	1992.04
594.70	1984.10
595.05	1976.77
595.40	1969.35
595.75	1961.73
596.10	1955.49
596.45	1948.60
596.80	1942.43
597.15	1935.78
597.50	1928.52
597.85	1922.02
598.19	1915.41
598.54	1908.17
598.89	1901.50
599.24	1895.53
599.59	1888.78
599.94	1882.51
600.29	1876.14
600.64	1869.48
600.99	1861.85
601.34	1855.01
601.69	1847.99
602.04	1841.04
602.39	1833.71
602.74	1826.92
603.08	1820.26
603.43	1813.53
603.78	1806.19
604.13	1798.92
604.48	1791.54
604.83	1784.80
605.18	1777.87
605.53	1769.90
605.87	1761.98
606.22	1754.61
606.57	1746.61
606.92	1739.22
607.27	1731.99
607.62	1724.90
607.96	1717.55
608.31	1710.97
608.66	1703.17
609.01	1695.52
609.36	1687.90
609.70	1679.70
610.05	1671.62
610.40	1663.88
610.75	1655.39
611.10	1647.72
611.44	1639.40
611.79	1631.59
612.14	1622.76
612.49	1613.62
612.83	1605.22
613.18	1597.07
613.53	1588.97
613.88	1580.35
614.22	1572.09
614.57	1563.49
614.92	1555.52
615.27	1547.92
615.61	1539.55
615.96	1531.70
616.31	1524.12
616.65	1516.75
617.00	1509.19
617.35	1501.48
617.70	1493.12
618.04	1484.69
618.39	1476.34
618.74	1468.72
619.08	1460.22
619.43	1452.66
619.78	1445.62
620.12	1438.30
620.47	1430.78
620.82	1422.66
621.16	1415.24
621.51	1407.78
621.85	1400.25
622.20	1391.66
622.55	1383.34
622.89	1375.55
623.24	1367.96
623.59	1360.48
623.93	1352.95
624.28	1345.76
624.62	1338.19
624.97	1331.01
625.32	1324.28
625.66	1317.38
626.01	1310.12
626.35	1302.71
626.70	1294.88
627.04	1287.06
627.39	1279.33
627.73	1271.87
628.08	1264.77
628.43	1257.47
628.77	1249.88
629.12	1242.14
629.46	1234.98
629.81	1227.52
630.15	1220.31
630.50	1212.84
630.84	1204.64
631.19	1196.71
631.53	1189.27
631.88	1181.78
632.22	1174.16
632.57	1166.81
632.91	1159.19
633.26	1151.83
633.60	1144.54
633.95	1137.65
634.29	1130.74
634.64	1123.99
634.98	1116.71
635.32	1109.69
635.67	1103.20
636.01	1096.63
636.36	1089.89
636.70	1083.42
637.05	1076.91
637.39	1070.38
637.73	1063.83
638.08	1057.96
638.42	1051.96
638.77	1045.45
639.11	1038.81
639.45	1032.46
639.80	1025.75
640.14	1019.44
640.49	1012.88
640.83	1006.55
641.17	1000.20
641.52	993.83
641.86	987.53
642.20	981.67
642.55	975.40
642.89	968.89
643.23	962.34
643.58	956.58
643.92	950.32
644.26	944.18
644.61	938.16
644.95	932.15
645.29	925.63
645.64	918.85
645.98	912.56
646.32	906.81
646.66	900.79
647.01	895.10
647.35	889.48
647.69	883.67
648.04	878.11
648.38	872.34
648.72	866.25
649.06	860.11
649.41	854.18
649.75	848.15
650.09	842.22
650.43	836.48
650.78	830.33
651.12	824.34
651.46	818.62
651.80	812.86
652.14	807.47
652.49	802.06
652.83	796.96
653.17	791.23
653.51	785.42
653.85	779.95
654.20	774.20
654.54	768.13
654.88	762.39
655.22	756.55
655.56	750.81
655.90	745.47
656.25	740.18
656.59	734.83
656.93	729.69
657.27	724.49
657.61	719.02
657.95	713.92
658.29	708.95
658.64	703.78
658.98	698.52
659.32	693.05
659.66	687.88
660.00	682.57
660.34	677.67
660.68	672.79
661.02	667.88
661.36	663.22
661.70	658.68
662.05	654.29
662.39	649.92
662.73	645.47
663.07	641.12
663.41	636.73
663.75	632.25
664.09	627.78
664.43	623.45
664.77	619.32
665.11	615.05
665.45	610.88
665.79	606.78
666.13	602.60
666.47	598.52
666.81	594.30
667.15	590.20
667.49	586.29
667.83	582.49
668.17	578.51
668.51	574.42
668.85	570.45
669.19	566.63
669.53	562.80
669.87	558.92
670.21	555.18
670.55	551.57
670.89	548.14
671.23	544.72
671.57	541.18
671.91	537.65
672.25	534.18
672.58	530.65
672.92	527.24
673.26	524.09
673.60	520.95
673.94	517.86
674.28	514.99
674.62	512.06
674.96	508.95
675.30	506.00
675.64	503.09
675.97	500.31
676.31	497.43
676.65	494.50
676.99	491.81
677.33	488.95
677.67	486.09
678.01	483.04
678.34	480.04
678.68	477.16
679.02	474.39
679.36	471.64
679.70	468.92
680.04	466.17
680.37	463.33
680.71	460.61
681.05	458.02
681.39	455.27
681.73	452.60
682.06	450.06
682.40	447.54
682.74	445.04
683.08	442.47
683.42	439.83
683.75	437.37
684.09	434.81
684.43	432.34
684.77	429.90
685.10	427.62
685.44	425.30
685.78	423.01
686.12	420.77
686.45	418.49
686.79	416.19
687.13	414.00
687.46	411.81
687.80	409.63
688.14	407.42
688.48	405.38
688.81	403.16
689.15	401.00
689.49	398.84
689.82	396.75
690.16	394.63
690.50	392.73
690.83	390.71
691.17	388.73
691.51	386.86
691.84	385.00
692.18	383.02
692.52	381.02
692.85	379.09
693.19	377.20
693.52	375.36
693.86	373.58
694.20	371.75
694.53	369.98
694.87	368.11
695.21	366.29
695.54	364.48
695.88	362.78
696.21	361.05
696.55	359.36
696.88	357.69
697.22	356.06
697.56	354.45
697.89	352.85
698.23	351.30
698.56	349.65
698.90	348.08
699.23	346.40
699.57	344.86
699.90	343.35
700.24	341.78
700.58	340.23
700.91	338.71
701.25	337.27
701.58	335.88
701.92	334.50
702.25	333.16
702.59	331.76
702.92	330.40
703.26	329.11
703.59	327.84
703.93	326.64
704.26	325.41
704.60	324.11
704.93	322.83
705.26	321.53
705.60	320.40
705.93	319.21
706.27	318.22
706.60	317.20
706.94	316.10
707.27	314.95
707.61	313.95
707.94	312.98
708.27	311.85
708.61	310.77
708.94	309.80
709.28	308.80
709.61	307.88
709.94	306.93
710.28	305.90
710.61	304.91
710.95	303.90
711.28	302.95
711.61	302.00
711.95	301.10
712.28	300.13
712.61	299.11
712.95	298.21
713.28	297.34
713.61	296.43
713.95	295.54
714.28	294.74
714.61	293.87
714.95	293.03
715.28	292.24
715.61	291.35
715.95	290.48
716.28	289.66
716.61	288.80
716.95	288.00
717.28	287.31
717.61	286.55
717.94	285.80
718.28	285.02
718.61	284.34
718.94	283.64
719.27	283.01
719.61	282.39
719.94	281.75
720.27	281.03
720.60	280.38
720.94	279.76
721.27	279.18
721.60	278.55
721.93	277.95
722.27	277.38
722.60	276.87
722.93	276.29
723.26	275.73
723.59	275.19
723.93	274.65
724.26	274.04
724.59	273.51
724.92	272.94
725.25	272.45
725.59	271.89
725.92	271.42
726.25	270.91
726.58	270.40
726.91	269.88
727.24	269.42
727.57	268.97
727.91	268.46
728.24	267.96
728.57	267.53
728.90	267.05
729.23	266.56
729.56	266.14
729.89	265.69
730.22	265.22
730.55	264.74
730.89	264.28
731.22	263.86
731.55	263.40
731.88	263.00
732.21	262.58
732.54	262.15
732.87	261.69
733.20	261.30
733.53	260.89
733.86	260.53
734.19	260.12
734.52	259.69
734.85	259.39
735.18	258.96
735.51	258.54
735.84	258.19
736.17	257.84
736.50	257.41
736.83	257.19
737.16	256.84
737.49	256.51
737.82	256.17
738.15	255.84
738.48	255.45
738.81	255.10
739.14	254.76
739.47	254.42
739.80	254.12
740.13	253.81
740.46	253.49
740.79	253.15
741.12	252.82
741.45	252.50
741.78	252.10
742.11	251.82
742.44	251.53
742.77	251.22
743.10	250.90
743.43	250.59
743.75	250.16
744.08	249.99
744.41	249.70
744.74	249.46
745.07	249.17
745.40	248.95
745.73	248.69
746.06	248.43
746.39	248.16
746.71	247.86
747.04	247.57
747.37	247.31
747.70	247.07
748.03	246.83
748.36	246.63
748.68	246.44
749.01	246.16
749.34	245.95
749.67	245.74
750.00	245.53
750.33	245.38
750.65	245.18
750.98	244.87
751.31	244.66
751.64	244.43
751.97	244.27
752.29	244.05
752.62	243.83
752.95	243.62
753.28	243.44
753.60	243.24
753.93	243.11
754.26	242.91
754.59	242.65
754.91	242.43
755.24	242.24
755.57	242.04
755.90	241.91
756.22	241.70
756.55	241.48
756.88	241.26
757.20	241.06
757.53	240.92
757.86	240.76
758.19	240.61
758.51	240.45
758.84	240.27
759.17	240.11
759.49	240.00
759.82	239.87
760.15	239.72
760.47	239.60
760.80	239.41
761.13	239.32
761.45	239.22
761.78	239.09
762.11	238.94
762.43	238.77
762.76	238.62
763.08	238.52
763.41	238.42
763.74	238.34
764.06	238.16
764.39	238.01
764.71	237.88
765.04	237.75
765.37	237.58
765.69	237.45
766.02	237.33
766.34	237.19
766.67	237.04
767.00	236.93
767.32	236.86
767.65	236.80
767.97	236.70
768.30	236.57
768.62	236.48
768.95	236.38
769.27	236.30
769.60	236.22
769.92	236.09
770.25	235.93
770.57	235.80
770.90	235.72
771.22	235.59
771.55	235.47
771.87	235.39
772.20	235.29
772.52	235.27
772.85	235.29
773.17	235.18
773.50	235.06
773.82	234.98
774.15	234.84
774.47	234.68
774.80	234.54
775.12	234.44
775.45	234.31
775.77	234.24
776.09	234.14
776.42	234.02
776.74	233.94
777.07	233.88
777.39	233.79
777.72	233.70
778.04	233.63
778.36	233.53
778.69	233.41
779.01	233.33
779.33	233.16
779.66	232.98
779.98	232.88
780.31	232.84
780.63	232.77
780.95	232.69
781.28	232.62
781.60	232.53
781.92	232.47
782.25	232.41
782.57	232.32
782.89	232.24
783.22	232.18
783.54	232.08
783.86	232.05
784.19	231.99
784.51	231.94
784.83	231.88
785.16	231.81
785.48	231.78
785.80	231.76
786.12	231.73
786.45	231.67
786.77	231.63
787.09	231.57
