SpectraSuite Data File
++++++++++++++++++++++++++++++++++++
Date: Fri Feb 01 17:02:27 EST 2013
User: group
Dark Spectrum Present: No
Reference Spectrum Present: No
Number of Sampled Component Spectra: 1
Spectrometers: USB2E7196
Integration Time (usec): 35000 (USB2E7196)
Spectra Averaged: 100 (USB2E7196)
Boxcar Smoothing: 10 (USB2E7196)
Correct for Electrical Dark: No (USB2E7196)
Strobe/Lamp Enabled: No (USB2E7196)
Correct for Detector Non-linearity: No (USB2E7196)
Correct for Stray Light: No (USB2E7196)
Number of Pixels in Processed Spectrum: 2048
>>>>>Begin Processed Spectral Data<<<<<
339.09	0.00
339.48	212.93
339.86	215.39
340.24	215.85
340.63	217.35
341.01	220.05
341.39	219.58
341.78	221.64
342.16	222.77
342.54	222.73
342.93	211.47
343.31	222.17
343.69	222.72
344.07	223.16
344.46	223.58
344.84	223.96
345.22	224.18
345.60	224.44
345.99	224.61
346.37	224.71
346.75	224.82
347.13	224.92
347.52	225.01
347.90	225.09
348.28	225.13
348.66	225.17
349.05	225.17
349.43	225.21
349.81	225.26
350.19	225.33
350.57	225.41
350.96	225.51
351.34	225.60
351.72	225.69
352.10	225.77
352.48	225.86
352.87	225.93
353.25	226.04
353.63	226.13
354.01	226.19
354.39	226.28
354.77	226.35
355.15	226.43
355.54	226.46
355.92	226.49
356.30	226.56
356.68	226.69
357.06	226.80
357.44	226.86
357.82	226.92
358.20	226.95
358.58	227.03
358.97	227.07
359.35	227.18
359.73	227.27
360.11	227.29
360.49	227.37
360.87	227.41
361.25	227.47
361.63	227.57
362.01	227.63
362.39	227.68
362.77	227.75
363.15	227.79
363.53	227.83
363.91	227.89
364.29	227.90
364.67	227.87
365.05	227.88
365.43	227.92
365.81	227.97
366.19	228.05
366.57	228.10
366.95	228.12
367.33	228.06
367.71	228.09
368.09	228.13
368.47	228.14
368.85	228.13
369.23	228.10
369.61	228.03
369.99	228.06
370.37	228.08
370.75	228.10
371.13	228.06
371.51	228.03
371.89	227.98
372.27	227.98
372.65	227.93
373.03	227.91
373.41	227.85
373.78	227.83
374.16	227.72
374.54	227.63
374.92	227.58
375.30	227.55
375.68	227.45
376.06	227.40
376.44	227.34
376.82	227.29
377.19	227.28
377.57	227.21
377.95	227.10
378.33	226.99
378.71	226.90
379.09	226.85
379.47	226.78
379.84	226.74
380.22	226.68
380.60	226.63
380.98	226.56
381.36	226.50
381.73	226.39
382.11	226.36
382.49	226.28
382.87	226.18
383.25	226.08
383.62	226.13
384.00	226.06
384.38	225.97
384.76	225.91
385.13	225.86
385.51	225.80
385.89	225.73
386.27	225.67
386.64	225.59
387.02	225.49
387.40	225.44
387.78	225.39
388.15	225.32
388.53	225.23
388.91	225.20
389.29	225.11
389.66	225.08
390.04	225.04
390.42	225.04
390.79	225.03
391.17	225.01
391.55	224.88
391.92	224.86
392.30	224.89
392.68	224.84
393.05	224.84
393.43	224.85
393.81	224.85
394.18	224.83
394.56	224.86
394.94	224.90
395.31	224.90
395.69	224.91
396.06	224.97
396.44	225.02
396.82	225.04
397.19	225.14
397.57	225.16
397.95	225.19
398.32	225.20
398.70	225.24
399.07	225.33
399.45	225.37
399.82	225.43
400.20	225.44
400.58	225.52
400.95	225.54
401.33	225.63
401.70	225.76
402.08	225.88
402.45	225.95
402.83	226.08
403.20	226.19
403.58	226.26
403.95	226.35
404.33	226.44
404.71	226.55
405.08	226.74
405.46	226.88
405.83	227.02
406.21	227.20
406.58	227.39
406.96	227.51
407.33	227.66
407.70	227.82
408.08	228.10
408.45	228.28
408.83	228.52
409.20	228.70
409.58	228.89
409.95	229.12
410.33	229.41
410.70	229.62
411.08	229.92
411.45	230.23
411.82	230.54
412.20	230.91
412.57	231.30
412.95	231.57
413.32	231.97
413.69	232.35
414.07	232.72
414.44	233.17
414.82	233.66
415.19	234.21
415.56	234.80
415.94	235.32
416.31	235.98
416.68	236.57
417.06	237.28
417.43	237.98
417.81	238.77
418.18	239.49
418.55	240.33
418.93	241.20
419.30	242.11
419.67	243.04
420.04	243.99
420.42	244.99
420.79	246.15
421.16	247.30
421.54	248.53
421.91	249.76
422.28	250.99
422.66	252.32
423.03	253.64
423.40	254.93
423.77	256.35
424.15	257.76
424.52	259.27
424.89	260.89
425.26	262.37
425.64	263.77
426.01	265.39
426.38	267.07
426.75	268.71
427.13	270.44
427.50	272.25
427.87	274.11
428.24	275.97
428.61	277.73
428.99	279.65
429.36	281.70
429.73	283.77
430.10	285.84
430.47	287.88
430.85	289.97
431.22	292.20
431.59	294.56
431.96	296.81
432.33	299.25
432.70	301.59
433.08	304.39
433.45	307.02
433.82	309.61
434.19	312.46
434.56	315.27
434.93	317.86
435.30	320.39
435.68	323.27
436.05	326.09
436.42	328.84
436.79	331.33
437.16	334.02
437.53	336.81
437.90	339.59
438.27	342.33
438.64	345.15
439.01	347.69
439.38	349.89
439.75	351.99
440.13	354.47
440.50	356.80
440.87	358.63
441.24	360.59
441.61	362.71
441.98	364.17
442.35	365.94
442.72	367.79
443.09	369.60
443.46	370.56
443.83	371.15
444.20	371.64
444.57	372.47
444.94	372.71
445.31	373.02
445.68	373.34
446.05	373.43
446.42	373.05
446.79	372.68
447.16	372.29
447.53	372.02
447.90	370.86
448.27	369.71
448.64	368.15
449.01	367.01
449.37	365.06
449.74	363.22
450.11	361.03
450.48	358.60
450.85	356.12
451.22	353.99
451.59	351.99
451.96	350.10
452.33	347.50
452.70	345.24
453.07	342.48
453.43	339.61
453.80	336.86
454.17	334.22
454.54	331.68
454.91	328.97
455.28	326.38
455.65	323.91
456.02	321.49
456.38	319.40
456.75	316.76
457.12	314.55
457.49	312.34
457.86	310.14
458.23	308.32
458.59	306.28
458.96	304.26
459.33	302.39
459.70	300.55
460.07	299.09
460.43	297.35
460.80	295.72
461.17	294.36
461.54	292.88
461.91	291.44
462.27	290.01
462.64	288.77
463.01	287.39
463.38	286.16
463.74	284.81
464.11	283.66
464.48	282.63
464.85	281.51
465.21	280.67
465.58	279.78
465.95	278.72
466.32	277.84
466.68	276.94
467.05	276.09
467.42	275.19
467.78	274.27
468.15	273.44
468.52	272.84
468.88	271.93
469.25	271.17
469.62	270.58
469.98	269.93
470.35	269.30
470.72	268.70
471.08	268.06
471.45	267.53
471.82	267.00
472.18	266.48
472.55	266.10
472.92	265.60
473.28	265.15
473.65	264.69
474.02	264.29
474.38	263.94
474.75	263.61
475.11	263.29
475.48	263.05
475.85	262.83
476.21	262.59
476.58	262.41
476.94	262.26
477.31	262.08
477.67	261.95
478.04	261.86
478.41	261.85
478.77	261.83
479.14	261.78
479.50	261.81
479.87	261.89
480.23	261.94
480.60	261.97
480.96	262.06
481.33	262.31
481.69	262.49
482.06	262.70
482.42	262.89
482.79	263.17
483.15	263.51
483.52	263.87
483.88	264.19
484.25	264.61
484.61	265.05
484.98	265.54
485.34	266.09
485.71	266.65
486.07	267.26
486.44	267.87
486.80	268.56
487.17	269.23
487.53	270.01
487.90	270.84
488.26	271.83
488.62	272.84
488.99	273.77
489.35	274.80
489.72	275.91
490.08	277.14
490.44	278.32
490.81	279.60
491.17	280.91
491.54	282.43
491.90	283.93
492.26	285.56
492.63	287.27
492.99	289.03
493.36	290.92
493.72	292.91
494.08	294.97
494.45	297.23
494.81	299.65
495.17	302.09
495.54	304.67
495.90	307.33
496.26	310.05
496.63	313.00
496.99	316.12
497.35	319.33
497.72	322.70
498.08	326.26
498.44	329.95
498.80	333.86
499.17	337.87
499.53	342.03
499.89	346.40
500.26	350.89
500.62	355.49
500.98	360.40
501.34	365.46
501.71	370.72
502.07	376.13
502.43	381.70
502.79	387.42
503.16	393.46
503.52	399.66
503.88	406.09
504.24	412.66
504.60	419.47
504.97	426.61
505.33	433.91
505.69	441.54
506.05	449.28
506.41	457.11
506.78	465.21
507.14	473.57
507.50	482.17
507.86	491.07
508.22	500.23
508.59	509.35
508.95	518.81
509.31	528.53
509.67	538.50
510.03	548.64
510.39	559.16
510.75	569.81
511.12	580.61
511.48	591.69
511.84	603.07
512.20	614.40
512.56	626.15
512.92	638.17
513.28	650.30
513.64	662.59
514.00	675.13
514.37	687.90
514.73	700.76
515.09	713.55
515.45	726.64
515.81	740.02
516.17	753.88
516.53	767.79
516.89	781.85
517.25	795.76
517.61	809.89
517.97	824.08
518.33	838.23
518.69	852.78
519.05	867.52
519.41	882.42
519.77	897.73
520.13	912.86
520.49	928.03
520.85	943.18
521.21	958.66
521.57	974.55
521.93	989.99
522.29	1006.10
522.65	1022.13
523.01	1037.99
523.37	1053.78
523.73	1069.53
524.09	1085.36
524.45	1101.25
524.81	1117.55
525.17	1134.06
525.53	1150.50
525.89	1167.03
526.25	1183.47
526.61	1199.46
526.97	1215.91
527.33	1232.02
527.68	1248.39
528.04	1264.43
528.40	1280.60
528.76	1297.28
529.12	1313.55
529.48	1330.01
529.84	1345.52
530.20	1361.79
530.56	1378.40
530.91	1395.38
531.27	1411.81
531.63	1427.84
531.99	1444.02
532.35	1459.71
532.71	1475.29
533.07	1491.28
533.42	1506.87
533.78	1522.64
534.14	1538.72
534.50	1553.65
534.86	1569.15
535.21	1583.95
535.57	1599.50
535.93	1614.68
536.29	1629.12
536.65	1643.89
537.00	1658.36
537.36	1673.48
537.72	1687.60
538.08	1701.77
538.44	1715.29
538.79	1728.96
539.15	1742.17
539.51	1755.60
539.87	1769.61
540.22	1783.06
540.58	1796.52
540.94	1809.51
541.29	1822.01
541.65	1834.32
542.01	1847.15
542.37	1859.32
542.72	1871.37
543.08	1882.93
543.44	1895.16
543.79	1906.12
544.15	1916.85
544.51	1928.20
544.87	1938.98
545.22	1949.61
545.58	1959.65
545.94	1969.21
546.29	1978.71
546.65	1988.61
547.01	1997.84
547.36	2006.40
547.72	2014.64
548.07	2022.29
548.43	2030.37
548.79	2038.15
549.14	2045.59
549.50	2052.77
549.86	2060.18
550.21	2067.52
550.57	2074.70
550.92	2081.19
551.28	2088.17
551.64	2095.18
551.99	2101.59
552.35	2107.66
552.70	2113.80
553.06	2119.95
553.41	2126.21
553.77	2132.24
554.13	2138.18
554.48	2144.23
554.84	2149.77
555.19	2155.00
555.55	2160.21
555.90	2164.79
556.26	2169.96
556.61	2174.62
556.97	2179.16
557.32	2183.31
557.68	2187.43
558.03	2191.63
558.39	2195.17
558.74	2199.79
559.10	2203.58
559.45	2207.37
559.81	2211.59
560.16	2215.50
560.52	2218.64
560.87	2222.18
561.23	2224.98
561.58	2227.92
561.94	2230.51
562.29	2232.75
562.64	2235.72
563.00	2238.49
563.35	2241.99
563.71	2244.99
564.06	2248.36
564.42	2251.31
564.77	2254.18
565.12	2256.70
565.48	2258.81
565.83	2261.21
566.19	2262.85
566.54	2263.92
566.89	2265.17
567.25	2266.16
567.60	2267.55
567.96	2269.43
568.31	2270.42
568.66	2271.76
569.02	2272.68
569.37	2273.34
569.72	2274.50
570.08	2274.82
570.43	2275.13
570.78	2274.89
571.14	2273.69
571.49	2272.59
571.84	2272.52
572.20	2271.61
572.55	2270.57
572.90	2269.13
573.26	2267.81
573.61	2266.18
573.96	2264.85
574.31	2262.24
574.67	2259.41
575.02	2255.99
575.37	2252.74
575.72	2249.14
576.08	2245.81
576.43	2242.63
576.78	2239.07
577.13	2236.09
577.49	2233.16
577.84	2229.82
578.19	2226.22
578.54	2222.89
578.90	2219.03
579.25	2213.52
579.60	2208.70
579.95	2204.09
580.30	2199.23
580.66	2194.27
581.01	2189.44
581.36	2184.56
581.71	2180.64
582.06	2176.41
582.42	2172.18
582.77	2167.25
583.12	2162.88
583.47	2158.57
583.82	2153.77
584.17	2148.74
584.53	2143.48
584.88	2137.89
585.23	2132.38
585.58	2126.94
585.93	2121.66
586.28	2116.89
586.63	2112.14
586.98	2107.27
587.34	2102.59
587.69	2097.93
588.04	2092.89
588.39	2087.50
588.74	2081.26
589.09	2075.18
589.44	2068.47
589.79	2062.58
590.14	2056.89
590.49	2050.50
590.84	2044.20
591.19	2038.36
591.54	2031.99
591.89	2024.84
592.25	2018.44
592.60	2011.38
592.95	2004.09
593.30	1996.88
593.65	1989.44
594.00	1982.53
594.35	1975.40
594.70	1967.70
595.05	1960.79
595.40	1953.58
595.75	1946.37
596.10	1940.41
596.45	1933.88
596.80	1928.01
597.15	1921.69
597.50	1915.15
597.85	1908.80
598.19	1902.35
598.54	1895.52
598.89	1888.98
599.24	1883.19
599.59	1876.70
599.94	1870.56
600.29	1864.42
600.64	1857.97
600.99	1850.74
601.34	1844.02
601.69	1837.19
602.04	1830.43
602.39	1823.14
602.74	1816.44
603.08	1809.71
603.43	1803.04
603.78	1795.85
604.13	1788.79
604.48	1781.60
604.83	1774.72
605.18	1768.12
605.53	1760.36
605.87	1752.41
606.22	1745.46
606.57	1737.66
606.92	1730.25
607.27	1723.30
607.62	1716.43
607.96	1709.25
608.31	1702.85
608.66	1695.37
609.01	1688.00
609.36	1680.47
609.70	1672.56
610.05	1664.67
610.40	1657.12
610.75	1648.83
611.10	1641.18
611.44	1632.64
611.79	1624.68
612.14	1616.05
612.49	1606.84
612.83	1598.52
613.18	1590.37
613.53	1582.31
613.88	1573.87
614.22	1565.78
614.57	1557.13
614.92	1549.27
615.27	1541.86
615.61	1533.51
615.96	1525.53
616.31	1517.98
616.65	1510.64
617.00	1503.24
617.35	1495.53
617.70	1487.23
618.04	1478.80
618.39	1470.58
618.74	1463.17
619.08	1454.93
619.43	1447.37
619.78	1440.47
620.12	1433.30
620.47	1425.95
620.82	1417.77
621.16	1410.37
621.51	1402.82
621.85	1395.21
622.20	1386.65
622.55	1378.24
622.89	1370.41
623.24	1362.79
623.59	1355.26
623.93	1347.81
624.28	1340.48
624.62	1333.03
624.97	1325.94
625.32	1319.24
625.66	1312.30
626.01	1305.14
626.35	1297.80
626.70	1290.09
627.04	1282.44
627.39	1274.75
627.73	1267.33
628.08	1260.44
628.43	1253.24
628.77	1245.91
629.12	1238.38
629.46	1231.26
629.81	1223.79
630.15	1216.62
630.50	1209.33
630.84	1201.28
631.19	1193.39
631.53	1186.01
631.88	1178.49
632.22	1170.89
632.57	1163.59
632.91	1156.07
633.26	1148.65
633.60	1141.22
633.95	1134.02
634.29	1126.89
634.64	1120.18
634.98	1112.87
635.32	1105.81
635.67	1099.17
636.01	1092.43
636.36	1085.68
636.70	1079.17
637.05	1072.67
637.39	1066.13
637.73	1059.58
638.08	1053.61
638.42	1047.62
638.77	1041.10
639.11	1034.53
639.45	1028.04
639.80	1021.41
640.14	1015.09
640.49	1008.62
640.83	1002.34
641.17	996.24
641.52	989.99
641.86	983.45
642.20	977.60
642.55	971.28
642.89	964.90
643.23	958.38
643.58	952.69
643.92	946.55
644.26	940.57
644.61	934.59
644.95	928.65
645.29	922.17
645.64	915.45
645.98	909.13
646.32	903.28
646.66	897.39
647.01	891.67
647.35	885.98
647.69	880.18
648.04	874.75
648.38	868.98
648.72	863.05
649.06	857.11
649.41	851.23
649.75	845.30
650.09	839.31
650.43	833.62
650.78	827.39
651.12	821.45
651.46	815.72
651.80	809.97
652.14	804.54
652.49	799.19
652.83	794.07
653.17	788.49
653.51	782.81
653.85	777.36
654.20	771.72
654.54	765.69
654.88	759.94
655.22	754.06
655.56	748.42
655.90	742.95
656.25	737.66
656.59	732.35
656.93	727.30
657.27	722.16
657.61	716.75
657.95	711.75
658.29	706.76
658.64	701.53
658.98	696.27
659.32	690.89
659.66	685.71
660.00	680.43
660.34	675.50
660.68	670.65
661.02	665.68
661.36	661.02
661.70	656.60
662.05	652.30
662.39	647.96
662.73	643.47
663.07	639.17
663.41	634.82
663.75	630.34
664.09	625.84
664.43	621.44
664.77	617.41
665.11	613.19
665.45	608.99
665.79	604.97
666.13	600.91
666.47	596.83
666.81	592.74
667.15	588.62
667.49	584.73
667.83	580.95
668.17	577.03
668.51	572.96
668.85	568.93
669.19	565.05
669.53	561.21
669.87	557.40
670.21	553.68
670.55	550.04
670.89	546.69
671.23	543.22
671.57	539.77
671.91	536.19
672.25	532.71
672.58	529.22
672.92	525.81
673.26	522.63
673.60	519.51
673.94	516.38
674.28	513.46
674.62	510.55
674.96	507.45
675.30	504.57
675.64	501.68
675.97	498.90
676.31	496.02
676.65	493.11
676.99	490.43
677.33	487.61
677.67	484.84
678.01	481.74
678.34	478.80
678.68	475.92
679.02	473.17
679.36	470.38
679.70	467.65
680.04	464.91
680.37	462.05
680.71	459.21
681.05	456.55
681.39	453.88
681.73	451.16
682.06	448.67
682.40	446.13
682.74	443.54
683.08	441.00
683.42	438.39
683.75	435.92
684.09	433.33
684.43	430.85
684.77	428.35
685.10	426.02
685.44	423.68
685.78	421.42
686.12	419.08
686.45	416.76
686.79	414.50
687.13	412.28
687.46	410.13
687.80	407.99
688.14	405.74
688.48	403.66
688.81	401.43
689.15	399.20
689.49	397.05
689.82	394.98
690.16	392.89
690.50	390.98
690.83	389.02
691.17	387.07
691.51	385.12
691.84	383.29
692.18	381.33
692.52	379.34
692.85	377.36
693.19	375.48
693.52	373.62
693.86	371.75
694.20	369.97
694.53	368.16
694.87	366.28
695.21	364.54
695.54	362.71
695.88	361.00
696.21	359.30
696.55	357.60
696.88	355.94
697.22	354.26
697.56	352.61
697.89	350.99
698.23	349.33
698.56	347.76
698.90	346.21
699.23	344.63
699.57	343.08
699.90	341.56
700.24	340.03
700.58	338.53
700.91	337.08
701.25	335.64
701.58	334.26
701.92	332.89
702.25	331.51
702.59	330.13
702.92	328.83
703.26	327.54
703.59	326.26
703.93	325.04
704.26	323.82
704.60	322.54
704.93	321.27
705.26	320.05
705.60	318.87
705.93	317.69
706.27	316.64
706.60	315.58
706.94	314.53
707.27	313.42
707.61	312.37
707.94	311.35
708.27	310.26
708.61	309.20
708.94	308.24
709.28	307.32
709.61	306.40
709.94	305.44
710.28	304.42
710.61	303.45
710.95	302.42
711.28	301.51
711.61	300.57
711.95	299.68
712.28	298.72
712.61	297.77
712.95	296.87
713.28	295.94
713.61	295.10
713.95	294.23
714.28	293.39
714.61	292.57
714.95	291.71
715.28	290.86
715.61	290.01
715.95	289.16
716.28	288.25
716.61	287.42
716.95	286.60
717.28	285.86
717.61	285.10
717.94	284.36
718.28	283.54
718.61	282.84
718.94	282.12
719.27	281.48
719.61	280.83
719.94	280.09
720.27	279.41
720.60	278.75
720.94	278.09
721.27	277.50
721.60	276.93
721.93	276.38
722.27	275.84
722.60	275.31
722.93	274.73
723.26	274.23
723.59	273.67
723.93	273.13
724.26	272.57
724.59	271.98
724.92	271.40
725.25	270.92
725.59	270.33
725.92	269.79
726.25	269.27
726.58	268.72
726.91	268.23
727.24	267.74
727.57	267.22
727.91	266.72
728.24	266.23
728.57	265.68
728.90	265.19
729.23	264.65
729.56	264.19
729.89	263.70
730.22	263.15
730.55	262.65
730.89	262.18
731.22	261.70
731.55	261.30
731.88	260.90
732.21	260.46
732.54	260.05
732.87	259.59
733.20	259.18
733.53	258.78
733.86	258.42
734.19	258.03
734.52	257.64
734.85	257.29
735.18	256.82
735.51	256.42
735.84	256.01
736.17	255.66
736.50	255.22
736.83	254.97
737.16	254.68
737.49	254.36
737.82	253.98
738.15	253.66
738.48	253.29
738.81	252.95
739.14	252.65
739.47	252.32
739.80	252.06
740.13	251.74
740.46	251.45
740.79	251.08
741.12	250.79
741.45	250.47
741.78	250.16
742.11	249.91
742.44	249.61
742.77	249.37
743.10	249.07
743.43	248.80
743.75	248.41
744.08	248.28
744.41	248.00
744.74	247.77
745.07	247.52
745.40	247.28
745.73	247.08
746.06	246.77
746.39	246.52
746.71	246.25
747.04	246.01
747.37	245.76
747.70	245.58
748.03	245.32
748.36	245.15
748.68	244.92
749.01	244.68
749.34	244.47
749.67	244.24
750.00	244.04
750.33	243.87
750.65	243.67
750.98	243.34
751.31	243.13
751.64	242.95
751.97	242.77
752.29	242.55
752.62	242.29
752.95	242.08
753.28	241.88
753.60	241.70
753.93	241.54
754.26	241.34
754.59	241.12
754.91	240.92
755.24	240.75
755.57	240.53
755.90	240.38
756.22	240.21
756.55	240.05
756.88	239.87
757.20	239.67
757.53	239.51
757.86	239.34
758.19	239.21
758.51	239.02
758.84	238.81
759.17	238.70
759.49	238.55
759.82	238.47
760.15	238.35
760.47	238.22
760.80	238.03
761.13	237.89
761.45	237.76
761.78	237.61
762.11	237.41
762.43	237.30
762.76	237.12
763.08	236.99
763.41	236.82
763.74	236.70
764.06	236.55
764.39	236.40
764.71	236.25
765.04	236.10
765.37	235.99
765.69	235.85
766.02	235.69
766.34	235.56
766.67	235.38
767.00	235.23
767.32	235.13
767.65	235.10
767.97	234.98
768.30	234.85
768.62	234.74
768.95	234.64
769.27	234.51
769.60	234.41
769.92	234.28
770.25	234.14
770.57	234.00
770.90	233.88
771.22	233.74
771.55	233.64
771.87	233.53
772.20	233.41
772.52	233.38
772.85	233.38
773.17	233.28
773.50	233.21
773.82	233.10
774.15	232.97
774.47	232.80
774.80	232.68
775.12	232.55
775.45	232.44
775.77	232.34
776.09	232.25
776.42	232.17
776.74	232.12
777.07	232.03
777.39	231.96
777.72	231.88
778.04	231.84
778.36	231.77
778.69	231.71
779.01	231.65
779.33	231.50
779.66	231.31
779.98	231.24
780.31	231.16
780.63	231.14
780.95	231.07
781.28	230.99
781.60	230.93
781.92	230.86
782.25	230.79
782.57	230.72
782.89	230.65
783.22	230.59
783.54	230.49
783.86	230.43
784.19	230.40
784.51	230.35
784.83	230.27
785.16	230.19
785.48	230.16
785.80	230.10
786.12	230.06
786.45	230.03
786.77	230.00
787.09	229.92
