SpectraSuite Data File
++++++++++++++++++++++++++++++++++++
Date: Fri Feb 01 15:31:27 EST 2013
User: group
Dark Spectrum Present: No
Reference Spectrum Present: No
Number of Sampled Component Spectra: 1
Spectrometers: USB2E7196
Integration Time (usec): 35000 (USB2E7196)
Spectra Averaged: 100 (USB2E7196)
Boxcar Smoothing: 10 (USB2E7196)
Correct for Electrical Dark: No (USB2E7196)
Strobe/Lamp Enabled: No (USB2E7196)
Correct for Detector Non-linearity: No (USB2E7196)
Correct for Stray Light: No (USB2E7196)
Number of Pixels in Processed Spectrum: 2048
>>>>>Begin Processed Spectral Data<<<<<
339.09	0.00
339.48	215.06
339.86	215.63
340.24	217.45
340.63	218.71
341.01	221.90
341.39	221.60
341.78	223.13
342.16	223.90
342.54	224.44
342.93	213.07
343.31	223.82
343.69	224.32
344.07	224.80
344.46	225.21
344.84	225.61
345.22	225.84
345.60	226.11
345.99	226.27
346.37	226.43
346.75	226.55
347.13	226.62
347.52	226.66
347.90	226.74
348.28	226.78
348.66	226.80
349.05	226.79
349.43	226.83
349.81	226.90
350.19	226.96
350.57	227.02
350.96	227.09
351.34	227.20
351.72	227.32
352.10	227.42
352.48	227.51
352.87	227.55
353.25	227.62
353.63	227.68
354.01	227.79
354.39	227.88
354.77	227.91
355.15	228.00
355.54	228.06
355.92	228.12
356.30	228.19
356.68	228.31
357.06	228.42
357.44	228.48
357.82	228.52
358.20	228.60
358.58	228.69
358.97	228.78
359.35	228.85
359.73	228.94
360.11	229.00
360.49	229.04
360.87	229.10
361.25	229.16
361.63	229.24
362.01	229.29
362.39	229.32
362.77	229.42
363.15	229.47
363.53	229.52
363.91	229.56
364.29	229.56
364.67	229.50
365.05	229.50
365.43	229.49
365.81	229.52
366.19	229.55
366.57	229.59
366.95	229.57
367.33	229.55
367.71	229.53
368.09	229.58
368.47	229.58
368.85	229.56
369.23	229.57
369.61	229.49
369.99	229.46
370.37	229.43
370.75	229.45
371.13	229.37
371.51	229.30
371.89	229.27
372.27	229.25
372.65	229.22
373.03	229.20
373.41	229.16
373.78	229.10
374.16	229.00
374.54	228.90
374.92	228.83
375.30	228.74
375.68	228.66
376.06	228.56
376.44	228.50
376.82	228.45
377.19	228.37
377.57	228.31
377.95	228.21
378.33	228.14
378.71	227.99
379.09	227.94
379.47	227.88
379.84	227.76
380.22	227.67
380.60	227.59
380.98	227.49
381.36	227.42
381.73	227.35
382.11	227.32
382.49	227.26
382.87	227.20
383.25	227.17
383.62	227.22
384.00	227.15
384.38	227.10
384.76	227.03
385.13	227.01
385.51	226.96
385.89	226.91
386.27	226.86
386.64	226.84
387.02	226.80
387.40	226.77
387.78	226.77
388.15	226.74
388.53	226.68
388.91	226.64
389.29	226.61
389.66	226.61
390.04	226.55
390.42	226.54
390.79	226.57
391.17	226.55
391.55	226.42
391.92	226.40
392.30	226.39
392.68	226.38
393.05	226.37
393.43	226.40
393.81	226.44
394.18	226.46
394.56	226.48
394.94	226.54
395.31	226.57
395.69	226.63
396.06	226.69
396.44	226.74
396.82	226.82
397.19	226.91
397.57	226.91
397.95	226.99
398.32	227.03
398.70	227.04
399.07	227.10
399.45	227.16
399.82	227.30
400.20	227.38
400.58	227.46
400.95	227.52
401.33	227.61
401.70	227.74
402.08	227.83
402.45	227.92
402.83	228.02
403.20	228.12
403.58	228.22
403.95	228.35
404.33	228.50
404.71	228.62
405.08	228.81
405.46	228.96
405.83	229.10
406.21	229.25
406.58	229.43
406.96	229.61
407.33	229.83
407.70	230.00
408.08	230.26
408.45	230.48
408.83	230.71
409.20	230.92
409.58	231.11
409.95	231.38
410.33	231.64
410.70	231.87
411.08	232.17
411.45	232.46
411.82	232.74
412.20	233.06
412.57	233.46
412.95	233.76
413.32	234.18
413.69	234.60
414.07	235.07
414.44	235.54
414.82	235.99
415.19	236.49
415.56	237.05
415.94	237.57
416.31	238.22
416.68	238.83
417.06	239.53
417.43	240.21
417.81	240.96
418.18	241.76
418.55	242.62
418.93	243.48
419.30	244.39
419.67	245.32
420.04	246.30
420.42	247.31
420.79	248.47
421.16	249.63
421.54	250.82
421.91	252.01
422.28	253.22
422.66	254.56
423.03	255.86
423.40	257.14
423.77	258.54
424.15	259.92
424.52	261.41
424.89	263.02
425.26	264.54
425.64	265.99
426.01	267.59
426.38	269.18
426.75	270.85
427.13	272.57
427.50	274.38
427.87	276.24
428.24	278.09
428.61	279.84
428.99	281.78
429.36	283.88
429.73	285.94
430.10	288.01
430.47	290.08
430.85	292.25
431.22	294.50
431.59	296.91
431.96	299.21
432.33	301.74
432.70	304.13
433.08	306.97
433.45	309.63
433.82	312.24
434.19	315.20
434.56	318.08
434.93	320.73
435.30	323.37
435.68	326.26
436.05	329.08
436.42	331.91
436.79	334.38
437.16	337.09
437.53	339.94
437.90	342.76
438.27	345.46
438.64	348.31
439.01	350.95
439.38	353.22
439.75	355.37
440.13	357.85
440.50	360.20
440.87	362.05
441.24	363.98
441.61	366.18
441.98	367.64
442.35	369.39
442.72	371.23
443.09	373.03
443.46	374.03
443.83	374.63
444.20	375.11
444.57	375.98
444.94	376.26
445.31	376.54
445.68	376.92
446.05	376.99
446.42	376.59
446.79	376.15
447.16	375.67
447.53	375.33
447.90	374.15
448.27	372.96
448.64	371.38
449.01	370.25
449.37	368.23
449.74	366.32
450.11	364.05
450.48	361.61
450.85	359.07
451.22	356.92
451.59	354.88
451.96	352.93
452.33	350.31
452.70	347.94
453.07	345.15
453.43	342.19
453.80	339.43
454.17	336.73
454.54	334.18
454.91	331.46
455.28	328.76
455.65	326.26
456.02	323.81
456.38	321.61
456.75	318.93
457.12	316.69
457.49	314.46
457.86	312.34
458.23	310.48
458.59	308.45
458.96	306.41
459.33	304.53
459.70	302.69
460.07	301.21
460.43	299.49
460.80	297.83
461.17	296.39
461.54	294.94
461.91	293.50
462.27	292.03
462.64	290.75
463.01	289.40
463.38	288.10
463.74	286.76
464.11	285.61
464.48	284.56
464.85	283.44
465.21	282.57
465.58	281.60
465.95	280.47
466.32	279.56
466.68	278.60
467.05	277.73
467.42	276.82
467.78	275.84
468.15	274.96
468.52	274.33
468.88	273.51
469.25	272.70
469.62	272.06
469.98	271.40
470.35	270.73
470.72	270.15
471.08	269.50
471.45	268.91
471.82	268.35
472.18	267.75
472.55	267.28
472.92	266.76
473.28	266.28
473.65	265.86
474.02	265.41
474.38	265.05
474.75	264.71
475.11	264.32
475.48	264.07
475.85	263.80
476.21	263.55
476.58	263.35
476.94	263.23
477.31	263.07
477.67	262.93
478.04	262.87
478.41	262.78
478.77	262.81
479.14	262.77
479.50	262.82
479.87	262.92
480.23	263.02
480.60	263.07
480.96	263.19
481.33	263.37
481.69	263.58
482.06	263.80
482.42	264.02
482.79	264.27
483.15	264.61
483.52	265.06
483.88	265.41
484.25	265.76
484.61	266.18
484.98	266.65
485.34	267.20
485.71	267.81
486.07	268.46
486.44	269.04
486.80	269.78
487.17	270.49
487.53	271.31
487.90	272.17
488.26	273.12
488.62	274.12
488.99	275.10
489.35	276.16
489.72	277.26
490.08	278.42
490.44	279.69
490.81	281.02
491.17	282.34
491.54	283.84
491.90	285.38
492.26	287.07
492.63	288.75
492.99	290.54
493.36	292.42
493.72	294.42
494.08	296.56
494.45	298.77
494.81	301.15
495.17	303.58
495.54	306.13
495.90	308.80
496.26	311.58
496.63	314.54
496.99	317.68
497.35	320.91
497.72	324.31
498.08	327.86
498.44	331.54
498.80	335.43
499.17	339.47
499.53	343.66
499.89	348.02
500.26	352.53
500.62	357.19
500.98	362.15
501.34	367.22
501.71	372.51
502.07	377.96
502.43	383.57
502.79	389.37
503.16	395.44
503.52	401.77
503.88	408.21
504.24	414.85
504.60	421.73
504.97	428.93
505.33	436.28
505.69	443.95
506.05	451.73
506.41	459.64
506.78	467.84
507.14	476.30
507.50	485.03
507.86	494.08
508.22	503.31
508.59	512.48
508.95	522.01
509.31	531.87
509.67	541.95
510.03	552.26
510.39	562.84
510.75	573.69
511.12	584.54
511.48	595.88
511.84	607.34
512.20	618.80
512.56	630.69
512.92	642.87
513.28	655.24
513.64	667.78
514.00	680.51
514.37	693.30
514.73	706.44
515.09	719.47
515.45	732.78
515.81	746.33
516.17	760.43
516.53	774.62
516.89	788.83
517.25	803.03
517.61	817.43
517.97	831.97
518.33	846.42
518.69	861.31
519.05	876.27
519.41	891.48
519.77	907.17
520.13	922.60
520.49	938.01
520.85	953.53
521.21	969.26
521.57	985.55
521.93	1001.43
522.29	1017.81
522.65	1034.10
523.01	1050.35
523.37	1066.45
523.73	1082.63
524.09	1098.77
524.45	1115.18
524.81	1131.89
525.17	1148.79
525.53	1165.60
525.89	1182.47
526.25	1199.26
526.61	1215.61
526.97	1232.41
527.33	1248.84
527.68	1265.62
528.04	1282.06
528.40	1298.69
528.76	1315.76
529.12	1332.38
529.48	1349.23
529.84	1365.26
530.20	1381.91
530.56	1399.08
530.91	1416.57
531.27	1433.37
531.63	1449.98
531.99	1466.46
532.35	1482.43
532.71	1498.28
533.07	1514.63
533.42	1530.56
533.78	1546.73
534.14	1563.11
534.50	1578.49
534.86	1594.40
535.21	1609.63
535.57	1625.77
535.93	1641.33
536.29	1656.22
536.65	1671.44
537.00	1686.39
537.36	1701.93
537.72	1716.64
538.08	1731.03
538.44	1744.79
538.79	1758.77
539.15	1772.47
539.51	1786.29
539.87	1800.75
540.22	1814.67
540.58	1828.48
540.94	1841.97
541.29	1854.98
541.65	1867.82
542.01	1881.16
542.37	1893.56
542.72	1905.95
543.08	1917.75
543.44	1930.17
543.79	1941.53
544.15	1952.57
544.51	1964.09
544.87	1975.01
545.22	1985.79
545.58	1995.93
545.94	2005.85
546.29	2015.64
546.65	2025.42
547.01	2034.83
547.36	2043.63
547.72	2052.07
548.07	2059.90
548.43	2068.12
548.79	2076.16
549.14	2083.83
549.50	2091.09
549.86	2098.82
550.21	2106.11
550.57	2113.33
550.92	2119.84
551.28	2126.79
551.64	2133.87
551.99	2140.44
552.35	2146.56
552.70	2152.64
553.06	2158.68
553.41	2164.95
553.77	2171.05
554.13	2177.21
554.48	2183.27
554.84	2188.63
555.19	2193.98
555.55	2199.17
555.90	2203.65
556.26	2208.43
556.61	2213.00
556.97	2217.32
557.32	2221.47
557.68	2225.69
558.03	2229.90
558.39	2233.64
558.74	2238.26
559.10	2242.05
559.45	2245.75
559.81	2250.04
560.16	2253.96
560.52	2257.31
560.87	2260.73
561.23	2263.32
561.58	2266.31
561.94	2268.72
562.29	2271.15
562.64	2273.85
563.00	2276.52
563.35	2280.11
563.71	2283.07
564.06	2286.19
564.42	2288.98
564.77	2291.35
565.12	2293.64
565.48	2295.46
565.83	2297.22
566.19	2298.43
566.54	2299.29
566.89	2300.47
567.25	2301.10
567.60	2302.23
567.96	2303.84
568.31	2304.63
568.66	2305.71
569.02	2306.15
569.37	2306.54
569.72	2307.23
570.08	2307.24
570.43	2307.13
570.78	2306.35
571.14	2304.95
571.49	2303.59
571.84	2303.28
572.20	2302.10
572.55	2300.93
572.90	2299.38
573.26	2298.02
573.61	2296.39
573.96	2294.55
574.31	2291.36
574.67	2288.09
575.02	2284.46
575.37	2280.87
575.72	2277.06
576.08	2273.62
576.43	2270.32
576.78	2266.50
577.13	2263.36
577.49	2260.31
577.84	2256.80
578.19	2252.92
578.54	2249.18
578.90	2245.02
579.25	2239.38
579.60	2234.46
579.95	2229.39
580.30	2224.27
580.66	2219.09
581.01	2214.06
581.36	2209.06
581.71	2205.03
582.06	2200.65
582.42	2196.10
582.77	2190.92
583.12	2186.28
583.47	2181.46
583.82	2176.23
584.17	2171.00
584.53	2165.46
584.88	2159.70
585.23	2153.80
585.58	2148.37
585.93	2142.86
586.28	2137.99
586.63	2132.84
586.98	2127.56
587.34	2122.82
587.69	2117.88
588.04	2112.51
588.39	2106.69
588.74	2100.21
589.09	2093.89
589.44	2087.00
589.79	2080.87
590.14	2075.25
590.49	2068.57
590.84	2062.22
591.19	2056.25
591.54	2049.68
591.89	2042.18
592.25	2035.26
592.60	2028.03
592.95	2020.43
593.30	2013.04
593.65	2005.31
594.00	1998.22
594.35	1990.95
594.70	1982.91
595.05	1975.64
595.40	1968.30
595.75	1960.82
596.10	1954.51
596.45	1947.63
596.80	1941.41
597.15	1934.84
597.50	1927.48
597.85	1921.07
598.19	1914.33
598.54	1907.18
598.89	1900.52
599.24	1894.71
599.59	1887.98
599.94	1881.92
600.29	1875.54
600.64	1868.95
600.99	1861.49
601.34	1854.52
601.69	1847.55
602.04	1840.58
602.39	1833.15
602.74	1826.31
603.08	1819.50
603.43	1812.71
603.78	1805.46
604.13	1798.19
604.48	1790.79
604.83	1784.15
605.18	1777.16
605.53	1769.13
605.87	1761.08
606.22	1753.82
606.57	1745.73
606.92	1738.51
607.27	1731.13
607.62	1724.08
607.96	1716.67
608.31	1709.89
608.66	1702.25
609.01	1694.62
609.36	1687.06
609.70	1679.09
610.05	1670.99
610.40	1663.24
610.75	1654.88
611.10	1647.28
611.44	1639.02
611.79	1631.07
612.14	1622.19
612.49	1613.12
612.83	1604.77
613.18	1596.64
613.53	1588.49
613.88	1580.03
614.22	1571.69
614.57	1563.18
614.92	1555.12
615.27	1547.64
615.61	1539.51
615.96	1531.56
616.31	1524.06
616.65	1516.63
617.00	1509.13
617.35	1501.43
617.70	1493.03
618.04	1484.59
618.39	1476.32
618.74	1468.61
619.08	1460.31
619.43	1452.80
619.78	1445.74
620.12	1438.65
620.47	1431.12
620.82	1423.02
621.16	1415.61
621.51	1407.98
621.85	1400.32
622.20	1391.84
622.55	1383.44
622.89	1375.55
623.24	1367.96
623.59	1360.57
623.93	1353.02
624.28	1345.80
624.62	1338.30
624.97	1331.23
625.32	1324.48
625.66	1317.33
626.01	1310.17
626.35	1302.61
626.70	1294.90
627.04	1287.10
627.39	1279.28
627.73	1271.88
628.08	1264.90
628.43	1257.41
628.77	1250.00
629.12	1242.45
629.46	1235.26
629.81	1227.86
630.15	1220.62
630.50	1213.20
630.84	1204.97
631.19	1197.08
631.53	1189.58
631.88	1182.01
632.22	1174.46
632.57	1167.09
632.91	1159.57
633.26	1152.11
633.60	1144.80
633.95	1137.70
634.29	1130.80
634.64	1124.15
634.98	1116.77
635.32	1109.68
635.67	1103.24
636.01	1096.59
636.36	1089.82
636.70	1083.42
637.05	1076.84
637.39	1070.36
637.73	1063.85
638.08	1058.02
638.42	1052.14
638.77	1045.66
639.11	1039.04
639.45	1032.55
639.80	1026.01
640.14	1019.62
640.49	1013.09
640.83	1006.79
641.17	1000.48
641.52	994.07
641.86	987.57
642.20	981.70
642.55	975.34
642.89	968.78
643.23	962.24
643.58	956.41
643.92	950.10
644.26	943.97
644.61	937.98
644.95	931.93
645.29	925.28
645.64	918.40
645.98	912.05
646.32	906.28
646.66	900.27
647.01	894.39
647.35	888.70
647.69	882.88
648.04	877.40
648.38	871.63
648.72	865.63
649.06	859.52
649.41	853.64
649.75	847.66
650.09	841.70
650.43	835.92
650.78	829.73
651.12	823.76
651.46	818.11
651.80	812.28
652.14	806.86
652.49	801.52
652.83	796.37
653.17	790.68
653.51	784.88
653.85	779.55
654.20	773.90
654.54	767.92
654.88	762.21
655.22	756.31
655.56	750.62
655.90	745.14
656.25	740.03
656.59	734.69
656.93	729.63
657.27	724.47
657.61	718.95
657.95	713.83
658.29	708.81
658.64	703.54
658.98	698.24
659.32	692.81
659.66	687.56
660.00	682.23
660.34	677.29
660.68	672.40
661.02	667.36
661.36	662.66
661.70	658.09
662.05	653.77
662.39	649.42
662.73	645.03
663.07	640.67
663.41	636.13
663.75	631.63
664.09	627.08
664.43	622.70
664.77	618.71
665.11	614.53
665.45	610.41
665.79	606.34
666.13	602.25
666.47	598.14
666.81	593.99
667.15	589.91
667.49	586.07
667.83	582.32
668.17	578.36
668.51	574.29
668.85	570.30
669.19	566.41
669.53	562.56
669.87	558.61
670.21	554.93
670.55	551.36
670.89	547.97
671.23	544.59
671.57	541.13
671.91	537.54
672.25	533.99
672.58	530.48
672.92	527.14
673.26	524.02
673.60	520.88
673.94	517.81
674.28	514.94
674.62	511.95
674.96	508.81
675.30	505.91
675.64	503.01
675.97	500.27
676.31	497.43
676.65	494.49
676.99	491.82
677.33	488.88
677.67	485.99
678.01	482.94
678.34	479.85
678.68	476.97
679.02	474.18
679.36	471.45
679.70	468.74
680.04	465.90
680.37	462.99
680.71	460.20
681.05	457.55
681.39	454.71
681.73	452.07
682.06	449.56
682.40	446.99
682.74	444.44
683.08	441.90
683.42	439.31
683.75	436.86
684.09	434.32
684.43	431.95
684.77	429.49
685.10	427.18
685.44	424.95
685.78	422.65
686.12	420.45
686.45	418.16
686.79	415.82
687.13	413.69
687.46	411.52
687.80	409.42
688.14	407.23
688.48	405.24
688.81	402.99
689.15	400.80
689.49	398.68
689.82	396.61
690.16	394.46
690.50	392.46
690.83	390.51
691.17	388.51
691.51	386.60
691.84	384.77
692.18	382.75
692.52	380.78
692.85	378.83
693.19	376.97
693.52	375.15
693.86	373.37
694.20	371.55
694.53	369.75
694.87	367.88
695.21	366.11
695.54	364.30
695.88	362.58
696.21	360.88
696.55	359.22
696.88	357.57
697.22	355.97
697.56	354.41
697.89	352.74
698.23	351.16
698.56	349.53
698.90	348.02
699.23	346.41
699.57	344.83
699.90	343.34
700.24	341.73
700.58	340.22
700.91	338.70
701.25	337.25
701.58	335.88
701.92	334.52
702.25	333.15
702.59	331.80
702.92	330.53
703.26	329.21
703.59	327.94
703.93	326.74
704.26	325.49
704.60	324.15
704.93	322.88
705.26	321.62
705.60	320.46
705.93	319.27
706.27	318.25
706.60	317.24
706.94	316.15
707.27	315.05
707.61	314.01
707.94	313.00
708.27	311.93
708.61	310.88
708.94	309.87
709.28	308.92
709.61	307.96
709.94	306.94
710.28	305.95
710.61	304.96
710.95	303.91
711.28	303.02
711.61	302.11
711.95	301.21
712.28	300.30
712.61	299.32
712.95	298.39
713.28	297.51
713.61	296.60
713.95	295.73
714.28	294.89
714.61	294.02
714.95	293.16
715.28	292.31
715.61	291.44
715.95	290.56
716.28	289.70
716.61	288.84
716.95	288.06
717.28	287.32
717.61	286.55
717.94	285.80
718.28	285.00
718.61	284.28
718.94	283.60
719.27	282.90
719.61	282.26
719.94	281.59
720.27	280.89
720.60	280.22
720.94	279.59
721.27	278.99
721.60	278.42
721.93	277.82
722.27	277.27
722.60	276.73
722.93	276.17
723.26	275.61
723.59	275.04
723.93	274.47
724.26	273.91
724.59	273.34
724.92	272.81
725.25	272.27
725.59	271.71
725.92	271.14
726.25	270.64
726.58	270.13
726.91	269.59
727.24	269.12
727.57	268.67
727.91	268.15
728.24	267.69
728.57	267.16
728.90	266.71
729.23	266.17
729.56	265.71
729.89	265.26
730.22	264.78
730.55	264.32
730.89	263.89
731.22	263.41
731.55	262.98
731.88	262.54
732.21	262.13
732.54	261.68
732.87	261.28
733.20	260.90
733.53	260.47
733.86	260.09
734.19	259.67
734.52	259.27
734.85	258.95
735.18	258.52
735.51	258.17
735.84	257.80
736.17	257.49
736.50	257.08
736.83	256.84
737.16	256.51
737.49	256.19
737.82	255.82
738.15	255.53
738.48	255.21
738.81	254.91
739.14	254.63
739.47	254.33
739.80	254.03
740.13	253.73
740.46	253.44
740.79	253.15
741.12	252.87
741.45	252.54
741.78	252.20
742.11	251.94
742.44	251.62
742.77	251.33
743.10	251.01
743.43	250.73
743.75	250.38
744.08	250.24
744.41	249.99
744.74	249.75
745.07	249.47
745.40	249.22
745.73	248.98
746.06	248.64
746.39	248.42
746.71	248.18
747.04	247.89
747.37	247.61
747.70	247.38
748.03	247.13
748.36	246.91
748.68	246.73
749.01	246.49
749.34	246.29
749.67	246.07
750.00	245.87
750.33	245.73
750.65	245.52
750.98	245.16
751.31	244.97
751.64	244.79
751.97	244.60
752.29	244.39
752.62	244.14
752.95	243.96
753.28	243.76
753.60	243.54
753.93	243.36
754.26	243.22
754.59	243.02
754.91	242.80
755.24	242.60
755.57	242.38
755.90	242.17
756.22	241.92
756.55	241.73
756.88	241.57
757.20	241.35
757.53	241.12
757.86	240.94
758.19	240.74
758.51	240.55
758.84	240.36
759.17	240.19
759.49	240.06
759.82	239.96
760.15	239.78
760.47	239.65
760.80	239.52
761.13	239.36
761.45	239.18
761.78	239.03
762.11	238.91
762.43	238.75
762.76	238.61
763.08	238.54
763.41	238.38
763.74	238.25
764.06	238.09
764.39	237.96
764.71	237.88
765.04	237.75
765.37	237.59
765.69	237.48
766.02	237.33
766.34	237.17
766.67	236.99
767.00	236.89
767.32	236.82
767.65	236.72
767.97	236.59
768.30	236.48
768.62	236.40
768.95	236.27
769.27	236.13
769.60	236.03
769.92	235.88
770.25	235.79
770.57	235.64
770.90	235.56
771.22	235.47
771.55	235.31
771.87	235.22
772.20	235.09
772.52	235.06
772.85	235.11
773.17	235.00
773.50	234.89
773.82	234.77
774.15	234.59
774.47	234.44
774.80	234.34
775.12	234.24
775.45	234.14
775.77	234.03
776.09	234.00
776.42	233.94
776.74	233.90
777.07	233.81
777.39	233.71
777.72	233.60
778.04	233.51
778.36	233.43
778.69	233.37
779.01	233.34
779.33	233.17
779.66	232.99
779.98	232.90
780.31	232.85
780.63	232.83
780.95	232.82
781.28	232.75
781.60	232.69
781.92	232.62
782.25	232.54
782.57	232.51
782.89	232.40
783.22	232.31
783.54	232.20
783.86	232.15
784.19	232.08
784.51	232.07
784.83	232.00
785.16	231.95
785.48	231.89
785.80	231.83
786.12	231.79
786.45	231.74
786.77	231.72
787.09	231.66
