SpectraSuite Data File
++++++++++++++++++++++++++++++++++++
Date: Fri Feb 01 17:16:34 EST 2013
User: group
Dark Spectrum Present: No
Reference Spectrum Present: No
Number of Sampled Component Spectra: 1
Spectrometers: USB2E7196
Integration Time (usec): 35000 (USB2E7196)
Spectra Averaged: 100 (USB2E7196)
Boxcar Smoothing: 10 (USB2E7196)
Correct for Electrical Dark: No (USB2E7196)
Strobe/Lamp Enabled: No (USB2E7196)
Correct for Detector Non-linearity: No (USB2E7196)
Correct for Stray Light: No (USB2E7196)
Number of Pixels in Processed Spectrum: 2048
>>>>>Begin Processed Spectral Data<<<<<
339.09	0.00
339.48	213.33
339.86	214.47
340.24	216.65
340.63	217.41
341.01	220.26
341.39	219.32
341.78	221.46
342.16	223.09
342.54	223.16
342.93	211.68
343.31	222.39
343.69	222.92
344.07	223.38
344.46	223.77
344.84	224.16
345.22	224.38
345.60	224.68
345.99	224.85
346.37	224.94
346.75	225.04
347.13	225.10
347.52	225.16
347.90	225.23
348.28	225.24
348.66	225.20
349.05	225.13
349.43	225.16
349.81	225.19
350.19	225.21
350.57	225.23
350.96	225.28
351.34	225.33
351.72	225.39
352.10	225.46
352.48	225.51
352.87	225.53
353.25	225.59
353.63	225.64
354.01	225.67
354.39	225.76
354.77	225.80
355.15	225.87
355.54	225.92
355.92	225.95
356.30	226.01
356.68	226.17
357.06	226.27
357.44	226.35
357.82	226.37
358.20	226.45
358.58	226.52
358.97	226.60
359.35	226.69
359.73	226.79
360.11	226.82
360.49	226.87
360.87	226.92
361.25	227.01
361.63	227.05
362.01	227.12
362.39	227.16
362.77	227.24
363.15	227.28
363.53	227.32
363.91	227.34
364.29	227.40
364.67	227.30
365.05	227.32
365.43	227.32
365.81	227.37
366.19	227.43
366.57	227.53
366.95	227.55
367.33	227.50
367.71	227.51
368.09	227.57
368.47	227.58
368.85	227.55
369.23	227.52
369.61	227.52
369.99	227.54
370.37	227.53
370.75	227.55
371.13	227.49
371.51	227.45
371.89	227.43
372.27	227.34
372.65	227.39
373.03	227.38
373.41	227.32
373.78	227.31
374.16	227.20
374.54	227.10
374.92	226.99
375.30	226.96
375.68	226.89
376.06	226.82
376.44	226.78
376.82	226.78
377.19	226.72
377.57	226.65
377.95	226.59
378.33	226.49
378.71	226.35
379.09	226.28
379.47	226.23
379.84	226.17
380.22	226.12
380.60	226.02
380.98	225.96
381.36	225.91
381.73	225.80
382.11	225.78
382.49	225.72
382.87	225.70
383.25	225.64
383.62	225.69
384.00	225.61
384.38	225.52
384.76	225.47
385.13	225.47
385.51	225.41
385.89	225.30
386.27	225.27
386.64	225.27
387.02	225.25
387.40	225.19
387.78	225.16
388.15	225.14
388.53	225.06
388.91	225.00
389.29	224.97
389.66	224.94
390.04	224.88
390.42	224.89
390.79	224.85
391.17	224.84
391.55	224.70
391.92	224.71
392.30	224.70
392.68	224.67
393.05	224.64
393.43	224.61
393.81	224.61
394.18	224.62
394.56	224.58
394.94	224.62
395.31	224.64
395.69	224.69
396.06	224.70
396.44	224.76
396.82	224.77
397.19	224.84
397.57	224.89
397.95	224.94
398.32	224.94
398.70	224.97
399.07	225.00
399.45	225.04
399.82	225.06
400.20	225.13
400.58	225.19
400.95	225.21
401.33	225.31
401.70	225.49
402.08	225.55
402.45	225.66
402.83	225.76
403.20	225.86
403.58	225.92
403.95	226.05
404.33	226.18
404.71	226.35
405.08	226.50
405.46	226.63
405.83	226.78
406.21	226.90
406.58	227.10
406.96	227.27
407.33	227.45
407.70	227.66
408.08	227.89
408.45	228.08
408.83	228.33
409.20	228.54
409.58	228.70
409.95	228.97
410.33	229.24
410.70	229.48
411.08	229.77
411.45	230.08
411.82	230.39
412.20	230.75
412.57	231.15
412.95	231.45
413.32	231.86
413.69	232.29
414.07	232.73
414.44	233.16
414.82	233.65
415.19	234.22
415.56	234.77
415.94	235.33
416.31	236.03
416.68	236.68
417.06	237.44
417.43	238.15
417.81	238.94
418.18	239.73
418.55	240.60
418.93	241.53
419.30	242.48
419.67	243.46
420.04	244.42
420.42	245.44
420.79	246.69
421.16	247.86
421.54	249.06
421.91	250.34
422.28	251.67
422.66	253.06
423.03	254.43
423.40	255.82
423.77	257.27
424.15	258.74
424.52	260.24
424.89	261.89
425.26	263.49
425.64	264.98
426.01	266.65
426.38	268.35
426.75	270.05
427.13	271.80
427.50	273.64
427.87	275.57
428.24	277.48
428.61	279.24
428.99	281.26
429.36	283.43
429.73	285.54
430.10	287.61
430.47	289.72
430.85	291.92
431.22	294.21
431.59	296.68
431.96	299.00
432.33	301.60
432.70	304.00
433.08	306.88
433.45	309.59
433.82	312.23
434.19	315.17
434.56	318.05
434.93	320.74
435.30	323.46
435.68	326.42
436.05	329.31
436.42	332.21
436.79	334.77
437.16	337.56
437.53	340.43
437.90	343.34
438.27	346.14
438.64	349.02
439.01	351.68
439.38	353.97
439.75	356.19
440.13	358.71
440.50	361.13
440.87	363.01
441.24	364.99
441.61	367.22
441.98	368.79
442.35	370.65
442.72	372.57
443.09	374.39
443.46	375.41
443.83	376.11
444.20	376.62
444.57	377.49
444.94	377.82
445.31	378.24
445.68	378.56
446.05	378.69
446.42	378.27
446.79	377.87
447.16	377.44
447.53	377.13
447.90	376.00
448.27	374.84
448.64	373.26
449.01	372.15
449.37	370.18
449.74	368.27
450.11	366.05
450.48	363.52
450.85	360.95
451.22	358.78
451.59	356.67
451.96	354.68
452.33	352.03
452.70	349.58
453.07	346.69
453.43	343.76
453.80	340.91
454.17	338.18
454.54	335.58
454.91	332.78
455.28	330.04
455.65	327.48
456.02	324.98
456.38	322.75
456.75	319.98
457.12	317.66
457.49	315.35
457.86	313.06
458.23	311.18
458.59	309.09
458.96	306.93
459.33	305.01
459.70	303.10
460.07	301.56
460.43	299.81
460.80	298.15
461.17	296.67
461.54	295.10
461.91	293.66
462.27	292.20
462.64	290.86
463.01	289.43
463.38	288.09
463.74	286.67
464.11	285.51
464.48	284.44
464.85	283.29
465.21	282.44
465.58	281.51
465.95	280.38
466.32	279.47
466.68	278.56
467.05	277.67
467.42	276.76
467.78	275.81
468.15	274.89
468.52	274.22
468.88	273.34
469.25	272.56
469.62	271.91
469.98	271.20
470.35	270.62
470.72	270.03
471.08	269.38
471.45	268.79
471.82	268.24
472.18	267.64
472.55	267.18
472.92	266.63
473.28	266.16
473.65	265.73
474.02	265.26
474.38	264.88
474.75	264.54
475.11	264.18
475.48	263.91
475.85	263.68
476.21	263.47
476.58	263.28
476.94	263.14
477.31	262.95
477.67	262.79
478.04	262.63
478.41	262.58
478.77	262.63
479.14	262.61
479.50	262.61
479.87	262.71
480.23	262.81
480.60	262.89
480.96	262.93
481.33	263.11
481.69	263.30
482.06	263.48
482.42	263.69
482.79	263.95
483.15	264.26
483.52	264.65
483.88	264.97
484.25	265.37
484.61	265.78
484.98	266.22
485.34	266.80
485.71	267.41
486.07	268.05
486.44	268.61
486.80	269.31
487.17	269.99
487.53	270.82
487.90	271.67
488.26	272.59
488.62	273.58
488.99	274.54
489.35	275.56
489.72	276.70
490.08	277.87
490.44	279.09
490.81	280.41
491.17	281.71
491.54	283.14
491.90	284.65
492.26	286.28
492.63	288.04
492.99	289.83
493.36	291.71
493.72	293.71
494.08	295.78
494.45	298.01
494.81	300.42
495.17	302.83
495.54	305.39
495.90	308.03
496.26	310.85
496.63	313.83
496.99	316.98
497.35	320.23
497.72	323.61
498.08	327.15
498.44	330.80
498.80	334.78
499.17	338.82
499.53	342.99
499.89	347.38
500.26	351.82
500.62	356.46
500.98	361.39
501.34	366.42
501.71	371.75
502.07	377.13
502.43	382.70
502.79	388.51
503.16	394.57
503.52	400.87
503.88	407.26
504.24	413.85
504.60	420.60
504.97	427.69
505.33	434.97
505.69	442.65
506.05	450.35
506.41	458.10
506.78	466.14
507.14	474.55
507.50	483.15
507.86	492.10
508.22	501.22
508.59	510.32
508.95	519.74
509.31	529.39
509.67	539.35
510.03	549.45
510.39	559.81
510.75	570.42
511.12	581.10
511.48	592.28
511.84	603.57
512.20	615.00
512.56	626.73
512.92	638.80
513.28	650.93
513.64	663.24
514.00	675.80
514.37	688.61
514.73	701.40
515.09	714.17
515.45	727.20
515.81	740.55
516.17	754.31
516.53	768.24
516.89	782.13
517.25	796.03
517.61	810.28
517.97	824.43
518.33	838.65
518.69	853.12
519.05	867.76
519.41	882.65
519.77	897.76
520.13	912.93
520.49	927.96
520.85	943.07
521.21	958.39
521.57	974.20
521.93	989.60
522.29	1005.68
522.65	1021.65
523.01	1037.50
523.37	1053.18
523.73	1068.94
524.09	1084.73
524.45	1100.68
524.81	1117.01
525.17	1133.31
525.53	1149.87
525.89	1166.28
526.25	1182.82
526.61	1198.84
526.97	1215.28
527.33	1231.53
527.68	1247.65
528.04	1263.79
528.40	1279.96
528.76	1296.70
529.12	1313.00
529.48	1329.57
529.84	1345.28
530.20	1361.60
530.56	1378.24
530.91	1395.23
531.27	1411.78
531.63	1427.95
531.99	1444.28
532.35	1460.00
532.71	1475.75
533.07	1491.77
533.42	1507.60
533.78	1523.45
534.14	1539.33
534.50	1554.31
534.86	1569.73
535.21	1584.83
535.57	1600.45
535.93	1615.64
536.29	1630.21
536.65	1645.03
537.00	1659.50
537.36	1674.55
537.72	1688.78
538.08	1703.12
538.44	1716.78
538.79	1730.40
539.15	1743.90
539.51	1757.36
539.87	1771.54
540.22	1784.97
540.58	1798.36
540.94	1811.25
541.29	1823.79
541.65	1836.36
542.01	1849.43
542.37	1861.83
542.72	1874.10
543.08	1885.92
543.44	1898.30
543.79	1909.59
544.15	1920.51
544.51	1932.07
544.87	1942.99
545.22	1953.88
545.58	1964.14
545.94	1973.91
546.29	1983.82
546.65	1993.55
547.01	2002.99
547.36	2011.80
547.72	2020.40
548.07	2028.71
548.43	2036.92
548.79	2044.90
549.14	2052.76
549.50	2060.22
549.86	2067.87
550.21	2075.23
550.57	2082.52
550.92	2089.21
551.28	2096.26
551.64	2103.40
551.99	2109.98
552.35	2116.22
552.70	2122.55
553.06	2128.66
553.41	2135.30
553.77	2141.46
554.13	2147.70
554.48	2153.94
554.84	2159.70
555.19	2165.08
555.55	2170.48
555.90	2175.43
556.26	2180.90
556.61	2185.70
556.97	2190.38
557.32	2194.95
557.68	2199.40
558.03	2203.74
558.39	2207.72
558.74	2212.63
559.10	2216.87
559.45	2220.90
559.81	2225.41
560.16	2229.49
560.52	2233.04
560.87	2236.63
561.23	2239.50
561.58	2242.61
561.94	2245.39
562.29	2247.90
562.64	2251.08
563.00	2253.77
563.35	2257.37
563.71	2260.70
564.06	2264.10
564.42	2267.18
564.77	2270.00
565.12	2272.74
565.48	2275.06
565.83	2277.23
566.19	2278.88
566.54	2279.91
566.89	2281.36
567.25	2282.35
567.60	2283.74
567.96	2285.77
568.31	2287.01
568.66	2288.63
569.02	2289.63
569.37	2290.27
569.72	2291.51
570.08	2292.06
570.43	2292.20
570.78	2292.00
571.14	2290.82
571.49	2289.73
571.84	2289.61
572.20	2288.96
572.55	2288.23
572.90	2286.84
573.26	2285.83
573.61	2284.26
573.96	2283.23
574.31	2280.72
574.67	2278.12
575.02	2275.07
575.37	2271.88
575.72	2268.40
576.08	2265.00
576.43	2261.94
576.78	2258.75
577.13	2255.57
577.49	2252.38
577.84	2249.44
578.19	2245.87
578.54	2242.62
578.90	2239.08
579.25	2233.95
579.60	2229.16
579.95	2224.38
580.30	2219.72
580.66	2214.79
581.01	2210.09
581.36	2205.11
581.71	2201.14
582.06	2196.99
582.42	2192.79
582.77	2187.92
583.12	2183.60
583.47	2179.53
583.82	2174.88
584.17	2169.88
584.53	2164.69
584.88	2159.50
585.23	2154.04
585.58	2148.75
585.93	2143.32
586.28	2138.38
586.63	2133.51
586.98	2128.45
587.34	2123.88
587.69	2119.10
588.04	2114.19
588.39	2108.79
588.74	2102.59
589.09	2096.69
589.44	2090.10
589.79	2083.97
590.14	2078.41
590.49	2071.90
590.84	2065.43
591.19	2059.58
591.54	2053.20
591.89	2046.27
592.25	2039.72
592.60	2032.60
592.95	2025.47
593.30	2018.44
593.65	2011.04
594.00	2004.08
594.35	1996.98
594.70	1988.96
595.05	1982.03
595.40	1974.70
595.75	1967.46
596.10	1961.50
596.45	1954.85
596.80	1948.79
597.15	1942.45
597.50	1935.71
597.85	1929.36
598.19	1922.90
598.54	1916.12
598.89	1909.64
599.24	1903.70
599.59	1897.41
599.94	1891.14
600.29	1884.75
600.64	1878.05
600.99	1870.70
601.34	1863.99
601.69	1857.03
602.04	1850.41
602.39	1843.22
602.74	1836.47
603.08	1829.76
603.43	1823.01
603.78	1815.72
604.13	1808.58
604.48	1801.41
604.83	1794.45
605.18	1787.76
605.53	1779.96
605.87	1771.90
606.22	1764.57
606.57	1756.67
606.92	1748.91
607.27	1741.92
607.62	1735.20
607.96	1728.09
608.31	1721.75
608.66	1714.24
609.01	1706.85
609.36	1699.32
609.70	1691.20
610.05	1683.29
610.40	1675.71
610.75	1667.49
611.10	1659.78
611.44	1651.19
611.79	1643.09
612.14	1634.39
612.49	1625.06
612.83	1616.42
613.18	1608.11
613.53	1599.99
613.88	1591.49
614.22	1583.17
614.57	1574.40
614.92	1566.21
615.27	1558.67
615.61	1550.31
615.96	1542.18
616.31	1534.47
616.65	1526.97
617.00	1519.44
617.35	1511.61
617.70	1503.12
618.04	1494.56
618.39	1486.21
618.74	1478.72
619.08	1470.29
619.43	1462.59
619.78	1455.54
620.12	1448.50
620.47	1441.01
620.82	1432.78
621.16	1425.20
621.51	1417.49
621.85	1409.64
622.20	1400.99
622.55	1392.46
622.89	1384.41
623.24	1376.53
623.59	1368.89
623.93	1361.22
624.28	1353.72
624.62	1346.13
624.97	1338.87
625.32	1331.85
625.66	1324.70
626.01	1317.37
626.35	1309.98
626.70	1302.17
627.04	1294.48
627.39	1286.54
627.73	1278.95
628.08	1271.96
628.43	1264.69
628.77	1257.34
629.12	1249.88
629.46	1242.66
629.81	1234.98
630.15	1227.74
630.50	1220.35
630.84	1212.22
631.19	1204.15
631.53	1196.66
631.88	1189.00
632.22	1181.27
632.57	1173.87
632.91	1166.25
633.26	1158.78
633.60	1151.24
633.95	1143.88
634.29	1136.58
634.64	1129.76
634.98	1122.32
635.32	1115.19
635.67	1108.31
636.01	1101.58
636.36	1094.81
636.70	1088.23
637.05	1081.74
637.39	1075.10
637.73	1068.58
638.08	1062.62
638.42	1056.77
638.77	1050.36
639.11	1043.84
639.45	1037.48
639.80	1030.93
640.14	1024.56
640.49	1018.02
640.83	1011.71
641.17	1005.61
641.52	999.41
641.86	992.96
642.20	987.11
642.55	980.55
642.89	974.19
643.23	967.57
643.58	961.68
643.92	955.52
644.26	949.61
644.61	943.46
644.95	937.46
645.29	930.86
645.64	923.97
645.98	917.44
646.32	911.40
646.66	905.35
647.01	899.43
647.35	893.68
647.69	887.78
648.04	882.21
648.38	876.37
648.72	870.40
649.06	864.30
649.41	858.35
649.75	852.43
650.09	846.48
650.43	840.73
650.78	834.49
651.12	828.49
651.46	822.58
651.80	817.01
652.14	811.49
652.49	806.14
652.83	800.96
653.17	795.47
653.51	789.84
653.85	784.32
654.20	778.68
654.54	772.71
654.88	766.94
655.22	761.00
655.56	755.23
655.90	749.63
656.25	744.40
656.59	739.07
656.93	734.02
657.27	728.81
657.61	723.32
657.95	718.26
658.29	713.13
658.64	707.75
658.98	702.36
659.32	696.81
659.66	691.55
660.00	686.20
660.34	681.10
660.68	676.05
661.02	670.99
661.36	666.31
661.70	661.72
662.05	657.28
662.39	652.98
662.73	648.57
663.07	644.14
663.41	639.60
663.75	635.09
664.09	630.42
664.43	625.97
664.77	621.90
665.11	617.66
665.45	613.42
665.79	609.38
666.13	605.18
666.47	601.12
666.81	596.95
667.15	592.81
667.49	588.87
667.83	584.96
668.17	581.00
668.51	576.84
668.85	572.70
669.19	568.84
669.53	564.95
669.87	561.13
670.21	557.41
670.55	553.73
670.89	550.23
671.23	546.79
671.57	543.19
671.91	539.67
672.25	536.06
672.58	532.63
672.92	529.21
673.26	525.98
673.60	522.81
673.94	519.69
674.28	516.78
674.62	513.82
674.96	510.81
675.30	507.88
675.64	504.99
675.97	502.27
676.31	499.35
676.65	496.41
676.99	493.53
677.33	490.68
677.67	487.87
678.01	484.92
678.34	481.99
678.68	479.16
679.02	476.26
679.36	473.50
679.70	470.67
680.04	467.85
680.37	465.03
680.71	462.16
681.05	459.48
681.39	456.69
681.73	454.01
682.06	451.46
682.40	448.96
682.74	446.34
683.08	443.69
683.42	441.10
683.75	438.63
684.09	436.08
684.43	433.56
684.77	431.04
685.10	428.61
685.44	426.22
685.78	423.86
686.12	421.52
686.45	419.21
686.79	416.91
687.13	414.75
687.46	412.53
687.80	410.38
688.14	408.08
688.48	406.04
688.81	403.80
689.15	401.63
689.49	399.38
689.82	397.28
690.16	395.22
690.50	393.24
690.83	391.23
691.17	389.21
691.51	387.30
691.84	385.45
692.18	383.54
692.52	381.62
692.85	379.67
693.19	377.83
693.52	375.96
693.86	374.08
694.20	372.27
694.53	370.46
694.87	368.58
695.21	366.82
695.54	364.91
695.88	363.14
696.21	361.40
696.55	359.71
696.88	358.01
697.22	356.29
697.56	354.59
697.89	352.93
698.23	351.38
698.56	349.75
698.90	348.14
699.23	346.44
699.57	344.83
699.90	343.28
700.24	341.72
700.58	340.20
700.91	338.76
701.25	337.32
701.58	335.96
701.92	334.59
702.25	333.19
702.59	331.87
702.92	330.52
703.26	329.13
703.59	327.79
703.93	326.61
704.26	325.38
704.60	324.10
704.93	322.80
705.26	321.48
705.60	320.28
705.93	319.10
706.27	318.05
706.60	316.99
706.94	315.88
707.27	314.66
707.61	313.55
707.94	312.48
708.27	311.31
708.61	310.18
708.94	309.16
709.28	308.20
709.61	307.19
709.94	306.27
710.28	305.27
710.61	304.28
710.95	303.13
711.28	302.19
711.61	301.22
711.95	300.32
712.28	299.37
712.61	298.32
712.95	297.41
713.28	296.48
713.61	295.54
713.95	294.66
714.28	293.83
714.61	292.94
714.95	292.12
715.28	291.27
715.61	290.40
715.95	289.55
716.28	288.64
716.61	287.79
716.95	286.92
717.28	286.16
717.61	285.38
717.94	284.68
718.28	283.91
718.61	283.16
718.94	282.45
719.27	281.74
719.61	281.13
719.94	280.40
720.27	279.69
720.60	279.04
720.94	278.43
721.27	277.82
721.60	277.26
721.93	276.62
722.27	276.08
722.60	275.51
722.93	274.90
723.26	274.36
723.59	273.79
723.93	273.22
724.26	272.65
724.59	272.10
724.92	271.55
725.25	271.02
725.59	270.48
725.92	269.97
726.25	269.47
726.58	268.93
726.91	268.47
727.24	268.01
727.57	267.53
727.91	266.99
728.24	266.53
728.57	266.01
728.90	265.53
729.23	265.02
729.56	264.62
729.89	264.14
730.22	263.65
730.55	263.20
730.89	262.77
731.22	262.32
731.55	261.90
731.88	261.44
732.21	261.00
732.54	260.60
732.87	260.15
733.20	259.75
733.53	259.39
733.86	258.99
734.19	258.60
734.52	258.22
734.85	257.90
735.18	257.51
735.51	257.20
735.84	256.85
736.17	256.48
736.50	256.07
736.83	255.84
737.16	255.53
737.49	255.21
737.82	254.85
738.15	254.57
738.48	254.20
738.81	253.90
739.14	253.59
739.47	253.25
739.80	252.97
740.13	252.63
740.46	252.31
740.79	251.99
741.12	251.65
741.45	251.34
741.78	251.00
742.11	250.72
742.44	250.35
742.77	250.06
743.10	249.76
743.43	249.44
743.75	249.06
744.08	248.91
744.41	248.63
744.74	248.36
745.07	248.03
745.40	247.79
745.73	247.53
746.06	247.20
746.39	246.94
746.71	246.63
747.04	246.37
747.37	246.12
747.70	245.87
748.03	245.60
748.36	245.39
748.68	245.15
749.01	244.88
749.34	244.66
749.67	244.40
750.00	244.18
750.33	244.00
750.65	243.76
750.98	243.44
751.31	243.20
751.64	242.99
751.97	242.83
752.29	242.60
752.62	242.36
752.95	242.20
753.28	241.97
753.60	241.74
753.93	241.58
754.26	241.37
754.59	241.14
754.91	240.97
755.24	240.73
755.57	240.53
755.90	240.37
756.22	240.14
756.55	239.94
756.88	239.73
757.20	239.50
757.53	239.34
757.86	239.11
758.19	238.97
758.51	238.77
758.84	238.55
759.17	238.35
759.49	238.18
759.82	238.02
760.15	237.88
760.47	237.76
760.80	237.56
761.13	237.43
761.45	237.27
761.78	237.10
762.11	236.97
762.43	236.82
762.76	236.62
763.08	236.51
763.41	236.38
763.74	236.26
764.06	236.13
764.39	235.97
764.71	235.82
765.04	235.66
765.37	235.52
765.69	235.38
766.02	235.26
766.34	235.15
766.67	235.00
767.00	234.91
767.32	234.83
767.65	234.79
767.97	234.66
768.30	234.55
768.62	234.40
768.95	234.28
769.27	234.16
769.60	234.09
769.92	233.96
770.25	233.84
770.57	233.71
770.90	233.62
771.22	233.50
771.55	233.43
771.87	233.34
772.20	233.24
772.52	233.26
772.85	233.30
773.17	233.22
773.50	233.13
773.82	233.01
774.15	232.88
774.47	232.74
774.80	232.62
775.12	232.57
775.45	232.53
775.77	232.46
776.09	232.42
776.42	232.33
776.74	232.30
777.07	232.25
777.39	232.23
777.72	232.14
778.04	232.09
778.36	231.98
778.69	231.91
779.01	231.90
779.33	231.74
779.66	231.55
779.98	231.48
780.31	231.43
780.63	231.42
780.95	231.37
781.28	231.33
781.60	231.26
781.92	231.20
782.25	231.16
782.57	231.10
782.89	230.96
783.22	230.92
783.54	230.81
783.86	230.75
784.19	230.66
784.51	230.65
784.83	230.59
785.16	230.54
785.48	230.50
785.80	230.40
786.12	230.35
786.45	230.33
786.77	230.27
787.09	230.21
