SpectraSuite Data File
++++++++++++++++++++++++++++++++++++
Date: Fri Feb 01 15:05:38 EST 2013
User: group
Dark Spectrum Present: No
Reference Spectrum Present: No
Number of Sampled Component Spectra: 1
Spectrometers: USB2E7196
Integration Time (usec): 35000 (USB2E7196)
Spectra Averaged: 100 (USB2E7196)
Boxcar Smoothing: 10 (USB2E7196)
Correct for Electrical Dark: No (USB2E7196)
Strobe/Lamp Enabled: No (USB2E7196)
Correct for Detector Non-linearity: No (USB2E7196)
Correct for Stray Light: No (USB2E7196)
Number of Pixels in Processed Spectrum: 2048
>>>>>Begin Processed Spectral Data<<<<<
339.09	0.00
339.48	215.01
339.86	216.71
340.24	217.56
340.63	219.44
341.01	222.60
341.39	222.44
341.78	222.98
342.16	224.69
342.54	225.37
342.93	213.55
343.31	224.36
343.69	224.90
344.07	225.36
344.46	225.82
344.84	226.19
345.22	226.40
345.60	226.62
345.99	226.83
346.37	226.94
346.75	227.05
347.13	227.12
347.52	227.20
347.90	227.25
348.28	227.32
348.66	227.34
349.05	227.33
349.43	227.34
349.81	227.36
350.19	227.39
350.57	227.44
350.96	227.52
351.34	227.55
351.72	227.63
352.10	227.72
352.48	227.76
352.87	227.82
353.25	227.91
353.63	227.96
354.01	228.00
354.39	228.11
354.77	228.17
355.15	228.27
355.54	228.30
355.92	228.34
356.30	228.40
356.68	228.48
357.06	228.53
357.44	228.60
357.82	228.68
358.20	228.76
358.58	228.80
358.97	228.84
359.35	228.92
359.73	229.00
360.11	229.04
360.49	229.08
360.87	229.08
361.25	229.13
361.63	229.22
362.01	229.26
362.39	229.25
362.77	229.24
363.15	229.23
363.53	229.24
363.91	229.23
364.29	229.22
364.67	229.13
365.05	229.12
365.43	229.12
365.81	229.11
366.19	229.15
366.57	229.18
366.95	229.17
367.33	229.11
367.71	229.07
368.09	229.08
368.47	229.05
368.85	229.06
369.23	229.03
369.61	228.95
369.99	228.95
370.37	228.91
370.75	228.95
371.13	228.85
371.51	228.79
371.89	228.75
372.27	228.75
372.65	228.71
373.03	228.67
373.41	228.58
373.78	228.48
374.16	228.37
374.54	228.24
374.92	228.16
375.30	228.09
375.68	227.99
376.06	227.90
376.44	227.84
376.82	227.77
377.19	227.67
377.57	227.61
377.95	227.50
378.33	227.44
378.71	227.30
379.09	227.26
379.47	227.21
379.84	227.14
380.22	227.04
380.60	226.93
380.98	226.83
381.36	226.79
381.73	226.75
382.11	226.67
382.49	226.64
382.87	226.55
383.25	226.52
383.62	226.59
384.00	226.52
384.38	226.45
384.76	226.44
385.13	226.45
385.51	226.39
385.89	226.32
386.27	226.30
386.64	226.26
387.02	226.23
387.40	226.20
387.78	226.17
388.15	226.13
388.53	226.14
388.91	226.15
389.29	226.12
389.66	226.07
390.04	226.06
390.42	226.07
390.79	226.10
391.17	226.09
391.55	225.97
391.92	225.96
392.30	225.98
392.68	225.95
393.05	225.93
393.43	225.95
393.81	226.01
394.18	226.02
394.56	226.03
394.94	226.10
395.31	226.14
395.69	226.21
396.06	226.26
396.44	226.32
396.82	226.36
397.19	226.47
397.57	226.55
397.95	226.62
398.32	226.64
398.70	226.73
399.07	226.86
399.45	226.97
399.82	227.04
400.20	227.12
400.58	227.26
400.95	227.31
401.33	227.42
401.70	227.55
402.08	227.64
402.45	227.77
402.83	227.88
403.20	227.99
403.58	228.09
403.95	228.23
404.33	228.37
404.71	228.51
405.08	228.67
405.46	228.82
405.83	228.98
406.21	229.15
406.58	229.30
406.96	229.41
407.33	229.56
407.70	229.77
408.08	230.04
408.45	230.19
408.83	230.43
409.20	230.63
409.58	230.84
409.95	231.09
410.33	231.35
410.70	231.58
411.08	231.90
411.45	232.23
411.82	232.54
412.20	232.90
412.57	233.29
412.95	233.61
413.32	234.01
413.69	234.43
414.07	234.87
414.44	235.35
414.82	235.83
415.19	236.41
415.56	237.00
415.94	237.55
416.31	238.20
416.68	238.85
417.06	239.55
417.43	240.20
417.81	240.96
418.18	241.76
418.55	242.62
418.93	243.48
419.30	244.33
419.67	245.24
420.04	246.16
420.42	247.14
420.79	248.30
421.16	249.45
421.54	250.61
421.91	251.85
422.28	253.09
422.66	254.42
423.03	255.69
423.40	256.97
423.77	258.35
424.15	259.78
424.52	261.24
424.89	262.88
425.26	264.43
425.64	265.87
426.01	267.48
426.38	269.11
426.75	270.80
427.13	272.51
427.50	274.33
427.87	276.21
428.24	278.11
428.61	279.85
428.99	281.79
429.36	283.90
429.73	285.95
430.10	287.98
430.47	290.05
430.85	292.17
431.22	294.44
431.59	296.83
431.96	299.08
432.33	301.57
432.70	303.95
433.08	306.78
433.45	309.44
433.82	312.03
434.19	314.93
434.56	317.69
434.93	320.34
435.30	322.97
435.68	325.93
436.05	328.75
436.42	331.59
436.79	334.11
437.16	336.81
437.53	339.68
437.90	342.53
438.27	345.30
438.64	348.17
439.01	350.78
439.38	353.06
439.75	355.24
440.13	357.77
440.50	360.07
440.87	361.93
441.24	363.91
441.61	366.03
441.98	367.51
442.35	369.34
442.72	371.25
443.09	373.10
443.46	374.05
443.83	374.66
444.20	375.14
444.57	376.01
444.94	376.32
445.31	376.65
445.68	376.98
446.05	377.03
446.42	376.66
446.79	376.27
447.16	375.77
447.53	375.47
447.90	374.32
448.27	373.20
448.64	371.63
449.01	370.47
449.37	368.54
449.74	366.69
450.11	364.43
450.48	361.95
450.85	359.40
451.22	357.29
451.59	355.25
451.96	353.30
452.33	350.67
452.70	348.31
453.07	345.46
453.43	342.59
453.80	339.82
454.17	337.16
454.54	334.59
454.91	331.88
455.28	329.17
455.65	326.63
456.02	324.14
456.38	321.98
456.75	319.30
457.12	317.04
457.49	314.80
457.86	312.63
458.23	310.79
458.59	308.77
458.96	306.65
459.33	304.79
459.70	302.94
460.07	301.43
460.43	299.68
460.80	298.06
461.17	296.60
461.54	295.09
461.91	293.59
462.27	292.12
462.64	290.85
463.01	289.47
463.38	288.16
463.74	286.81
464.11	285.60
464.48	284.56
464.85	283.43
465.21	282.55
465.58	281.62
465.95	280.54
466.32	279.56
466.68	278.62
467.05	277.72
467.42	276.83
467.78	275.87
468.15	274.99
468.52	274.34
468.88	273.46
469.25	272.68
469.62	272.06
469.98	271.37
470.35	270.72
470.72	270.10
471.08	269.49
471.45	268.93
471.82	268.42
472.18	267.82
472.55	267.42
472.92	266.83
473.28	266.35
473.65	265.88
474.02	265.46
474.38	265.08
474.75	264.73
475.11	264.37
475.48	264.08
475.85	263.84
476.21	263.62
476.58	263.43
476.94	263.29
477.31	263.10
477.67	262.98
478.04	262.87
478.41	262.83
478.77	262.85
479.14	262.77
479.50	262.78
479.87	262.80
480.23	262.86
480.60	262.98
480.96	263.06
481.33	263.23
481.69	263.43
482.06	263.67
482.42	263.88
482.79	264.14
483.15	264.48
483.52	264.86
483.88	265.15
484.25	265.54
484.61	266.00
484.98	266.48
485.34	267.04
485.71	267.65
486.07	268.27
486.44	268.83
486.80	269.56
487.17	270.28
487.53	271.10
487.90	271.94
488.26	272.86
488.62	273.88
488.99	274.88
489.35	275.90
489.72	276.98
490.08	278.17
490.44	279.41
490.81	280.75
491.17	282.06
491.54	283.54
491.90	285.07
492.26	286.69
492.63	288.36
492.99	290.09
493.36	291.97
493.72	293.92
494.08	296.02
494.45	298.25
494.81	300.63
495.17	303.07
495.54	305.60
495.90	308.29
496.26	311.07
496.63	314.00
496.99	317.10
497.35	320.35
497.72	323.75
498.08	327.24
498.44	330.87
498.80	334.77
499.17	338.76
499.53	342.89
499.89	347.26
500.26	351.76
500.62	356.41
500.98	361.33
501.34	366.41
501.71	371.64
502.07	377.11
502.43	382.65
502.79	388.48
503.16	394.56
503.52	400.79
503.88	407.14
504.24	413.80
504.60	420.69
504.97	427.80
505.33	435.06
505.69	442.66
506.05	450.43
506.41	458.29
506.78	466.46
507.14	474.93
507.50	483.59
507.86	492.67
508.22	501.83
508.59	510.97
508.95	520.63
509.31	530.47
509.67	540.51
510.03	550.76
510.39	561.28
510.75	572.14
511.12	583.04
511.48	594.32
511.84	605.74
512.20	617.26
512.56	629.19
512.92	641.42
513.28	653.83
513.64	666.33
514.00	679.03
514.37	691.95
514.73	704.94
515.09	717.98
515.45	731.14
515.81	744.68
516.17	758.71
516.53	772.79
516.89	786.99
517.25	801.25
517.61	815.74
517.97	830.25
518.33	844.59
518.69	859.53
519.05	874.54
519.41	889.69
519.77	905.35
520.13	920.89
520.49	936.28
520.85	951.70
521.21	967.38
521.57	983.69
521.93	999.51
522.29	1016.01
522.65	1032.29
523.01	1048.69
523.37	1064.99
523.73	1081.20
524.09	1097.37
524.45	1113.80
524.81	1130.46
525.17	1147.35
525.53	1164.27
525.89	1181.17
526.25	1197.92
526.61	1214.35
526.97	1231.16
527.33	1247.64
527.68	1264.25
528.04	1280.89
528.40	1297.68
528.76	1314.90
529.12	1331.59
529.48	1348.62
529.84	1364.75
530.20	1381.56
530.56	1398.71
530.91	1416.00
531.27	1432.89
531.63	1449.37
531.99	1465.91
532.35	1482.03
532.71	1497.95
533.07	1514.31
533.42	1530.46
533.78	1546.57
534.14	1562.88
534.50	1578.36
534.86	1594.26
535.21	1609.52
535.57	1625.50
535.93	1641.03
536.29	1656.00
536.65	1671.23
537.00	1686.18
537.36	1701.55
537.72	1716.16
538.08	1730.51
538.44	1744.53
538.79	1758.56
539.15	1772.53
539.51	1786.54
539.87	1800.95
540.22	1814.74
540.58	1828.60
540.94	1842.06
541.29	1855.08
541.65	1867.90
542.01	1881.32
542.37	1893.61
542.72	1906.10
543.08	1917.93
543.44	1930.50
543.79	1941.69
544.15	1952.59
544.51	1964.11
544.87	1975.07
545.22	1985.85
545.58	1996.16
545.94	2006.00
546.29	2015.84
546.65	2025.67
547.01	2034.88
547.36	2043.65
547.72	2052.20
548.07	2060.07
548.43	2068.20
548.79	2076.45
549.14	2084.02
549.50	2091.36
549.86	2099.27
550.21	2106.62
550.57	2113.81
550.92	2120.25
551.28	2127.35
551.64	2134.42
551.99	2141.00
552.35	2147.16
552.70	2153.25
553.06	2159.17
553.41	2165.50
553.77	2171.48
554.13	2177.36
554.48	2183.39
554.84	2188.64
555.19	2194.01
555.55	2199.09
555.90	2203.55
556.26	2208.08
556.61	2212.94
556.97	2217.06
557.32	2221.12
557.68	2225.29
558.03	2229.58
558.39	2233.29
558.74	2237.94
559.10	2241.76
559.45	2245.37
559.81	2249.72
560.16	2253.50
560.52	2256.67
560.87	2260.05
561.23	2262.72
561.58	2265.75
561.94	2268.16
562.29	2270.67
562.64	2273.29
563.00	2275.96
563.35	2279.50
563.71	2282.68
564.06	2285.68
564.42	2288.40
564.77	2290.65
565.12	2292.68
565.48	2294.43
565.83	2296.12
566.19	2297.34
566.54	2298.35
566.89	2299.44
567.25	2299.79
567.60	2301.12
567.96	2302.65
568.31	2303.43
568.66	2304.39
569.02	2304.78
569.37	2305.12
569.72	2305.75
570.08	2305.75
570.43	2305.51
570.78	2304.56
571.14	2302.98
571.49	2301.57
571.84	2301.23
572.20	2300.04
572.55	2299.03
572.90	2297.38
573.26	2295.94
573.61	2293.95
573.96	2291.92
574.31	2288.82
574.67	2285.72
575.02	2282.01
575.37	2278.64
575.72	2274.57
576.08	2271.13
576.43	2267.74
576.78	2263.93
577.13	2260.69
577.49	2257.54
577.84	2254.01
578.19	2250.25
578.54	2246.31
578.90	2241.89
579.25	2236.24
579.60	2231.21
579.95	2226.05
580.30	2220.97
580.66	2215.68
581.01	2210.62
581.36	2205.47
581.71	2201.05
582.06	2196.47
582.42	2191.80
582.77	2186.42
583.12	2181.72
583.47	2176.86
583.82	2171.54
584.17	2166.20
584.53	2160.64
584.88	2154.63
585.23	2148.57
585.58	2143.01
585.93	2137.43
586.28	2132.73
586.63	2127.49
586.98	2122.33
587.34	2117.51
587.69	2112.44
588.04	2107.02
588.39	2101.25
588.74	2094.84
589.09	2088.65
589.44	2081.68
589.79	2075.45
590.14	2069.70
590.49	2063.07
590.84	2056.50
591.19	2050.46
591.54	2043.82
591.89	2036.25
592.25	2029.50
592.60	2022.38
592.95	2014.61
593.30	2007.19
593.65	1999.42
594.00	1992.27
594.35	1984.97
594.70	1976.86
595.05	1969.41
595.40	1962.03
595.75	1954.59
596.10	1948.24
596.45	1941.12
596.80	1934.86
597.15	1928.26
597.50	1921.06
597.85	1914.58
598.19	1907.94
598.54	1900.88
598.89	1894.39
599.24	1888.30
599.59	1881.50
599.94	1875.14
600.29	1868.87
600.64	1862.33
600.99	1854.69
601.34	1847.87
601.69	1840.78
602.04	1833.76
602.39	1826.48
602.74	1819.60
603.08	1812.67
603.43	1805.91
603.78	1798.81
604.13	1791.76
604.48	1784.26
604.83	1777.45
605.18	1770.38
605.53	1762.42
605.87	1754.41
606.22	1747.01
606.57	1739.23
606.92	1731.95
607.27	1724.73
607.62	1717.83
607.96	1710.60
608.31	1703.98
608.66	1696.18
609.01	1688.54
609.36	1681.00
609.70	1673.07
610.05	1665.06
610.40	1657.41
610.75	1649.06
611.10	1641.38
611.44	1633.09
611.79	1625.18
612.14	1616.47
612.49	1607.43
612.83	1599.08
613.18	1590.98
613.53	1582.98
613.88	1574.41
614.22	1566.20
614.57	1557.74
614.92	1549.74
615.27	1542.03
615.61	1533.77
615.96	1525.93
616.31	1518.45
616.65	1511.11
617.00	1503.49
617.35	1495.87
617.70	1487.65
618.04	1479.16
618.39	1471.01
618.74	1463.32
619.08	1455.17
619.43	1447.73
619.78	1440.80
620.12	1433.55
620.47	1426.01
620.82	1417.77
621.16	1410.46
621.51	1402.82
621.85	1395.24
622.20	1386.76
622.55	1378.58
622.89	1370.80
623.24	1363.25
623.59	1355.93
623.93	1348.43
624.28	1341.32
624.62	1333.86
624.97	1326.61
625.32	1319.82
625.66	1312.69
626.01	1305.41
626.35	1297.86
626.70	1290.08
627.04	1282.39
627.39	1274.63
627.73	1267.18
628.08	1260.32
628.43	1252.97
628.77	1245.55
629.12	1237.93
629.46	1230.62
629.81	1223.29
630.15	1216.09
630.50	1208.71
630.84	1200.52
631.19	1192.69
631.53	1185.20
631.88	1177.62
632.22	1170.06
632.57	1162.86
632.91	1155.52
633.26	1148.18
633.60	1140.94
633.95	1133.83
634.29	1126.85
634.64	1120.24
634.98	1112.94
635.32	1105.82
635.67	1099.27
636.01	1092.70
636.36	1085.95
636.70	1079.59
637.05	1072.95
637.39	1066.55
637.73	1059.99
638.08	1054.25
638.42	1048.19
638.77	1041.71
639.11	1035.16
639.45	1028.87
639.80	1022.18
640.14	1015.69
640.49	1009.24
640.83	1003.04
641.17	996.79
641.52	990.49
641.86	984.12
642.20	978.37
642.55	972.15
642.89	965.63
643.23	959.14
643.58	953.43
643.92	947.12
644.26	941.13
644.61	935.06
644.95	929.04
645.29	922.36
645.64	915.67
645.98	909.40
646.32	903.60
646.66	897.62
647.01	891.95
647.35	886.27
647.69	880.48
648.04	874.98
648.38	869.19
648.72	863.09
649.06	857.01
649.41	851.16
649.75	845.18
650.09	839.34
650.43	833.60
650.78	827.44
651.12	821.55
651.46	815.79
651.80	810.03
652.14	804.75
652.49	799.38
652.83	794.23
653.17	788.54
653.51	782.80
653.85	777.35
654.20	771.71
654.54	765.73
654.88	760.05
655.22	754.07
655.56	748.50
655.90	743.15
656.25	737.94
656.59	732.54
656.93	727.46
657.27	722.28
657.61	716.81
657.95	711.73
658.29	706.70
658.64	701.47
658.98	696.27
659.32	690.71
659.66	685.49
660.00	680.22
660.34	675.29
660.68	670.46
661.02	665.40
661.36	660.66
661.70	656.26
662.05	651.88
662.39	647.59
662.73	643.17
663.07	638.81
663.41	634.37
663.75	629.93
664.09	625.37
664.43	621.05
664.77	616.97
665.11	612.75
665.45	608.65
665.79	604.59
666.13	600.42
666.47	596.36
666.81	592.27
667.15	588.12
667.49	584.31
667.83	580.53
668.17	576.67
668.51	572.69
668.85	568.63
669.19	564.76
669.53	560.95
669.87	557.07
670.21	553.38
670.55	549.77
670.89	546.30
671.23	542.87
671.57	539.41
671.91	535.97
672.25	532.52
672.58	529.04
672.92	525.68
673.26	522.60
673.60	519.56
673.94	516.45
674.28	513.62
674.62	510.64
674.96	507.50
675.30	504.57
675.64	501.60
675.97	498.88
676.31	496.04
676.65	493.10
676.99	490.38
677.33	487.58
677.67	484.74
678.01	481.79
678.34	478.85
678.68	475.97
679.02	473.13
679.36	470.36
679.70	467.63
680.04	464.81
680.37	461.91
680.71	459.12
681.05	456.59
681.39	453.86
681.73	451.24
682.06	448.74
682.40	446.25
682.74	443.83
683.08	441.28
683.42	438.73
683.75	436.26
684.09	433.75
684.43	431.26
684.77	428.83
685.10	426.52
685.44	424.25
685.78	421.94
686.12	419.70
686.45	417.42
686.79	415.19
687.13	413.05
687.46	410.93
687.80	408.76
688.14	406.56
688.48	404.56
688.81	402.31
689.15	400.16
689.49	398.02
689.82	395.89
690.16	393.84
690.50	391.81
690.83	389.88
691.17	387.91
691.51	386.01
691.84	384.19
692.18	382.20
692.52	380.25
692.85	378.37
693.19	376.49
693.52	374.70
693.86	372.88
694.20	371.14
694.53	369.34
694.87	367.53
695.21	365.71
695.54	363.88
695.88	362.19
696.21	360.50
696.55	358.82
696.88	357.14
697.22	355.53
697.56	353.96
697.89	352.31
698.23	350.73
698.56	349.16
698.90	347.57
699.23	345.98
699.57	344.38
699.90	342.83
700.24	341.28
700.58	339.71
700.91	338.22
701.25	336.77
701.58	335.43
701.92	334.05
702.25	332.67
702.59	331.32
702.92	330.01
703.26	328.73
703.59	327.46
703.93	326.25
704.26	324.99
704.60	323.68
704.93	322.43
705.26	321.17
705.60	319.96
705.93	318.82
706.27	317.78
706.60	316.76
706.94	315.67
707.27	314.52
707.61	313.50
707.94	312.47
708.27	311.37
708.61	310.29
708.94	309.28
709.28	308.34
709.61	307.38
709.94	306.41
710.28	305.35
710.61	304.39
710.95	303.34
711.28	302.43
711.61	301.50
711.95	300.58
712.28	299.63
712.61	298.62
712.95	297.67
713.28	296.77
713.61	295.86
713.95	294.96
714.28	294.14
714.61	293.28
714.95	292.44
715.28	291.61
715.61	290.73
715.95	289.88
716.28	289.01
716.61	288.17
716.95	287.35
717.28	286.63
717.61	285.83
717.94	285.08
718.28	284.27
718.61	283.57
718.94	282.90
719.27	282.26
719.61	281.64
719.94	280.99
720.27	280.24
720.60	279.59
720.94	278.97
721.27	278.42
721.60	277.85
721.93	277.27
722.27	276.73
722.60	276.16
722.93	275.58
723.26	275.04
723.59	274.48
723.93	273.95
724.26	273.42
724.59	272.92
724.92	272.41
725.25	271.90
725.59	271.37
725.92	270.85
726.25	270.34
726.58	269.86
726.91	269.38
727.24	268.96
727.57	268.46
727.91	267.96
728.24	267.46
728.57	266.99
728.90	266.52
729.23	266.03
729.56	265.63
729.89	265.19
730.22	264.71
730.55	264.28
730.89	263.86
731.22	263.43
731.55	262.98
731.88	262.59
732.21	262.21
732.54	261.79
732.87	261.39
733.20	261.04
733.53	260.65
733.86	260.27
734.19	259.86
734.52	259.52
734.85	259.26
735.18	258.88
735.51	258.50
735.84	258.16
736.17	257.81
736.50	257.42
736.83	257.20
737.16	256.90
737.49	256.58
737.82	256.26
738.15	255.96
738.48	255.63
738.81	255.31
739.14	255.00
739.47	254.72
739.80	254.43
740.13	254.11
740.46	253.79
740.79	253.49
741.12	253.23
741.45	252.90
741.78	252.51
742.11	252.26
742.44	251.94
742.77	251.64
743.10	251.35
743.43	251.08
743.75	250.72
744.08	250.55
744.41	250.22
744.74	249.90
745.07	249.57
745.40	249.32
745.73	249.08
746.06	248.80
746.39	248.53
746.71	248.24
747.04	247.97
747.37	247.72
747.70	247.44
748.03	247.17
748.36	246.96
748.68	246.72
749.01	246.45
749.34	246.23
749.67	246.00
750.00	245.72
750.33	245.54
750.65	245.32
750.98	244.98
751.31	244.78
751.64	244.58
751.97	244.42
752.29	244.19
752.62	243.92
752.95	243.69
753.28	243.46
753.60	243.26
753.93	243.07
754.26	242.86
754.59	242.65
754.91	242.45
755.24	242.25
755.57	242.05
755.90	241.86
756.22	241.66
756.55	241.45
756.88	241.29
757.20	241.07
757.53	240.86
757.86	240.69
758.19	240.53
758.51	240.37
758.84	240.16
759.17	239.99
759.49	239.84
759.82	239.72
760.15	239.55
760.47	239.41
760.80	239.22
761.13	239.13
761.45	238.98
761.78	238.82
762.11	238.69
762.43	238.55
762.76	238.41
763.08	238.30
763.41	238.21
763.74	238.07
764.06	237.92
764.39	237.78
764.71	237.61
765.04	237.48
765.37	237.36
765.69	237.23
766.02	237.10
766.34	236.99
766.67	236.84
767.00	236.76
767.32	236.68
767.65	236.64
767.97	236.50
768.30	236.39
768.62	236.29
768.95	236.16
769.27	236.08
769.60	236.00
769.92	235.87
770.25	235.74
770.57	235.68
770.90	235.55
771.22	235.43
771.55	235.39
771.87	235.30
772.20	235.20
772.52	235.21
772.85	235.23
773.17	235.13
773.50	235.03
773.82	234.91
774.15	234.80
774.47	234.66
774.80	234.58
775.12	234.48
775.45	234.41
775.77	234.32
776.09	234.25
776.42	234.17
776.74	234.09
777.07	234.00
777.39	233.93
777.72	233.83
778.04	233.79
778.36	233.69
778.69	233.66
779.01	233.60
779.33	233.44
779.66	233.29
779.98	233.20
780.31	233.16
780.63	233.14
780.95	233.06
781.28	232.98
781.60	232.89
781.92	232.85
782.25	232.80
782.57	232.75
782.89	232.64
783.22	232.57
783.54	232.49
783.86	232.42
784.19	232.36
784.51	232.38
784.83	232.32
785.16	232.25
785.48	232.17
785.80	232.10
786.12	232.05
786.45	231.96
786.77	231.93
787.09	231.85
