SpectraSuite Data File
++++++++++++++++++++++++++++++++++++
Date: Fri Feb 01 14:55:45 EST 2013
User: group
Dark Spectrum Present: No
Reference Spectrum Present: No
Number of Sampled Component Spectra: 1
Spectrometers: USB2E7196
Integration Time (usec): 35000 (USB2E7196)
Spectra Averaged: 100 (USB2E7196)
Boxcar Smoothing: 10 (USB2E7196)
Correct for Electrical Dark: No (USB2E7196)
Strobe/Lamp Enabled: No (USB2E7196)
Correct for Detector Non-linearity: No (USB2E7196)
Correct for Stray Light: No (USB2E7196)
Number of Pixels in Processed Spectrum: 2048
>>>>>Begin Processed Spectral Data<<<<<
339.09	0.00
339.48	215.03
339.86	216.97
340.24	217.66
340.63	219.36
341.01	221.93
341.39	222.10
341.78	223.64
342.16	224.44
342.54	225.26
342.93	213.58
343.31	224.37
343.69	224.93
344.07	225.37
344.46	225.83
344.84	226.24
345.22	226.46
345.60	226.71
345.99	226.88
346.37	227.04
346.75	227.16
347.13	227.23
347.52	227.26
347.90	227.30
348.28	227.33
348.66	227.36
349.05	227.33
349.43	227.35
349.81	227.39
350.19	227.43
350.57	227.48
350.96	227.54
351.34	227.61
351.72	227.69
352.10	227.80
352.48	227.84
352.87	227.89
353.25	227.97
353.63	228.04
354.01	228.11
354.39	228.18
354.77	228.24
355.15	228.37
355.54	228.41
355.92	228.48
356.30	228.59
356.68	228.69
357.06	228.79
357.44	228.83
357.82	228.86
358.20	228.91
358.58	228.94
358.97	229.01
359.35	229.11
359.73	229.15
360.11	229.20
360.49	229.24
360.87	229.27
361.25	229.34
361.63	229.41
362.01	229.45
362.39	229.44
362.77	229.47
363.15	229.46
363.53	229.49
363.91	229.49
364.29	229.46
364.67	229.41
365.05	229.44
365.43	229.47
365.81	229.48
366.19	229.52
366.57	229.62
366.95	229.57
367.33	229.52
367.71	229.49
368.09	229.50
368.47	229.48
368.85	229.47
369.23	229.47
369.61	229.40
369.99	229.35
370.37	229.35
370.75	229.34
371.13	229.27
371.51	229.24
371.89	229.19
372.27	229.14
372.65	229.08
373.03	228.99
373.41	228.92
373.78	228.86
374.16	228.78
374.54	228.68
374.92	228.59
375.30	228.54
375.68	228.49
376.06	228.41
376.44	228.34
376.82	228.25
377.19	228.14
377.57	228.08
377.95	228.00
378.33	227.91
378.71	227.80
379.09	227.73
379.47	227.67
379.84	227.60
380.22	227.53
380.60	227.44
380.98	227.37
381.36	227.30
381.73	227.23
382.11	227.13
382.49	227.05
382.87	226.99
383.25	226.91
383.62	226.94
384.00	226.86
384.38	226.78
384.76	226.76
385.13	226.73
385.51	226.68
385.89	226.65
386.27	226.65
386.64	226.60
387.02	226.55
387.40	226.51
387.78	226.47
388.15	226.45
388.53	226.44
388.91	226.40
389.29	226.40
389.66	226.36
390.04	226.39
390.42	226.37
390.79	226.40
391.17	226.37
391.55	226.29
391.92	226.28
392.30	226.33
392.68	226.33
393.05	226.33
393.43	226.33
393.81	226.35
394.18	226.30
394.56	226.37
394.94	226.43
395.31	226.45
395.69	226.52
396.06	226.55
396.44	226.61
396.82	226.64
397.19	226.74
397.57	226.82
397.95	226.87
398.32	226.93
398.70	227.01
399.07	227.11
399.45	227.18
399.82	227.28
400.20	227.33
400.58	227.43
400.95	227.50
401.33	227.61
401.70	227.79
402.08	227.93
402.45	228.03
402.83	228.13
403.20	228.28
403.58	228.38
403.95	228.53
404.33	228.66
404.71	228.82
405.08	229.02
405.46	229.15
405.83	229.30
406.21	229.47
406.58	229.66
406.96	229.85
407.33	230.03
407.70	230.22
408.08	230.52
408.45	230.73
408.83	230.99
409.20	231.20
409.58	231.36
409.95	231.59
410.33	231.86
410.70	232.15
411.08	232.41
411.45	232.72
411.82	233.02
412.20	233.42
412.57	233.85
412.95	234.11
413.32	234.56
413.69	234.97
414.07	235.40
414.44	235.86
414.82	236.32
415.19	236.90
415.56	237.45
415.94	237.96
416.31	238.59
416.68	239.22
417.06	239.94
417.43	240.65
417.81	241.40
418.18	242.18
418.55	243.00
418.93	243.90
419.30	244.82
419.67	245.73
420.04	246.64
420.42	247.62
420.79	248.81
421.16	249.94
421.54	251.12
421.91	252.32
422.28	253.57
422.66	254.92
423.03	256.17
423.40	257.51
423.77	258.92
424.15	260.31
424.52	261.79
424.89	263.37
425.26	264.89
425.64	266.32
426.01	267.90
426.38	269.55
426.75	271.15
427.13	272.85
427.50	274.70
427.87	276.56
428.24	278.39
428.61	280.13
428.99	282.06
429.36	284.17
429.73	286.25
430.10	288.27
430.47	290.32
430.85	292.44
431.22	294.67
431.59	297.06
431.96	299.33
432.33	301.79
432.70	304.20
433.08	307.06
433.45	309.73
433.82	312.39
434.19	315.33
434.56	318.20
434.93	320.85
435.30	323.46
435.68	326.36
436.05	329.22
436.42	332.01
436.79	334.54
437.16	337.23
437.53	340.03
437.90	342.81
438.27	345.53
438.64	348.38
439.01	351.03
439.38	353.27
439.75	355.45
440.13	357.99
440.50	360.30
440.87	362.13
441.24	364.09
441.61	366.25
441.98	367.70
442.35	369.50
442.72	371.42
443.09	373.22
443.46	374.24
443.83	374.82
444.20	375.35
444.57	376.18
444.94	376.50
445.31	376.89
445.68	377.26
446.05	377.34
446.42	376.97
446.79	376.53
447.16	376.11
447.53	375.83
447.90	374.63
448.27	373.52
448.64	372.00
449.01	370.81
449.37	368.76
449.74	366.85
450.11	364.57
450.48	362.08
450.85	359.55
451.22	357.41
451.59	355.40
451.96	353.44
452.33	350.82
452.70	348.44
453.07	345.58
453.43	342.69
453.80	339.92
454.17	337.22
454.54	334.66
454.91	331.90
455.28	329.18
455.65	326.67
456.02	324.16
456.38	321.96
456.75	319.33
457.12	317.15
457.49	314.95
457.86	312.79
458.23	310.88
458.59	308.84
458.96	306.73
459.33	304.85
459.70	302.99
460.07	301.49
460.43	299.76
460.80	298.13
461.17	296.66
461.54	295.20
461.91	293.78
462.27	292.29
462.64	291.04
463.01	289.68
463.38	288.37
463.74	287.04
464.11	285.86
464.48	284.83
464.85	283.72
465.21	282.85
465.58	281.89
465.95	280.81
466.32	279.89
466.68	278.98
467.05	278.06
467.42	277.17
467.78	276.18
468.15	275.29
468.52	274.60
468.88	273.75
469.25	272.93
469.62	272.28
469.98	271.61
470.35	270.97
470.72	270.36
471.08	269.71
471.45	269.16
471.82	268.60
472.18	267.99
472.55	267.51
472.92	266.97
473.28	266.50
473.65	266.05
474.02	265.57
474.38	265.19
474.75	264.85
475.11	264.48
475.48	264.22
475.85	264.01
476.21	263.76
476.58	263.56
476.94	263.41
477.31	263.25
477.67	263.06
478.04	262.95
478.41	262.87
478.77	262.90
479.14	262.79
479.50	262.81
479.87	262.85
480.23	262.90
480.60	262.96
480.96	263.04
481.33	263.24
481.69	263.44
482.06	263.62
482.42	263.81
482.79	264.04
483.15	264.37
483.52	264.75
483.88	265.09
484.25	265.49
484.61	265.91
484.98	266.34
485.34	266.91
485.71	267.51
486.07	268.07
486.44	268.62
486.80	269.35
487.17	270.03
487.53	270.82
487.90	271.64
488.26	272.56
488.62	273.54
488.99	274.52
489.35	275.53
489.72	276.63
490.08	277.83
490.44	279.09
490.81	280.39
491.17	281.71
491.54	283.18
491.90	284.71
492.26	286.37
492.63	288.11
492.99	289.87
493.36	291.72
493.72	293.82
494.08	295.89
494.45	298.13
494.81	300.47
495.17	302.92
495.54	305.53
495.90	308.18
496.26	310.98
496.63	313.90
496.99	317.05
497.35	320.27
497.72	323.67
498.08	327.15
498.44	330.83
498.80	334.72
499.17	338.76
499.53	342.90
499.89	347.24
500.26	351.71
500.62	356.37
500.98	361.33
501.34	366.33
501.71	371.64
502.07	377.03
502.43	382.66
502.79	388.44
503.16	394.47
503.52	400.74
503.88	407.12
504.24	413.73
504.60	420.57
504.97	427.71
505.33	435.00
505.69	442.67
506.05	450.41
506.41	458.24
506.78	466.38
507.14	474.82
507.50	483.51
507.86	492.51
508.22	501.64
508.59	510.76
508.95	520.37
509.31	530.18
509.67	540.23
510.03	550.45
510.39	561.04
510.75	571.87
511.12	582.76
511.48	594.08
511.84	605.50
512.20	617.01
512.56	628.95
512.92	641.13
513.28	653.45
513.64	665.89
514.00	678.56
514.37	691.41
514.73	704.43
515.09	717.47
515.45	730.78
515.81	744.36
516.17	758.43
516.53	772.48
516.89	786.68
517.25	800.96
517.61	815.41
517.97	829.84
518.33	844.27
518.69	859.06
519.05	874.05
519.41	889.26
519.77	904.78
520.13	920.15
520.49	935.53
520.85	951.02
521.21	966.86
521.57	983.23
521.93	999.06
522.29	1015.51
522.65	1031.90
523.01	1048.14
523.37	1064.28
523.73	1080.49
524.09	1096.59
524.45	1112.95
524.81	1129.60
525.17	1146.54
525.53	1163.50
525.89	1180.43
526.25	1197.27
526.61	1213.75
526.97	1230.49
527.33	1247.06
527.68	1263.87
528.04	1280.54
528.40	1297.24
528.76	1314.42
529.12	1331.05
529.48	1347.95
529.84	1364.13
530.20	1380.78
530.56	1397.92
530.91	1415.49
531.27	1432.28
531.63	1448.87
531.99	1465.57
532.35	1481.62
532.71	1497.56
533.07	1513.92
533.42	1529.79
533.78	1545.95
534.14	1562.19
534.50	1577.67
534.86	1593.60
535.21	1608.81
535.57	1624.74
535.93	1640.27
536.29	1655.14
536.65	1670.31
537.00	1685.29
537.36	1700.63
537.72	1715.35
538.08	1729.76
538.44	1743.32
538.79	1757.47
539.15	1771.31
539.51	1785.15
539.87	1799.66
540.22	1813.46
540.58	1827.34
540.94	1840.88
541.29	1853.84
541.65	1866.72
542.01	1880.05
542.37	1892.50
542.72	1905.17
543.08	1916.95
543.44	1929.51
543.79	1940.73
544.15	1951.74
544.51	1963.36
544.87	1974.34
545.22	1985.01
545.58	1995.32
545.94	2005.24
546.29	2015.01
546.65	2024.85
547.01	2034.01
547.36	2042.72
547.72	2051.16
548.07	2059.02
548.43	2067.13
548.79	2075.18
549.14	2082.75
549.50	2090.20
549.86	2097.99
550.21	2105.07
550.57	2112.26
550.92	2118.68
551.28	2125.70
551.64	2132.81
551.99	2139.36
552.35	2145.50
552.70	2151.60
553.06	2157.49
553.41	2163.88
553.77	2169.85
554.13	2175.89
554.48	2182.04
554.84	2187.42
555.19	2192.66
555.55	2197.66
555.90	2202.07
556.26	2206.87
556.61	2211.45
556.97	2215.61
557.32	2219.73
557.68	2223.86
558.03	2228.18
558.39	2231.90
558.74	2236.41
559.10	2240.10
559.45	2243.63
559.81	2247.98
560.16	2251.81
560.52	2254.99
560.87	2258.38
561.23	2261.09
561.58	2263.98
561.94	2266.41
562.29	2268.74
562.64	2271.31
563.00	2273.77
563.35	2277.18
563.71	2280.26
564.06	2283.51
564.42	2286.29
564.77	2288.36
565.12	2290.49
565.48	2292.17
565.83	2293.89
566.19	2295.15
566.54	2296.10
566.89	2297.14
567.25	2297.37
567.60	2298.56
567.96	2300.10
568.31	2300.85
568.66	2301.72
569.02	2302.25
569.37	2302.39
569.72	2303.13
570.08	2303.13
570.43	2303.02
570.78	2302.20
571.14	2300.54
571.49	2298.93
571.84	2298.43
572.20	2297.26
572.55	2296.01
572.90	2294.37
573.26	2292.80
573.61	2290.86
573.96	2288.74
574.31	2285.55
574.67	2282.42
575.02	2278.65
575.37	2275.10
575.72	2271.09
576.08	2267.61
576.43	2264.11
576.78	2260.40
577.13	2257.07
577.49	2253.98
577.84	2250.35
578.19	2246.63
578.54	2242.66
578.90	2238.32
579.25	2232.64
579.60	2227.41
579.95	2222.26
580.30	2217.01
580.66	2211.72
581.01	2206.60
581.36	2201.60
581.71	2197.25
582.06	2192.65
582.42	2187.96
582.77	2182.46
583.12	2177.75
583.47	2172.73
583.82	2167.51
584.17	2162.03
584.53	2156.27
584.88	2150.40
585.23	2144.54
585.58	2138.84
585.93	2133.37
586.28	2128.60
586.63	2123.19
586.98	2118.07
587.34	2113.40
587.69	2108.45
588.04	2102.95
588.39	2097.24
588.74	2090.80
589.09	2084.43
589.44	2077.48
589.79	2071.34
590.14	2065.65
590.49	2058.96
590.84	2052.53
591.19	2046.24
591.54	2039.56
591.89	2031.99
592.25	2024.97
592.60	2017.65
592.95	2010.01
593.30	2002.61
593.65	1994.56
594.00	1987.45
594.35	1980.20
594.70	1972.00
595.05	1964.62
595.40	1957.31
595.75	1949.71
596.10	1943.16
596.45	1936.36
596.80	1930.13
597.15	1923.40
597.50	1916.18
597.85	1909.57
598.19	1902.86
598.54	1895.75
598.89	1889.05
599.24	1883.18
599.59	1876.42
599.94	1870.15
600.29	1863.76
600.64	1857.08
600.99	1849.70
601.34	1842.89
601.69	1835.90
602.04	1828.83
602.39	1821.45
602.74	1814.67
603.08	1807.94
603.43	1801.32
603.78	1794.01
604.13	1786.75
604.48	1779.52
604.83	1772.75
605.18	1765.80
605.53	1757.83
605.87	1749.93
606.22	1742.79
606.57	1734.81
606.92	1727.61
607.27	1720.43
607.62	1713.39
607.96	1706.02
608.31	1699.44
608.66	1691.75
609.01	1684.15
609.36	1676.67
609.70	1668.64
610.05	1660.52
610.40	1652.80
610.75	1644.44
611.10	1636.86
611.44	1628.58
611.79	1620.51
612.14	1611.80
612.49	1602.64
612.83	1594.27
613.18	1586.10
613.53	1578.09
613.88	1569.68
614.22	1561.41
614.57	1552.87
614.92	1544.99
615.27	1537.50
615.61	1529.12
615.96	1521.26
616.31	1513.61
616.65	1506.31
617.00	1498.89
617.35	1491.24
617.70	1482.85
618.04	1474.39
618.39	1466.21
618.74	1458.68
619.08	1450.45
619.43	1442.92
619.78	1436.19
620.12	1429.00
620.47	1421.57
620.82	1413.41
621.16	1406.00
621.51	1398.43
621.85	1390.87
622.20	1382.37
622.55	1374.09
622.89	1366.34
623.24	1358.75
623.59	1351.57
623.93	1344.10
624.28	1336.80
624.62	1329.29
624.97	1322.18
625.32	1315.58
625.66	1308.63
626.01	1301.38
626.35	1294.03
626.70	1286.36
627.04	1278.59
627.39	1270.92
627.73	1263.52
628.08	1256.66
628.43	1249.39
628.77	1242.10
629.12	1234.56
629.46	1227.43
629.81	1220.16
630.15	1213.07
630.50	1205.66
630.84	1197.44
631.19	1189.53
631.53	1182.09
631.88	1174.66
632.22	1167.28
632.57	1160.02
632.91	1152.53
633.26	1145.29
633.60	1138.01
633.95	1131.07
634.29	1124.21
634.64	1117.62
634.98	1110.31
635.32	1103.29
635.67	1096.84
636.01	1090.25
636.36	1083.50
636.70	1077.04
637.05	1070.52
637.39	1064.06
637.73	1057.67
638.08	1051.83
638.42	1045.95
638.77	1039.58
639.11	1033.02
639.45	1026.61
639.80	1019.95
640.14	1013.50
640.49	1006.91
640.83	1000.64
641.17	994.35
641.52	987.96
641.86	981.59
642.20	975.80
642.55	969.54
642.89	963.03
643.23	956.52
643.58	950.78
643.92	944.64
644.26	938.57
644.61	932.58
644.95	926.54
645.29	920.01
645.64	913.27
645.98	907.08
646.32	901.33
646.66	895.30
647.01	889.57
647.35	883.97
647.69	878.25
648.04	872.81
648.38	867.02
648.72	861.01
649.06	854.88
649.41	849.09
649.75	843.05
650.09	837.21
650.43	831.43
650.78	825.33
651.12	819.42
651.46	813.73
651.80	808.00
652.14	802.69
652.49	797.32
652.83	792.22
653.17	786.56
653.51	780.92
653.85	775.59
654.20	769.96
654.54	764.03
654.88	758.33
655.22	752.47
655.56	746.91
655.90	741.59
656.25	736.46
656.59	731.09
656.93	726.06
657.27	720.97
657.61	715.57
657.95	710.59
658.29	705.60
658.64	700.44
658.98	695.26
659.32	689.78
659.66	684.65
660.00	679.37
660.34	674.43
660.68	669.57
661.02	664.56
661.36	659.86
661.70	655.37
662.05	651.06
662.39	646.74
662.73	642.26
663.07	637.94
663.41	633.49
663.75	629.03
664.09	624.57
664.43	620.13
664.77	616.05
665.11	611.74
665.45	607.66
665.79	603.60
666.13	599.47
666.47	595.43
666.81	591.27
667.15	587.21
667.49	583.33
667.83	579.50
668.17	575.61
668.51	571.57
668.85	567.60
669.19	563.74
669.53	559.96
669.87	556.14
670.21	552.44
670.55	548.81
670.89	545.38
671.23	541.94
671.57	538.48
671.91	535.00
672.25	531.62
672.58	528.10
672.92	524.70
673.26	521.60
673.60	518.50
673.94	515.50
674.28	512.66
674.62	509.70
674.96	506.60
675.30	503.67
675.64	500.80
675.97	498.05
676.31	495.21
676.65	492.31
676.99	489.62
677.33	486.73
677.67	483.95
678.01	480.93
678.34	477.96
678.68	475.15
679.02	472.32
679.36	469.59
679.70	466.89
680.04	464.13
680.37	461.23
680.71	458.49
681.05	455.79
681.39	453.09
681.73	450.50
682.06	448.02
682.40	445.60
682.74	443.10
683.08	440.61
683.42	438.05
683.75	435.57
684.09	433.10
684.43	430.72
684.77	428.30
685.10	426.08
685.44	423.88
685.78	421.58
686.12	419.37
686.45	417.06
686.79	414.78
687.13	412.64
687.46	410.55
687.80	408.42
688.14	406.29
688.48	404.19
688.81	401.95
689.15	399.83
689.49	397.66
689.82	395.59
690.16	393.51
690.50	391.53
690.83	389.63
691.17	387.63
691.51	385.76
691.84	383.98
692.18	382.02
692.52	380.01
692.85	378.11
693.19	376.27
693.52	374.50
693.86	372.72
694.20	370.96
694.53	369.19
694.87	367.35
695.21	365.59
695.54	363.79
695.88	362.09
696.21	360.35
696.55	358.72
696.88	357.03
697.22	355.38
697.56	353.81
697.89	352.16
698.23	350.56
698.56	348.94
698.90	347.34
699.23	345.72
699.57	344.19
699.90	342.65
700.24	341.10
700.58	339.56
700.91	338.05
701.25	336.64
701.58	335.28
701.92	333.94
702.25	332.58
702.59	331.24
702.92	329.94
703.26	328.70
703.59	327.39
703.93	326.25
704.26	325.02
704.60	323.73
704.93	322.45
705.26	321.25
705.60	320.08
705.93	318.92
706.27	317.88
706.60	316.78
706.94	315.76
707.27	314.63
707.61	313.59
707.94	312.56
708.27	311.50
708.61	310.40
708.94	309.40
709.28	308.42
709.61	307.49
709.94	306.56
710.28	305.54
710.61	304.58
710.95	303.51
711.28	302.62
711.61	301.69
711.95	300.77
712.28	299.79
712.61	298.80
712.95	297.89
713.28	297.04
713.61	296.15
713.95	295.28
714.28	294.48
714.61	293.64
714.95	292.84
715.28	291.97
715.61	291.11
715.95	290.23
716.28	289.39
716.61	288.56
716.95	287.75
717.28	287.02
717.61	286.25
717.94	285.54
718.28	284.75
718.61	284.04
718.94	283.37
719.27	282.73
719.61	282.13
719.94	281.46
720.27	280.71
720.60	280.10
720.94	279.46
721.27	278.87
721.60	278.32
721.93	277.71
722.27	277.19
722.60	276.66
722.93	276.12
723.26	275.58
723.59	275.04
723.93	274.51
724.26	273.95
724.59	273.41
724.92	272.86
725.25	272.37
725.59	271.85
725.92	271.36
726.25	270.85
726.58	270.34
726.91	269.85
727.24	269.42
727.57	268.93
727.91	268.41
728.24	267.91
728.57	267.42
728.90	266.97
729.23	266.46
729.56	266.02
729.89	265.59
730.22	265.11
730.55	264.67
730.89	264.22
731.22	263.78
731.55	263.32
731.88	262.90
732.21	262.48
732.54	262.04
732.87	261.61
733.20	261.27
733.53	260.89
733.86	260.50
734.19	260.06
734.52	259.70
734.85	259.42
735.18	259.02
735.51	258.66
735.84	258.25
736.17	257.94
736.50	257.54
736.83	257.30
737.16	256.98
737.49	256.60
737.82	256.27
738.15	255.96
738.48	255.63
738.81	255.31
739.14	254.97
739.47	254.70
739.80	254.40
740.13	254.05
740.46	253.73
740.79	253.43
741.12	253.15
741.45	252.81
741.78	252.47
742.11	252.21
742.44	251.87
742.77	251.63
743.10	251.31
743.43	251.01
743.75	250.60
744.08	250.45
744.41	250.21
744.74	249.92
745.07	249.61
745.40	249.39
745.73	249.17
746.06	248.89
746.39	248.62
746.71	248.34
747.04	248.09
747.37	247.81
747.70	247.53
748.03	247.28
748.36	247.09
748.68	246.83
749.01	246.57
749.34	246.38
749.67	246.15
750.00	245.92
750.33	245.75
750.65	245.56
750.98	245.21
751.31	245.00
751.64	244.79
751.97	244.63
752.29	244.40
752.62	244.16
752.95	243.96
753.28	243.71
753.60	243.55
753.93	243.36
754.26	243.17
754.59	242.99
754.91	242.80
755.24	242.60
755.57	242.41
755.90	242.23
756.22	242.02
756.55	241.84
756.88	241.66
757.20	241.42
757.53	241.23
757.86	241.07
758.19	240.90
758.51	240.73
758.84	240.49
759.17	240.31
759.49	240.14
759.82	240.04
760.15	239.91
760.47	239.75
760.80	239.54
761.13	239.41
761.45	239.27
761.78	239.11
762.11	238.94
762.43	238.79
762.76	238.65
763.08	238.53
763.41	238.36
763.74	238.25
764.06	238.12
764.39	237.95
764.71	237.81
765.04	237.69
765.37	237.56
765.69	237.48
766.02	237.36
766.34	237.25
766.67	237.10
767.00	236.99
767.32	236.93
767.65	236.93
767.97	236.79
768.30	236.70
768.62	236.63
768.95	236.51
769.27	236.42
769.60	236.31
769.92	236.19
770.25	236.09
770.57	235.97
770.90	235.84
771.22	235.76
771.55	235.66
771.87	235.57
772.20	235.49
772.52	235.46
772.85	235.50
773.17	235.39
773.50	235.28
773.82	235.18
774.15	235.01
774.47	234.83
774.80	234.75
775.12	234.63
775.45	234.53
775.77	234.48
776.09	234.39
776.42	234.31
776.74	234.26
777.07	234.16
777.39	234.12
777.72	234.04
778.04	233.97
778.36	233.91
778.69	233.80
779.01	233.74
779.33	233.58
779.66	233.36
779.98	233.29
780.31	233.22
780.63	233.20
780.95	233.17
781.28	233.10
781.60	233.04
781.92	232.96
782.25	232.87
782.57	232.80
782.89	232.73
783.22	232.65
783.54	232.57
783.86	232.53
784.19	232.41
784.51	232.40
784.83	232.32
785.16	232.24
785.48	232.20
785.80	232.14
786.12	232.07
786.45	232.01
786.77	231.97
787.09	231.91
