SpectraSuite Data File
++++++++++++++++++++++++++++++++++++
Date: Fri Feb 01 15:10:07 EST 2013
User: group
Dark Spectrum Present: No
Reference Spectrum Present: No
Number of Sampled Component Spectra: 1
Spectrometers: USB2E7196
Integration Time (usec): 35000 (USB2E7196)
Spectra Averaged: 100 (USB2E7196)
Boxcar Smoothing: 10 (USB2E7196)
Correct for Electrical Dark: No (USB2E7196)
Strobe/Lamp Enabled: No (USB2E7196)
Correct for Detector Non-linearity: No (USB2E7196)
Correct for Stray Light: No (USB2E7196)
Number of Pixels in Processed Spectrum: 2048
>>>>>Begin Processed Spectral Data<<<<<
339.09	0.00
339.48	215.46
339.86	216.83
340.24	218.59
340.63	219.62
341.01	222.47
341.39	222.35
341.78	223.71
342.16	224.74
342.54	225.75
342.93	213.61
343.31	224.40
343.69	224.92
344.07	225.36
344.46	225.76
344.84	226.14
345.22	226.37
345.60	226.57
345.99	226.75
346.37	226.87
346.75	226.92
347.13	226.99
347.52	227.05
347.90	227.11
348.28	227.09
348.66	227.12
349.05	227.10
349.43	227.14
349.81	227.15
350.19	227.19
350.57	227.23
350.96	227.30
351.34	227.40
351.72	227.50
352.10	227.59
352.48	227.67
352.87	227.71
353.25	227.78
353.63	227.88
354.01	227.91
354.39	227.98
354.77	228.07
355.15	228.18
355.54	228.24
355.92	228.29
356.30	228.42
356.68	228.55
357.06	228.60
357.44	228.65
357.82	228.76
358.20	228.84
358.58	228.91
358.97	228.99
359.35	229.05
359.73	229.10
360.11	229.19
360.49	229.23
360.87	229.26
361.25	229.30
361.63	229.38
362.01	229.46
362.39	229.49
362.77	229.55
363.15	229.56
363.53	229.62
363.91	229.61
364.29	229.64
364.67	229.57
365.05	229.62
365.43	229.65
365.81	229.63
366.19	229.70
366.57	229.73
366.95	229.72
367.33	229.69
367.71	229.69
368.09	229.66
368.47	229.67
368.85	229.66
369.23	229.66
369.61	229.58
369.99	229.57
370.37	229.57
370.75	229.60
371.13	229.53
371.51	229.45
371.89	229.45
372.27	229.37
372.65	229.34
373.03	229.25
373.41	229.21
373.78	229.16
374.16	229.03
374.54	228.91
374.92	228.86
375.30	228.77
375.68	228.70
376.06	228.68
376.44	228.58
376.82	228.51
377.19	228.45
377.57	228.37
377.95	228.27
378.33	228.18
378.71	227.99
379.09	227.95
379.47	227.89
379.84	227.78
380.22	227.69
380.60	227.58
380.98	227.53
381.36	227.47
381.73	227.37
382.11	227.33
382.49	227.27
382.87	227.19
383.25	227.11
383.62	227.15
384.00	227.04
384.38	226.98
384.76	226.94
385.13	226.89
385.51	226.85
385.89	226.81
386.27	226.71
386.64	226.69
387.02	226.63
387.40	226.58
387.78	226.55
388.15	226.53
388.53	226.50
388.91	226.46
389.29	226.41
389.66	226.41
390.04	226.36
390.42	226.38
390.79	226.36
391.17	226.38
391.55	226.26
391.92	226.25
392.30	226.26
392.68	226.23
393.05	226.25
393.43	226.25
393.81	226.24
394.18	226.24
394.56	226.29
394.94	226.31
395.31	226.31
395.69	226.36
396.06	226.38
396.44	226.43
396.82	226.46
397.19	226.53
397.57	226.55
397.95	226.63
398.32	226.63
398.70	226.74
399.07	226.84
399.45	226.92
399.82	226.99
400.20	227.01
400.58	227.12
400.95	227.15
401.33	227.24
401.70	227.41
402.08	227.54
402.45	227.62
402.83	227.78
403.20	227.91
403.58	228.03
403.95	228.19
404.33	228.31
404.71	228.46
405.08	228.64
405.46	228.81
405.83	228.97
406.21	229.14
406.58	229.28
406.96	229.42
407.33	229.56
407.70	229.78
408.08	230.13
408.45	230.33
408.83	230.57
409.20	230.79
409.58	230.98
409.95	231.27
410.33	231.55
410.70	231.74
411.08	232.07
411.45	232.36
411.82	232.67
412.20	233.04
412.57	233.48
412.95	233.79
413.32	234.16
413.69	234.55
414.07	234.98
414.44	235.41
414.82	235.89
415.19	236.48
415.56	237.00
415.94	237.51
416.31	238.16
416.68	238.82
417.06	239.56
417.43	240.19
417.81	240.92
418.18	241.72
418.55	242.59
418.93	243.45
419.30	244.37
419.67	245.32
420.04	246.28
420.42	247.26
420.79	248.43
421.16	249.63
421.54	250.84
421.91	252.06
422.28	253.36
422.66	254.69
423.03	255.94
423.40	257.24
423.77	258.67
424.15	260.06
424.52	261.51
424.89	263.11
425.26	264.70
425.64	266.16
426.01	267.73
426.38	269.41
426.75	271.08
427.13	272.80
427.50	274.59
427.87	276.47
428.24	278.31
428.61	280.06
428.99	281.98
429.36	284.10
429.73	286.18
430.10	288.17
430.47	290.22
430.85	292.38
431.22	294.66
431.59	297.03
431.96	299.31
432.33	301.81
432.70	304.22
433.08	307.01
433.45	309.70
433.82	312.34
434.19	315.18
434.56	318.02
434.93	320.66
435.30	323.30
435.68	326.19
436.05	329.10
436.42	331.91
436.79	334.45
437.16	337.13
437.53	340.00
437.90	342.85
438.27	345.62
438.64	348.47
439.01	351.07
439.38	353.35
439.75	355.49
440.13	358.02
440.50	360.32
440.87	362.19
441.24	364.09
441.61	366.24
441.98	367.74
442.35	369.51
442.72	371.40
443.09	373.20
443.46	374.22
443.83	374.73
444.20	375.23
444.57	376.09
444.94	376.38
445.31	376.71
445.68	377.11
446.05	377.19
446.42	376.80
446.79	376.38
447.16	375.90
447.53	375.60
447.90	374.38
448.27	373.24
448.64	371.65
449.01	370.50
449.37	368.50
449.74	366.62
450.11	364.39
450.48	361.91
450.85	359.36
451.22	357.18
451.59	355.16
451.96	353.25
452.33	350.63
452.70	348.27
453.07	345.45
453.43	342.49
453.80	339.71
454.17	337.00
454.54	334.43
454.91	331.70
455.28	329.05
455.65	326.57
456.02	324.14
456.38	322.00
456.75	319.37
457.12	317.14
457.49	314.91
457.86	312.74
458.23	310.85
458.59	308.83
458.96	306.76
459.33	304.90
459.70	303.03
460.07	301.52
460.43	299.80
460.80	298.17
461.17	296.72
461.54	295.27
461.91	293.86
462.27	292.42
462.64	291.19
463.01	289.83
463.38	288.54
463.74	287.17
464.11	285.98
464.48	284.94
464.85	283.83
465.21	282.96
465.58	282.00
465.95	280.95
466.32	280.01
466.68	279.09
467.05	278.19
467.42	277.28
467.78	276.32
468.15	275.41
468.52	274.71
468.88	273.85
469.25	273.05
469.62	272.44
469.98	271.76
470.35	271.09
470.72	270.47
471.08	269.78
471.45	269.22
471.82	268.66
472.18	268.06
472.55	267.59
472.92	267.04
473.28	266.61
473.65	266.12
474.02	265.67
474.38	265.30
474.75	264.95
475.11	264.62
475.48	264.36
475.85	264.18
476.21	263.94
476.58	263.77
476.94	263.60
477.31	263.37
477.67	263.24
478.04	263.11
478.41	263.08
478.77	263.15
479.14	263.11
479.50	263.13
479.87	263.19
480.23	263.30
480.60	263.38
480.96	263.47
481.33	263.69
481.69	263.91
482.06	264.09
482.42	264.31
482.79	264.51
483.15	264.81
483.52	265.15
483.88	265.49
484.25	265.85
484.61	266.30
484.98	266.76
485.34	267.30
485.71	267.90
486.07	268.43
486.44	268.98
486.80	269.64
487.17	270.35
487.53	271.15
487.90	271.98
488.26	272.92
488.62	273.89
488.99	274.86
489.35	275.90
489.72	277.03
490.08	278.25
490.44	279.51
490.81	280.86
491.17	282.23
491.54	283.69
491.90	285.21
492.26	286.83
492.63	288.55
492.99	290.33
493.36	292.22
493.72	294.31
494.08	296.40
494.45	298.62
494.81	300.94
495.17	303.35
495.54	305.90
495.90	308.58
496.26	311.38
496.63	314.31
496.99	317.41
497.35	320.65
497.72	324.01
498.08	327.50
498.44	331.13
498.80	334.99
499.17	339.03
499.53	343.19
499.89	347.53
500.26	352.05
500.62	356.71
500.98	361.63
501.34	366.69
501.71	371.98
502.07	377.45
502.43	383.09
502.79	388.94
503.16	395.01
503.52	401.26
503.88	407.67
504.24	414.31
504.60	421.16
504.97	428.29
505.33	435.60
505.69	443.28
506.05	451.05
506.41	458.95
506.78	467.15
507.14	475.66
507.50	484.36
507.86	493.38
508.22	502.50
508.59	511.72
508.95	521.26
509.31	531.12
509.67	541.12
510.03	551.45
510.39	562.01
510.75	572.83
511.12	583.73
511.48	595.00
511.84	606.45
512.20	618.04
512.56	629.99
512.92	642.14
513.28	654.48
513.64	666.92
514.00	679.62
514.37	692.51
514.73	705.56
515.09	718.56
515.45	731.83
515.81	745.51
516.17	759.51
516.53	773.64
516.89	787.81
517.25	802.08
517.61	816.43
517.97	830.81
518.33	845.22
518.69	860.05
519.05	875.13
519.41	890.29
519.77	905.82
520.13	921.33
520.49	936.77
520.85	952.31
521.21	968.12
521.57	984.47
521.93	1000.30
522.29	1016.70
522.65	1033.14
523.01	1049.47
523.37	1065.53
523.73	1081.79
524.09	1097.94
524.45	1114.30
524.81	1131.04
525.17	1148.00
525.53	1164.99
525.89	1182.01
526.25	1198.86
526.61	1215.19
526.97	1232.09
527.33	1248.70
527.68	1265.29
528.04	1281.89
528.40	1298.47
528.76	1315.57
529.12	1332.05
529.48	1349.08
529.84	1365.18
530.20	1381.88
530.56	1398.92
530.91	1416.38
531.27	1433.06
531.63	1449.66
531.99	1466.28
532.35	1482.31
532.71	1498.15
533.07	1514.48
533.42	1530.42
533.78	1546.48
534.14	1562.93
534.50	1578.19
534.86	1594.04
535.21	1609.32
535.57	1625.38
535.93	1640.98
536.29	1655.85
536.65	1671.13
537.00	1685.80
537.36	1701.24
537.72	1715.83
538.08	1730.39
538.44	1744.28
538.79	1758.43
539.15	1772.26
539.51	1786.17
539.87	1800.61
540.22	1814.57
540.58	1828.49
540.94	1842.02
541.29	1855.17
541.65	1868.07
542.01	1881.44
542.37	1893.78
542.72	1906.19
543.08	1917.89
543.44	1930.39
543.79	1941.67
544.15	1952.70
544.51	1964.44
544.87	1975.47
545.22	1986.23
545.58	1996.26
545.94	2006.07
546.29	2015.87
546.65	2025.51
547.01	2034.69
547.36	2043.42
547.72	2051.81
548.07	2059.63
548.43	2067.65
548.79	2075.73
549.14	2083.08
549.50	2090.51
549.86	2098.40
550.21	2105.81
550.57	2113.19
550.92	2119.72
551.28	2126.79
551.64	2133.90
551.99	2140.39
552.35	2146.43
552.70	2152.62
553.06	2158.72
553.41	2165.02
553.77	2171.14
554.13	2177.28
554.48	2183.41
554.84	2188.78
555.19	2194.17
555.55	2199.29
555.90	2203.86
556.26	2208.58
556.61	2213.31
556.97	2217.41
557.32	2221.45
557.68	2225.60
558.03	2229.69
558.39	2233.38
558.74	2237.91
559.10	2241.66
559.45	2245.34
559.81	2249.58
560.16	2253.29
560.52	2256.54
560.87	2260.06
561.23	2262.59
561.58	2265.61
561.94	2268.14
562.29	2270.62
562.64	2273.17
563.00	2275.83
563.35	2279.21
563.71	2282.26
564.06	2285.33
564.42	2288.18
564.77	2290.54
565.12	2292.70
565.48	2294.41
565.83	2296.20
566.19	2297.51
566.54	2298.49
566.89	2299.56
567.25	2300.18
567.60	2301.52
567.96	2303.09
568.31	2303.86
568.66	2304.96
569.02	2305.48
569.37	2305.63
569.72	2306.20
570.08	2306.24
570.43	2306.03
570.78	2305.30
571.14	2303.73
571.49	2302.41
571.84	2302.04
572.20	2300.65
572.55	2299.52
572.90	2298.03
573.26	2296.55
573.61	2294.61
573.96	2292.54
574.31	2289.41
574.67	2286.12
575.02	2282.31
575.37	2278.78
575.72	2274.72
576.08	2271.32
576.43	2267.84
576.78	2264.15
577.13	2261.04
577.49	2257.88
577.84	2254.38
578.19	2250.58
578.54	2246.79
578.90	2242.43
579.25	2236.69
579.60	2231.87
579.95	2226.70
580.30	2221.44
580.66	2216.13
581.01	2211.17
581.36	2206.23
581.71	2201.91
582.06	2197.40
582.42	2192.76
582.77	2187.45
583.12	2182.69
583.47	2177.61
583.82	2172.44
584.17	2167.10
584.53	2161.46
584.88	2155.81
585.23	2149.85
585.58	2144.23
585.93	2138.77
586.28	2133.85
586.63	2128.63
586.98	2123.32
587.34	2118.45
587.69	2113.53
588.04	2108.21
588.39	2102.40
588.74	2095.94
589.09	2089.75
589.44	2082.91
589.79	2076.88
590.14	2071.23
590.49	2064.71
590.84	2058.34
591.19	2052.19
591.54	2045.52
591.89	2037.90
592.25	2030.96
592.60	2023.63
592.95	2015.97
593.30	2008.45
593.65	2000.80
594.00	1993.91
594.35	1986.55
594.70	1978.59
595.05	1971.31
595.40	1963.99
595.75	1956.48
596.10	1950.02
596.45	1943.04
596.80	1936.81
597.15	1930.18
597.50	1922.89
597.85	1916.47
598.19	1909.80
598.54	1902.73
598.89	1896.16
599.24	1890.31
599.59	1883.49
599.94	1877.26
600.29	1870.91
600.64	1864.38
600.99	1856.84
601.34	1849.82
601.69	1842.93
602.04	1835.91
602.39	1828.53
602.74	1821.58
603.08	1814.79
603.43	1808.13
603.78	1800.95
604.13	1793.69
604.48	1786.16
604.83	1779.34
605.18	1772.18
605.53	1764.11
605.87	1756.01
606.22	1748.74
606.57	1740.85
606.92	1733.69
607.27	1726.48
607.62	1719.50
607.96	1712.06
608.31	1705.34
608.66	1697.63
609.01	1690.02
609.36	1682.48
609.70	1674.55
610.05	1666.48
610.40	1658.85
610.75	1650.56
611.10	1642.88
611.44	1634.52
611.79	1626.77
612.14	1618.08
612.49	1608.95
612.83	1600.50
613.18	1592.45
613.53	1584.34
613.88	1575.61
614.22	1567.19
614.57	1558.71
614.92	1550.72
615.27	1543.10
615.61	1534.84
615.96	1526.87
616.31	1519.33
616.65	1511.97
617.00	1504.44
617.35	1496.83
617.70	1488.38
618.04	1479.77
618.39	1471.53
618.74	1463.91
619.08	1455.59
619.43	1448.08
619.78	1441.14
620.12	1434.14
620.47	1426.58
620.82	1418.43
621.16	1411.15
621.51	1403.56
621.85	1395.87
622.20	1387.37
622.55	1379.12
622.89	1371.37
623.24	1363.90
623.59	1356.47
623.93	1348.93
624.28	1341.69
624.62	1334.17
624.97	1327.12
625.32	1320.49
625.66	1313.60
626.01	1306.43
626.35	1298.88
626.70	1291.13
627.04	1283.44
627.39	1275.64
627.73	1268.28
628.08	1261.43
628.43	1254.17
628.77	1246.72
629.12	1239.25
629.46	1232.11
629.81	1224.76
630.15	1217.60
630.50	1210.07
630.84	1201.93
631.19	1194.08
631.53	1186.52
631.88	1179.06
632.22	1171.46
632.57	1164.12
632.91	1156.61
633.26	1149.29
633.60	1142.19
633.95	1135.15
634.29	1128.21
634.64	1121.56
634.98	1114.23
635.32	1107.13
635.67	1100.63
636.01	1094.04
636.36	1087.25
636.70	1080.80
637.05	1074.25
637.39	1067.72
637.73	1061.35
638.08	1055.51
638.42	1049.61
638.77	1043.20
639.11	1036.54
639.45	1030.17
639.80	1023.61
640.14	1017.06
640.49	1010.53
640.83	1004.07
641.17	997.83
641.52	991.43
641.86	985.08
642.20	979.27
642.55	973.02
642.89	966.44
643.23	959.99
643.58	954.25
643.92	948.04
644.26	941.91
644.61	936.04
644.95	929.96
645.29	923.36
645.64	916.59
645.98	910.37
646.32	904.60
646.66	898.52
647.01	892.66
647.35	887.00
647.69	881.22
648.04	875.74
648.38	869.96
648.72	863.98
649.06	857.87
649.41	852.00
649.75	845.95
650.09	840.06
650.43	834.20
650.78	828.00
651.12	822.04
651.46	816.44
651.80	810.58
652.14	805.15
652.49	799.78
652.83	794.61
653.17	788.76
653.51	782.99
653.85	777.63
654.20	772.00
654.54	766.03
654.88	760.30
655.22	754.42
655.56	748.72
655.90	743.33
656.25	738.11
656.59	732.71
656.93	727.60
657.27	722.42
657.61	716.99
657.95	712.04
658.29	707.05
658.64	701.75
658.98	696.52
659.32	691.17
659.66	685.98
660.00	680.67
660.34	675.82
660.68	670.97
661.02	665.95
661.36	661.30
661.70	656.80
662.05	652.46
662.39	648.14
662.73	643.72
663.07	639.36
663.41	634.90
663.75	630.42
664.09	625.89
664.43	621.57
664.77	617.47
665.11	613.14
665.45	608.97
665.79	604.93
666.13	600.81
666.47	596.67
666.81	592.46
667.15	588.41
667.49	584.54
667.83	580.82
668.17	576.94
668.51	572.90
668.85	568.89
669.19	565.02
669.53	561.20
669.87	557.35
670.21	553.63
670.55	550.05
670.89	546.67
671.23	543.25
671.57	539.77
671.91	536.31
672.25	532.90
672.58	529.42
672.92	526.04
673.26	522.90
673.60	519.82
673.94	516.78
674.28	513.86
674.62	510.92
674.96	507.74
675.30	504.82
675.64	501.93
675.97	499.24
676.31	496.41
676.65	493.54
676.99	490.87
677.33	488.05
677.67	485.25
678.01	482.23
678.34	479.29
678.68	476.44
679.02	473.58
679.36	470.78
679.70	468.04
680.04	465.25
680.37	462.38
680.71	459.57
681.05	456.99
681.39	454.31
681.73	451.72
682.06	449.26
682.40	446.72
682.74	444.18
683.08	441.56
683.42	438.95
683.75	436.47
684.09	433.90
684.43	431.48
684.77	429.03
685.10	426.70
685.44	424.47
685.78	422.21
686.12	420.02
686.45	417.77
686.79	415.48
687.13	413.36
687.46	411.24
687.80	409.10
688.14	406.91
688.48	404.83
688.81	402.52
689.15	400.37
689.49	398.29
689.82	396.20
690.16	394.23
690.50	392.33
690.83	390.35
691.17	388.37
691.51	386.44
691.84	384.60
692.18	382.67
692.52	380.66
692.85	378.74
693.19	376.82
693.52	375.02
693.86	373.27
694.20	371.45
694.53	369.68
694.87	367.86
695.21	366.08
695.54	364.28
695.88	362.62
696.21	360.87
696.55	359.16
696.88	357.53
697.22	355.79
697.56	354.13
697.89	352.49
698.23	350.91
698.56	349.31
698.90	347.68
699.23	346.03
699.57	344.46
699.90	342.90
700.24	341.42
700.58	339.88
700.91	338.37
701.25	336.95
701.58	335.51
701.92	334.14
702.25	332.76
702.59	331.40
702.92	330.06
703.26	328.77
703.59	327.48
703.93	326.30
704.26	325.11
704.60	323.82
704.93	322.54
705.26	321.34
705.60	320.18
705.93	319.01
706.27	317.96
706.60	316.93
706.94	315.86
707.27	314.71
707.61	313.64
707.94	312.64
708.27	311.53
708.61	310.47
708.94	309.48
709.28	308.52
709.61	307.56
709.94	306.62
710.28	305.62
710.61	304.65
710.95	303.57
711.28	302.69
711.61	301.74
711.95	300.82
712.28	299.85
712.61	298.88
712.95	297.99
713.28	297.11
713.61	296.21
713.95	295.33
714.28	294.51
714.61	293.66
714.95	292.80
715.28	291.95
715.61	291.11
715.95	290.29
716.28	289.43
716.61	288.62
716.95	287.79
717.28	287.07
717.61	286.30
717.94	285.60
718.28	284.78
718.61	284.08
718.94	283.43
719.27	282.79
719.61	282.16
719.94	281.52
720.27	280.82
720.60	280.15
720.94	279.54
721.27	278.95
721.60	278.36
721.93	277.78
722.27	277.27
722.60	276.72
722.93	276.16
723.26	275.63
723.59	275.07
723.93	274.53
724.26	274.00
724.59	273.48
724.92	272.95
725.25	272.45
725.59	271.93
725.92	271.40
726.25	270.89
726.58	270.39
726.91	269.90
727.24	269.44
727.57	268.99
727.91	268.45
728.24	267.95
728.57	267.48
728.90	267.03
729.23	266.51
729.56	266.06
729.89	265.58
730.22	265.08
730.55	264.63
730.89	264.20
731.22	263.71
731.55	263.25
731.88	262.79
732.21	262.37
732.54	261.94
732.87	261.52
733.20	261.10
733.53	260.68
733.86	260.29
734.19	259.86
734.52	259.47
734.85	259.16
735.18	258.75
735.51	258.37
735.84	257.99
736.17	257.65
736.50	257.25
736.83	257.05
737.16	256.70
737.49	256.38
737.82	256.02
738.15	255.69
738.48	255.36
738.81	255.02
739.14	254.70
739.47	254.40
739.80	254.09
740.13	253.78
740.46	253.47
740.79	253.13
741.12	252.82
741.45	252.49
741.78	252.16
742.11	251.88
742.44	251.54
742.77	251.23
743.10	250.92
743.43	250.62
743.75	250.20
744.08	250.03
744.41	249.71
744.74	249.41
745.07	249.14
745.40	248.89
745.73	248.68
746.06	248.42
746.39	248.16
746.71	247.88
747.04	247.61
747.37	247.35
747.70	247.12
748.03	246.90
748.36	246.70
748.68	246.48
749.01	246.22
749.34	246.00
749.67	245.78
750.00	245.59
750.33	245.46
750.65	245.24
750.98	244.89
751.31	244.70
751.64	244.50
751.97	244.31
752.29	244.09
752.62	243.84
752.95	243.59
753.28	243.34
753.60	243.13
753.93	242.95
754.26	242.74
754.59	242.52
754.91	242.32
755.24	242.12
755.57	241.92
755.90	241.73
756.22	241.58
756.55	241.37
756.88	241.14
757.20	240.93
757.53	240.70
757.86	240.56
758.19	240.41
758.51	240.25
758.84	240.07
759.17	239.93
759.49	239.76
759.82	239.70
760.15	239.59
760.47	239.45
760.80	239.30
761.13	239.21
761.45	239.07
761.78	238.93
762.11	238.79
762.43	238.65
762.76	238.54
763.08	238.41
763.41	238.34
763.74	238.19
764.06	238.04
764.39	237.97
764.71	237.87
765.04	237.72
765.37	237.60
765.69	237.48
766.02	237.36
766.34	237.24
766.67	237.05
767.00	236.95
767.32	236.90
767.65	236.83
767.97	236.72
768.30	236.65
768.62	236.53
768.95	236.42
769.27	236.31
769.60	236.19
769.92	236.07
770.25	235.93
770.57	235.85
770.90	235.78
771.22	235.70
771.55	235.59
771.87	235.52
772.20	235.42
772.52	235.42
772.85	235.41
773.17	235.31
773.50	235.22
773.82	235.12
774.15	234.98
774.47	234.87
774.80	234.78
775.12	234.65
775.45	234.58
775.77	234.51
776.09	234.43
776.42	234.36
776.74	234.29
777.07	234.22
777.39	234.13
777.72	233.99
778.04	233.89
778.36	233.79
778.69	233.71
779.01	233.66
779.33	233.48
779.66	233.30
779.98	233.24
780.31	233.17
780.63	233.12
780.95	233.07
781.28	232.96
781.60	232.87
781.92	232.80
782.25	232.72
782.57	232.64
782.89	232.53
783.22	232.47
783.54	232.39
783.86	232.30
784.19	232.24
784.51	232.24
784.83	232.19
785.16	232.13
785.48	232.04
785.80	231.96
786.12	231.92
786.45	231.88
786.77	231.80
787.09	231.74
