SpectraSuite Data File
++++++++++++++++++++++++++++++++++++
Date: Fri Feb 01 17:02:35 EST 2013
User: group
Dark Spectrum Present: No
Reference Spectrum Present: No
Number of Sampled Component Spectra: 1
Spectrometers: USB2E7196
Integration Time (usec): 35000 (USB2E7196)
Spectra Averaged: 100 (USB2E7196)
Boxcar Smoothing: 10 (USB2E7196)
Correct for Electrical Dark: No (USB2E7196)
Strobe/Lamp Enabled: No (USB2E7196)
Correct for Detector Non-linearity: No (USB2E7196)
Correct for Stray Light: No (USB2E7196)
Number of Pixels in Processed Spectrum: 2048
>>>>>Begin Processed Spectral Data<<<<<
339.09	0.00
339.48	213.29
339.86	214.66
340.24	216.19
340.63	217.72
341.01	220.78
341.39	219.79
341.78	221.86
342.16	222.96
342.54	222.85
342.93	211.68
343.31	222.40
343.69	222.93
344.07	223.37
344.46	223.78
344.84	224.15
345.22	224.37
345.60	224.66
345.99	224.80
346.37	224.92
346.75	225.04
347.13	225.11
347.52	225.14
347.90	225.19
348.28	225.23
348.66	225.24
349.05	225.22
349.43	225.23
349.81	225.25
350.19	225.32
350.57	225.32
350.96	225.38
351.34	225.41
351.72	225.48
352.10	225.56
352.48	225.63
352.87	225.66
353.25	225.69
353.63	225.69
354.01	225.79
354.39	225.85
354.77	225.91
355.15	226.01
355.54	226.07
355.92	226.09
356.30	226.13
356.68	226.24
357.06	226.32
357.44	226.39
357.82	226.50
358.20	226.53
358.58	226.62
358.97	226.70
359.35	226.78
359.73	226.85
360.11	226.92
360.49	227.02
360.87	227.09
361.25	227.16
361.63	227.25
362.01	227.28
362.39	227.31
362.77	227.38
363.15	227.42
363.53	227.47
363.91	227.54
364.29	227.58
364.67	227.56
365.05	227.59
365.43	227.63
365.81	227.63
366.19	227.72
366.57	227.78
366.95	227.82
367.33	227.81
367.71	227.85
368.09	227.89
368.47	227.85
368.85	227.86
369.23	227.89
369.61	227.87
369.99	227.92
370.37	227.91
370.75	227.94
371.13	227.88
371.51	227.86
371.89	227.79
372.27	227.76
372.65	227.72
373.03	227.69
373.41	227.63
373.78	227.58
374.16	227.51
374.54	227.44
374.92	227.36
375.30	227.32
375.68	227.24
376.06	227.19
376.44	227.13
376.82	227.08
377.19	227.01
377.57	226.95
377.95	226.85
378.33	226.82
378.71	226.68
379.09	226.64
379.47	226.58
379.84	226.56
380.22	226.52
380.60	226.42
380.98	226.34
381.36	226.31
381.73	226.26
382.11	226.17
382.49	226.08
382.87	226.01
383.25	225.93
383.62	225.97
384.00	225.88
384.38	225.84
384.76	225.82
385.13	225.80
385.51	225.73
385.89	225.63
386.27	225.54
386.64	225.50
387.02	225.45
387.40	225.36
387.78	225.28
388.15	225.24
388.53	225.19
388.91	225.14
389.29	225.08
389.66	225.05
390.04	225.02
390.42	225.04
390.79	225.01
391.17	224.99
391.55	224.85
391.92	224.83
392.30	224.81
392.68	224.73
393.05	224.70
393.43	224.70
393.81	224.75
394.18	224.75
394.56	224.73
394.94	224.75
395.31	224.78
395.69	224.80
396.06	224.82
396.44	224.87
396.82	224.90
397.19	224.99
397.57	225.03
397.95	225.06
398.32	225.05
398.70	225.10
399.07	225.20
399.45	225.22
399.82	225.26
400.20	225.31
400.58	225.36
400.95	225.36
401.33	225.44
401.70	225.56
402.08	225.65
402.45	225.75
402.83	225.86
403.20	225.96
403.58	226.08
403.95	226.18
404.33	226.31
404.71	226.41
405.08	226.55
405.46	226.66
405.83	226.81
406.21	226.97
406.58	227.10
406.96	227.22
407.33	227.44
407.70	227.60
408.08	227.87
408.45	228.08
408.83	228.32
409.20	228.55
409.58	228.71
409.95	228.95
410.33	229.21
410.70	229.42
411.08	229.69
411.45	229.97
411.82	230.26
412.20	230.58
412.57	230.99
412.95	231.32
413.32	231.72
413.69	232.09
414.07	232.57
414.44	233.02
414.82	233.50
415.19	234.03
415.56	234.60
415.94	235.14
416.31	235.82
416.68	236.46
417.06	237.16
417.43	237.85
417.81	238.61
418.18	239.42
418.55	240.28
418.93	241.18
419.30	242.09
419.67	243.06
420.04	244.04
420.42	245.04
420.79	246.20
421.16	247.36
421.54	248.61
421.91	249.76
422.28	251.05
422.66	252.42
423.03	253.73
423.40	255.05
423.77	256.49
424.15	257.88
424.52	259.37
424.89	261.00
425.26	262.54
425.64	264.00
426.01	265.58
426.38	267.23
426.75	268.89
427.13	270.65
427.50	272.46
427.87	274.32
428.24	276.16
428.61	277.92
428.99	279.86
429.36	281.93
429.73	284.00
430.10	285.99
430.47	288.02
430.85	290.16
431.22	292.39
431.59	294.75
431.96	297.01
432.33	299.50
432.70	301.86
433.08	304.67
433.45	307.32
433.82	309.87
434.19	312.79
434.56	315.60
434.93	318.19
435.30	320.77
435.68	323.67
436.05	326.53
436.42	329.35
436.79	331.85
437.16	334.53
437.53	337.33
437.90	340.11
438.27	342.83
438.64	345.61
439.01	348.21
439.38	350.40
439.75	352.53
440.13	354.97
440.50	357.25
440.87	359.07
441.24	360.94
441.61	363.07
441.98	364.50
442.35	366.25
442.72	368.10
443.09	369.89
443.46	370.86
443.83	371.40
444.20	371.85
444.57	372.68
444.94	372.98
445.31	373.33
445.68	373.73
446.05	373.83
446.42	373.39
446.79	372.92
447.16	372.50
447.53	372.20
447.90	371.02
448.27	369.91
448.64	368.33
449.01	367.21
449.37	365.27
449.74	363.44
450.11	361.26
450.48	358.77
450.85	356.28
451.22	354.16
451.59	352.16
451.96	350.25
452.33	347.62
452.70	345.21
453.07	342.35
453.43	339.42
453.80	336.63
454.17	334.01
454.54	331.52
454.91	328.82
455.28	326.10
455.65	323.63
456.02	321.18
456.38	319.03
456.75	316.39
457.12	314.16
457.49	311.94
457.86	309.72
458.23	307.93
458.59	305.89
458.96	303.80
459.33	301.93
459.70	300.09
460.07	298.63
460.43	296.94
460.80	295.36
461.17	293.95
461.54	292.48
461.91	291.10
462.27	289.65
462.64	288.35
463.01	287.04
463.38	285.80
463.74	284.44
464.11	283.30
464.48	282.29
464.85	281.20
465.21	280.34
465.58	279.45
465.95	278.33
466.32	277.44
466.68	276.56
467.05	275.69
467.42	274.82
467.78	273.88
468.15	273.04
468.52	272.43
468.88	271.63
469.25	270.89
469.62	270.30
469.98	269.64
470.35	269.07
470.72	268.51
471.08	267.87
471.45	267.37
471.82	266.85
472.18	266.28
472.55	265.87
472.92	265.33
473.28	264.91
473.65	264.49
474.02	264.05
474.38	263.73
474.75	263.43
475.11	263.08
475.48	262.89
475.85	262.67
476.21	262.42
476.58	262.26
476.94	262.10
477.31	261.91
477.67	261.79
478.04	261.72
478.41	261.71
478.77	261.79
479.14	261.71
479.50	261.75
479.87	261.83
480.23	261.91
480.60	262.04
480.96	262.14
481.33	262.38
481.69	262.61
482.06	262.77
482.42	263.00
482.79	263.29
483.15	263.58
483.52	263.97
483.88	264.34
484.25	264.68
484.61	265.11
484.98	265.62
485.34	266.16
485.71	266.73
486.07	267.31
486.44	267.86
486.80	268.58
487.17	269.28
487.53	270.12
487.90	270.97
488.26	271.88
488.62	272.86
488.99	273.84
489.35	274.87
489.72	276.03
490.08	277.23
490.44	278.42
490.81	279.79
491.17	281.10
491.54	282.57
491.90	284.09
492.26	285.78
492.63	287.46
492.99	289.27
493.36	291.14
493.72	293.15
494.08	295.23
494.45	297.45
494.81	299.81
495.17	302.22
495.54	304.76
495.90	307.44
496.26	310.23
496.63	313.15
496.99	316.24
497.35	319.49
497.72	322.85
498.08	326.37
498.44	329.97
498.80	333.95
499.17	338.00
499.53	342.17
499.89	346.46
500.26	350.91
500.62	355.56
500.98	360.49
501.34	365.55
501.71	370.86
502.07	376.31
502.43	381.90
502.79	387.68
503.16	393.76
503.52	399.99
503.88	406.32
504.24	412.89
504.60	419.69
504.97	426.76
505.33	434.03
505.69	441.72
506.05	449.47
506.41	457.24
506.78	465.34
507.14	473.71
507.50	482.36
507.86	491.32
508.22	500.45
508.59	509.55
508.95	518.97
509.31	528.69
509.67	538.69
510.03	548.87
510.39	559.33
510.75	570.02
511.12	580.83
511.48	592.09
511.84	603.44
512.20	614.84
512.56	626.58
512.92	638.62
513.28	650.81
513.64	663.12
514.00	675.69
514.37	688.44
514.73	701.32
515.09	714.12
515.45	727.31
515.81	740.63
516.17	754.42
516.53	768.33
516.89	782.27
517.25	796.14
517.61	810.35
517.97	824.56
518.33	838.72
518.69	853.24
519.05	867.90
519.41	882.82
519.77	898.04
520.13	913.26
520.49	928.42
520.85	943.41
521.21	958.83
521.57	974.75
521.93	990.14
522.29	1006.13
522.65	1022.04
523.01	1037.82
523.37	1053.60
523.73	1069.41
524.09	1085.22
524.45	1101.16
524.81	1117.41
525.17	1133.75
525.53	1150.24
525.89	1166.74
526.25	1183.20
526.61	1199.14
526.97	1215.52
527.33	1231.67
527.68	1247.86
528.04	1263.89
528.40	1280.06
528.76	1296.72
529.12	1312.87
529.48	1329.49
529.84	1345.18
530.20	1361.41
530.56	1378.01
530.91	1394.97
531.27	1411.40
531.63	1427.52
531.99	1443.78
532.35	1459.55
532.71	1475.18
533.07	1491.19
533.42	1506.87
533.78	1522.53
534.14	1538.54
534.50	1553.54
534.86	1569.03
535.21	1583.92
535.57	1599.52
535.93	1614.71
536.29	1629.21
536.65	1643.87
537.00	1658.15
537.36	1673.13
537.72	1687.42
538.08	1701.54
538.44	1715.00
538.79	1728.53
539.15	1741.74
539.51	1755.18
539.87	1769.03
540.22	1782.45
540.58	1795.80
540.94	1808.59
541.29	1821.18
541.65	1833.51
542.01	1846.31
542.37	1858.45
542.72	1870.63
543.08	1882.14
543.44	1894.39
543.79	1905.39
544.15	1916.19
544.51	1927.53
544.87	1938.17
545.22	1948.86
545.58	1958.97
545.94	1968.57
546.29	1978.15
546.65	1987.89
547.01	1996.96
547.36	2005.66
547.72	2013.96
548.07	2021.69
548.43	2029.83
548.79	2037.74
549.14	2045.21
549.50	2052.50
549.86	2059.93
550.21	2067.21
550.57	2074.44
550.92	2080.94
551.28	2087.82
551.64	2094.81
551.99	2101.23
552.35	2107.46
552.70	2113.53
553.06	2119.51
553.41	2125.89
553.77	2132.04
554.13	2138.11
554.48	2144.23
554.84	2149.78
555.19	2155.02
555.55	2160.20
555.90	2164.61
556.26	2169.59
556.61	2174.40
556.97	2178.81
557.32	2183.11
557.68	2187.30
558.03	2191.55
558.39	2195.21
558.74	2200.03
559.10	2204.10
559.45	2207.93
559.81	2212.29
560.16	2216.19
560.52	2219.39
560.87	2222.73
561.23	2225.38
561.58	2228.33
561.94	2230.97
562.29	2233.33
562.64	2236.33
563.00	2238.92
563.35	2242.65
563.71	2245.86
564.06	2249.22
564.42	2252.27
564.77	2254.84
565.12	2257.26
565.48	2259.18
565.83	2261.26
566.19	2262.66
566.54	2263.59
566.89	2264.93
567.25	2265.68
567.60	2267.02
567.96	2268.99
568.31	2270.06
568.66	2271.48
569.02	2272.27
569.37	2272.70
569.72	2273.79
570.08	2274.02
570.43	2274.37
570.78	2273.95
571.14	2272.53
571.49	2271.19
571.84	2270.95
572.20	2270.15
572.55	2269.22
572.90	2267.81
573.26	2266.66
573.61	2265.12
573.96	2263.64
574.31	2260.95
574.67	2258.26
575.02	2254.90
575.37	2251.67
575.72	2248.25
576.08	2244.93
576.43	2241.76
576.78	2238.33
577.13	2235.23
577.49	2232.33
577.84	2229.07
578.19	2225.51
578.54	2222.26
578.90	2218.46
579.25	2212.98
579.60	2208.25
579.95	2203.48
580.30	2198.72
580.66	2193.76
581.01	2189.04
581.36	2184.26
581.71	2180.22
582.06	2175.85
582.42	2171.71
582.77	2166.64
583.12	2162.28
583.47	2158.05
583.82	2153.39
584.17	2148.40
584.53	2143.12
584.88	2137.65
585.23	2132.06
585.58	2126.84
585.93	2121.61
586.28	2116.94
586.63	2112.28
586.98	2107.31
587.34	2102.77
587.69	2098.21
588.04	2093.08
588.39	2087.61
588.74	2081.26
589.09	2075.19
589.44	2068.66
589.79	2062.50
590.14	2057.17
590.49	2050.67
590.84	2044.32
591.19	2038.47
591.54	2032.20
591.89	2025.12
592.25	2018.64
592.60	2011.65
592.95	2004.27
593.30	1997.01
593.65	1989.60
594.00	1982.58
594.35	1975.49
594.70	1967.51
595.05	1960.55
595.40	1953.54
595.75	1946.28
596.10	1940.49
596.45	1934.18
596.80	1928.28
597.15	1922.10
597.50	1915.19
597.85	1908.85
598.19	1902.44
598.54	1895.54
598.89	1889.10
599.24	1883.38
599.59	1876.82
599.94	1870.59
600.29	1864.46
600.64	1857.99
600.99	1850.69
601.34	1844.08
601.69	1837.21
602.04	1830.72
602.39	1823.27
602.74	1816.55
603.08	1809.89
603.43	1803.25
603.78	1795.92
604.13	1788.83
604.48	1781.62
604.83	1774.85
605.18	1768.20
605.53	1760.18
605.87	1752.27
606.22	1745.13
606.57	1737.25
606.92	1729.93
607.27	1723.06
607.62	1716.20
607.96	1709.12
608.31	1702.72
608.66	1695.24
609.01	1687.93
609.36	1680.39
609.70	1672.62
610.05	1664.74
610.40	1657.23
610.75	1649.01
611.10	1641.53
611.44	1633.04
611.79	1625.06
612.14	1616.35
612.49	1607.25
612.83	1598.98
613.18	1590.90
613.53	1582.81
613.88	1574.32
614.22	1566.13
614.57	1557.36
614.92	1549.42
615.27	1541.91
615.61	1533.60
615.96	1525.57
616.31	1518.00
616.65	1510.59
617.00	1503.10
617.35	1495.27
617.70	1487.02
618.04	1478.42
618.39	1470.09
618.74	1462.59
619.08	1454.41
619.43	1446.95
619.78	1439.98
620.12	1432.87
620.47	1425.38
620.82	1417.17
621.16	1409.70
621.51	1402.10
621.85	1394.67
622.20	1386.15
622.55	1377.87
622.89	1369.99
623.24	1362.47
623.59	1354.90
623.93	1347.45
624.28	1340.20
624.62	1332.93
624.97	1325.59
625.32	1318.80
625.66	1311.92
626.01	1304.80
626.35	1297.38
626.70	1289.62
627.04	1281.97
627.39	1274.20
627.73	1266.83
628.08	1260.00
628.43	1252.85
628.77	1245.57
629.12	1238.05
629.46	1230.88
629.81	1223.34
630.15	1216.16
630.50	1208.69
630.84	1200.61
631.19	1192.69
631.53	1185.18
631.88	1177.54
632.22	1169.99
632.57	1162.78
632.91	1155.24
633.26	1147.91
633.60	1140.49
633.95	1133.34
634.29	1126.27
634.64	1119.56
634.98	1112.23
635.32	1105.15
635.67	1098.40
636.01	1091.82
636.36	1085.05
636.70	1078.47
637.05	1072.00
637.39	1065.54
637.73	1059.12
638.08	1053.33
638.42	1047.26
638.77	1040.79
639.11	1034.30
639.45	1027.91
639.80	1021.36
640.14	1015.00
640.49	1008.44
640.83	1002.18
641.17	996.03
641.52	989.69
641.86	983.35
642.20	977.58
642.55	971.22
642.89	964.94
643.23	958.29
643.58	952.54
643.92	946.55
644.26	940.55
644.61	934.53
644.95	928.63
645.29	922.09
645.64	915.54
645.98	909.26
646.32	903.31
646.66	897.38
647.01	891.58
647.35	885.85
647.69	880.06
648.04	874.55
648.38	868.81
648.72	862.96
649.06	856.93
649.41	851.03
649.75	845.15
650.09	839.17
650.43	833.56
650.78	827.44
651.12	821.50
651.46	815.75
651.80	809.99
652.14	804.58
652.49	799.17
652.83	793.96
653.17	788.47
653.51	782.92
653.85	777.49
654.20	771.92
654.54	765.93
654.88	760.20
655.22	754.37
655.56	748.69
655.90	743.20
656.25	738.02
656.59	732.66
656.93	727.58
657.27	722.56
657.61	717.08
657.95	711.97
658.29	706.86
658.64	701.62
658.98	696.40
659.32	690.91
659.66	685.77
660.00	680.50
660.34	675.50
660.68	670.53
661.02	665.53
661.36	660.81
661.70	656.34
662.05	652.04
662.39	647.80
662.73	643.37
663.07	639.05
663.41	634.59
663.75	630.17
664.09	625.66
664.43	621.23
664.77	617.18
665.11	612.99
665.45	608.90
665.79	604.83
666.13	600.69
666.47	596.59
666.81	592.43
667.15	588.31
667.49	584.39
667.83	580.59
668.17	576.66
668.51	572.57
668.85	568.60
669.19	564.69
669.53	560.81
669.87	556.97
670.21	553.25
670.55	549.59
670.89	546.12
671.23	542.72
671.57	539.24
671.91	535.70
672.25	532.19
672.58	528.64
672.92	525.23
673.26	522.07
673.60	518.92
673.94	515.80
674.28	512.93
674.62	510.00
674.96	506.92
675.30	504.07
675.64	501.18
675.97	498.33
676.31	495.50
676.65	492.55
676.99	489.85
677.33	487.01
677.67	484.25
678.01	481.29
678.34	478.34
678.68	475.45
679.02	472.61
679.36	469.87
679.70	467.19
680.04	464.44
680.37	461.65
680.71	458.91
681.05	456.32
681.39	453.53
681.73	450.90
682.06	448.41
682.40	445.87
682.74	443.31
683.08	440.82
683.42	438.23
683.75	435.76
684.09	433.20
684.43	430.70
684.77	428.23
685.10	425.81
685.44	423.46
685.78	421.17
686.12	418.93
686.45	416.63
686.79	414.33
687.13	412.15
687.46	409.97
687.80	407.79
688.14	405.61
688.48	403.63
688.81	401.43
689.15	399.26
689.49	397.11
689.82	395.07
690.16	393.01
690.50	391.08
690.83	389.19
691.17	387.23
691.51	385.36
691.84	383.54
692.18	381.66
692.52	379.80
692.85	377.89
693.19	376.05
693.52	374.20
693.86	372.39
694.20	370.63
694.53	368.82
694.87	367.02
695.21	365.19
695.54	363.34
695.88	361.60
696.21	359.83
696.55	358.15
696.88	356.47
697.22	354.78
697.56	353.15
697.89	351.49
698.23	349.89
698.56	348.31
698.90	346.70
699.23	345.12
699.57	343.49
699.90	341.93
700.24	340.37
700.58	338.88
700.91	337.38
701.25	335.94
701.58	334.56
701.92	333.20
702.25	331.87
702.59	330.52
702.92	329.17
703.26	327.91
703.59	326.69
703.93	325.49
704.26	324.31
704.60	323.01
704.93	321.73
705.26	320.48
705.60	319.25
705.93	318.10
706.27	317.02
706.60	315.99
706.94	314.95
707.27	313.87
707.61	312.82
707.94	311.78
708.27	310.66
708.61	309.56
708.94	308.55
709.28	307.53
709.61	306.57
709.94	305.64
710.28	304.64
710.61	303.62
710.95	302.56
711.28	301.60
711.61	300.67
711.95	299.78
712.28	298.86
712.61	297.88
712.95	296.92
713.28	296.02
713.61	295.10
713.95	294.16
714.28	293.27
714.61	292.39
714.95	291.56
715.28	290.70
715.61	289.87
715.95	289.05
716.28	288.22
716.61	287.35
716.95	286.49
717.28	285.73
717.61	284.93
717.94	284.17
718.28	283.38
718.61	282.62
718.94	281.88
719.27	281.19
719.61	280.56
719.94	279.88
720.27	279.16
720.60	278.48
720.94	277.90
721.27	277.29
721.60	276.70
721.93	276.09
722.27	275.58
722.60	274.97
722.93	274.37
723.26	273.83
723.59	273.28
723.93	272.75
724.26	272.15
724.59	271.60
724.92	271.09
725.25	270.56
725.59	270.08
725.92	269.56
726.25	269.06
726.58	268.52
726.91	268.02
727.24	267.52
727.57	267.03
727.91	266.49
728.24	266.01
728.57	265.50
728.90	265.00
729.23	264.51
729.56	264.11
729.89	263.63
730.22	263.15
730.55	262.68
730.89	262.24
731.22	261.83
731.55	261.41
731.88	260.96
732.21	260.57
732.54	260.09
732.87	259.66
733.20	259.28
733.53	258.92
733.86	258.56
734.19	258.18
734.52	257.80
734.85	257.51
735.18	257.12
735.51	256.80
735.84	256.44
736.17	256.06
736.50	255.66
736.83	255.42
737.16	255.05
737.49	254.75
737.82	254.38
738.15	254.04
738.48	253.67
738.81	253.37
739.14	253.03
739.47	252.73
739.80	252.45
740.13	252.11
740.46	251.79
740.79	251.44
741.12	251.14
741.45	250.83
741.78	250.46
742.11	250.17
742.44	249.81
742.77	249.53
743.10	249.25
743.43	248.94
743.75	248.57
744.08	248.43
744.41	248.14
744.74	247.88
745.07	247.62
745.40	247.40
745.73	247.12
746.06	246.84
746.39	246.59
746.71	246.31
747.04	246.03
747.37	245.76
747.70	245.55
748.03	245.31
748.36	245.09
748.68	244.89
749.01	244.62
749.34	244.39
749.67	244.15
750.00	243.92
750.33	243.78
750.65	243.53
750.98	243.16
751.31	242.88
751.64	242.70
751.97	242.56
752.29	242.29
752.62	242.09
752.95	241.92
753.28	241.67
753.60	241.49
753.93	241.31
754.26	241.11
754.59	240.92
754.91	240.70
755.24	240.49
755.57	240.29
755.90	240.11
756.22	239.93
756.55	239.75
756.88	239.54
757.20	239.30
757.53	239.12
757.86	239.01
758.19	238.88
758.51	238.68
758.84	238.46
759.17	238.31
759.49	238.13
759.82	237.96
760.15	237.84
760.47	237.67
760.80	237.51
761.13	237.37
761.45	237.20
761.78	237.08
762.11	236.94
762.43	236.77
762.76	236.66
763.08	236.56
763.41	236.42
763.74	236.29
764.06	236.14
764.39	235.99
764.71	235.82
765.04	235.69
765.37	235.56
765.69	235.41
766.02	235.28
766.34	235.16
766.67	234.99
767.00	234.91
767.32	234.87
767.65	234.81
767.97	234.70
768.30	234.59
768.62	234.47
768.95	234.37
769.27	234.26
769.60	234.14
769.92	234.02
770.25	233.91
770.57	233.78
770.90	233.67
771.22	233.57
771.55	233.47
771.87	233.35
772.20	233.24
772.52	233.25
772.85	233.26
773.17	233.18
773.50	233.11
773.82	232.97
774.15	232.81
774.47	232.65
774.80	232.53
775.12	232.43
775.45	232.33
775.77	232.21
776.09	232.12
776.42	232.02
776.74	231.93
777.07	231.87
777.39	231.81
777.72	231.76
778.04	231.69
778.36	231.61
778.69	231.55
779.01	231.52
779.33	231.32
779.66	231.14
779.98	231.06
780.31	230.98
780.63	230.94
780.95	230.93
781.28	230.83
781.60	230.79
781.92	230.75
782.25	230.67
782.57	230.63
782.89	230.55
783.22	230.49
783.54	230.44
783.86	230.35
784.19	230.28
784.51	230.22
784.83	230.16
785.16	230.11
785.48	230.02
785.80	229.98
786.12	229.96
786.45	229.91
786.77	229.90
787.09	229.88
