SpectraSuite Data File
++++++++++++++++++++++++++++++++++++
Date: Fri Feb 01 16:25:44 EST 2013
User: group
Dark Spectrum Present: No
Reference Spectrum Present: No
Number of Sampled Component Spectra: 1
Spectrometers: USB2E7196
Integration Time (usec): 35000 (USB2E7196)
Spectra Averaged: 100 (USB2E7196)
Boxcar Smoothing: 10 (USB2E7196)
Correct for Electrical Dark: No (USB2E7196)
Strobe/Lamp Enabled: No (USB2E7196)
Correct for Detector Non-linearity: No (USB2E7196)
Correct for Stray Light: No (USB2E7196)
Number of Pixels in Processed Spectrum: 2048
>>>>>Begin Processed Spectral Data<<<<<
339.09	0.00
339.48	213.58
339.86	215.30
340.24	216.54
340.63	217.89
341.01	220.53
341.39	220.26
341.78	222.07
342.16	223.50
342.54	223.63
342.93	212.15
343.31	222.89
343.69	223.45
344.07	223.89
344.46	224.31
344.84	224.69
345.22	224.92
345.60	225.20
345.99	225.37
346.37	225.46
346.75	225.58
347.13	225.67
347.52	225.74
347.90	225.82
348.28	225.84
348.66	225.87
349.05	225.85
349.43	225.91
349.81	225.96
350.19	226.00
350.57	226.06
350.96	226.13
351.34	226.20
351.72	226.28
352.10	226.39
352.48	226.45
352.87	226.53
353.25	226.64
353.63	226.70
354.01	226.79
354.39	226.89
354.77	226.97
355.15	227.05
355.54	227.12
355.92	227.18
356.30	227.26
356.68	227.42
357.06	227.50
357.44	227.54
357.82	227.61
358.20	227.70
358.58	227.77
358.97	227.85
359.35	227.94
359.73	228.03
360.11	228.11
360.49	228.22
360.87	228.23
361.25	228.28
361.63	228.37
362.01	228.43
362.39	228.47
362.77	228.56
363.15	228.63
363.53	228.67
363.91	228.69
364.29	228.70
364.67	228.59
365.05	228.65
365.43	228.67
365.81	228.70
366.19	228.74
366.57	228.78
366.95	228.77
367.33	228.76
367.71	228.76
368.09	228.74
368.47	228.72
368.85	228.74
369.23	228.73
369.61	228.68
369.99	228.69
370.37	228.69
370.75	228.67
371.13	228.58
371.51	228.56
371.89	228.56
372.27	228.54
372.65	228.51
373.03	228.43
373.41	228.40
373.78	228.34
374.16	228.21
374.54	228.13
374.92	228.04
375.30	227.99
375.68	227.88
376.06	227.79
376.44	227.75
376.82	227.71
377.19	227.64
377.57	227.57
377.95	227.48
378.33	227.38
378.71	227.25
379.09	227.21
379.47	227.13
379.84	227.03
380.22	226.99
380.60	226.92
380.98	226.87
381.36	226.76
381.73	226.71
382.11	226.68
382.49	226.59
382.87	226.55
383.25	226.48
383.62	226.54
384.00	226.48
384.38	226.38
384.76	226.31
385.13	226.29
385.51	226.23
385.89	226.14
386.27	226.08
386.64	226.07
387.02	226.02
387.40	225.98
387.78	225.92
388.15	225.88
388.53	225.84
388.91	225.80
389.29	225.79
389.66	225.73
390.04	225.68
390.42	225.68
390.79	225.67
391.17	225.62
391.55	225.51
391.92	225.49
392.30	225.48
392.68	225.46
393.05	225.43
393.43	225.46
393.81	225.47
394.18	225.46
394.56	225.46
394.94	225.49
395.31	225.49
395.69	225.51
396.06	225.55
396.44	225.60
396.82	225.60
397.19	225.68
397.57	225.72
397.95	225.76
398.32	225.78
398.70	225.82
399.07	225.92
399.45	225.94
399.82	226.03
400.20	226.11
400.58	226.20
400.95	226.23
401.33	226.30
401.70	226.45
402.08	226.56
402.45	226.64
402.83	226.72
403.20	226.84
403.58	226.93
403.95	227.02
404.33	227.14
404.71	227.26
405.08	227.43
405.46	227.59
405.83	227.74
406.21	227.86
406.58	228.03
406.96	228.16
407.33	228.37
407.70	228.55
408.08	228.80
408.45	229.02
408.83	229.25
409.20	229.45
409.58	229.62
409.95	229.86
410.33	230.13
410.70	230.39
411.08	230.69
411.45	231.05
411.82	231.37
412.20	231.69
412.57	232.07
412.95	232.35
413.32	232.74
413.69	233.12
414.07	233.59
414.44	234.05
414.82	234.51
415.19	235.05
415.56	235.62
415.94	236.16
416.31	236.81
416.68	237.43
417.06	238.14
417.43	238.82
417.81	239.61
418.18	240.36
418.55	241.21
418.93	242.07
419.30	242.93
419.67	243.84
420.04	244.81
420.42	245.85
420.79	247.03
421.16	248.14
421.54	249.36
421.91	250.56
422.28	251.79
422.66	253.14
423.03	254.46
423.40	255.78
423.77	257.20
424.15	258.60
424.52	260.08
424.89	261.72
425.26	263.26
425.64	264.71
426.01	266.30
426.38	267.98
426.75	269.62
427.13	271.34
427.50	273.19
427.87	275.05
428.24	276.88
428.61	278.59
428.99	280.55
429.36	282.62
429.73	284.66
430.10	286.69
430.47	288.72
430.85	290.80
431.22	293.04
431.59	295.36
431.96	297.61
432.33	300.09
432.70	302.40
433.08	305.18
433.45	307.76
433.82	310.37
434.19	313.23
434.56	316.02
434.93	318.68
435.30	321.29
435.68	324.14
436.05	327.02
436.42	329.85
436.79	332.32
437.16	335.00
437.53	337.85
437.90	340.64
438.27	343.36
438.64	346.16
439.01	348.71
439.38	350.89
439.75	353.03
440.13	355.49
440.50	357.83
440.87	359.64
441.24	361.62
441.61	363.76
441.98	365.20
442.35	367.01
442.72	368.81
443.09	370.59
443.46	371.58
443.83	372.08
444.20	372.55
444.57	373.40
444.94	373.72
445.31	374.03
445.68	374.40
446.05	374.44
446.42	374.10
446.79	373.68
447.16	373.27
447.53	372.96
447.90	371.80
448.27	370.64
448.64	369.11
449.01	367.95
449.37	365.99
449.74	364.11
450.11	361.84
450.48	359.43
450.85	356.88
451.22	354.76
451.59	352.78
451.96	350.85
452.33	348.29
452.70	345.88
453.07	343.08
453.43	340.18
453.80	337.50
454.17	334.82
454.54	332.28
454.91	329.60
455.28	326.91
455.65	324.46
456.02	322.03
456.38	319.88
456.75	317.26
457.12	315.02
457.49	312.81
457.86	310.65
458.23	308.79
458.59	306.78
458.96	304.71
459.33	302.89
459.70	301.04
460.07	299.53
460.43	297.86
460.80	296.25
461.17	294.85
461.54	293.34
461.91	291.92
462.27	290.52
462.64	289.28
463.01	287.93
463.38	286.66
463.74	285.31
464.11	284.15
464.48	283.13
464.85	282.03
465.21	281.18
465.58	280.32
465.95	279.26
466.32	278.34
466.68	277.44
467.05	276.55
467.42	275.68
467.78	274.77
468.15	273.90
468.52	273.24
468.88	272.36
469.25	271.62
469.62	271.01
469.98	270.37
470.35	269.73
470.72	269.17
471.08	268.51
471.45	268.00
471.82	267.45
472.18	266.88
472.55	266.47
472.92	265.96
473.28	265.46
473.65	265.03
474.02	264.60
474.38	264.24
474.75	263.90
475.11	263.54
475.48	263.30
475.85	263.07
476.21	262.86
476.58	262.69
476.94	262.56
477.31	262.40
477.67	262.23
478.04	262.12
478.41	262.10
478.77	262.12
479.14	262.09
479.50	262.12
479.87	262.21
480.23	262.30
480.60	262.37
480.96	262.50
481.33	262.70
481.69	262.91
482.06	263.15
482.42	263.39
482.79	263.66
483.15	263.99
483.52	264.42
483.88	264.75
484.25	265.12
484.61	265.50
484.98	265.99
485.34	266.59
485.71	267.21
486.07	267.79
486.44	268.41
486.80	269.07
487.17	269.84
487.53	270.63
487.90	271.48
488.26	272.44
488.62	273.44
488.99	274.37
489.35	275.43
489.72	276.55
490.08	277.71
490.44	278.96
490.81	280.28
491.17	281.59
491.54	283.10
491.90	284.66
492.26	286.35
492.63	288.03
492.99	289.77
493.36	291.67
493.72	293.72
494.08	295.82
494.45	298.08
494.81	300.43
495.17	302.89
495.54	305.46
495.90	308.12
496.26	310.92
496.63	313.93
496.99	317.05
497.35	320.30
497.72	323.78
498.08	327.31
498.44	330.95
498.80	334.83
499.17	338.88
499.53	343.11
499.89	347.49
500.26	352.02
500.62	356.71
500.98	361.65
501.34	366.71
501.71	372.00
502.07	377.38
502.43	383.02
502.79	388.81
503.16	394.90
503.52	401.22
503.88	407.63
504.24	414.26
504.60	421.14
504.97	428.28
505.33	435.57
505.69	443.27
506.05	451.06
506.41	459.05
506.78	467.20
507.14	475.62
507.50	484.34
507.86	493.38
508.22	502.55
508.59	511.73
508.95	521.35
509.31	531.22
509.67	541.40
510.03	551.69
510.39	562.27
510.75	573.03
511.12	583.85
511.48	595.12
511.84	606.59
512.20	618.05
512.56	630.04
512.92	642.23
513.28	654.57
513.64	667.11
514.00	679.73
514.37	692.65
514.73	705.73
515.09	718.75
515.45	732.01
515.81	745.56
516.17	759.59
516.53	773.72
516.89	787.85
517.25	801.95
517.61	816.28
517.97	830.72
518.33	845.15
518.69	860.02
519.05	874.97
519.41	890.05
519.77	905.52
520.13	920.95
520.49	936.29
520.85	951.65
521.21	967.29
521.57	983.52
521.93	999.27
522.29	1015.57
522.65	1031.80
523.01	1048.01
523.37	1064.11
523.73	1080.17
524.09	1096.13
524.45	1112.33
524.81	1128.86
525.17	1145.62
525.53	1162.35
525.89	1179.16
526.25	1195.97
526.61	1212.25
526.97	1229.02
527.33	1245.48
527.68	1261.98
528.04	1278.36
528.40	1294.74
528.76	1311.61
529.12	1328.10
529.48	1344.93
529.84	1360.83
530.20	1377.37
530.56	1394.26
530.91	1411.47
531.27	1428.14
531.63	1444.60
531.99	1461.10
532.35	1476.97
532.71	1492.80
533.07	1509.09
533.42	1524.80
533.78	1540.71
534.14	1557.02
534.50	1572.25
534.86	1588.02
535.21	1603.05
535.57	1618.82
535.93	1634.32
536.29	1649.12
536.65	1664.01
537.00	1678.57
537.36	1693.81
537.72	1708.09
538.08	1722.40
538.44	1736.20
538.79	1750.04
539.15	1763.60
539.51	1777.29
539.87	1791.70
540.22	1805.30
540.58	1818.84
540.94	1832.16
541.29	1845.04
541.65	1857.62
542.01	1870.78
542.37	1883.05
542.72	1895.51
543.08	1907.24
543.44	1919.56
543.79	1930.72
544.15	1941.69
544.51	1953.33
544.87	1964.29
545.22	1975.19
545.58	1985.35
545.94	1995.02
546.29	2004.70
546.65	2014.48
547.01	2023.70
547.36	2032.26
547.72	2040.82
548.07	2048.72
548.43	2056.84
548.79	2064.68
549.14	2072.05
549.50	2079.32
549.86	2086.81
550.21	2094.02
550.57	2101.10
550.92	2107.60
551.28	2114.60
551.64	2121.65
551.99	2128.01
552.35	2134.04
552.70	2140.11
553.06	2146.12
553.41	2152.37
553.77	2158.47
554.13	2164.53
554.48	2170.62
554.84	2176.18
555.19	2181.34
555.55	2186.38
555.90	2190.76
556.26	2195.68
556.61	2200.48
556.97	2204.72
557.32	2209.02
557.68	2213.16
558.03	2217.64
558.39	2221.42
558.74	2226.01
559.10	2229.86
559.45	2233.56
559.81	2237.90
560.16	2241.68
560.52	2244.75
560.87	2248.02
561.23	2250.66
561.58	2253.63
561.94	2256.22
562.29	2258.40
562.64	2261.33
563.00	2263.96
563.35	2267.55
563.71	2270.56
564.06	2273.74
564.42	2276.65
564.77	2279.16
565.12	2281.53
565.48	2283.44
565.83	2285.32
566.19	2286.64
566.54	2287.60
566.89	2288.79
567.25	2289.42
567.60	2290.86
567.96	2292.67
568.31	2293.70
568.66	2294.95
569.02	2295.51
569.37	2295.80
569.72	2296.87
570.08	2296.84
570.43	2296.89
570.78	2296.46
571.14	2295.12
571.49	2293.86
571.84	2293.59
572.20	2292.61
572.55	2291.58
572.90	2290.04
573.26	2288.75
573.61	2287.10
573.96	2285.36
574.31	2282.41
574.67	2279.51
575.02	2275.96
575.37	2272.61
575.72	2268.93
576.08	2265.50
576.43	2262.37
576.78	2258.81
577.13	2255.69
577.49	2252.64
577.84	2249.24
578.19	2245.38
578.54	2241.77
578.90	2237.64
579.25	2232.11
579.60	2227.09
579.95	2222.02
580.30	2216.92
580.66	2211.73
581.01	2206.88
581.36	2202.04
581.71	2197.99
582.06	2193.51
582.42	2188.94
582.77	2183.90
583.12	2179.41
583.47	2174.78
583.82	2169.77
584.17	2164.59
584.53	2159.16
584.88	2153.50
585.23	2147.92
585.58	2142.58
585.93	2137.12
586.28	2132.40
586.63	2127.31
586.98	2122.28
587.34	2117.67
587.69	2112.84
588.04	2107.77
588.39	2102.21
588.74	2095.71
589.09	2089.68
589.44	2082.88
589.79	2077.04
590.14	2071.45
590.49	2064.94
590.84	2058.67
591.19	2052.67
591.54	2046.23
591.89	2038.95
592.25	2032.35
592.60	2025.09
592.95	2017.61
593.30	2010.27
593.65	2002.83
594.00	1995.94
594.35	1988.70
594.70	1980.62
595.05	1973.59
595.40	1966.39
595.75	1958.97
596.10	1952.98
596.45	1946.27
596.80	1940.33
597.15	1933.89
597.50	1926.69
597.85	1920.15
598.19	1913.60
598.54	1906.53
598.89	1899.96
599.24	1894.10
599.59	1887.38
599.94	1881.26
600.29	1875.04
600.64	1868.58
600.99	1861.07
601.34	1854.33
601.69	1847.44
602.04	1840.81
602.39	1833.41
602.74	1826.53
603.08	1819.81
603.43	1813.04
603.78	1805.54
604.13	1798.30
604.48	1790.96
604.83	1784.20
605.18	1777.43
605.53	1769.41
605.87	1761.30
606.22	1754.05
606.57	1746.10
606.92	1738.74
607.27	1731.54
607.62	1724.44
607.96	1717.28
608.31	1710.75
608.66	1703.10
609.01	1695.66
609.36	1688.02
609.70	1680.13
610.05	1672.14
610.40	1664.38
610.75	1655.96
611.10	1648.43
611.44	1639.99
611.79	1631.94
612.14	1623.26
612.49	1613.99
612.83	1605.55
613.18	1597.59
613.53	1589.59
613.88	1581.00
614.22	1572.74
614.57	1564.20
614.92	1556.30
615.27	1548.64
615.61	1540.25
615.96	1532.22
616.31	1524.61
616.65	1517.26
617.00	1509.66
617.35	1501.92
617.70	1493.64
618.04	1485.29
618.39	1477.09
618.74	1469.50
619.08	1461.21
619.43	1453.53
619.78	1446.69
620.12	1439.47
620.47	1431.85
620.82	1423.65
621.16	1416.18
621.51	1408.65
621.85	1400.98
622.20	1392.36
622.55	1383.91
622.89	1376.03
623.24	1368.35
623.59	1360.78
623.93	1353.25
624.28	1346.01
624.62	1338.43
624.97	1331.16
625.32	1324.30
625.66	1317.26
626.01	1310.08
626.35	1302.56
626.70	1294.90
627.04	1287.12
627.39	1279.30
627.73	1272.03
628.08	1265.14
628.43	1257.89
628.77	1250.47
629.12	1243.02
629.46	1235.94
629.81	1228.62
630.15	1221.46
630.50	1214.02
630.84	1205.86
631.19	1197.96
631.53	1190.35
631.88	1182.83
632.22	1175.20
632.57	1167.96
632.91	1160.35
633.26	1152.91
633.60	1145.61
633.95	1138.50
634.29	1131.50
634.64	1124.90
634.98	1117.44
635.32	1110.18
635.67	1103.52
636.01	1096.91
636.36	1089.98
636.70	1083.40
637.05	1076.87
637.39	1070.26
637.73	1063.70
638.08	1057.83
638.42	1051.66
638.77	1045.33
639.11	1038.72
639.45	1032.40
639.80	1025.70
640.14	1019.40
640.49	1012.86
640.83	1006.53
641.17	1000.33
641.52	993.98
641.86	987.47
642.20	981.54
642.55	975.31
642.89	968.88
643.23	962.30
643.58	956.53
643.92	950.36
644.26	944.23
644.61	938.25
644.95	932.34
645.29	925.74
645.64	919.10
645.98	912.75
646.32	906.95
646.66	900.88
647.01	895.02
647.35	889.23
647.69	883.35
648.04	877.82
648.38	871.95
648.72	865.92
649.06	859.93
649.41	854.10
649.75	848.12
650.09	842.22
650.43	836.54
650.78	830.39
651.12	824.37
651.46	818.70
651.80	812.97
652.14	807.62
652.49	802.26
652.83	797.12
653.17	791.42
653.51	785.63
653.85	780.25
654.20	774.69
654.54	768.66
654.88	763.01
655.22	757.06
655.56	751.45
655.90	746.02
656.25	740.76
656.59	735.39
656.93	730.24
657.27	725.01
657.61	719.54
657.95	714.44
658.29	709.34
658.64	704.11
658.98	698.79
659.32	693.34
659.66	688.19
660.00	682.83
660.34	677.85
660.68	673.01
661.02	667.96
661.36	663.19
661.70	658.73
662.05	654.35
662.39	650.05
662.73	645.48
663.07	641.11
663.41	636.66
663.75	632.19
664.09	627.58
664.43	623.18
664.77	619.02
665.11	614.75
665.45	610.60
665.79	606.39
666.13	602.28
666.47	598.11
666.81	593.94
667.15	589.86
667.49	585.96
667.83	582.15
668.17	578.23
668.51	574.21
668.85	570.16
669.19	566.27
669.53	562.46
669.87	558.63
670.21	554.88
670.55	551.24
670.89	547.79
671.23	544.39
671.57	540.88
671.91	537.32
672.25	533.79
672.58	530.32
672.92	526.94
673.26	523.71
673.60	520.51
673.94	517.36
674.28	514.39
674.62	511.45
674.96	508.29
675.30	505.37
675.64	502.40
675.97	499.61
676.31	496.77
676.65	493.77
676.99	491.05
677.33	488.19
677.67	485.36
678.01	482.31
678.34	479.40
678.68	476.54
679.02	473.73
679.36	470.96
679.70	468.25
680.04	465.52
680.37	462.66
680.71	459.89
681.05	457.24
681.39	454.56
681.73	451.86
682.06	449.35
682.40	446.80
682.74	444.26
683.08	441.73
683.42	439.11
683.75	436.65
684.09	434.07
684.43	431.59
684.77	429.16
685.10	426.81
685.44	424.49
685.78	422.21
686.12	419.93
686.45	417.65
686.79	415.34
687.13	413.12
687.46	410.95
687.80	408.81
688.14	406.61
688.48	404.53
688.81	402.30
689.15	400.09
689.49	397.91
689.82	395.83
690.16	393.75
690.50	391.83
690.83	389.92
691.17	387.99
691.51	386.12
691.84	384.28
692.18	382.35
692.52	380.36
692.85	378.41
693.19	376.58
693.52	374.75
693.86	372.92
694.20	371.19
694.53	369.43
694.87	367.57
695.21	365.77
695.54	363.92
695.88	362.17
696.21	360.50
696.55	358.86
696.88	357.19
697.22	355.58
697.56	353.97
697.89	352.28
698.23	350.64
698.56	349.00
698.90	347.41
699.23	345.75
699.57	344.20
699.90	342.65
700.24	341.09
700.58	339.55
700.91	338.07
701.25	336.58
701.58	335.21
701.92	333.88
702.25	332.53
702.59	331.23
702.92	329.95
703.26	328.64
703.59	327.33
703.93	326.15
704.26	324.88
704.60	323.54
704.93	322.25
705.26	320.99
705.60	319.85
705.93	318.66
706.27	317.62
706.60	316.54
706.94	315.46
707.27	314.33
707.61	313.28
707.94	312.25
708.27	311.15
708.61	310.02
708.94	308.99
709.28	308.00
709.61	306.98
709.94	306.00
710.28	304.99
710.61	304.00
710.95	302.90
711.28	301.97
711.61	301.01
711.95	300.12
712.28	299.19
712.61	298.19
712.95	297.27
713.28	296.37
713.61	295.49
713.95	294.58
714.28	293.74
714.61	292.88
714.95	292.01
715.28	291.14
715.61	290.32
715.95	289.47
716.28	288.60
716.61	287.80
716.95	286.95
717.28	286.20
717.61	285.43
717.94	284.72
718.28	283.91
718.61	283.20
718.94	282.51
719.27	281.83
719.61	281.17
719.94	280.51
720.27	279.78
720.60	279.08
720.94	278.45
721.27	277.86
721.60	277.25
721.93	276.65
722.27	276.12
722.60	275.54
722.93	274.95
723.26	274.42
723.59	273.77
723.93	273.22
724.26	272.67
724.59	272.10
724.92	271.58
725.25	271.07
725.59	270.56
725.92	270.04
726.25	269.51
726.58	269.02
726.91	268.49
727.24	268.03
727.57	267.52
727.91	267.04
728.24	266.60
728.57	266.11
728.90	265.69
729.23	265.16
729.56	264.71
729.89	264.24
730.22	263.75
730.55	263.33
730.89	262.91
731.22	262.47
731.55	262.02
731.88	261.60
732.21	261.18
732.54	260.73
732.87	260.32
733.20	259.94
733.53	259.59
733.86	259.27
734.19	258.89
734.52	258.56
734.85	258.25
735.18	257.82
735.51	257.47
735.84	257.10
736.17	256.79
736.50	256.39
736.83	256.21
737.16	255.89
737.49	255.61
737.82	255.28
738.15	254.96
738.48	254.64
738.81	254.29
739.14	253.96
739.47	253.65
739.80	253.33
740.13	253.02
740.46	252.71
740.79	252.37
741.12	252.07
741.45	251.74
741.78	251.40
742.11	251.12
742.44	250.78
742.77	250.52
743.10	250.25
743.43	250.00
743.75	249.59
744.08	249.43
744.41	249.13
744.74	248.85
745.07	248.55
745.40	248.32
745.73	248.08
746.06	247.83
746.39	247.60
746.71	247.35
747.04	247.08
747.37	246.78
747.70	246.54
748.03	246.26
748.36	246.06
748.68	245.81
749.01	245.59
749.34	245.38
749.67	245.13
750.00	244.92
750.33	244.74
750.65	244.52
750.98	244.20
751.31	243.96
751.64	243.76
751.97	243.59
752.29	243.37
752.62	243.14
752.95	242.93
753.28	242.69
753.60	242.47
753.93	242.29
754.26	242.10
754.59	241.88
754.91	241.69
755.24	241.50
755.57	241.32
755.90	241.08
756.22	240.86
756.55	240.65
756.88	240.41
757.20	240.15
757.53	239.97
757.86	239.79
758.19	239.62
758.51	239.46
758.84	239.25
759.17	239.10
759.49	238.93
759.82	238.79
760.15	238.68
760.47	238.53
760.80	238.35
761.13	238.21
761.45	238.05
761.78	237.90
762.11	237.73
762.43	237.56
762.76	237.44
763.08	237.33
763.41	237.19
763.74	237.05
764.06	236.92
764.39	236.76
764.71	236.65
765.04	236.53
765.37	236.38
765.69	236.24
766.02	236.08
766.34	235.97
766.67	235.83
767.00	235.67
767.32	235.60
767.65	235.54
767.97	235.44
768.30	235.32
768.62	235.19
768.95	235.07
769.27	234.96
769.60	234.87
769.92	234.75
770.25	234.62
770.57	234.49
770.90	234.41
771.22	234.28
771.55	234.17
771.87	234.06
772.20	233.96
772.52	233.99
772.85	234.00
773.17	233.90
773.50	233.79
773.82	233.69
774.15	233.56
774.47	233.44
774.80	233.33
775.12	233.27
775.45	233.18
775.77	233.15
776.09	233.10
776.42	233.04
776.74	232.99
777.07	232.95
777.39	232.91
777.72	232.83
778.04	232.80
778.36	232.72
778.69	232.64
779.01	232.59
779.33	232.46
779.66	232.29
779.98	232.20
780.31	232.14
780.63	232.10
780.95	232.05
781.28	231.96
781.60	231.91
781.92	231.85
782.25	231.82
782.57	231.74
782.89	231.72
783.22	231.64
783.54	231.56
783.86	231.48
784.19	231.40
784.51	231.37
784.83	231.31
785.16	231.28
785.48	231.22
785.80	231.17
786.12	231.09
786.45	231.07
786.77	231.06
787.09	231.02
