SpectraSuite Data File
++++++++++++++++++++++++++++++++++++
Date: Fri Feb 01 16:32:26 EST 2013
User: group
Dark Spectrum Present: No
Reference Spectrum Present: No
Number of Sampled Component Spectra: 1
Spectrometers: USB2E7196
Integration Time (usec): 35000 (USB2E7196)
Spectra Averaged: 100 (USB2E7196)
Boxcar Smoothing: 10 (USB2E7196)
Correct for Electrical Dark: No (USB2E7196)
Strobe/Lamp Enabled: No (USB2E7196)
Correct for Detector Non-linearity: No (USB2E7196)
Correct for Stray Light: No (USB2E7196)
Number of Pixels in Processed Spectrum: 2048
>>>>>Begin Processed Spectral Data<<<<<
339.09	0.00
339.48	214.49
339.86	214.99
340.24	216.96
340.63	218.52
341.01	221.12
341.39	221.19
341.78	222.49
342.16	223.49
342.54	223.93
342.93	212.39
343.31	223.13
343.69	223.63
344.07	224.11
344.46	224.54
344.84	224.91
345.22	225.14
345.60	225.38
345.99	225.57
346.37	225.69
346.75	225.82
347.13	225.85
347.52	225.91
347.90	226.00
348.28	226.06
348.66	226.09
349.05	226.10
349.43	226.15
349.81	226.18
350.19	226.24
350.57	226.31
350.96	226.40
351.34	226.47
351.72	226.57
352.10	226.67
352.48	226.73
352.87	226.77
353.25	226.83
353.63	226.90
354.01	226.97
354.39	227.04
354.77	227.07
355.15	227.19
355.54	227.26
355.92	227.25
356.30	227.30
356.68	227.45
357.06	227.51
357.44	227.57
357.82	227.61
358.20	227.69
358.58	227.74
358.97	227.77
359.35	227.84
359.73	227.94
360.11	227.98
360.49	228.05
360.87	228.09
361.25	228.16
361.63	228.22
362.01	228.27
362.39	228.32
362.77	228.37
363.15	228.40
363.53	228.41
363.91	228.50
364.29	228.52
364.67	228.43
365.05	228.43
365.43	228.48
365.81	228.51
366.19	228.56
366.57	228.61
366.95	228.58
367.33	228.58
367.71	228.57
368.09	228.61
368.47	228.58
368.85	228.56
369.23	228.54
369.61	228.49
369.99	228.46
370.37	228.46
370.75	228.49
371.13	228.44
371.51	228.40
371.89	228.37
372.27	228.35
372.65	228.33
373.03	228.28
373.41	228.19
373.78	228.13
374.16	228.00
374.54	227.91
374.92	227.90
375.30	227.81
375.68	227.72
376.06	227.64
376.44	227.58
376.82	227.53
377.19	227.49
377.57	227.45
377.95	227.38
378.33	227.32
378.71	227.20
379.09	227.15
379.47	227.10
379.84	227.02
380.22	226.95
380.60	226.87
380.98	226.81
381.36	226.73
381.73	226.67
382.11	226.66
382.49	226.62
382.87	226.53
383.25	226.46
383.62	226.53
384.00	226.44
384.38	226.38
384.76	226.35
385.13	226.35
385.51	226.29
385.89	226.23
386.27	226.16
386.64	226.14
387.02	226.09
387.40	226.06
387.78	226.02
388.15	225.99
388.53	225.95
388.91	225.93
389.29	225.92
389.66	225.91
390.04	225.85
390.42	225.83
390.79	225.82
391.17	225.82
391.55	225.69
391.92	225.67
392.30	225.66
392.68	225.65
393.05	225.62
393.43	225.62
393.81	225.64
394.18	225.62
394.56	225.61
394.94	225.64
395.31	225.63
395.69	225.67
396.06	225.70
396.44	225.75
396.82	225.78
397.19	225.86
397.57	225.86
397.95	225.92
398.32	225.93
398.70	225.99
399.07	226.08
399.45	226.14
399.82	226.26
400.20	226.35
400.58	226.41
400.95	226.42
401.33	226.50
401.70	226.59
402.08	226.69
402.45	226.80
402.83	226.90
403.20	227.00
403.58	227.08
403.95	227.18
404.33	227.27
404.71	227.41
405.08	227.57
405.46	227.72
405.83	227.87
406.21	228.02
406.58	228.17
406.96	228.29
407.33	228.47
407.70	228.65
408.08	228.90
408.45	229.10
408.83	229.33
409.20	229.53
409.58	229.76
409.95	229.99
410.33	230.26
410.70	230.49
411.08	230.78
411.45	231.08
411.82	231.40
412.20	231.72
412.57	232.12
412.95	232.42
413.32	232.81
413.69	233.18
414.07	233.63
414.44	234.09
414.82	234.57
415.19	235.11
415.56	235.62
415.94	236.13
416.31	236.76
416.68	237.39
417.06	238.07
417.43	238.74
417.81	239.51
418.18	240.27
418.55	241.12
418.93	241.98
419.30	242.85
419.67	243.81
420.04	244.77
420.42	245.71
420.79	246.90
421.16	248.05
421.54	249.25
421.91	250.46
422.28	251.69
422.66	253.00
423.03	254.29
423.40	255.60
423.77	257.01
424.15	258.42
424.52	259.90
424.89	261.54
425.26	263.06
425.64	264.49
426.01	266.06
426.38	267.73
426.75	269.41
427.13	271.15
427.50	272.92
427.87	274.79
428.24	276.67
428.61	278.36
428.99	280.32
429.36	282.38
429.73	284.44
430.10	286.48
430.47	288.51
430.85	290.63
431.22	292.88
431.59	295.23
431.96	297.49
432.33	299.98
432.70	302.36
433.08	305.18
433.45	307.82
433.82	310.42
434.19	313.27
434.56	316.08
434.93	318.71
435.30	321.31
435.68	324.19
436.05	327.02
436.42	329.82
436.79	332.32
437.16	335.00
437.53	337.78
437.90	340.54
438.27	343.30
438.64	346.10
439.01	348.71
439.38	350.94
439.75	353.06
440.13	355.51
440.50	357.81
440.87	359.65
441.24	361.56
441.61	363.73
441.98	365.20
442.35	367.01
442.72	368.81
443.09	370.63
443.46	371.64
443.83	372.22
444.20	372.72
444.57	373.58
444.94	373.90
445.31	374.24
445.68	374.63
446.05	374.66
446.42	374.28
446.79	373.85
447.16	373.41
447.53	373.08
447.90	371.90
448.27	370.75
448.64	369.15
449.01	367.99
449.37	366.01
449.74	364.12
450.11	361.85
450.48	359.39
450.85	356.83
451.22	354.69
451.59	352.69
451.96	350.79
452.33	348.21
452.70	345.85
453.07	343.09
453.43	340.18
453.80	337.48
454.17	334.82
454.54	332.32
454.91	329.59
455.28	326.94
455.65	324.51
456.02	322.05
456.38	319.96
456.75	317.34
457.12	315.09
457.49	312.88
457.86	310.73
458.23	308.95
458.59	306.95
458.96	304.91
459.33	303.06
459.70	301.17
460.07	299.67
460.43	297.95
460.80	296.35
461.17	294.95
461.54	293.44
461.91	292.03
462.27	290.54
462.64	289.34
463.01	288.02
463.38	286.72
463.74	285.41
464.11	284.25
464.48	283.24
464.85	282.18
465.21	281.33
465.58	280.43
465.95	279.35
466.32	278.46
466.68	277.59
467.05	276.72
467.42	275.85
467.78	274.92
468.15	274.08
468.52	273.40
468.88	272.52
469.25	271.77
469.62	271.14
469.98	270.48
470.35	269.85
470.72	269.28
471.08	268.62
471.45	268.06
471.82	267.51
472.18	266.92
472.55	266.47
472.92	265.98
473.28	265.52
473.65	265.06
474.02	264.61
474.38	264.21
474.75	263.87
475.11	263.57
475.48	263.29
475.85	263.07
476.21	262.84
476.58	262.67
476.94	262.51
477.31	262.37
477.67	262.25
478.04	262.13
478.41	262.07
478.77	262.19
479.14	262.17
479.50	262.18
479.87	262.27
480.23	262.37
480.60	262.47
480.96	262.52
481.33	262.77
481.69	262.97
482.06	263.16
482.42	263.37
482.79	263.61
483.15	263.92
483.52	264.32
483.88	264.65
484.25	265.03
484.61	265.48
484.98	265.94
485.34	266.54
485.71	267.16
486.07	267.78
486.44	268.30
486.80	268.99
487.17	269.75
487.53	270.54
487.90	271.39
488.26	272.26
488.62	273.29
488.99	274.25
489.35	275.31
489.72	276.44
490.08	277.63
490.44	278.87
490.81	280.21
491.17	281.55
491.54	283.06
491.90	284.59
492.26	286.24
492.63	287.98
492.99	289.71
493.36	291.61
493.72	293.59
494.08	295.68
494.45	297.94
494.81	300.25
495.17	302.67
495.54	305.28
495.90	307.96
496.26	310.77
496.63	313.74
496.99	316.85
497.35	320.14
497.72	323.53
498.08	327.05
498.44	330.73
498.80	334.65
499.17	338.66
499.53	342.90
499.89	347.31
500.26	351.74
500.62	356.44
500.98	361.39
501.34	366.51
501.71	371.87
502.07	377.32
502.43	383.00
502.79	388.85
503.16	394.89
503.52	401.21
503.88	407.65
504.24	414.32
504.60	421.23
504.97	428.37
505.33	435.70
505.69	443.46
506.05	451.27
506.41	459.16
506.78	467.34
507.14	475.82
507.50	484.49
507.86	493.55
508.22	502.76
508.59	511.99
508.95	521.54
509.31	531.35
509.67	541.47
510.03	551.76
510.39	562.32
510.75	573.10
511.12	584.02
511.48	595.28
511.84	606.71
512.20	618.17
512.56	630.04
512.92	642.30
513.28	654.58
513.64	666.98
514.00	679.70
514.37	692.62
514.73	705.62
515.09	718.62
515.45	732.00
515.81	745.53
516.17	759.48
516.53	773.60
516.89	787.71
517.25	801.75
517.61	816.15
517.97	830.65
518.33	845.10
518.69	859.84
519.05	874.71
519.41	889.80
519.77	905.27
520.13	920.69
520.49	935.97
520.85	951.37
521.21	967.09
521.57	983.24
521.93	998.89
522.29	1015.12
522.65	1031.41
523.01	1047.48
523.37	1063.47
523.73	1079.52
524.09	1095.56
524.45	1111.80
524.81	1128.29
525.17	1144.88
525.53	1161.58
525.89	1178.31
526.25	1195.04
526.61	1211.29
526.97	1227.91
527.33	1244.39
527.68	1260.88
528.04	1277.28
528.40	1293.73
528.76	1310.69
529.12	1327.20
529.48	1344.09
529.84	1360.07
530.20	1376.47
530.56	1393.39
530.91	1410.67
531.27	1427.33
531.63	1443.76
531.99	1460.33
532.35	1476.28
532.71	1492.17
533.07	1508.25
533.42	1524.16
533.78	1540.15
534.14	1556.49
534.50	1571.81
534.86	1587.53
535.21	1602.54
535.57	1618.27
535.93	1633.63
536.29	1648.34
536.65	1663.14
537.00	1677.63
537.36	1692.88
537.72	1707.34
538.08	1721.69
538.44	1735.37
538.79	1749.16
539.15	1762.53
539.51	1776.13
539.87	1790.39
540.22	1803.89
540.58	1817.71
540.94	1830.85
541.29	1843.60
541.65	1856.12
542.01	1869.26
542.37	1881.55
542.72	1894.05
543.08	1905.76
543.44	1918.06
543.79	1929.11
544.15	1940.09
544.51	1951.76
544.87	1962.50
545.22	1973.30
545.58	1983.35
545.94	1993.06
546.29	2002.82
546.65	2012.77
547.01	2021.94
547.36	2030.58
547.72	2039.10
548.07	2046.91
548.43	2054.91
548.79	2062.90
549.14	2070.29
549.50	2077.52
549.86	2085.04
550.21	2092.24
550.57	2099.46
550.92	2106.01
551.28	2113.03
551.64	2120.02
551.99	2126.29
552.35	2132.52
552.70	2138.57
553.06	2144.44
553.41	2150.78
553.77	2156.81
554.13	2162.83
554.48	2168.91
554.84	2174.41
555.19	2179.77
555.55	2184.92
555.90	2189.45
556.26	2194.22
556.61	2199.08
556.97	2203.43
557.32	2207.63
557.68	2211.76
558.03	2215.89
558.39	2219.47
558.74	2224.17
559.10	2228.09
559.45	2231.88
559.81	2236.13
560.16	2239.97
560.52	2243.30
560.87	2246.69
561.23	2249.33
561.58	2252.35
561.94	2254.85
562.29	2257.29
562.64	2259.78
563.00	2262.20
563.35	2265.80
563.71	2269.01
564.06	2272.21
564.42	2275.05
564.77	2277.46
565.12	2279.81
565.48	2281.87
565.83	2283.95
566.19	2285.18
566.54	2286.04
566.89	2287.27
567.25	2287.93
567.60	2289.31
567.96	2290.98
568.31	2291.83
568.66	2293.04
569.02	2293.69
569.37	2294.07
569.72	2294.88
570.08	2295.20
570.43	2295.57
570.78	2295.04
571.14	2293.61
571.49	2292.19
571.84	2291.95
572.20	2291.02
572.55	2290.05
572.90	2288.47
573.26	2287.17
573.61	2285.61
573.96	2284.05
574.31	2281.22
574.67	2278.33
575.02	2274.78
575.37	2271.51
575.72	2267.76
576.08	2264.32
576.43	2261.05
576.78	2257.51
577.13	2254.46
577.49	2251.37
577.84	2247.75
578.19	2244.06
578.54	2240.57
578.90	2236.52
579.25	2230.94
579.60	2226.03
579.95	2221.01
580.30	2216.09
580.66	2210.94
581.01	2206.06
581.36	2201.26
581.71	2197.16
582.06	2192.81
582.42	2188.47
582.77	2183.33
583.12	2178.94
583.47	2174.48
583.82	2169.48
584.17	2164.30
584.53	2158.91
584.88	2153.35
585.23	2147.61
585.58	2142.12
585.93	2136.66
586.28	2131.99
586.63	2127.01
586.98	2122.02
587.34	2117.36
587.69	2112.73
588.04	2107.56
588.39	2101.95
588.74	2095.39
589.09	2089.14
589.44	2082.40
589.79	2076.31
590.14	2070.87
590.49	2064.38
590.84	2058.05
591.19	2052.06
591.54	2045.75
591.89	2038.27
592.25	2031.59
592.60	2024.41
592.95	2016.97
593.30	2009.71
593.65	2002.21
594.00	1995.23
594.35	1988.00
594.70	1980.07
595.05	1972.82
595.40	1965.57
595.75	1958.28
596.10	1952.22
596.45	1945.68
596.80	1939.73
597.15	1933.27
597.50	1926.06
597.85	1919.61
598.19	1913.12
598.54	1905.95
598.89	1899.23
599.24	1893.54
599.59	1886.77
599.94	1880.71
600.29	1874.32
600.64	1867.73
600.99	1860.20
601.34	1853.35
601.69	1846.47
602.04	1839.65
602.39	1832.26
602.74	1825.47
603.08	1818.54
603.43	1811.79
603.78	1804.37
604.13	1797.03
604.48	1789.58
604.83	1782.71
605.18	1775.73
605.53	1767.64
605.87	1759.82
606.22	1752.64
606.57	1744.77
606.92	1737.69
607.27	1730.51
607.62	1723.66
607.96	1716.30
608.31	1709.79
608.66	1702.40
609.01	1694.82
609.36	1687.29
609.70	1679.34
610.05	1671.32
610.40	1663.72
610.75	1655.47
611.10	1647.86
611.44	1639.51
611.79	1631.64
612.14	1623.06
612.49	1613.86
612.83	1605.56
613.18	1597.48
613.53	1589.36
613.88	1580.70
614.22	1572.32
614.57	1563.72
614.92	1555.63
615.27	1548.19
615.61	1539.94
615.96	1531.85
616.31	1524.22
616.65	1516.84
617.00	1509.38
617.35	1501.72
617.70	1493.42
618.04	1484.89
618.39	1476.66
618.74	1469.01
619.08	1460.66
619.43	1453.04
619.78	1446.19
620.12	1439.06
620.47	1431.39
620.82	1423.30
621.16	1415.91
621.51	1408.31
621.85	1400.72
622.20	1392.31
622.55	1383.96
622.89	1376.11
623.24	1368.43
623.59	1361.06
623.93	1353.49
624.28	1346.17
624.62	1338.60
624.97	1331.40
625.32	1324.59
625.66	1317.59
626.01	1310.48
626.35	1303.09
626.70	1295.40
627.04	1287.64
627.39	1279.79
627.73	1272.48
628.08	1265.57
628.43	1258.32
628.77	1250.98
629.12	1243.39
629.46	1236.37
629.81	1228.97
630.15	1221.69
630.50	1214.27
630.84	1206.03
631.19	1198.18
631.53	1190.67
631.88	1183.22
632.22	1175.62
632.57	1168.39
632.91	1160.83
633.26	1153.33
633.60	1146.00
633.95	1138.85
634.29	1131.84
634.64	1125.20
634.98	1117.89
635.32	1110.69
635.67	1104.03
636.01	1097.36
636.36	1090.59
636.70	1083.88
637.05	1077.22
637.39	1070.77
637.73	1064.26
638.08	1058.39
638.42	1052.29
638.77	1045.80
639.11	1039.15
639.45	1032.77
639.80	1026.13
640.14	1019.81
640.49	1013.38
640.83	1007.01
641.17	1000.79
641.52	994.38
641.86	987.88
642.20	981.96
642.55	975.64
642.89	969.15
643.23	962.56
643.58	956.76
643.92	950.68
644.26	944.60
644.61	938.50
644.95	932.49
645.29	925.92
645.64	919.21
645.98	912.86
646.32	906.97
646.66	900.93
647.01	895.11
647.35	889.27
647.69	883.36
648.04	877.85
648.38	872.02
648.72	866.03
649.06	859.91
649.41	853.98
649.75	848.02
650.09	842.08
650.43	836.37
650.78	830.27
651.12	824.28
651.46	818.52
651.80	812.81
652.14	807.39
652.49	802.04
652.83	796.94
653.17	791.22
653.51	785.51
653.85	780.12
654.20	774.50
654.54	768.50
654.88	762.72
655.22	756.78
655.56	751.15
655.90	745.76
656.25	740.57
656.59	735.26
656.93	730.15
657.27	725.01
657.61	719.53
657.95	714.37
658.29	709.28
658.64	704.09
658.98	698.80
659.32	693.36
659.66	688.12
660.00	682.75
660.34	677.83
660.68	672.92
661.02	667.82
661.36	662.99
661.70	658.50
662.05	654.13
662.39	649.83
662.73	645.34
663.07	640.96
663.41	636.46
663.75	631.91
664.09	627.32
664.43	622.96
664.77	618.90
665.11	614.66
665.45	610.54
665.79	606.48
666.13	602.35
666.47	598.20
666.81	594.10
667.15	589.99
667.49	586.11
667.83	582.30
668.17	578.36
668.51	574.36
668.85	570.29
669.19	566.48
669.53	562.68
669.87	558.82
670.21	555.10
670.55	551.43
670.89	548.03
671.23	544.67
671.57	541.12
671.91	537.50
672.25	533.96
672.58	530.38
672.92	526.89
673.26	523.72
673.60	520.58
673.94	517.41
674.28	514.46
674.62	511.49
674.96	508.37
675.30	505.44
675.64	502.52
675.97	499.75
676.31	496.87
676.65	493.92
676.99	491.20
677.33	488.32
677.67	485.57
678.01	482.57
678.34	479.55
678.68	476.67
679.02	473.89
679.36	471.11
679.70	468.47
680.04	465.71
680.37	462.78
680.71	459.96
681.05	457.35
681.39	454.59
681.73	451.95
682.06	449.44
682.40	446.90
682.74	444.37
683.08	441.84
683.42	439.23
683.75	436.69
684.09	434.11
684.43	431.65
684.77	429.14
685.10	426.77
685.44	424.44
685.78	422.08
686.12	419.81
686.45	417.53
686.79	415.20
687.13	413.04
687.46	410.89
687.80	408.77
688.14	406.51
688.48	404.42
688.81	402.16
689.15	399.96
689.49	397.86
689.82	395.81
690.16	393.74
690.50	391.79
690.83	389.86
691.17	387.90
691.51	386.01
691.84	384.18
692.18	382.22
692.52	380.28
692.85	378.40
693.19	376.53
693.52	374.70
693.86	372.88
694.20	371.15
694.53	369.39
694.87	367.54
695.21	365.85
695.54	364.04
695.88	362.29
696.21	360.63
696.55	358.92
696.88	357.22
697.22	355.54
697.56	353.94
697.89	352.26
698.23	350.67
698.56	349.00
698.90	347.41
699.23	345.76
699.57	344.23
699.90	342.69
700.24	341.11
700.58	339.60
700.91	338.09
701.25	336.60
701.58	335.22
701.92	333.83
702.25	332.40
702.59	331.09
702.92	329.80
703.26	328.45
703.59	327.18
703.93	325.99
704.26	324.73
704.60	323.40
704.93	322.12
705.26	320.84
705.60	319.68
705.93	318.51
706.27	317.49
706.60	316.39
706.94	315.30
707.27	314.20
707.61	313.11
707.94	312.10
708.27	311.02
708.61	309.96
708.94	308.97
709.28	307.96
709.61	307.01
709.94	306.05
710.28	305.03
710.61	304.04
710.95	302.95
711.28	302.09
711.61	301.12
711.95	300.23
712.28	299.29
712.61	298.34
712.95	297.38
713.28	296.49
713.61	295.63
713.95	294.77
714.28	293.91
714.61	293.04
714.95	292.21
715.28	291.30
715.61	290.42
715.95	289.58
716.28	288.74
716.61	287.89
716.95	287.04
717.28	286.29
717.61	285.53
717.94	284.77
718.28	283.90
718.61	283.20
718.94	282.50
719.27	281.81
719.61	281.16
719.94	280.51
720.27	279.76
720.60	279.07
720.94	278.44
721.27	277.83
721.60	277.26
721.93	276.62
722.27	276.13
722.60	275.57
722.93	274.98
723.26	274.44
723.59	273.91
723.93	273.37
724.26	272.81
724.59	272.23
724.92	271.69
725.25	271.24
725.59	270.70
725.92	270.16
726.25	269.69
726.58	269.18
726.91	268.73
727.24	268.26
727.57	267.82
727.91	267.29
728.24	266.84
728.57	266.40
728.90	265.94
729.23	265.45
729.56	265.02
729.89	264.58
730.22	264.07
730.55	263.60
730.89	263.14
731.22	262.71
731.55	262.29
731.88	261.90
732.21	261.47
732.54	261.02
732.87	260.64
733.20	260.24
733.53	259.87
733.86	259.44
734.19	259.05
734.52	258.62
734.85	258.33
735.18	257.89
735.51	257.48
735.84	257.13
736.17	256.77
736.50	256.36
736.83	256.11
737.16	255.76
737.49	255.40
737.82	255.07
738.15	254.73
738.48	254.38
738.81	254.03
739.14	253.71
739.47	253.39
739.80	253.05
740.13	252.72
740.46	252.37
740.79	252.04
741.12	251.73
741.45	251.41
741.78	251.08
742.11	250.83
742.44	250.53
742.77	250.21
743.10	249.90
743.43	249.60
743.75	249.22
744.08	249.09
744.41	248.81
744.74	248.52
745.07	248.22
745.40	247.99
745.73	247.79
746.06	247.48
746.39	247.26
746.71	246.99
747.04	246.69
747.37	246.44
747.70	246.21
748.03	245.96
748.36	245.76
748.68	245.51
749.01	245.24
749.34	245.00
749.67	244.80
750.00	244.58
750.33	244.38
750.65	244.17
750.98	243.81
751.31	243.59
751.64	243.42
751.97	243.27
752.29	243.02
752.62	242.72
752.95	242.53
753.28	242.32
753.60	242.12
753.93	241.96
754.26	241.76
754.59	241.55
754.91	241.38
755.24	241.20
755.57	241.00
755.90	240.81
756.22	240.62
756.55	240.41
756.88	240.19
757.20	239.96
757.53	239.76
757.86	239.59
758.19	239.42
758.51	239.23
758.84	239.02
759.17	238.88
759.49	238.73
759.82	238.62
760.15	238.44
760.47	238.31
760.80	238.13
761.13	238.01
761.45	237.85
761.78	237.70
762.11	237.53
762.43	237.36
762.76	237.21
763.08	237.09
763.41	236.97
763.74	236.85
764.06	236.73
764.39	236.60
764.71	236.47
765.04	236.34
765.37	236.19
765.69	236.07
766.02	235.94
766.34	235.83
766.67	235.68
767.00	235.62
767.32	235.59
767.65	235.58
767.97	235.43
768.30	235.32
768.62	235.21
768.95	235.11
769.27	235.00
769.60	234.95
769.92	234.85
770.25	234.72
770.57	234.63
770.90	234.52
771.22	234.45
771.55	234.37
771.87	234.29
772.20	234.21
772.52	234.19
772.85	234.22
773.17	234.15
773.50	234.03
773.82	233.91
774.15	233.75
774.47	233.55
774.80	233.47
775.12	233.37
775.45	233.31
775.77	233.23
776.09	233.16
776.42	233.08
776.74	233.02
777.07	232.94
777.39	232.87
777.72	232.80
778.04	232.74
778.36	232.65
778.69	232.60
779.01	232.51
779.33	232.34
779.66	232.14
779.98	232.05
780.31	232.02
780.63	232.00
780.95	231.97
781.28	231.91
781.60	231.85
781.92	231.81
782.25	231.76
782.57	231.70
782.89	231.62
783.22	231.54
783.54	231.44
783.86	231.36
784.19	231.31
784.51	231.30
784.83	231.21
785.16	231.15
785.48	231.10
785.80	231.07
786.12	231.05
786.45	231.01
786.77	230.96
787.09	230.91
