SpectraSuite Data File
++++++++++++++++++++++++++++++++++++
Date: Fri Feb 01 17:41:33 EST 2013
User: group
Dark Spectrum Present: No
Reference Spectrum Present: No
Number of Sampled Component Spectra: 1
Spectrometers: USB2E7196
Integration Time (usec): 35000 (USB2E7196)
Spectra Averaged: 100 (USB2E7196)
Boxcar Smoothing: 10 (USB2E7196)
Correct for Electrical Dark: No (USB2E7196)
Strobe/Lamp Enabled: No (USB2E7196)
Correct for Detector Non-linearity: No (USB2E7196)
Correct for Stray Light: No (USB2E7196)
Number of Pixels in Processed Spectrum: 2048
>>>>>Begin Processed Spectral Data<<<<<
339.09	0.00
339.48	212.90
339.86	213.43
340.24	215.72
340.63	217.48
341.01	219.41
341.39	219.86
341.78	220.87
342.16	221.61
342.54	222.93
342.93	210.97
343.31	221.64
343.69	222.19
344.07	222.69
344.46	223.09
344.84	223.45
345.22	223.70
345.60	223.93
345.99	224.13
346.37	224.27
346.75	224.35
347.13	224.44
347.52	224.52
347.90	224.61
348.28	224.61
348.66	224.69
349.05	224.69
349.43	224.75
349.81	224.83
350.19	224.89
350.57	224.99
350.96	225.11
351.34	225.20
351.72	225.24
352.10	225.33
352.48	225.41
352.87	225.42
353.25	225.48
353.63	225.54
354.01	225.59
354.39	225.68
354.77	225.74
355.15	225.84
355.54	225.90
355.92	225.96
356.30	226.04
356.68	226.14
357.06	226.25
357.44	226.30
357.82	226.34
358.20	226.41
358.58	226.46
358.97	226.50
359.35	226.56
359.73	226.67
360.11	226.74
360.49	226.81
360.87	226.89
361.25	226.96
361.63	227.05
362.01	227.10
362.39	227.15
362.77	227.22
363.15	227.23
363.53	227.26
363.91	227.25
364.29	227.31
364.67	227.27
365.05	227.30
365.43	227.33
365.81	227.35
366.19	227.39
366.57	227.44
366.95	227.43
367.33	227.43
367.71	227.43
368.09	227.44
368.47	227.44
368.85	227.43
369.23	227.45
369.61	227.38
369.99	227.41
370.37	227.41
370.75	227.45
371.13	227.40
371.51	227.36
371.89	227.36
372.27	227.32
372.65	227.27
373.03	227.22
373.41	227.14
373.78	227.11
374.16	227.02
374.54	226.92
374.92	226.87
375.30	226.83
375.68	226.74
376.06	226.68
376.44	226.61
376.82	226.56
377.19	226.49
377.57	226.44
377.95	226.34
378.33	226.26
378.71	226.14
379.09	226.10
379.47	226.06
379.84	225.95
380.22	225.88
380.60	225.81
380.98	225.72
381.36	225.66
381.73	225.59
382.11	225.56
382.49	225.51
382.87	225.42
383.25	225.36
383.62	225.43
384.00	225.35
384.38	225.30
384.76	225.24
385.13	225.22
385.51	225.17
385.89	225.09
386.27	225.04
386.64	224.97
387.02	224.92
387.40	224.86
387.78	224.86
388.15	224.81
388.53	224.76
388.91	224.72
389.29	224.70
389.66	224.69
390.04	224.66
390.42	224.64
390.79	224.63
391.17	224.58
391.55	224.45
391.92	224.42
392.30	224.43
392.68	224.42
393.05	224.41
393.43	224.38
393.81	224.40
394.18	224.37
394.56	224.36
394.94	224.41
395.31	224.42
395.69	224.47
396.06	224.53
396.44	224.57
396.82	224.59
397.19	224.67
397.57	224.67
397.95	224.71
398.32	224.74
398.70	224.82
399.07	224.94
399.45	225.01
399.82	225.09
400.20	225.13
400.58	225.20
400.95	225.22
401.33	225.32
401.70	225.47
402.08	225.58
402.45	225.69
402.83	225.74
403.20	225.85
403.58	225.92
403.95	226.01
404.33	226.15
404.71	226.28
405.08	226.46
405.46	226.63
405.83	226.78
406.21	226.89
406.58	227.06
406.96	227.19
407.33	227.35
407.70	227.55
408.08	227.80
408.45	228.06
408.83	228.30
409.20	228.52
409.58	228.72
409.95	229.00
410.33	229.27
410.70	229.56
411.08	229.85
411.45	230.18
411.82	230.53
412.20	230.90
412.57	231.37
412.95	231.66
413.32	232.11
413.69	232.54
414.07	233.04
414.44	233.55
414.82	234.10
415.19	234.73
415.56	235.36
415.94	235.98
416.31	236.69
416.68	237.43
417.06	238.24
417.43	238.98
417.81	239.84
418.18	240.74
418.55	241.70
418.93	242.71
419.30	243.73
419.67	244.81
420.04	245.92
420.42	247.03
420.79	248.36
421.16	249.67
421.54	251.04
421.91	252.45
422.28	253.88
422.66	255.41
423.03	256.88
423.40	258.34
423.77	259.95
424.15	261.57
424.52	263.23
424.89	265.08
425.26	266.87
425.64	268.53
426.01	270.39
426.38	272.24
426.75	274.15
427.13	276.12
427.50	278.17
427.87	280.31
428.24	282.42
428.61	284.42
428.99	286.61
429.36	289.02
429.73	291.37
430.10	293.68
430.47	296.05
430.85	298.47
431.22	301.05
431.59	303.79
431.96	306.33
432.33	309.17
432.70	311.88
433.08	315.09
433.45	318.06
433.82	321.02
434.19	324.37
434.56	327.56
434.93	330.59
435.30	333.55
435.68	336.80
436.05	340.05
436.42	343.26
436.79	346.16
437.16	349.22
437.53	352.43
437.90	355.63
438.27	358.76
438.64	362.00
439.01	365.00
439.38	367.55
439.75	370.04
440.13	372.87
440.50	375.54
440.87	377.62
441.24	379.89
441.61	382.34
441.98	384.00
442.35	386.13
442.72	388.25
443.09	390.38
443.46	391.53
443.83	392.21
444.20	392.81
444.57	393.76
444.94	394.14
445.31	394.59
445.68	395.01
446.05	395.06
446.42	394.66
446.79	394.16
447.16	393.64
447.53	393.31
447.90	392.03
448.27	390.70
448.64	388.98
449.01	387.69
449.37	385.46
449.74	383.37
450.11	380.76
450.48	377.98
450.85	375.07
451.22	372.67
451.59	370.36
451.96	368.13
452.33	365.18
452.70	362.48
453.07	359.25
453.43	355.98
453.80	352.83
454.17	349.75
454.54	346.89
454.91	343.81
455.28	340.73
455.65	337.87
456.02	335.07
456.38	332.61
456.75	329.58
457.12	327.01
457.49	324.42
457.86	321.98
458.23	319.85
458.59	317.53
458.96	315.15
459.33	313.03
459.70	310.87
460.07	309.13
460.43	307.14
460.80	305.25
461.17	303.57
461.54	301.85
461.91	300.25
462.27	298.56
462.64	297.13
463.01	295.59
463.38	294.13
463.74	292.58
464.11	291.20
464.48	290.04
464.85	288.77
465.21	287.77
465.58	286.69
465.95	285.44
466.32	284.40
466.68	283.34
467.05	282.33
467.42	281.34
467.78	280.30
468.15	279.30
468.52	278.55
468.88	277.57
469.25	276.70
469.62	275.96
469.98	275.16
470.35	274.43
470.72	273.77
471.08	273.04
471.45	272.44
471.82	271.81
472.18	271.10
472.55	270.60
472.92	270.03
473.28	269.50
473.65	268.98
474.02	268.46
474.38	268.04
474.75	267.65
475.11	267.23
475.48	266.89
475.85	266.63
476.21	266.35
476.58	266.15
476.94	265.95
477.31	265.75
477.67	265.58
478.04	265.41
478.41	265.29
478.77	265.28
479.14	265.19
479.50	265.18
479.87	265.23
480.23	265.29
480.60	265.33
480.96	265.37
481.33	265.57
481.69	265.72
482.06	265.92
482.42	266.08
482.79	266.30
483.15	266.64
483.52	267.01
483.88	267.33
484.25	267.71
484.61	268.14
484.98	268.59
485.34	269.15
485.71	269.80
486.07	270.41
486.44	270.96
486.80	271.65
487.17	272.38
487.53	273.16
487.90	273.98
488.26	274.89
488.62	275.89
488.99	276.82
489.35	277.85
489.72	278.93
490.08	280.21
490.44	281.50
490.81	282.81
491.17	284.17
491.54	285.69
491.90	287.20
492.26	288.83
492.63	290.58
492.99	292.33
493.36	294.19
493.72	296.27
494.08	298.39
494.45	300.64
494.81	303.01
495.17	305.48
495.54	308.07
495.90	310.85
496.26	313.64
496.63	316.65
496.99	319.87
497.35	323.17
497.72	326.55
498.08	330.06
498.44	333.79
498.80	337.70
499.17	341.77
499.53	345.98
499.89	350.41
500.26	354.93
500.62	359.67
500.98	364.67
501.34	369.75
501.71	375.11
502.07	380.65
502.43	386.36
502.79	392.24
503.16	398.40
503.52	404.66
503.88	411.15
504.24	417.81
504.60	424.74
504.97	431.94
505.33	439.33
505.69	447.09
506.05	454.90
506.41	462.87
506.78	471.10
507.14	479.60
507.50	488.38
507.86	497.49
508.22	506.73
508.59	516.07
508.95	525.72
509.31	535.63
509.67	545.76
510.03	556.16
510.39	566.82
510.75	577.66
511.12	588.64
511.48	600.00
511.84	611.55
512.20	623.12
512.56	635.18
512.92	647.37
513.28	659.85
513.64	672.41
514.00	685.20
514.37	698.29
514.73	711.48
515.09	724.57
515.45	737.90
515.81	751.55
516.17	765.51
516.53	779.79
516.89	794.07
517.25	808.36
517.61	822.80
517.97	837.43
518.33	852.03
518.69	866.99
519.05	882.10
519.41	897.45
519.77	913.08
520.13	928.62
520.49	944.26
520.85	959.71
521.21	975.59
521.57	991.94
521.93	1007.89
522.29	1024.34
522.65	1040.92
523.01	1057.30
523.37	1073.56
523.73	1089.95
524.09	1106.32
524.45	1122.79
524.81	1139.61
525.17	1156.57
525.53	1173.51
525.89	1190.52
526.25	1207.57
526.61	1224.25
526.97	1241.19
527.33	1257.94
527.68	1274.76
528.04	1291.51
528.40	1308.30
528.76	1325.61
529.12	1342.47
529.48	1359.61
529.84	1375.99
530.20	1392.80
530.56	1410.07
530.91	1427.76
531.27	1444.97
531.63	1461.66
531.99	1478.63
532.35	1494.95
532.71	1511.31
533.07	1528.16
533.42	1544.55
533.78	1561.04
534.14	1577.68
534.50	1593.42
534.86	1609.70
535.21	1625.27
535.57	1641.66
535.93	1657.71
536.29	1673.02
536.65	1688.59
537.00	1703.82
537.36	1719.72
537.72	1734.77
538.08	1749.91
538.44	1764.29
538.79	1778.70
539.15	1792.84
539.51	1807.09
539.87	1822.18
540.22	1836.41
540.58	1850.56
540.94	1864.25
541.29	1877.61
541.65	1890.85
542.01	1904.78
542.37	1917.88
542.72	1931.04
543.08	1943.51
543.44	1956.57
543.79	1968.59
544.15	1980.37
544.51	1992.67
544.87	2004.18
545.22	2015.80
545.58	2026.68
545.94	2037.18
546.29	2047.81
546.65	2058.49
547.01	2068.68
547.36	2077.99
547.72	2087.28
548.07	2096.04
548.43	2105.24
548.79	2114.00
549.14	2122.46
549.50	2130.45
549.86	2138.72
550.21	2146.84
550.57	2154.90
550.92	2162.27
551.28	2170.00
551.64	2177.84
551.99	2185.18
552.35	2192.43
552.70	2199.29
553.06	2206.09
553.41	2213.22
553.77	2219.99
554.13	2226.93
554.48	2233.67
554.84	2240.06
555.19	2246.08
555.55	2252.13
555.90	2257.41
556.26	2263.40
556.61	2268.80
556.97	2274.06
557.32	2279.09
557.68	2284.05
558.03	2288.86
558.39	2293.34
558.74	2298.80
559.10	2303.49
559.45	2307.87
559.81	2312.59
560.16	2317.18
560.52	2321.18
560.87	2325.27
561.23	2328.64
561.58	2332.20
561.94	2335.55
562.29	2338.44
562.64	2342.17
563.00	2345.20
563.35	2349.31
563.71	2352.97
564.06	2356.82
564.42	2360.48
564.77	2363.80
565.12	2367.06
565.48	2369.91
565.83	2372.57
566.19	2374.61
566.54	2376.02
566.89	2377.94
567.25	2379.39
567.60	2381.23
567.96	2383.70
568.31	2385.19
568.66	2387.03
569.02	2388.36
569.37	2389.24
569.72	2390.80
570.08	2391.41
570.43	2392.09
570.78	2392.12
571.14	2391.19
571.49	2390.33
571.84	2390.21
572.20	2389.48
572.55	2388.66
572.90	2387.22
573.26	2386.40
573.61	2384.80
573.96	2383.63
574.31	2380.99
574.67	2378.38
575.02	2375.20
575.37	2372.04
575.72	2368.78
576.08	2365.62
576.43	2362.27
576.78	2359.08
577.13	2356.14
577.49	2353.13
577.84	2349.95
578.19	2346.30
578.54	2343.03
578.90	2339.39
579.25	2334.22
579.60	2329.65
579.95	2324.97
580.30	2320.32
580.66	2315.28
581.01	2310.54
581.36	2305.61
581.71	2301.71
582.06	2297.48
582.42	2293.30
582.77	2288.12
583.12	2283.66
583.47	2279.24
583.82	2274.67
584.17	2269.46
584.53	2264.16
584.88	2258.66
585.23	2253.12
585.58	2247.82
585.93	2242.27
586.28	2237.09
586.63	2232.06
586.98	2226.82
587.34	2221.86
587.69	2216.85
588.04	2211.70
588.39	2206.12
588.74	2199.62
589.09	2193.36
589.44	2186.49
589.79	2180.05
590.14	2174.44
590.49	2167.63
590.84	2160.93
591.19	2154.75
591.54	2148.12
591.89	2140.83
592.25	2134.25
592.60	2126.88
592.95	2119.20
593.30	2111.71
593.65	2104.15
594.00	2096.84
594.35	2089.50
594.70	2081.15
595.05	2074.05
595.40	2066.36
595.75	2058.67
596.10	2052.49
596.45	2045.49
596.80	2039.10
597.15	2032.54
597.50	2025.44
597.85	2018.85
598.19	2012.06
598.54	2004.95
598.89	1998.15
599.24	1991.90
599.59	1984.97
599.94	1978.42
600.29	1971.88
600.64	1964.97
600.99	1957.21
601.34	1950.18
601.69	1942.76
602.04	1935.81
602.39	1928.10
602.74	1921.06
603.08	1914.24
603.43	1907.01
603.78	1899.41
604.13	1891.81
604.48	1884.46
604.83	1877.22
605.18	1870.03
605.53	1861.75
605.87	1853.32
606.22	1845.62
606.57	1837.24
606.92	1829.12
607.27	1821.82
607.62	1814.58
607.96	1806.95
608.31	1800.29
608.66	1792.35
609.01	1784.61
609.36	1776.78
609.70	1768.50
610.05	1760.13
610.40	1751.91
610.75	1743.25
611.10	1735.23
611.44	1726.37
611.79	1717.55
612.14	1708.29
612.49	1698.54
612.83	1689.61
613.18	1680.85
613.53	1672.26
613.88	1663.28
614.22	1654.64
614.57	1645.29
614.92	1636.63
615.27	1628.83
615.61	1619.98
615.96	1611.39
616.31	1603.12
616.65	1595.17
617.00	1586.90
617.35	1578.55
617.70	1569.78
618.04	1560.85
618.39	1551.91
618.74	1544.03
619.08	1535.17
619.43	1527.11
619.78	1519.69
620.12	1512.16
620.47	1504.17
620.82	1495.47
621.16	1487.36
621.51	1479.22
621.85	1470.96
622.20	1461.94
622.55	1452.89
622.89	1444.46
623.24	1436.21
623.59	1428.15
623.93	1420.12
624.28	1412.30
624.62	1404.41
624.97	1396.69
625.32	1389.24
625.66	1381.72
626.01	1373.94
626.35	1366.37
626.70	1357.99
627.04	1349.86
627.39	1341.49
627.73	1333.50
628.08	1326.16
628.43	1318.53
628.77	1310.81
629.12	1302.96
629.46	1295.36
629.81	1287.29
630.15	1279.43
630.50	1271.70
630.84	1263.10
631.19	1254.54
631.53	1246.51
631.88	1238.36
632.22	1230.19
632.57	1222.39
632.91	1214.42
633.26	1206.44
633.60	1198.28
633.95	1190.73
634.29	1183.16
634.64	1175.96
634.98	1168.27
635.32	1160.67
635.67	1153.61
636.01	1146.40
636.36	1139.18
636.70	1132.15
637.05	1125.25
637.39	1118.31
637.73	1111.38
638.08	1105.17
638.42	1098.90
638.77	1092.05
639.11	1085.18
639.45	1078.52
639.80	1071.53
640.14	1064.78
640.49	1057.87
640.83	1051.27
641.17	1044.68
641.52	1038.01
641.86	1031.05
642.20	1024.81
642.55	1018.02
642.89	1011.08
643.23	1004.08
643.58	997.82
643.92	991.29
644.26	985.03
644.61	978.73
644.95	972.34
645.29	965.43
645.64	958.27
645.98	951.55
646.32	945.11
646.66	938.64
647.01	932.46
647.35	926.40
647.69	920.25
648.04	914.30
648.38	908.23
648.72	901.98
649.06	895.80
649.41	889.46
649.75	883.22
650.09	876.98
650.43	870.95
650.78	864.48
651.12	858.21
651.46	852.06
651.80	846.09
652.14	840.30
652.49	834.66
652.83	829.20
653.17	823.40
653.51	817.59
653.85	811.85
654.20	805.93
654.54	799.61
654.88	793.52
655.22	787.31
655.56	781.22
655.90	775.34
656.25	769.71
656.59	764.08
656.93	758.64
657.27	753.21
657.61	747.47
657.95	742.15
658.29	736.85
658.64	731.24
658.98	725.45
659.32	719.63
659.66	714.13
660.00	708.58
660.34	703.27
660.68	697.98
661.02	692.66
661.36	687.70
661.70	682.91
662.05	678.31
662.39	673.81
662.73	669.12
663.07	664.39
663.41	659.79
663.75	655.08
664.09	650.25
664.43	645.56
664.77	641.23
665.11	636.80
665.45	632.37
665.79	628.15
666.13	623.96
666.47	619.73
666.81	615.39
667.15	611.04
667.49	606.87
667.83	602.79
668.17	598.63
668.51	594.41
668.85	590.16
669.19	586.03
669.53	581.93
669.87	577.90
670.21	574.02
670.55	570.10
670.89	566.47
671.23	562.94
671.57	559.25
671.91	555.53
672.25	551.78
672.58	548.01
672.92	544.36
673.26	540.94
673.60	537.59
673.94	534.27
674.28	531.13
674.62	528.02
674.96	524.82
675.30	521.77
675.64	518.69
675.97	515.73
676.31	512.73
676.65	509.70
676.99	506.76
677.33	503.72
677.67	500.71
678.01	497.55
678.34	494.40
678.68	491.34
679.02	488.36
679.36	485.48
679.70	482.62
680.04	479.76
680.37	476.80
680.71	473.83
681.05	471.08
681.39	468.20
681.73	465.46
682.06	462.78
682.40	460.14
682.74	457.42
683.08	454.70
683.42	451.95
683.75	449.28
684.09	446.59
684.43	443.98
684.77	441.41
685.10	438.88
685.44	436.39
685.78	433.96
686.12	431.54
686.45	429.03
686.79	426.65
687.13	424.29
687.46	421.94
687.80	419.62
688.14	417.20
688.48	415.01
688.81	412.62
689.15	410.34
689.49	407.99
689.82	405.78
690.16	403.55
690.50	401.45
690.83	399.41
691.17	397.28
691.51	395.28
691.84	393.30
692.18	391.30
692.52	389.27
692.85	387.22
693.19	385.25
693.52	383.33
693.86	381.34
694.20	379.40
694.53	377.52
694.87	375.61
695.21	373.71
695.54	371.74
695.88	369.85
696.21	368.00
696.55	366.19
696.88	364.37
697.22	362.60
697.56	360.84
697.89	359.04
698.23	357.36
698.56	355.63
698.90	353.98
699.23	352.24
699.57	350.60
699.90	348.95
700.24	347.32
700.58	345.71
700.91	344.20
701.25	342.68
701.58	341.23
701.92	339.78
702.25	338.31
702.59	336.93
702.92	335.53
703.26	334.15
703.59	332.84
703.93	331.57
704.26	330.35
704.60	329.01
704.93	327.71
705.26	326.39
705.60	325.13
705.93	323.83
706.27	322.73
706.60	321.60
706.94	320.50
707.27	319.27
707.61	318.10
707.94	316.97
708.27	315.78
708.61	314.57
708.94	313.48
709.28	312.47
709.61	311.43
709.94	310.40
710.28	309.32
710.61	308.22
710.95	307.07
711.28	306.02
711.61	305.01
711.95	304.03
712.28	303.05
712.61	302.05
712.95	301.11
713.28	300.17
713.61	299.20
713.95	298.25
714.28	297.40
714.61	296.49
714.95	295.61
715.28	294.75
715.61	293.81
715.95	292.92
716.28	291.99
716.61	291.08
716.95	290.20
717.28	289.44
717.61	288.68
717.94	287.91
718.28	287.10
718.61	286.32
718.94	285.59
719.27	284.90
719.61	284.20
719.94	283.50
720.27	282.70
720.60	281.97
720.94	281.26
721.27	280.59
721.60	279.99
721.93	279.32
722.27	278.67
722.60	278.09
722.93	277.47
723.26	276.91
723.59	276.34
723.93	275.75
724.26	275.13
724.59	274.50
724.92	273.93
725.25	273.37
725.59	272.80
725.92	272.25
726.25	271.66
726.58	271.11
726.91	270.54
727.24	270.01
727.57	269.50
727.91	269.01
728.24	268.48
728.57	267.96
728.90	267.45
729.23	266.92
729.56	266.46
729.89	265.92
730.22	265.36
730.55	264.82
730.89	264.32
731.22	263.82
731.55	263.33
731.88	262.85
732.21	262.36
732.54	261.88
732.87	261.37
733.20	260.93
733.53	260.51
733.86	260.09
734.19	259.66
734.52	259.26
734.85	258.86
735.18	258.41
735.51	257.98
735.84	257.57
736.17	257.23
736.50	256.78
736.83	256.53
737.16	256.17
737.49	255.88
737.82	255.52
738.15	255.22
738.48	254.89
738.81	254.51
739.14	254.18
739.47	253.84
739.80	253.52
740.13	253.19
740.46	252.84
740.79	252.50
741.12	252.17
741.45	251.82
741.78	251.45
742.11	251.16
742.44	250.81
742.77	250.52
743.10	250.16
743.43	249.88
743.75	249.52
744.08	249.34
744.41	249.01
744.74	248.71
745.07	248.38
745.40	248.09
745.73	247.84
746.06	247.53
746.39	247.23
746.71	246.95
747.04	246.68
747.37	246.42
747.70	246.18
748.03	245.88
748.36	245.66
748.68	245.42
749.01	245.16
749.34	244.92
749.67	244.65
750.00	244.37
750.33	244.20
750.65	243.97
750.98	243.64
751.31	243.42
751.64	243.19
751.97	243.01
752.29	242.79
752.62	242.52
752.95	242.28
753.28	242.10
753.60	241.89
753.93	241.72
754.26	241.50
754.59	241.25
754.91	241.08
755.24	240.85
755.57	240.66
755.90	240.45
756.22	240.24
756.55	240.06
756.88	239.90
757.20	239.65
757.53	239.46
757.86	239.26
758.19	239.09
758.51	238.93
758.84	238.72
759.17	238.55
759.49	238.44
759.82	238.32
760.15	238.15
760.47	237.98
760.80	237.77
761.13	237.62
761.45	237.43
761.78	237.27
762.11	237.13
762.43	236.96
762.76	236.81
763.08	236.67
763.41	236.54
763.74	236.38
764.06	236.22
764.39	236.04
764.71	235.84
765.04	235.72
765.37	235.58
765.69	235.42
766.02	235.27
766.34	235.14
766.67	234.99
767.00	234.88
767.32	234.83
767.65	234.75
767.97	234.67
768.30	234.56
768.62	234.41
768.95	234.30
769.27	234.15
769.60	234.06
769.92	233.97
770.25	233.83
770.57	233.71
770.90	233.58
771.22	233.51
771.55	233.43
771.87	233.32
772.20	233.17
772.52	233.14
772.85	233.20
773.17	233.08
773.50	232.97
773.82	232.84
774.15	232.65
774.47	232.53
774.80	232.41
775.12	232.33
775.45	232.26
775.77	232.16
776.09	232.12
776.42	232.04
776.74	231.95
777.07	231.88
777.39	231.81
777.72	231.76
778.04	231.67
778.36	231.58
778.69	231.52
779.01	231.45
779.33	231.30
779.66	231.11
779.98	231.03
780.31	230.99
780.63	230.97
780.95	230.92
781.28	230.84
781.60	230.75
781.92	230.70
782.25	230.61
782.57	230.53
782.89	230.46
783.22	230.38
783.54	230.31
783.86	230.25
784.19	230.20
784.51	230.19
784.83	230.09
785.16	230.05
785.48	229.95
785.80	229.93
786.12	229.88
786.45	229.81
786.77	229.79
