SpectraSuite Data File
++++++++++++++++++++++++++++++++++++
Date: Fri Feb 01 14:51:08 EST 2013
User: group
Dark Spectrum Present: No
Reference Spectrum Present: No
Number of Sampled Component Spectra: 1
Spectrometers: USB2E7196
Integration Time (usec): 35000 (USB2E7196)
Spectra Averaged: 100 (USB2E7196)
Boxcar Smoothing: 10 (USB2E7196)
Correct for Electrical Dark: No (USB2E7196)
Strobe/Lamp Enabled: No (USB2E7196)
Correct for Detector Non-linearity: No (USB2E7196)
Correct for Stray Light: No (USB2E7196)
Number of Pixels in Processed Spectrum: 2048
>>>>>Begin Processed Spectral Data<<<<<
339.09	0.00
339.48	215.60
339.86	217.26
340.24	217.98
340.63	219.86
341.01	222.73
341.39	223.12
341.78	224.03
342.16	224.68
342.54	225.64
342.93	213.91
343.31	224.72
343.69	225.28
344.07	225.74
344.46	226.18
344.84	226.57
345.22	226.83
345.60	227.05
345.99	227.25
346.37	227.41
346.75	227.50
347.13	227.56
347.52	227.62
347.90	227.71
348.28	227.73
348.66	227.75
349.05	227.78
349.43	227.81
349.81	227.89
350.19	227.93
350.57	227.97
350.96	228.05
351.34	228.12
351.72	228.21
352.10	228.32
352.48	228.43
352.87	228.46
353.25	228.53
353.63	228.57
354.01	228.59
354.39	228.67
354.77	228.75
355.15	228.86
355.54	228.94
355.92	228.98
356.30	229.10
356.68	229.25
357.06	229.30
357.44	229.38
357.82	229.39
358.20	229.48
358.58	229.56
358.97	229.60
359.35	229.65
359.73	229.72
360.11	229.74
360.49	229.74
360.87	229.79
361.25	229.81
361.63	229.91
362.01	229.96
362.39	229.97
362.77	230.00
363.15	230.00
363.53	229.99
363.91	230.01
364.29	230.00
364.67	229.91
365.05	229.88
365.43	229.88
365.81	229.88
366.19	229.90
366.57	229.90
366.95	229.88
367.33	229.85
367.71	229.78
368.09	229.77
368.47	229.75
368.85	229.72
369.23	229.69
369.61	229.60
369.99	229.59
370.37	229.58
370.75	229.55
371.13	229.48
371.51	229.44
371.89	229.36
372.27	229.31
372.65	229.24
373.03	229.19
373.41	229.13
373.78	229.08
374.16	228.96
374.54	228.86
374.92	228.77
375.30	228.70
375.68	228.65
376.06	228.57
376.44	228.49
376.82	228.41
377.19	228.34
377.57	228.27
377.95	228.14
378.33	228.04
378.71	227.90
379.09	227.86
379.47	227.77
379.84	227.71
380.22	227.64
380.60	227.54
380.98	227.46
381.36	227.36
381.73	227.24
382.11	227.17
382.49	227.10
382.87	227.03
383.25	226.95
383.62	227.00
384.00	226.90
384.38	226.83
384.76	226.79
385.13	226.78
385.51	226.70
385.89	226.68
386.27	226.62
386.64	226.63
387.02	226.57
387.40	226.52
387.78	226.48
388.15	226.41
388.53	226.37
388.91	226.34
389.29	226.33
389.66	226.35
390.04	226.36
390.42	226.36
390.79	226.38
391.17	226.40
391.55	226.27
391.92	226.29
392.30	226.34
392.68	226.34
393.05	226.33
393.43	226.39
393.81	226.40
394.18	226.41
394.56	226.42
394.94	226.49
395.31	226.55
395.69	226.62
396.06	226.70
396.44	226.77
396.82	226.81
397.19	226.93
397.57	226.97
397.95	227.03
398.32	227.10
398.70	227.17
399.07	227.31
399.45	227.39
399.82	227.48
400.20	227.54
400.58	227.64
400.95	227.69
401.33	227.81
401.70	228.00
402.08	228.13
402.45	228.25
402.83	228.39
403.20	228.51
403.58	228.62
403.95	228.78
404.33	228.95
404.71	229.11
405.08	229.25
405.46	229.41
405.83	229.55
406.21	229.72
406.58	229.89
406.96	230.01
407.33	230.20
407.70	230.40
408.08	230.67
408.45	230.89
408.83	231.12
409.20	231.30
409.58	231.47
409.95	231.73
410.33	232.01
410.70	232.23
411.08	232.54
411.45	232.83
411.82	233.11
412.20	233.45
412.57	233.86
412.95	234.17
413.32	234.61
413.69	235.03
414.07	235.49
414.44	235.95
414.82	236.44
415.19	236.95
415.56	237.53
415.94	238.06
416.31	238.67
416.68	239.35
417.06	240.07
417.43	240.76
417.81	241.49
418.18	242.26
418.55	243.10
418.93	243.93
419.30	244.84
419.67	245.74
420.04	246.65
420.42	247.61
420.79	248.78
421.16	249.91
421.54	251.08
421.91	252.23
422.28	253.47
422.66	254.75
423.03	256.04
423.40	257.36
423.77	258.76
424.15	260.17
424.52	261.59
424.89	263.15
425.26	264.69
425.64	266.12
426.01	267.69
426.38	269.36
426.75	271.02
427.13	272.75
427.50	274.58
427.87	276.50
428.24	278.33
428.61	280.05
428.99	281.96
429.36	284.02
429.73	286.14
430.10	288.15
430.47	290.24
430.85	292.39
431.22	294.63
431.59	297.01
431.96	299.27
432.33	301.77
432.70	304.20
433.08	307.00
433.45	309.65
433.82	312.26
434.19	315.18
434.56	318.05
434.93	320.67
435.30	323.30
435.68	326.18
436.05	329.07
436.42	331.88
436.79	334.42
437.16	337.17
437.53	339.97
437.90	342.79
438.27	345.54
438.64	348.40
439.01	350.99
439.38	353.20
439.75	355.40
440.13	357.90
440.50	360.18
440.87	362.05
441.24	364.02
441.61	366.20
441.98	367.61
442.35	369.41
442.72	371.33
443.09	373.14
443.46	374.17
443.83	374.76
444.20	375.29
444.57	376.18
444.94	376.45
445.31	376.81
445.68	377.19
446.05	377.25
446.42	376.86
446.79	376.45
447.16	376.05
447.53	375.72
447.90	374.58
448.27	373.46
448.64	371.86
449.01	370.70
449.37	368.71
449.74	366.85
450.11	364.57
450.48	362.09
450.85	359.55
451.22	357.38
451.59	355.39
451.96	353.36
452.33	350.71
452.70	348.34
453.07	345.52
453.43	342.62
453.80	339.90
454.17	337.20
454.54	334.60
454.91	331.85
455.28	329.16
455.65	326.68
456.02	324.21
456.38	322.07
456.75	319.40
457.12	317.19
457.49	314.95
457.86	312.77
458.23	310.92
458.59	308.86
458.96	306.76
459.33	304.90
459.70	303.08
460.07	301.57
460.43	299.86
460.80	298.23
461.17	296.75
461.54	295.23
461.91	293.82
462.27	292.41
462.64	291.18
463.01	289.84
463.38	288.53
463.74	287.16
464.11	286.02
464.48	284.99
464.85	283.89
465.21	283.07
465.58	282.14
465.95	280.98
466.32	280.11
466.68	279.20
467.05	278.26
467.42	277.35
467.78	276.39
468.15	275.50
468.52	274.80
468.88	273.96
469.25	273.14
469.62	272.49
469.98	271.83
470.35	271.18
470.72	270.57
471.08	269.90
471.45	269.36
471.82	268.79
472.18	268.14
472.55	267.69
472.92	267.12
473.28	266.66
473.65	266.24
474.02	265.75
474.38	265.35
474.75	265.02
475.11	264.71
475.48	264.46
475.85	264.22
476.21	263.99
476.58	263.81
476.94	263.70
477.31	263.50
477.67	263.31
478.04	263.17
478.41	263.08
478.77	263.11
479.14	263.03
479.50	263.05
479.87	263.12
480.23	263.15
480.60	263.20
480.96	263.28
481.33	263.48
481.69	263.69
482.06	263.86
482.42	264.05
482.79	264.28
483.15	264.58
483.52	264.95
483.88	265.31
484.25	265.67
484.61	266.04
484.98	266.51
485.34	267.06
485.71	267.65
486.07	268.26
486.44	268.84
486.80	269.55
487.17	270.29
487.53	271.15
487.90	271.96
488.26	272.89
488.62	273.87
488.99	274.84
489.35	275.87
489.72	276.99
490.08	278.20
490.44	279.44
490.81	280.78
491.17	282.07
491.54	283.49
491.90	285.00
492.26	286.63
492.63	288.37
492.99	290.12
493.36	291.99
493.72	294.01
494.08	296.10
494.45	298.30
494.81	300.64
495.17	303.01
495.54	305.57
495.90	308.23
496.26	310.98
496.63	313.91
496.99	316.98
497.35	320.22
497.72	323.56
498.08	327.05
498.44	330.69
498.80	334.62
499.17	338.63
499.53	342.74
499.89	347.14
500.26	351.55
500.62	356.19
500.98	361.11
501.34	366.14
501.71	371.40
502.07	376.81
502.43	382.37
502.79	388.16
503.16	394.18
503.52	400.35
503.88	406.75
504.24	413.28
504.60	420.13
504.97	427.22
505.33	434.52
505.69	442.13
506.05	449.88
506.41	457.69
506.78	465.86
507.14	474.30
507.50	482.93
507.86	491.89
508.22	501.03
508.59	510.21
508.95	519.76
509.31	529.45
509.67	539.49
510.03	549.72
510.39	560.21
510.75	571.03
511.12	581.99
511.48	593.12
511.84	604.61
512.20	616.11
512.56	628.02
512.92	640.11
513.28	652.41
513.64	664.89
514.00	677.58
514.37	690.45
514.73	703.42
515.09	716.50
515.45	729.79
515.81	743.40
516.17	757.34
516.53	771.38
516.89	785.55
517.25	799.71
517.61	814.12
517.97	828.58
518.33	843.01
518.69	857.74
519.05	872.97
519.41	888.10
519.77	903.63
520.13	919.11
520.49	934.54
520.85	950.02
521.21	965.73
521.57	982.02
521.93	997.88
522.29	1014.30
522.65	1030.55
523.01	1046.85
523.37	1062.86
523.73	1079.08
524.09	1095.29
524.45	1111.72
524.81	1128.42
525.17	1145.37
525.53	1162.27
525.89	1179.15
526.25	1196.02
526.61	1212.32
526.97	1229.14
527.33	1245.66
527.68	1262.36
528.04	1278.93
528.40	1295.51
528.76	1312.67
529.12	1329.32
529.48	1346.20
529.84	1362.37
530.20	1379.02
530.56	1396.10
530.91	1413.64
531.27	1430.42
531.63	1446.97
531.99	1463.58
532.35	1479.71
532.71	1495.57
533.07	1511.92
533.42	1527.88
533.78	1543.98
534.14	1560.28
534.50	1575.65
534.86	1591.63
535.21	1606.77
535.57	1622.91
535.93	1638.52
536.29	1653.31
536.65	1668.49
537.00	1683.34
537.36	1698.71
537.72	1713.33
538.08	1727.79
538.44	1741.60
538.79	1755.58
539.15	1769.34
539.51	1783.35
539.87	1797.72
540.22	1811.54
540.58	1825.39
540.94	1838.83
541.29	1851.97
541.65	1864.78
542.01	1878.18
542.37	1890.52
542.72	1903.12
543.08	1914.85
543.44	1927.28
543.79	1938.62
544.15	1949.59
544.51	1961.18
544.87	1972.16
545.22	1982.92
545.58	1993.18
545.94	2003.01
546.29	2012.91
546.65	2022.64
547.01	2031.80
547.36	2040.53
547.72	2048.96
548.07	2056.89
548.43	2065.00
548.79	2072.93
549.14	2080.41
549.50	2087.77
549.86	2095.55
550.21	2102.73
550.57	2109.80
550.92	2116.37
551.28	2123.37
551.64	2130.33
551.99	2136.78
552.35	2143.01
552.70	2149.15
553.06	2154.98
553.41	2161.16
553.77	2167.23
554.13	2173.30
554.48	2179.20
554.84	2184.47
555.19	2189.61
555.55	2194.58
555.90	2199.02
556.26	2203.77
556.61	2208.25
556.97	2212.27
557.32	2216.15
557.68	2220.18
558.03	2224.37
558.39	2228.03
558.74	2232.43
559.10	2236.22
559.45	2239.75
559.81	2243.69
560.16	2247.26
560.52	2250.54
560.87	2254.00
561.23	2256.48
561.58	2259.33
561.94	2261.83
562.29	2264.09
562.64	2266.73
563.00	2269.14
563.35	2272.55
563.71	2275.51
564.06	2278.63
564.42	2281.53
564.77	2283.88
565.12	2286.04
565.48	2287.78
565.83	2289.45
566.19	2290.61
566.54	2291.44
566.89	2292.49
567.25	2292.92
567.60	2294.34
567.96	2295.66
568.31	2296.15
568.66	2296.94
569.02	2297.28
569.37	2297.26
569.72	2297.97
570.08	2297.77
570.43	2297.53
570.78	2296.48
571.14	2294.70
571.49	2293.24
571.84	2292.52
572.20	2291.20
572.55	2289.86
572.90	2288.08
573.26	2286.43
573.61	2284.56
573.96	2282.49
574.31	2279.17
574.67	2275.97
575.02	2271.92
575.37	2268.23
575.72	2264.24
576.08	2260.82
576.43	2257.27
576.78	2253.58
577.13	2250.19
577.49	2247.01
577.84	2243.33
578.19	2239.66
578.54	2235.69
578.90	2231.29
579.25	2225.71
579.60	2220.53
579.95	2215.31
580.30	2210.05
580.66	2204.58
581.01	2199.41
581.36	2194.31
581.71	2190.03
582.06	2185.54
582.42	2181.00
582.77	2175.68
583.12	2170.87
583.47	2165.77
583.82	2160.55
584.17	2155.03
584.53	2149.34
584.88	2143.52
585.23	2137.65
585.58	2131.89
585.93	2126.38
586.28	2121.43
586.63	2115.87
586.98	2110.57
587.34	2105.78
587.69	2100.84
588.04	2095.52
588.39	2089.69
588.74	2083.10
589.09	2076.78
589.44	2069.74
589.79	2063.53
590.14	2057.77
590.49	2051.05
590.84	2044.57
591.19	2038.47
591.54	2031.91
591.89	2024.26
592.25	2017.39
592.60	2010.10
592.95	2002.27
593.30	1994.79
593.65	1986.96
594.00	1979.99
594.35	1972.72
594.70	1964.53
595.05	1957.10
595.40	1949.74
595.75	1942.23
596.10	1935.84
596.45	1928.99
596.80	1922.76
597.15	1915.92
597.50	1908.74
597.85	1902.29
598.19	1895.65
598.54	1888.51
598.89	1881.90
599.24	1876.07
599.59	1869.34
599.94	1863.02
600.29	1856.88
600.64	1850.28
600.99	1842.89
601.34	1836.03
601.69	1828.91
602.04	1822.05
602.39	1814.74
602.74	1807.89
603.08	1801.17
603.43	1794.60
603.78	1787.40
604.13	1780.20
604.48	1772.99
604.83	1766.17
605.18	1759.19
605.53	1751.12
605.87	1743.04
606.22	1735.75
606.57	1727.89
606.92	1720.51
607.27	1713.41
607.62	1706.47
607.96	1699.25
608.31	1692.72
608.66	1685.06
609.01	1677.73
609.36	1670.24
609.70	1662.35
610.05	1654.36
610.40	1646.67
610.75	1638.28
611.10	1630.52
611.44	1622.28
611.79	1614.35
612.14	1605.75
612.49	1596.80
612.83	1588.66
613.18	1580.74
613.53	1572.71
613.88	1564.31
614.22	1556.12
614.57	1547.62
614.92	1539.64
615.27	1532.22
615.61	1523.97
615.96	1516.12
616.31	1508.58
616.65	1501.29
617.00	1493.74
617.35	1486.18
617.70	1477.89
618.04	1469.42
618.39	1461.32
618.74	1453.69
619.08	1445.49
619.43	1438.11
619.78	1431.20
620.12	1424.12
620.47	1416.62
620.82	1408.64
621.16	1401.26
621.51	1393.80
621.85	1386.26
622.20	1377.83
622.55	1369.53
622.89	1361.83
623.24	1354.32
623.59	1347.00
623.93	1339.51
624.28	1332.36
624.62	1324.92
624.97	1317.92
625.32	1311.37
625.66	1304.40
626.01	1297.21
626.35	1289.75
626.70	1282.05
627.04	1274.41
627.39	1266.62
627.73	1259.37
628.08	1252.42
628.43	1245.14
628.77	1237.82
629.12	1230.37
629.46	1223.33
629.81	1216.09
630.15	1208.91
630.50	1201.54
630.84	1193.39
631.19	1185.66
631.53	1178.34
631.88	1170.86
632.22	1163.29
632.57	1156.00
632.91	1148.68
633.26	1141.56
633.60	1134.34
633.95	1127.33
634.29	1120.38
634.64	1113.81
634.98	1106.51
635.32	1099.51
635.67	1093.03
636.01	1086.47
636.36	1079.75
636.70	1073.25
637.05	1066.68
637.39	1060.36
637.73	1053.90
638.08	1048.21
638.42	1042.30
638.77	1035.89
639.11	1029.45
639.45	1023.22
639.80	1016.55
640.14	1010.17
640.49	1003.56
640.83	997.51
641.17	991.33
641.52	985.08
641.86	978.76
642.20	973.08
642.55	966.83
642.89	960.45
643.23	954.05
643.58	948.38
643.92	942.21
644.26	936.29
644.61	930.27
644.95	924.40
645.29	917.79
645.64	911.03
645.98	904.76
646.32	898.94
646.66	892.96
647.01	887.34
647.35	881.67
647.69	876.02
648.04	870.50
648.38	864.79
648.72	858.90
649.06	852.93
649.41	846.99
649.75	841.08
650.09	835.13
650.43	829.43
650.78	823.31
651.12	817.48
651.46	811.81
651.80	806.15
652.14	800.86
652.49	795.58
652.83	790.44
653.17	784.80
653.51	779.10
653.85	773.64
654.20	768.04
654.54	762.11
654.88	756.33
655.22	750.51
655.56	744.87
655.90	739.48
656.25	734.22
656.59	728.96
656.93	723.96
657.27	718.86
657.61	713.46
657.95	708.41
658.29	703.41
658.64	698.22
658.98	692.97
659.32	687.53
659.66	682.36
660.00	677.18
660.34	672.36
660.68	667.57
661.02	662.73
661.36	658.11
661.70	653.71
662.05	649.45
662.39	645.18
662.73	640.77
663.07	636.45
663.41	632.08
663.75	627.67
664.09	623.11
664.43	618.85
664.77	614.74
665.11	610.55
665.45	606.46
665.79	602.43
666.13	598.31
666.47	594.25
666.81	590.14
667.15	586.07
667.49	582.20
667.83	578.41
668.17	574.48
668.51	570.46
668.85	566.52
669.19	562.75
669.53	558.92
669.87	555.16
670.21	551.52
670.55	547.93
670.89	544.55
671.23	541.18
671.57	537.70
671.91	534.27
672.25	530.83
672.58	527.38
672.92	524.01
673.26	520.99
673.60	517.86
673.94	514.81
674.28	511.97
674.62	509.02
674.96	505.98
675.30	503.15
675.64	500.26
675.97	497.55
676.31	494.70
676.65	491.86
676.99	489.15
677.33	486.27
677.67	483.50
678.01	480.46
678.34	477.58
678.68	474.79
679.02	471.99
679.36	469.28
679.70	466.61
680.04	463.92
680.37	461.04
680.71	458.30
681.05	455.73
681.39	453.06
681.73	450.47
682.06	447.99
682.40	445.46
682.74	442.99
683.08	440.44
683.42	437.89
683.75	435.41
684.09	432.90
684.43	430.47
684.77	428.05
685.10	425.83
685.44	423.53
685.78	421.22
686.12	419.04
686.45	416.81
686.79	414.54
687.13	412.40
687.46	410.28
687.80	408.16
688.14	405.95
688.48	403.94
688.81	401.69
689.15	399.51
689.49	397.40
689.82	395.33
690.16	393.27
690.50	391.34
690.83	389.41
691.17	387.44
691.51	385.58
691.84	383.75
692.18	381.78
692.52	379.82
692.85	377.92
693.19	376.00
693.52	374.20
693.86	372.40
694.20	370.60
694.53	368.80
694.87	367.04
695.21	365.32
695.54	363.47
695.88	361.77
696.21	360.11
696.55	358.46
696.88	356.79
697.22	355.13
697.56	353.54
697.89	351.93
698.23	350.37
698.56	348.76
698.90	347.18
699.23	345.56
699.57	344.03
699.90	342.54
700.24	341.05
700.58	339.50
700.91	338.01
701.25	336.57
701.58	335.22
701.92	333.87
702.25	332.51
702.59	331.18
702.92	329.90
703.26	328.58
703.59	327.27
703.93	326.08
704.26	324.87
704.60	323.59
704.93	322.29
705.26	321.06
705.60	319.91
705.93	318.75
706.27	317.77
706.60	316.70
706.94	315.66
707.27	314.52
707.61	313.49
707.94	312.51
708.27	311.45
708.61	310.36
708.94	309.33
709.28	308.32
709.61	307.36
709.94	306.40
710.28	305.41
710.61	304.45
710.95	303.42
711.28	302.53
711.61	301.63
711.95	300.78
712.28	299.86
712.61	298.87
712.95	297.95
713.28	297.02
713.61	296.12
713.95	295.23
714.28	294.44
714.61	293.57
714.95	292.71
715.28	291.90
715.61	291.05
715.95	290.22
716.28	289.41
716.61	288.59
716.95	287.83
717.28	287.06
717.61	286.29
717.94	285.54
718.28	284.73
718.61	283.98
718.94	283.30
719.27	282.63
719.61	282.01
719.94	281.39
720.27	280.70
720.60	280.08
720.94	279.46
721.27	278.88
721.60	278.30
721.93	277.69
722.27	277.17
722.60	276.61
722.93	276.07
723.26	275.56
723.59	275.02
723.93	274.45
724.26	273.96
724.59	273.44
724.92	272.96
725.25	272.49
725.59	271.97
725.92	271.43
726.25	270.94
726.58	270.46
726.91	269.97
727.24	269.53
727.57	269.04
727.91	268.54
728.24	268.11
728.57	267.66
728.90	267.23
729.23	266.70
729.56	266.28
729.89	265.78
730.22	265.32
730.55	264.89
730.89	264.49
731.22	264.02
731.55	263.62
731.88	263.19
732.21	262.76
732.54	262.36
732.87	261.93
733.20	261.56
733.53	261.19
733.86	260.84
734.19	260.41
734.52	260.07
734.85	259.78
735.18	259.33
735.51	258.93
735.84	258.56
736.17	258.24
736.50	257.87
736.83	257.67
737.16	257.32
737.49	256.97
737.82	256.60
738.15	256.31
738.48	255.97
738.81	255.67
739.14	255.33
739.47	255.00
739.80	254.73
740.13	254.40
740.46	254.04
740.79	253.66
741.12	253.36
741.45	253.03
741.78	252.69
742.11	252.38
742.44	252.06
742.77	251.78
743.10	251.45
743.43	251.15
743.75	250.73
744.08	250.58
744.41	250.28
744.74	250.02
745.07	249.71
745.40	249.47
745.73	249.18
746.06	248.92
746.39	248.68
746.71	248.39
747.04	248.09
747.37	247.84
747.70	247.61
748.03	247.37
748.36	247.15
748.68	246.89
749.01	246.67
749.34	246.45
749.67	246.23
750.00	246.02
750.33	245.85
750.65	245.66
750.98	245.30
751.31	245.09
751.64	244.87
751.97	244.73
752.29	244.47
752.62	244.26
752.95	244.06
753.28	243.85
753.60	243.64
753.93	243.51
754.26	243.32
754.59	243.10
754.91	242.89
755.24	242.67
755.57	242.49
755.90	242.32
756.22	242.14
756.55	241.94
756.88	241.73
757.20	241.48
757.53	241.28
757.86	241.10
758.19	240.96
758.51	240.80
758.84	240.57
759.17	240.43
759.49	240.29
759.82	240.17
760.15	240.02
760.47	239.91
760.80	239.71
761.13	239.58
761.45	239.47
761.78	239.34
762.11	239.23
762.43	239.08
762.76	238.95
763.08	238.83
763.41	238.73
763.74	238.61
764.06	238.52
764.39	238.36
764.71	238.23
765.04	238.08
765.37	237.95
765.69	237.85
766.02	237.70
766.34	237.53
766.67	237.40
767.00	237.30
767.32	237.25
767.65	237.23
767.97	237.10
768.30	236.99
768.62	236.89
768.95	236.75
769.27	236.64
769.60	236.53
769.92	236.43
770.25	236.31
770.57	236.20
770.90	236.07
771.22	235.98
771.55	235.91
771.87	235.83
772.20	235.73
772.52	235.75
772.85	235.76
773.17	235.68
773.50	235.57
773.82	235.45
774.15	235.28
774.47	235.12
774.80	235.02
775.12	234.95
775.45	234.89
775.77	234.81
776.09	234.72
776.42	234.66
776.74	234.58
777.07	234.48
777.39	234.39
777.72	234.31
778.04	234.25
778.36	234.17
778.69	234.09
779.01	234.02
779.33	233.85
779.66	233.68
779.98	233.60
780.31	233.54
780.63	233.53
780.95	233.50
781.28	233.45
781.60	233.33
781.92	233.25
782.25	233.15
782.57	233.06
782.89	233.01
783.22	232.91
783.54	232.87
783.86	232.81
784.19	232.76
784.51	232.74
784.83	232.64
785.16	232.58
785.48	232.52
785.80	232.47
786.12	232.44
786.45	232.37
786.77	232.34
787.09	232.27
