SpectraSuite Data File
++++++++++++++++++++++++++++++++++++
Date: Fri Feb 01 17:07:47 EST 2013
User: group
Dark Spectrum Present: No
Reference Spectrum Present: No
Number of Sampled Component Spectra: 1
Spectrometers: USB2E7196
Integration Time (usec): 35000 (USB2E7196)
Spectra Averaged: 100 (USB2E7196)
Boxcar Smoothing: 10 (USB2E7196)
Correct for Electrical Dark: No (USB2E7196)
Strobe/Lamp Enabled: No (USB2E7196)
Correct for Detector Non-linearity: No (USB2E7196)
Correct for Stray Light: No (USB2E7196)
Number of Pixels in Processed Spectrum: 2048
>>>>>Begin Processed Spectral Data<<<<<
339.09	0.00
339.48	213.00
339.86	214.97
340.24	215.92
340.63	217.71
341.01	220.13
341.39	219.99
341.78	222.03
342.16	222.67
342.54	222.98
342.93	211.74
343.31	222.45
343.69	222.99
344.07	223.45
344.46	223.91
344.84	224.27
345.22	224.51
345.60	224.78
345.99	224.98
346.37	225.11
346.75	225.23
347.13	225.31
347.52	225.38
347.90	225.44
348.28	225.47
348.66	225.49
349.05	225.48
349.43	225.52
349.81	225.56
350.19	225.58
350.57	225.63
350.96	225.68
351.34	225.79
351.72	225.87
352.10	225.96
352.48	226.01
352.87	226.07
353.25	226.16
353.63	226.20
354.01	226.25
354.39	226.33
354.77	226.40
355.15	226.46
355.54	226.51
355.92	226.57
356.30	226.67
356.68	226.82
357.06	226.90
357.44	226.95
357.82	227.04
358.20	227.10
358.58	227.17
358.97	227.24
359.35	227.29
359.73	227.39
360.11	227.46
360.49	227.51
360.87	227.55
361.25	227.60
361.63	227.70
362.01	227.74
362.39	227.77
362.77	227.81
363.15	227.88
363.53	227.90
363.91	227.92
364.29	227.92
364.67	227.86
365.05	227.88
365.43	227.89
365.81	227.91
366.19	227.95
366.57	227.97
366.95	227.98
367.33	227.95
367.71	227.94
368.09	227.97
368.47	227.97
368.85	227.96
369.23	227.93
369.61	227.85
369.99	227.84
370.37	227.80
370.75	227.83
371.13	227.75
371.51	227.70
371.89	227.70
372.27	227.66
372.65	227.61
373.03	227.54
373.41	227.48
373.78	227.40
374.16	227.33
374.54	227.22
374.92	227.14
375.30	227.06
375.68	226.97
376.06	226.87
376.44	226.82
376.82	226.77
377.19	226.72
377.57	226.65
377.95	226.58
378.33	226.51
378.71	226.38
379.09	226.32
379.47	226.27
379.84	226.18
380.22	226.12
380.60	226.03
380.98	225.97
381.36	225.93
381.73	225.88
382.11	225.83
382.49	225.77
382.87	225.72
383.25	225.69
383.62	225.73
384.00	225.66
384.38	225.60
384.76	225.55
385.13	225.55
385.51	225.52
385.89	225.47
386.27	225.45
386.64	225.39
387.02	225.37
387.40	225.31
387.78	225.26
388.15	225.21
388.53	225.20
388.91	225.15
389.29	225.11
389.66	225.09
390.04	225.08
390.42	225.11
390.79	225.06
391.17	225.04
391.55	224.93
391.92	224.92
392.30	224.93
392.68	224.90
393.05	224.89
393.43	224.91
393.81	224.91
394.18	224.89
394.56	224.93
394.94	224.95
395.31	224.97
395.69	225.04
396.06	225.06
396.44	225.10
396.82	225.12
397.19	225.19
397.57	225.21
397.95	225.25
398.32	225.25
398.70	225.34
399.07	225.40
399.45	225.45
399.82	225.50
400.20	225.55
400.58	225.63
400.95	225.64
401.33	225.67
401.70	225.80
402.08	225.89
402.45	225.96
402.83	226.04
403.20	226.15
403.58	226.22
403.95	226.36
404.33	226.45
404.71	226.56
405.08	226.72
405.46	226.86
405.83	227.00
406.21	227.16
406.58	227.31
406.96	227.46
407.33	227.63
407.70	227.83
408.08	228.10
408.45	228.30
408.83	228.54
409.20	228.77
409.58	228.94
409.95	229.21
410.33	229.50
410.70	229.74
411.08	230.02
411.45	230.35
411.82	230.66
412.20	231.01
412.57	231.44
412.95	231.73
413.32	232.15
413.69	232.55
414.07	232.98
414.44	233.42
414.82	233.90
415.19	234.42
415.56	234.97
415.94	235.51
416.31	236.14
416.68	236.77
417.06	237.46
417.43	238.15
417.81	238.87
418.18	239.63
418.55	240.50
418.93	241.39
419.30	242.27
419.67	243.17
420.04	244.13
420.42	245.07
420.79	246.26
421.16	247.35
421.54	248.53
421.91	249.72
422.28	250.99
422.66	252.34
423.03	253.64
423.40	254.94
423.77	256.33
424.15	257.72
424.52	259.19
424.89	260.79
425.26	262.30
425.64	263.72
426.01	265.31
426.38	266.97
426.75	268.61
427.13	270.30
427.50	272.11
427.87	273.96
428.24	275.81
428.61	277.52
428.99	279.48
429.36	281.58
429.73	283.67
430.10	285.72
430.47	287.77
430.85	289.87
431.22	292.11
431.59	294.48
431.96	296.73
432.33	299.21
432.70	301.57
433.08	304.37
433.45	307.04
433.82	309.62
434.19	312.48
434.56	315.27
434.93	317.91
435.30	320.48
435.68	323.36
436.05	326.21
436.42	328.98
436.79	331.50
437.16	334.17
437.53	336.94
437.90	339.70
438.27	342.41
438.64	345.24
439.01	347.81
439.38	350.04
439.75	352.20
440.13	354.65
440.50	356.99
440.87	358.90
441.24	360.83
441.61	363.04
441.98	364.52
442.35	366.35
442.72	368.19
443.09	370.03
443.46	371.04
443.83	371.60
444.20	372.17
444.57	373.02
444.94	373.31
445.31	373.71
445.68	374.06
446.05	374.11
446.42	373.73
446.79	373.32
447.16	372.86
447.53	372.59
447.90	371.44
448.27	370.29
448.64	368.67
449.01	367.55
449.37	365.56
449.74	363.69
450.11	361.46
450.48	359.03
450.85	356.54
451.22	354.43
451.59	352.44
451.96	350.48
452.33	347.88
452.70	345.54
453.07	342.72
453.43	339.84
453.80	337.15
454.17	334.52
454.54	331.99
454.91	329.29
455.28	326.63
455.65	324.21
456.02	321.78
456.38	319.65
456.75	317.01
457.12	314.77
457.49	312.56
457.86	310.39
458.23	308.52
458.59	306.47
458.96	304.40
459.33	302.53
459.70	300.70
460.07	299.19
460.43	297.46
460.80	295.82
461.17	294.38
461.54	292.87
461.91	291.42
462.27	290.00
462.64	288.76
463.01	287.42
463.38	286.09
463.74	284.73
464.11	283.56
464.48	282.53
464.85	281.39
465.21	280.52
465.58	279.61
465.95	278.53
466.32	277.61
466.68	276.71
467.05	275.82
467.42	274.92
467.78	273.99
468.15	273.15
468.52	272.51
468.88	271.67
469.25	270.88
469.62	270.27
469.98	269.60
470.35	268.99
470.72	268.39
471.08	267.75
471.45	267.21
471.82	266.68
472.18	266.07
472.55	265.67
472.92	265.18
473.28	264.71
473.65	264.27
474.02	263.85
474.38	263.48
474.75	263.22
475.11	262.90
475.48	262.67
475.85	262.39
476.21	262.15
476.58	261.99
476.94	261.87
477.31	261.71
477.67	261.54
478.04	261.44
478.41	261.40
478.77	261.47
479.14	261.44
479.50	261.49
479.87	261.64
480.23	261.72
480.60	261.83
480.96	261.94
481.33	262.17
481.69	262.39
482.06	262.60
482.42	262.80
482.79	263.05
483.15	263.37
483.52	263.84
483.88	264.21
484.25	264.58
484.61	265.04
484.98	265.51
485.34	266.09
485.71	266.69
486.07	267.30
486.44	267.88
486.80	268.57
487.17	269.30
487.53	270.11
487.90	270.97
488.26	271.90
488.62	272.90
488.99	273.88
489.35	274.93
489.72	276.04
490.08	277.25
490.44	278.51
490.81	279.84
491.17	281.17
491.54	282.63
491.90	284.18
492.26	285.84
492.63	287.58
492.99	289.39
493.36	291.30
493.72	293.32
494.08	295.41
494.45	297.66
494.81	300.01
495.17	302.39
495.54	304.94
495.90	307.63
496.26	310.45
496.63	313.37
496.99	316.46
497.35	319.74
497.72	323.14
498.08	326.65
498.44	330.33
498.80	334.22
499.17	338.27
499.53	342.40
499.89	346.79
500.26	351.28
500.62	355.89
500.98	360.74
501.34	365.79
501.71	371.06
502.07	376.44
502.43	382.02
502.79	387.78
503.16	393.76
503.52	399.97
503.88	406.29
504.24	412.84
504.60	419.62
504.97	426.67
505.33	433.85
505.69	441.46
506.05	449.10
506.41	456.88
506.78	464.97
507.14	473.38
507.50	481.94
507.86	490.84
508.22	499.99
508.59	509.17
508.95	518.58
509.31	528.27
509.67	538.24
510.03	548.31
510.39	558.77
510.75	569.43
511.12	580.15
511.48	591.27
511.84	602.59
512.20	613.96
512.56	625.69
512.92	637.70
513.28	649.86
513.64	662.19
514.00	674.73
514.37	687.42
514.73	700.27
515.09	713.11
515.45	726.20
515.81	739.45
516.17	753.16
516.53	767.05
516.89	780.99
517.25	794.92
517.61	809.12
517.97	823.21
518.33	837.42
518.69	851.92
519.05	866.59
519.41	881.47
519.77	896.75
520.13	911.93
520.49	927.03
520.85	942.08
521.21	957.48
521.57	973.35
521.93	988.82
522.29	1004.78
522.65	1020.70
523.01	1036.51
523.37	1052.20
523.73	1067.94
524.09	1083.56
524.45	1099.40
524.81	1115.76
525.17	1132.04
525.53	1148.59
525.89	1165.07
526.25	1181.49
526.61	1197.62
526.97	1213.97
527.33	1229.97
527.68	1246.07
528.04	1262.14
528.40	1278.33
528.76	1295.00
529.12	1311.14
529.48	1327.61
529.84	1343.24
530.20	1359.40
530.56	1375.93
530.91	1392.94
531.27	1409.33
531.63	1425.55
531.99	1441.79
532.35	1457.38
532.71	1473.01
533.07	1488.92
533.42	1504.35
533.78	1520.12
534.14	1536.00
534.50	1551.01
534.86	1566.48
535.21	1581.43
535.57	1596.95
535.93	1612.18
536.29	1626.61
536.65	1641.30
537.00	1655.62
537.36	1670.57
537.72	1684.71
538.08	1698.89
538.44	1712.36
538.79	1725.99
539.15	1739.23
539.51	1752.61
539.87	1766.56
540.22	1779.99
540.58	1793.43
540.94	1806.40
541.29	1818.90
541.65	1831.07
542.01	1843.75
542.37	1855.90
542.72	1868.03
543.08	1879.71
543.44	1891.61
543.79	1902.53
544.15	1913.32
544.51	1924.67
544.87	1935.34
545.22	1946.08
545.58	1956.00
545.94	1965.47
546.29	1975.05
546.65	1984.76
547.01	1993.89
547.36	2002.42
547.72	2010.71
548.07	2018.48
548.43	2026.65
548.79	2034.41
549.14	2042.02
549.50	2049.28
549.86	2056.78
550.21	2063.91
550.57	2071.04
550.92	2077.68
551.28	2084.81
551.64	2091.72
551.99	2098.28
552.35	2104.33
552.70	2110.36
553.06	2116.36
553.41	2122.87
553.77	2128.91
554.13	2134.86
554.48	2141.01
554.84	2146.62
555.19	2151.77
555.55	2157.00
555.90	2161.29
556.26	2166.34
556.61	2171.00
556.97	2175.52
557.32	2179.59
557.68	2183.75
558.03	2187.86
558.39	2191.44
558.74	2196.06
559.10	2200.02
559.45	2203.55
559.81	2208.02
560.16	2211.96
560.52	2215.23
560.87	2218.60
561.23	2221.29
561.58	2224.25
561.94	2226.79
562.29	2228.97
562.64	2231.89
563.00	2234.47
563.35	2238.10
563.71	2241.29
564.06	2244.57
564.42	2247.49
564.77	2250.30
565.12	2252.75
565.48	2254.76
565.83	2256.98
566.19	2258.43
566.54	2259.53
566.89	2260.92
567.25	2261.71
567.60	2263.13
567.96	2265.05
568.31	2266.04
568.66	2267.36
569.02	2268.23
569.37	2268.79
569.72	2269.91
570.08	2270.19
570.43	2270.45
570.78	2270.30
571.14	2269.01
571.49	2267.76
571.84	2267.63
572.20	2266.83
572.55	2266.06
572.90	2264.70
573.26	2263.49
573.61	2261.73
573.96	2260.18
574.31	2257.48
574.67	2254.79
575.02	2251.35
575.37	2248.13
575.72	2244.69
576.08	2241.55
576.43	2238.44
576.78	2235.08
577.13	2232.16
577.49	2229.39
577.84	2226.02
578.19	2222.43
578.54	2219.11
578.90	2215.38
579.25	2209.97
579.60	2205.06
579.95	2200.20
580.30	2195.46
580.66	2190.59
581.01	2185.93
581.36	2181.30
581.71	2177.43
582.06	2173.13
582.42	2168.88
582.77	2163.96
583.12	2159.56
583.47	2155.20
583.82	2150.47
584.17	2145.42
584.53	2140.10
584.88	2134.59
585.23	2129.03
585.58	2123.76
585.93	2118.46
586.28	2113.75
586.63	2109.09
586.98	2104.31
587.34	2099.88
587.69	2095.22
588.04	2090.09
588.39	2084.78
588.74	2078.43
589.09	2072.36
589.44	2065.86
589.79	2059.98
590.14	2054.50
590.49	2048.14
590.84	2041.86
591.19	2036.04
591.54	2029.73
591.89	2022.77
592.25	2016.32
592.60	2009.47
592.95	2002.30
593.30	1995.13
593.65	1987.87
594.00	1980.92
594.35	1973.77
594.70	1965.81
595.05	1958.88
595.40	1951.77
595.75	1944.48
596.10	1938.54
596.45	1932.10
596.80	1926.08
597.15	1919.70
597.50	1912.86
597.85	1906.55
598.19	1900.11
598.54	1893.28
598.89	1886.82
599.24	1880.96
599.59	1874.38
599.94	1868.33
600.29	1862.01
600.64	1855.54
600.99	1848.22
601.34	1841.58
601.69	1834.72
602.04	1828.18
602.39	1820.95
602.74	1814.28
603.08	1807.66
603.43	1801.03
603.78	1793.69
604.13	1786.60
604.48	1779.52
604.83	1772.69
605.18	1765.95
605.53	1758.02
605.87	1750.16
606.22	1743.14
606.57	1735.30
606.92	1727.97
607.27	1720.83
607.62	1714.04
607.96	1706.93
608.31	1700.45
608.66	1692.99
609.01	1685.65
609.36	1678.01
609.70	1670.06
610.05	1662.16
610.40	1654.59
610.75	1646.41
611.10	1639.06
611.44	1630.66
611.79	1622.73
612.14	1614.24
612.49	1605.07
612.83	1596.79
613.18	1588.74
613.53	1580.64
613.88	1572.13
614.22	1564.03
614.57	1555.43
614.92	1547.40
615.27	1539.97
615.61	1531.71
615.96	1523.79
616.31	1516.17
616.65	1508.96
617.00	1501.55
617.35	1493.95
617.70	1485.75
618.04	1477.29
618.39	1469.01
618.74	1461.46
619.08	1453.18
619.43	1445.51
619.78	1438.72
620.12	1431.65
620.47	1424.11
620.82	1416.02
621.16	1408.64
621.51	1401.10
621.85	1393.58
622.20	1385.15
622.55	1376.79
622.89	1368.96
623.24	1361.25
623.59	1353.81
623.93	1346.36
624.28	1339.08
624.62	1331.59
624.97	1324.42
625.32	1317.66
625.66	1310.70
626.01	1303.65
626.35	1296.26
626.70	1288.54
627.04	1280.82
627.39	1273.04
627.73	1265.70
628.08	1258.77
628.43	1251.69
628.77	1244.38
629.12	1236.90
629.46	1229.73
629.81	1222.29
630.15	1215.17
630.50	1207.88
630.84	1199.75
631.19	1191.82
631.53	1184.32
631.88	1176.81
632.22	1169.28
632.57	1162.01
632.91	1154.44
633.26	1147.10
633.60	1139.73
633.95	1132.77
634.29	1125.72
634.64	1119.06
634.98	1111.71
635.32	1104.61
635.67	1097.93
636.01	1091.25
636.36	1084.46
636.70	1078.03
637.05	1071.56
637.39	1065.01
637.73	1058.53
638.08	1052.70
638.42	1046.74
638.77	1040.41
639.11	1033.80
639.45	1027.37
639.80	1020.80
640.14	1014.54
640.49	1008.02
640.83	1001.75
641.17	995.52
641.52	989.23
641.86	982.82
642.20	977.01
642.55	970.68
642.89	964.24
643.23	957.77
643.58	952.17
643.92	945.95
644.26	939.91
644.61	933.96
644.95	928.02
645.29	921.58
645.64	914.82
645.98	908.48
646.32	902.70
646.66	896.70
647.01	890.90
647.35	885.13
647.69	879.30
648.04	873.78
648.38	868.03
648.72	862.16
649.06	856.18
649.41	850.33
649.75	844.45
650.09	838.56
650.43	832.91
650.78	826.66
651.12	820.76
651.46	815.12
651.80	809.43
652.14	804.02
652.49	798.66
652.83	793.55
653.17	787.92
653.51	782.31
653.85	776.88
654.20	771.26
654.54	765.36
654.88	759.58
655.22	753.77
655.56	748.15
655.90	742.70
656.25	737.47
656.59	732.10
656.93	727.05
657.27	721.94
657.61	716.42
657.95	711.39
658.29	706.37
658.64	700.99
658.98	695.74
659.32	690.26
659.66	685.11
660.00	679.85
660.34	674.94
660.68	670.01
661.02	665.00
661.36	660.35
661.70	655.85
662.05	651.61
662.39	647.26
662.73	642.79
663.07	638.39
663.41	633.95
663.75	629.51
664.09	624.97
664.43	620.52
664.77	616.46
665.11	612.25
665.45	608.13
665.79	604.12
666.13	599.96
666.47	595.91
666.81	591.79
667.15	587.66
667.49	583.75
667.83	579.95
668.17	576.16
668.51	572.10
668.85	568.11
669.19	564.20
669.53	560.39
669.87	556.55
670.21	552.85
670.55	549.21
670.89	545.81
671.23	542.35
671.57	538.90
671.91	535.42
672.25	531.87
672.58	528.31
672.92	524.96
673.26	521.78
673.60	518.64
673.94	515.47
674.28	512.61
674.62	509.73
674.96	506.62
675.30	503.71
675.64	500.83
675.97	498.04
676.31	495.27
676.65	492.37
676.99	489.68
677.33	486.84
677.67	484.02
678.01	480.94
678.34	478.08
678.68	475.30
679.02	472.45
679.36	469.80
679.70	467.17
680.04	464.39
680.37	461.59
680.71	458.83
681.05	456.26
681.39	453.52
681.73	450.82
682.06	448.29
682.40	445.74
682.74	443.20
683.08	440.64
683.42	438.04
683.75	435.59
684.09	433.03
684.43	430.59
684.77	428.17
685.10	425.89
685.44	423.51
685.78	421.18
686.12	418.94
686.45	416.55
686.79	414.20
687.13	412.03
687.46	409.87
687.80	407.73
688.14	405.51
688.48	403.46
688.81	401.21
689.15	399.07
689.49	396.91
689.82	394.84
690.16	392.79
690.50	390.81
690.83	388.87
691.17	386.90
691.51	384.98
691.84	383.15
692.18	381.29
692.52	379.35
692.85	377.42
693.19	375.58
693.52	373.80
693.86	372.04
694.20	370.29
694.53	368.48
694.87	366.66
695.21	364.89
695.54	363.09
695.88	361.41
696.21	359.69
696.55	358.04
696.88	356.34
697.22	354.64
697.56	353.01
697.89	351.36
698.23	349.79
698.56	348.17
698.90	346.62
699.23	344.93
699.57	343.40
699.90	341.86
700.24	340.29
700.58	338.74
700.91	337.27
701.25	335.84
701.58	334.51
701.92	333.12
702.25	331.70
702.59	330.38
702.92	329.03
703.26	327.74
703.59	326.47
703.93	325.30
704.26	324.09
704.60	322.79
704.93	321.48
705.26	320.25
705.60	319.08
705.93	317.89
706.27	316.86
706.60	315.79
706.94	314.66
707.27	313.53
707.61	312.46
707.94	311.39
708.27	310.27
708.61	309.19
708.94	308.17
709.28	307.24
709.61	306.24
709.94	305.29
710.28	304.24
710.61	303.27
710.95	302.15
711.28	301.28
711.61	300.36
711.95	299.47
712.28	298.49
712.61	297.52
712.95	296.59
713.28	295.67
713.61	294.78
713.95	293.94
714.28	293.15
714.61	292.30
714.95	291.43
715.28	290.56
715.61	289.67
715.95	288.81
716.28	287.91
716.61	287.10
716.95	286.27
717.28	285.56
717.61	284.78
717.94	284.04
718.28	283.19
718.61	282.46
718.94	281.77
719.27	281.11
719.61	280.51
719.94	279.85
720.27	279.17
720.60	278.48
720.94	277.83
721.27	277.19
721.60	276.60
721.93	276.01
722.27	275.49
722.60	274.92
722.93	274.35
723.26	273.84
723.59	273.25
723.93	272.71
724.26	272.15
724.59	271.55
724.92	271.03
725.25	270.55
725.59	270.02
725.92	269.48
726.25	268.98
726.58	268.45
726.91	267.93
727.24	267.46
727.57	267.04
727.91	266.57
728.24	266.09
728.57	265.61
728.90	265.16
729.23	264.66
729.56	264.24
729.89	263.80
730.22	263.31
730.55	262.85
730.89	262.41
731.22	261.98
731.55	261.57
731.88	261.17
732.21	260.71
732.54	260.31
732.87	259.90
733.20	259.49
733.53	259.09
733.86	258.74
734.19	258.32
734.52	257.92
734.85	257.61
735.18	257.21
735.51	256.86
735.84	256.46
736.17	256.11
736.50	255.74
736.83	255.48
737.16	255.16
737.49	254.81
737.82	254.45
738.15	254.10
738.48	253.79
738.81	253.44
739.14	253.12
739.47	252.80
739.80	252.51
740.13	252.20
740.46	251.87
740.79	251.51
741.12	251.21
741.45	250.93
741.78	250.60
742.11	250.33
742.44	250.00
742.77	249.74
743.10	249.43
743.43	249.11
743.75	248.72
744.08	248.57
744.41	248.31
744.74	248.04
745.07	247.77
745.40	247.52
745.73	247.32
746.06	247.08
746.39	246.79
746.71	246.49
747.04	246.21
747.37	245.96
747.70	245.76
748.03	245.50
748.36	245.26
748.68	244.99
749.01	244.72
749.34	244.50
749.67	244.26
750.00	244.00
750.33	243.87
750.65	243.65
750.98	243.26
751.31	243.06
751.64	242.87
751.97	242.71
752.29	242.49
752.62	242.24
752.95	242.00
753.28	241.83
753.60	241.65
753.93	241.51
754.26	241.30
754.59	241.07
754.91	240.86
755.24	240.61
755.57	240.41
755.90	240.24
756.22	240.04
756.55	239.84
756.88	239.67
757.20	239.46
757.53	239.27
757.86	239.12
758.19	238.94
758.51	238.76
758.84	238.50
759.17	238.32
759.49	238.15
759.82	238.05
760.15	237.86
760.47	237.69
760.80	237.49
761.13	237.37
761.45	237.22
761.78	237.10
762.11	236.97
762.43	236.84
762.76	236.70
763.08	236.57
763.41	236.43
763.74	236.30
764.06	236.13
764.39	236.02
764.71	235.89
765.04	235.74
765.37	235.59
765.69	235.50
766.02	235.36
766.34	235.24
766.67	235.08
767.00	234.96
767.32	234.89
767.65	234.82
767.97	234.69
768.30	234.55
768.62	234.42
768.95	234.29
769.27	234.17
769.60	234.10
769.92	233.98
770.25	233.84
770.57	233.73
770.90	233.61
771.22	233.48
771.55	233.42
771.87	233.34
772.20	233.24
772.52	233.22
772.85	233.23
773.17	233.11
773.50	233.02
773.82	232.95
774.15	232.82
774.47	232.69
774.80	232.56
775.12	232.50
775.45	232.42
775.77	232.36
776.09	232.29
776.42	232.18
776.74	232.13
777.07	232.08
777.39	232.02
777.72	231.99
778.04	231.93
778.36	231.85
778.69	231.79
779.01	231.77
779.33	231.61
779.66	231.44
779.98	231.37
780.31	231.30
780.63	231.28
780.95	231.25
781.28	231.18
781.60	231.15
781.92	231.06
782.25	230.99
782.57	230.93
782.89	230.85
783.22	230.80
783.54	230.72
783.86	230.66
784.19	230.55
784.51	230.50
784.83	230.41
785.16	230.34
785.48	230.27
785.80	230.22
786.12	230.18
786.45	230.14
786.77	230.12
787.09	230.08
