SpectraSuite Data File
++++++++++++++++++++++++++++++++++++
Date: Fri Feb 01 16:46:12 EST 2013
User: group
Dark Spectrum Present: No
Reference Spectrum Present: No
Number of Sampled Component Spectra: 1
Spectrometers: USB2E7196
Integration Time (usec): 35000 (USB2E7196)
Spectra Averaged: 100 (USB2E7196)
Boxcar Smoothing: 10 (USB2E7196)
Correct for Electrical Dark: No (USB2E7196)
Strobe/Lamp Enabled: No (USB2E7196)
Correct for Detector Non-linearity: No (USB2E7196)
Correct for Stray Light: No (USB2E7196)
Number of Pixels in Processed Spectrum: 2048
>>>>>Begin Processed Spectral Data<<<<<
339.09	0.00
339.48	212.48
339.86	214.44
340.24	216.19
340.63	217.21
341.01	219.97
341.39	220.35
341.78	221.76
342.16	222.81
342.54	223.24
342.93	211.60
343.31	222.32
343.69	222.90
344.07	223.37
344.46	223.79
344.84	224.19
345.22	224.45
345.60	224.70
345.99	224.86
346.37	224.96
346.75	225.03
347.13	225.10
347.52	225.14
347.90	225.18
348.28	225.19
348.66	225.20
349.05	225.20
349.43	225.23
349.81	225.27
350.19	225.34
350.57	225.42
350.96	225.50
351.34	225.56
351.72	225.63
352.10	225.72
352.48	225.79
352.87	225.83
353.25	225.90
353.63	225.96
354.01	226.04
354.39	226.15
354.77	226.26
355.15	226.34
355.54	226.41
355.92	226.47
356.30	226.57
356.68	226.74
357.06	226.82
357.44	226.88
357.82	226.98
358.20	227.08
358.58	227.11
358.97	227.16
359.35	227.23
359.73	227.33
360.11	227.43
360.49	227.50
360.87	227.55
361.25	227.61
361.63	227.70
362.01	227.74
362.39	227.76
362.77	227.80
363.15	227.83
363.53	227.85
363.91	227.88
364.29	227.89
364.67	227.82
365.05	227.85
365.43	227.87
365.81	227.89
366.19	227.91
366.57	227.98
366.95	228.01
367.33	227.96
367.71	227.95
368.09	227.95
368.47	227.93
368.85	227.91
369.23	227.92
369.61	227.87
369.99	227.88
370.37	227.90
370.75	227.92
371.13	227.88
371.51	227.85
371.89	227.85
372.27	227.82
372.65	227.77
373.03	227.72
373.41	227.66
373.78	227.57
374.16	227.46
374.54	227.39
374.92	227.31
375.30	227.27
375.68	227.18
376.06	227.11
376.44	227.03
376.82	226.98
377.19	226.89
377.57	226.77
377.95	226.65
378.33	226.53
378.71	226.44
379.09	226.38
379.47	226.36
379.84	226.27
380.22	226.21
380.60	226.10
380.98	226.00
381.36	225.94
381.73	225.88
382.11	225.83
382.49	225.77
382.87	225.68
383.25	225.61
383.62	225.70
384.00	225.63
384.38	225.58
384.76	225.55
385.13	225.53
385.51	225.51
385.89	225.44
386.27	225.39
386.64	225.33
387.02	225.26
387.40	225.17
387.78	225.14
388.15	225.08
388.53	225.06
388.91	225.03
389.29	225.00
389.66	224.98
390.04	224.95
390.42	224.93
390.79	224.95
391.17	224.92
391.55	224.75
391.92	224.73
392.30	224.72
392.68	224.68
393.05	224.66
393.43	224.66
393.81	224.72
394.18	224.74
394.56	224.73
394.94	224.80
395.31	224.82
395.69	224.87
396.06	224.92
396.44	224.93
396.82	224.97
397.19	225.05
397.57	225.07
397.95	225.10
398.32	225.11
398.70	225.16
399.07	225.24
399.45	225.29
399.82	225.36
400.20	225.41
400.58	225.48
400.95	225.53
401.33	225.64
401.70	225.77
402.08	225.86
402.45	225.95
402.83	226.06
403.20	226.16
403.58	226.26
403.95	226.39
404.33	226.55
404.71	226.70
405.08	226.87
405.46	227.01
405.83	227.18
406.21	227.36
406.58	227.51
406.96	227.69
407.33	227.87
407.70	228.10
408.08	228.37
408.45	228.61
408.83	228.80
409.20	229.00
409.58	229.17
409.95	229.46
410.33	229.75
410.70	229.99
411.08	230.27
411.45	230.55
411.82	230.86
412.20	231.19
412.57	231.61
412.95	231.90
413.32	232.27
413.69	232.67
414.07	233.09
414.44	233.56
414.82	234.03
415.19	234.59
415.56	235.11
415.94	235.64
416.31	236.26
416.68	236.91
417.06	237.60
417.43	238.28
417.81	239.03
418.18	239.79
418.55	240.61
418.93	241.47
419.30	242.36
419.67	243.28
420.04	244.25
420.42	245.20
420.79	246.36
421.16	247.55
421.54	248.76
421.91	249.95
422.28	251.15
422.66	252.45
423.03	253.76
423.40	255.11
423.77	256.51
424.15	257.90
424.52	259.40
424.89	261.02
425.26	262.54
425.64	263.96
426.01	265.54
426.38	267.18
426.75	268.84
427.13	270.55
427.50	272.31
427.87	274.17
428.24	275.98
428.61	277.72
428.99	279.62
429.36	281.67
429.73	283.69
430.10	285.73
430.47	287.81
430.85	289.86
431.22	292.07
431.59	294.41
431.96	296.65
432.33	299.11
432.70	301.41
433.08	304.17
433.45	306.81
433.82	309.38
434.19	312.19
434.56	314.98
434.93	317.57
435.30	320.19
435.68	323.05
436.05	325.85
436.42	328.61
436.79	331.10
437.16	333.73
437.53	336.55
437.90	339.29
438.27	341.97
438.64	344.77
439.01	347.29
439.38	349.48
439.75	351.61
440.13	354.03
440.50	356.36
440.87	358.19
441.24	360.07
441.61	362.19
441.98	363.71
442.35	365.47
442.72	367.33
443.09	369.10
443.46	370.02
443.83	370.64
444.20	371.14
444.57	371.96
444.94	372.26
445.31	372.62
445.68	373.01
446.05	373.10
446.42	372.74
446.79	372.38
447.16	371.98
447.53	371.69
447.90	370.56
448.27	369.42
448.64	367.91
449.01	366.78
449.37	364.88
449.74	363.01
450.11	360.84
450.48	358.39
450.85	355.87
451.22	353.86
451.59	351.85
451.96	349.92
452.33	347.37
452.70	345.06
453.07	342.29
453.43	339.42
453.80	336.72
454.17	334.09
454.54	331.55
454.91	328.85
455.28	326.18
455.65	323.73
456.02	321.30
456.38	319.18
456.75	316.55
457.12	314.35
457.49	312.13
457.86	309.97
458.23	308.14
458.59	306.18
458.96	304.09
459.33	302.23
459.70	300.45
460.07	298.96
460.43	297.25
460.80	295.65
461.17	294.24
461.54	292.74
461.91	291.35
462.27	289.92
462.64	288.68
463.01	287.37
463.38	286.08
463.74	284.77
464.11	283.60
464.48	282.58
464.85	281.44
465.21	280.59
465.58	279.69
465.95	278.58
466.32	277.70
466.68	276.80
467.05	275.97
467.42	275.09
467.78	274.16
468.15	273.33
468.52	272.67
468.88	271.82
469.25	271.11
469.62	270.49
469.98	269.83
470.35	269.23
470.72	268.66
471.08	268.03
471.45	267.50
471.82	267.00
472.18	266.44
472.55	266.03
472.92	265.54
473.28	265.11
473.65	264.69
474.02	264.22
474.38	263.87
474.75	263.55
475.11	263.18
475.48	262.93
475.85	262.72
476.21	262.47
476.58	262.25
476.94	262.07
477.31	261.89
477.67	261.78
478.04	261.67
478.41	261.60
478.77	261.63
479.14	261.58
479.50	261.61
479.87	261.65
480.23	261.75
480.60	261.85
480.96	261.94
481.33	262.13
481.69	262.35
482.06	262.52
482.42	262.69
482.79	262.99
483.15	263.33
483.52	263.69
483.88	264.05
484.25	264.47
484.61	264.90
484.98	265.39
485.34	265.91
485.71	266.49
486.07	267.09
486.44	267.67
486.80	268.34
487.17	269.04
487.53	269.87
487.90	270.70
488.26	271.61
488.62	272.57
488.99	273.59
489.35	274.64
489.72	275.73
490.08	276.97
490.44	278.20
490.81	279.50
491.17	280.85
491.54	282.33
491.90	283.89
492.26	285.57
492.63	287.31
492.99	289.07
493.36	290.97
493.72	293.05
494.08	295.15
494.45	297.42
494.81	299.79
495.17	302.26
495.54	304.85
495.90	307.54
496.26	310.39
496.63	313.34
496.99	316.46
497.35	319.78
497.72	323.17
498.08	326.67
498.44	330.37
498.80	334.29
499.17	338.32
499.53	342.53
499.89	346.89
500.26	351.37
500.62	356.06
500.98	361.05
501.34	366.14
501.71	371.48
502.07	376.90
502.43	382.51
502.79	388.28
503.16	394.31
503.52	400.60
503.88	407.01
504.24	413.64
504.60	420.47
504.97	427.56
505.33	434.90
505.69	442.61
506.05	450.39
506.41	458.24
506.78	466.34
507.14	474.77
507.50	483.50
507.86	492.49
508.22	501.63
508.59	510.78
508.95	520.28
509.31	530.08
509.67	540.19
510.03	550.43
510.39	560.98
510.75	571.77
511.12	582.67
511.48	593.86
511.84	605.27
512.20	616.82
512.56	628.66
512.92	640.74
513.28	653.07
513.64	665.48
514.00	678.14
514.37	691.00
514.73	703.96
515.09	716.92
515.45	730.19
515.81	743.71
516.17	757.63
516.53	771.70
516.89	785.73
517.25	799.77
517.61	814.09
517.97	828.48
518.33	842.73
518.69	857.33
519.05	872.32
519.41	887.40
519.77	902.79
520.13	918.00
520.49	933.30
520.85	948.52
521.21	964.08
521.57	980.20
521.93	995.88
522.29	1012.04
522.65	1028.12
523.01	1044.12
523.37	1059.99
523.73	1075.94
524.09	1091.85
524.45	1108.04
524.81	1124.47
525.17	1141.19
525.53	1157.89
525.89	1174.60
526.25	1191.33
526.61	1207.45
526.97	1223.87
527.33	1240.11
527.68	1256.71
528.04	1272.96
528.40	1289.45
528.76	1306.26
529.12	1322.74
529.48	1339.56
529.84	1355.41
530.20	1371.88
530.56	1388.71
530.91	1405.98
531.27	1422.68
531.63	1438.93
531.99	1455.32
532.35	1471.15
532.71	1486.88
533.07	1503.00
533.42	1518.86
533.78	1534.81
534.14	1551.00
534.50	1566.33
534.86	1582.02
535.21	1597.18
535.57	1613.03
535.93	1628.28
536.29	1643.01
536.65	1657.82
537.00	1672.22
537.36	1687.48
537.72	1701.74
538.08	1716.07
538.44	1729.67
538.79	1743.32
539.15	1756.89
539.51	1770.38
539.87	1784.55
540.22	1798.04
540.58	1811.42
540.94	1824.51
541.29	1837.07
541.65	1849.58
542.01	1862.64
542.37	1874.88
542.72	1887.04
543.08	1898.59
543.44	1910.79
543.79	1921.87
544.15	1932.73
544.51	1944.38
544.87	1955.07
545.22	1965.90
545.58	1975.92
545.94	1985.63
546.29	1995.32
546.65	2005.13
547.01	2014.26
547.36	2022.85
547.72	2031.31
548.07	2039.33
548.43	2047.34
548.79	2055.31
549.14	2062.62
549.50	2069.80
549.86	2077.24
550.21	2084.54
550.57	2091.66
550.92	2098.17
551.28	2105.16
551.64	2112.11
551.99	2118.41
552.35	2124.74
552.70	2130.73
553.06	2136.65
553.41	2143.02
553.77	2149.03
554.13	2154.96
554.48	2161.15
554.84	2166.75
555.19	2171.97
555.55	2177.14
555.90	2181.65
556.26	2186.48
556.61	2191.35
556.97	2195.65
557.32	2199.88
557.68	2203.93
558.03	2208.18
558.39	2211.84
558.74	2216.56
559.10	2220.58
559.45	2224.23
559.81	2228.21
560.16	2232.21
560.52	2235.51
560.87	2238.82
561.23	2241.50
561.58	2244.47
561.94	2246.93
562.29	2249.15
562.64	2251.78
563.00	2254.25
563.35	2257.92
563.71	2261.03
564.06	2264.16
564.42	2267.11
564.77	2269.75
565.12	2272.18
565.48	2274.19
565.83	2276.21
566.19	2277.57
566.54	2278.33
566.89	2279.54
567.25	2280.36
567.60	2281.67
567.96	2283.43
568.31	2284.33
568.66	2285.57
569.02	2286.31
569.37	2286.92
569.72	2287.85
570.08	2288.23
570.43	2288.23
570.78	2287.59
571.14	2286.19
571.49	2284.89
571.84	2284.70
572.20	2283.73
572.55	2282.79
572.90	2281.29
573.26	2279.97
573.61	2278.30
573.96	2276.76
574.31	2273.96
574.67	2271.15
575.02	2267.60
575.37	2264.32
575.72	2260.69
576.08	2257.39
576.43	2254.10
576.78	2250.48
577.13	2247.36
577.49	2244.18
577.84	2240.91
578.19	2237.32
578.54	2233.91
578.90	2229.94
579.25	2224.47
579.60	2219.52
579.95	2214.56
580.30	2209.70
580.66	2204.70
581.01	2199.73
581.36	2194.83
581.71	2190.74
582.06	2186.35
582.42	2182.04
582.77	2176.94
583.12	2172.41
583.47	2167.90
583.82	2163.12
584.17	2157.84
584.53	2152.48
584.88	2147.15
585.23	2141.60
585.58	2136.19
585.93	2130.85
586.28	2126.05
586.63	2121.08
586.98	2116.16
587.34	2111.47
587.69	2106.70
588.04	2101.55
588.39	2096.12
588.74	2089.73
589.09	2083.89
589.44	2077.10
589.79	2071.02
590.14	2065.50
590.49	2059.10
590.84	2052.72
591.19	2046.66
591.54	2040.43
591.89	2033.26
592.25	2026.57
592.60	2019.36
592.95	2011.90
593.30	2004.61
593.65	1997.16
594.00	1990.15
594.35	1982.91
594.70	1974.92
595.05	1967.85
595.40	1960.69
595.75	1953.27
596.10	1947.28
596.45	1940.49
596.80	1934.56
597.15	1928.15
597.50	1921.08
597.85	1914.67
598.19	1908.14
598.54	1901.18
598.89	1894.53
599.24	1888.80
599.59	1882.12
599.94	1875.97
600.29	1869.81
600.64	1863.31
600.99	1856.04
601.34	1849.33
601.69	1842.52
602.04	1835.77
602.39	1828.37
602.74	1821.55
603.08	1814.80
603.43	1808.05
603.78	1800.75
604.13	1793.59
604.48	1786.26
604.83	1779.48
605.18	1772.70
605.53	1764.83
605.87	1756.90
606.22	1749.76
606.57	1741.78
606.92	1734.47
607.27	1727.43
607.62	1720.53
607.96	1713.26
608.31	1706.73
608.66	1699.12
609.01	1691.61
609.36	1684.05
609.70	1676.04
610.05	1668.11
610.40	1660.51
610.75	1652.31
611.10	1644.87
611.44	1636.38
611.79	1628.39
612.14	1619.81
612.49	1610.51
612.83	1602.13
613.18	1593.99
613.53	1585.93
613.88	1577.40
614.22	1569.19
614.57	1560.62
614.92	1552.54
615.27	1545.21
615.61	1536.87
615.96	1528.95
616.31	1521.20
616.65	1513.92
617.00	1506.46
617.35	1498.68
617.70	1490.44
618.04	1482.07
618.39	1473.70
618.74	1466.24
619.08	1457.97
619.43	1450.32
619.78	1443.48
620.12	1436.33
620.47	1428.91
620.82	1420.74
621.16	1413.42
621.51	1405.72
621.85	1398.01
622.20	1389.55
622.55	1381.07
622.89	1373.26
623.24	1365.58
623.59	1358.31
623.93	1350.82
624.28	1343.58
624.62	1336.18
624.97	1328.99
625.32	1322.05
625.66	1315.02
626.01	1307.83
626.35	1300.47
626.70	1292.77
627.04	1285.09
627.39	1277.34
627.73	1269.85
628.08	1262.97
628.43	1255.67
628.77	1248.40
629.12	1240.91
629.46	1233.85
629.81	1226.31
630.15	1219.00
630.50	1211.58
630.84	1203.40
631.19	1195.48
631.53	1188.02
631.88	1180.43
632.22	1172.83
632.57	1165.58
632.91	1158.15
633.26	1150.77
633.60	1143.29
633.95	1136.18
634.29	1129.11
634.64	1122.45
634.98	1115.14
635.32	1108.02
635.67	1101.40
636.01	1094.89
636.36	1088.17
636.70	1081.55
637.05	1075.08
637.39	1068.64
637.73	1062.21
638.08	1056.30
638.42	1050.35
638.77	1043.87
639.11	1037.38
639.45	1031.02
639.80	1024.33
640.14	1017.88
640.49	1011.41
640.83	1005.19
641.17	998.98
641.52	992.71
641.86	986.21
642.20	980.42
642.55	974.10
642.89	967.58
643.23	960.91
643.58	955.12
643.92	948.99
644.26	942.97
644.61	936.92
644.95	930.94
645.29	924.42
645.64	917.68
645.98	911.38
646.32	905.50
646.66	899.40
647.01	893.74
647.35	887.96
647.69	882.02
648.04	876.47
648.38	870.76
648.72	864.80
649.06	858.71
649.41	852.78
649.75	846.79
650.09	840.94
650.43	835.19
650.78	829.07
651.12	823.13
651.46	817.42
651.80	811.75
652.14	806.38
652.49	801.10
652.83	795.94
653.17	790.35
653.51	784.67
653.85	779.29
654.20	773.68
654.54	767.70
654.88	762.02
655.22	756.15
655.56	750.46
655.90	744.95
656.25	739.75
656.59	734.41
656.93	729.34
657.27	724.13
657.61	718.68
657.95	713.53
658.29	708.37
658.64	703.15
658.98	697.86
659.32	692.33
659.66	687.06
660.00	681.74
660.34	676.73
660.68	671.72
661.02	666.79
661.36	662.00
661.70	657.56
662.05	653.19
662.39	648.94
662.73	644.41
663.07	640.06
663.41	635.60
663.75	631.15
664.09	626.58
664.43	622.17
664.77	618.15
665.11	613.86
665.45	609.78
665.79	605.65
666.13	601.49
666.47	597.41
666.81	593.22
667.15	589.08
667.49	585.13
667.83	581.32
668.17	577.31
668.51	573.17
668.85	569.09
669.19	565.21
669.53	561.32
669.87	557.53
670.21	553.81
670.55	550.18
670.89	546.73
671.23	543.28
671.57	539.76
671.91	536.17
672.25	532.66
672.58	529.11
672.92	525.68
673.26	522.50
673.60	519.33
673.94	516.27
674.28	513.37
674.62	510.46
674.96	507.40
675.30	504.51
675.64	501.66
675.97	498.90
676.31	496.07
676.65	493.14
676.99	490.40
677.33	487.56
677.67	484.79
678.01	481.78
678.34	478.87
678.68	476.04
679.02	473.20
679.36	470.47
679.70	467.76
680.04	465.04
680.37	462.17
680.71	459.37
681.05	456.73
681.39	454.02
681.73	451.35
682.06	448.79
682.40	446.15
682.74	443.63
683.08	441.02
683.42	438.42
683.75	435.93
684.09	433.34
684.43	430.83
684.77	428.31
685.10	425.90
685.44	423.58
685.78	421.30
686.12	419.04
686.45	416.79
686.79	414.53
687.13	412.32
687.46	410.16
687.80	408.02
688.14	405.78
688.48	403.68
688.81	401.44
689.15	399.33
689.49	397.25
689.82	395.15
690.16	393.08
690.50	391.14
690.83	389.27
691.17	387.31
691.51	385.40
691.84	383.52
692.18	381.62
692.52	379.66
692.85	377.72
693.19	375.83
693.52	373.95
693.86	372.10
694.20	370.33
694.53	368.59
694.87	366.74
695.21	364.96
695.54	363.12
695.88	361.38
696.21	359.58
696.55	357.86
696.88	356.17
697.22	354.55
697.56	352.90
697.89	351.18
698.23	349.58
698.56	348.02
698.90	346.45
699.23	344.83
699.57	343.27
699.90	341.70
700.24	340.22
700.58	338.72
700.91	337.24
701.25	335.77
701.58	334.36
701.92	333.00
702.25	331.67
702.59	330.35
702.92	329.09
703.26	327.84
703.59	326.61
703.93	325.46
704.26	324.26
704.60	322.99
704.93	321.71
705.26	320.43
705.60	319.23
705.93	318.13
706.27	317.07
706.60	316.01
706.94	314.95
707.27	313.83
707.61	312.75
707.94	311.73
708.27	310.67
708.61	309.60
708.94	308.59
709.28	307.58
709.61	306.61
709.94	305.62
710.28	304.58
710.61	303.57
710.95	302.46
711.28	301.55
711.61	300.60
711.95	299.73
712.28	298.79
712.61	297.84
712.95	296.86
713.28	296.01
713.61	295.11
713.95	294.21
714.28	293.32
714.61	292.45
714.95	291.57
715.28	290.71
715.61	289.82
715.95	288.98
716.28	288.13
716.61	287.28
716.95	286.43
717.28	285.70
717.61	284.95
717.94	284.24
718.28	283.39
718.61	282.67
718.94	281.94
719.27	281.31
719.61	280.67
719.94	280.00
720.27	279.21
720.60	278.53
720.94	277.90
721.27	277.33
721.60	276.77
721.93	276.19
722.27	275.67
722.60	275.13
722.93	274.52
723.26	273.96
723.59	273.41
723.93	272.86
724.26	272.30
724.59	271.74
724.92	271.19
725.25	270.70
725.59	270.11
725.92	269.59
726.25	269.02
726.58	268.47
726.91	267.96
727.24	267.54
727.57	267.08
727.91	266.59
728.24	266.10
728.57	265.63
728.90	265.15
729.23	264.64
729.56	264.22
729.89	263.75
730.22	263.29
730.55	262.83
730.89	262.39
731.22	261.94
731.55	261.52
731.88	261.11
732.21	260.66
732.54	260.28
732.87	259.86
733.20	259.51
733.53	259.16
733.86	258.80
734.19	258.40
734.52	258.02
734.85	257.74
735.18	257.32
735.51	256.96
735.84	256.59
736.17	256.24
736.50	255.84
736.83	255.64
737.16	255.27
737.49	254.95
737.82	254.61
738.15	254.29
738.48	253.97
738.81	253.64
739.14	253.34
739.47	253.04
739.80	252.75
740.13	252.45
740.46	252.12
740.79	251.81
741.12	251.52
741.45	251.21
741.78	250.83
742.11	250.56
742.44	250.22
742.77	249.95
743.10	249.69
743.43	249.40
743.75	249.00
744.08	248.87
744.41	248.59
744.74	248.32
745.07	248.04
745.40	247.77
745.73	247.57
746.06	247.28
746.39	246.99
746.71	246.74
747.04	246.44
747.37	246.16
747.70	245.91
748.03	245.66
748.36	245.41
748.68	245.16
749.01	244.91
749.34	244.66
749.67	244.41
750.00	244.20
750.33	244.04
750.65	243.84
750.98	243.49
751.31	243.28
751.64	243.08
751.97	242.93
752.29	242.72
752.62	242.42
752.95	242.22
753.28	242.01
753.60	241.80
753.93	241.65
754.26	241.47
754.59	241.26
754.91	241.02
755.24	240.85
755.57	240.70
755.90	240.54
756.22	240.34
756.55	240.15
756.88	239.93
757.20	239.67
757.53	239.46
757.86	239.30
758.19	239.12
758.51	238.93
758.84	238.71
759.17	238.53
759.49	238.39
759.82	238.27
760.15	238.10
760.47	237.93
760.80	237.74
761.13	237.60
761.45	237.42
761.78	237.29
762.11	237.13
762.43	236.96
762.76	236.81
763.08	236.70
763.41	236.56
763.74	236.40
764.06	236.25
764.39	236.10
764.71	235.96
765.04	235.78
765.37	235.66
765.69	235.49
766.02	235.40
766.34	235.25
766.67	235.08
767.00	235.00
767.32	234.93
767.65	234.87
767.97	234.72
768.30	234.57
768.62	234.44
768.95	234.32
769.27	234.21
769.60	234.08
769.92	233.93
770.25	233.80
770.57	233.70
770.90	233.63
771.22	233.52
771.55	233.46
771.87	233.41
772.20	233.35
772.52	233.35
772.85	233.34
773.17	233.25
773.50	233.16
773.82	233.03
774.15	232.89
774.47	232.78
774.80	232.69
775.12	232.62
775.45	232.56
775.77	232.49
776.09	232.39
776.42	232.30
776.74	232.28
777.07	232.18
777.39	232.14
777.72	232.06
778.04	232.01
778.36	231.91
778.69	231.84
779.01	231.77
779.33	231.62
779.66	231.46
779.98	231.37
780.31	231.32
780.63	231.32
780.95	231.30
781.28	231.18
781.60	231.13
781.92	231.11
782.25	231.03
782.57	230.95
782.89	230.91
783.22	230.85
783.54	230.79
783.86	230.77
784.19	230.70
784.51	230.65
784.83	230.57
785.16	230.52
785.48	230.46
785.80	230.39
786.12	230.36
786.45	230.31
786.77	230.27
787.09	230.20
