SpectraSuite Data File
++++++++++++++++++++++++++++++++++++
Date: Fri Feb 01 16:12:42 EST 2013
User: group
Dark Spectrum Present: No
Reference Spectrum Present: No
Number of Sampled Component Spectra: 1
Spectrometers: USB2E7196
Integration Time (usec): 35000 (USB2E7196)
Spectra Averaged: 100 (USB2E7196)
Boxcar Smoothing: 10 (USB2E7196)
Correct for Electrical Dark: No (USB2E7196)
Strobe/Lamp Enabled: No (USB2E7196)
Correct for Detector Non-linearity: No (USB2E7196)
Correct for Stray Light: No (USB2E7196)
Number of Pixels in Processed Spectrum: 2048
>>>>>Begin Processed Spectral Data<<<<<
339.09	0.00
339.48	214.54
339.86	215.52
340.24	216.93
340.63	218.36
341.01	221.51
341.39	221.07
341.78	222.83
342.16	223.49
342.54	224.72
342.93	212.59
343.31	223.32
343.69	223.82
344.07	224.28
344.46	224.73
344.84	225.13
345.22	225.33
345.60	225.57
345.99	225.73
346.37	225.89
346.75	225.95
347.13	226.02
347.52	226.10
347.90	226.18
348.28	226.20
348.66	226.27
349.05	226.26
349.43	226.33
349.81	226.35
350.19	226.38
350.57	226.45
350.96	226.50
351.34	226.60
351.72	226.71
352.10	226.84
352.48	226.90
352.87	226.94
353.25	227.02
353.63	227.10
354.01	227.19
354.39	227.24
354.77	227.31
355.15	227.40
355.54	227.44
355.92	227.50
356.30	227.60
356.68	227.72
357.06	227.79
357.44	227.84
357.82	227.92
358.20	228.02
358.58	228.08
358.97	228.14
359.35	228.23
359.73	228.28
360.11	228.34
360.49	228.42
360.87	228.50
361.25	228.56
361.63	228.64
362.01	228.69
362.39	228.73
362.77	228.79
363.15	228.82
363.53	228.84
363.91	228.85
364.29	228.86
364.67	228.79
365.05	228.82
365.43	228.84
365.81	228.88
366.19	228.92
366.57	228.97
366.95	228.98
367.33	228.94
367.71	228.93
368.09	228.91
368.47	228.87
368.85	228.84
369.23	228.86
369.61	228.81
369.99	228.82
370.37	228.81
370.75	228.84
371.13	228.82
371.51	228.75
371.89	228.74
372.27	228.71
372.65	228.67
373.03	228.64
373.41	228.61
373.78	228.54
374.16	228.42
374.54	228.34
374.92	228.24
375.30	228.20
375.68	228.17
376.06	228.10
376.44	228.03
376.82	227.97
377.19	227.89
377.57	227.82
377.95	227.72
378.33	227.64
378.71	227.49
379.09	227.41
379.47	227.42
379.84	227.30
380.22	227.27
380.60	227.18
380.98	227.12
381.36	227.03
381.73	226.93
382.11	226.87
382.49	226.81
382.87	226.75
383.25	226.68
383.62	226.71
384.00	226.65
384.38	226.60
384.76	226.57
385.13	226.55
385.51	226.49
385.89	226.43
386.27	226.39
386.64	226.37
387.02	226.30
387.40	226.21
387.78	226.20
388.15	226.16
388.53	226.12
388.91	226.07
389.29	226.05
389.66	226.05
390.04	226.05
390.42	226.04
390.79	226.01
391.17	225.99
391.55	225.85
391.92	225.86
392.30	225.87
392.68	225.82
393.05	225.80
393.43	225.81
393.81	225.81
394.18	225.83
394.56	225.84
394.94	225.91
395.31	225.93
395.69	226.01
396.06	226.01
396.44	226.08
396.82	226.12
397.19	226.19
397.57	226.21
397.95	226.28
398.32	226.28
398.70	226.38
399.07	226.47
399.45	226.55
399.82	226.60
400.20	226.67
400.58	226.75
400.95	226.79
401.33	226.92
401.70	227.05
402.08	227.12
402.45	227.25
402.83	227.36
403.20	227.49
403.58	227.54
403.95	227.68
404.33	227.79
404.71	227.91
405.08	228.11
405.46	228.28
405.83	228.44
406.21	228.61
406.58	228.77
406.96	228.88
407.33	229.05
407.70	229.26
408.08	229.52
408.45	229.74
408.83	230.02
409.20	230.21
409.58	230.42
409.95	230.68
410.33	230.93
410.70	231.17
411.08	231.48
411.45	231.79
411.82	232.10
412.20	232.47
412.57	232.89
412.95	233.15
413.32	233.56
413.69	233.92
414.07	234.33
414.44	234.78
414.82	235.31
415.19	235.85
415.56	236.37
415.94	236.90
416.31	237.55
416.68	238.13
417.06	238.84
417.43	239.51
417.81	240.28
418.18	241.03
418.55	241.86
418.93	242.72
419.30	243.60
419.67	244.52
420.04	245.44
420.42	246.43
420.79	247.61
421.16	248.75
421.54	249.95
421.91	251.16
422.28	252.42
422.66	253.74
423.03	255.05
423.40	256.36
423.77	257.74
424.15	259.16
424.52	260.65
424.89	262.23
425.26	263.78
425.64	265.22
426.01	266.83
426.38	268.50
426.75	270.17
427.13	271.90
427.50	273.72
427.87	275.60
428.24	277.43
428.61	279.15
428.99	281.09
429.36	283.16
429.73	285.25
430.10	287.28
430.47	289.31
430.85	291.42
431.22	293.70
431.59	296.08
431.96	298.30
432.33	300.75
432.70	303.14
433.08	305.94
433.45	308.57
433.82	311.16
434.19	314.00
434.56	316.80
434.93	319.45
435.30	322.10
435.68	324.96
436.05	327.82
436.42	330.61
436.79	333.09
437.16	335.80
437.53	338.64
437.90	341.39
438.27	344.15
438.64	346.93
439.01	349.51
439.38	351.72
439.75	353.89
440.13	356.35
440.50	358.68
440.87	360.54
441.24	362.45
441.61	364.59
441.98	366.09
442.35	367.90
442.72	369.74
443.09	371.49
443.46	372.49
443.83	373.07
444.20	373.62
444.57	374.45
444.94	374.77
445.31	375.01
445.68	375.41
446.05	375.46
446.42	375.13
446.79	374.65
447.16	374.19
447.53	373.85
447.90	372.71
448.27	371.53
448.64	369.90
449.01	368.75
449.37	366.79
449.74	364.88
450.11	362.59
450.48	360.14
450.85	357.64
451.22	355.51
451.59	353.46
451.96	351.49
452.33	348.88
452.70	346.52
453.07	343.75
453.43	340.82
453.80	338.07
454.17	335.38
454.54	332.88
454.91	330.25
455.28	327.59
455.65	325.13
456.02	322.68
456.38	320.56
456.75	317.96
457.12	315.71
457.49	313.51
457.86	311.37
458.23	309.48
458.59	307.42
458.96	305.37
459.33	303.53
459.70	301.67
460.07	300.25
460.43	298.52
460.80	296.92
461.17	295.54
461.54	294.03
461.91	292.63
462.27	291.18
462.64	289.92
463.01	288.60
463.38	287.32
463.74	286.02
464.11	284.89
464.48	283.87
464.85	282.77
465.21	281.92
465.58	280.98
465.95	279.92
466.32	279.02
466.68	278.14
467.05	277.27
467.42	276.40
467.78	275.42
468.15	274.57
468.52	273.93
468.88	273.00
469.25	272.24
469.62	271.64
469.98	270.98
470.35	270.32
470.72	269.72
471.08	269.03
471.45	268.45
471.82	267.92
472.18	267.32
472.55	266.88
472.92	266.37
473.28	265.94
473.65	265.47
474.02	265.04
474.38	264.64
474.75	264.31
475.11	263.96
475.48	263.69
475.85	263.45
476.21	263.19
476.58	263.07
476.94	262.95
477.31	262.77
477.67	262.59
478.04	262.50
478.41	262.44
478.77	262.54
479.14	262.47
479.50	262.51
479.87	262.59
480.23	262.67
480.60	262.70
480.96	262.81
481.33	263.04
481.69	263.23
482.06	263.46
482.42	263.66
482.79	263.94
483.15	264.29
483.52	264.67
483.88	264.99
484.25	265.35
484.61	265.78
484.98	266.23
485.34	266.84
485.71	267.43
486.07	268.03
486.44	268.58
486.80	269.31
487.17	270.01
487.53	270.86
487.90	271.72
488.26	272.70
488.62	273.67
488.99	274.63
489.35	275.71
489.72	276.82
490.08	278.05
490.44	279.31
490.81	280.65
491.17	282.00
491.54	283.52
491.90	285.06
492.26	286.68
492.63	288.40
492.99	290.15
493.36	292.02
493.72	294.06
494.08	296.18
494.45	298.43
494.81	300.79
495.17	303.22
495.54	305.83
495.90	308.49
496.26	311.33
496.63	314.29
496.99	317.35
497.35	320.61
497.72	323.99
498.08	327.47
498.44	331.16
498.80	335.11
499.17	339.23
499.53	343.41
499.89	347.82
500.26	352.34
500.62	357.07
500.98	362.09
501.34	367.16
501.71	372.46
502.07	377.96
502.43	383.55
502.79	389.35
503.16	395.39
503.52	401.69
503.88	408.08
504.24	414.74
504.60	421.62
504.97	428.73
505.33	436.05
505.69	443.79
506.05	451.59
506.41	459.47
506.78	467.58
507.14	476.07
507.50	484.84
507.86	493.89
508.22	503.08
508.59	512.31
508.95	521.98
509.31	531.85
509.67	541.94
510.03	552.25
510.39	562.85
510.75	573.64
511.12	584.55
511.48	595.88
511.84	607.34
512.20	618.86
512.56	630.82
512.92	642.99
513.28	655.31
513.64	667.72
514.00	680.42
514.37	693.38
514.73	706.46
515.09	719.46
515.45	732.73
515.81	746.27
516.17	760.13
516.53	774.27
516.89	788.36
517.25	802.50
517.61	816.94
517.97	831.35
518.33	845.70
518.69	860.48
519.05	875.40
519.41	890.55
519.77	906.12
520.13	921.50
520.49	936.87
520.85	952.23
521.21	967.92
521.57	984.15
521.93	999.76
522.29	1015.98
522.65	1032.21
523.01	1048.31
523.37	1064.36
523.73	1080.54
524.09	1096.53
524.45	1112.82
524.81	1129.31
525.17	1146.06
525.53	1162.85
525.89	1179.80
526.25	1196.55
526.61	1213.00
526.97	1229.67
527.33	1246.14
527.68	1262.68
528.04	1279.07
528.40	1295.65
528.76	1312.69
529.12	1329.17
529.48	1346.08
529.84	1362.05
530.20	1378.46
530.56	1395.39
530.91	1412.71
531.27	1429.36
531.63	1445.81
531.99	1462.32
532.35	1478.38
532.71	1494.26
533.07	1510.54
533.42	1526.34
533.78	1542.29
534.14	1558.47
534.50	1573.79
534.86	1589.52
535.21	1604.71
535.57	1620.58
535.93	1635.97
536.29	1650.65
536.65	1665.71
537.00	1680.36
537.36	1695.68
537.72	1710.19
538.08	1724.58
538.44	1738.27
538.79	1752.13
539.15	1765.67
539.51	1779.37
539.87	1793.60
540.22	1807.19
540.58	1820.84
540.94	1834.02
541.29	1846.78
541.65	1859.44
542.01	1872.56
542.37	1884.93
542.72	1897.21
543.08	1909.06
543.44	1921.42
543.79	1932.62
544.15	1943.54
544.51	1954.98
544.87	1965.84
545.22	1976.54
545.58	1986.80
545.94	1996.65
546.29	2006.49
546.65	2016.31
547.01	2025.59
547.36	2034.25
547.72	2042.75
548.07	2050.47
548.43	2058.66
548.79	2066.64
549.14	2074.08
549.50	2081.37
549.86	2088.88
550.21	2096.20
550.57	2103.36
550.92	2109.83
551.28	2116.88
551.64	2123.96
551.99	2130.58
552.35	2136.77
552.70	2143.02
553.06	2148.98
553.41	2155.17
553.77	2161.16
554.13	2167.09
554.48	2173.11
554.84	2178.61
555.19	2183.76
555.55	2188.98
555.90	2193.63
556.26	2198.62
556.61	2203.28
556.97	2207.67
557.32	2211.94
557.68	2216.09
558.03	2220.30
558.39	2223.89
558.74	2228.43
559.10	2232.25
559.45	2235.89
559.81	2240.07
560.16	2243.91
560.52	2247.20
560.87	2250.61
561.23	2253.28
561.58	2256.22
561.94	2258.78
562.29	2261.04
562.64	2263.94
563.00	2266.54
563.35	2269.88
563.71	2273.03
564.06	2276.14
564.42	2279.12
564.77	2281.61
565.12	2283.92
565.48	2285.88
565.83	2288.02
566.19	2289.52
566.54	2290.36
566.89	2291.56
567.25	2292.25
567.60	2293.62
567.96	2295.29
568.31	2296.15
568.66	2297.29
569.02	2297.96
569.37	2298.36
569.72	2299.46
570.08	2299.55
570.43	2299.72
570.78	2299.14
571.14	2297.51
571.49	2296.42
571.84	2295.90
572.20	2294.80
572.55	2293.87
572.90	2292.19
573.26	2290.71
573.61	2288.95
573.96	2287.40
574.31	2284.31
574.67	2281.45
575.02	2277.82
575.37	2274.42
575.72	2270.79
576.08	2267.36
576.43	2263.96
576.78	2260.27
577.13	2256.87
577.49	2253.68
577.84	2250.17
578.19	2246.55
578.54	2243.16
578.90	2239.05
579.25	2233.51
579.60	2228.63
579.95	2223.60
580.30	2218.62
580.66	2213.52
581.01	2208.60
581.36	2203.53
581.71	2199.52
582.06	2195.08
582.42	2190.72
582.77	2185.55
583.12	2180.88
583.47	2176.41
583.82	2171.57
584.17	2166.44
584.53	2161.04
584.88	2155.48
585.23	2149.82
585.58	2144.23
585.93	2138.74
586.28	2133.77
586.63	2128.83
586.98	2123.68
587.34	2119.02
587.69	2114.11
588.04	2108.92
588.39	2103.23
588.74	2096.98
589.09	2090.92
589.44	2084.16
589.79	2077.92
590.14	2072.27
590.49	2065.70
590.84	2059.09
591.19	2053.10
591.54	2046.69
591.89	2039.49
592.25	2032.78
592.60	2025.63
592.95	2018.26
593.30	2011.00
593.65	2003.37
594.00	1996.31
594.35	1989.14
594.70	1980.98
595.05	1973.99
595.40	1966.79
595.75	1959.27
596.10	1952.99
596.45	1946.30
596.80	1940.12
597.15	1933.70
597.50	1926.86
597.85	1920.47
598.19	1914.00
598.54	1906.98
598.89	1900.27
599.24	1894.23
599.59	1887.67
599.94	1881.23
600.29	1874.74
600.64	1868.05
600.99	1860.74
601.34	1853.94
601.69	1846.88
602.04	1840.12
602.39	1832.70
602.74	1825.95
603.08	1819.27
603.43	1812.61
603.78	1805.16
604.13	1797.95
604.48	1790.69
604.83	1783.69
605.18	1776.95
605.53	1768.99
605.87	1761.02
606.22	1753.71
606.57	1745.78
606.92	1738.32
607.27	1731.31
607.62	1724.53
607.96	1717.34
608.31	1710.74
608.66	1703.21
609.01	1695.81
609.36	1688.28
609.70	1680.41
610.05	1672.27
610.40	1664.57
610.75	1656.25
611.10	1648.78
611.44	1640.37
611.79	1632.32
612.14	1623.75
612.49	1614.40
612.83	1605.87
613.18	1597.71
613.53	1589.69
613.88	1581.23
614.22	1573.00
614.57	1564.44
614.92	1556.38
615.27	1548.85
615.61	1540.62
615.96	1532.53
616.31	1524.71
616.65	1517.39
617.00	1509.80
617.35	1502.04
617.70	1493.92
618.04	1485.39
618.39	1477.11
618.74	1469.58
619.08	1461.23
619.43	1453.63
619.78	1446.74
620.12	1439.72
620.47	1432.22
620.82	1423.99
621.16	1416.51
621.51	1408.82
621.85	1401.13
622.20	1392.59
622.55	1384.20
622.89	1376.33
623.24	1368.63
623.59	1361.26
623.93	1353.67
624.28	1346.30
624.62	1338.88
624.97	1331.62
625.32	1324.67
625.66	1317.66
626.01	1310.41
626.35	1303.10
626.70	1295.28
627.04	1287.61
627.39	1279.83
627.73	1272.34
628.08	1265.57
628.43	1258.41
628.77	1251.09
629.12	1243.57
629.46	1236.44
629.81	1228.91
630.15	1221.54
630.50	1214.28
630.84	1206.20
631.19	1198.20
631.53	1190.69
631.88	1183.11
632.22	1175.47
632.57	1168.23
632.91	1160.63
633.26	1153.34
633.60	1145.87
633.95	1138.68
634.29	1131.55
634.64	1124.79
634.98	1117.49
635.32	1110.32
635.67	1103.59
636.01	1096.93
636.36	1090.09
636.70	1083.55
637.05	1077.04
637.39	1070.64
637.73	1064.06
638.08	1058.21
638.42	1052.22
638.77	1045.82
639.11	1039.34
639.45	1032.87
639.80	1026.21
640.14	1019.87
640.49	1013.33
640.83	1007.02
641.17	1000.89
641.52	994.62
641.86	988.13
642.20	982.25
642.55	975.82
642.89	969.43
643.23	962.74
643.58	956.96
643.92	950.74
644.26	944.82
644.61	938.70
644.95	932.75
645.29	926.14
645.64	919.43
645.98	913.06
646.32	907.13
646.66	901.10
647.01	895.26
647.35	889.51
647.69	883.54
648.04	878.00
648.38	872.20
648.72	866.22
649.06	860.13
649.41	854.24
649.75	848.31
650.09	842.29
650.43	836.64
650.78	830.42
651.12	824.48
651.46	818.65
651.80	813.05
652.14	807.54
652.49	802.16
652.83	797.00
653.17	791.31
653.51	785.61
653.85	780.19
654.20	774.67
654.54	768.67
654.88	762.89
655.22	756.96
655.56	751.11
655.90	745.58
656.25	740.43
656.59	735.01
656.93	729.91
657.27	724.76
657.61	719.24
657.95	714.22
658.29	709.17
658.64	703.88
658.98	698.46
659.32	692.96
659.66	687.74
660.00	682.42
660.34	677.47
660.68	672.46
661.02	667.49
661.36	662.71
661.70	658.25
662.05	653.91
662.39	649.65
662.73	645.26
663.07	640.89
663.41	636.43
663.75	631.97
664.09	627.43
664.43	623.02
664.77	619.03
665.11	614.78
665.45	610.61
665.79	606.57
666.13	602.46
666.47	598.41
666.81	594.27
667.15	590.12
667.49	586.20
667.83	582.38
668.17	578.38
668.51	574.33
668.85	570.23
669.19	566.40
669.53	562.56
669.87	558.75
670.21	555.05
670.55	551.43
670.89	548.02
671.23	544.64
671.57	541.15
671.91	537.56
672.25	534.02
672.58	530.46
672.92	527.04
673.26	523.90
673.60	520.73
673.94	517.57
674.28	514.71
674.62	511.85
674.96	508.78
675.30	505.91
675.64	503.03
675.97	500.28
676.31	497.43
676.65	494.51
676.99	491.81
677.33	488.93
677.67	486.07
678.01	483.04
678.34	480.08
678.68	477.16
679.02	474.36
679.36	471.61
679.70	468.84
680.04	466.08
680.37	463.20
680.71	460.42
681.05	457.82
681.39	455.15
681.73	452.42
682.06	449.92
682.40	447.41
682.74	444.81
683.08	442.21
683.42	439.59
683.75	437.09
684.09	434.47
684.43	432.04
684.77	429.62
685.10	427.26
685.44	424.90
685.78	422.66
686.12	420.40
686.45	418.09
686.79	415.90
687.13	413.67
687.46	411.51
687.80	409.33
688.14	407.07
688.48	405.03
688.81	402.86
689.15	400.74
689.49	398.53
689.82	396.45
690.16	394.34
690.50	392.42
690.83	390.48
691.17	388.50
691.51	386.57
691.84	384.71
692.18	382.81
692.52	380.82
692.85	378.85
693.19	376.94
693.52	375.09
693.86	373.23
694.20	371.48
694.53	369.70
694.87	367.88
695.21	366.12
695.54	364.21
695.88	362.42
696.21	360.68
696.55	358.99
696.88	357.32
697.22	355.66
697.56	353.97
697.89	352.30
698.23	350.71
698.56	349.09
698.90	347.48
699.23	345.87
699.57	344.36
699.90	342.81
700.24	341.30
700.58	339.85
700.91	338.42
701.25	336.97
701.58	335.57
701.92	334.19
702.25	332.79
702.59	331.44
702.92	330.15
703.26	328.81
703.59	327.57
703.93	326.37
704.26	325.18
704.60	323.94
704.93	322.66
705.26	321.42
705.60	320.27
705.93	319.10
706.27	318.03
706.60	316.91
706.94	315.86
707.27	314.70
707.61	313.61
707.94	312.52
708.27	311.39
708.61	310.33
708.94	309.35
709.28	308.40
709.61	307.46
709.94	306.53
710.28	305.51
710.61	304.50
710.95	303.43
711.28	302.50
711.61	301.50
711.95	300.61
712.28	299.69
712.61	298.73
712.95	297.82
713.28	296.95
713.61	296.09
713.95	295.19
714.28	294.39
714.61	293.54
714.95	292.70
715.28	291.88
715.61	291.01
715.95	290.15
716.28	289.28
716.61	288.43
716.95	287.59
717.28	286.86
717.61	286.12
717.94	285.39
718.28	284.57
718.61	283.90
718.94	283.20
719.27	282.56
719.61	281.88
719.94	281.22
720.27	280.53
720.60	279.89
720.94	279.28
721.27	278.67
721.60	278.10
721.93	277.50
722.27	276.97
722.60	276.42
722.93	275.86
723.26	275.33
723.59	274.79
723.93	274.23
724.26	273.69
724.59	273.10
724.92	272.58
725.25	272.09
725.59	271.55
725.92	271.01
726.25	270.46
726.58	269.97
726.91	269.46
727.24	268.97
727.57	268.43
727.91	267.92
728.24	267.43
728.57	266.91
728.90	266.42
729.23	265.89
729.56	265.46
729.89	264.95
730.22	264.44
730.55	263.98
730.89	263.53
731.22	263.06
731.55	262.62
731.88	262.19
732.21	261.75
732.54	261.27
732.87	260.86
733.20	260.43
733.53	260.05
733.86	259.68
734.19	259.27
734.52	258.93
734.85	258.61
735.18	258.21
735.51	257.84
735.84	257.50
736.17	257.18
736.50	256.75
736.83	256.54
737.16	256.20
737.49	255.84
737.82	255.47
738.15	255.12
738.48	254.78
738.81	254.45
739.14	254.13
739.47	253.84
739.80	253.52
740.13	253.24
740.46	252.88
740.79	252.54
741.12	252.25
741.45	251.91
741.78	251.54
742.11	251.25
742.44	250.93
742.77	250.67
743.10	250.35
743.43	250.02
743.75	249.66
744.08	249.53
744.41	249.27
744.74	249.05
745.07	248.79
745.40	248.58
745.73	248.36
746.06	248.12
746.39	247.91
746.71	247.65
747.04	247.36
747.37	247.10
747.70	246.83
748.03	246.57
748.36	246.37
748.68	246.16
749.01	245.93
749.34	245.72
749.67	245.49
750.00	245.28
750.33	245.18
750.65	244.96
750.98	244.62
751.31	244.41
751.64	244.20
751.97	244.02
752.29	243.79
752.62	243.52
752.95	243.28
753.28	243.06
753.60	242.87
753.93	242.72
754.26	242.54
754.59	242.35
754.91	242.18
755.24	241.98
755.57	241.75
755.90	241.55
756.22	241.36
756.55	241.13
756.88	240.94
757.20	240.69
757.53	240.51
757.86	240.35
758.19	240.22
758.51	240.01
758.84	239.82
759.17	239.63
759.49	239.52
759.82	239.41
760.15	239.26
760.47	239.12
760.80	238.95
761.13	238.83
761.45	238.69
761.78	238.48
762.11	238.33
762.43	238.18
762.76	238.04
763.08	237.94
763.41	237.84
763.74	237.71
764.06	237.60
764.39	237.45
764.71	237.27
765.04	237.09
765.37	237.01
765.69	236.85
766.02	236.74
766.34	236.60
766.67	236.42
767.00	236.32
767.32	236.24
767.65	236.17
767.97	236.04
768.30	235.93
768.62	235.85
768.95	235.72
769.27	235.61
769.60	235.51
769.92	235.35
770.25	235.20
770.57	235.06
770.90	234.92
771.22	234.80
771.55	234.72
771.87	234.60
772.20	234.46
772.52	234.49
772.85	234.48
773.17	234.36
773.50	234.27
773.82	234.15
774.15	234.00
774.47	233.86
774.80	233.76
775.12	233.65
775.45	233.56
775.77	233.45
776.09	233.40
776.42	233.28
776.74	233.24
777.07	233.15
777.39	233.08
777.72	232.95
778.04	232.87
778.36	232.77
778.69	232.71
779.01	232.63
779.33	232.44
779.66	232.27
779.98	232.17
780.31	232.11
780.63	232.06
780.95	232.01
781.28	231.91
781.60	231.85
781.92	231.79
782.25	231.71
782.57	231.64
782.89	231.57
783.22	231.54
783.54	231.44
783.86	231.40
784.19	231.35
784.51	231.35
784.83	231.29
785.16	231.25
785.48	231.23
785.80	231.19
786.12	231.12
786.45	231.06
786.77	231.07
787.09	231.02
