SpectraSuite Data File
++++++++++++++++++++++++++++++++++++
Date: Fri Feb 01 15:18:30 EST 2013
User: group
Dark Spectrum Present: No
Reference Spectrum Present: No
Number of Sampled Component Spectra: 1
Spectrometers: USB2E7196
Integration Time (usec): 35000 (USB2E7196)
Spectra Averaged: 100 (USB2E7196)
Boxcar Smoothing: 10 (USB2E7196)
Correct for Electrical Dark: No (USB2E7196)
Strobe/Lamp Enabled: No (USB2E7196)
Correct for Detector Non-linearity: No (USB2E7196)
Correct for Stray Light: No (USB2E7196)
Number of Pixels in Processed Spectrum: 2048
>>>>>Begin Processed Spectral Data<<<<<
339.09	0.00
339.48	215.20
339.86	217.00
340.24	217.58
340.63	219.37
341.01	222.07
341.39	221.73
341.78	223.62
342.16	224.75
342.54	224.92
342.93	213.36
343.31	224.12
343.69	224.66
344.07	225.08
344.46	225.52
344.84	225.90
345.22	226.12
345.60	226.35
345.99	226.53
346.37	226.61
346.75	226.71
347.13	226.81
347.52	226.84
347.90	226.93
348.28	226.97
348.66	227.02
349.05	227.03
349.43	227.09
349.81	227.11
350.19	227.16
350.57	227.18
350.96	227.28
351.34	227.41
351.72	227.48
352.10	227.58
352.48	227.66
352.87	227.69
353.25	227.76
353.63	227.86
354.01	227.90
354.39	228.03
354.77	228.08
355.15	228.17
355.54	228.25
355.92	228.28
356.30	228.35
356.68	228.42
357.06	228.50
357.44	228.53
357.82	228.61
358.20	228.69
358.58	228.75
358.97	228.81
359.35	228.86
359.73	228.94
360.11	228.99
360.49	229.03
360.87	229.07
361.25	229.13
361.63	229.19
362.01	229.25
362.39	229.25
362.77	229.33
363.15	229.36
363.53	229.38
363.91	229.40
364.29	229.42
364.67	229.37
365.05	229.37
365.43	229.40
365.81	229.43
366.19	229.48
366.57	229.49
366.95	229.46
367.33	229.43
367.71	229.41
368.09	229.43
368.47	229.40
368.85	229.38
369.23	229.38
369.61	229.32
369.99	229.33
370.37	229.31
370.75	229.32
371.13	229.23
371.51	229.16
371.89	229.13
372.27	229.08
372.65	229.04
373.03	229.01
373.41	228.94
373.78	228.83
374.16	228.71
374.54	228.67
374.92	228.61
375.30	228.54
375.68	228.44
376.06	228.37
376.44	228.31
376.82	228.25
377.19	228.18
377.57	228.10
377.95	228.00
378.33	227.92
378.71	227.77
379.09	227.71
379.47	227.67
379.84	227.59
380.22	227.51
380.60	227.37
380.98	227.29
381.36	227.20
381.73	227.13
382.11	227.09
382.49	226.97
382.87	226.90
383.25	226.85
383.62	226.88
384.00	226.80
384.38	226.76
384.76	226.74
385.13	226.69
385.51	226.64
385.89	226.59
386.27	226.54
386.64	226.53
387.02	226.48
387.40	226.41
387.78	226.39
388.15	226.36
388.53	226.35
388.91	226.29
389.29	226.28
389.66	226.28
390.04	226.23
390.42	226.27
390.79	226.27
391.17	226.29
391.55	226.18
391.92	226.18
392.30	226.16
392.68	226.12
393.05	226.11
393.43	226.14
393.81	226.13
394.18	226.13
394.56	226.18
394.94	226.22
395.31	226.28
395.69	226.32
396.06	226.35
396.44	226.39
396.82	226.45
397.19	226.55
397.57	226.60
397.95	226.68
398.32	226.71
398.70	226.77
399.07	226.81
399.45	226.89
399.82	226.99
400.20	227.06
400.58	227.15
400.95	227.20
401.33	227.32
401.70	227.51
402.08	227.59
402.45	227.70
402.83	227.82
403.20	227.90
403.58	227.99
403.95	228.16
404.33	228.32
404.71	228.43
405.08	228.59
405.46	228.72
405.83	228.88
406.21	229.02
406.58	229.19
406.96	229.41
407.33	229.60
407.70	229.78
408.08	230.05
408.45	230.30
408.83	230.55
409.20	230.76
409.58	230.92
409.95	231.21
410.33	231.45
410.70	231.73
411.08	232.07
411.45	232.40
411.82	232.70
412.20	233.04
412.57	233.48
412.95	233.82
413.32	234.23
413.69	234.63
414.07	235.09
414.44	235.56
414.82	236.04
415.19	236.58
415.56	237.14
415.94	237.71
416.31	238.35
416.68	238.98
417.06	239.71
417.43	240.42
417.81	241.21
418.18	242.02
418.55	242.87
418.93	243.74
419.30	244.62
419.67	245.55
420.04	246.52
420.42	247.49
420.79	248.62
421.16	249.79
421.54	251.04
421.91	252.25
422.28	253.51
422.66	254.81
423.03	256.11
423.40	257.44
423.77	258.83
424.15	260.25
424.52	261.76
424.89	263.37
425.26	264.94
425.64	266.37
426.01	267.95
426.38	269.61
426.75	271.24
427.13	272.98
427.50	274.77
427.87	276.69
428.24	278.57
428.61	280.31
428.99	282.24
429.36	284.29
429.73	286.35
430.10	288.36
430.47	290.48
430.85	292.60
431.22	294.82
431.59	297.19
431.96	299.43
432.33	301.91
432.70	304.22
433.08	306.98
433.45	309.65
433.82	312.26
434.19	315.11
434.56	317.95
434.93	320.62
435.30	323.29
435.68	326.18
436.05	329.01
436.42	331.84
436.79	334.34
437.16	337.06
437.53	339.93
437.90	342.72
438.27	345.44
438.64	348.29
439.01	350.91
439.38	353.14
439.75	355.35
440.13	357.84
440.50	360.16
440.87	362.03
441.24	363.91
441.61	366.11
441.98	367.59
442.35	369.43
442.72	371.27
443.09	373.05
443.46	374.04
443.83	374.63
444.20	375.12
444.57	375.99
444.94	376.28
445.31	376.60
445.68	376.97
446.05	377.05
446.42	376.64
446.79	376.22
447.16	375.82
447.53	375.47
447.90	374.30
448.27	373.21
448.64	371.61
449.01	370.51
449.37	368.46
449.74	366.54
450.11	364.27
450.48	361.82
450.85	359.26
451.22	357.11
451.59	355.07
451.96	353.14
452.33	350.53
452.70	348.19
453.07	345.33
453.43	342.45
453.80	339.69
454.17	337.02
454.54	334.45
454.91	331.68
455.28	328.99
455.65	326.51
456.02	324.07
456.38	321.93
456.75	319.28
457.12	317.06
457.49	314.86
457.86	312.69
458.23	310.84
458.59	308.82
458.96	306.75
459.33	304.93
459.70	303.06
460.07	301.57
460.43	299.85
460.80	298.23
461.17	296.79
461.54	295.30
461.91	293.90
462.27	292.45
462.64	291.25
463.01	289.90
463.38	288.61
463.74	287.18
464.11	286.04
464.48	285.01
464.85	283.91
465.21	283.03
465.58	282.09
465.95	281.01
466.32	280.07
466.68	279.16
467.05	278.26
467.42	277.37
467.78	276.36
468.15	275.45
468.52	274.81
468.88	273.92
469.25	273.11
469.62	272.50
469.98	271.81
470.35	271.13
470.72	270.54
471.08	269.87
471.45	269.37
471.82	268.82
472.18	268.23
472.55	267.76
472.92	267.23
473.28	266.77
473.65	266.27
474.02	265.84
474.38	265.46
474.75	265.08
475.11	264.73
475.48	264.51
475.85	264.29
476.21	264.03
476.58	263.85
476.94	263.69
477.31	263.46
477.67	263.34
478.04	263.23
478.41	263.14
478.77	263.17
479.14	263.09
479.50	263.09
479.87	263.09
480.23	263.18
480.60	263.24
480.96	263.29
481.33	263.48
481.69	263.66
482.06	263.83
482.42	264.04
482.79	264.29
483.15	264.57
483.52	264.89
483.88	265.21
484.25	265.54
484.61	265.94
484.98	266.38
485.34	266.90
485.71	267.51
486.07	268.09
486.44	268.63
486.80	269.30
487.17	270.01
487.53	270.82
487.90	271.64
488.26	272.61
488.62	273.61
488.99	274.62
489.35	275.63
489.72	276.76
490.08	277.96
490.44	279.23
490.81	280.57
491.17	281.97
491.54	283.42
491.90	284.99
492.26	286.66
492.63	288.35
492.99	290.14
493.36	292.00
493.72	294.02
494.08	296.15
494.45	298.44
494.81	300.79
495.17	303.21
495.54	305.77
495.90	308.42
496.26	311.19
496.63	314.10
496.99	317.27
497.35	320.53
497.72	323.91
498.08	327.37
498.44	331.03
498.80	334.95
499.17	339.01
499.53	343.18
499.89	347.53
500.26	352.10
500.62	356.78
500.98	361.73
501.34	366.87
501.71	372.20
502.07	377.62
502.43	383.26
502.79	389.13
503.16	395.25
503.52	401.53
503.88	407.99
504.24	414.67
504.60	421.54
504.97	428.68
505.33	436.02
505.69	443.69
506.05	451.51
506.41	459.39
506.78	467.54
507.14	476.01
507.50	484.78
507.86	493.76
508.22	502.99
508.59	512.15
508.95	521.73
509.31	531.52
509.67	541.58
510.03	551.90
510.39	562.43
510.75	573.19
511.12	584.12
511.48	595.40
511.84	606.86
512.20	618.40
512.56	630.39
512.92	642.61
513.28	654.96
513.64	667.45
514.00	680.12
514.37	693.09
514.73	706.17
515.09	719.28
515.45	732.56
515.81	746.12
516.17	760.08
516.53	774.21
516.89	788.41
517.25	802.66
517.61	817.17
517.97	831.65
518.33	846.14
518.69	860.97
519.05	875.95
519.41	891.15
519.77	906.76
520.13	922.21
520.49	937.62
520.85	953.15
521.21	968.87
521.57	985.18
521.93	1001.02
522.29	1017.47
522.65	1033.66
523.01	1049.87
523.37	1065.94
523.73	1082.26
524.09	1098.45
524.45	1114.76
524.81	1131.50
525.17	1148.39
525.53	1165.32
525.89	1182.28
526.25	1199.11
526.61	1215.59
526.97	1232.41
527.33	1248.90
527.68	1265.51
528.04	1281.96
528.40	1298.69
528.76	1315.84
529.12	1332.54
529.48	1349.38
529.84	1365.36
530.20	1382.03
530.56	1399.24
530.91	1416.79
531.27	1433.63
531.63	1450.16
531.99	1466.89
532.35	1482.87
532.71	1498.72
533.07	1515.08
533.42	1530.95
533.78	1547.09
534.14	1563.42
534.50	1578.78
534.86	1594.74
535.21	1609.98
535.57	1626.02
535.93	1641.45
536.29	1656.23
536.65	1671.48
537.00	1686.42
537.36	1701.83
537.72	1716.45
538.08	1730.86
538.44	1744.63
538.79	1758.51
539.15	1772.28
539.51	1786.05
539.87	1800.47
540.22	1814.23
540.58	1828.16
540.94	1841.66
541.29	1854.63
541.65	1867.38
542.01	1880.69
542.37	1893.02
542.72	1905.56
543.08	1917.46
543.44	1930.02
543.79	1941.26
544.15	1952.23
544.51	1963.89
544.87	1974.96
545.22	1985.79
545.58	1996.03
545.94	2005.85
546.29	2015.78
546.65	2025.52
547.01	2034.85
547.36	2043.61
547.72	2052.15
548.07	2059.92
548.43	2068.12
548.79	2076.28
549.14	2083.79
549.50	2091.23
549.86	2098.99
550.21	2106.29
550.57	2113.44
550.92	2120.00
551.28	2127.30
551.64	2134.41
551.99	2140.94
552.35	2147.17
552.70	2153.27
553.06	2159.31
553.41	2165.70
553.77	2171.76
554.13	2177.83
554.48	2183.89
554.84	2189.29
555.19	2194.67
555.55	2199.78
555.90	2204.19
556.26	2209.05
556.61	2213.92
556.97	2217.94
557.32	2222.02
557.68	2226.18
558.03	2230.38
558.39	2234.12
558.74	2238.64
559.10	2242.33
559.45	2245.88
559.81	2250.10
560.16	2254.04
560.52	2257.20
560.87	2260.63
561.23	2263.26
561.58	2266.41
561.94	2268.97
562.29	2271.46
562.64	2274.07
563.00	2276.78
563.35	2280.18
563.71	2283.15
564.06	2286.17
564.42	2289.17
564.77	2291.64
565.12	2293.77
565.48	2295.62
565.83	2297.41
566.19	2298.64
566.54	2299.64
566.89	2300.79
567.25	2301.25
567.60	2302.58
567.96	2304.11
568.31	2304.78
568.66	2305.79
569.02	2306.13
569.37	2306.42
569.72	2307.06
570.08	2307.05
570.43	2306.78
570.78	2306.18
571.14	2304.53
571.49	2303.29
571.84	2302.89
572.20	2301.58
572.55	2300.46
572.90	2298.93
573.26	2297.40
573.61	2295.61
573.96	2293.66
574.31	2290.60
574.67	2287.56
575.02	2283.79
575.37	2280.50
575.72	2276.63
576.08	2273.19
576.43	2269.86
576.78	2266.09
577.13	2262.79
577.49	2259.70
577.84	2256.21
578.19	2252.43
578.54	2248.75
578.90	2244.36
579.25	2238.68
579.60	2233.66
579.95	2228.67
580.30	2223.47
580.66	2218.17
581.01	2213.18
581.36	2208.24
581.71	2203.98
582.06	2199.48
582.42	2194.80
582.77	2189.39
583.12	2184.81
583.47	2180.02
583.82	2174.90
584.17	2169.49
584.53	2163.99
584.88	2158.18
585.23	2152.31
585.58	2146.79
585.93	2141.38
586.28	2136.60
586.63	2131.51
586.98	2126.44
587.34	2121.74
587.69	2116.89
588.04	2111.59
588.39	2105.68
588.74	2099.10
589.09	2092.92
589.44	2085.90
589.79	2080.00
590.14	2074.35
590.49	2067.60
590.84	2061.22
591.19	2055.11
591.54	2048.53
591.89	2041.12
592.25	2034.23
592.60	2026.96
592.95	2019.25
593.30	2011.87
593.65	2004.15
594.00	1997.06
594.35	1989.73
594.70	1981.56
595.05	1974.26
595.40	1966.92
595.75	1959.46
596.10	1953.13
596.45	1946.08
596.80	1940.03
597.15	1933.11
597.50	1925.92
597.85	1919.49
598.19	1912.80
598.54	1905.63
598.89	1898.99
599.24	1893.04
599.59	1886.34
599.94	1880.07
600.29	1873.72
600.64	1866.92
600.99	1859.38
601.34	1852.38
601.69	1845.43
602.04	1838.42
602.39	1830.96
602.74	1824.17
603.08	1817.51
603.43	1810.79
603.78	1803.60
604.13	1796.29
604.48	1788.96
604.83	1782.22
605.18	1775.20
605.53	1766.94
605.87	1758.91
606.22	1751.68
606.57	1743.70
606.92	1736.38
607.27	1729.16
607.62	1722.19
607.96	1714.90
608.31	1708.17
608.66	1700.42
609.01	1692.87
609.36	1685.26
609.70	1677.20
610.05	1668.99
610.40	1661.11
610.75	1652.71
611.10	1645.09
611.44	1636.80
611.79	1628.97
612.14	1620.13
612.49	1611.01
612.83	1602.89
613.18	1594.78
613.53	1586.70
613.88	1578.01
614.22	1569.75
614.57	1561.37
614.92	1553.36
615.27	1545.76
615.61	1537.43
615.96	1529.61
616.31	1521.90
616.65	1514.63
617.00	1507.12
617.35	1499.49
617.70	1491.10
618.04	1482.58
618.39	1474.35
618.74	1466.65
619.08	1458.39
619.43	1450.95
619.78	1444.13
620.12	1436.90
620.47	1429.30
620.82	1421.06
621.16	1413.84
621.51	1406.27
621.85	1398.51
622.20	1389.92
622.55	1381.54
622.89	1373.78
623.24	1366.24
623.59	1358.91
623.93	1351.37
624.28	1344.10
624.62	1336.56
624.97	1329.51
625.32	1322.72
625.66	1315.57
626.01	1308.31
626.35	1300.78
626.70	1292.95
627.04	1285.11
627.39	1277.30
627.73	1269.90
628.08	1263.04
628.43	1255.72
628.77	1248.21
629.12	1240.65
629.46	1233.52
629.81	1226.14
630.15	1218.83
630.50	1211.35
630.84	1203.11
631.19	1195.25
631.53	1187.91
631.88	1180.38
632.22	1172.79
632.57	1165.62
632.91	1158.09
633.26	1150.69
633.60	1143.35
633.95	1136.27
634.29	1129.21
634.64	1122.52
634.98	1115.18
635.32	1108.08
635.67	1101.53
636.01	1094.95
636.36	1088.20
636.70	1081.78
637.05	1075.27
637.39	1068.81
637.73	1062.33
638.08	1056.45
638.42	1050.39
638.77	1043.80
639.11	1037.19
639.45	1030.80
639.80	1024.13
640.14	1017.74
640.49	1011.19
640.83	1004.93
641.17	998.58
641.52	992.27
641.86	985.86
642.20	980.01
642.55	973.64
642.89	967.12
643.23	960.60
643.58	954.76
643.92	948.47
644.26	942.37
644.61	936.40
644.95	930.34
645.29	923.79
645.64	917.09
645.98	910.87
646.32	905.20
646.66	899.13
647.01	893.29
647.35	887.63
647.69	881.84
648.04	876.34
648.38	870.65
648.72	864.62
649.06	858.59
649.41	852.78
649.75	846.88
650.09	840.95
650.43	835.19
650.78	829.06
651.12	823.18
651.46	817.49
651.80	811.76
652.14	806.37
652.49	801.00
652.83	795.84
653.17	790.07
653.51	784.24
653.85	778.91
654.20	773.33
654.54	767.37
654.88	761.73
655.22	755.78
655.56	750.15
655.90	744.81
656.25	739.51
656.59	734.11
656.93	729.01
657.27	723.78
657.61	718.31
657.95	713.22
658.29	708.06
658.64	702.83
658.98	697.53
659.32	692.15
659.66	686.99
660.00	681.69
660.34	676.79
660.68	671.89
661.02	666.84
661.36	662.11
661.70	657.66
662.05	653.27
662.39	648.92
662.73	644.46
663.07	640.04
663.41	635.67
663.75	631.18
664.09	626.61
664.43	622.30
664.77	618.27
665.11	614.01
665.45	609.95
665.79	605.87
666.13	601.83
666.47	597.64
666.81	593.37
667.15	589.27
667.49	585.37
667.83	581.59
668.17	577.72
668.51	573.64
668.85	569.54
669.19	565.66
669.53	561.87
669.87	557.97
670.21	554.28
670.55	550.59
670.89	547.21
671.23	543.82
671.57	540.28
671.91	536.68
672.25	533.23
672.58	529.73
672.92	526.28
673.26	523.09
673.60	520.04
673.94	517.00
674.28	514.11
674.62	511.16
674.96	508.04
675.30	505.06
675.64	502.16
675.97	499.45
676.31	496.62
676.65	493.64
676.99	490.95
677.33	488.13
677.67	485.33
678.01	482.25
678.34	479.27
678.68	476.41
679.02	473.61
679.36	470.81
679.70	468.08
680.04	465.38
680.37	462.48
680.71	459.64
681.05	457.04
681.39	454.30
681.73	451.70
682.06	449.20
682.40	446.72
682.74	444.21
683.08	441.66
683.42	439.11
683.75	436.67
684.09	434.14
684.43	431.67
684.77	429.26
685.10	426.96
685.44	424.66
685.78	422.39
686.12	420.22
686.45	417.99
686.79	415.73
687.13	413.57
687.46	411.46
687.80	409.33
688.14	407.12
688.48	405.07
688.81	402.80
689.15	400.70
689.49	398.56
689.82	396.46
690.16	394.35
690.50	392.36
690.83	390.40
691.17	388.42
691.51	386.50
691.84	384.61
692.18	382.68
692.52	380.70
692.85	378.76
693.19	376.82
693.52	375.02
693.86	373.21
694.20	371.45
694.53	369.62
694.87	367.78
695.21	366.01
695.54	364.21
695.88	362.50
696.21	360.73
696.55	359.00
696.88	357.34
697.22	355.72
697.56	354.12
697.89	352.46
698.23	350.89
698.56	349.33
698.90	347.74
699.23	346.10
699.57	344.53
699.90	343.03
700.24	341.54
700.58	339.99
700.91	338.47
701.25	336.99
701.58	335.68
701.92	334.33
702.25	332.95
702.59	331.58
702.92	330.28
703.26	329.01
703.59	327.76
703.93	326.60
704.26	325.41
704.60	324.12
704.93	322.85
705.26	321.59
705.60	320.41
705.93	319.23
706.27	318.23
706.60	317.21
706.94	316.11
707.27	314.93
707.61	313.86
707.94	312.85
708.27	311.79
708.61	310.67
708.94	309.69
709.28	308.74
709.61	307.75
709.94	306.75
710.28	305.77
710.61	304.79
710.95	303.67
711.28	302.73
711.61	301.79
711.95	300.88
712.28	299.94
712.61	298.92
712.95	298.04
713.28	297.13
713.61	296.17
713.95	295.30
714.28	294.48
714.61	293.60
714.95	292.79
715.28	291.92
715.61	291.05
715.95	290.13
716.28	289.27
716.61	288.50
716.95	287.71
717.28	286.98
717.61	286.20
717.94	285.50
718.28	284.65
718.61	283.92
718.94	283.22
719.27	282.57
719.61	281.93
719.94	281.26
720.27	280.57
720.60	279.92
720.94	279.30
721.27	278.67
721.60	278.13
721.93	277.50
722.27	276.92
722.60	276.37
722.93	275.82
723.26	275.27
723.59	274.67
723.93	274.11
724.26	273.52
724.59	273.01
724.92	272.47
725.25	272.06
725.59	271.53
725.92	271.00
726.25	270.47
726.58	269.98
726.91	269.50
727.24	269.01
727.57	268.60
727.91	268.08
728.24	267.61
728.57	267.11
728.90	266.68
729.23	266.22
729.56	265.81
729.89	265.33
730.22	264.86
730.55	264.43
730.89	264.00
731.22	263.54
731.55	263.08
731.88	262.68
732.21	262.23
732.54	261.85
732.87	261.48
733.20	261.09
733.53	260.72
733.86	260.34
734.19	259.97
734.52	259.58
734.85	259.28
735.18	258.95
735.51	258.62
735.84	258.25
736.17	257.94
736.50	257.53
736.83	257.34
737.16	256.99
737.49	256.67
737.82	256.34
738.15	256.02
738.48	255.73
738.81	255.37
739.14	255.03
739.47	254.70
739.80	254.39
740.13	254.09
740.46	253.74
740.79	253.39
741.12	253.12
741.45	252.78
741.78	252.42
742.11	252.09
742.44	251.74
742.77	251.45
743.10	251.13
743.43	250.87
743.75	250.47
744.08	250.35
744.41	250.05
744.74	249.78
745.07	249.52
745.40	249.26
745.73	249.03
746.06	248.77
746.39	248.51
746.71	248.25
747.04	247.97
747.37	247.70
747.70	247.49
748.03	247.22
748.36	247.01
748.68	246.74
749.01	246.52
749.34	246.31
749.67	246.07
750.00	245.85
750.33	245.68
750.65	245.48
750.98	245.13
751.31	244.90
751.64	244.66
751.97	244.49
752.29	244.26
752.62	244.01
752.95	243.79
753.28	243.57
753.60	243.35
753.93	243.17
754.26	243.01
754.59	242.77
754.91	242.55
755.24	242.34
755.57	242.19
755.90	241.98
756.22	241.76
756.55	241.59
756.88	241.40
757.20	241.14
757.53	240.95
757.86	240.75
758.19	240.62
758.51	240.45
758.84	240.26
759.17	240.08
759.49	239.92
759.82	239.80
760.15	239.64
760.47	239.53
760.80	239.34
761.13	239.21
761.45	239.05
761.78	238.91
762.11	238.76
762.43	238.58
762.76	238.42
763.08	238.32
763.41	238.15
763.74	237.99
764.06	237.88
764.39	237.70
764.71	237.57
765.04	237.44
765.37	237.34
765.69	237.17
766.02	237.06
766.34	236.94
766.67	236.78
767.00	236.64
767.32	236.55
767.65	236.49
767.97	236.35
768.30	236.27
768.62	236.16
768.95	236.05
769.27	235.94
769.60	235.88
769.92	235.73
770.25	235.61
770.57	235.49
770.90	235.38
771.22	235.31
771.55	235.23
771.87	235.10
772.20	234.99
772.52	234.99
772.85	235.00
773.17	234.92
773.50	234.84
773.82	234.76
774.15	234.62
774.47	234.52
774.80	234.42
775.12	234.34
775.45	234.23
775.77	234.17
776.09	234.11
776.42	234.02
776.74	233.96
777.07	233.90
777.39	233.85
777.72	233.78
778.04	233.70
778.36	233.64
778.69	233.59
779.01	233.54
779.33	233.41
779.66	233.22
779.98	233.16
780.31	233.11
780.63	233.10
780.95	233.07
781.28	232.99
781.60	232.91
781.92	232.82
782.25	232.79
782.57	232.73
782.89	232.66
783.22	232.62
783.54	232.58
783.86	232.52
784.19	232.44
784.51	232.39
784.83	232.35
785.16	232.30
785.48	232.25
785.80	232.22
786.12	232.14
786.45	232.12
786.77	232.08
787.09	232.01
