SpectraSuite Data File
++++++++++++++++++++++++++++++++++++
Date: Fri Feb 01 15:19:25 EST 2013
User: group
Dark Spectrum Present: No
Reference Spectrum Present: No
Number of Sampled Component Spectra: 1
Spectrometers: USB2E7196
Integration Time (usec): 35000 (USB2E7196)
Spectra Averaged: 100 (USB2E7196)
Boxcar Smoothing: 10 (USB2E7196)
Correct for Electrical Dark: No (USB2E7196)
Strobe/Lamp Enabled: No (USB2E7196)
Correct for Detector Non-linearity: No (USB2E7196)
Correct for Stray Light: No (USB2E7196)
Number of Pixels in Processed Spectrum: 2048
>>>>>Begin Processed Spectral Data<<<<<
339.09	0.00
339.48	215.02
339.86	216.15
340.24	218.04
340.63	219.34
341.01	222.11
341.39	222.04
341.78	223.16
342.16	224.17
342.54	225.06
342.93	213.38
343.31	224.16
343.69	224.71
344.07	225.21
344.46	225.64
344.84	226.02
345.22	226.26
345.60	226.53
345.99	226.74
346.37	226.89
346.75	226.98
347.13	227.08
347.52	227.08
347.90	227.14
348.28	227.17
348.66	227.24
349.05	227.24
349.43	227.28
349.81	227.31
350.19	227.34
350.57	227.42
350.96	227.50
351.34	227.59
351.72	227.66
352.10	227.71
352.48	227.76
352.87	227.83
353.25	227.89
353.63	227.92
354.01	227.98
354.39	228.07
354.77	228.13
355.15	228.20
355.54	228.28
355.92	228.31
356.30	228.37
356.68	228.48
357.06	228.55
357.44	228.61
357.82	228.70
358.20	228.79
358.58	228.82
358.97	228.87
359.35	228.95
359.73	229.03
360.11	229.10
360.49	229.15
360.87	229.19
361.25	229.24
361.63	229.30
362.01	229.34
362.39	229.34
362.77	229.40
363.15	229.42
363.53	229.43
363.91	229.48
364.29	229.49
364.67	229.40
365.05	229.40
365.43	229.38
365.81	229.37
366.19	229.40
366.57	229.42
366.95	229.41
367.33	229.38
367.71	229.35
368.09	229.34
368.47	229.30
368.85	229.23
369.23	229.21
369.61	229.16
369.99	229.17
370.37	229.15
370.75	229.14
371.13	229.06
371.51	228.98
371.89	228.94
372.27	228.91
372.65	228.86
373.03	228.83
373.41	228.78
373.78	228.71
374.16	228.62
374.54	228.54
374.92	228.44
375.30	228.37
375.68	228.29
376.06	228.24
376.44	228.21
376.82	228.14
377.19	228.09
377.57	228.01
377.95	227.89
378.33	227.80
378.71	227.69
379.09	227.62
379.47	227.60
379.84	227.53
380.22	227.44
380.60	227.38
380.98	227.30
381.36	227.21
381.73	227.13
382.11	227.09
382.49	227.02
382.87	226.96
383.25	226.89
383.62	226.95
384.00	226.89
384.38	226.82
384.76	226.80
385.13	226.76
385.51	226.75
385.89	226.69
386.27	226.67
386.64	226.63
387.02	226.61
387.40	226.59
387.78	226.51
388.15	226.50
388.53	226.47
388.91	226.43
389.29	226.41
389.66	226.39
390.04	226.37
390.42	226.38
390.79	226.40
391.17	226.41
391.55	226.28
391.92	226.29
392.30	226.29
392.68	226.28
393.05	226.29
393.43	226.28
393.81	226.34
394.18	226.32
394.56	226.34
394.94	226.37
395.31	226.38
395.69	226.49
396.06	226.54
396.44	226.58
396.82	226.64
397.19	226.72
397.57	226.79
397.95	226.86
398.32	226.88
398.70	226.92
399.07	227.02
399.45	227.08
399.82	227.15
400.20	227.21
400.58	227.33
400.95	227.36
401.33	227.47
401.70	227.60
402.08	227.72
402.45	227.84
402.83	227.99
403.20	228.09
403.58	228.16
403.95	228.29
404.33	228.41
404.71	228.56
405.08	228.79
405.46	228.95
405.83	229.07
406.21	229.25
406.58	229.43
406.96	229.59
407.33	229.79
407.70	229.97
408.08	230.26
408.45	230.43
408.83	230.66
409.20	230.90
409.58	231.08
409.95	231.33
410.33	231.61
410.70	231.83
411.08	232.12
411.45	232.45
411.82	232.74
412.20	233.09
412.57	233.48
412.95	233.76
413.32	234.15
413.69	234.59
414.07	235.07
414.44	235.51
414.82	235.96
415.19	236.51
415.56	237.06
415.94	237.58
416.31	238.25
416.68	238.91
417.06	239.62
417.43	240.28
417.81	241.04
418.18	241.79
418.55	242.61
418.93	243.53
419.30	244.46
419.67	245.40
420.04	246.37
420.42	247.35
420.79	248.56
421.16	249.72
421.54	250.90
421.91	252.07
422.28	253.34
422.66	254.70
423.03	256.00
423.40	257.36
423.77	258.76
424.15	260.17
424.52	261.64
424.89	263.23
425.26	264.79
425.64	266.22
426.01	267.84
426.38	269.51
426.75	271.13
427.13	272.83
427.50	274.65
427.87	276.52
428.24	278.40
428.61	280.09
428.99	282.04
429.36	284.14
429.73	286.21
430.10	288.24
430.47	290.28
430.85	292.38
431.22	294.64
431.59	297.05
431.96	299.35
432.33	301.86
432.70	304.31
433.08	307.13
433.45	309.78
433.82	312.43
434.19	315.33
434.56	318.17
434.93	320.81
435.30	323.41
435.68	326.34
436.05	329.20
436.42	331.99
436.79	334.54
437.16	337.27
437.53	340.09
437.90	342.90
438.27	345.67
438.64	348.52
439.01	351.13
439.38	353.37
439.75	355.52
440.13	358.01
440.50	360.35
440.87	362.21
441.24	364.18
441.61	366.37
441.98	367.88
442.35	369.64
442.72	371.55
443.09	373.38
443.46	374.36
443.83	374.92
444.20	375.39
444.57	376.17
444.94	376.46
445.31	376.82
445.68	377.14
446.05	377.20
446.42	376.78
446.79	376.33
447.16	375.84
447.53	375.50
447.90	374.36
448.27	373.13
448.64	371.52
449.01	370.37
449.37	368.35
449.74	366.48
450.11	364.22
450.48	361.70
450.85	359.19
451.22	357.00
451.59	354.98
451.96	353.08
452.33	350.46
452.70	348.09
453.07	345.23
453.43	342.34
453.80	339.59
454.17	336.94
454.54	334.37
454.91	331.68
455.28	329.01
455.65	326.48
456.02	324.01
456.38	321.86
456.75	319.21
457.12	316.97
457.49	314.67
457.86	312.52
458.23	310.65
458.59	308.54
458.96	306.49
459.33	304.65
459.70	302.79
460.07	301.29
460.43	299.59
460.80	298.01
461.17	296.60
461.54	295.08
461.91	293.65
462.27	292.20
462.64	290.95
463.01	289.55
463.38	288.26
463.74	286.91
464.11	285.74
464.48	284.71
464.85	283.55
465.21	282.70
465.58	281.79
465.95	280.70
466.32	279.83
466.68	278.92
467.05	277.97
467.42	277.08
467.78	276.16
468.15	275.27
468.52	274.55
468.88	273.69
469.25	272.92
469.62	272.28
469.98	271.59
470.35	270.95
470.72	270.36
471.08	269.70
471.45	269.17
471.82	268.62
472.18	268.01
472.55	267.56
472.92	267.03
473.28	266.55
473.65	266.11
474.02	265.66
474.38	265.24
474.75	264.95
475.11	264.59
475.48	264.33
475.85	264.09
476.21	263.87
476.58	263.65
476.94	263.51
477.31	263.35
477.67	263.23
478.04	263.10
478.41	263.04
478.77	263.09
479.14	263.04
479.50	263.07
479.87	263.15
480.23	263.23
480.60	263.32
480.96	263.39
481.33	263.60
481.69	263.79
482.06	264.00
482.42	264.22
482.79	264.46
483.15	264.78
483.52	265.16
483.88	265.52
484.25	265.92
484.61	266.31
484.98	266.76
485.34	267.32
485.71	267.90
486.07	268.53
486.44	269.09
486.80	269.78
487.17	270.48
487.53	271.31
487.90	272.18
488.26	273.05
488.62	274.02
488.99	275.00
489.35	276.04
489.72	277.15
490.08	278.30
490.44	279.56
490.81	280.85
491.17	282.15
491.54	283.61
491.90	285.12
492.26	286.77
492.63	288.49
492.99	290.24
493.36	292.09
493.72	294.09
494.08	296.20
494.45	298.45
494.81	300.79
495.17	303.20
495.54	305.76
495.90	308.48
496.26	311.27
496.63	314.23
496.99	317.33
497.35	320.60
497.72	324.01
498.08	327.53
498.44	331.20
498.80	335.15
499.17	339.20
499.53	343.35
499.89	347.70
500.26	352.22
500.62	356.90
500.98	361.91
501.34	367.02
501.71	372.35
502.07	377.78
502.43	383.41
502.79	389.25
503.16	395.28
503.52	401.49
503.88	407.95
504.24	414.58
504.60	421.48
504.97	428.57
505.33	435.91
505.69	443.57
506.05	451.33
506.41	459.15
506.78	467.27
507.14	475.77
507.50	484.51
507.86	493.55
508.22	502.77
508.59	511.92
508.95	521.48
509.31	531.26
509.67	541.37
510.03	551.63
510.39	562.17
510.75	573.05
511.12	583.99
511.48	595.30
511.84	606.75
512.20	618.27
512.56	630.21
512.92	642.40
513.28	654.66
513.64	667.17
514.00	679.86
514.37	692.83
514.73	705.83
515.09	718.94
515.45	732.19
515.81	745.80
516.17	759.81
516.53	773.88
516.89	788.13
517.25	802.33
517.61	816.80
517.97	831.28
518.33	845.63
518.69	860.48
519.05	875.46
519.41	890.62
519.77	906.19
520.13	921.70
520.49	937.04
520.85	952.59
521.21	968.33
521.57	984.64
521.93	1000.42
522.29	1016.93
522.65	1033.22
523.01	1049.48
523.37	1065.57
523.73	1081.87
524.09	1098.06
524.45	1114.41
524.81	1131.04
525.17	1147.85
525.53	1164.84
525.89	1181.87
526.25	1198.72
526.61	1215.20
526.97	1231.96
527.33	1248.41
527.68	1265.01
528.04	1281.59
528.40	1298.19
528.76	1315.26
529.12	1331.98
529.48	1348.93
529.84	1365.04
530.20	1381.60
530.56	1398.69
530.91	1416.07
531.27	1432.79
531.63	1449.37
531.99	1466.01
532.35	1482.12
532.71	1498.10
533.07	1514.34
533.42	1530.29
533.78	1546.37
534.14	1562.65
534.50	1578.17
534.86	1594.19
535.21	1609.44
535.57	1625.43
535.93	1641.12
536.29	1656.09
536.65	1671.30
537.00	1686.17
537.36	1701.51
537.72	1716.27
538.08	1730.88
538.44	1744.81
538.79	1758.91
539.15	1772.65
539.51	1786.42
539.87	1800.90
540.22	1814.68
540.58	1828.64
540.94	1842.20
541.29	1855.36
541.65	1868.16
542.01	1881.55
542.37	1893.87
542.72	1906.36
543.08	1918.34
543.44	1930.77
543.79	1941.96
544.15	1952.90
544.51	1964.47
544.87	1975.63
545.22	1986.37
545.58	1996.51
545.94	2006.36
546.29	2016.27
546.65	2026.03
547.01	2035.37
547.36	2044.04
547.72	2052.64
548.07	2060.44
548.43	2068.40
548.79	2076.54
549.14	2084.18
549.50	2091.58
549.86	2099.36
550.21	2106.72
550.57	2113.87
550.92	2120.34
551.28	2127.48
551.64	2134.54
551.99	2141.27
552.35	2147.20
552.70	2153.28
553.06	2159.35
553.41	2165.69
553.77	2171.72
554.13	2177.85
554.48	2183.93
554.84	2189.41
555.19	2194.76
555.55	2199.80
555.90	2204.39
556.26	2209.08
556.61	2213.84
556.97	2217.77
557.32	2221.93
557.68	2226.03
558.03	2230.19
558.39	2234.11
558.74	2238.71
559.10	2242.55
559.45	2245.93
559.81	2250.47
560.16	2254.47
560.52	2257.75
560.87	2261.21
561.23	2263.67
561.58	2266.63
561.94	2269.15
562.29	2271.48
562.64	2274.12
563.00	2276.78
563.35	2280.18
563.71	2283.24
564.06	2286.27
564.42	2289.26
564.77	2291.67
565.12	2293.93
565.48	2295.74
565.83	2297.44
566.19	2298.62
566.54	2299.66
566.89	2300.97
567.25	2301.42
567.60	2302.69
567.96	2304.04
568.31	2304.74
568.66	2305.87
569.02	2306.35
569.37	2306.60
569.72	2307.26
570.08	2307.23
570.43	2307.18
570.78	2306.59
571.14	2305.01
571.49	2303.70
571.84	2303.30
572.20	2302.08
572.55	2301.08
572.90	2299.56
573.26	2298.18
573.61	2296.45
573.96	2294.43
574.31	2291.24
574.67	2288.03
575.02	2284.29
575.37	2280.83
575.72	2276.97
576.08	2273.66
576.43	2270.35
576.78	2266.63
577.13	2263.52
577.49	2260.36
577.84	2256.84
578.19	2253.08
578.54	2249.26
578.90	2244.89
579.25	2239.37
579.60	2234.36
579.95	2229.17
580.30	2224.06
580.66	2218.72
581.01	2213.74
581.36	2208.76
581.71	2204.53
582.06	2200.01
582.42	2195.46
582.77	2190.21
583.12	2185.54
583.47	2180.52
583.82	2175.35
584.17	2170.02
584.53	2164.38
584.88	2158.76
585.23	2152.92
585.58	2147.33
585.93	2141.94
586.28	2137.14
586.63	2131.90
586.98	2126.72
587.34	2122.01
587.69	2117.17
588.04	2111.76
588.39	2105.89
588.74	2099.30
589.09	2093.12
589.44	2086.16
589.79	2080.04
590.14	2074.43
590.49	2067.72
590.84	2061.32
591.19	2055.33
591.54	2048.88
591.89	2041.37
592.25	2034.47
592.60	2027.10
592.95	2019.40
593.30	2011.94
593.65	2004.15
594.00	1997.01
594.35	1989.76
594.70	1981.81
595.05	1974.38
595.40	1967.12
595.75	1959.50
596.10	1953.28
596.45	1946.33
596.80	1940.25
597.15	1933.50
597.50	1926.29
597.85	1919.86
598.19	1913.17
598.54	1905.94
598.89	1899.28
599.24	1893.57
599.59	1886.69
599.94	1880.47
600.29	1873.98
600.64	1867.43
600.99	1859.97
601.34	1853.07
601.69	1846.12
602.04	1838.84
602.39	1831.51
602.74	1824.65
603.08	1818.09
603.43	1811.41
603.78	1804.15
604.13	1796.85
604.48	1789.59
604.83	1782.84
605.18	1775.85
605.53	1767.78
605.87	1759.79
606.22	1752.50
606.57	1744.40
606.92	1737.21
607.27	1729.97
607.62	1723.07
607.96	1715.64
608.31	1708.99
608.66	1701.28
609.01	1693.68
609.36	1686.28
609.70	1678.16
610.05	1669.99
610.40	1662.10
610.75	1653.75
611.10	1646.09
611.44	1637.71
611.79	1629.61
612.14	1620.88
612.49	1611.63
612.83	1603.31
613.18	1595.11
613.53	1586.91
613.88	1578.29
614.22	1569.87
614.57	1561.44
614.92	1553.37
615.27	1545.69
615.61	1537.45
615.96	1529.55
616.31	1521.92
616.65	1514.53
617.00	1507.00
617.35	1499.35
617.70	1491.01
618.04	1482.27
618.39	1474.07
618.74	1466.45
619.08	1458.18
619.43	1450.56
619.78	1443.72
620.12	1436.55
620.47	1429.03
620.82	1420.91
621.16	1413.58
621.51	1406.04
621.85	1398.31
622.20	1389.91
622.55	1381.78
622.89	1373.97
623.24	1366.40
623.59	1359.00
623.93	1351.44
624.28	1344.23
624.62	1336.69
624.97	1329.54
625.32	1323.04
625.66	1316.07
626.01	1308.78
626.35	1301.24
626.70	1293.50
627.04	1285.62
627.39	1277.82
627.73	1270.40
628.08	1263.36
628.43	1256.02
628.77	1248.62
629.12	1241.10
629.46	1233.87
629.81	1226.39
630.15	1219.10
630.50	1211.69
630.84	1203.51
631.19	1195.63
631.53	1188.13
631.88	1180.61
632.22	1173.10
632.57	1165.69
632.91	1158.04
633.26	1150.70
633.60	1143.48
633.95	1136.45
634.29	1129.56
634.64	1122.95
634.98	1115.61
635.32	1108.62
635.67	1102.12
636.01	1095.41
636.36	1088.56
636.70	1082.08
637.05	1075.49
637.39	1068.96
637.73	1062.38
638.08	1056.50
638.42	1050.57
638.77	1044.07
639.11	1037.55
639.45	1031.25
639.80	1024.62
640.14	1018.20
640.49	1011.78
640.83	1005.48
641.17	999.22
641.52	992.92
641.86	986.43
642.20	980.67
642.55	974.34
642.89	967.72
643.23	961.25
643.58	955.48
643.92	949.32
644.26	943.23
644.61	937.34
644.95	931.25
645.29	924.61
645.64	917.76
645.98	911.52
646.32	905.78
646.66	899.67
647.01	893.89
647.35	888.22
647.69	882.34
648.04	876.86
648.38	870.98
648.72	864.94
649.06	858.97
649.41	853.04
649.75	847.01
650.09	841.15
650.43	835.34
650.78	829.28
651.12	823.20
651.46	817.49
651.80	811.65
652.14	806.31
652.49	801.00
652.83	795.92
653.17	790.17
653.51	784.33
653.85	778.92
654.20	773.26
654.54	767.32
654.88	761.60
655.22	755.70
655.56	750.08
655.90	744.62
656.25	739.29
656.59	733.99
656.93	728.93
657.27	723.75
657.61	718.32
657.95	713.16
658.29	708.19
658.64	702.95
658.98	697.67
659.32	692.20
659.66	686.99
660.00	681.63
660.34	676.76
660.68	671.78
661.02	666.82
661.36	662.17
661.70	657.64
662.05	653.25
662.39	648.89
662.73	644.46
663.07	640.07
663.41	635.64
663.75	631.11
664.09	626.60
664.43	622.25
664.77	618.18
665.11	613.95
665.45	609.85
665.79	605.82
666.13	601.68
666.47	597.68
666.81	593.55
667.15	589.43
667.49	585.58
667.83	581.85
668.17	577.91
668.51	573.84
668.85	569.77
669.19	565.99
669.53	562.13
669.87	558.17
670.21	554.49
670.55	550.86
670.89	547.39
671.23	544.00
671.57	540.53
671.91	536.96
672.25	533.50
672.58	529.98
672.92	526.61
673.26	523.47
673.60	520.28
673.94	517.12
674.28	514.27
674.62	511.27
674.96	508.19
675.30	505.27
675.64	502.35
675.97	499.62
676.31	496.72
676.65	493.81
676.99	491.21
677.33	488.41
677.67	485.57
678.01	482.59
678.34	479.55
678.68	476.70
679.02	473.93
679.36	471.16
679.70	468.47
680.04	465.69
680.37	462.84
680.71	460.05
681.05	457.52
681.39	454.83
681.73	452.20
682.06	449.66
682.40	447.11
682.74	444.60
683.08	442.08
683.42	439.49
683.75	437.02
684.09	434.47
684.43	432.00
684.77	429.57
685.10	427.24
685.44	424.97
685.78	422.70
686.12	420.46
686.45	418.19
686.79	415.86
687.13	413.72
687.46	411.58
687.80	409.43
688.14	407.16
688.48	405.06
688.81	402.83
689.15	400.71
689.49	398.53
689.82	396.45
690.16	394.34
690.50	392.38
690.83	390.45
691.17	388.48
691.51	386.54
691.84	384.69
692.18	382.71
692.52	380.71
692.85	378.74
693.19	376.84
693.52	375.02
693.86	373.23
694.20	371.46
694.53	369.64
694.87	367.79
695.21	366.01
695.54	364.16
695.88	362.45
696.21	360.71
696.55	359.09
696.88	357.39
697.22	355.75
697.56	354.10
697.89	352.44
698.23	350.82
698.56	349.23
698.90	347.63
699.23	346.04
699.57	344.45
699.90	342.91
700.24	341.39
700.58	339.85
700.91	338.35
701.25	336.86
701.58	335.52
701.92	334.14
702.25	332.78
702.59	331.46
702.92	330.12
703.26	328.82
703.59	327.51
703.93	326.34
704.26	325.13
704.60	323.90
704.93	322.65
705.26	321.42
705.60	320.24
705.93	319.11
706.27	318.07
706.60	317.04
706.94	316.01
707.27	314.85
707.61	313.79
707.94	312.78
708.27	311.68
708.61	310.55
708.94	309.56
709.28	308.54
709.61	307.63
709.94	306.67
710.28	305.66
710.61	304.72
710.95	303.64
711.28	302.73
711.61	301.76
711.95	300.84
712.28	299.89
712.61	298.92
712.95	298.00
713.28	297.12
713.61	296.27
713.95	295.36
714.28	294.59
714.61	293.70
714.95	292.85
715.28	292.02
715.61	291.16
715.95	290.32
716.28	289.51
716.61	288.64
716.95	287.87
717.28	287.15
717.61	286.36
717.94	285.61
718.28	284.80
718.61	284.11
718.94	283.44
719.27	282.77
719.61	282.17
719.94	281.54
720.27	280.83
720.60	280.17
720.94	279.55
721.27	278.93
721.60	278.38
721.93	277.80
722.27	277.30
722.60	276.77
722.93	276.23
723.26	275.71
723.59	275.18
723.93	274.61
724.26	274.05
724.59	273.52
724.92	273.06
725.25	272.60
725.59	272.04
725.92	271.53
726.25	271.05
726.58	270.52
726.91	270.02
727.24	269.57
727.57	269.13
727.91	268.63
728.24	268.19
728.57	267.70
728.90	267.27
729.23	266.76
729.56	266.32
729.89	265.83
730.22	265.34
730.55	264.88
730.89	264.43
731.22	263.98
731.55	263.53
731.88	263.09
732.21	262.61
732.54	262.22
732.87	261.80
733.20	261.37
733.53	260.94
733.86	260.53
734.19	260.12
734.52	259.70
734.85	259.35
735.18	258.93
735.51	258.61
735.84	258.14
736.17	257.79
736.50	257.35
736.83	257.14
737.16	256.77
737.49	256.40
737.82	256.05
738.15	255.71
738.48	255.36
738.81	255.00
739.14	254.67
739.47	254.34
739.80	254.00
740.13	253.68
740.46	253.36
740.79	253.02
741.12	252.71
741.45	252.38
741.78	252.03
742.11	251.69
742.44	251.31
742.77	251.07
743.10	250.72
743.43	250.39
743.75	249.98
744.08	249.83
744.41	249.56
744.74	249.29
745.07	248.99
745.40	248.74
745.73	248.50
746.06	248.20
746.39	247.90
746.71	247.60
747.04	247.36
747.37	247.07
747.70	246.83
748.03	246.57
748.36	246.33
748.68	246.10
749.01	245.87
749.34	245.68
749.67	245.43
750.00	245.24
750.33	245.15
750.65	244.92
750.98	244.59
751.31	244.39
751.64	244.19
751.97	244.05
752.29	243.83
752.62	243.60
752.95	243.45
753.28	243.28
753.60	243.10
753.93	242.94
754.26	242.81
754.59	242.60
754.91	242.38
755.24	242.21
755.57	242.01
755.90	241.83
756.22	241.65
756.55	241.45
756.88	241.28
757.20	241.05
757.53	240.88
757.86	240.71
758.19	240.59
758.51	240.43
758.84	240.22
759.17	240.09
759.49	239.96
759.82	239.83
760.15	239.70
760.47	239.54
760.80	239.41
761.13	239.26
761.45	239.14
761.78	239.07
762.11	238.94
762.43	238.81
762.76	238.71
763.08	238.61
763.41	238.53
763.74	238.42
764.06	238.29
764.39	238.15
764.71	238.03
765.04	237.87
765.37	237.75
765.69	237.64
766.02	237.51
766.34	237.38
766.67	237.22
767.00	237.14
767.32	237.09
767.65	237.02
767.97	236.89
768.30	236.79
768.62	236.68
768.95	236.53
769.27	236.42
769.60	236.32
769.92	236.18
770.25	236.06
770.57	235.95
770.90	235.84
771.22	235.75
771.55	235.65
771.87	235.55
772.20	235.46
772.52	235.45
772.85	235.44
773.17	235.35
773.50	235.25
773.82	235.16
774.15	234.98
774.47	234.85
774.80	234.77
775.12	234.66
775.45	234.55
775.77	234.48
776.09	234.37
776.42	234.28
776.74	234.22
777.07	234.09
777.39	234.00
777.72	233.93
778.04	233.84
778.36	233.76
778.69	233.66
779.01	233.55
779.33	233.39
779.66	233.22
779.98	233.11
780.31	233.03
780.63	232.92
780.95	232.91
781.28	232.81
781.60	232.72
781.92	232.63
782.25	232.57
782.57	232.50
782.89	232.45
783.22	232.36
783.54	232.25
783.86	232.21
784.19	232.16
784.51	232.10
784.83	232.05
785.16	231.99
785.48	231.94
785.80	231.90
786.12	231.86
786.45	231.80
786.77	231.76
787.09	231.74
