SpectraSuite Data File
++++++++++++++++++++++++++++++++++++
Date: Fri Feb 01 17:48:20 EST 2013
User: group
Dark Spectrum Present: No
Reference Spectrum Present: No
Number of Sampled Component Spectra: 1
Spectrometers: USB2E7196
Integration Time (usec): 35000 (USB2E7196)
Spectra Averaged: 100 (USB2E7196)
Boxcar Smoothing: 10 (USB2E7196)
Correct for Electrical Dark: No (USB2E7196)
Strobe/Lamp Enabled: No (USB2E7196)
Correct for Detector Non-linearity: No (USB2E7196)
Correct for Stray Light: No (USB2E7196)
Number of Pixels in Processed Spectrum: 2048
>>>>>Begin Processed Spectral Data<<<<<
339.09	0.00
339.48	212.86
339.86	213.73
340.24	215.36
340.63	217.20
341.01	219.46
341.39	219.30
341.78	221.86
342.16	222.47
342.54	222.68
342.93	211.06
343.31	221.70
343.69	222.24
344.07	222.72
344.46	223.13
344.84	223.47
345.22	223.70
345.60	223.94
345.99	224.06
346.37	224.17
346.75	224.28
347.13	224.36
347.52	224.42
347.90	224.51
348.28	224.57
348.66	224.59
349.05	224.58
349.43	224.63
349.81	224.70
350.19	224.74
350.57	224.79
350.96	224.87
351.34	224.99
351.72	225.03
352.10	225.12
352.48	225.19
352.87	225.27
353.25	225.38
353.63	225.44
354.01	225.51
354.39	225.60
354.77	225.65
355.15	225.75
355.54	225.81
355.92	225.83
356.30	225.90
356.68	226.06
357.06	226.14
357.44	226.22
357.82	226.26
358.20	226.36
358.58	226.41
358.97	226.49
359.35	226.57
359.73	226.68
360.11	226.77
360.49	226.82
360.87	226.90
361.25	226.93
361.63	227.02
362.01	227.10
362.39	227.12
362.77	227.19
363.15	227.18
363.53	227.28
363.91	227.28
364.29	227.29
364.67	227.20
365.05	227.23
365.43	227.26
365.81	227.33
366.19	227.37
366.57	227.44
366.95	227.42
367.33	227.40
367.71	227.38
368.09	227.37
368.47	227.38
368.85	227.30
369.23	227.34
369.61	227.28
369.99	227.27
370.37	227.27
370.75	227.30
371.13	227.28
371.51	227.19
371.89	227.22
372.27	227.19
372.65	227.14
373.03	227.09
373.41	227.01
373.78	226.95
374.16	226.84
374.54	226.73
374.92	226.68
375.30	226.62
375.68	226.57
376.06	226.50
376.44	226.44
376.82	226.44
377.19	226.37
377.57	226.32
377.95	226.25
378.33	226.18
378.71	226.05
379.09	226.01
379.47	225.97
379.84	225.88
380.22	225.82
380.60	225.77
380.98	225.70
381.36	225.66
381.73	225.55
382.11	225.50
382.49	225.46
382.87	225.43
383.25	225.36
383.62	225.40
384.00	225.36
384.38	225.32
384.76	225.27
385.13	225.23
385.51	225.16
385.89	225.07
386.27	225.00
386.64	224.96
387.02	224.90
387.40	224.86
387.78	224.84
388.15	224.81
388.53	224.79
388.91	224.77
389.29	224.73
389.66	224.72
390.04	224.70
390.42	224.70
390.79	224.65
391.17	224.62
391.55	224.47
391.92	224.43
392.30	224.45
392.68	224.39
393.05	224.40
393.43	224.42
393.81	224.46
394.18	224.46
394.56	224.45
394.94	224.48
395.31	224.48
395.69	224.51
396.06	224.53
396.44	224.52
396.82	224.53
397.19	224.58
397.57	224.61
397.95	224.63
398.32	224.62
398.70	224.69
399.07	224.78
399.45	224.82
399.82	224.90
400.20	224.92
400.58	225.03
400.95	225.04
401.33	225.12
401.70	225.22
402.08	225.30
402.45	225.41
402.83	225.50
403.20	225.61
403.58	225.68
403.95	225.84
404.33	226.01
404.71	226.15
405.08	226.35
405.46	226.51
405.83	226.69
406.21	226.85
406.58	227.05
406.96	227.25
407.33	227.49
407.70	227.72
408.08	228.00
408.45	228.22
408.83	228.49
409.20	228.75
409.58	229.01
409.95	229.32
410.33	229.67
410.70	229.98
411.08	230.36
411.45	230.75
411.82	231.11
412.20	231.50
412.57	232.01
412.95	232.41
413.32	232.93
413.69	233.44
414.07	234.03
414.44	234.63
414.82	235.23
415.19	235.90
415.56	236.58
415.94	237.30
416.31	238.11
416.68	238.95
417.06	239.83
417.43	240.70
417.81	241.72
418.18	242.70
418.55	243.79
418.93	244.89
419.30	246.06
419.67	247.26
420.04	248.53
420.42	249.81
420.79	251.32
421.16	252.76
421.54	254.29
421.91	255.81
422.28	257.43
422.66	259.16
423.03	260.85
423.40	262.55
423.77	264.38
424.15	266.24
424.52	268.14
424.89	270.27
425.26	272.27
425.64	274.12
426.01	276.16
426.38	278.34
426.75	280.52
427.13	282.74
427.50	285.07
427.87	287.45
428.24	289.87
428.61	292.10
428.99	294.62
429.36	297.37
429.73	300.07
430.10	302.68
430.47	305.35
430.85	308.13
431.22	311.11
431.59	314.21
431.96	317.09
432.33	320.33
432.70	323.38
433.08	327.03
433.45	330.42
433.82	333.77
434.19	337.49
434.56	341.11
434.93	344.52
435.30	347.90
435.68	351.69
436.05	355.39
436.42	359.03
436.79	362.28
437.16	365.74
437.53	369.38
437.90	373.01
438.27	376.54
438.64	380.19
439.01	383.54
439.38	386.39
439.75	389.23
440.13	392.46
440.50	395.50
440.87	397.90
441.24	400.45
441.61	403.34
441.98	405.27
442.35	407.62
442.72	410.08
443.09	412.41
443.46	413.69
443.83	414.45
444.20	415.08
444.57	416.25
444.94	416.66
445.31	417.12
445.68	417.57
446.05	417.70
446.42	417.21
446.79	416.65
447.16	416.12
447.53	415.73
447.90	414.22
448.27	412.70
448.64	410.68
449.01	409.26
449.37	406.65
449.74	404.22
450.11	401.27
450.48	398.05
450.85	394.84
451.22	392.06
451.59	389.48
451.96	387.04
452.33	383.64
452.70	380.56
453.07	376.99
453.43	373.30
453.80	369.72
454.17	366.29
454.54	362.98
454.91	359.46
455.28	356.01
455.65	352.82
456.02	349.63
456.38	346.85
456.75	343.39
457.12	340.49
457.49	337.61
457.86	334.85
458.23	332.45
458.59	329.78
458.96	327.09
459.33	324.63
459.70	322.16
460.07	320.20
460.43	317.98
460.80	315.80
461.17	313.87
461.54	311.90
461.91	310.00
462.27	308.13
462.64	306.50
463.01	304.70
463.38	302.95
463.74	301.24
464.11	299.69
464.48	298.34
464.85	296.88
465.21	295.73
465.58	294.51
465.95	293.08
466.32	291.87
466.68	290.67
467.05	289.51
467.42	288.37
467.78	287.10
468.15	285.98
468.52	285.12
468.88	284.03
469.25	283.01
469.62	282.20
469.98	281.32
470.35	280.47
470.72	279.72
471.08	278.91
471.45	278.15
471.82	277.43
472.18	276.62
472.55	276.03
472.92	275.34
473.28	274.73
473.65	274.15
474.02	273.59
474.38	273.11
474.75	272.67
475.11	272.17
475.48	271.84
475.85	271.50
476.21	271.13
476.58	270.83
476.94	270.59
477.31	270.32
477.67	270.08
478.04	269.89
478.41	269.74
478.77	269.72
479.14	269.61
479.50	269.53
479.87	269.54
480.23	269.60
480.60	269.60
480.96	269.61
481.33	269.75
481.69	269.88
482.06	270.06
482.42	270.19
482.79	270.43
483.15	270.72
483.52	271.07
483.88	271.38
484.25	271.74
484.61	272.17
484.98	272.59
485.34	273.11
485.71	273.66
486.07	274.23
486.44	274.69
486.80	275.43
487.17	276.19
487.53	276.98
487.90	277.79
488.26	278.74
488.62	279.77
488.99	280.76
489.35	281.84
489.72	282.96
490.08	284.21
490.44	285.49
490.81	286.84
491.17	288.25
491.54	289.78
491.90	291.36
492.26	293.04
492.63	294.85
492.99	296.70
493.36	298.69
493.72	300.84
494.08	303.09
494.45	305.41
494.81	307.88
495.17	310.47
495.54	313.18
495.90	316.03
496.26	318.96
496.63	322.06
496.99	325.32
497.35	328.72
497.72	332.28
498.08	335.90
498.44	339.72
498.80	343.84
499.17	348.10
499.53	352.49
499.89	357.08
500.26	361.80
500.62	366.69
500.98	371.87
501.34	377.19
501.71	382.75
502.07	388.49
502.43	394.35
502.79	400.46
503.16	406.82
503.52	413.39
503.88	420.07
504.24	427.03
504.60	434.22
504.97	441.72
505.33	449.38
505.69	457.53
506.05	465.73
506.41	473.98
506.78	482.52
507.14	491.44
507.50	500.60
507.86	510.08
508.22	519.77
508.59	529.48
508.95	539.63
509.31	550.03
509.67	560.71
510.03	571.56
510.39	582.68
510.75	594.07
511.12	605.61
511.48	617.54
511.84	629.66
512.20	641.88
512.56	654.54
512.92	667.40
513.28	680.52
513.64	693.75
514.00	707.26
514.37	720.96
514.73	734.82
515.09	748.65
515.45	762.75
515.81	777.16
516.17	792.03
516.53	806.95
516.89	822.00
517.25	837.04
517.61	852.48
517.97	867.82
518.33	883.20
518.69	898.85
519.05	914.78
519.41	930.99
519.77	947.61
520.13	964.13
520.49	980.66
520.85	997.11
521.21	1013.98
521.57	1031.46
521.93	1048.45
522.29	1066.03
522.65	1083.63
523.01	1101.08
523.37	1118.32
523.73	1135.82
524.09	1153.25
524.45	1170.84
524.81	1188.78
525.17	1206.76
525.53	1225.12
525.89	1243.41
526.25	1261.74
526.61	1279.60
526.97	1297.80
527.33	1315.71
527.68	1333.66
528.04	1351.53
528.40	1369.60
528.76	1388.14
529.12	1406.20
529.48	1424.66
529.84	1442.00
530.20	1460.10
530.56	1478.66
530.91	1497.83
531.27	1516.16
531.63	1534.15
531.99	1552.32
532.35	1569.91
532.71	1587.52
533.07	1605.43
533.42	1622.96
533.78	1640.72
534.14	1658.67
534.50	1675.65
534.86	1693.19
535.21	1710.10
535.57	1727.74
535.93	1745.01
536.29	1761.48
536.65	1778.17
537.00	1794.61
537.36	1811.94
537.72	1828.22
538.08	1844.50
538.44	1859.95
538.79	1875.57
539.15	1890.99
539.51	1906.61
539.87	1922.77
540.22	1938.24
540.58	1953.70
540.94	1968.86
541.29	1983.46
541.65	1998.01
542.01	2013.12
542.37	2027.39
542.72	2041.74
543.08	2055.45
543.44	2069.80
543.79	2082.95
544.15	2095.77
544.51	2109.33
544.87	2122.12
545.22	2134.79
545.58	2146.88
545.94	2158.46
546.29	2170.17
546.65	2182.00
547.01	2193.07
547.36	2203.61
547.72	2214.01
548.07	2223.88
548.43	2233.77
548.79	2243.57
549.14	2252.82
549.50	2261.76
549.86	2270.86
550.21	2279.84
550.57	2288.72
550.92	2296.88
551.28	2305.64
551.64	2314.51
551.99	2322.58
552.35	2330.42
552.70	2338.31
553.06	2345.86
553.41	2354.00
553.77	2361.51
554.13	2369.16
554.48	2377.12
554.84	2384.35
555.19	2391.08
555.55	2397.69
555.90	2403.65
556.26	2410.22
556.61	2416.43
556.97	2422.35
557.32	2428.19
557.68	2433.80
558.03	2439.50
558.39	2444.47
558.74	2450.54
559.10	2455.78
559.45	2460.76
559.81	2466.27
560.16	2471.32
560.52	2475.92
560.87	2480.51
561.23	2484.37
561.58	2488.39
561.94	2491.90
562.29	2495.14
562.64	2499.05
563.00	2502.72
563.35	2507.52
563.71	2511.62
564.06	2516.00
564.42	2520.04
564.77	2523.71
565.12	2527.19
565.48	2530.14
565.83	2533.15
566.19	2535.45
566.54	2537.16
566.89	2539.35
567.25	2540.95
567.60	2543.05
567.96	2545.62
568.31	2547.24
568.66	2549.45
569.02	2550.89
569.37	2551.89
569.72	2553.68
570.08	2554.65
570.43	2555.49
570.78	2555.65
571.14	2554.76
571.49	2553.96
571.84	2554.20
572.20	2553.71
572.55	2552.97
572.90	2551.88
573.26	2551.10
573.61	2549.73
573.96	2548.66
574.31	2546.02
574.67	2543.25
575.02	2539.96
575.37	2536.72
575.72	2533.17
576.08	2529.74
576.43	2526.54
576.78	2523.05
577.13	2519.87
577.49	2516.78
577.84	2513.44
578.19	2509.56
578.54	2506.07
578.90	2501.87
579.25	2496.07
579.60	2490.92
579.95	2485.84
580.30	2480.68
580.66	2475.26
581.01	2470.11
581.36	2464.75
581.71	2460.42
582.06	2455.76
582.42	2451.13
582.77	2445.68
583.12	2440.89
583.47	2436.17
583.82	2430.94
584.17	2425.37
584.53	2419.61
584.88	2413.61
585.23	2407.30
585.58	2401.46
585.93	2395.63
586.28	2390.36
586.63	2385.00
586.98	2379.45
587.34	2374.36
587.69	2369.05
588.04	2363.40
588.39	2357.29
588.74	2350.23
589.09	2343.46
589.44	2336.21
589.79	2329.41
590.14	2323.21
590.49	2315.96
590.84	2308.91
591.19	2302.34
591.54	2295.33
591.89	2287.39
592.25	2279.99
592.60	2272.13
592.95	2263.85
593.30	2255.63
593.65	2247.28
594.00	2239.46
594.35	2231.42
594.70	2222.38
595.05	2214.56
595.40	2206.38
595.75	2197.96
596.10	2191.21
596.45	2183.77
596.80	2176.92
597.15	2169.73
597.50	2162.00
597.85	2154.59
598.19	2147.21
598.54	2139.35
598.89	2131.85
599.24	2125.10
599.59	2117.72
599.94	2110.51
600.29	2103.41
600.64	2095.99
600.99	2087.70
601.34	2080.01
601.69	2072.03
602.04	2064.49
602.39	2056.11
602.74	2048.35
603.08	2040.78
603.43	2033.07
603.78	2024.74
604.13	2016.46
604.48	2008.15
604.83	2000.40
605.18	1992.83
605.53	1983.75
605.87	1974.66
606.22	1966.43
606.57	1957.31
606.92	1948.84
607.27	1940.82
607.62	1932.94
607.96	1924.69
608.31	1917.15
608.66	1908.49
609.01	1900.05
609.36	1891.30
609.70	1882.12
610.05	1872.92
610.40	1864.15
610.75	1854.54
611.10	1845.83
611.44	1836.06
611.79	1826.94
612.14	1816.92
612.49	1806.36
612.83	1796.67
613.18	1787.20
613.53	1777.98
613.88	1768.30
614.22	1758.75
614.57	1748.74
614.92	1739.52
615.27	1730.93
615.61	1721.46
615.96	1712.15
616.31	1703.39
616.65	1694.84
617.00	1686.19
617.35	1677.48
617.70	1667.90
618.04	1658.29
618.39	1648.69
618.74	1640.09
619.08	1630.51
619.43	1621.66
619.78	1613.63
620.12	1605.44
620.47	1596.95
620.82	1587.47
621.16	1578.90
621.51	1570.17
621.85	1561.55
622.20	1551.74
622.55	1542.02
622.89	1532.82
623.24	1524.01
623.59	1515.32
623.93	1506.73
624.28	1498.32
624.62	1489.54
624.97	1481.35
625.32	1473.49
625.66	1465.37
626.01	1457.13
626.35	1448.73
626.70	1439.86
627.04	1431.07
627.39	1421.97
627.73	1413.36
628.08	1405.37
628.43	1397.04
628.77	1388.65
629.12	1379.88
629.46	1371.69
629.81	1362.90
630.15	1354.67
630.50	1346.16
630.84	1336.89
631.19	1327.77
631.53	1319.12
631.88	1310.56
632.22	1301.77
632.57	1293.30
632.91	1284.72
633.26	1276.24
633.60	1267.71
633.95	1259.50
634.29	1251.36
634.64	1243.74
634.98	1235.43
635.32	1227.21
635.67	1219.60
636.01	1211.99
636.36	1204.30
636.70	1196.78
637.05	1189.50
637.39	1182.19
637.73	1174.83
638.08	1167.94
638.42	1161.10
638.77	1153.83
639.11	1146.28
639.45	1138.92
639.80	1131.46
640.14	1124.22
640.49	1116.76
640.83	1109.46
641.17	1102.37
641.52	1095.14
641.86	1087.82
642.20	1081.02
642.55	1073.79
642.89	1066.49
643.23	1058.95
643.58	1052.40
643.92	1045.41
644.26	1038.55
644.61	1031.53
644.95	1024.73
645.29	1017.40
645.64	1009.74
645.98	1002.53
646.32	995.85
646.66	989.05
647.01	982.36
647.35	975.88
647.69	969.17
648.04	962.94
648.38	956.44
648.72	949.74
649.06	942.84
649.41	936.22
649.75	929.57
650.09	922.89
650.43	916.36
650.78	909.31
651.12	902.53
651.46	895.99
651.80	889.59
652.14	883.40
652.49	877.36
652.83	871.49
653.17	865.09
653.51	858.66
653.85	852.56
654.20	846.24
654.54	839.37
654.88	832.89
655.22	826.25
655.56	819.78
655.90	813.55
656.25	807.71
656.59	801.54
656.93	795.77
657.27	789.85
657.61	783.64
657.95	777.92
658.29	772.14
658.64	766.21
658.98	760.14
659.32	753.94
659.66	747.96
660.00	742.04
660.34	736.37
660.68	730.74
661.02	725.05
661.36	719.67
661.70	714.54
662.05	709.56
662.39	704.66
662.73	699.59
663.07	694.58
663.41	689.51
663.75	684.52
664.09	679.35
664.43	674.33
664.77	669.66
665.11	664.85
665.45	660.15
665.79	655.52
666.13	650.92
666.47	646.31
666.81	641.67
667.15	636.99
667.49	632.53
667.83	628.19
668.17	623.71
668.51	619.15
668.85	614.62
669.19	610.27
669.53	605.97
669.87	601.62
670.21	597.45
670.55	593.30
670.89	589.36
671.23	585.47
671.57	581.51
671.91	577.55
672.25	573.58
672.58	569.65
672.92	565.74
673.26	562.09
673.60	558.48
673.94	554.97
674.28	551.62
674.62	548.31
674.96	544.75
675.30	541.46
675.64	538.20
675.97	535.03
676.31	531.86
676.65	528.54
676.99	525.45
677.33	522.29
677.67	519.13
678.01	515.74
678.34	512.40
678.68	509.15
679.02	506.00
679.36	502.88
679.70	499.80
680.04	496.74
680.37	493.54
680.71	490.39
681.05	487.40
681.39	484.35
681.73	481.36
682.06	478.59
682.40	475.76
682.74	472.83
683.08	469.97
683.42	466.98
683.75	464.13
684.09	461.24
684.43	458.45
684.77	455.65
685.10	452.97
685.44	450.32
685.78	447.76
686.12	445.21
686.45	442.61
686.79	440.02
687.13	437.53
687.46	435.07
687.80	432.65
688.14	430.13
688.48	427.79
688.81	425.28
689.15	422.84
689.49	420.40
689.82	418.02
690.16	415.65
690.50	413.46
690.83	411.27
691.17	409.07
691.51	406.86
691.84	404.76
692.18	402.61
692.52	400.42
692.85	398.18
693.19	396.07
693.52	393.95
693.86	391.87
694.20	389.79
694.53	387.76
694.87	385.66
695.21	383.62
695.54	381.52
695.88	379.54
696.21	377.62
696.55	375.66
696.88	373.79
697.22	371.91
697.56	370.02
697.89	368.12
698.23	366.24
698.56	364.38
698.90	362.62
699.23	360.78
699.57	358.99
699.90	357.23
700.24	355.41
700.58	353.70
700.91	351.99
701.25	350.37
701.58	348.81
701.92	347.28
702.25	345.74
702.59	344.21
702.92	342.69
703.26	341.17
703.59	339.74
703.93	338.39
704.26	337.01
704.60	335.55
704.93	334.11
705.26	332.70
705.60	331.35
705.93	330.00
706.27	328.75
706.60	327.55
706.94	326.34
707.27	325.04
707.61	323.80
707.94	322.60
708.27	321.32
708.61	320.05
708.94	318.84
709.28	317.72
709.61	316.64
709.94	315.54
710.28	314.38
710.61	313.24
710.95	311.99
711.28	310.93
711.61	309.84
711.95	308.81
712.28	307.77
712.61	306.64
712.95	305.54
713.28	304.55
713.61	303.54
713.95	302.47
714.28	301.57
714.61	300.62
714.95	299.66
715.28	298.72
715.61	297.73
715.95	296.79
716.28	295.80
716.61	294.81
716.95	293.87
717.28	293.00
717.61	292.12
717.94	291.28
718.28	290.37
718.61	289.55
718.94	288.75
719.27	287.98
719.61	287.28
719.94	286.53
720.27	285.72
720.60	284.94
720.94	284.25
721.27	283.50
721.60	282.82
721.93	282.16
722.27	281.53
722.60	280.93
722.93	280.25
723.26	279.66
723.59	279.04
723.93	278.45
724.26	277.80
724.59	277.16
724.92	276.58
725.25	276.00
725.59	275.38
725.92	274.77
726.25	274.20
726.58	273.63
726.91	273.09
727.24	272.57
727.57	272.02
727.91	271.44
728.24	270.90
728.57	270.38
728.90	269.87
729.23	269.33
729.56	268.79
729.89	268.21
730.22	267.62
730.55	267.12
730.89	266.62
731.22	266.18
731.55	265.73
731.88	265.24
732.21	264.76
732.54	264.32
732.87	263.87
733.20	263.41
733.53	262.94
733.86	262.55
734.19	262.09
734.52	261.67
734.85	261.36
735.18	260.93
735.51	260.49
735.84	260.05
736.17	259.68
736.50	259.27
736.83	259.05
737.16	258.67
737.49	258.29
737.82	257.86
738.15	257.45
738.48	257.08
738.81	256.68
739.14	256.30
739.47	255.94
739.80	255.60
740.13	255.23
740.46	254.85
740.79	254.44
741.12	254.10
741.45	253.72
741.78	253.32
742.11	252.96
742.44	252.63
742.77	252.31
743.10	251.95
743.43	251.61
743.75	251.16
744.08	251.04
744.41	250.69
744.74	250.42
745.07	250.04
745.40	249.73
745.73	249.44
746.06	249.13
746.39	248.83
746.71	248.49
747.04	248.18
747.37	247.89
747.70	247.60
748.03	247.34
748.36	247.09
748.68	246.83
749.01	246.55
749.34	246.27
749.67	246.00
750.00	245.72
750.33	245.51
750.65	245.27
750.98	244.85
751.31	244.60
751.64	244.38
751.97	244.25
752.29	243.98
752.62	243.72
752.95	243.47
753.28	243.23
753.60	243.02
753.93	242.81
754.26	242.59
754.59	242.33
754.91	242.04
755.24	241.83
755.57	241.59
755.90	241.38
756.22	241.14
756.55	240.91
756.88	240.68
757.20	240.41
757.53	240.18
757.86	239.96
758.19	239.78
758.51	239.54
758.84	239.28
759.17	239.11
759.49	238.96
759.82	238.84
760.15	238.68
760.47	238.49
760.80	238.30
761.13	238.14
761.45	238.01
761.78	237.87
762.11	237.70
762.43	237.54
762.76	237.39
763.08	237.25
763.41	237.11
763.74	236.97
764.06	236.80
764.39	236.67
764.71	236.54
765.04	236.36
765.37	236.18
765.69	236.03
766.02	235.89
766.34	235.71
766.67	235.56
767.00	235.42
767.32	235.32
767.65	235.25
767.97	235.09
768.30	234.97
768.62	234.84
768.95	234.70
769.27	234.59
769.60	234.48
769.92	234.36
770.25	234.18
770.57	234.04
770.90	233.94
771.22	233.81
771.55	233.72
771.87	233.64
772.20	233.55
772.52	233.52
772.85	233.52
773.17	233.46
773.50	233.34
773.82	233.21
774.15	233.07
774.47	232.89
774.80	232.81
775.12	232.67
775.45	232.60
775.77	232.55
776.09	232.45
776.42	232.35
776.74	232.29
777.07	232.22
777.39	232.15
777.72	232.07
778.04	232.02
778.36	231.92
778.69	231.83
779.01	231.79
779.33	231.65
779.66	231.47
779.98	231.37
780.31	231.29
780.63	231.23
780.95	231.16
781.28	231.11
781.60	231.04
781.92	231.01
782.25	230.91
782.57	230.78
782.89	230.69
783.22	230.62
783.54	230.55
783.86	230.52
784.19	230.43
784.51	230.38
784.83	230.28
785.16	230.21
785.48	230.15
785.80	230.06
786.12	229.99
786.45	229.93
786.77	229.87
