SpectraSuite Data File
++++++++++++++++++++++++++++++++++++
Date: Fri Feb 01 15:47:15 EST 2013
User: group
Dark Spectrum Present: No
Reference Spectrum Present: No
Number of Sampled Component Spectra: 1
Spectrometers: USB2E7196
Integration Time (usec): 35000 (USB2E7196)
Spectra Averaged: 100 (USB2E7196)
Boxcar Smoothing: 10 (USB2E7196)
Correct for Electrical Dark: No (USB2E7196)
Strobe/Lamp Enabled: No (USB2E7196)
Correct for Detector Non-linearity: No (USB2E7196)
Correct for Stray Light: No (USB2E7196)
Number of Pixels in Processed Spectrum: 2048
>>>>>Begin Processed Spectral Data<<<<<
339.09	0.00
339.48	214.94
339.86	215.71
340.24	217.43
340.63	218.97
341.01	222.27
341.39	221.09
341.78	222.46
342.16	224.29
342.54	224.92
342.93	213.16
343.31	223.93
343.69	224.49
344.07	224.95
344.46	225.37
344.84	225.77
345.22	225.98
345.60	226.23
345.99	226.43
346.37	226.56
346.75	226.62
347.13	226.69
347.52	226.72
347.90	226.80
348.28	226.79
348.66	226.82
349.05	226.79
349.43	226.83
349.81	226.87
350.19	226.90
350.57	226.95
350.96	226.99
351.34	227.07
351.72	227.11
352.10	227.22
352.48	227.31
352.87	227.36
353.25	227.43
353.63	227.52
354.01	227.58
354.39	227.64
354.77	227.74
355.15	227.85
355.54	227.89
355.92	227.91
356.30	228.01
356.68	228.13
357.06	228.21
357.44	228.28
357.82	228.34
358.20	228.44
358.58	228.52
358.97	228.61
359.35	228.70
359.73	228.80
360.11	228.86
360.49	228.89
360.87	228.92
361.25	229.00
361.63	229.07
362.01	229.16
362.39	229.17
362.77	229.20
363.15	229.24
363.53	229.29
363.91	229.31
364.29	229.35
364.67	229.28
365.05	229.31
365.43	229.31
365.81	229.33
366.19	229.36
366.57	229.39
366.95	229.38
367.33	229.34
367.71	229.32
368.09	229.33
368.47	229.31
368.85	229.29
369.23	229.29
369.61	229.22
369.99	229.20
370.37	229.20
370.75	229.24
371.13	229.17
371.51	229.15
371.89	229.11
372.27	229.05
372.65	229.02
373.03	228.97
373.41	228.94
373.78	228.88
374.16	228.77
374.54	228.68
374.92	228.64
375.30	228.58
375.68	228.50
376.06	228.46
376.44	228.42
376.82	228.37
377.19	228.29
377.57	228.23
377.95	228.15
378.33	228.08
378.71	227.94
379.09	227.88
379.47	227.81
379.84	227.76
380.22	227.68
380.60	227.57
380.98	227.51
381.36	227.40
381.73	227.33
382.11	227.30
382.49	227.23
382.87	227.11
383.25	227.05
383.62	227.08
384.00	227.01
384.38	226.96
384.76	226.91
385.13	226.85
385.51	226.81
385.89	226.72
386.27	226.70
386.64	226.67
387.02	226.64
387.40	226.60
387.78	226.55
388.15	226.51
388.53	226.48
388.91	226.46
389.29	226.42
389.66	226.39
390.04	226.33
390.42	226.32
390.79	226.34
391.17	226.32
391.55	226.24
391.92	226.21
392.30	226.19
392.68	226.17
393.05	226.20
393.43	226.23
393.81	226.27
394.18	226.25
394.56	226.28
394.94	226.31
395.31	226.30
395.69	226.35
396.06	226.40
396.44	226.44
396.82	226.47
397.19	226.56
397.57	226.62
397.95	226.72
398.32	226.74
398.70	226.76
399.07	226.81
399.45	226.89
399.82	226.94
400.20	227.02
400.58	227.08
400.95	227.13
401.33	227.19
401.70	227.31
402.08	227.38
402.45	227.45
402.83	227.55
403.20	227.67
403.58	227.73
403.95	227.86
404.33	227.98
404.71	228.08
405.08	228.27
405.46	228.39
405.83	228.53
406.21	228.69
406.58	228.87
406.96	229.08
407.33	229.21
407.70	229.40
408.08	229.67
408.45	229.90
408.83	230.13
409.20	230.36
409.58	230.54
409.95	230.82
410.33	231.10
410.70	231.34
411.08	231.62
411.45	231.97
411.82	232.24
412.20	232.61
412.57	233.03
412.95	233.36
413.32	233.76
413.69	234.14
414.07	234.60
414.44	235.10
414.82	235.56
415.19	236.12
415.56	236.70
415.94	237.25
416.31	237.90
416.68	238.53
417.06	239.23
417.43	239.93
417.81	240.68
418.18	241.46
418.55	242.29
418.93	243.20
419.30	244.11
419.67	245.07
420.04	246.00
420.42	246.98
420.79	248.11
421.16	249.26
421.54	250.46
421.91	251.66
422.28	252.90
422.66	254.21
423.03	255.52
423.40	256.86
423.77	258.24
424.15	259.63
424.52	261.09
424.89	262.73
425.26	264.27
425.64	265.75
426.01	267.37
426.38	269.06
426.75	270.70
427.13	272.39
427.50	274.19
427.87	276.10
428.24	278.00
428.61	279.74
428.99	281.68
429.36	283.75
429.73	285.80
430.10	287.83
430.47	289.88
430.85	291.98
431.22	294.21
431.59	296.58
431.96	298.82
432.33	301.32
432.70	303.66
433.08	306.45
433.45	309.10
433.82	311.69
434.19	314.60
434.56	317.44
434.93	320.11
435.30	322.74
435.68	325.63
436.05	328.44
436.42	331.21
436.79	333.77
437.16	336.48
437.53	339.32
437.90	342.12
438.27	344.86
438.64	347.67
439.01	350.27
439.38	352.57
439.75	354.73
440.13	357.24
440.50	359.57
440.87	361.44
441.24	363.35
441.61	365.53
441.98	366.99
442.35	368.77
442.72	370.64
443.09	372.48
443.46	373.49
443.83	374.08
444.20	374.60
444.57	375.39
444.94	375.72
445.31	376.02
445.68	376.37
446.05	376.43
446.42	376.10
446.79	375.63
447.16	375.12
447.53	374.83
447.90	373.68
448.27	372.51
448.64	370.92
449.01	369.77
449.37	367.77
449.74	365.91
450.11	363.69
450.48	361.19
450.85	358.64
451.22	356.49
451.59	354.46
451.96	352.57
452.33	349.97
452.70	347.59
453.07	344.78
453.43	341.93
453.80	339.23
454.17	336.53
454.54	334.03
454.91	331.34
455.28	328.68
455.65	326.20
456.02	323.76
456.38	321.62
456.75	318.97
457.12	316.72
457.49	314.46
457.86	312.30
458.23	310.42
458.59	308.38
458.96	306.31
459.33	304.49
459.70	302.57
460.07	301.07
460.43	299.37
460.80	297.76
461.17	296.28
461.54	294.76
461.91	293.36
462.27	291.91
462.64	290.69
463.01	289.35
463.38	288.06
463.74	286.71
464.11	285.55
464.48	284.55
464.85	283.47
465.21	282.60
465.58	281.68
465.95	280.60
466.32	279.70
466.68	278.77
467.05	277.86
467.42	276.98
467.78	276.06
468.15	275.18
468.52	274.54
468.88	273.64
469.25	272.88
469.62	272.24
469.98	271.55
470.35	270.89
470.72	270.28
471.08	269.61
471.45	269.08
471.82	268.53
472.18	267.91
472.55	267.44
472.92	266.91
473.28	266.45
473.65	265.95
474.02	265.48
474.38	265.10
474.75	264.78
475.11	264.45
475.48	264.21
475.85	263.99
476.21	263.74
476.58	263.58
476.94	263.43
477.31	263.26
477.67	263.13
478.04	263.05
478.41	262.97
478.77	263.00
479.14	262.90
479.50	262.93
479.87	263.01
480.23	263.10
480.60	263.16
480.96	263.26
481.33	263.50
481.69	263.72
482.06	263.94
482.42	264.10
482.79	264.38
483.15	264.68
483.52	265.03
483.88	265.38
484.25	265.78
484.61	266.19
484.98	266.64
485.34	267.21
485.71	267.75
486.07	268.36
486.44	268.92
486.80	269.62
487.17	270.33
487.53	271.18
487.90	272.02
488.26	272.95
488.62	273.93
488.99	274.92
489.35	275.94
489.72	277.04
490.08	278.27
490.44	279.50
490.81	280.83
491.17	282.19
491.54	283.65
491.90	285.19
492.26	286.86
492.63	288.58
492.99	290.36
493.36	292.30
493.72	294.35
494.08	296.46
494.45	298.73
494.81	301.10
495.17	303.50
495.54	306.06
495.90	308.74
496.26	311.50
496.63	314.41
496.99	317.55
497.35	320.77
497.72	324.15
498.08	327.67
498.44	331.31
498.80	335.27
499.17	339.32
499.53	343.46
499.89	347.84
500.26	352.34
500.62	357.02
500.98	361.98
501.34	367.02
501.71	372.36
502.07	377.77
502.43	383.41
502.79	389.22
503.16	395.29
503.52	401.58
503.88	407.97
504.24	414.65
504.60	421.56
504.97	428.75
505.33	436.13
505.69	443.84
506.05	451.62
506.41	459.46
506.78	467.62
507.14	476.11
507.50	484.88
507.86	493.94
508.22	503.12
508.59	512.28
508.95	521.89
509.31	531.73
509.67	541.91
510.03	552.14
510.39	562.72
510.75	573.54
511.12	584.51
511.48	595.87
511.84	607.34
512.20	618.85
512.56	630.86
512.92	643.03
513.28	655.40
513.64	667.91
514.00	680.63
514.37	693.60
514.73	706.73
515.09	719.74
515.45	733.04
515.81	746.67
516.17	760.69
516.53	774.86
516.89	789.11
517.25	803.22
517.61	817.68
517.97	832.07
518.33	846.50
518.69	861.27
519.05	876.26
519.41	891.50
519.77	907.08
520.13	922.41
520.49	937.77
520.85	953.19
521.21	968.98
521.57	985.26
521.93	1001.02
522.29	1017.36
522.65	1033.63
523.01	1049.93
523.37	1065.91
523.73	1081.97
524.09	1098.03
524.45	1114.41
524.81	1131.09
525.17	1148.01
525.53	1165.00
525.89	1181.90
526.25	1198.65
526.61	1215.11
526.97	1231.84
527.33	1248.20
527.68	1264.92
528.04	1281.39
528.40	1298.04
528.76	1315.04
529.12	1331.66
529.48	1348.52
529.84	1364.56
530.20	1381.25
530.56	1398.22
530.91	1415.58
531.27	1432.48
531.63	1449.04
531.99	1465.48
532.35	1481.27
532.71	1497.07
533.07	1513.24
533.42	1529.10
533.78	1545.25
534.14	1561.45
534.50	1576.75
534.86	1592.70
535.21	1607.83
535.57	1623.78
535.93	1639.14
536.29	1654.07
536.65	1669.07
537.00	1683.80
537.36	1698.95
537.72	1713.50
538.08	1727.89
538.44	1741.73
538.79	1755.65
539.15	1769.30
539.51	1783.01
539.87	1797.51
540.22	1811.33
540.58	1825.25
540.94	1838.63
541.29	1851.44
541.65	1864.04
542.01	1877.24
542.37	1889.63
542.72	1902.07
543.08	1913.87
543.44	1926.35
543.79	1937.38
544.15	1948.46
544.51	1960.10
544.87	1971.19
545.22	1981.94
545.58	1992.10
545.94	2001.92
546.29	2011.68
546.65	2021.46
547.01	2030.74
547.36	2039.43
547.72	2047.78
548.07	2055.44
548.43	2063.68
548.79	2071.77
549.14	2079.42
549.50	2086.80
549.86	2094.38
550.21	2101.75
550.57	2108.78
550.92	2115.43
551.28	2122.54
551.64	2129.60
551.99	2136.19
552.35	2142.40
552.70	2148.40
553.06	2154.37
553.41	2160.71
553.77	2166.82
554.13	2172.93
554.48	2179.11
554.84	2184.52
555.19	2189.89
555.55	2195.16
555.90	2199.51
556.26	2204.39
556.61	2209.03
556.97	2213.22
557.32	2217.41
557.68	2221.49
558.03	2225.92
558.39	2229.52
558.74	2234.12
559.10	2237.87
559.45	2241.38
559.81	2245.63
560.16	2249.55
560.52	2252.78
560.87	2256.22
561.23	2258.76
561.58	2261.72
561.94	2264.25
562.29	2266.63
562.64	2269.15
563.00	2271.83
563.35	2275.43
563.71	2278.45
564.06	2281.70
564.42	2284.56
564.77	2287.04
565.12	2289.28
565.48	2291.10
565.83	2293.02
566.19	2294.30
566.54	2295.22
566.89	2296.41
567.25	2296.99
567.60	2298.30
567.96	2300.05
568.31	2300.88
568.66	2302.02
569.02	2302.60
569.37	2302.85
569.72	2303.72
570.08	2303.92
570.43	2303.77
570.78	2303.18
571.14	2301.74
571.49	2300.40
571.84	2300.14
572.20	2298.92
572.55	2297.84
572.90	2296.35
573.26	2294.92
573.61	2293.27
573.96	2291.51
574.31	2288.51
574.67	2285.44
575.02	2281.87
575.37	2278.47
575.72	2274.51
576.08	2271.17
576.43	2267.77
576.78	2264.04
577.13	2260.85
577.49	2257.73
577.84	2254.31
578.19	2250.56
578.54	2246.85
578.90	2242.56
579.25	2237.02
579.60	2232.09
579.95	2227.27
580.30	2222.18
580.66	2217.07
581.01	2212.01
581.36	2207.11
581.71	2203.01
582.06	2198.43
582.42	2193.88
582.77	2188.63
583.12	2184.07
583.47	2179.34
583.82	2174.21
584.17	2169.08
584.53	2163.57
584.88	2157.84
585.23	2151.95
585.58	2146.44
585.93	2141.03
586.28	2136.30
586.63	2131.17
586.98	2126.04
587.34	2121.19
587.69	2116.30
588.04	2110.91
588.39	2105.29
588.74	2098.82
589.09	2092.62
589.44	2085.93
589.79	2080.05
590.14	2074.37
590.49	2067.95
590.84	2061.63
591.19	2055.72
591.54	2049.13
591.89	2041.79
592.25	2034.99
592.60	2027.89
592.95	2020.21
593.30	2012.92
593.65	2005.31
594.00	1998.34
594.35	1991.09
594.70	1983.09
595.05	1975.79
595.40	1968.53
595.75	1961.00
596.10	1954.68
596.45	1947.84
596.80	1941.61
597.15	1934.88
597.50	1927.71
597.85	1921.15
598.19	1914.40
598.54	1907.14
598.89	1900.48
599.24	1894.58
599.59	1887.93
599.94	1881.73
600.29	1875.45
600.64	1868.76
600.99	1861.26
601.34	1854.31
601.69	1847.45
602.04	1840.51
602.39	1833.27
602.74	1826.46
603.08	1819.72
603.43	1813.02
603.78	1805.78
604.13	1798.52
604.48	1791.19
604.83	1784.29
605.18	1777.22
605.53	1769.30
605.87	1761.40
606.22	1754.20
606.57	1746.25
606.92	1739.00
607.27	1731.86
607.62	1724.86
607.96	1717.59
608.31	1710.88
608.66	1703.25
609.01	1695.58
609.36	1688.08
609.70	1679.91
610.05	1671.76
610.40	1663.98
610.75	1655.62
611.10	1647.83
611.44	1639.54
611.79	1631.57
612.14	1622.85
612.49	1613.73
612.83	1605.28
613.18	1597.17
613.53	1589.02
613.88	1580.47
614.22	1572.11
614.57	1563.34
614.92	1555.32
615.27	1547.71
615.61	1539.45
615.96	1531.49
616.31	1523.91
616.65	1516.44
617.00	1508.98
617.35	1501.40
617.70	1493.09
618.04	1484.65
618.39	1476.50
618.74	1468.82
619.08	1460.40
619.43	1453.02
619.78	1446.18
620.12	1439.01
620.47	1431.48
620.82	1423.34
621.16	1415.97
621.51	1408.32
621.85	1400.77
622.20	1392.19
622.55	1383.84
622.89	1376.00
623.24	1368.33
623.59	1360.88
623.93	1353.27
624.28	1346.02
624.62	1338.39
624.97	1331.32
625.32	1324.52
625.66	1317.43
626.01	1310.28
626.35	1302.83
626.70	1295.00
627.04	1287.22
627.39	1279.41
627.73	1272.03
628.08	1265.11
628.43	1257.68
628.77	1250.35
629.12	1242.84
629.46	1235.73
629.81	1228.38
630.15	1221.15
630.50	1213.74
630.84	1205.57
631.19	1197.75
631.53	1190.29
631.88	1182.79
632.22	1175.11
632.57	1167.85
632.91	1160.35
633.26	1152.94
633.60	1145.70
633.95	1138.62
634.29	1131.67
634.64	1125.01
634.98	1117.58
635.32	1110.38
635.67	1103.82
636.01	1097.24
636.36	1090.34
636.70	1083.83
637.05	1077.22
637.39	1070.71
637.73	1064.17
638.08	1058.34
638.42	1052.30
638.77	1045.93
639.11	1039.27
639.45	1032.89
639.80	1026.10
640.14	1019.66
640.49	1013.20
640.83	1006.88
641.17	1000.58
641.52	994.15
641.86	987.69
642.20	981.86
642.55	975.73
642.89	969.22
643.23	962.61
643.58	956.89
643.92	950.60
644.26	944.48
644.61	938.53
644.95	932.49
645.29	925.81
645.64	919.03
645.98	912.58
646.32	906.83
646.66	900.80
647.01	895.05
647.35	889.38
647.69	883.45
648.04	877.91
648.38	872.12
648.72	866.15
649.06	860.16
649.41	854.28
649.75	848.21
650.09	842.29
650.43	836.58
650.78	830.37
651.12	824.51
651.46	818.82
651.80	813.02
652.14	807.67
652.49	802.32
652.83	797.21
653.17	791.49
653.51	785.73
653.85	780.34
654.20	774.75
654.54	768.76
654.88	763.08
655.22	757.17
655.56	751.52
655.90	746.02
656.25	740.76
656.59	735.39
656.93	730.29
657.27	725.13
657.61	719.67
657.95	714.58
658.29	709.47
658.64	704.22
658.98	698.91
659.32	693.42
659.66	688.25
660.00	682.89
660.34	677.97
660.68	673.11
661.02	668.10
661.36	663.30
661.70	658.77
662.05	654.38
662.39	650.08
662.73	645.59
663.07	641.20
663.41	636.75
663.75	632.28
664.09	627.66
664.43	623.28
664.77	619.20
665.11	614.94
665.45	610.86
665.79	606.73
666.13	602.64
666.47	598.54
666.81	594.33
667.15	590.23
667.49	586.34
667.83	582.52
668.17	578.64
668.51	574.64
668.85	570.62
669.19	566.81
669.53	562.92
669.87	559.06
670.21	555.40
670.55	551.73
670.89	548.25
671.23	544.88
671.57	541.33
671.91	537.79
672.25	534.32
672.58	530.76
672.92	527.37
673.26	524.22
673.60	521.10
673.94	518.05
674.28	515.16
674.62	512.17
674.96	509.08
675.30	506.05
675.64	503.10
675.97	500.34
676.31	497.38
676.65	494.47
676.99	491.75
677.33	488.89
677.67	486.09
678.01	483.06
678.34	480.06
678.68	477.23
679.02	474.36
679.36	471.61
679.70	468.91
680.04	466.12
680.37	463.16
680.71	460.34
681.05	457.68
681.39	454.94
681.73	452.29
682.06	449.74
682.40	447.28
682.74	444.78
683.08	442.19
683.42	439.64
683.75	437.12
684.09	434.61
684.43	432.12
684.77	429.60
685.10	427.32
685.44	425.04
685.78	422.71
686.12	420.49
686.45	418.19
686.79	415.90
687.13	413.78
687.46	411.67
687.80	409.54
688.14	407.33
688.48	405.26
688.81	403.06
689.15	400.91
689.49	398.72
689.82	396.62
690.16	394.59
690.50	392.63
690.83	390.70
691.17	388.73
691.51	386.86
691.84	385.07
692.18	383.07
692.52	381.09
692.85	379.22
693.19	377.30
693.52	375.50
693.86	373.69
694.20	371.91
694.53	370.09
694.87	368.24
695.21	366.47
695.54	364.65
695.88	362.95
696.21	361.23
696.55	359.51
696.88	357.80
697.22	356.12
697.56	354.50
697.89	352.82
698.23	351.11
698.56	349.46
698.90	347.82
699.23	346.23
699.57	344.65
699.90	343.08
700.24	341.55
700.58	339.97
700.91	338.50
701.25	337.05
701.58	335.69
701.92	334.38
702.25	333.01
702.59	331.64
702.92	330.28
703.26	328.92
703.59	327.66
703.93	326.50
704.26	325.27
704.60	323.99
704.93	322.73
705.26	321.53
705.60	320.39
705.93	319.23
706.27	318.18
706.60	317.13
706.94	316.04
707.27	314.93
707.61	313.90
707.94	312.84
708.27	311.72
708.61	310.68
708.94	309.65
709.28	308.65
709.61	307.72
709.94	306.78
710.28	305.76
710.61	304.79
710.95	303.74
711.28	302.83
711.61	301.87
711.95	300.98
712.28	300.05
712.61	299.05
712.95	298.12
713.28	297.23
713.61	296.36
713.95	295.49
714.28	294.69
714.61	293.85
714.95	293.02
715.28	292.15
715.61	291.28
715.95	290.42
716.28	289.56
716.61	288.72
716.95	287.87
717.28	287.15
717.61	286.41
717.94	285.66
718.28	284.82
718.61	284.10
718.94	283.40
719.27	282.75
719.61	282.12
719.94	281.49
720.27	280.78
720.60	280.08
720.94	279.46
721.27	278.84
721.60	278.21
721.93	277.58
722.27	277.04
722.60	276.47
722.93	275.89
723.26	275.40
723.59	274.86
723.93	274.33
724.26	273.77
724.59	273.20
724.92	272.68
725.25	272.18
725.59	271.69
725.92	271.18
726.25	270.65
726.58	270.16
726.91	269.63
727.24	269.16
727.57	268.70
727.91	268.20
728.24	267.68
728.57	267.22
728.90	266.78
729.23	266.28
729.56	265.86
729.89	265.38
730.22	264.87
730.55	264.38
730.89	263.89
731.22	263.44
731.55	262.99
731.88	262.53
732.21	262.13
732.54	261.64
732.87	261.19
733.20	260.82
733.53	260.38
733.86	260.05
734.19	259.65
734.52	259.28
734.85	258.96
735.18	258.61
735.51	258.25
735.84	257.88
736.17	257.58
736.50	257.17
736.83	256.95
737.16	256.61
737.49	256.28
737.82	255.95
738.15	255.62
738.48	255.30
738.81	254.98
739.14	254.65
739.47	254.38
739.80	254.07
740.13	253.75
740.46	253.45
740.79	253.10
741.12	252.79
741.45	252.47
741.78	252.13
742.11	251.81
742.44	251.48
742.77	251.19
743.10	250.87
743.43	250.56
743.75	250.17
744.08	250.02
744.41	249.75
744.74	249.52
745.07	249.24
745.40	249.00
745.73	248.77
746.06	248.51
746.39	248.30
746.71	248.02
747.04	247.74
747.37	247.51
747.70	247.24
748.03	247.00
748.36	246.79
748.68	246.54
749.01	246.31
749.34	246.05
749.67	245.84
750.00	245.60
750.33	245.44
750.65	245.24
750.98	244.88
751.31	244.66
751.64	244.43
751.97	244.29
752.29	244.03
752.62	243.78
752.95	243.55
753.28	243.30
753.60	243.12
753.93	242.93
754.26	242.70
754.59	242.50
754.91	242.33
755.24	242.10
755.57	241.91
755.90	241.71
756.22	241.55
756.55	241.33
756.88	241.17
757.20	240.94
757.53	240.74
757.86	240.56
758.19	240.41
758.51	240.23
758.84	240.02
759.17	239.92
759.49	239.79
759.82	239.66
760.15	239.52
760.47	239.38
760.80	239.21
761.13	239.14
761.45	239.00
761.78	238.85
762.11	238.70
762.43	238.56
762.76	238.42
763.08	238.30
763.41	238.18
763.74	238.01
764.06	237.88
764.39	237.73
764.71	237.63
765.04	237.49
765.37	237.36
765.69	237.21
766.02	237.05
766.34	236.92
766.67	236.79
767.00	236.69
767.32	236.60
767.65	236.56
767.97	236.44
768.30	236.28
768.62	236.15
768.95	236.05
769.27	235.93
769.60	235.87
769.92	235.74
770.25	235.62
770.57	235.50
770.90	235.41
771.22	235.30
771.55	235.19
771.87	235.09
772.20	234.99
772.52	234.98
772.85	235.01
773.17	234.89
773.50	234.78
773.82	234.67
774.15	234.52
774.47	234.36
774.80	234.20
775.12	234.19
775.45	234.11
775.77	234.00
776.09	233.93
776.42	233.80
776.74	233.75
777.07	233.66
777.39	233.63
777.72	233.55
778.04	233.51
778.36	233.42
778.69	233.38
779.01	233.31
779.33	233.18
779.66	233.00
779.98	232.97
780.31	232.92
780.63	232.88
780.95	232.84
781.28	232.76
781.60	232.73
781.92	232.63
782.25	232.60
782.57	232.57
782.89	232.48
783.22	232.44
783.54	232.37
783.86	232.33
784.19	232.24
784.51	232.23
784.83	232.17
785.16	232.11
785.48	232.03
785.80	232.04
786.12	232.01
786.45	231.96
786.77	231.87
787.09	231.82
