SpectraSuite Data File
++++++++++++++++++++++++++++++++++++
Date: Fri Feb 01 18:11:10 EST 2013
User: group
Dark Spectrum Present: No
Reference Spectrum Present: No
Number of Sampled Component Spectra: 1
Spectrometers: USB2E7196
Integration Time (usec): 35000 (USB2E7196)
Spectra Averaged: 100 (USB2E7196)
Boxcar Smoothing: 10 (USB2E7196)
Correct for Electrical Dark: No (USB2E7196)
Strobe/Lamp Enabled: No (USB2E7196)
Correct for Detector Non-linearity: No (USB2E7196)
Correct for Stray Light: No (USB2E7196)
Number of Pixels in Processed Spectrum: 2048
>>>>>Begin Processed Spectral Data<<<<<
339.09	0.00
339.48	213.03
339.86	214.72
340.24	216.24
340.63	217.10
341.01	220.08
341.39	219.85
341.78	221.21
342.16	223.03
342.54	223.18
342.93	211.51
343.31	222.18
343.69	222.71
344.07	223.16
344.46	223.55
344.84	223.96
345.22	224.21
345.60	224.46
345.99	224.63
346.37	224.73
346.75	224.83
347.13	224.90
347.52	224.95
347.90	225.04
348.28	225.08
348.66	225.10
349.05	225.11
349.43	225.14
349.81	225.15
350.19	225.17
350.57	225.26
350.96	225.31
351.34	225.38
351.72	225.48
352.10	225.56
352.48	225.64
352.87	225.69
353.25	225.75
353.63	225.81
354.01	225.88
354.39	225.97
354.77	226.05
355.15	226.12
355.54	226.19
355.92	226.24
356.30	226.28
356.68	226.46
357.06	226.53
357.44	226.62
357.82	226.68
358.20	226.78
358.58	226.83
358.97	226.89
359.35	226.98
359.73	227.05
360.11	227.09
360.49	227.13
360.87	227.16
361.25	227.22
361.63	227.30
362.01	227.37
362.39	227.37
362.77	227.42
363.15	227.44
363.53	227.48
363.91	227.50
364.29	227.56
364.67	227.48
365.05	227.50
365.43	227.53
365.81	227.57
366.19	227.62
366.57	227.68
366.95	227.67
367.33	227.63
367.71	227.63
368.09	227.70
368.47	227.72
368.85	227.73
369.23	227.74
369.61	227.70
369.99	227.69
370.37	227.72
370.75	227.74
371.13	227.70
371.51	227.64
371.89	227.62
372.27	227.58
372.65	227.55
373.03	227.50
373.41	227.45
373.78	227.40
374.16	227.32
374.54	227.24
374.92	227.19
375.30	227.17
375.68	227.09
376.06	227.00
376.44	226.97
376.82	226.93
377.19	226.87
377.57	226.82
377.95	226.75
378.33	226.70
378.71	226.58
379.09	226.56
379.47	226.54
379.84	226.48
380.22	226.41
380.60	226.33
380.98	226.27
381.36	226.19
381.73	226.13
382.11	226.08
382.49	226.06
382.87	225.97
383.25	225.94
383.62	226.00
384.00	225.95
384.38	225.88
384.76	225.79
385.13	225.76
385.51	225.69
385.89	225.61
386.27	225.55
386.64	225.53
387.02	225.44
387.40	225.39
387.78	225.33
388.15	225.28
388.53	225.23
388.91	225.19
389.29	225.17
389.66	225.14
390.04	225.13
390.42	225.09
390.79	225.07
391.17	225.03
391.55	224.91
391.92	224.89
392.30	224.90
392.68	224.91
393.05	224.88
393.43	224.88
393.81	224.87
394.18	224.82
394.56	224.81
394.94	224.87
395.31	224.88
395.69	224.96
396.06	225.00
396.44	225.06
396.82	225.08
397.19	225.15
397.57	225.19
397.95	225.24
398.32	225.21
398.70	225.29
399.07	225.38
399.45	225.42
399.82	225.50
400.20	225.53
400.58	225.58
400.95	225.63
401.33	225.76
401.70	225.92
402.08	226.07
402.45	226.19
402.83	226.31
403.20	226.42
403.58	226.51
403.95	226.63
404.33	226.74
404.71	226.91
405.08	227.11
405.46	227.25
405.83	227.41
406.21	227.63
406.58	227.83
406.96	228.00
407.33	228.21
407.70	228.47
408.08	228.78
408.45	229.08
408.83	229.37
409.20	229.61
409.58	229.86
409.95	230.18
410.33	230.52
410.70	230.85
411.08	231.25
411.45	231.65
411.82	232.04
412.20	232.53
412.57	233.06
412.95	233.44
413.32	234.00
413.69	234.54
414.07	235.11
414.44	235.72
414.82	236.36
415.19	237.13
415.56	237.88
415.94	238.63
416.31	239.51
416.68	240.39
417.06	241.38
417.43	242.33
417.81	243.38
418.18	244.45
418.55	245.62
418.93	246.83
419.30	248.07
419.67	249.44
420.04	250.75
420.42	252.12
420.79	253.77
421.16	255.39
421.54	257.04
421.91	258.77
422.28	260.55
422.66	262.46
423.03	264.27
423.40	266.12
423.77	268.14
424.15	270.13
424.52	272.20
424.89	274.45
425.26	276.67
425.64	278.71
426.01	280.94
426.38	283.25
426.75	285.61
427.13	288.06
427.50	290.58
427.87	293.25
428.24	295.95
428.61	298.46
428.99	301.19
429.36	304.21
429.73	307.09
430.10	309.95
430.47	312.88
430.85	315.88
431.22	319.04
431.59	322.29
431.96	325.47
432.33	329.03
432.70	332.43
433.08	336.38
433.45	340.08
433.82	343.81
434.19	347.86
434.56	351.79
434.93	355.47
435.30	359.15
435.68	363.24
436.05	367.16
436.42	371.05
436.79	374.60
437.16	378.42
437.53	382.49
437.90	386.42
438.27	390.24
438.64	394.22
439.01	397.85
439.38	401.06
439.75	404.13
440.13	407.60
440.50	410.83
440.87	413.43
441.24	416.16
441.61	419.21
441.98	421.36
442.35	423.93
442.72	426.58
443.09	429.14
443.46	430.54
443.83	431.42
444.20	432.18
444.57	433.34
444.94	433.70
445.31	434.12
445.68	434.56
446.05	434.64
446.42	434.08
446.79	433.53
447.16	432.94
447.53	432.43
447.90	430.78
448.27	429.17
448.64	426.91
449.01	425.35
449.37	422.51
449.74	419.81
450.11	416.60
450.48	413.13
450.85	409.54
451.22	406.49
451.59	403.58
451.96	400.84
452.33	397.19
452.70	393.89
453.07	389.88
453.43	385.85
453.80	381.98
454.17	378.23
454.54	374.65
454.91	370.83
455.28	367.07
455.65	363.55
456.02	360.01
456.38	357.00
456.75	353.22
457.12	350.13
457.49	347.00
457.86	343.94
458.23	341.29
458.59	338.41
458.96	335.46
459.33	332.83
459.70	330.16
460.07	328.01
460.43	325.53
460.80	323.26
461.17	321.17
461.54	319.05
461.91	317.03
462.27	314.93
462.64	313.08
463.01	311.13
463.38	309.27
463.74	307.41
464.11	305.72
464.48	304.26
464.85	302.63
465.21	301.39
465.58	300.11
465.95	298.59
466.32	297.28
466.68	295.99
467.05	294.74
467.42	293.44
467.78	292.12
468.15	290.87
468.52	289.91
468.88	288.71
469.25	287.61
469.62	286.69
469.98	285.76
470.35	284.91
470.72	284.07
471.08	283.14
471.45	282.35
471.82	281.55
472.18	280.67
472.55	280.07
472.92	279.28
473.28	278.60
473.65	277.94
474.02	277.32
474.38	276.76
474.75	276.28
475.11	275.78
475.48	275.38
475.85	275.05
476.21	274.68
476.58	274.40
476.94	274.13
477.31	273.82
477.67	273.58
478.04	273.32
478.41	273.16
478.77	273.13
479.14	273.01
479.50	272.95
479.87	272.98
480.23	272.97
480.60	272.99
480.96	272.99
481.33	273.14
481.69	273.26
482.06	273.41
482.42	273.60
482.79	273.80
483.15	274.08
483.52	274.41
483.88	274.76
484.25	275.09
484.61	275.50
484.98	275.95
485.34	276.47
485.71	277.05
486.07	277.68
486.44	278.26
486.80	278.95
487.17	279.71
487.53	280.53
487.90	281.38
488.26	282.34
488.62	283.40
488.99	284.39
489.35	285.51
489.72	286.75
490.08	288.00
490.44	289.32
490.81	290.74
491.17	292.18
491.54	293.72
491.90	295.35
492.26	297.15
492.63	299.00
492.99	300.91
493.36	302.96
493.72	305.17
494.08	307.42
494.45	309.84
494.81	312.37
495.17	314.99
495.54	317.76
495.90	320.62
496.26	323.59
496.63	326.79
496.99	330.07
497.35	333.53
497.72	337.14
498.08	340.90
498.44	344.84
498.80	349.07
499.17	353.39
499.53	357.88
499.89	362.53
500.26	367.34
500.62	372.28
500.98	377.61
501.34	383.03
501.71	388.75
502.07	394.60
502.43	400.66
502.79	406.85
503.16	413.32
503.52	420.08
503.88	426.98
504.24	434.07
504.60	441.57
504.97	449.25
505.33	457.10
505.69	465.40
506.05	473.81
506.41	482.24
506.78	491.08
507.14	500.24
507.50	509.65
507.86	519.39
508.22	529.43
508.59	539.39
508.95	549.73
509.31	560.38
509.67	571.22
510.03	582.32
510.39	593.81
510.75	605.60
511.12	617.50
511.48	629.81
511.84	642.25
512.20	654.73
512.56	667.78
512.92	680.97
513.28	694.41
513.64	708.01
514.00	721.99
514.37	736.02
514.73	750.27
515.09	764.52
515.45	779.09
515.81	793.89
516.17	809.22
516.53	824.74
516.89	840.26
517.25	855.93
517.61	871.78
517.97	887.64
518.33	903.43
518.69	919.59
519.05	936.03
519.41	952.80
519.77	969.97
520.13	986.91
520.49	1004.08
520.85	1021.13
521.21	1038.48
521.57	1056.44
521.93	1073.99
522.29	1092.18
522.65	1110.22
523.01	1128.27
523.37	1146.26
523.73	1164.28
524.09	1182.28
524.45	1200.46
524.81	1219.15
525.17	1237.88
525.53	1256.84
525.89	1275.88
526.25	1294.84
526.61	1313.30
526.97	1332.18
527.33	1350.66
527.68	1369.46
528.04	1388.11
528.40	1406.80
528.76	1426.09
529.12	1444.86
529.48	1464.10
529.84	1482.23
530.20	1501.10
530.56	1520.34
530.91	1540.08
531.27	1559.25
531.63	1578.05
531.99	1597.12
532.35	1615.50
532.71	1633.86
533.07	1652.63
533.42	1671.06
533.78	1689.75
534.14	1708.55
534.50	1726.35
534.86	1744.81
535.21	1762.51
535.57	1780.94
535.93	1798.93
536.29	1816.23
536.65	1833.88
537.00	1851.05
537.36	1869.12
537.72	1886.25
538.08	1903.35
538.44	1919.60
538.79	1935.99
539.15	1951.98
539.51	1968.22
539.87	1985.09
540.22	2001.32
540.58	2017.58
540.94	2033.27
541.29	2048.45
541.65	2063.77
542.01	2079.64
542.37	2094.46
542.72	2109.48
543.08	2123.93
543.44	2139.03
543.79	2152.96
544.15	2166.41
544.51	2180.63
544.87	2194.10
545.22	2207.54
545.58	2220.33
545.94	2232.63
546.29	2244.98
546.65	2257.58
547.01	2269.31
547.36	2280.36
547.72	2291.45
548.07	2301.77
548.43	2312.35
548.79	2322.76
549.14	2332.73
549.50	2342.26
549.86	2352.17
550.21	2361.74
550.57	2371.14
550.92	2380.05
551.28	2389.22
551.64	2398.52
551.99	2407.22
552.35	2415.52
552.70	2423.74
553.06	2431.87
553.41	2440.28
553.77	2448.29
554.13	2456.39
554.48	2464.62
554.84	2472.34
555.19	2479.48
555.55	2486.66
555.90	2493.11
556.26	2500.19
556.61	2506.66
556.97	2512.98
557.32	2519.12
557.68	2525.09
558.03	2531.12
558.39	2536.41
558.74	2542.88
559.10	2548.60
559.45	2553.93
559.81	2559.82
560.16	2565.41
560.52	2570.27
560.87	2575.35
561.23	2579.59
561.58	2583.97
561.94	2587.99
562.29	2591.54
562.64	2595.94
563.00	2599.86
563.35	2604.91
563.71	2609.45
564.06	2613.97
564.42	2618.21
564.77	2622.11
565.12	2625.83
565.48	2629.18
565.83	2632.58
566.19	2635.23
566.54	2637.10
566.89	2639.66
567.25	2641.61
567.60	2643.97
567.96	2646.96
568.31	2648.70
568.66	2650.92
569.02	2652.63
569.37	2653.98
569.72	2655.98
570.08	2657.00
570.43	2657.82
570.78	2658.05
571.14	2657.00
571.49	2656.22
571.84	2656.40
572.20	2655.93
572.55	2655.32
572.90	2654.00
573.26	2652.95
573.61	2651.61
573.96	2650.57
574.31	2647.71
574.67	2644.70
575.02	2641.12
575.37	2637.63
575.72	2634.14
576.08	2630.76
576.43	2627.24
576.78	2623.62
577.13	2620.36
577.49	2617.02
577.84	2613.56
578.19	2609.54
578.54	2605.87
578.90	2601.80
579.25	2596.09
579.60	2590.85
579.95	2585.56
580.30	2580.35
580.66	2574.79
581.01	2569.33
581.36	2563.78
581.71	2559.28
582.06	2554.71
582.42	2550.05
582.77	2544.45
583.12	2539.53
583.47	2534.79
583.82	2529.65
584.17	2523.92
584.53	2517.95
584.88	2511.87
585.23	2505.66
585.58	2499.65
585.93	2493.51
586.28	2487.99
586.63	2482.46
586.98	2476.78
587.34	2471.43
587.69	2465.73
588.04	2459.94
588.39	2453.55
588.74	2446.20
589.09	2439.13
589.44	2431.42
589.79	2424.41
590.14	2417.78
590.49	2410.15
590.84	2402.47
591.19	2395.62
591.54	2388.06
591.89	2379.83
592.25	2371.98
592.60	2363.60
592.95	2355.01
593.30	2346.64
593.65	2337.79
594.00	2329.39
594.35	2320.86
594.70	2311.41
595.05	2303.37
595.40	2294.93
595.75	2286.22
596.10	2279.15
596.45	2271.33
596.80	2264.23
597.15	2256.61
597.50	2248.61
597.85	2241.03
598.19	2233.24
598.54	2224.96
598.89	2217.22
599.24	2210.12
599.59	2202.57
599.94	2195.12
600.29	2187.52
600.64	2179.59
600.99	2170.93
601.34	2162.94
601.69	2154.71
602.04	2146.87
602.39	2138.10
602.74	2129.99
603.08	2121.92
603.43	2113.74
603.78	2105.08
604.13	2096.32
604.48	2087.63
604.83	2079.31
605.18	2071.25
605.53	2061.88
605.87	2052.24
606.22	2043.47
606.57	2033.90
606.92	2024.79
607.27	2016.37
607.62	2008.24
607.96	1999.63
608.31	1991.93
608.66	1982.94
609.01	1974.02
609.36	1964.97
609.70	1955.29
610.05	1945.67
610.40	1936.66
610.75	1926.83
611.10	1917.64
611.44	1907.39
611.79	1897.69
612.14	1887.34
612.49	1876.24
612.83	1866.18
613.18	1856.38
613.53	1846.68
613.88	1836.52
614.22	1826.54
614.57	1816.13
614.92	1806.45
615.27	1797.56
615.61	1787.53
615.96	1777.81
616.31	1768.49
616.65	1759.55
617.00	1750.44
617.35	1741.06
617.70	1731.14
618.04	1720.94
618.39	1710.97
618.74	1702.08
619.08	1692.17
619.43	1683.01
619.78	1674.66
620.12	1666.18
620.47	1657.23
620.82	1647.44
621.16	1638.41
621.51	1629.25
621.85	1619.99
622.20	1609.78
622.55	1599.68
622.89	1590.13
623.24	1580.91
623.59	1571.96
623.93	1562.89
624.28	1554.26
624.62	1545.36
624.97	1536.53
625.32	1528.36
625.66	1519.88
626.01	1511.22
626.35	1502.46
626.70	1493.18
627.04	1483.88
627.39	1474.29
627.73	1465.35
628.08	1457.04
628.43	1448.38
628.77	1439.60
629.12	1430.53
629.46	1421.87
629.81	1412.75
630.15	1404.08
630.50	1395.17
630.84	1385.46
631.19	1375.89
631.53	1366.83
631.88	1357.66
632.22	1348.63
632.57	1339.75
632.91	1330.79
633.26	1321.94
633.60	1312.92
633.95	1304.27
634.29	1295.73
634.64	1287.75
634.98	1278.82
635.32	1270.24
635.67	1262.17
636.01	1254.18
636.36	1246.14
636.70	1238.24
637.05	1230.46
637.39	1222.69
637.73	1214.99
638.08	1207.86
638.42	1200.77
638.77	1193.03
639.11	1185.29
639.45	1177.59
639.80	1169.70
640.14	1162.17
640.49	1154.27
640.83	1146.76
641.17	1139.50
641.52	1132.11
641.86	1124.43
642.20	1117.50
642.55	1109.89
642.89	1102.34
643.23	1094.47
643.58	1087.56
643.92	1080.23
644.26	1073.16
644.61	1065.93
644.95	1058.77
645.29	1051.07
645.64	1043.03
645.98	1035.54
646.32	1028.37
646.66	1021.19
647.01	1014.37
647.35	1007.48
647.69	1000.51
648.04	993.99
648.38	987.05
648.72	979.97
649.06	972.87
649.41	965.92
649.75	959.00
650.09	951.88
650.43	945.07
650.78	937.91
651.12	930.96
651.46	924.10
651.80	917.41
652.14	911.01
652.49	904.72
652.83	898.59
653.17	891.99
653.51	885.39
653.85	879.02
654.20	872.37
654.54	865.31
654.88	858.58
655.22	851.55
655.56	844.78
655.90	838.28
656.25	832.05
656.59	825.74
656.93	819.59
657.27	813.61
657.61	807.20
657.95	801.13
658.29	795.08
658.64	788.79
658.98	782.43
659.32	775.93
659.66	769.77
660.00	763.49
660.34	757.63
660.68	751.77
661.02	745.79
661.36	740.18
661.70	734.90
662.05	729.84
662.39	724.84
662.73	719.58
663.07	714.34
663.41	709.10
663.75	703.79
664.09	698.45
664.43	693.24
664.77	688.45
665.11	683.41
665.45	678.50
665.79	673.75
666.13	668.96
666.47	664.21
666.81	659.27
667.15	654.38
667.49	649.76
667.83	645.24
668.17	640.69
668.51	635.88
668.85	631.06
669.19	626.44
669.53	621.88
669.87	617.43
670.21	613.13
670.55	608.84
670.89	604.82
671.23	600.80
671.57	596.59
671.91	592.45
672.25	588.31
672.58	584.17
672.92	580.15
673.26	576.35
673.60	572.54
673.94	568.86
674.28	565.46
674.62	561.98
674.96	558.40
675.30	554.96
675.64	551.52
675.97	548.32
676.31	544.91
676.65	541.48
676.99	538.24
677.33	534.85
677.67	531.55
678.01	527.97
678.34	524.48
678.68	521.10
679.02	517.77
679.36	514.51
679.70	511.37
680.04	508.14
680.37	504.82
680.71	501.56
681.05	498.52
681.39	495.34
681.73	492.19
682.06	489.20
682.40	486.24
682.74	483.32
683.08	480.25
683.42	477.23
683.75	474.28
684.09	471.27
684.43	468.35
684.77	465.41
685.10	462.66
685.44	459.95
685.78	457.25
686.12	454.54
686.45	451.88
686.79	449.14
687.13	446.56
687.46	443.97
687.80	441.36
688.14	438.66
688.48	436.18
688.81	433.55
689.15	430.99
689.49	428.38
689.82	425.87
690.16	423.40
690.50	421.08
690.83	418.79
691.17	416.36
691.51	414.11
691.84	411.92
692.18	409.64
692.52	407.36
692.85	405.08
693.19	402.89
693.52	400.69
693.86	398.50
694.20	396.33
694.53	394.23
694.87	392.08
695.21	389.97
695.54	387.79
695.88	385.74
696.21	383.68
696.55	381.68
696.88	379.69
697.22	377.70
697.56	375.71
697.89	373.73
698.23	371.85
698.56	369.97
698.90	368.10
699.23	366.19
699.57	364.27
699.90	362.45
700.24	360.63
700.58	358.86
700.91	357.16
701.25	355.42
701.58	353.74
701.92	352.12
702.25	350.51
702.59	348.95
702.92	347.42
703.26	345.86
703.59	344.40
703.93	343.02
704.26	341.60
704.60	340.17
704.93	338.69
705.26	337.25
705.60	335.81
705.93	334.45
706.27	333.21
706.60	331.97
706.94	330.68
707.27	329.30
707.61	327.97
707.94	326.73
708.27	325.49
708.61	324.28
708.94	323.09
709.28	321.93
709.61	320.75
709.94	319.59
710.28	318.41
710.61	317.22
710.95	315.91
711.28	314.76
711.61	313.62
711.95	312.53
712.28	311.38
712.61	310.27
712.95	309.15
713.28	308.05
713.61	306.98
713.95	305.95
714.28	304.97
714.61	303.99
714.95	302.98
715.28	301.97
715.61	300.88
715.95	299.88
716.28	298.88
716.61	297.92
716.95	296.91
717.28	296.03
717.61	295.15
717.94	294.28
718.28	293.37
718.61	292.48
718.94	291.63
719.27	290.88
719.61	290.11
719.94	289.32
720.27	288.49
720.60	287.70
720.94	286.97
721.27	286.32
721.60	285.64
721.93	284.93
722.27	284.24
722.60	283.63
722.93	282.96
723.26	282.35
723.59	281.69
723.93	281.05
724.26	280.39
724.59	279.71
724.92	279.11
725.25	278.51
725.59	277.88
725.92	277.26
726.25	276.66
726.58	276.10
726.91	275.51
727.24	274.95
727.57	274.39
727.91	273.79
728.24	273.15
728.57	272.55
728.90	272.00
729.23	271.42
729.56	270.91
729.89	270.34
730.22	269.71
730.55	269.14
730.89	268.65
731.22	268.11
731.55	267.59
731.88	267.04
732.21	266.53
732.54	266.08
732.87	265.62
733.20	265.10
733.53	264.61
733.86	264.19
734.19	263.75
734.52	263.29
734.85	262.88
735.18	262.40
735.51	261.96
735.84	261.51
736.17	261.13
736.50	260.64
736.83	260.37
737.16	260.02
737.49	259.63
737.82	259.19
738.15	258.82
738.48	258.43
738.81	258.05
739.14	257.67
739.47	257.26
739.80	256.90
740.13	256.56
740.46	256.19
740.79	255.80
741.12	255.42
741.45	255.09
741.78	254.71
742.11	254.41
742.44	254.02
742.77	253.69
743.10	253.32
743.43	253.01
743.75	252.53
744.08	252.32
744.41	252.00
744.74	251.71
745.07	251.35
745.40	251.08
745.73	250.78
746.06	250.46
746.39	250.20
746.71	249.86
747.04	249.56
747.37	249.25
747.70	248.99
748.03	248.68
748.36	248.41
748.68	248.14
749.01	247.83
749.34	247.59
749.67	247.30
750.00	247.01
750.33	246.80
750.65	246.57
750.98	246.19
751.31	245.90
751.64	245.68
751.97	245.53
752.29	245.26
752.62	244.99
752.95	244.74
753.28	244.47
753.60	244.28
753.93	244.06
754.26	243.82
754.59	243.53
754.91	243.28
755.24	242.99
755.57	242.74
755.90	242.55
756.22	242.33
756.55	242.10
756.88	241.87
757.20	241.59
757.53	241.37
757.86	241.18
758.19	241.03
758.51	240.79
758.84	240.55
759.17	240.35
759.49	240.13
759.82	239.98
760.15	239.81
760.47	239.60
760.80	239.37
761.13	239.21
761.45	239.03
761.78	238.89
762.11	238.76
762.43	238.58
762.76	238.40
763.08	238.26
763.41	238.12
763.74	237.96
764.06	237.82
764.39	237.67
764.71	237.50
765.04	237.31
765.37	237.16
765.69	236.99
766.02	236.84
766.34	236.73
766.67	236.57
767.00	236.45
767.32	236.36
767.65	236.33
767.97	236.22
768.30	236.08
768.62	235.92
768.95	235.74
769.27	235.62
769.60	235.52
769.92	235.34
770.25	235.19
770.57	235.09
770.90	234.95
771.22	234.83
771.55	234.71
771.87	234.64
772.20	234.57
772.52	234.51
772.85	234.52
773.17	234.41
773.50	234.33
773.82	234.19
774.15	234.02
774.47	233.84
774.80	233.70
775.12	233.61
775.45	233.55
775.77	233.50
776.09	233.40
776.42	233.29
776.74	233.28
777.07	233.17
777.39	233.07
777.72	232.96
778.04	232.88
778.36	232.79
778.69	232.70
779.01	232.59
779.33	232.45
779.66	232.23
779.98	232.16
780.31	232.07
780.63	232.06
780.95	232.03
781.28	231.94
781.60	231.86
781.92	231.80
782.25	231.69
782.57	231.60
782.89	231.52
783.22	231.46
783.54	231.33
783.86	231.26
784.19	231.20
784.51	231.18
784.83	231.10
785.16	231.04
785.48	230.98
785.80	230.94
786.12	230.90
786.45	230.85
