SpectraSuite Data File
++++++++++++++++++++++++++++++++++++
Date: Fri Feb 01 16:10:23 EST 2013
User: group
Dark Spectrum Present: No
Reference Spectrum Present: No
Number of Sampled Component Spectra: 1
Spectrometers: USB2E7196
Integration Time (usec): 35000 (USB2E7196)
Spectra Averaged: 100 (USB2E7196)
Boxcar Smoothing: 10 (USB2E7196)
Correct for Electrical Dark: No (USB2E7196)
Strobe/Lamp Enabled: No (USB2E7196)
Correct for Detector Non-linearity: No (USB2E7196)
Correct for Stray Light: No (USB2E7196)
Number of Pixels in Processed Spectrum: 2048
>>>>>Begin Processed Spectral Data<<<<<
339.09	0.00
339.48	214.24
339.86	215.70
340.24	217.24
340.63	219.01
341.01	221.62
341.39	221.54
341.78	222.82
342.16	223.90
342.54	224.66
342.93	212.81
343.31	223.54
343.69	224.10
344.07	224.56
344.46	225.01
344.84	225.37
345.22	225.58
345.60	225.83
345.99	226.05
346.37	226.17
346.75	226.27
347.13	226.36
347.52	226.43
347.90	226.51
348.28	226.55
348.66	226.62
349.05	226.64
349.43	226.68
349.81	226.74
350.19	226.78
350.57	226.85
350.96	226.94
351.34	227.04
351.72	227.11
352.10	227.24
352.48	227.28
352.87	227.33
353.25	227.43
353.63	227.52
354.01	227.53
354.39	227.61
354.77	227.67
355.15	227.76
355.54	227.81
355.92	227.84
356.30	227.92
356.68	228.06
357.06	228.10
357.44	228.13
357.82	228.19
358.20	228.26
358.58	228.29
358.97	228.34
359.35	228.40
359.73	228.50
360.11	228.53
360.49	228.59
360.87	228.65
361.25	228.70
361.63	228.73
362.01	228.76
362.39	228.81
362.77	228.82
363.15	228.86
363.53	228.90
363.91	228.95
364.29	228.95
364.67	228.86
365.05	228.89
365.43	228.94
365.81	228.94
366.19	228.99
366.57	229.05
366.95	229.02
367.33	228.99
367.71	228.96
368.09	228.96
368.47	228.91
368.85	228.90
369.23	228.86
369.61	228.81
369.99	228.82
370.37	228.77
370.75	228.81
371.13	228.77
371.51	228.68
371.89	228.62
372.27	228.59
372.65	228.55
373.03	228.48
373.41	228.39
373.78	228.34
374.16	228.20
374.54	228.09
374.92	228.05
375.30	228.01
375.68	227.94
376.06	227.87
376.44	227.83
376.82	227.74
377.19	227.70
377.57	227.64
377.95	227.55
378.33	227.50
378.71	227.40
379.09	227.35
379.47	227.32
379.84	227.27
380.22	227.21
380.60	227.14
380.98	227.08
381.36	227.03
381.73	226.94
382.11	226.89
382.49	226.85
382.87	226.75
383.25	226.69
383.62	226.75
384.00	226.70
384.38	226.65
384.76	226.64
385.13	226.63
385.51	226.59
385.89	226.56
386.27	226.50
386.64	226.43
387.02	226.35
387.40	226.30
387.78	226.28
388.15	226.22
388.53	226.21
388.91	226.18
389.29	226.14
389.66	226.15
390.04	226.17
390.42	226.16
390.79	226.13
391.17	226.12
391.55	226.02
391.92	226.00
392.30	226.02
392.68	226.03
393.05	226.01
393.43	225.99
393.81	225.97
394.18	225.98
394.56	226.01
394.94	226.06
395.31	226.06
395.69	226.08
396.06	226.17
396.44	226.21
396.82	226.21
397.19	226.32
397.57	226.34
397.95	226.38
398.32	226.41
398.70	226.50
399.07	226.56
399.45	226.60
399.82	226.65
400.20	226.69
400.58	226.74
400.95	226.78
401.33	226.87
401.70	226.99
402.08	227.10
402.45	227.18
402.83	227.31
403.20	227.41
403.58	227.51
403.95	227.61
404.33	227.72
404.71	227.81
405.08	227.97
405.46	228.08
405.83	228.23
406.21	228.39
406.58	228.55
406.96	228.73
407.33	228.90
407.70	229.10
408.08	229.39
408.45	229.59
408.83	229.80
409.20	230.00
409.58	230.21
409.95	230.47
410.33	230.71
410.70	230.92
411.08	231.20
411.45	231.50
411.82	231.79
412.20	232.12
412.57	232.60
412.95	232.87
413.32	233.29
413.69	233.71
414.07	234.16
414.44	234.60
414.82	235.07
415.19	235.60
415.56	236.14
415.94	236.65
416.31	237.27
416.68	237.90
417.06	238.64
417.43	239.32
417.81	240.06
418.18	240.87
418.55	241.75
418.93	242.62
419.30	243.54
419.67	244.49
420.04	245.42
420.42	246.38
420.79	247.57
421.16	248.69
421.54	249.87
421.91	251.08
422.28	252.34
422.66	253.70
423.03	255.01
423.40	256.37
423.77	257.79
424.15	259.22
424.52	260.72
424.89	262.31
425.26	263.88
425.64	265.34
426.01	266.92
426.38	268.54
426.75	270.20
427.13	271.87
427.50	273.66
427.87	275.58
428.24	277.42
428.61	279.17
428.99	281.12
429.36	283.24
429.73	285.29
430.10	287.30
430.47	289.36
430.85	291.46
431.22	293.72
431.59	296.09
431.96	298.36
432.33	300.82
432.70	303.18
433.08	305.99
433.45	308.63
433.82	311.22
434.19	314.10
434.56	316.92
434.93	319.57
435.30	322.18
435.68	325.07
436.05	327.95
436.42	330.72
436.79	333.21
437.16	335.88
437.53	338.67
437.90	341.46
438.27	344.18
438.64	347.01
439.01	349.58
439.38	351.79
439.75	353.91
440.13	356.37
440.50	358.72
440.87	360.55
441.24	362.48
441.61	364.63
441.98	366.15
442.35	367.98
442.72	369.89
443.09	371.68
443.46	372.61
443.83	373.16
444.20	373.69
444.57	374.55
444.94	374.79
445.31	375.11
445.68	375.49
446.05	375.56
446.42	375.16
446.79	374.70
447.16	374.27
447.53	374.00
447.90	372.87
448.27	371.68
448.64	370.14
449.01	369.01
449.37	367.09
449.74	365.19
450.11	362.91
450.48	360.43
450.85	357.90
451.22	355.77
451.59	353.74
451.96	351.82
452.33	349.18
452.70	346.84
453.07	344.05
453.43	341.14
453.80	338.35
454.17	335.72
454.54	333.22
454.91	330.47
455.28	327.79
455.65	325.33
456.02	322.88
456.38	320.68
456.75	318.02
457.12	315.77
457.49	313.52
457.86	311.35
458.23	309.48
458.59	307.43
458.96	305.37
459.33	303.54
459.70	301.67
460.07	300.18
460.43	298.54
460.80	296.95
461.17	295.51
461.54	294.06
461.91	292.61
462.27	291.18
462.64	289.97
463.01	288.63
463.38	287.35
463.74	285.99
464.11	284.86
464.48	283.87
464.85	282.73
465.21	281.90
465.58	281.00
465.95	279.91
466.32	279.04
466.68	278.17
467.05	277.27
467.42	276.41
467.78	275.49
468.15	274.55
468.52	273.89
468.88	273.08
469.25	272.30
469.62	271.68
469.98	270.97
470.35	270.32
470.72	269.72
471.08	269.06
471.45	268.53
471.82	268.01
472.18	267.41
472.55	266.98
472.92	266.46
473.28	265.97
473.65	265.51
474.02	265.07
474.38	264.68
474.75	264.36
475.11	264.01
475.48	263.74
475.85	263.55
476.21	263.33
476.58	263.11
476.94	262.98
477.31	262.80
477.67	262.63
478.04	262.54
478.41	262.50
478.77	262.55
479.14	262.50
479.50	262.50
479.87	262.58
480.23	262.66
480.60	262.69
480.96	262.83
481.33	263.07
481.69	263.28
482.06	263.52
482.42	263.73
482.79	264.00
483.15	264.34
483.52	264.73
483.88	265.06
484.25	265.49
484.61	265.92
484.98	266.39
485.34	267.04
485.71	267.61
486.07	268.19
486.44	268.75
486.80	269.45
487.17	270.15
487.53	270.95
487.90	271.79
488.26	272.73
488.62	273.70
488.99	274.66
489.35	275.72
489.72	276.82
490.08	278.04
490.44	279.26
490.81	280.60
491.17	281.93
491.54	283.40
491.90	284.89
492.26	286.54
492.63	288.29
492.99	290.05
493.36	291.98
493.72	294.06
494.08	296.19
494.45	298.43
494.81	300.82
495.17	303.28
495.54	305.92
495.90	308.64
496.26	311.46
496.63	314.42
496.99	317.54
497.35	320.80
497.72	324.21
498.08	327.78
498.44	331.43
498.80	335.36
499.17	339.45
499.53	343.66
499.89	348.00
500.26	352.51
500.62	357.17
500.98	362.09
501.34	367.11
501.71	372.46
502.07	377.87
502.43	383.47
502.79	389.32
503.16	395.37
503.52	401.65
503.88	408.07
504.24	414.73
504.60	421.60
504.97	428.78
505.33	436.11
505.69	443.77
506.05	451.56
506.41	459.44
506.78	467.61
507.14	476.13
507.50	484.92
507.86	493.93
508.22	503.13
508.59	512.39
508.95	522.02
509.31	531.82
509.67	541.98
510.03	552.34
510.39	562.83
510.75	573.63
511.12	584.58
511.48	595.88
511.84	607.34
512.20	618.80
512.56	630.72
512.92	642.91
513.28	655.26
513.64	667.73
514.00	680.50
514.37	693.40
514.73	706.46
515.09	719.46
515.45	732.77
515.81	746.33
516.17	760.32
516.53	774.51
516.89	788.66
517.25	802.81
517.61	817.21
517.97	831.66
518.33	846.06
518.69	860.73
519.05	875.67
519.41	890.80
519.77	906.40
520.13	921.74
520.49	937.11
520.85	952.52
521.21	968.24
521.57	984.40
521.93	1000.20
522.29	1016.42
522.65	1032.69
523.01	1048.90
523.37	1064.88
523.73	1080.98
524.09	1096.97
524.45	1113.34
524.81	1129.89
525.17	1146.64
525.53	1163.47
525.89	1180.24
526.25	1197.08
526.61	1213.43
526.97	1230.14
527.33	1246.54
527.68	1263.12
528.04	1279.54
528.40	1295.99
528.76	1313.00
529.12	1329.54
529.48	1346.31
529.84	1362.31
530.20	1378.79
530.56	1395.69
530.91	1413.07
531.27	1429.80
531.63	1446.16
531.99	1462.51
532.35	1478.44
532.71	1494.30
533.07	1510.54
533.42	1526.50
533.78	1542.59
534.14	1558.76
534.50	1574.02
534.86	1589.77
535.21	1605.06
535.57	1620.90
535.93	1636.46
536.29	1651.17
536.65	1666.14
537.00	1680.88
537.36	1696.14
537.72	1710.71
538.08	1725.06
538.44	1738.79
538.79	1752.63
539.15	1766.15
539.51	1779.98
539.87	1794.31
540.22	1807.91
540.58	1821.55
540.94	1834.79
541.29	1847.55
541.65	1860.23
542.01	1873.29
542.37	1885.57
542.72	1897.76
543.08	1909.52
543.44	1921.77
543.79	1932.90
544.15	1943.84
544.51	1955.37
544.87	1966.29
545.22	1977.07
545.58	1987.36
545.94	1997.05
546.29	2006.76
546.65	2016.70
547.01	2025.92
547.36	2034.47
547.72	2042.95
548.07	2050.87
548.43	2058.94
548.79	2066.88
549.14	2074.32
549.50	2081.62
549.86	2089.33
550.21	2096.64
550.57	2103.84
550.92	2110.36
551.28	2117.41
551.64	2124.43
551.99	2130.77
552.35	2136.80
552.70	2142.94
553.06	2148.85
553.41	2155.31
553.77	2161.47
554.13	2167.53
554.48	2173.46
554.84	2179.07
555.19	2184.36
555.55	2189.48
555.90	2193.99
556.26	2198.91
556.61	2203.61
556.97	2208.00
557.32	2212.17
557.68	2216.27
558.03	2220.52
558.39	2224.16
558.74	2228.83
559.10	2232.74
559.45	2236.46
559.81	2240.87
560.16	2244.58
560.52	2247.69
560.87	2251.04
561.23	2253.66
561.58	2256.39
561.94	2259.05
562.29	2261.37
562.64	2263.89
563.00	2266.47
563.35	2269.92
563.71	2273.02
564.06	2276.40
564.42	2279.30
564.77	2281.77
565.12	2284.13
565.48	2286.05
565.83	2288.20
566.19	2289.55
566.54	2290.42
566.89	2291.67
567.25	2292.18
567.60	2293.47
567.96	2295.29
568.31	2295.96
568.66	2297.02
569.02	2297.84
569.37	2298.15
569.72	2299.18
570.08	2299.57
570.43	2299.62
570.78	2299.13
571.14	2297.59
571.49	2296.24
571.84	2295.93
572.20	2294.84
572.55	2293.78
572.90	2292.13
573.26	2290.62
573.61	2288.80
573.96	2287.04
574.31	2284.20
574.67	2281.38
575.02	2277.89
575.37	2274.45
575.72	2270.92
576.08	2267.57
576.43	2264.26
576.78	2260.69
577.13	2257.30
577.49	2254.10
577.84	2250.62
578.19	2246.96
578.54	2243.40
578.90	2239.18
579.25	2233.63
579.60	2228.70
579.95	2223.69
580.30	2218.84
580.66	2213.72
581.01	2208.84
581.36	2204.05
581.71	2199.80
582.06	2195.30
582.42	2190.88
582.77	2185.72
583.12	2181.30
583.47	2176.77
583.82	2171.81
584.17	2166.58
584.53	2161.18
584.88	2155.67
585.23	2150.03
585.58	2144.56
585.93	2139.15
586.28	2134.33
586.63	2129.26
586.98	2124.25
587.34	2119.57
587.69	2114.73
588.04	2109.51
588.39	2103.93
588.74	2097.50
589.09	2091.42
589.44	2084.61
589.79	2078.49
590.14	2072.87
590.49	2066.10
590.84	2059.61
591.19	2053.67
591.54	2047.25
591.89	2039.89
592.25	2033.05
592.60	2025.82
592.95	2018.34
593.30	2011.03
593.65	2003.56
594.00	1996.58
594.35	1989.33
594.70	1981.32
595.05	1974.23
595.40	1967.01
595.75	1959.56
596.10	1953.47
596.45	1946.66
596.80	1940.59
597.15	1934.07
597.50	1927.14
597.85	1920.77
598.19	1914.07
598.54	1906.95
598.89	1900.33
599.24	1894.50
599.59	1887.88
599.94	1881.64
600.29	1875.23
600.64	1868.51
600.99	1861.08
601.34	1854.23
601.69	1847.24
602.04	1840.43
602.39	1832.93
602.74	1826.05
603.08	1819.39
603.43	1812.48
603.78	1805.17
604.13	1797.94
604.48	1790.72
604.83	1783.74
605.18	1776.84
605.53	1768.95
605.87	1760.84
606.22	1753.68
606.57	1745.72
606.92	1738.41
607.27	1731.32
607.62	1724.44
607.96	1717.43
608.31	1710.82
608.66	1703.34
609.01	1695.83
609.36	1688.12
609.70	1680.18
610.05	1672.25
610.40	1664.53
610.75	1656.21
611.10	1648.66
611.44	1640.20
611.79	1632.02
612.14	1623.38
612.49	1614.15
612.83	1605.77
613.18	1597.64
613.53	1589.51
613.88	1580.94
614.22	1572.73
614.57	1564.06
614.92	1556.00
615.27	1548.42
615.61	1540.08
615.96	1532.00
616.31	1524.32
616.65	1517.11
617.00	1509.45
617.35	1501.66
617.70	1493.29
618.04	1484.82
618.39	1476.46
618.74	1469.03
619.08	1460.89
619.43	1453.33
619.78	1446.35
620.12	1439.24
620.47	1431.78
620.82	1423.50
621.16	1416.10
621.51	1408.43
621.85	1400.76
622.20	1392.33
622.55	1383.81
622.89	1375.99
623.24	1368.31
623.59	1361.00
623.93	1353.45
624.28	1346.32
624.62	1338.82
624.97	1331.66
625.32	1324.90
625.66	1318.01
626.01	1310.75
626.35	1303.38
626.70	1295.54
627.04	1287.93
627.39	1280.09
627.73	1272.70
628.08	1265.85
628.43	1258.67
628.77	1251.23
629.12	1243.72
629.46	1236.54
629.81	1229.13
630.15	1221.92
630.50	1214.56
630.84	1206.30
631.19	1198.38
631.53	1190.75
631.88	1183.17
632.22	1175.65
632.57	1168.28
632.91	1160.66
633.26	1153.19
633.60	1145.73
633.95	1138.63
634.29	1131.53
634.64	1124.91
634.98	1117.51
635.32	1110.29
635.67	1103.64
636.01	1097.03
636.36	1090.21
636.70	1083.67
637.05	1077.07
637.39	1070.53
637.73	1064.05
638.08	1058.14
638.42	1052.19
638.77	1045.78
639.11	1039.24
639.45	1032.68
639.80	1026.14
640.14	1019.68
640.49	1013.27
640.83	1006.99
641.17	1000.80
641.52	994.50
641.86	987.90
642.20	982.05
642.55	975.76
642.89	969.28
643.23	962.65
643.58	956.98
643.92	950.76
644.26	944.79
644.61	938.71
644.95	932.68
645.29	926.20
645.64	919.38
645.98	913.09
646.32	907.20
646.66	901.20
647.01	895.31
647.35	889.62
647.69	883.68
648.04	878.08
648.38	872.29
648.72	866.27
649.06	860.34
649.41	854.47
649.75	848.52
650.09	842.58
650.43	836.88
650.78	830.61
651.12	824.59
651.46	818.83
651.80	813.12
652.14	807.69
652.49	802.23
652.83	797.09
653.17	791.36
653.51	785.67
653.85	780.35
654.20	774.76
654.54	768.80
654.88	763.09
655.22	757.17
655.56	751.45
655.90	745.96
656.25	740.68
656.59	735.27
656.93	730.21
657.27	725.00
657.61	719.57
657.95	714.51
658.29	709.44
658.64	704.20
658.98	698.88
659.32	693.45
659.66	688.28
660.00	682.98
660.34	678.06
660.68	673.05
661.02	667.97
661.36	663.16
661.70	658.63
662.05	654.28
662.39	650.02
662.73	645.51
663.07	641.16
663.41	636.75
663.75	632.36
664.09	627.76
664.43	623.36
664.77	619.26
665.11	614.97
665.45	610.90
665.79	606.84
666.13	602.70
666.47	598.54
666.81	594.34
667.15	590.18
667.49	586.24
667.83	582.45
668.17	578.49
668.51	574.53
668.85	570.52
669.19	566.64
669.53	562.77
669.87	558.93
670.21	555.25
670.55	551.58
670.89	548.13
671.23	544.70
671.57	541.22
671.91	537.63
672.25	534.14
672.58	530.62
672.92	527.15
673.26	524.03
673.60	520.93
673.94	517.81
674.28	514.92
674.62	511.96
674.96	508.90
675.30	505.98
675.64	503.05
675.97	500.23
676.31	497.38
676.65	494.45
676.99	491.74
677.33	488.80
677.67	486.01
678.01	482.97
678.34	480.00
678.68	477.14
679.02	474.27
679.36	471.49
679.70	468.76
680.04	466.02
680.37	463.12
680.71	460.29
681.05	457.70
681.39	454.98
681.73	452.34
682.06	449.80
682.40	447.29
682.74	444.77
683.08	442.27
683.42	439.67
683.75	437.20
684.09	434.63
684.43	432.20
684.77	429.70
685.10	427.33
685.44	425.02
685.78	422.72
686.12	420.55
686.45	418.32
686.79	415.99
687.13	413.77
687.46	411.61
687.80	409.47
688.14	407.26
688.48	405.21
688.81	402.99
689.15	400.82
689.49	398.63
689.82	396.54
690.16	394.47
690.50	392.51
690.83	390.55
691.17	388.56
691.51	386.66
691.84	384.82
692.18	382.90
692.52	380.93
692.85	378.97
693.19	377.06
693.52	375.18
693.86	373.37
694.20	371.57
694.53	369.77
694.87	367.92
695.21	366.09
695.54	364.24
695.88	362.47
696.21	360.75
696.55	359.05
696.88	357.32
697.22	355.62
697.56	353.98
697.89	352.33
698.23	350.77
698.56	349.12
698.90	347.56
699.23	345.90
699.57	344.31
699.90	342.75
700.24	341.19
700.58	339.66
700.91	338.16
701.25	336.74
701.58	335.40
701.92	334.03
702.25	332.69
702.59	331.32
702.92	330.00
703.26	328.66
703.59	327.44
703.93	326.27
704.26	325.03
704.60	323.75
704.93	322.45
705.26	321.16
705.60	319.99
705.93	318.80
706.27	317.79
706.60	316.80
706.94	315.75
707.27	314.61
707.61	313.57
707.94	312.53
708.27	311.45
708.61	310.32
708.94	309.31
709.28	308.34
709.61	307.40
709.94	306.47
710.28	305.45
710.61	304.46
710.95	303.41
711.28	302.51
711.61	301.54
711.95	300.66
712.28	299.72
712.61	298.74
712.95	297.78
713.28	296.88
713.61	295.95
713.95	295.07
714.28	294.24
714.61	293.41
714.95	292.58
715.28	291.72
715.61	290.89
715.95	290.05
716.28	289.19
716.61	288.38
716.95	287.53
717.28	286.81
717.61	286.06
717.94	285.29
718.28	284.45
718.61	283.77
718.94	283.04
719.27	282.40
719.61	281.78
719.94	281.14
720.27	280.42
720.60	279.74
720.94	279.10
721.27	278.51
721.60	277.92
721.93	277.31
722.27	276.78
722.60	276.24
722.93	275.68
723.26	275.11
723.59	274.51
723.93	273.98
724.26	273.41
724.59	272.82
724.92	272.31
725.25	271.83
725.59	271.29
725.92	270.78
726.25	270.26
726.58	269.77
726.91	269.28
727.24	268.80
727.57	268.31
727.91	267.76
728.24	267.28
728.57	266.76
728.90	266.27
729.23	265.74
729.56	265.28
729.89	264.80
730.22	264.34
730.55	263.89
730.89	263.47
731.22	263.05
731.55	262.62
731.88	262.18
732.21	261.73
732.54	261.29
732.87	260.85
733.20	260.44
733.53	260.03
733.86	259.66
734.19	259.23
734.52	258.88
734.85	258.59
735.18	258.19
735.51	257.86
735.84	257.52
736.17	257.19
736.50	256.78
736.83	256.55
737.16	256.22
737.49	255.86
737.82	255.50
738.15	255.16
738.48	254.82
738.81	254.49
739.14	254.17
739.47	253.86
739.80	253.56
740.13	253.25
740.46	252.90
740.79	252.56
741.12	252.30
741.45	252.01
741.78	251.64
742.11	251.39
742.44	251.04
742.77	250.76
743.10	250.42
743.43	250.14
743.75	249.74
744.08	249.57
744.41	249.32
744.74	249.08
745.07	248.81
745.40	248.59
745.73	248.40
746.06	248.16
746.39	247.90
746.71	247.64
747.04	247.41
747.37	247.16
747.70	246.93
748.03	246.67
748.36	246.43
748.68	246.23
749.01	245.95
749.34	245.78
749.67	245.56
750.00	245.37
750.33	245.21
750.65	245.00
750.98	244.68
751.31	244.47
751.64	244.23
751.97	244.06
752.29	243.83
752.62	243.54
752.95	243.36
753.28	243.11
753.60	242.94
753.93	242.72
754.26	242.54
754.59	242.32
754.91	242.13
755.24	241.91
755.57	241.70
755.90	241.52
756.22	241.29
756.55	241.06
756.88	240.82
757.20	240.60
757.53	240.42
757.86	240.23
758.19	240.05
758.51	239.88
758.84	239.66
759.17	239.47
759.49	239.34
759.82	239.18
760.15	239.04
760.47	238.87
760.80	238.71
761.13	238.56
761.45	238.41
761.78	238.27
762.11	238.14
762.43	237.99
762.76	237.85
763.08	237.69
763.41	237.57
763.74	237.45
764.06	237.29
764.39	237.13
764.71	236.99
765.04	236.83
765.37	236.68
765.69	236.55
766.02	236.45
766.34	236.30
766.67	236.15
767.00	236.05
767.32	235.94
767.65	235.90
767.97	235.81
768.30	235.69
768.62	235.56
768.95	235.43
769.27	235.34
769.60	235.22
769.92	235.10
770.25	235.01
770.57	234.91
770.90	234.84
771.22	234.74
771.55	234.63
771.87	234.58
772.20	234.49
772.52	234.49
772.85	234.49
773.17	234.42
773.50	234.33
773.82	234.24
774.15	234.14
774.47	233.97
774.80	233.87
775.12	233.79
775.45	233.72
775.77	233.63
776.09	233.55
776.42	233.46
776.74	233.43
777.07	233.33
777.39	233.27
777.72	233.15
778.04	233.08
778.36	233.04
778.69	232.96
779.01	232.93
779.33	232.78
779.66	232.58
779.98	232.49
780.31	232.43
780.63	232.41
780.95	232.34
781.28	232.28
781.60	232.21
781.92	232.13
782.25	232.07
782.57	232.01
782.89	231.93
783.22	231.90
783.54	231.83
783.86	231.78
784.19	231.75
784.51	231.76
784.83	231.71
785.16	231.63
785.48	231.60
785.80	231.53
786.12	231.46
786.45	231.44
786.77	231.38
787.09	231.33
