SpectraSuite Data File
++++++++++++++++++++++++++++++++++++
Date: Fri Feb 01 16:13:41 EST 2013
User: group
Dark Spectrum Present: No
Reference Spectrum Present: No
Number of Sampled Component Spectra: 1
Spectrometers: USB2E7196
Integration Time (usec): 35000 (USB2E7196)
Spectra Averaged: 100 (USB2E7196)
Boxcar Smoothing: 10 (USB2E7196)
Correct for Electrical Dark: No (USB2E7196)
Strobe/Lamp Enabled: No (USB2E7196)
Correct for Detector Non-linearity: No (USB2E7196)
Correct for Stray Light: No (USB2E7196)
Number of Pixels in Processed Spectrum: 2048
>>>>>Begin Processed Spectral Data<<<<<
339.09	0.00
339.48	214.12
339.86	215.61
340.24	217.42
340.63	218.08
341.01	221.02
341.39	220.98
341.78	222.87
342.16	223.96
342.54	224.84
342.93	212.71
343.31	223.47
343.69	224.02
344.07	224.49
344.46	224.92
344.84	225.34
345.22	225.61
345.60	225.86
345.99	226.03
346.37	226.14
346.75	226.19
347.13	226.24
347.52	226.33
347.90	226.39
348.28	226.40
348.66	226.42
349.05	226.42
349.43	226.45
349.81	226.49
350.19	226.53
350.57	226.57
350.96	226.62
351.34	226.69
351.72	226.77
352.10	226.89
352.48	226.95
352.87	226.99
353.25	227.03
353.63	227.08
354.01	227.16
354.39	227.25
354.77	227.35
355.15	227.46
355.54	227.50
355.92	227.53
356.30	227.60
356.68	227.77
357.06	227.84
357.44	227.87
357.82	227.94
358.20	228.06
358.58	228.10
358.97	228.18
359.35	228.27
359.73	228.36
360.11	228.40
360.49	228.46
360.87	228.53
361.25	228.59
361.63	228.67
362.01	228.68
362.39	228.73
362.77	228.76
363.15	228.77
363.53	228.80
363.91	228.85
364.29	228.89
364.67	228.78
365.05	228.81
365.43	228.83
365.81	228.83
366.19	228.86
366.57	228.88
366.95	228.88
367.33	228.83
367.71	228.82
368.09	228.82
368.47	228.78
368.85	228.74
369.23	228.74
369.61	228.70
369.99	228.73
370.37	228.70
370.75	228.71
371.13	228.66
371.51	228.64
371.89	228.59
372.27	228.53
372.65	228.50
373.03	228.45
373.41	228.39
373.78	228.34
374.16	228.24
374.54	228.16
374.92	228.09
375.30	228.02
375.68	227.94
376.06	227.83
376.44	227.79
376.82	227.69
377.19	227.61
377.57	227.53
377.95	227.40
378.33	227.30
378.71	227.21
379.09	227.12
379.47	227.04
379.84	226.99
380.22	226.91
380.60	226.84
380.98	226.76
381.36	226.68
381.73	226.60
382.11	226.50
382.49	226.44
382.87	226.36
383.25	226.30
383.62	226.35
384.00	226.28
384.38	226.21
384.76	226.19
385.13	226.18
385.51	226.09
385.89	226.05
386.27	226.00
386.64	225.94
387.02	225.92
387.40	225.88
387.78	225.84
388.15	225.82
388.53	225.77
388.91	225.77
389.29	225.75
389.66	225.72
390.04	225.70
390.42	225.68
390.79	225.66
391.17	225.63
391.55	225.47
391.92	225.49
392.30	225.47
392.68	225.43
393.05	225.41
393.43	225.45
393.81	225.47
394.18	225.47
394.56	225.47
394.94	225.50
395.31	225.51
395.69	225.51
396.06	225.52
396.44	225.55
396.82	225.54
397.19	225.65
397.57	225.69
397.95	225.74
398.32	225.77
398.70	225.83
399.07	225.89
399.45	225.96
399.82	226.03
400.20	226.08
400.58	226.16
400.95	226.22
401.33	226.28
401.70	226.43
402.08	226.51
402.45	226.60
402.83	226.70
403.20	226.81
403.58	226.93
403.95	227.07
404.33	227.22
404.71	227.37
405.08	227.54
405.46	227.68
405.83	227.83
406.21	228.01
406.58	228.21
406.96	228.41
407.33	228.60
407.70	228.81
408.08	229.08
408.45	229.29
408.83	229.53
409.20	229.78
409.58	229.91
409.95	230.19
410.33	230.48
410.70	230.74
411.08	231.07
411.45	231.38
411.82	231.70
412.20	232.04
412.57	232.50
412.95	232.78
413.32	233.22
413.69	233.61
414.07	234.03
414.44	234.48
414.82	234.93
415.19	235.48
415.56	236.02
415.94	236.59
416.31	237.24
416.68	237.86
417.06	238.59
417.43	239.31
417.81	240.10
418.18	240.89
418.55	241.71
418.93	242.58
419.30	243.46
419.67	244.40
420.04	245.35
420.42	246.31
420.79	247.49
421.16	248.64
421.54	249.84
421.91	251.05
422.28	252.30
422.66	253.66
423.03	254.98
423.40	256.30
423.77	257.70
424.15	259.13
424.52	260.60
424.89	262.18
425.26	263.77
425.64	265.21
426.01	266.80
426.38	268.47
426.75	270.11
427.13	271.85
427.50	273.63
427.87	275.50
428.24	277.34
428.61	279.09
428.99	280.99
429.36	283.06
429.73	285.13
430.10	287.16
430.47	289.19
430.85	291.31
431.22	293.51
431.59	295.87
431.96	298.09
432.33	300.58
432.70	302.95
433.08	305.71
433.45	308.35
433.82	310.93
434.19	313.82
434.56	316.64
434.93	319.26
435.30	321.90
435.68	324.79
436.05	327.62
436.42	330.40
436.79	332.92
437.16	335.63
437.53	338.48
437.90	341.29
438.27	344.01
438.64	346.82
439.01	349.46
439.38	351.67
439.75	353.81
440.13	356.26
440.50	358.60
440.87	360.43
441.24	362.38
441.61	364.55
441.98	365.99
442.35	367.76
442.72	369.62
443.09	371.37
443.46	372.32
443.83	372.86
444.20	373.37
444.57	374.20
444.94	374.52
445.31	374.81
445.68	375.12
446.05	375.18
446.42	374.78
446.79	374.34
447.16	373.93
447.53	373.60
447.90	372.43
448.27	371.26
448.64	369.71
449.01	368.50
449.37	366.48
449.74	364.64
450.11	362.42
450.48	359.97
450.85	357.48
451.22	355.32
451.59	353.34
451.96	351.40
452.33	348.78
452.70	346.44
453.07	343.62
453.43	340.74
453.80	338.03
454.17	335.39
454.54	332.83
454.91	330.15
455.28	327.52
455.65	325.08
456.02	322.66
456.38	320.46
456.75	317.83
457.12	315.64
457.49	313.38
457.86	311.24
458.23	309.35
458.59	307.30
458.96	305.22
459.33	303.38
459.70	301.53
460.07	300.05
460.43	298.32
460.80	296.72
461.17	295.30
461.54	293.80
461.91	292.36
462.27	290.91
462.64	289.62
463.01	288.24
463.38	286.96
463.74	285.59
464.11	284.46
464.48	283.46
464.85	282.36
465.21	281.55
465.58	280.62
465.95	279.55
466.32	278.66
466.68	277.81
467.05	276.93
467.42	276.03
467.78	275.12
468.15	274.25
468.52	273.60
468.88	272.74
469.25	271.99
469.62	271.42
469.98	270.79
470.35	270.21
470.72	269.61
471.08	268.99
471.45	268.48
471.82	267.98
472.18	267.39
472.55	266.92
472.92	266.39
473.28	265.96
473.65	265.55
474.02	265.12
474.38	264.76
474.75	264.45
475.11	264.12
475.48	263.84
475.85	263.63
476.21	263.36
476.58	263.18
476.94	262.99
477.31	262.79
477.67	262.66
478.04	262.56
478.41	262.54
478.77	262.58
479.14	262.52
479.50	262.52
479.87	262.62
480.23	262.74
480.60	262.82
480.96	262.90
481.33	263.12
481.69	263.33
482.06	263.48
482.42	263.65
482.79	263.92
483.15	264.24
483.52	264.64
483.88	265.00
484.25	265.39
484.61	265.84
484.98	266.32
485.34	266.87
485.71	267.43
486.07	268.02
486.44	268.56
486.80	269.30
487.17	270.01
487.53	270.81
487.90	271.69
488.26	272.63
488.62	273.63
488.99	274.56
489.35	275.60
489.72	276.75
490.08	277.97
490.44	279.21
490.81	280.56
491.17	281.86
491.54	283.40
491.90	284.97
492.26	286.61
492.63	288.33
492.99	290.13
493.36	292.03
493.72	294.07
494.08	296.20
494.45	298.44
494.81	300.83
495.17	303.22
495.54	305.76
495.90	308.45
496.26	311.26
496.63	314.22
496.99	317.35
497.35	320.65
497.72	324.07
498.08	327.58
498.44	331.28
498.80	335.25
499.17	339.24
499.53	343.43
499.89	347.83
500.26	352.30
500.62	356.94
500.98	361.89
501.34	366.98
501.71	372.33
502.07	377.79
502.43	383.40
502.79	389.25
503.16	395.31
503.52	401.61
503.88	408.03
504.24	414.70
504.60	421.53
504.97	428.67
505.33	435.95
505.69	443.65
506.05	451.41
506.41	459.28
506.78	467.50
507.14	475.91
507.50	484.62
507.86	493.67
508.22	502.90
508.59	512.11
508.95	521.71
509.31	531.49
509.67	541.52
510.03	551.82
510.39	562.34
510.75	573.12
511.12	583.96
511.48	595.24
511.84	606.65
512.20	618.18
512.56	630.06
512.92	642.20
513.28	654.61
513.64	667.14
514.00	679.90
514.37	692.87
514.73	705.95
515.09	718.94
515.45	732.27
515.81	745.84
516.17	759.83
516.53	773.88
516.89	788.07
517.25	802.20
517.61	816.62
517.97	831.13
518.33	845.58
518.69	860.40
519.05	875.36
519.41	890.58
519.77	906.16
520.13	921.64
520.49	937.11
520.85	952.33
521.21	967.86
521.57	984.02
521.93	999.64
522.29	1016.00
522.65	1032.33
523.01	1048.41
523.37	1064.46
523.73	1080.61
524.09	1096.67
524.45	1112.90
524.81	1129.55
525.17	1146.35
525.53	1163.13
525.89	1179.97
526.25	1196.72
526.61	1213.11
526.97	1229.81
527.33	1246.21
527.68	1262.68
528.04	1279.06
528.40	1295.63
528.76	1312.69
529.12	1329.09
529.48	1345.88
529.84	1361.83
530.20	1378.40
530.56	1395.27
530.91	1412.55
531.27	1429.23
531.63	1445.71
531.99	1462.28
532.35	1478.33
532.71	1494.04
533.07	1510.37
533.42	1526.22
533.78	1542.17
534.14	1558.28
534.50	1573.57
534.86	1589.31
535.21	1604.44
535.57	1620.26
535.93	1635.71
536.29	1650.50
536.65	1665.54
537.00	1680.16
537.36	1695.43
537.72	1709.82
538.08	1724.29
538.44	1738.00
538.79	1751.80
539.15	1765.16
539.51	1778.67
539.87	1792.82
540.22	1806.40
540.58	1820.01
540.94	1833.19
541.29	1846.01
541.65	1858.62
542.01	1871.73
542.37	1884.07
542.72	1896.42
543.08	1908.21
543.44	1920.46
543.79	1931.69
544.15	1942.67
544.51	1954.38
544.87	1965.17
545.22	1975.91
545.58	1986.05
545.94	1995.76
546.29	2005.53
546.65	2015.59
547.01	2024.88
547.36	2033.53
547.72	2042.05
548.07	2049.80
548.43	2057.87
548.79	2065.73
549.14	2073.31
549.50	2080.54
549.86	2088.13
550.21	2095.47
550.57	2102.53
550.92	2109.25
551.28	2116.19
551.64	2123.27
551.99	2129.68
552.35	2135.93
552.70	2141.97
553.06	2148.03
553.41	2154.36
553.77	2160.36
554.13	2166.31
554.48	2172.52
554.84	2178.01
555.19	2183.35
555.55	2188.57
555.90	2193.17
556.26	2198.13
556.61	2202.79
556.97	2207.21
557.32	2211.33
557.68	2215.45
558.03	2219.75
558.39	2223.28
558.74	2227.80
559.10	2231.63
559.45	2235.23
559.81	2239.40
560.16	2243.31
560.52	2246.41
560.87	2249.93
561.23	2252.56
561.58	2255.46
561.94	2257.84
562.29	2260.11
562.64	2262.77
563.00	2265.30
563.35	2268.75
563.71	2271.90
564.06	2275.06
564.42	2277.88
564.77	2280.52
565.12	2282.90
565.48	2284.89
565.83	2286.80
566.19	2288.20
566.54	2289.17
566.89	2290.48
567.25	2291.24
567.60	2292.58
567.96	2294.39
568.31	2295.20
568.66	2296.32
569.02	2296.93
569.37	2297.36
569.72	2298.34
570.08	2298.61
570.43	2298.84
570.78	2298.24
571.14	2296.78
571.49	2295.40
571.84	2295.05
572.20	2294.02
572.55	2292.75
572.90	2291.04
573.26	2289.76
573.61	2288.01
573.96	2286.35
574.31	2283.47
574.67	2280.44
575.02	2276.77
575.37	2273.22
575.72	2269.52
576.08	2266.14
576.43	2262.91
576.78	2259.31
577.13	2255.93
577.49	2252.60
577.84	2248.95
578.19	2245.34
578.54	2241.72
578.90	2237.72
579.25	2232.17
579.60	2227.19
579.95	2222.33
580.30	2217.42
580.66	2212.25
581.01	2207.43
581.36	2202.46
581.71	2198.28
582.06	2193.95
582.42	2189.67
582.77	2184.66
583.12	2180.16
583.47	2175.69
583.82	2170.78
584.17	2165.60
584.53	2160.33
584.88	2154.97
585.23	2149.40
585.58	2143.90
585.93	2138.34
586.28	2133.58
586.63	2128.68
586.98	2123.62
587.34	2118.96
587.69	2114.16
588.04	2109.05
588.39	2103.35
588.74	2096.79
589.09	2090.59
589.44	2083.76
589.79	2077.66
590.14	2072.05
590.49	2065.27
590.84	2058.66
591.19	2052.69
591.54	2046.27
591.89	2039.00
592.25	2032.27
592.60	2025.01
592.95	2017.58
593.30	2010.39
593.65	2002.64
594.00	1995.58
594.35	1988.25
594.70	1980.08
595.05	1973.06
595.40	1965.76
595.75	1958.30
596.10	1952.17
596.45	1945.56
596.80	1939.47
597.15	1932.98
597.50	1925.97
597.85	1919.57
598.19	1913.17
598.54	1906.14
598.89	1899.45
599.24	1893.57
599.59	1886.85
599.94	1880.62
600.29	1874.20
600.64	1867.60
600.99	1860.33
601.34	1853.55
601.69	1846.65
602.04	1839.92
602.39	1832.55
602.74	1825.81
603.08	1819.16
603.43	1812.46
603.78	1805.03
604.13	1797.84
604.48	1790.55
604.83	1783.63
605.18	1776.81
605.53	1768.72
605.87	1760.56
606.22	1753.31
606.57	1745.24
606.92	1737.84
607.27	1730.83
607.62	1723.93
607.96	1716.75
608.31	1710.29
608.66	1702.73
609.01	1695.21
609.36	1687.72
609.70	1679.64
610.05	1671.68
610.40	1664.06
610.75	1655.81
611.10	1648.28
611.44	1639.79
611.79	1631.75
612.14	1623.19
612.49	1614.01
612.83	1605.68
613.18	1597.75
613.53	1589.72
613.88	1581.24
614.22	1573.13
614.57	1564.39
614.92	1556.50
615.27	1548.92
615.61	1540.56
615.96	1532.55
616.31	1524.84
616.65	1517.49
617.00	1509.93
617.35	1502.11
617.70	1493.70
618.04	1485.19
618.39	1476.93
618.74	1469.41
619.08	1461.10
619.43	1453.43
619.78	1446.48
620.12	1439.34
620.47	1431.91
620.82	1423.65
621.16	1416.26
621.51	1408.53
621.85	1400.98
622.20	1392.38
622.55	1384.00
622.89	1376.09
623.24	1368.37
623.59	1361.02
623.93	1353.44
624.28	1346.26
624.62	1338.78
624.97	1331.60
625.32	1324.84
625.66	1317.74
626.01	1310.49
626.35	1303.13
626.70	1295.28
627.04	1287.73
627.39	1279.99
627.73	1272.30
628.08	1265.44
628.43	1258.14
628.77	1250.83
629.12	1243.25
629.46	1236.03
629.81	1228.55
630.15	1221.35
630.50	1213.91
630.84	1205.66
631.19	1197.70
631.53	1190.09
631.88	1182.47
632.22	1174.88
632.57	1167.53
632.91	1160.07
633.26	1152.64
633.60	1145.17
633.95	1138.16
634.29	1130.98
634.64	1124.26
634.98	1117.01
635.32	1109.83
635.67	1103.26
636.01	1096.56
636.36	1089.76
636.70	1083.29
637.05	1076.75
637.39	1070.27
637.73	1063.83
638.08	1057.97
638.42	1052.00
638.77	1045.51
639.11	1038.99
639.45	1032.57
639.80	1025.93
640.14	1019.45
640.49	1013.05
640.83	1006.76
641.17	1000.55
641.52	994.17
641.86	987.69
642.20	981.84
642.55	975.54
642.89	969.08
643.23	962.49
643.58	956.67
643.92	950.46
644.26	944.50
644.61	938.41
644.95	932.39
645.29	925.84
645.64	919.12
645.98	912.79
646.32	906.87
646.66	900.83
647.01	895.04
647.35	889.34
647.69	883.38
648.04	877.79
648.38	871.95
648.72	866.07
649.06	859.95
649.41	854.06
649.75	848.10
650.09	842.03
650.43	836.27
650.78	830.28
651.12	824.32
651.46	818.57
651.80	812.90
652.14	807.50
652.49	802.16
652.83	797.03
653.17	791.43
653.51	785.75
653.85	780.37
654.20	774.72
654.54	768.72
654.88	763.04
655.22	757.19
655.56	751.42
655.90	745.96
656.25	740.79
656.59	735.36
656.93	730.33
657.27	725.24
657.61	719.86
657.95	714.57
658.29	709.50
658.64	704.19
658.98	698.81
659.32	693.31
659.66	688.14
660.00	682.78
660.34	677.80
660.68	672.85
661.02	667.82
661.36	663.15
661.70	658.67
662.05	654.29
662.39	649.98
662.73	645.54
663.07	641.15
663.41	636.71
663.75	632.27
664.09	627.65
664.43	623.31
664.77	619.16
665.11	614.99
665.45	610.75
665.79	606.70
666.13	602.58
666.47	598.43
666.81	594.21
667.15	590.08
667.49	586.20
667.83	582.33
668.17	578.40
668.51	574.30
668.85	570.24
669.19	566.35
669.53	562.48
669.87	558.63
670.21	554.87
670.55	551.18
670.89	547.77
671.23	544.37
671.57	540.79
671.91	537.23
672.25	533.66
672.58	530.19
672.92	526.75
673.26	523.54
673.60	520.37
673.94	517.25
674.28	514.35
674.62	511.36
674.96	508.28
675.30	505.36
675.64	502.38
675.97	499.58
676.31	496.76
676.65	493.84
676.99	491.14
677.33	488.21
677.67	485.43
678.01	482.36
678.34	479.33
678.68	476.42
679.02	473.63
679.36	470.86
679.70	468.12
680.04	465.34
680.37	462.51
680.71	459.72
681.05	457.12
681.39	454.35
681.73	451.67
682.06	449.23
682.40	446.69
682.74	444.15
683.08	441.62
683.42	439.02
683.75	436.56
684.09	433.98
684.43	431.57
684.77	429.08
685.10	426.75
685.44	424.44
685.78	422.13
686.12	419.84
686.45	417.57
686.79	415.30
687.13	413.16
687.46	411.01
687.80	408.89
688.14	406.66
688.48	404.61
688.81	402.44
689.15	400.21
689.49	398.02
689.82	396.01
690.16	393.90
690.50	391.92
690.83	389.96
691.17	387.96
691.51	386.06
691.84	384.24
692.18	382.30
692.52	380.35
692.85	378.46
693.19	376.64
693.52	374.83
693.86	373.02
694.20	371.20
694.53	369.44
694.87	367.59
695.21	365.81
695.54	363.98
695.88	362.23
696.21	360.52
696.55	358.87
696.88	357.17
697.22	355.54
697.56	353.85
697.89	352.17
698.23	350.65
698.56	349.03
698.90	347.49
699.23	345.87
699.57	344.33
699.90	342.80
700.24	341.22
700.58	339.72
700.91	338.28
701.25	336.85
701.58	335.46
701.92	334.07
702.25	332.72
702.59	331.43
702.92	330.12
703.26	328.83
703.59	327.53
703.93	326.33
704.26	325.12
704.60	323.87
704.93	322.62
705.26	321.32
705.60	320.13
705.93	318.93
706.27	317.91
706.60	316.88
706.94	315.80
707.27	314.68
707.61	313.66
707.94	312.63
708.27	311.55
708.61	310.47
708.94	309.48
709.28	308.50
709.61	307.51
709.94	306.55
710.28	305.54
710.61	304.59
710.95	303.51
711.28	302.56
711.61	301.64
711.95	300.73
712.28	299.79
712.61	298.80
712.95	297.88
713.28	296.96
713.61	296.04
713.95	295.16
714.28	294.31
714.61	293.40
714.95	292.48
715.28	291.61
715.61	290.72
715.95	289.88
716.28	288.99
716.61	288.18
716.95	287.32
717.28	286.55
717.61	285.77
717.94	285.01
718.28	284.21
718.61	283.43
718.94	282.73
719.27	282.08
719.61	281.44
719.94	280.76
720.27	280.07
720.60	279.37
720.94	278.72
721.27	278.11
721.60	277.50
721.93	276.91
722.27	276.35
722.60	275.77
722.93	275.18
723.26	274.67
723.59	274.10
723.93	273.55
724.26	273.01
724.59	272.41
724.92	271.88
725.25	271.39
725.59	270.90
725.92	270.38
726.25	269.84
726.58	269.37
726.91	268.88
727.24	268.38
727.57	267.94
727.91	267.42
728.24	266.96
728.57	266.52
728.90	266.10
729.23	265.60
729.56	265.22
729.89	264.76
730.22	264.24
730.55	263.77
730.89	263.33
731.22	262.89
731.55	262.49
731.88	262.08
732.21	261.65
732.54	261.20
732.87	260.80
733.20	260.41
733.53	260.00
733.86	259.62
734.19	259.23
734.52	258.84
734.85	258.58
735.18	258.14
735.51	257.72
735.84	257.30
736.17	256.96
736.50	256.58
736.83	256.35
737.16	256.04
737.49	255.68
737.82	255.35
738.15	255.03
738.48	254.66
738.81	254.36
739.14	254.05
739.47	253.77
739.80	253.45
740.13	253.18
740.46	252.87
740.79	252.55
741.12	252.22
741.45	251.89
741.78	251.57
742.11	251.30
742.44	250.99
742.77	250.74
743.10	250.42
743.43	250.12
743.75	249.73
744.08	249.59
744.41	249.35
744.74	249.12
745.07	248.79
745.40	248.61
745.73	248.35
746.06	248.07
746.39	247.80
746.71	247.52
747.04	247.22
747.37	246.94
747.70	246.69
748.03	246.49
748.36	246.27
748.68	246.00
749.01	245.77
749.34	245.57
749.67	245.36
750.00	245.15
750.33	244.96
750.65	244.74
750.98	244.37
751.31	244.14
751.64	243.88
751.97	243.74
752.29	243.49
752.62	243.25
752.95	243.03
753.28	242.79
753.60	242.57
753.93	242.40
754.26	242.20
754.59	241.98
754.91	241.69
755.24	241.47
755.57	241.28
755.90	241.08
756.22	240.87
756.55	240.63
756.88	240.43
757.20	240.18
757.53	239.96
757.86	239.81
758.19	239.66
758.51	239.49
758.84	239.25
759.17	239.05
759.49	238.89
759.82	238.78
760.15	238.64
760.47	238.51
760.80	238.31
761.13	238.19
761.45	238.04
761.78	237.92
762.11	237.77
762.43	237.59
762.76	237.43
763.08	237.27
763.41	237.13
763.74	237.01
764.06	236.85
764.39	236.73
764.71	236.57
765.04	236.43
765.37	236.29
765.69	236.19
766.02	236.06
766.34	235.95
766.67	235.77
767.00	235.68
767.32	235.61
767.65	235.57
767.97	235.42
768.30	235.29
768.62	235.18
768.95	235.06
769.27	234.95
769.60	234.88
769.92	234.79
770.25	234.68
770.57	234.55
770.90	234.45
771.22	234.34
771.55	234.25
771.87	234.15
772.20	234.08
772.52	234.05
772.85	234.07
773.17	233.97
773.50	233.88
773.82	233.79
774.15	233.70
774.47	233.54
774.80	233.46
775.12	233.42
775.45	233.36
775.77	233.30
776.09	233.24
776.42	233.15
776.74	233.10
777.07	233.03
777.39	232.96
777.72	232.92
778.04	232.86
778.36	232.83
778.69	232.78
779.01	232.73
779.33	232.59
779.66	232.47
779.98	232.41
780.31	232.38
780.63	232.35
780.95	232.29
781.28	232.26
781.60	232.19
781.92	232.10
782.25	232.04
782.57	231.98
782.89	231.92
783.22	231.89
783.54	231.85
783.86	231.83
784.19	231.80
784.51	231.78
784.83	231.73
785.16	231.67
785.48	231.62
785.80	231.57
786.12	231.55
786.45	231.47
786.77	231.41
787.09	231.35
