SpectraSuite Data File
++++++++++++++++++++++++++++++++++++
Date: Fri Feb 01 15:25:25 EST 2013
User: group
Dark Spectrum Present: No
Reference Spectrum Present: No
Number of Sampled Component Spectra: 1
Spectrometers: USB2E7196
Integration Time (usec): 35000 (USB2E7196)
Spectra Averaged: 100 (USB2E7196)
Boxcar Smoothing: 10 (USB2E7196)
Correct for Electrical Dark: No (USB2E7196)
Strobe/Lamp Enabled: No (USB2E7196)
Correct for Detector Non-linearity: No (USB2E7196)
Correct for Stray Light: No (USB2E7196)
Number of Pixels in Processed Spectrum: 2048
>>>>>Begin Processed Spectral Data<<<<<
339.09	0.00
339.48	215.15
339.86	216.63
340.24	218.02
340.63	219.53
341.01	222.21
341.39	222.29
341.78	223.73
342.16	224.96
342.54	224.65
342.93	213.50
343.31	224.29
343.69	224.84
344.07	225.31
344.46	225.75
344.84	226.12
345.22	226.39
345.60	226.64
345.99	226.83
346.37	226.95
346.75	227.09
347.13	227.17
347.52	227.21
347.90	227.26
348.28	227.28
348.66	227.33
349.05	227.35
349.43	227.38
349.81	227.42
350.19	227.47
350.57	227.56
350.96	227.61
351.34	227.69
351.72	227.78
352.10	227.87
352.48	227.92
352.87	227.98
353.25	228.03
353.63	228.10
354.01	228.16
354.39	228.18
354.77	228.24
355.15	228.36
355.54	228.45
355.92	228.52
356.30	228.62
356.68	228.72
357.06	228.78
357.44	228.86
357.82	228.90
358.20	229.01
358.58	229.06
358.97	229.10
359.35	229.17
359.73	229.22
360.11	229.26
360.49	229.31
360.87	229.36
361.25	229.39
361.63	229.43
362.01	229.46
362.39	229.52
362.77	229.52
363.15	229.53
363.53	229.54
363.91	229.55
364.29	229.56
364.67	229.50
365.05	229.49
365.43	229.50
365.81	229.51
366.19	229.51
366.57	229.53
366.95	229.54
367.33	229.50
367.71	229.50
368.09	229.48
368.47	229.42
368.85	229.40
369.23	229.38
369.61	229.32
369.99	229.32
370.37	229.31
370.75	229.36
371.13	229.30
371.51	229.24
371.89	229.20
372.27	229.16
372.65	229.12
373.03	229.08
373.41	229.00
373.78	228.93
374.16	228.83
374.54	228.74
374.92	228.65
375.30	228.58
375.68	228.51
376.06	228.47
376.44	228.45
376.82	228.39
377.19	228.31
377.57	228.22
377.95	228.08
378.33	228.00
378.71	227.83
379.09	227.76
379.47	227.68
379.84	227.57
380.22	227.49
380.60	227.36
380.98	227.29
381.36	227.22
381.73	227.16
382.11	227.11
382.49	227.03
382.87	226.97
383.25	226.93
383.62	226.94
384.00	226.85
384.38	226.76
384.76	226.69
385.13	226.68
385.51	226.64
385.89	226.61
386.27	226.61
386.64	226.57
387.02	226.53
387.40	226.49
387.78	226.47
388.15	226.47
388.53	226.43
388.91	226.36
389.29	226.34
389.66	226.30
390.04	226.27
390.42	226.26
390.79	226.27
391.17	226.28
391.55	226.18
391.92	226.19
392.30	226.22
392.68	226.21
393.05	226.21
393.43	226.24
393.81	226.25
394.18	226.24
394.56	226.30
394.94	226.34
395.31	226.36
395.69	226.44
396.06	226.46
396.44	226.54
396.82	226.64
397.19	226.74
397.57	226.76
397.95	226.84
398.32	226.89
398.70	226.96
399.07	227.04
399.45	227.12
399.82	227.21
400.20	227.26
400.58	227.35
400.95	227.39
401.33	227.47
401.70	227.64
402.08	227.70
402.45	227.76
402.83	227.86
403.20	228.01
403.58	228.07
403.95	228.20
404.33	228.32
404.71	228.43
405.08	228.60
405.46	228.78
405.83	228.92
406.21	229.08
406.58	229.24
406.96	229.37
407.33	229.54
407.70	229.72
408.08	230.00
408.45	230.23
408.83	230.48
409.20	230.72
409.58	230.91
409.95	231.19
410.33	231.51
410.70	231.78
411.08	232.06
411.45	232.38
411.82	232.68
412.20	233.05
412.57	233.45
412.95	233.76
413.32	234.18
413.69	234.62
414.07	235.04
414.44	235.52
414.82	236.02
415.19	236.58
415.56	237.16
415.94	237.69
416.31	238.32
416.68	238.97
417.06	239.69
417.43	240.34
417.81	241.11
418.18	241.90
418.55	242.76
418.93	243.63
419.30	244.52
419.67	245.47
420.04	246.43
420.42	247.45
420.79	248.63
421.16	249.78
421.54	250.97
421.91	252.19
422.28	253.42
422.66	254.74
423.03	256.01
423.40	257.35
423.77	258.73
424.15	260.18
424.52	261.64
424.89	263.24
425.26	264.82
425.64	266.28
426.01	267.85
426.38	269.49
426.75	271.18
427.13	272.92
427.50	274.74
427.87	276.61
428.24	278.48
428.61	280.23
428.99	282.18
429.36	284.25
429.73	286.34
430.10	288.36
430.47	290.46
430.85	292.59
431.22	294.82
431.59	297.25
431.96	299.48
432.33	301.98
432.70	304.37
433.08	307.22
433.45	309.86
433.82	312.45
434.19	315.33
434.56	318.14
434.93	320.82
435.30	323.43
435.68	326.33
436.05	329.19
436.42	331.97
436.79	334.51
437.16	337.19
437.53	340.01
437.90	342.83
438.27	345.56
438.64	348.36
439.01	350.93
439.38	353.15
439.75	355.29
440.13	357.79
440.50	360.16
440.87	362.00
441.24	363.94
441.61	366.10
441.98	367.61
442.35	369.40
442.72	371.25
443.09	373.04
443.46	374.05
443.83	374.58
444.20	375.14
444.57	375.98
444.94	376.32
445.31	376.64
445.68	377.03
446.05	377.09
446.42	376.76
446.79	376.37
447.16	375.93
447.53	375.65
447.90	374.50
448.27	373.30
448.64	371.65
449.01	370.48
449.37	368.50
449.74	366.59
450.11	364.37
450.48	361.89
450.85	359.38
451.22	357.17
451.59	355.16
451.96	353.17
452.33	350.54
452.70	348.17
453.07	345.32
453.43	342.38
453.80	339.62
454.17	336.90
454.54	334.33
454.91	331.60
455.28	328.88
455.65	326.37
456.02	323.92
456.38	321.76
456.75	319.13
457.12	316.90
457.49	314.70
457.86	312.53
458.23	310.64
458.59	308.56
458.96	306.49
459.33	304.61
459.70	302.74
460.07	301.18
460.43	299.40
460.80	297.80
461.17	296.37
461.54	294.86
461.91	293.46
462.27	292.02
462.64	290.78
463.01	289.42
463.38	288.13
463.74	286.75
464.11	285.61
464.48	284.55
464.85	283.43
465.21	282.53
465.58	281.55
465.95	280.46
466.32	279.57
466.68	278.66
467.05	277.79
467.42	276.91
467.78	275.99
468.15	275.14
468.52	274.47
468.88	273.60
469.25	272.82
469.62	272.17
469.98	271.46
470.35	270.83
470.72	270.26
471.08	269.57
471.45	269.02
471.82	268.47
472.18	267.89
472.55	267.44
472.92	266.91
473.28	266.47
473.65	266.04
474.02	265.56
474.38	265.20
474.75	264.84
475.11	264.50
475.48	264.22
475.85	264.02
476.21	263.80
476.58	263.63
476.94	263.52
477.31	263.38
477.67	263.28
478.04	263.18
478.41	263.09
478.77	263.17
479.14	263.13
479.50	263.11
479.87	263.18
480.23	263.29
480.60	263.37
480.96	263.47
481.33	263.67
481.69	263.91
482.06	264.12
482.42	264.34
482.79	264.60
483.15	264.94
483.52	265.31
483.88	265.63
484.25	266.01
484.61	266.41
484.98	266.83
485.34	267.33
485.71	267.92
486.07	268.54
486.44	269.10
486.80	269.81
487.17	270.61
487.53	271.43
487.90	272.26
488.26	273.21
488.62	274.21
488.99	275.20
489.35	276.24
489.72	277.34
490.08	278.54
490.44	279.79
490.81	281.12
491.17	282.46
491.54	283.94
491.90	285.47
492.26	287.11
492.63	288.86
492.99	290.65
493.36	292.53
493.72	294.59
494.08	296.69
494.45	298.96
494.81	301.26
495.17	303.67
495.54	306.21
495.90	308.88
496.26	311.65
496.63	314.53
496.99	317.62
497.35	320.88
497.72	324.26
498.08	327.75
498.44	331.43
498.80	335.36
499.17	339.42
499.53	343.60
499.89	347.96
500.26	352.47
500.62	357.12
500.98	362.07
501.34	367.13
501.71	372.37
502.07	377.76
502.43	383.35
502.79	389.19
503.16	395.22
503.52	401.45
503.88	407.82
504.24	414.45
504.60	421.34
504.97	428.47
505.33	435.83
505.69	443.61
506.05	451.34
506.41	459.24
506.78	467.36
507.14	475.82
507.50	484.51
507.86	493.51
508.22	502.75
508.59	511.98
508.95	521.61
509.31	531.53
509.67	541.63
510.03	551.88
510.39	562.39
510.75	573.29
511.12	584.26
511.48	595.64
511.84	607.14
512.20	618.67
512.56	630.63
512.92	642.81
513.28	655.04
513.64	667.56
514.00	680.26
514.37	693.31
514.73	706.28
515.09	719.40
515.45	732.69
515.81	746.32
516.17	760.27
516.53	774.38
516.89	788.48
517.25	802.73
517.61	817.29
517.97	831.85
518.33	846.38
518.69	861.17
519.05	876.14
519.41	891.41
519.77	907.01
520.13	922.63
520.49	938.10
520.85	953.63
521.21	969.47
521.57	985.72
521.93	1001.50
522.29	1018.03
522.65	1034.37
523.01	1050.63
523.37	1066.68
523.73	1082.91
524.09	1099.04
524.45	1115.47
524.81	1132.14
525.17	1149.03
525.53	1165.95
525.89	1182.80
526.25	1199.64
526.61	1216.06
526.97	1232.84
527.33	1249.35
527.68	1265.90
528.04	1282.38
528.40	1299.10
528.76	1316.15
529.12	1332.82
529.48	1349.85
529.84	1365.91
530.20	1382.66
530.56	1399.84
530.91	1417.29
531.27	1434.14
531.63	1450.61
531.99	1467.24
532.35	1483.32
532.71	1499.15
533.07	1515.31
533.42	1531.20
533.78	1547.34
534.14	1563.77
534.50	1579.07
534.86	1595.01
535.21	1610.19
535.57	1626.18
535.93	1641.70
536.29	1656.33
536.65	1671.38
537.00	1686.15
537.36	1701.68
537.72	1716.17
538.08	1730.46
538.44	1744.36
538.79	1758.23
539.15	1772.11
539.51	1785.89
539.87	1800.25
540.22	1814.10
540.58	1828.15
540.94	1841.60
541.29	1854.54
541.65	1867.17
542.01	1880.61
542.37	1893.01
542.72	1905.46
543.08	1917.27
543.44	1929.64
543.79	1941.12
544.15	1952.20
544.51	1963.81
544.87	1974.68
545.22	1985.42
545.58	1995.72
545.94	2005.37
546.29	2015.29
546.65	2025.02
547.01	2034.15
547.36	2042.82
547.72	2051.43
548.07	2059.32
548.43	2067.59
548.79	2075.71
549.14	2083.28
549.50	2090.52
549.86	2098.18
550.21	2105.50
550.57	2112.85
550.92	2119.48
551.28	2126.53
551.64	2133.67
551.99	2140.08
552.35	2146.26
552.70	2152.50
553.06	2158.46
553.41	2164.95
553.77	2170.96
554.13	2176.98
554.48	2183.32
554.84	2188.76
555.19	2194.12
555.55	2199.12
555.90	2203.42
556.26	2208.23
556.61	2213.08
556.97	2217.45
557.32	2221.64
557.68	2225.85
558.03	2230.05
558.39	2233.73
558.74	2238.33
559.10	2242.04
559.45	2245.64
559.81	2249.88
560.16	2253.72
560.52	2257.04
560.87	2260.44
561.23	2263.09
561.58	2266.13
561.94	2268.66
562.29	2271.17
562.64	2273.70
563.00	2276.30
563.35	2279.91
563.71	2283.01
564.06	2286.17
564.42	2288.81
564.77	2291.22
565.12	2293.46
565.48	2295.15
565.83	2297.05
566.19	2298.33
566.54	2299.35
566.89	2300.64
567.25	2301.22
567.60	2302.59
567.96	2304.12
568.31	2304.99
568.66	2306.08
569.02	2306.65
569.37	2306.88
569.72	2307.64
570.08	2307.72
570.43	2307.66
570.78	2306.92
571.14	2305.43
571.49	2303.96
571.84	2303.80
572.20	2302.51
572.55	2301.46
572.90	2300.02
573.26	2298.54
573.61	2296.87
573.96	2295.06
574.31	2291.91
574.67	2288.82
575.02	2284.93
575.37	2281.48
575.72	2277.62
576.08	2274.35
576.43	2270.94
576.78	2267.15
577.13	2263.93
577.49	2260.68
577.84	2257.27
578.19	2253.51
578.54	2249.64
578.90	2245.40
579.25	2239.73
579.60	2234.76
579.95	2229.64
580.30	2224.56
580.66	2219.39
581.01	2214.24
581.36	2209.24
581.71	2204.97
582.06	2200.49
582.42	2196.02
582.77	2190.75
583.12	2186.03
583.47	2181.16
583.82	2175.95
584.17	2170.60
584.53	2165.00
584.88	2159.34
585.23	2153.26
585.58	2147.81
585.93	2142.26
586.28	2137.38
586.63	2132.09
586.98	2126.99
587.34	2122.11
587.69	2117.10
588.04	2111.80
588.39	2106.18
588.74	2099.65
589.09	2093.44
589.44	2086.51
589.79	2080.32
590.14	2074.72
590.49	2068.01
590.84	2061.55
591.19	2055.52
591.54	2049.10
591.89	2041.43
592.25	2034.59
592.60	2027.47
592.95	2019.63
593.30	2012.31
593.65	2004.77
594.00	1997.78
594.35	1990.42
594.70	1982.37
595.05	1975.04
595.40	1967.57
595.75	1959.91
596.10	1953.59
596.45	1946.76
596.80	1940.57
597.15	1933.94
597.50	1926.71
597.85	1920.29
598.19	1913.44
598.54	1906.27
598.89	1899.59
599.24	1893.91
599.59	1887.02
599.94	1880.79
600.29	1874.63
600.64	1867.98
600.99	1860.34
601.34	1853.51
601.69	1846.59
602.04	1839.58
602.39	1832.12
602.74	1825.28
603.08	1818.67
603.43	1811.86
603.78	1804.69
604.13	1797.45
604.48	1790.12
604.83	1783.33
605.18	1776.33
605.53	1768.36
605.87	1760.46
606.22	1753.18
606.57	1745.23
606.92	1738.08
607.27	1730.78
607.62	1723.75
607.96	1716.55
608.31	1709.92
608.66	1702.13
609.01	1694.52
609.36	1686.97
609.70	1679.13
610.05	1671.08
610.40	1663.25
610.75	1655.07
611.10	1647.30
611.44	1638.92
611.79	1630.98
612.14	1622.24
612.49	1613.08
612.83	1604.68
613.18	1596.55
613.53	1588.35
613.88	1579.68
614.22	1571.38
614.57	1562.89
614.92	1554.83
615.27	1547.18
615.61	1538.92
615.96	1531.00
616.31	1523.34
616.65	1515.95
617.00	1508.33
617.35	1500.63
617.70	1492.24
618.04	1483.54
618.39	1475.21
618.74	1467.56
619.08	1459.19
619.43	1451.62
619.78	1444.65
620.12	1437.43
620.47	1429.83
620.82	1421.75
621.16	1414.38
621.51	1406.65
621.85	1398.98
622.20	1390.47
622.55	1382.08
622.89	1374.14
623.24	1366.55
623.59	1359.26
623.93	1351.81
624.28	1344.54
624.62	1336.96
624.97	1329.82
625.32	1323.11
625.66	1316.13
626.01	1308.95
626.35	1301.45
626.70	1293.58
627.04	1285.84
627.39	1278.20
627.73	1270.82
628.08	1263.84
628.43	1256.41
628.77	1249.16
629.12	1241.50
629.46	1234.31
629.81	1226.98
630.15	1219.78
630.50	1212.28
630.84	1204.05
631.19	1196.13
631.53	1188.68
631.88	1181.18
632.22	1173.51
632.57	1166.21
632.91	1158.75
633.26	1151.21
633.60	1143.98
633.95	1137.02
634.29	1130.02
634.64	1123.30
634.98	1115.91
635.32	1108.74
635.67	1102.26
636.01	1095.51
636.36	1088.80
636.70	1082.29
637.05	1075.70
637.39	1069.29
637.73	1062.81
638.08	1056.89
638.42	1050.88
638.77	1044.36
639.11	1037.76
639.45	1031.48
639.80	1024.84
640.14	1018.34
640.49	1011.90
640.83	1005.57
641.17	999.28
641.52	992.93
641.86	986.53
642.20	980.71
642.55	974.48
642.89	967.96
643.23	961.45
643.58	955.65
643.92	949.52
644.26	943.45
644.61	937.43
644.95	931.41
645.29	924.79
645.64	918.02
645.98	911.78
646.32	906.00
646.66	899.93
647.01	894.16
647.35	888.60
647.69	882.91
648.04	877.43
648.38	871.66
648.72	865.69
649.06	859.65
649.41	853.78
649.75	847.72
650.09	841.83
650.43	836.11
650.78	829.99
651.12	824.04
651.46	818.28
651.80	812.51
652.14	807.09
652.49	801.77
652.83	796.65
653.17	790.88
653.51	785.09
653.85	779.67
654.20	773.99
654.54	767.86
654.88	762.07
655.22	756.15
655.56	750.47
655.90	745.08
656.25	739.77
656.59	734.41
656.93	729.35
657.27	724.11
657.61	718.66
657.95	713.55
658.29	708.33
658.64	703.12
658.98	697.83
659.32	692.40
659.66	687.24
660.00	681.88
660.34	677.01
660.68	672.15
661.02	667.13
661.36	662.42
661.70	658.04
662.05	653.63
662.39	649.23
662.73	644.79
663.07	640.37
663.41	635.96
663.75	631.43
664.09	626.92
664.43	622.61
664.77	618.49
665.11	614.23
665.45	610.17
665.79	606.06
666.13	601.92
666.47	597.82
666.81	593.61
667.15	589.57
667.49	585.62
667.83	581.83
668.17	577.92
668.51	573.88
668.85	569.78
669.19	565.98
669.53	562.17
669.87	558.27
670.21	554.57
670.55	550.92
670.89	547.57
671.23	544.13
671.57	540.58
671.91	537.05
672.25	533.64
672.58	530.14
672.92	526.75
673.26	523.61
673.60	520.51
673.94	517.44
674.28	514.50
674.62	511.55
674.96	508.42
675.30	505.47
675.64	502.54
675.97	499.78
676.31	496.87
676.65	493.95
676.99	491.23
677.33	488.42
677.67	485.60
678.01	482.54
678.34	479.56
678.68	476.76
679.02	473.95
679.36	471.18
679.70	468.44
680.04	465.66
680.37	462.81
680.71	460.06
681.05	457.43
681.39	454.74
681.73	452.17
682.06	449.63
682.40	447.12
682.74	444.60
683.08	442.07
683.42	439.50
683.75	437.07
684.09	434.54
684.43	432.01
684.77	429.59
685.10	427.26
685.44	424.99
685.78	422.70
686.12	420.56
686.45	418.28
686.79	416.00
687.13	413.90
687.46	411.68
687.80	409.52
688.14	407.31
688.48	405.27
688.81	402.94
689.15	400.84
689.49	398.73
689.82	396.68
690.16	394.64
690.50	392.70
690.83	390.71
691.17	388.78
691.51	386.92
691.84	385.08
692.18	383.13
692.52	381.17
692.85	379.23
693.19	377.30
693.52	375.46
693.86	373.65
694.20	371.86
694.53	370.10
694.87	368.30
695.21	366.51
695.54	364.70
695.88	363.00
696.21	361.23
696.55	359.55
696.88	357.86
697.22	356.19
697.56	354.58
697.89	352.97
698.23	351.36
698.56	349.74
698.90	348.15
699.23	346.50
699.57	344.95
699.90	343.47
700.24	341.92
700.58	340.40
700.91	338.94
701.25	337.46
701.58	336.12
701.92	334.70
702.25	333.37
702.59	332.03
702.92	330.75
703.26	329.46
703.59	328.19
703.93	327.02
704.26	325.78
704.60	324.49
704.93	323.20
705.26	321.92
705.60	320.75
705.93	319.63
706.27	318.64
706.60	317.57
706.94	316.43
707.27	315.27
707.61	314.22
707.94	313.19
708.27	312.13
708.61	311.00
708.94	309.99
709.28	308.98
709.61	307.93
709.94	306.95
710.28	305.91
710.61	304.90
710.95	303.77
711.28	302.83
711.61	301.84
711.95	300.90
712.28	299.98
712.61	299.00
712.95	297.99
713.28	297.05
713.61	296.17
713.95	295.26
714.28	294.42
714.61	293.56
714.95	292.71
715.28	291.83
715.61	290.99
715.95	290.14
716.28	289.29
716.61	288.53
716.95	287.73
717.28	287.02
717.61	286.28
717.94	285.55
718.28	284.77
718.61	284.05
718.94	283.39
719.27	282.71
719.61	282.09
719.94	281.46
720.27	280.79
720.60	280.13
720.94	279.52
721.27	278.95
721.60	278.36
721.93	277.73
722.27	277.19
722.60	276.66
722.93	276.07
723.26	275.52
723.59	274.94
723.93	274.40
724.26	273.89
724.59	273.33
724.92	272.80
725.25	272.28
725.59	271.77
725.92	271.23
726.25	270.74
726.58	270.21
726.91	269.74
727.24	269.26
727.57	268.79
727.91	268.29
728.24	267.82
728.57	267.30
728.90	266.86
729.23	266.34
729.56	265.88
729.89	265.45
730.22	264.95
730.55	264.49
730.89	264.05
731.22	263.60
731.55	263.15
731.88	262.75
732.21	262.39
732.54	261.99
732.87	261.62
733.20	261.22
733.53	260.87
733.86	260.47
734.19	260.07
734.52	259.72
734.85	259.42
735.18	259.02
735.51	258.67
735.84	258.32
736.17	258.02
736.50	257.64
736.83	257.39
737.16	257.07
737.49	256.75
737.82	256.39
738.15	256.00
738.48	255.67
738.81	255.33
739.14	254.97
739.47	254.65
739.80	254.31
740.13	254.00
740.46	253.66
740.79	253.31
741.12	253.00
741.45	252.65
741.78	252.29
742.11	252.03
742.44	251.72
742.77	251.43
743.10	251.10
743.43	250.84
743.75	250.42
744.08	250.28
744.41	250.00
744.74	249.74
745.07	249.45
745.40	249.20
745.73	248.96
746.06	248.69
746.39	248.45
746.71	248.21
747.04	247.93
747.37	247.63
747.70	247.42
748.03	247.19
748.36	246.98
748.68	246.76
749.01	246.45
749.34	246.22
749.67	245.98
750.00	245.78
750.33	245.59
750.65	245.39
750.98	245.05
751.31	244.82
751.64	244.59
751.97	244.45
752.29	244.24
752.62	243.99
752.95	243.77
753.28	243.52
753.60	243.26
753.93	243.04
754.26	242.87
754.59	242.64
754.91	242.43
755.24	242.19
755.57	241.98
755.90	241.80
756.22	241.58
756.55	241.36
756.88	241.15
757.20	240.91
757.53	240.75
757.86	240.56
758.19	240.38
758.51	240.21
758.84	240.01
759.17	239.84
759.49	239.69
759.82	239.58
760.15	239.44
760.47	239.31
760.80	239.14
761.13	239.00
761.45	238.85
761.78	238.70
762.11	238.56
762.43	238.39
762.76	238.27
763.08	238.19
763.41	238.08
763.74	237.97
764.06	237.84
764.39	237.65
764.71	237.55
765.04	237.43
765.37	237.30
765.69	237.18
766.02	237.09
766.34	236.94
766.67	236.80
767.00	236.73
767.32	236.67
767.65	236.66
767.97	236.59
768.30	236.48
768.62	236.39
768.95	236.27
769.27	236.17
769.60	236.06
769.92	235.94
770.25	235.83
770.57	235.69
770.90	235.61
771.22	235.53
771.55	235.40
771.87	235.31
772.20	235.26
772.52	235.24
772.85	235.27
773.17	235.21
773.50	235.09
773.82	234.97
774.15	234.86
774.47	234.74
774.80	234.63
775.12	234.53
775.45	234.45
775.77	234.37
776.09	234.30
776.42	234.21
776.74	234.17
777.07	234.10
777.39	234.04
777.72	233.98
778.04	233.91
778.36	233.87
778.69	233.81
779.01	233.72
779.33	233.56
779.66	233.38
779.98	233.29
780.31	233.24
780.63	233.18
780.95	233.13
781.28	233.03
781.60	232.94
781.92	232.89
782.25	232.81
782.57	232.78
782.89	232.70
783.22	232.66
783.54	232.58
783.86	232.51
784.19	232.43
784.51	232.38
784.83	232.33
785.16	232.26
785.48	232.20
785.80	232.17
786.12	232.12
786.45	232.07
786.77	232.02
787.09	231.97
