SpectraSuite Data File
++++++++++++++++++++++++++++++++++++
Date: Fri Feb 01 14:59:12 EST 2013
User: group
Dark Spectrum Present: No
Reference Spectrum Present: No
Number of Sampled Component Spectra: 1
Spectrometers: USB2E7196
Integration Time (usec): 35000 (USB2E7196)
Spectra Averaged: 100 (USB2E7196)
Boxcar Smoothing: 10 (USB2E7196)
Correct for Electrical Dark: No (USB2E7196)
Strobe/Lamp Enabled: No (USB2E7196)
Correct for Detector Non-linearity: No (USB2E7196)
Correct for Stray Light: No (USB2E7196)
Number of Pixels in Processed Spectrum: 2048
>>>>>Begin Processed Spectral Data<<<<<
339.09	0.00
339.48	215.25
339.86	216.97
340.24	218.00
340.63	219.83
341.01	222.46
341.39	222.77
341.78	223.91
342.16	224.55
342.54	225.31
342.93	213.68
343.31	224.50
343.69	225.05
344.07	225.52
344.46	225.97
344.84	226.34
345.22	226.57
345.60	226.79
345.99	226.95
346.37	227.11
346.75	227.22
347.13	227.28
347.52	227.34
347.90	227.41
348.28	227.46
348.66	227.52
349.05	227.51
349.43	227.55
349.81	227.59
350.19	227.63
350.57	227.68
350.96	227.75
351.34	227.82
351.72	227.87
352.10	227.96
352.48	228.02
352.87	228.09
353.25	228.16
353.63	228.24
354.01	228.33
354.39	228.39
354.77	228.47
355.15	228.58
355.54	228.68
355.92	228.68
356.30	228.76
356.68	228.91
357.06	228.97
357.44	228.99
357.82	229.07
358.20	229.16
358.58	229.23
358.97	229.36
359.35	229.42
359.73	229.51
360.11	229.57
360.49	229.61
360.87	229.64
361.25	229.69
361.63	229.74
362.01	229.78
362.39	229.80
362.77	229.81
363.15	229.85
363.53	229.84
363.91	229.86
364.29	229.86
364.67	229.77
365.05	229.78
365.43	229.81
365.81	229.80
366.19	229.79
366.57	229.80
366.95	229.76
367.33	229.71
367.71	229.69
368.09	229.69
368.47	229.66
368.85	229.64
369.23	229.61
369.61	229.53
369.99	229.51
370.37	229.50
370.75	229.50
371.13	229.42
371.51	229.35
371.89	229.33
372.27	229.28
372.65	229.21
373.03	229.16
373.41	229.08
373.78	229.05
374.16	228.95
374.54	228.85
374.92	228.74
375.30	228.68
375.68	228.58
376.06	228.50
376.44	228.41
376.82	228.32
377.19	228.24
377.57	228.17
377.95	228.06
378.33	227.96
378.71	227.83
379.09	227.76
379.47	227.69
379.84	227.57
380.22	227.49
380.60	227.42
380.98	227.36
381.36	227.27
381.73	227.16
382.11	227.13
382.49	227.06
382.87	226.98
383.25	226.90
383.62	226.93
384.00	226.86
384.38	226.79
384.76	226.72
385.13	226.70
385.51	226.68
385.89	226.58
386.27	226.52
386.64	226.48
387.02	226.43
387.40	226.38
387.78	226.35
388.15	226.31
388.53	226.27
388.91	226.22
389.29	226.20
389.66	226.20
390.04	226.14
390.42	226.13
390.79	226.14
391.17	226.15
391.55	226.04
391.92	226.02
392.30	226.04
392.68	226.03
393.05	226.04
393.43	226.03
393.81	226.09
394.18	226.10
394.56	226.14
394.94	226.23
395.31	226.27
395.69	226.34
396.06	226.39
396.44	226.43
396.82	226.48
397.19	226.60
397.57	226.66
397.95	226.73
398.32	226.80
398.70	226.87
399.07	226.98
399.45	227.05
399.82	227.17
400.20	227.23
400.58	227.35
400.95	227.39
401.33	227.50
401.70	227.66
402.08	227.81
402.45	227.89
402.83	228.00
403.20	228.12
403.58	228.23
403.95	228.39
404.33	228.55
404.71	228.66
405.08	228.84
405.46	228.96
405.83	229.12
406.21	229.27
406.58	229.48
406.96	229.65
407.33	229.86
407.70	230.07
408.08	230.39
408.45	230.63
408.83	230.88
409.20	231.13
409.58	231.29
409.95	231.53
410.33	231.83
410.70	232.10
411.08	232.43
411.45	232.75
411.82	233.04
412.20	233.39
412.57	233.83
412.95	234.13
413.32	234.57
413.69	234.99
414.07	235.45
414.44	235.88
414.82	236.36
415.19	236.91
415.56	237.42
415.94	237.96
416.31	238.60
416.68	239.19
417.06	239.87
417.43	240.55
417.81	241.33
418.18	242.11
418.55	242.92
418.93	243.78
419.30	244.64
419.67	245.60
420.04	246.55
420.42	247.53
420.79	248.70
421.16	249.86
421.54	251.04
421.91	252.26
422.28	253.52
422.66	254.85
423.03	256.17
423.40	257.52
423.77	258.89
424.15	260.30
424.52	261.80
424.89	263.41
425.26	265.00
425.64	266.45
426.01	268.03
426.38	269.64
426.75	271.31
427.13	273.02
427.50	274.82
427.87	276.66
428.24	278.52
428.61	280.27
428.99	282.19
429.36	284.29
429.73	286.34
430.10	288.36
430.47	290.43
430.85	292.54
431.22	294.78
431.59	297.20
431.96	299.42
432.33	301.93
432.70	304.29
433.08	307.10
433.45	309.73
433.82	312.36
434.19	315.29
434.56	318.07
434.93	320.75
435.30	323.34
435.68	326.29
436.05	329.13
436.42	331.93
436.79	334.46
437.16	337.17
437.53	340.01
437.90	342.85
438.27	345.62
438.64	348.45
439.01	351.05
439.38	353.28
439.75	355.47
440.13	357.98
440.50	360.35
440.87	362.19
441.24	364.18
441.61	366.33
441.98	367.86
442.35	369.68
442.72	371.55
443.09	373.40
443.46	374.35
443.83	374.93
444.20	375.47
444.57	376.32
444.94	376.60
445.31	376.93
445.68	377.27
446.05	377.35
446.42	376.91
446.79	376.49
447.16	376.04
447.53	375.74
447.90	374.57
448.27	373.38
448.64	371.79
449.01	370.59
449.37	368.61
449.74	366.68
450.11	364.41
450.48	361.92
450.85	359.35
451.22	357.24
451.59	355.23
451.96	353.22
452.33	350.61
452.70	348.26
453.07	345.47
453.43	342.59
453.80	339.81
454.17	337.20
454.54	334.61
454.91	331.88
455.28	329.20
455.65	326.74
456.02	324.30
456.38	322.19
456.75	319.55
457.12	317.32
457.49	315.13
457.86	312.99
458.23	311.17
458.59	309.16
458.96	307.03
459.33	305.13
459.70	303.29
460.07	301.80
460.43	300.02
460.80	298.36
461.17	296.88
461.54	295.35
461.91	293.89
462.27	292.45
462.64	291.20
463.01	289.85
463.38	288.52
463.74	287.15
464.11	285.96
464.48	284.94
464.85	283.75
465.21	282.81
465.58	281.85
465.95	280.75
466.32	279.83
466.68	278.97
467.05	278.09
467.42	277.17
467.78	276.20
468.15	275.33
468.52	274.64
468.88	273.76
469.25	272.99
469.62	272.34
469.98	271.66
470.35	271.00
470.72	270.36
471.08	269.67
471.45	269.08
471.82	268.52
472.18	267.89
472.55	267.48
472.92	266.97
473.28	266.49
473.65	266.01
474.02	265.56
474.38	265.19
474.75	264.84
475.11	264.50
475.48	264.26
475.85	264.01
476.21	263.77
476.58	263.61
476.94	263.43
477.31	263.25
477.67	263.10
478.04	262.95
478.41	262.94
478.77	263.01
479.14	262.96
479.50	262.96
479.87	263.02
480.23	263.09
480.60	263.15
480.96	263.27
481.33	263.44
481.69	263.59
482.06	263.76
482.42	263.93
482.79	264.12
483.15	264.37
483.52	264.75
483.88	265.13
484.25	265.50
484.61	265.91
484.98	266.38
485.34	266.94
485.71	267.56
486.07	268.14
486.44	268.64
486.80	269.32
487.17	270.03
487.53	270.86
487.90	271.71
488.26	272.65
488.62	273.63
488.99	274.61
489.35	275.67
489.72	276.79
490.08	278.01
490.44	279.29
490.81	280.65
491.17	282.01
491.54	283.47
491.90	284.98
492.26	286.64
492.63	288.37
492.99	290.13
493.36	292.03
493.72	294.08
494.08	296.21
494.45	298.44
494.81	300.81
495.17	303.21
495.54	305.78
495.90	308.45
496.26	311.20
496.63	314.18
496.99	317.27
497.35	320.48
497.72	323.93
498.08	327.40
498.44	331.03
498.80	334.92
499.17	338.92
499.53	343.09
499.89	347.42
500.26	351.86
500.62	356.50
500.98	361.42
501.34	366.45
501.71	371.79
502.07	377.26
502.43	382.82
502.79	388.62
503.16	394.64
503.52	400.89
503.88	407.31
504.24	413.89
504.60	420.74
504.97	427.83
505.33	435.07
505.69	442.74
506.05	450.54
506.41	458.41
506.78	466.55
507.14	474.99
507.50	483.69
507.86	492.74
508.22	501.93
508.59	511.09
508.95	520.66
509.31	530.34
509.67	540.36
510.03	550.68
510.39	561.22
510.75	572.05
511.12	582.92
511.48	594.17
511.84	605.55
512.20	617.09
512.56	629.06
512.92	641.28
513.28	653.54
513.64	665.96
514.00	678.65
514.37	691.58
514.73	704.68
515.09	717.82
515.45	731.08
515.81	744.70
516.17	758.70
516.53	772.80
516.89	787.14
517.25	801.37
517.61	815.85
517.97	830.40
518.33	844.79
518.69	859.56
519.05	874.66
519.41	889.93
519.77	905.43
520.13	920.91
520.49	936.30
520.85	951.82
521.21	967.72
521.57	984.05
521.93	999.85
522.29	1016.23
522.65	1032.39
523.01	1048.63
523.37	1064.77
523.73	1081.06
524.09	1097.19
524.45	1113.54
524.81	1130.25
525.17	1147.19
525.53	1164.11
525.89	1181.06
526.25	1198.02
526.61	1214.35
526.97	1231.12
527.33	1247.72
527.68	1264.48
528.04	1281.12
528.40	1297.89
528.76	1314.91
529.12	1331.59
529.48	1348.60
529.84	1364.76
530.20	1381.52
530.56	1398.71
530.91	1416.09
531.27	1432.96
531.63	1449.49
531.99	1466.13
532.35	1482.20
532.71	1498.19
533.07	1514.56
533.42	1530.59
533.78	1546.70
534.14	1563.00
534.50	1578.58
534.86	1594.57
535.21	1609.74
535.57	1625.78
535.93	1641.35
536.29	1656.32
536.65	1671.55
537.00	1686.45
537.36	1701.81
537.72	1716.45
538.08	1730.75
538.44	1744.64
538.79	1758.52
539.15	1772.54
539.51	1786.40
539.87	1800.91
540.22	1814.55
540.58	1828.42
540.94	1841.89
541.29	1855.02
541.65	1868.00
542.01	1881.27
542.37	1893.67
542.72	1906.22
543.08	1917.98
543.44	1930.47
543.79	1941.64
544.15	1952.52
544.51	1964.05
544.87	1975.04
545.22	1985.88
545.58	1996.19
545.94	2006.12
546.29	2016.11
546.65	2025.75
547.01	2034.97
547.36	2043.62
547.72	2052.09
548.07	2059.84
548.43	2068.02
548.79	2075.94
549.14	2083.39
549.50	2090.70
549.86	2098.43
550.21	2105.77
550.57	2112.95
550.92	2119.60
551.28	2126.84
551.64	2133.95
551.99	2140.57
552.35	2146.70
552.70	2152.81
553.06	2158.66
553.41	2164.91
553.77	2170.90
554.13	2176.93
554.48	2182.98
554.84	2188.25
555.19	2193.69
555.55	2198.72
555.90	2203.03
556.26	2207.79
556.61	2212.53
556.97	2216.69
557.32	2220.76
557.68	2224.80
558.03	2229.16
558.39	2232.78
558.74	2237.29
559.10	2241.18
559.45	2244.79
559.81	2249.20
560.16	2252.91
560.52	2256.37
560.87	2259.73
561.23	2262.24
561.58	2265.32
561.94	2267.94
562.29	2270.53
562.64	2272.96
563.00	2275.69
563.35	2279.18
563.71	2282.29
564.06	2285.32
564.42	2288.14
564.77	2290.43
565.12	2292.53
565.48	2294.18
565.83	2295.89
566.19	2296.98
566.54	2297.91
566.89	2298.88
567.25	2299.13
567.60	2300.48
567.96	2301.74
568.31	2302.47
568.66	2303.46
569.02	2303.75
569.37	2303.91
569.72	2304.40
570.08	2304.52
570.43	2304.35
570.78	2303.55
571.14	2301.86
571.49	2300.55
571.84	2300.08
572.20	2298.91
572.55	2297.68
572.90	2295.98
573.26	2294.34
573.61	2292.55
573.96	2290.43
574.31	2287.20
574.67	2284.09
575.02	2280.23
575.37	2276.84
575.72	2272.67
576.08	2269.30
576.43	2266.07
576.78	2262.23
577.13	2259.02
577.49	2255.92
577.84	2252.24
578.19	2248.49
578.54	2244.72
578.90	2240.23
579.25	2234.61
579.60	2229.43
579.95	2224.33
580.30	2219.17
580.66	2213.87
581.01	2208.79
581.36	2203.62
581.71	2199.44
582.06	2194.85
582.42	2190.30
582.77	2184.96
583.12	2180.35
583.47	2175.25
583.82	2169.88
584.17	2164.50
584.53	2158.89
584.88	2153.11
585.23	2147.20
585.58	2141.69
585.93	2136.12
586.28	2131.20
586.63	2125.98
586.98	2120.68
587.34	2115.96
587.69	2110.98
588.04	2105.57
588.39	2099.78
588.74	2093.26
589.09	2086.97
589.44	2080.06
589.79	2073.86
590.14	2068.08
590.49	2061.57
590.84	2055.15
591.19	2048.90
591.54	2042.22
591.89	2034.56
592.25	2027.50
592.60	2020.31
592.95	2012.38
593.30	2004.92
593.65	1997.28
594.00	1990.14
594.35	1982.98
594.70	1974.81
595.05	1967.42
595.40	1960.23
595.75	1952.63
596.10	1946.28
596.45	1939.32
596.80	1933.01
597.15	1926.26
597.50	1919.13
597.85	1912.65
598.19	1905.99
598.54	1898.98
598.89	1892.39
599.24	1886.52
599.59	1879.78
599.94	1873.34
600.29	1867.14
600.64	1860.55
600.99	1852.91
601.34	1845.99
601.69	1838.99
602.04	1832.05
602.39	1824.72
602.74	1817.66
603.08	1810.88
603.43	1804.23
603.78	1797.02
604.13	1789.84
604.48	1782.55
604.83	1775.67
605.18	1768.46
605.53	1760.49
605.87	1752.28
606.22	1744.98
606.57	1737.10
606.92	1729.72
607.27	1722.68
607.62	1715.68
607.96	1708.36
608.31	1701.79
608.66	1694.12
609.01	1686.55
609.36	1679.05
609.70	1670.96
610.05	1663.02
610.40	1655.32
610.75	1646.94
611.10	1639.24
611.44	1630.95
611.79	1623.04
612.14	1614.30
612.49	1605.34
612.83	1596.92
613.18	1589.00
613.53	1580.87
613.88	1572.23
614.22	1564.06
614.57	1555.57
614.92	1547.48
615.27	1539.99
615.61	1531.62
615.96	1523.64
616.31	1516.04
616.65	1508.65
617.00	1501.18
617.35	1493.49
617.70	1485.18
618.04	1476.70
618.39	1468.61
618.74	1460.99
619.08	1452.66
619.43	1445.32
619.78	1438.47
620.12	1431.42
620.47	1423.84
620.82	1415.85
621.16	1408.58
621.51	1401.01
621.85	1393.27
622.20	1384.84
622.55	1376.53
622.89	1368.80
623.24	1361.26
623.59	1353.85
623.93	1346.33
624.28	1339.13
624.62	1331.54
624.97	1324.37
625.32	1317.75
625.66	1310.64
626.01	1303.43
626.35	1295.98
626.70	1288.13
627.04	1280.39
627.39	1272.58
627.73	1265.18
628.08	1258.26
628.43	1250.90
628.77	1243.48
629.12	1236.00
629.46	1228.90
629.81	1221.64
630.15	1214.43
630.50	1207.05
630.84	1198.95
631.19	1191.14
631.53	1183.69
631.88	1176.34
632.22	1168.86
632.57	1161.54
632.91	1154.08
633.26	1146.76
633.60	1139.54
633.95	1132.57
634.29	1125.59
634.64	1119.01
634.98	1111.73
635.32	1104.61
635.67	1098.20
636.01	1091.62
636.36	1084.86
636.70	1078.42
637.05	1071.66
637.39	1065.32
637.73	1058.92
638.08	1053.07
638.42	1047.07
638.77	1040.64
639.11	1034.10
639.45	1027.79
639.80	1021.13
640.14	1014.70
640.49	1008.14
640.83	1001.89
641.17	995.59
641.52	989.29
641.86	982.90
642.20	977.15
642.55	970.95
642.89	964.41
643.23	957.94
643.58	952.13
643.92	945.87
644.26	939.89
644.61	933.98
644.95	927.87
645.29	921.30
645.64	914.67
645.98	908.46
646.32	902.62
646.66	896.60
647.01	890.91
647.35	885.23
647.69	879.52
648.04	874.06
648.38	868.31
648.72	862.26
649.06	856.22
649.41	850.33
649.75	844.32
650.09	838.43
650.43	832.66
650.78	826.60
651.12	820.68
651.46	814.98
651.80	809.17
652.14	803.87
652.49	798.55
652.83	793.40
653.17	787.66
653.51	782.00
653.85	776.56
654.20	770.98
654.54	765.05
654.88	759.38
655.22	753.52
655.56	747.87
655.90	742.49
656.25	737.31
656.59	731.97
656.93	726.95
657.27	721.86
657.61	716.44
657.95	711.39
658.29	706.40
658.64	701.21
658.98	695.92
659.32	690.53
659.66	685.31
660.00	679.99
660.34	675.13
660.68	670.21
661.02	665.23
661.36	660.44
661.70	655.98
662.05	651.60
662.39	647.27
662.73	642.89
663.07	638.53
663.41	634.03
663.75	629.58
664.09	625.05
664.43	620.70
664.77	616.59
665.11	612.37
665.45	608.29
665.79	604.26
666.13	600.11
666.47	596.01
666.81	591.88
667.15	587.81
667.49	583.92
667.83	580.15
668.17	576.24
668.51	572.22
668.85	568.21
669.19	564.40
669.53	560.56
669.87	556.67
670.21	553.02
670.55	549.47
670.89	546.13
671.23	542.71
671.57	539.19
671.91	535.74
672.25	532.31
672.58	528.83
672.92	525.47
673.26	522.38
673.60	519.25
673.94	516.18
674.28	513.31
674.62	510.39
674.96	507.26
675.30	504.37
675.64	501.52
675.97	498.83
676.31	495.97
676.65	493.07
676.99	490.39
677.33	487.52
677.67	484.69
678.01	481.65
678.34	478.61
678.68	475.78
679.02	472.93
679.36	470.11
679.70	467.43
680.04	464.60
680.37	461.76
680.71	459.02
681.05	456.44
681.39	453.72
681.73	451.09
682.06	448.61
682.40	446.09
682.74	443.59
683.08	441.05
683.42	438.50
683.75	436.06
684.09	433.60
684.43	431.18
684.77	428.73
685.10	426.38
685.44	424.18
685.78	421.89
686.12	419.71
686.45	417.44
686.79	415.12
687.13	412.98
687.46	410.82
687.80	408.66
688.14	406.47
688.48	404.47
688.81	402.27
689.15	400.17
689.49	398.03
689.82	395.93
690.16	393.84
690.50	391.90
690.83	389.92
691.17	387.92
691.51	386.04
691.84	384.21
692.18	382.30
692.52	380.29
692.85	378.40
693.19	376.54
693.52	374.77
693.86	372.98
694.20	371.27
694.53	369.48
694.87	367.69
695.21	365.92
695.54	364.10
695.88	362.37
696.21	360.66
696.55	359.05
696.88	357.37
697.22	355.74
697.56	354.18
697.89	352.52
698.23	350.94
698.56	349.33
698.90	347.71
699.23	346.06
699.57	344.55
699.90	343.02
700.24	341.47
700.58	339.92
700.91	338.44
701.25	337.00
701.58	335.64
701.92	334.28
702.25	332.95
702.59	331.54
702.92	330.20
703.26	328.89
703.59	327.58
703.93	326.43
704.26	325.20
704.60	323.89
704.93	322.68
705.26	321.40
705.60	320.23
705.93	319.13
706.27	318.14
706.60	317.08
706.94	316.00
707.27	314.85
707.61	313.81
707.94	312.77
708.27	311.68
708.61	310.59
708.94	309.56
709.28	308.53
709.61	307.61
709.94	306.70
710.28	305.68
710.61	304.75
710.95	303.69
711.28	302.82
711.61	301.85
711.95	300.95
712.28	300.02
712.61	299.05
712.95	298.08
713.28	297.17
713.61	296.27
713.95	295.37
714.28	294.60
714.61	293.70
714.95	292.84
715.28	291.98
715.61	291.11
715.95	290.30
716.28	289.46
716.61	288.68
716.95	287.83
717.28	287.13
717.61	286.35
717.94	285.59
718.28	284.76
718.61	284.03
718.94	283.32
719.27	282.69
719.61	282.03
719.94	281.40
720.27	280.71
720.60	280.11
720.94	279.49
721.27	278.89
721.60	278.35
721.93	277.75
722.27	277.22
722.60	276.66
722.93	276.05
723.26	275.50
723.59	274.88
723.93	274.37
724.26	273.79
724.59	273.22
724.92	272.74
725.25	272.24
725.59	271.71
725.92	271.20
726.25	270.65
726.58	270.19
726.91	269.70
727.24	269.28
727.57	268.79
727.91	268.29
728.24	267.81
728.57	267.31
728.90	266.88
729.23	266.41
729.56	266.02
729.89	265.58
730.22	265.12
730.55	264.68
730.89	264.21
731.22	263.79
731.55	263.35
731.88	262.90
732.21	262.50
732.54	262.08
732.87	261.68
733.20	261.29
733.53	260.89
733.86	260.52
734.19	260.08
734.52	259.70
734.85	259.39
735.18	258.96
735.51	258.63
735.84	258.28
736.17	257.90
736.50	257.47
736.83	257.25
737.16	256.93
737.49	256.62
737.82	256.28
738.15	255.96
738.48	255.63
738.81	255.29
739.14	254.93
739.47	254.63
739.80	254.31
740.13	254.00
740.46	253.71
740.79	253.36
741.12	253.05
741.45	252.71
741.78	252.37
742.11	252.10
742.44	251.75
742.77	251.46
743.10	251.15
743.43	250.86
743.75	250.45
744.08	250.30
744.41	250.02
744.74	249.77
745.07	249.45
745.40	249.20
745.73	248.97
746.06	248.70
746.39	248.43
746.71	248.16
747.04	247.90
747.37	247.59
747.70	247.32
748.03	247.08
748.36	246.86
748.68	246.64
749.01	246.38
749.34	246.15
749.67	245.90
750.00	245.71
750.33	245.56
750.65	245.39
750.98	245.04
751.31	244.81
751.64	244.61
751.97	244.47
752.29	244.24
752.62	244.00
752.95	243.81
753.28	243.60
753.60	243.39
753.93	243.23
754.26	243.08
754.59	242.88
754.91	242.69
755.24	242.46
755.57	242.28
755.90	242.10
756.22	241.89
756.55	241.73
756.88	241.55
757.20	241.33
757.53	241.09
757.86	240.96
758.19	240.76
758.51	240.58
758.84	240.39
759.17	240.23
759.49	240.08
759.82	239.98
760.15	239.85
760.47	239.73
760.80	239.53
761.13	239.39
761.45	239.25
761.78	239.07
762.11	238.96
762.43	238.81
762.76	238.66
763.08	238.59
763.41	238.42
763.74	238.26
764.06	238.09
764.39	237.98
764.71	237.81
765.04	237.66
765.37	237.53
765.69	237.42
766.02	237.32
766.34	237.22
766.67	237.08
767.00	236.97
767.32	236.91
767.65	236.89
767.97	236.76
768.30	236.63
768.62	236.55
768.95	236.42
769.27	236.33
769.60	236.25
769.92	236.11
770.25	236.00
770.57	235.91
770.90	235.80
771.22	235.66
771.55	235.58
771.87	235.53
772.20	235.39
772.52	235.38
772.85	235.38
773.17	235.23
773.50	235.13
773.82	235.02
774.15	234.87
774.47	234.68
774.80	234.62
775.12	234.55
775.45	234.45
775.77	234.39
776.09	234.30
776.42	234.21
776.74	234.17
777.07	234.10
777.39	234.03
777.72	233.99
778.04	233.94
778.36	233.86
778.69	233.79
779.01	233.79
779.33	233.59
779.66	233.44
779.98	233.37
780.31	233.30
780.63	233.26
780.95	233.19
781.28	233.14
781.60	233.06
781.92	233.01
782.25	232.94
782.57	232.92
782.89	232.84
783.22	232.76
783.54	232.67
783.86	232.63
784.19	232.58
784.51	232.51
784.83	232.47
785.16	232.42
785.48	232.38
785.80	232.32
786.12	232.32
786.45	232.24
786.77	232.22
787.09	232.19
