SpectraSuite Data File
++++++++++++++++++++++++++++++++++++
Date: Fri Feb 01 14:59:09 EST 2013
User: group
Dark Spectrum Present: No
Reference Spectrum Present: No
Number of Sampled Component Spectra: 1
Spectrometers: USB2E7196
Integration Time (usec): 35000 (USB2E7196)
Spectra Averaged: 100 (USB2E7196)
Boxcar Smoothing: 10 (USB2E7196)
Correct for Electrical Dark: No (USB2E7196)
Strobe/Lamp Enabled: No (USB2E7196)
Correct for Detector Non-linearity: No (USB2E7196)
Correct for Stray Light: No (USB2E7196)
Number of Pixels in Processed Spectrum: 2048
>>>>>Begin Processed Spectral Data<<<<<
339.09	0.00
339.48	215.65
339.86	216.94
340.24	218.32
340.63	219.44
341.01	222.03
341.39	222.29
341.78	223.38
342.16	224.86
342.54	225.25
342.93	213.73
343.31	224.51
343.69	225.03
344.07	225.47
344.46	225.87
344.84	226.25
345.22	226.50
345.60	226.74
345.99	226.95
346.37	227.06
346.75	227.17
347.13	227.25
347.52	227.29
347.90	227.32
348.28	227.36
348.66	227.41
349.05	227.37
349.43	227.40
349.81	227.40
350.19	227.44
350.57	227.46
350.96	227.53
351.34	227.62
351.72	227.69
352.10	227.80
352.48	227.87
352.87	227.92
353.25	227.97
353.63	228.02
354.01	228.06
354.39	228.16
354.77	228.23
355.15	228.36
355.54	228.42
355.92	228.50
356.30	228.54
356.68	228.64
357.06	228.71
357.44	228.78
357.82	228.84
358.20	228.89
358.58	228.94
358.97	228.99
359.35	229.08
359.73	229.16
360.11	229.18
360.49	229.23
360.87	229.29
361.25	229.36
361.63	229.44
362.01	229.51
362.39	229.52
362.77	229.54
363.15	229.53
363.53	229.55
363.91	229.56
364.29	229.59
364.67	229.50
365.05	229.51
365.43	229.51
365.81	229.54
366.19	229.59
366.57	229.65
366.95	229.63
367.33	229.60
367.71	229.59
368.09	229.62
368.47	229.59
368.85	229.54
369.23	229.52
369.61	229.45
369.99	229.41
370.37	229.38
370.75	229.40
371.13	229.32
371.51	229.25
371.89	229.23
372.27	229.20
372.65	229.15
373.03	229.08
373.41	229.00
373.78	228.94
374.16	228.80
374.54	228.70
374.92	228.62
375.30	228.57
375.68	228.48
376.06	228.40
376.44	228.36
376.82	228.32
377.19	228.26
377.57	228.17
377.95	228.08
378.33	228.00
378.71	227.85
379.09	227.80
379.47	227.71
379.84	227.62
380.22	227.49
380.60	227.41
380.98	227.35
381.36	227.30
381.73	227.21
382.11	227.17
382.49	227.12
382.87	227.04
383.25	226.94
383.62	226.99
384.00	226.93
384.38	226.85
384.76	226.81
385.13	226.76
385.51	226.73
385.89	226.66
386.27	226.60
386.64	226.57
387.02	226.54
387.40	226.52
387.78	226.49
388.15	226.51
388.53	226.46
388.91	226.45
389.29	226.42
389.66	226.46
390.04	226.43
390.42	226.40
390.79	226.41
391.17	226.41
391.55	226.26
391.92	226.25
392.30	226.29
392.68	226.24
393.05	226.26
393.43	226.24
393.81	226.26
394.18	226.28
394.56	226.32
394.94	226.37
395.31	226.39
395.69	226.44
396.06	226.48
396.44	226.55
396.82	226.60
397.19	226.69
397.57	226.69
397.95	226.77
398.32	226.80
398.70	226.89
399.07	226.97
399.45	227.10
399.82	227.16
400.20	227.21
400.58	227.31
400.95	227.37
401.33	227.49
401.70	227.66
402.08	227.76
402.45	227.87
402.83	227.98
403.20	228.14
403.58	228.27
403.95	228.39
404.33	228.53
404.71	228.63
405.08	228.82
405.46	228.99
405.83	229.15
406.21	229.32
406.58	229.48
406.96	229.66
407.33	229.82
407.70	230.03
408.08	230.33
408.45	230.55
408.83	230.81
409.20	231.03
409.58	231.24
409.95	231.50
410.33	231.80
410.70	232.05
411.08	232.33
411.45	232.63
411.82	232.95
412.20	233.30
412.57	233.73
412.95	234.01
413.32	234.42
413.69	234.82
414.07	235.29
414.44	235.75
414.82	236.25
415.19	236.82
415.56	237.37
415.94	237.90
416.31	238.56
416.68	239.16
417.06	239.91
417.43	240.58
417.81	241.36
418.18	242.09
418.55	242.94
418.93	243.78
419.30	244.66
419.67	245.58
420.04	246.53
420.42	247.51
420.79	248.73
421.16	249.85
421.54	251.05
421.91	252.25
422.28	253.50
422.66	254.84
423.03	256.15
423.40	257.49
423.77	258.88
424.15	260.28
424.52	261.76
424.89	263.35
425.26	264.90
425.64	266.36
426.01	267.98
426.38	269.64
426.75	271.33
427.13	273.12
427.50	274.92
427.87	276.80
428.24	278.62
428.61	280.35
428.99	282.30
429.36	284.40
429.73	286.47
430.10	288.51
430.47	290.56
430.85	292.67
431.22	294.91
431.59	297.29
431.96	299.56
432.33	302.10
432.70	304.48
433.08	307.26
433.45	309.91
433.82	312.52
434.19	315.44
434.56	318.24
434.93	320.87
435.30	323.53
435.68	326.41
436.05	329.33
436.42	332.14
436.79	334.63
437.16	337.33
437.53	340.20
437.90	343.04
438.27	345.81
438.64	348.64
439.01	351.24
439.38	353.50
439.75	355.69
440.13	358.19
440.50	360.52
440.87	362.40
441.24	364.32
441.61	366.50
441.98	367.98
442.35	369.81
442.72	371.65
443.09	373.41
443.46	374.42
443.83	374.98
444.20	375.47
444.57	376.35
444.94	376.64
445.31	376.95
445.68	377.25
446.05	377.34
446.42	376.96
446.79	376.58
447.16	376.10
447.53	375.77
447.90	374.60
448.27	373.49
448.64	371.90
449.01	370.82
449.37	368.81
449.74	366.87
450.11	364.63
450.48	362.17
450.85	359.64
451.22	357.49
451.59	355.46
451.96	353.56
452.33	350.97
452.70	348.63
453.07	345.80
453.43	342.92
453.80	340.11
454.17	337.41
454.54	334.82
454.91	332.09
455.28	329.39
455.65	326.88
456.02	324.38
456.38	322.25
456.75	319.58
457.12	317.38
457.49	315.20
457.86	313.02
458.23	311.17
458.59	309.17
458.96	307.12
459.33	305.27
459.70	303.38
460.07	301.84
460.43	300.10
460.80	298.46
461.17	297.02
461.54	295.54
461.91	294.07
462.27	292.61
462.64	291.40
463.01	290.05
463.38	288.77
463.74	287.41
464.11	286.24
464.48	285.20
464.85	284.05
465.21	283.12
465.58	282.15
465.95	281.03
466.32	280.13
466.68	279.18
467.05	278.31
467.42	277.36
467.78	276.41
468.15	275.54
468.52	274.88
468.88	274.01
469.25	273.25
469.62	272.64
469.98	271.98
470.35	271.33
470.72	270.71
471.08	270.01
471.45	269.45
471.82	268.89
472.18	268.25
472.55	267.80
472.92	267.29
473.28	266.86
473.65	266.41
474.02	265.91
474.38	265.56
474.75	265.20
475.11	264.87
475.48	264.65
475.85	264.45
476.21	264.18
476.58	263.98
476.94	263.76
477.31	263.58
477.67	263.39
478.04	263.28
478.41	263.23
478.77	263.26
479.14	263.17
479.50	263.16
479.87	263.20
480.23	263.26
480.60	263.31
480.96	263.38
481.33	263.54
481.69	263.75
482.06	263.90
482.42	264.11
482.79	264.34
483.15	264.61
483.52	264.93
483.88	265.25
484.25	265.63
484.61	266.09
484.98	266.54
485.34	267.05
485.71	267.63
486.07	268.21
486.44	268.80
486.80	269.47
487.17	270.21
487.53	271.03
487.90	271.87
488.26	272.83
488.62	273.77
488.99	274.76
489.35	275.77
489.72	276.89
490.08	278.06
490.44	279.33
490.81	280.62
491.17	281.94
491.54	283.43
491.90	284.98
492.26	286.59
492.63	288.30
492.99	290.13
493.36	292.02
493.72	294.06
494.08	296.13
494.45	298.40
494.81	300.73
495.17	303.16
495.54	305.74
495.90	308.38
496.26	311.20
496.63	314.14
496.99	317.21
497.35	320.45
497.72	323.83
498.08	327.28
498.44	330.95
498.80	334.87
499.17	338.88
499.53	343.06
499.89	347.41
500.26	351.91
500.62	356.57
500.98	361.47
501.34	366.55
501.71	371.85
502.07	377.25
502.43	382.79
502.79	388.58
503.16	394.61
503.52	400.88
503.88	407.25
504.24	413.87
504.60	420.76
504.97	427.89
505.33	435.20
505.69	442.95
506.05	450.69
506.41	458.61
506.78	466.73
507.14	475.14
507.50	483.88
507.86	492.85
508.22	501.99
508.59	511.21
508.95	520.74
509.31	530.50
509.67	540.61
510.03	550.99
510.39	561.60
510.75	572.37
511.12	583.31
511.48	594.69
511.84	606.12
512.20	617.65
512.56	629.54
512.92	641.74
513.28	654.00
513.64	666.53
514.00	679.21
514.37	692.17
514.73	705.26
515.09	718.33
515.45	731.70
515.81	745.27
516.17	759.22
516.53	773.39
516.89	787.62
517.25	801.87
517.61	816.27
517.97	830.67
518.33	845.17
518.69	859.91
519.05	874.89
519.41	890.07
519.77	905.60
520.13	921.08
520.49	936.42
520.85	951.92
521.21	967.66
521.57	984.00
521.93	999.79
522.29	1016.07
522.65	1032.36
523.01	1048.56
523.37	1064.65
523.73	1080.86
524.09	1097.03
524.45	1113.44
524.81	1130.09
525.17	1146.99
525.53	1164.04
525.89	1181.01
526.25	1197.80
526.61	1214.28
526.97	1231.05
527.33	1247.65
527.68	1264.36
528.04	1280.96
528.40	1297.62
528.76	1314.79
529.12	1331.43
529.48	1348.38
529.84	1364.59
530.20	1381.25
530.56	1398.44
530.91	1415.84
531.27	1432.68
531.63	1449.15
531.99	1465.78
532.35	1481.76
532.71	1497.60
533.07	1513.90
533.42	1529.74
533.78	1546.00
534.14	1562.37
534.50	1577.90
534.86	1593.74
535.21	1609.00
535.57	1625.10
535.93	1640.70
536.29	1655.59
536.65	1670.78
537.00	1685.78
537.36	1701.14
537.72	1715.81
538.08	1730.17
538.44	1744.15
538.79	1758.23
539.15	1772.03
539.51	1785.74
539.87	1800.24
540.22	1814.20
540.58	1828.02
540.94	1841.56
541.29	1854.63
541.65	1867.45
542.01	1880.80
542.37	1893.27
542.72	1905.78
543.08	1917.61
543.44	1930.13
543.79	1941.34
544.15	1952.31
544.51	1963.95
544.87	1975.01
545.22	1985.77
545.58	1996.01
545.94	2005.82
546.29	2015.75
546.65	2025.59
547.01	2034.97
547.36	2043.67
547.72	2052.15
548.07	2060.05
548.43	2068.28
548.79	2076.29
549.14	2083.69
549.50	2091.06
549.86	2098.97
550.21	2106.30
550.57	2113.49
550.92	2120.08
551.28	2127.23
551.64	2134.34
551.99	2140.81
552.35	2146.90
552.70	2153.11
553.06	2159.21
553.41	2165.59
553.77	2171.62
554.13	2177.74
554.48	2183.85
554.84	2189.19
555.19	2194.39
555.55	2199.46
555.90	2203.78
556.26	2208.60
556.61	2213.36
556.97	2217.60
557.32	2221.53
557.68	2225.66
558.03	2229.98
558.39	2233.65
558.74	2238.26
559.10	2241.92
559.45	2245.50
559.81	2249.85
560.16	2253.58
560.52	2256.67
560.87	2259.95
561.23	2262.37
561.58	2265.24
561.94	2267.70
562.29	2270.24
562.64	2272.91
563.00	2275.50
563.35	2279.07
563.71	2282.03
564.06	2285.12
564.42	2287.65
564.77	2290.02
565.12	2292.20
565.48	2293.90
565.83	2295.55
566.19	2296.58
566.54	2297.67
566.89	2298.68
567.25	2298.91
567.60	2300.10
567.96	2301.55
568.31	2302.30
568.66	2303.29
569.02	2303.67
569.37	2303.87
569.72	2304.39
570.08	2304.26
570.43	2304.09
570.78	2303.05
571.14	2301.43
571.49	2299.93
571.84	2299.56
572.20	2297.99
572.55	2296.68
572.90	2294.94
573.26	2293.43
573.61	2291.71
573.96	2289.53
574.31	2286.39
574.67	2283.43
575.02	2279.63
575.37	2276.27
575.72	2272.33
576.08	2268.87
576.43	2265.48
576.78	2261.71
577.13	2258.48
577.49	2255.37
577.84	2251.75
578.19	2247.97
578.54	2244.13
578.90	2239.75
579.25	2234.01
579.60	2229.12
579.95	2223.98
580.30	2218.85
580.66	2213.50
581.01	2208.49
581.36	2203.48
581.71	2199.13
582.06	2194.50
582.42	2189.98
582.77	2184.47
583.12	2179.72
583.47	2174.87
583.82	2169.68
584.17	2164.33
584.53	2158.74
584.88	2152.88
585.23	2146.87
585.58	2141.45
585.93	2135.85
586.28	2130.99
586.63	2125.92
586.98	2120.85
587.34	2116.13
587.69	2111.09
588.04	2105.80
588.39	2099.94
588.74	2093.37
589.09	2087.12
589.44	2080.19
589.79	2074.00
590.14	2068.28
590.49	2061.53
590.84	2054.97
591.19	2048.83
591.54	2042.09
591.89	2034.38
592.25	2027.50
592.60	2020.36
592.95	2012.61
593.30	2005.07
593.65	1997.34
594.00	1990.11
594.35	1982.78
594.70	1974.69
595.05	1967.39
595.40	1959.98
595.75	1952.22
596.10	1945.88
596.45	1939.03
596.80	1932.71
597.15	1926.09
597.50	1918.85
597.85	1912.58
598.19	1905.97
598.54	1898.81
598.89	1892.25
599.24	1886.35
599.59	1879.50
599.94	1873.24
600.29	1866.76
600.64	1860.25
600.99	1852.78
601.34	1846.05
601.69	1838.89
602.04	1831.77
602.39	1824.28
602.74	1817.38
603.08	1810.82
603.43	1804.10
603.78	1796.84
604.13	1789.71
604.48	1782.28
604.83	1775.46
605.18	1768.14
605.53	1759.94
605.87	1751.84
606.22	1744.50
606.57	1736.72
606.92	1729.49
607.27	1722.23
607.62	1715.45
607.96	1708.15
608.31	1701.56
608.66	1693.73
609.01	1686.30
609.36	1678.75
609.70	1670.84
610.05	1662.75
610.40	1654.98
610.75	1646.65
611.10	1638.94
611.44	1630.70
611.79	1622.68
612.14	1614.15
612.49	1605.26
612.83	1597.05
613.18	1588.99
613.53	1580.96
613.88	1572.40
614.22	1564.14
614.57	1555.63
614.92	1547.50
615.27	1539.90
615.61	1531.54
615.96	1523.66
616.31	1515.96
616.65	1508.66
617.00	1501.21
617.35	1493.64
617.70	1485.21
618.04	1476.60
618.39	1468.41
618.74	1460.76
619.08	1452.57
619.43	1444.94
619.78	1438.06
620.12	1430.96
620.47	1423.51
620.82	1415.31
621.16	1407.93
621.51	1400.43
621.85	1392.84
622.20	1384.36
622.55	1376.15
622.89	1368.39
623.24	1360.87
623.59	1353.55
623.93	1346.04
624.28	1338.73
624.62	1331.19
624.97	1324.19
625.32	1317.54
625.66	1310.53
626.01	1303.27
626.35	1295.87
626.70	1288.15
627.04	1280.43
627.39	1272.69
627.73	1265.29
628.08	1258.44
628.43	1251.11
628.77	1243.71
629.12	1236.13
629.46	1229.05
629.81	1221.67
630.15	1214.44
630.50	1207.01
630.84	1198.82
631.19	1190.99
631.53	1183.63
631.88	1176.25
632.22	1168.60
632.57	1161.44
632.91	1153.98
633.26	1146.67
633.60	1139.31
633.95	1132.34
634.29	1125.35
634.64	1118.72
634.98	1111.39
635.32	1104.34
635.67	1097.88
636.01	1091.32
636.36	1084.66
636.70	1078.23
637.05	1071.70
637.39	1065.30
637.73	1058.80
638.08	1053.10
638.42	1047.20
638.77	1040.67
639.11	1033.97
639.45	1027.82
639.80	1021.23
640.14	1014.81
640.49	1008.39
640.83	1002.24
641.17	995.95
641.52	989.69
641.86	983.31
642.20	977.56
642.55	971.36
642.89	964.95
643.23	958.56
643.58	952.75
643.92	946.51
644.26	940.49
644.61	934.54
644.95	928.55
645.29	921.91
645.64	915.17
645.98	908.98
646.32	903.35
646.66	897.29
647.01	891.47
647.35	885.87
647.69	880.02
648.04	874.48
648.38	868.79
648.72	862.75
649.06	856.63
649.41	850.69
649.75	844.63
650.09	838.59
650.43	832.76
650.78	826.59
651.12	820.61
651.46	814.91
651.80	809.11
652.14	803.78
652.49	798.45
652.83	793.29
653.17	787.51
653.51	781.65
653.85	776.25
654.20	770.60
654.54	764.56
654.88	758.92
655.22	753.08
655.56	747.46
655.90	742.11
656.25	736.91
656.59	731.63
656.93	726.65
657.27	721.55
657.61	716.13
657.95	711.09
658.29	706.07
658.64	700.83
658.98	695.62
659.32	690.16
659.66	685.01
660.00	679.72
660.34	674.85
660.68	670.03
661.02	664.95
661.36	660.27
661.70	655.87
662.05	651.46
662.39	647.11
662.73	642.66
663.07	638.27
663.41	633.86
663.75	629.40
664.09	624.79
664.43	620.47
664.77	616.30
665.11	612.07
665.45	607.96
665.79	603.94
666.13	599.82
666.47	595.74
666.81	591.57
667.15	587.46
667.49	583.61
667.83	579.85
668.17	575.95
668.51	571.96
668.85	567.95
669.19	564.08
669.53	560.28
669.87	556.36
670.21	552.66
670.55	549.07
670.89	545.68
671.23	542.32
671.57	538.84
671.91	535.37
672.25	531.93
672.58	528.46
672.92	525.10
673.26	521.98
673.60	518.88
673.94	515.77
674.28	512.97
674.62	510.06
674.96	506.98
675.30	504.06
675.64	501.17
675.97	498.43
676.31	495.62
676.65	492.69
676.99	490.00
677.33	487.26
677.67	484.47
678.01	481.46
678.34	478.53
678.68	475.69
679.02	472.90
679.36	470.17
679.70	467.55
680.04	464.85
680.37	462.01
680.71	459.25
681.05	456.70
681.39	453.95
681.73	451.33
682.06	448.86
682.40	446.42
682.74	443.95
683.08	441.44
683.42	438.86
683.75	436.42
684.09	433.99
684.43	431.49
684.77	429.04
685.10	426.75
685.44	424.47
685.78	422.22
686.12	420.04
686.45	417.78
686.79	415.47
687.13	413.23
687.46	411.06
687.80	408.94
688.14	406.80
688.48	404.80
688.81	402.60
689.15	400.44
689.49	398.33
689.82	396.23
690.16	394.14
690.50	392.20
690.83	390.25
691.17	388.28
691.51	386.37
691.84	384.52
692.18	382.56
692.52	380.59
692.85	378.65
693.19	376.77
693.52	374.96
693.86	373.22
694.20	371.50
694.53	369.74
694.87	367.92
695.21	366.11
695.54	364.27
695.88	362.52
696.21	360.78
696.55	359.07
696.88	357.38
697.22	355.75
697.56	354.12
697.89	352.47
698.23	350.84
698.56	349.26
698.90	347.67
699.23	346.03
699.57	344.52
699.90	343.01
700.24	341.48
700.58	339.93
700.91	338.42
701.25	336.91
701.58	335.52
701.92	334.14
702.25	332.78
702.59	331.38
702.92	330.06
703.26	328.78
703.59	327.46
703.93	326.27
704.26	324.97
704.60	323.67
704.93	322.39
705.26	321.13
705.60	319.95
705.93	318.79
706.27	317.75
706.60	316.70
706.94	315.60
707.27	314.43
707.61	313.40
707.94	312.38
708.27	311.29
708.61	310.20
708.94	309.20
709.28	308.15
709.61	307.24
709.94	306.32
710.28	305.31
710.61	304.35
710.95	303.32
711.28	302.50
711.61	301.60
711.95	300.68
712.28	299.78
712.61	298.80
712.95	297.87
713.28	297.06
713.61	296.15
713.95	295.25
714.28	294.47
714.61	293.60
714.95	292.75
715.28	291.93
715.61	291.07
715.95	290.24
716.28	289.46
716.61	288.61
716.95	287.79
717.28	287.07
717.61	286.35
717.94	285.62
718.28	284.75
718.61	284.04
718.94	283.37
719.27	282.68
719.61	282.07
719.94	281.45
720.27	280.71
720.60	280.04
720.94	279.45
721.27	278.88
721.60	278.31
721.93	277.71
722.27	277.16
722.60	276.64
722.93	276.08
723.26	275.54
723.59	275.03
723.93	274.52
724.26	274.00
724.59	273.48
724.92	272.96
725.25	272.51
725.59	272.04
725.92	271.54
726.25	271.08
726.58	270.58
726.91	270.07
727.24	269.62
727.57	269.18
727.91	268.67
728.24	268.20
728.57	267.74
728.90	267.33
729.23	266.82
729.56	266.40
729.89	265.95
730.22	265.47
730.55	264.99
730.89	264.52
731.22	264.02
731.55	263.57
731.88	263.15
732.21	262.75
732.54	262.28
732.87	261.88
733.20	261.46
733.53	261.09
733.86	260.76
734.19	260.34
734.52	259.95
734.85	259.65
735.18	259.23
735.51	258.82
735.84	258.40
736.17	258.08
736.50	257.64
736.83	257.42
737.16	257.07
737.49	256.74
737.82	256.37
738.15	256.07
738.48	255.71
738.81	255.38
739.14	255.04
739.47	254.71
739.80	254.38
740.13	254.06
740.46	253.68
740.79	253.33
741.12	253.01
741.45	252.67
741.78	252.32
742.11	252.01
742.44	251.70
742.77	251.44
743.10	251.12
743.43	250.86
743.75	250.44
744.08	250.26
744.41	249.97
744.74	249.70
745.07	249.36
745.40	249.10
745.73	248.83
746.06	248.53
746.39	248.26
746.71	247.97
747.04	247.71
747.37	247.46
747.70	247.18
748.03	246.90
748.36	246.66
748.68	246.39
749.01	246.15
749.34	245.93
749.67	245.67
750.00	245.51
750.33	245.33
750.65	245.14
750.98	244.81
751.31	244.58
751.64	244.34
751.97	244.22
752.29	243.97
752.62	243.74
752.95	243.54
753.28	243.33
753.60	243.13
753.93	242.98
754.26	242.80
754.59	242.59
754.91	242.40
755.24	242.22
755.57	242.06
755.90	241.88
756.22	241.73
756.55	241.50
756.88	241.26
757.20	241.07
757.53	240.87
757.86	240.73
758.19	240.59
758.51	240.49
758.84	240.33
759.17	240.19
759.49	240.06
759.82	239.95
760.15	239.80
760.47	239.67
760.80	239.48
761.13	239.39
761.45	239.25
761.78	239.15
762.11	239.04
762.43	238.91
762.76	238.79
763.08	238.68
763.41	238.61
763.74	238.49
764.06	238.35
764.39	238.22
764.71	238.09
765.04	237.97
765.37	237.83
765.69	237.67
766.02	237.53
766.34	237.42
766.67	237.32
767.00	237.24
767.32	237.14
767.65	237.12
767.97	236.98
768.30	236.90
768.62	236.80
768.95	236.68
769.27	236.59
769.60	236.50
769.92	236.34
770.25	236.24
770.57	236.15
770.90	236.02
771.22	235.92
771.55	235.81
771.87	235.72
772.20	235.62
772.52	235.62
772.85	235.66
773.17	235.54
773.50	235.44
773.82	235.33
774.15	235.20
774.47	235.05
774.80	234.95
775.12	234.84
775.45	234.73
775.77	234.65
776.09	234.55
776.42	234.45
776.74	234.38
777.07	234.25
777.39	234.14
777.72	234.08
778.04	234.01
778.36	233.95
778.69	233.83
779.01	233.79
779.33	233.63
779.66	233.46
779.98	233.41
780.31	233.31
780.63	233.28
780.95	233.21
781.28	233.13
781.60	233.03
781.92	232.95
782.25	232.84
782.57	232.76
782.89	232.66
783.22	232.59
783.54	232.52
783.86	232.44
784.19	232.39
784.51	232.33
784.83	232.25
785.16	232.14
785.48	232.10
785.80	232.03
786.12	231.93
786.45	231.84
786.77	231.77
787.09	231.71
