SpectraSuite Data File
++++++++++++++++++++++++++++++++++++
Date: Fri Feb 01 15:09:49 EST 2013
User: group
Dark Spectrum Present: No
Reference Spectrum Present: No
Number of Sampled Component Spectra: 1
Spectrometers: USB2E7196
Integration Time (usec): 35000 (USB2E7196)
Spectra Averaged: 100 (USB2E7196)
Boxcar Smoothing: 10 (USB2E7196)
Correct for Electrical Dark: No (USB2E7196)
Strobe/Lamp Enabled: No (USB2E7196)
Correct for Detector Non-linearity: No (USB2E7196)
Correct for Stray Light: No (USB2E7196)
Number of Pixels in Processed Spectrum: 2048
>>>>>Begin Processed Spectral Data<<<<<
339.09	0.00
339.48	215.18
339.86	216.68
340.24	218.07
340.63	218.98
341.01	222.05
341.39	221.80
341.78	223.44
342.16	224.34
342.54	225.25
342.93	213.34
343.31	224.12
343.69	224.67
344.07	225.12
344.46	225.56
344.84	225.94
345.22	226.17
345.60	226.42
345.99	226.61
346.37	226.75
346.75	226.84
347.13	226.94
347.52	227.01
347.90	227.08
348.28	227.10
348.66	227.15
349.05	227.16
349.43	227.22
349.81	227.24
350.19	227.26
350.57	227.31
350.96	227.37
351.34	227.42
351.72	227.49
352.10	227.56
352.48	227.60
352.87	227.68
353.25	227.76
353.63	227.81
354.01	227.87
354.39	227.96
354.77	228.03
355.15	228.10
355.54	228.14
355.92	228.22
356.30	228.33
356.68	228.48
357.06	228.52
357.44	228.55
357.82	228.64
358.20	228.71
358.58	228.78
358.97	228.84
359.35	228.95
359.73	229.04
360.11	229.11
360.49	229.19
360.87	229.21
361.25	229.27
361.63	229.36
362.01	229.41
362.39	229.44
362.77	229.47
363.15	229.53
363.53	229.57
363.91	229.56
364.29	229.58
364.67	229.50
365.05	229.53
365.43	229.55
365.81	229.60
366.19	229.62
366.57	229.66
366.95	229.65
367.33	229.60
367.71	229.56
368.09	229.58
368.47	229.53
368.85	229.51
369.23	229.48
369.61	229.41
369.99	229.43
370.37	229.40
370.75	229.45
371.13	229.38
371.51	229.34
371.89	229.30
372.27	229.25
372.65	229.20
373.03	229.14
373.41	229.12
373.78	229.04
374.16	228.95
374.54	228.83
374.92	228.79
375.30	228.74
375.68	228.68
376.06	228.61
376.44	228.55
376.82	228.50
377.19	228.43
377.57	228.35
377.95	228.20
378.33	228.12
378.71	227.95
379.09	227.86
379.47	227.84
379.84	227.77
380.22	227.66
380.60	227.58
380.98	227.50
381.36	227.41
381.73	227.34
382.11	227.29
382.49	227.25
382.87	227.17
383.25	227.12
383.62	227.17
384.00	227.10
384.38	227.04
384.76	227.01
385.13	226.97
385.51	226.92
385.89	226.88
386.27	226.84
386.64	226.84
387.02	226.80
387.40	226.70
387.78	226.66
388.15	226.65
388.53	226.60
388.91	226.58
389.29	226.53
389.66	226.53
390.04	226.47
390.42	226.45
390.79	226.43
391.17	226.43
391.55	226.31
391.92	226.27
392.30	226.28
392.68	226.23
393.05	226.27
393.43	226.29
393.81	226.31
394.18	226.30
394.56	226.29
394.94	226.34
395.31	226.40
395.69	226.41
396.06	226.46
396.44	226.52
396.82	226.56
397.19	226.64
397.57	226.67
397.95	226.76
398.32	226.81
398.70	226.87
399.07	226.93
399.45	226.99
399.82	227.08
400.20	227.16
400.58	227.27
400.95	227.32
401.33	227.41
401.70	227.57
402.08	227.68
402.45	227.78
402.83	227.92
403.20	228.04
403.58	228.20
403.95	228.34
404.33	228.47
404.71	228.59
405.08	228.79
405.46	228.92
405.83	229.09
406.21	229.24
406.58	229.43
406.96	229.58
407.33	229.79
407.70	229.99
408.08	230.27
408.45	230.50
408.83	230.72
409.20	230.96
409.58	231.17
409.95	231.43
410.33	231.69
410.70	231.88
411.08	232.17
411.45	232.46
411.82	232.75
412.20	233.12
412.57	233.55
412.95	233.82
413.32	234.24
413.69	234.61
414.07	235.06
414.44	235.54
414.82	236.03
415.19	236.56
415.56	237.11
415.94	237.62
416.31	238.25
416.68	238.90
417.06	239.58
417.43	240.24
417.81	240.99
418.18	241.81
418.55	242.70
418.93	243.59
419.30	244.47
419.67	245.42
420.04	246.38
420.42	247.38
420.79	248.57
421.16	249.72
421.54	250.89
421.91	252.09
422.28	253.34
422.66	254.69
423.03	256.00
423.40	257.35
423.77	258.74
424.15	260.17
424.52	261.62
424.89	263.25
425.26	264.79
425.64	266.28
426.01	267.87
426.38	269.51
426.75	271.17
427.13	272.91
427.50	274.70
427.87	276.57
428.24	278.40
428.61	280.18
428.99	282.14
429.36	284.28
429.73	286.32
430.10	288.34
430.47	290.41
430.85	292.55
431.22	294.76
431.59	297.20
431.96	299.43
432.33	301.99
432.70	304.40
433.08	307.23
433.45	309.87
433.82	312.50
434.19	315.43
434.56	318.22
434.93	320.92
435.30	323.54
435.68	326.44
436.05	329.33
436.42	332.05
436.79	334.58
437.16	337.31
437.53	340.18
437.90	342.95
438.27	345.70
438.64	348.52
439.01	351.15
439.38	353.40
439.75	355.60
440.13	358.05
440.50	360.37
440.87	362.21
441.24	364.11
441.61	366.26
441.98	367.74
442.35	369.50
442.72	371.32
443.09	373.19
443.46	374.20
443.83	374.79
444.20	375.32
444.57	376.16
444.94	376.43
445.31	376.75
445.68	377.13
446.05	377.23
446.42	376.87
446.79	376.46
447.16	376.01
447.53	375.66
447.90	374.49
448.27	373.33
448.64	371.77
449.01	370.64
449.37	368.69
449.74	366.79
450.11	364.57
450.48	362.14
450.85	359.55
451.22	357.40
451.59	355.37
451.96	353.47
452.33	350.84
452.70	348.48
453.07	345.68
453.43	342.79
453.80	340.03
454.17	337.33
454.54	334.73
454.91	332.02
455.28	329.36
455.65	326.90
456.02	324.46
456.38	322.31
456.75	319.64
457.12	317.36
457.49	315.11
457.86	312.94
458.23	311.08
458.59	309.06
458.96	306.96
459.33	305.05
459.70	303.16
460.07	301.68
460.43	299.95
460.80	298.33
461.17	296.90
461.54	295.35
461.91	293.92
462.27	292.48
462.64	291.22
463.01	289.88
463.38	288.55
463.74	287.15
464.11	285.96
464.48	284.94
464.85	283.83
465.21	282.96
465.58	282.04
465.95	280.91
466.32	279.96
466.68	279.04
467.05	278.14
467.42	277.26
467.78	276.28
468.15	275.38
468.52	274.69
468.88	273.84
469.25	273.06
469.62	272.42
469.98	271.78
470.35	271.12
470.72	270.44
471.08	269.79
471.45	269.28
471.82	268.71
472.18	268.12
472.55	267.66
472.92	267.10
473.28	266.63
473.65	266.16
474.02	265.74
474.38	265.38
474.75	265.08
475.11	264.67
475.48	264.42
475.85	264.15
476.21	263.89
476.58	263.65
476.94	263.51
477.31	263.32
477.67	263.12
478.04	263.01
478.41	262.98
478.77	262.98
479.14	262.90
479.50	262.91
479.87	262.98
480.23	263.07
480.60	263.15
480.96	263.25
481.33	263.47
481.69	263.63
482.06	263.79
482.42	264.01
482.79	264.29
483.15	264.60
483.52	265.01
483.88	265.36
484.25	265.72
484.61	266.16
484.98	266.63
485.34	267.20
485.71	267.77
486.07	268.37
486.44	268.97
486.80	269.66
487.17	270.38
487.53	271.19
487.90	272.02
488.26	272.94
488.62	273.92
488.99	274.92
489.35	275.99
489.72	277.11
490.08	278.28
490.44	279.53
490.81	280.85
491.17	282.23
491.54	283.73
491.90	285.33
492.26	286.94
492.63	288.62
492.99	290.39
493.36	292.30
493.72	294.30
494.08	296.37
494.45	298.62
494.81	300.99
495.17	303.39
495.54	305.99
495.90	308.69
496.26	311.49
496.63	314.38
496.99	317.47
497.35	320.72
497.72	324.09
498.08	327.60
498.44	331.25
498.80	335.14
499.17	339.16
499.53	343.28
499.89	347.67
500.26	352.18
500.62	356.88
500.98	361.84
501.34	366.93
501.71	372.22
502.07	377.62
502.43	383.19
502.79	388.99
503.16	394.99
503.52	401.23
503.88	407.61
504.24	414.28
504.60	421.17
504.97	428.35
505.33	435.72
505.69	443.36
506.05	451.18
506.41	459.02
506.78	467.19
507.14	475.59
507.50	484.22
507.86	493.29
508.22	502.39
508.59	511.51
508.95	521.11
509.31	530.88
509.67	541.01
510.03	551.37
510.39	561.87
510.75	572.74
511.12	583.64
511.48	594.95
511.84	606.35
512.20	617.87
512.56	629.75
512.92	641.92
513.28	654.23
513.64	666.70
514.00	679.43
514.37	692.34
514.73	705.54
515.09	718.64
515.45	731.90
515.81	745.57
516.17	759.59
516.53	773.65
516.89	787.87
517.25	802.11
517.61	816.49
517.97	831.05
518.33	845.43
518.69	860.22
519.05	875.24
519.41	890.41
519.77	905.99
520.13	921.44
520.49	936.73
520.85	952.22
521.21	968.02
521.57	984.31
521.93	1000.14
522.29	1016.47
522.65	1032.67
523.01	1048.92
523.37	1065.06
523.73	1081.38
524.09	1097.57
524.45	1113.91
524.81	1130.54
525.17	1147.53
525.53	1164.47
525.89	1181.37
526.25	1198.20
526.61	1214.63
526.97	1231.46
527.33	1247.90
527.68	1264.65
528.04	1281.32
528.40	1297.98
528.76	1314.98
529.12	1331.61
529.48	1348.44
529.84	1364.55
530.20	1381.26
530.56	1398.35
530.91	1415.73
531.27	1432.47
531.63	1448.98
531.99	1465.67
532.35	1481.74
532.71	1497.51
533.07	1513.79
533.42	1529.78
533.78	1545.98
534.14	1562.31
534.50	1577.61
534.86	1593.59
535.21	1608.68
535.57	1624.67
535.93	1640.27
536.29	1655.20
536.65	1670.39
537.00	1685.46
537.36	1700.76
537.72	1715.49
538.08	1729.96
538.44	1743.91
538.79	1757.94
539.15	1771.74
539.51	1785.56
539.87	1799.88
540.22	1813.77
540.58	1827.54
540.94	1841.03
541.29	1854.03
541.65	1866.74
542.01	1880.25
542.37	1892.74
542.72	1905.22
543.08	1917.04
543.44	1929.47
543.79	1940.77
544.15	1951.71
544.51	1963.14
544.87	1974.21
545.22	1984.93
545.58	1995.10
545.94	2004.83
546.29	2014.76
546.65	2024.60
547.01	2033.88
547.36	2042.75
547.72	2051.18
548.07	2059.22
548.43	2067.44
548.79	2075.53
549.14	2083.10
549.50	2090.46
549.86	2098.23
550.21	2105.70
550.57	2112.88
550.92	2119.43
551.28	2126.51
551.64	2133.63
551.99	2140.24
552.35	2146.46
552.70	2152.65
553.06	2158.67
553.41	2165.08
553.77	2171.08
554.13	2177.28
554.48	2183.40
554.84	2188.80
555.19	2194.20
555.55	2199.18
555.90	2203.46
556.26	2208.36
556.61	2213.08
556.97	2217.18
557.32	2221.16
557.68	2225.25
558.03	2229.61
558.39	2233.52
558.74	2238.21
559.10	2241.97
559.45	2245.65
559.81	2249.93
560.16	2253.70
560.52	2256.93
560.87	2260.29
561.23	2262.83
561.58	2265.55
561.94	2268.02
562.29	2270.31
562.64	2272.96
563.00	2275.67
563.35	2279.15
563.71	2282.08
564.06	2285.20
564.42	2288.07
564.77	2290.51
565.12	2292.65
565.48	2294.36
565.83	2295.95
566.19	2297.10
566.54	2298.10
566.89	2299.13
567.25	2299.53
567.60	2300.84
567.96	2302.47
568.31	2303.13
568.66	2304.15
569.02	2304.65
569.37	2304.94
569.72	2305.71
570.08	2305.59
570.43	2305.47
570.78	2304.63
571.14	2302.99
571.49	2301.67
571.84	2301.23
572.20	2299.94
572.55	2298.72
572.90	2297.14
573.26	2295.65
573.61	2293.90
573.96	2291.81
574.31	2288.70
574.67	2285.48
575.02	2281.75
575.37	2278.18
575.72	2274.29
576.08	2270.92
576.43	2267.54
576.78	2263.65
577.13	2260.45
577.49	2257.34
577.84	2253.73
578.19	2250.19
578.54	2246.55
578.90	2242.01
579.25	2236.31
579.60	2231.28
579.95	2226.24
580.30	2221.05
580.66	2215.88
581.01	2210.80
581.36	2205.92
581.71	2201.62
582.06	2197.23
582.42	2192.55
582.77	2187.28
583.12	2182.63
583.47	2177.61
583.82	2172.45
584.17	2167.15
584.53	2161.49
584.88	2155.78
585.23	2149.82
585.58	2144.13
585.93	2138.53
586.28	2133.80
586.63	2128.60
586.98	2123.33
587.34	2118.54
587.69	2113.61
588.04	2108.07
588.39	2102.20
588.74	2095.70
589.09	2089.41
589.44	2082.45
589.79	2076.47
590.14	2070.74
590.49	2064.08
590.84	2057.63
591.19	2051.49
591.54	2044.95
591.89	2037.47
592.25	2030.65
592.60	2023.46
592.95	2015.69
593.30	2008.16
593.65	2000.51
594.00	1993.48
594.35	1986.21
594.70	1978.17
595.05	1970.78
595.40	1963.53
595.75	1955.93
596.10	1949.52
596.45	1942.55
596.80	1936.37
597.15	1929.54
597.50	1922.29
597.85	1915.85
598.19	1909.26
598.54	1902.11
598.89	1895.44
599.24	1889.50
599.59	1882.52
599.94	1876.30
600.29	1870.05
600.64	1863.48
600.99	1855.97
601.34	1849.02
601.69	1842.11
602.04	1835.09
602.39	1827.71
602.74	1820.80
603.08	1814.13
603.43	1807.48
603.78	1800.42
604.13	1793.09
604.48	1785.81
604.83	1779.06
605.18	1771.81
605.53	1763.77
605.87	1755.79
606.22	1748.57
606.57	1740.56
606.92	1733.37
607.27	1726.03
607.62	1718.91
607.96	1711.60
608.31	1704.83
608.66	1697.16
609.01	1689.50
609.36	1681.95
609.70	1674.10
610.05	1666.06
610.40	1658.38
610.75	1649.90
611.10	1642.17
611.44	1633.95
611.79	1626.01
612.14	1617.26
612.49	1608.35
612.83	1600.07
613.18	1592.07
613.53	1583.87
613.88	1575.47
614.22	1567.22
614.57	1558.74
614.92	1550.88
615.27	1543.21
615.61	1535.10
615.96	1527.29
616.31	1519.65
616.65	1512.29
617.00	1504.63
617.35	1496.92
617.70	1488.37
618.04	1479.87
618.39	1471.68
618.74	1464.01
619.08	1455.67
619.43	1448.13
619.78	1441.20
620.12	1433.96
620.47	1426.27
620.82	1418.22
621.16	1410.85
621.51	1403.28
621.85	1395.66
622.20	1387.10
622.55	1378.96
622.89	1371.05
623.24	1363.42
623.59	1356.02
623.93	1348.67
624.28	1341.51
624.62	1333.98
624.97	1326.97
625.32	1320.34
625.66	1313.34
626.01	1306.10
626.35	1298.62
626.70	1290.89
627.04	1283.09
627.39	1275.42
627.73	1268.13
628.08	1261.11
628.43	1253.71
628.77	1246.32
629.12	1238.80
629.46	1231.73
629.81	1224.34
630.15	1217.18
630.50	1209.76
630.84	1201.65
631.19	1193.66
631.53	1186.17
631.88	1178.78
632.22	1171.22
632.57	1163.92
632.91	1156.39
633.26	1149.03
633.60	1141.82
633.95	1134.93
634.29	1128.09
634.64	1121.38
634.98	1114.04
635.32	1107.10
635.67	1100.54
636.01	1093.99
636.36	1087.18
636.70	1080.65
637.05	1074.13
637.39	1067.63
637.73	1061.14
638.08	1055.36
638.42	1049.42
638.77	1043.02
639.11	1036.40
639.45	1030.05
639.80	1023.41
640.14	1016.95
640.49	1010.50
640.83	1004.29
641.17	997.99
641.52	991.72
641.86	985.38
642.20	979.55
642.55	973.24
642.89	966.82
643.23	960.31
643.58	954.68
643.92	948.50
644.26	942.41
644.61	936.41
644.95	930.41
645.29	923.84
645.64	917.08
645.98	910.68
646.32	904.86
646.66	898.83
647.01	893.03
647.35	887.39
647.69	881.58
648.04	876.03
648.38	870.14
648.72	864.05
649.06	857.95
649.41	852.03
649.75	845.99
650.09	840.06
650.43	834.27
650.78	828.09
651.12	822.16
651.46	816.42
651.80	810.67
652.14	805.28
652.49	799.90
652.83	794.75
653.17	789.04
653.51	783.38
653.85	777.99
654.20	772.31
654.54	766.34
654.88	760.60
655.22	754.66
655.56	749.01
655.90	743.57
656.25	738.27
656.59	732.97
656.93	727.87
657.27	722.68
657.61	717.19
657.95	712.00
658.29	706.87
658.64	701.67
658.98	696.46
659.32	691.03
659.66	685.76
660.00	680.46
660.34	675.63
660.68	670.62
661.02	665.66
661.36	660.98
661.70	656.48
662.05	652.14
662.39	647.78
662.73	643.35
663.07	638.97
663.41	634.56
663.75	630.02
664.09	625.47
664.43	621.11
664.77	617.00
665.11	612.80
665.45	608.74
665.79	604.69
666.13	600.56
666.47	596.46
666.81	592.34
667.15	588.25
667.49	584.31
667.83	580.65
668.17	576.73
668.51	572.75
668.85	568.75
669.19	564.92
669.53	561.12
669.87	557.26
670.21	553.59
670.55	550.02
670.89	546.67
671.23	543.31
671.57	539.88
671.91	536.40
672.25	532.94
672.58	529.47
672.92	526.10
673.26	522.93
673.60	519.79
673.94	516.75
674.28	513.84
674.62	510.95
674.96	507.82
675.30	504.94
675.64	502.01
675.97	499.31
676.31	496.39
676.65	493.49
676.99	490.82
677.33	487.96
677.67	485.10
678.01	482.10
678.34	479.13
678.68	476.26
679.02	473.47
679.36	470.75
679.70	468.08
680.04	465.38
680.37	462.51
680.71	459.78
681.05	457.18
681.39	454.54
681.73	451.93
682.06	449.42
682.40	446.88
682.74	444.42
683.08	441.91
683.42	439.42
683.75	436.98
684.09	434.49
684.43	432.06
684.77	429.65
685.10	427.32
685.44	425.04
685.78	422.78
686.12	420.57
686.45	418.28
686.79	415.93
687.13	413.72
687.46	411.59
687.80	409.45
688.14	407.28
688.48	405.21
688.81	402.93
689.15	400.77
689.49	398.61
689.82	396.54
690.16	394.44
690.50	392.49
690.83	390.55
691.17	388.52
691.51	386.66
691.84	384.77
692.18	382.84
692.52	380.84
692.85	378.88
693.19	377.01
693.52	375.20
693.86	373.47
694.20	371.70
694.53	369.91
694.87	368.01
695.21	366.20
695.54	364.39
695.88	362.67
696.21	360.95
696.55	359.27
696.88	357.53
697.22	355.88
697.56	354.25
697.89	352.57
698.23	350.97
698.56	349.36
698.90	347.82
699.23	346.17
699.57	344.62
699.90	343.10
700.24	341.49
700.58	339.93
700.91	338.39
701.25	336.94
701.58	335.56
701.92	334.25
702.25	332.89
702.59	331.52
702.92	330.21
703.26	328.94
703.59	327.65
703.93	326.51
704.26	325.25
704.60	323.91
704.93	322.63
705.26	321.38
705.60	320.18
705.93	319.01
706.27	318.02
706.60	317.02
706.94	315.95
707.27	314.88
707.61	313.86
707.94	312.83
708.27	311.75
708.61	310.65
708.94	309.65
709.28	308.66
709.61	307.69
709.94	306.70
710.28	305.64
710.61	304.66
710.95	303.58
711.28	302.67
711.61	301.74
711.95	300.85
712.28	299.91
712.61	298.90
712.95	297.93
713.28	297.06
713.61	296.11
713.95	295.23
714.28	294.38
714.61	293.51
714.95	292.67
715.28	291.82
715.61	290.96
715.95	290.12
716.28	289.28
716.61	288.50
716.95	287.80
717.28	287.13
717.61	286.41
717.94	285.70
718.28	284.91
718.61	284.24
718.94	283.56
719.27	282.90
719.61	282.33
719.94	281.70
720.27	280.95
720.60	280.31
720.94	279.68
721.27	279.09
721.60	278.52
721.93	277.91
722.27	277.40
722.60	276.85
722.93	276.28
723.26	275.73
723.59	275.17
723.93	274.58
724.26	273.98
724.59	273.44
724.92	272.90
725.25	272.43
725.59	271.88
725.92	271.36
726.25	270.88
726.58	270.39
726.91	269.94
727.24	269.49
727.57	269.01
727.91	268.51
728.24	268.07
728.57	267.58
728.90	267.16
729.23	266.64
729.56	266.18
729.89	265.71
730.22	265.23
730.55	264.78
730.89	264.31
731.22	263.90
731.55	263.44
731.88	262.99
732.21	262.54
732.54	262.12
732.87	261.70
733.20	261.31
733.53	260.89
733.86	260.48
734.19	260.05
734.52	259.69
734.85	259.36
735.18	258.98
735.51	258.60
735.84	258.20
736.17	257.83
736.50	257.43
736.83	257.18
737.16	256.83
737.49	256.50
737.82	256.14
738.15	255.81
738.48	255.46
738.81	255.18
739.14	254.86
739.47	254.56
739.80	254.25
740.13	253.91
740.46	253.58
740.79	253.25
741.12	252.95
741.45	252.62
741.78	252.27
742.11	251.97
742.44	251.64
742.77	251.38
743.10	251.08
743.43	250.82
743.75	250.45
744.08	250.32
744.41	250.02
744.74	249.76
745.07	249.46
745.40	249.20
745.73	248.97
746.06	248.69
746.39	248.41
746.71	248.14
747.04	247.91
747.37	247.66
747.70	247.40
748.03	247.12
748.36	246.91
748.68	246.67
749.01	246.40
749.34	246.18
749.67	245.94
750.00	245.72
750.33	245.56
750.65	245.33
750.98	244.99
751.31	244.77
751.64	244.58
751.97	244.44
752.29	244.23
752.62	243.99
752.95	243.77
753.28	243.59
753.60	243.38
753.93	243.23
754.26	243.02
754.59	242.82
754.91	242.66
755.24	242.45
755.57	242.29
755.90	242.10
756.22	241.90
756.55	241.71
756.88	241.52
757.20	241.28
757.53	241.13
757.86	240.97
758.19	240.82
758.51	240.67
758.84	240.45
759.17	240.33
759.49	240.17
759.82	240.03
760.15	239.90
760.47	239.77
760.80	239.59
761.13	239.46
761.45	239.31
761.78	239.21
762.11	239.10
762.43	238.94
762.76	238.82
763.08	238.75
763.41	238.62
763.74	238.50
764.06	238.34
764.39	238.19
764.71	238.06
765.04	237.94
765.37	237.78
765.69	237.66
766.02	237.52
766.34	237.37
766.67	237.25
767.00	237.18
767.32	237.12
767.65	237.07
767.97	237.00
768.30	236.90
768.62	236.76
768.95	236.63
769.27	236.55
769.60	236.44
769.92	236.29
770.25	236.18
770.57	236.07
770.90	235.96
771.22	235.84
771.55	235.73
771.87	235.61
772.20	235.53
772.52	235.48
772.85	235.44
773.17	235.38
773.50	235.27
773.82	235.12
774.15	234.96
774.47	234.78
774.80	234.65
775.12	234.56
775.45	234.46
775.77	234.38
776.09	234.21
776.42	234.12
776.74	234.06
777.07	233.95
777.39	233.87
777.72	233.79
778.04	233.72
778.36	233.67
778.69	233.59
779.01	233.47
779.33	233.34
779.66	233.18
779.98	233.08
780.31	232.96
780.63	232.91
780.95	232.85
781.28	232.77
781.60	232.69
781.92	232.61
782.25	232.58
782.57	232.52
782.89	232.49
783.22	232.45
783.54	232.37
783.86	232.33
784.19	232.25
784.51	232.21
784.83	232.14
785.16	232.07
785.48	232.02
785.80	232.01
786.12	231.94
786.45	231.88
786.77	231.83
787.09	231.83
