SpectraSuite Data File
++++++++++++++++++++++++++++++++++++
Date: Fri Feb 01 15:21:47 EST 2013
User: group
Dark Spectrum Present: No
Reference Spectrum Present: No
Number of Sampled Component Spectra: 1
Spectrometers: USB2E7196
Integration Time (usec): 35000 (USB2E7196)
Spectra Averaged: 100 (USB2E7196)
Boxcar Smoothing: 10 (USB2E7196)
Correct for Electrical Dark: No (USB2E7196)
Strobe/Lamp Enabled: No (USB2E7196)
Correct for Detector Non-linearity: No (USB2E7196)
Correct for Stray Light: No (USB2E7196)
Number of Pixels in Processed Spectrum: 2048
>>>>>Begin Processed Spectral Data<<<<<
339.09	0.00
339.48	214.70
339.86	216.90
340.24	217.94
340.63	219.31
341.01	222.31
341.39	222.15
341.78	223.56
342.16	224.21
342.54	225.10
342.93	213.33
343.31	224.10
343.69	224.66
344.07	225.11
344.46	225.55
344.84	225.93
345.22	226.13
345.60	226.38
345.99	226.56
346.37	226.70
346.75	226.79
347.13	226.89
347.52	226.93
347.90	226.98
348.28	227.02
348.66	227.07
349.05	227.05
349.43	227.07
349.81	227.17
350.19	227.23
350.57	227.27
350.96	227.35
351.34	227.45
351.72	227.53
352.10	227.66
352.48	227.70
352.87	227.77
353.25	227.87
353.63	227.90
354.01	227.97
354.39	228.08
354.77	228.18
355.15	228.24
355.54	228.30
355.92	228.38
356.30	228.47
356.68	228.62
357.06	228.71
357.44	228.77
357.82	228.84
358.20	228.91
358.58	228.98
358.97	229.06
359.35	229.12
359.73	229.19
360.11	229.19
360.49	229.26
360.87	229.30
361.25	229.32
361.63	229.45
362.01	229.51
362.39	229.52
362.77	229.56
363.15	229.60
363.53	229.64
363.91	229.66
364.29	229.67
364.67	229.59
365.05	229.60
365.43	229.62
365.81	229.63
366.19	229.66
366.57	229.70
366.95	229.71
367.33	229.65
367.71	229.64
368.09	229.64
368.47	229.61
368.85	229.58
369.23	229.56
369.61	229.49
369.99	229.47
370.37	229.44
370.75	229.45
371.13	229.40
371.51	229.32
371.89	229.29
372.27	229.25
372.65	229.20
373.03	229.17
373.41	229.12
373.78	229.02
374.16	228.93
374.54	228.81
374.92	228.72
375.30	228.69
375.68	228.62
376.06	228.57
376.44	228.49
376.82	228.39
377.19	228.33
377.57	228.23
377.95	228.10
378.33	228.01
378.71	227.88
379.09	227.81
379.47	227.76
379.84	227.68
380.22	227.57
380.60	227.45
380.98	227.38
381.36	227.33
381.73	227.26
382.11	227.20
382.49	227.13
382.87	227.04
383.25	226.95
383.62	227.00
384.00	226.92
384.38	226.89
384.76	226.88
385.13	226.88
385.51	226.83
385.89	226.79
386.27	226.74
386.64	226.71
387.02	226.62
387.40	226.58
387.78	226.52
388.15	226.51
388.53	226.51
388.91	226.41
389.29	226.35
389.66	226.37
390.04	226.35
390.42	226.36
390.79	226.37
391.17	226.38
391.55	226.25
391.92	226.21
392.30	226.17
392.68	226.17
393.05	226.18
393.43	226.20
393.81	226.19
394.18	226.20
394.56	226.24
394.94	226.31
395.31	226.34
395.69	226.43
396.06	226.51
396.44	226.58
396.82	226.67
397.19	226.78
397.57	226.82
397.95	226.88
398.32	226.90
398.70	226.96
399.07	227.06
399.45	227.13
399.82	227.24
400.20	227.35
400.58	227.43
400.95	227.47
401.33	227.54
401.70	227.73
402.08	227.85
402.45	227.92
402.83	228.07
403.20	228.17
403.58	228.25
403.95	228.32
404.33	228.44
404.71	228.57
405.08	228.75
405.46	228.85
405.83	229.03
406.21	229.21
406.58	229.38
406.96	229.54
407.33	229.72
407.70	229.94
408.08	230.20
408.45	230.44
408.83	230.71
409.20	230.97
409.58	231.14
409.95	231.38
410.33	231.69
410.70	231.92
411.08	232.26
411.45	232.55
411.82	232.90
412.20	233.20
412.57	233.67
412.95	233.96
413.32	234.38
413.69	234.77
414.07	235.19
414.44	235.67
414.82	236.13
415.19	236.69
415.56	237.21
415.94	237.74
416.31	238.34
416.68	238.94
417.06	239.65
417.43	240.33
417.81	241.10
418.18	241.86
418.55	242.67
418.93	243.53
419.30	244.41
419.67	245.31
420.04	246.29
420.42	247.24
420.79	248.42
421.16	249.58
421.54	250.76
421.91	251.96
422.28	253.22
422.66	254.53
423.03	255.82
423.40	257.14
423.77	258.56
424.15	260.01
424.52	261.50
424.89	263.09
425.26	264.63
425.64	266.05
426.01	267.64
426.38	269.32
426.75	270.94
427.13	272.69
427.50	274.54
427.87	276.40
428.24	278.28
428.61	280.02
428.99	281.95
429.36	284.03
429.73	286.15
430.10	288.16
430.47	290.23
430.85	292.39
431.22	294.66
431.59	297.05
431.96	299.30
432.33	301.78
432.70	304.19
433.08	307.03
433.45	309.71
433.82	312.34
434.19	315.24
434.56	318.09
434.93	320.77
435.30	323.36
435.68	326.30
436.05	329.15
436.42	331.95
436.79	334.52
437.16	337.26
437.53	340.08
437.90	342.94
438.27	345.73
438.64	348.51
439.01	351.11
439.38	353.39
439.75	355.59
440.13	358.13
440.50	360.43
440.87	362.28
441.24	364.23
441.61	366.38
441.98	367.89
442.35	369.68
442.72	371.52
443.09	373.33
443.46	374.31
443.83	374.90
444.20	375.36
444.57	376.18
444.94	376.46
445.31	376.76
445.68	377.09
446.05	377.16
446.42	376.85
446.79	376.45
447.16	375.96
447.53	375.61
447.90	374.41
448.27	373.21
448.64	371.61
449.01	370.48
449.37	368.49
449.74	366.59
450.11	364.34
450.48	361.88
450.85	359.38
451.22	357.22
451.59	355.18
451.96	353.30
452.33	350.66
452.70	348.36
453.07	345.54
453.43	342.63
453.80	339.81
454.17	337.10
454.54	334.54
454.91	331.82
455.28	329.09
455.65	326.61
456.02	324.20
456.38	322.09
456.75	319.38
457.12	317.14
457.49	314.90
457.86	312.70
458.23	310.84
458.59	308.78
458.96	306.69
459.33	304.81
459.70	302.93
460.07	301.42
460.43	299.64
460.80	298.02
461.17	296.57
461.54	295.07
461.91	293.60
462.27	292.11
462.64	290.87
463.01	289.54
463.38	288.22
463.74	286.82
464.11	285.61
464.48	284.57
464.85	283.43
465.21	282.59
465.58	281.67
465.95	280.56
466.32	279.65
466.68	278.70
467.05	277.78
467.42	276.88
467.78	275.94
468.15	275.04
468.52	274.33
468.88	273.46
469.25	272.69
469.62	272.05
469.98	271.36
470.35	270.71
470.72	270.08
471.08	269.44
471.45	268.90
471.82	268.36
472.18	267.77
472.55	267.28
472.92	266.76
473.28	266.31
473.65	265.84
474.02	265.37
474.38	264.98
474.75	264.66
475.11	264.24
475.48	263.96
475.85	263.74
476.21	263.48
476.58	263.25
476.94	263.09
477.31	262.95
477.67	262.82
478.04	262.68
478.41	262.65
478.77	262.66
479.14	262.55
479.50	262.58
479.87	262.65
480.23	262.79
480.60	262.81
480.96	262.91
481.33	263.14
481.69	263.38
482.06	263.63
482.42	263.86
482.79	264.19
483.15	264.54
483.52	264.92
483.88	265.28
484.25	265.71
484.61	266.18
484.98	266.66
485.34	267.24
485.71	267.83
486.07	268.46
486.44	269.05
486.80	269.79
487.17	270.53
487.53	271.37
487.90	272.20
488.26	273.19
488.62	274.14
488.99	275.11
489.35	276.14
489.72	277.29
490.08	278.53
490.44	279.77
490.81	281.10
491.17	282.46
491.54	284.01
491.90	285.58
492.26	287.22
492.63	288.96
492.99	290.73
493.36	292.64
493.72	294.66
494.08	296.79
494.45	299.06
494.81	301.43
495.17	303.87
495.54	306.45
495.90	309.11
496.26	311.94
496.63	314.88
496.99	317.98
497.35	321.20
497.72	324.56
498.08	328.05
498.44	331.74
498.80	335.70
499.17	339.71
499.53	343.85
499.89	348.19
500.26	352.71
500.62	357.36
500.98	362.31
501.34	367.35
501.71	372.68
502.07	378.12
502.43	383.70
502.79	389.51
503.16	395.54
503.52	401.83
503.88	408.24
504.24	414.82
504.60	421.73
504.97	428.86
505.33	436.17
505.69	443.82
506.05	451.57
506.41	459.44
506.78	467.61
507.14	476.06
507.50	484.80
507.86	493.75
508.22	502.96
508.59	512.12
508.95	521.73
509.31	531.50
509.67	541.59
510.03	551.91
510.39	562.47
510.75	573.30
511.12	584.21
511.48	595.52
511.84	607.04
512.20	618.59
512.56	630.56
512.92	642.81
513.28	655.16
513.64	667.61
514.00	680.29
514.37	693.26
514.73	706.27
515.09	719.31
515.45	732.66
515.81	746.31
516.17	760.31
516.53	774.44
516.89	788.69
517.25	802.84
517.61	817.25
517.97	831.75
518.33	846.15
518.69	860.97
519.05	875.97
519.41	891.18
519.77	906.69
520.13	922.14
520.49	937.54
520.85	952.98
521.21	968.84
521.57	985.12
521.93	1000.91
522.29	1017.36
522.65	1033.69
523.01	1050.02
523.37	1065.99
523.73	1082.25
524.09	1098.39
524.45	1114.69
524.81	1131.40
525.17	1148.39
525.53	1165.33
525.89	1182.32
526.25	1199.26
526.61	1215.70
526.97	1232.51
527.33	1249.08
527.68	1265.70
528.04	1282.23
528.40	1299.06
528.76	1316.02
529.12	1332.68
529.48	1349.56
529.84	1365.69
530.20	1382.30
530.56	1399.33
530.91	1416.74
531.27	1433.58
531.63	1450.13
531.99	1466.82
532.35	1482.77
532.71	1498.63
533.07	1514.84
533.42	1530.76
533.78	1546.76
534.14	1563.16
534.50	1578.51
534.86	1594.48
535.21	1609.81
535.57	1625.75
535.93	1641.19
536.29	1656.15
536.65	1671.29
537.00	1686.23
537.36	1701.72
537.72	1716.44
538.08	1730.89
538.44	1744.90
538.79	1758.98
539.15	1772.74
539.51	1786.62
539.87	1801.14
540.22	1815.01
540.58	1828.99
540.94	1842.54
541.29	1855.52
541.65	1868.38
542.01	1881.77
542.37	1894.04
542.72	1906.40
543.08	1918.29
543.44	1930.82
543.79	1942.11
544.15	1953.16
544.51	1964.76
544.87	1975.74
545.22	1986.54
545.58	1996.77
545.94	2006.55
546.29	2016.34
546.65	2026.15
547.01	2035.34
547.36	2044.12
547.72	2052.56
548.07	2060.54
548.43	2068.60
548.79	2076.63
549.14	2084.06
549.50	2091.36
549.86	2099.28
550.21	2106.78
550.57	2113.89
550.92	2120.41
551.28	2127.52
551.64	2134.63
551.99	2141.22
552.35	2147.34
552.70	2153.55
553.06	2159.61
553.41	2165.96
553.77	2172.03
554.13	2178.22
554.48	2184.48
554.84	2189.92
555.19	2195.17
555.55	2200.23
555.90	2204.65
556.26	2209.59
556.61	2214.39
556.97	2218.58
557.32	2222.58
557.68	2226.65
558.03	2231.01
558.39	2234.76
558.74	2239.49
559.10	2243.33
559.45	2246.78
559.81	2251.15
560.16	2254.88
560.52	2258.06
560.87	2261.53
561.23	2264.13
561.58	2267.08
561.94	2269.43
562.29	2271.74
562.64	2274.54
563.00	2277.17
563.35	2280.74
563.71	2283.89
564.06	2287.02
564.42	2289.97
564.77	2292.50
565.12	2294.70
565.48	2296.48
565.83	2298.33
566.19	2299.55
566.54	2300.51
566.89	2301.81
567.25	2302.29
567.60	2303.62
567.96	2305.19
568.31	2305.97
568.66	2306.98
569.02	2307.37
569.37	2307.71
569.72	2308.53
570.08	2308.39
570.43	2308.32
570.78	2307.61
571.14	2306.06
571.49	2304.59
571.84	2304.12
572.20	2302.93
572.55	2301.83
572.90	2300.35
573.26	2298.86
573.61	2297.08
573.96	2295.05
574.31	2291.88
574.67	2288.79
575.02	2285.00
575.37	2281.53
575.72	2277.64
576.08	2274.39
576.43	2271.07
576.78	2267.30
577.13	2264.10
577.49	2260.98
577.84	2257.39
578.19	2253.48
578.54	2249.62
578.90	2245.31
579.25	2239.75
579.60	2234.63
579.95	2229.71
580.30	2224.62
580.66	2219.39
581.01	2214.32
581.36	2209.40
581.71	2205.09
582.06	2200.47
582.42	2195.99
582.77	2190.75
583.12	2186.07
583.47	2181.08
583.82	2175.90
584.17	2170.61
584.53	2164.95
584.88	2159.23
585.23	2153.28
585.58	2147.83
585.93	2142.20
586.28	2137.33
586.63	2132.22
586.98	2127.04
587.34	2122.24
587.69	2117.19
588.04	2111.85
588.39	2105.93
588.74	2099.52
589.09	2093.27
589.44	2086.51
589.79	2080.43
590.14	2074.62
590.49	2067.97
590.84	2061.51
591.19	2055.46
591.54	2048.89
591.89	2041.42
592.25	2034.54
592.60	2027.35
592.95	2019.69
593.30	2012.42
593.65	2004.78
594.00	1997.60
594.35	1990.24
594.70	1981.91
595.05	1974.63
595.40	1967.22
595.75	1959.71
596.10	1953.26
596.45	1946.47
596.80	1940.14
597.15	1933.37
597.50	1926.20
597.85	1919.73
598.19	1913.09
598.54	1905.95
598.89	1899.32
599.24	1893.50
599.59	1886.77
599.94	1880.48
600.29	1874.06
600.64	1867.37
600.99	1859.86
601.34	1852.96
601.69	1846.08
602.04	1839.18
602.39	1831.68
602.74	1824.61
603.08	1817.93
603.43	1811.12
603.78	1803.97
604.13	1796.77
604.48	1789.37
604.83	1782.53
605.18	1775.37
605.53	1767.35
605.87	1759.31
606.22	1751.96
606.57	1743.89
606.92	1736.65
607.27	1729.43
607.62	1722.55
607.96	1715.21
608.31	1708.47
608.66	1700.78
609.01	1693.18
609.36	1685.60
609.70	1677.65
610.05	1669.80
610.40	1662.00
610.75	1653.70
611.10	1645.98
611.44	1637.56
611.79	1629.74
612.14	1621.01
612.49	1611.99
612.83	1603.59
613.18	1595.46
613.53	1587.37
613.88	1578.76
614.22	1570.52
614.57	1562.00
614.92	1553.98
615.27	1546.46
615.61	1538.13
615.96	1530.23
616.31	1522.59
616.65	1515.32
617.00	1507.74
617.35	1500.19
617.70	1491.87
618.04	1483.33
618.39	1475.05
618.74	1467.52
619.08	1459.19
619.43	1451.64
619.78	1444.64
620.12	1437.42
620.47	1429.94
620.82	1421.83
621.16	1414.52
621.51	1406.87
621.85	1399.28
622.20	1390.71
622.55	1382.42
622.89	1374.61
623.24	1366.93
623.59	1359.57
623.93	1351.95
624.28	1344.75
624.62	1337.01
624.97	1329.93
625.32	1323.24
625.66	1316.17
626.01	1308.84
626.35	1301.30
626.70	1293.59
627.04	1285.94
627.39	1278.22
627.73	1270.83
628.08	1263.81
628.43	1256.48
628.77	1249.00
629.12	1241.39
629.46	1234.21
629.81	1226.75
630.15	1219.62
630.50	1212.18
630.84	1204.02
631.19	1196.15
631.53	1188.59
631.88	1181.14
632.22	1173.42
632.57	1166.10
632.91	1158.60
633.26	1151.22
633.60	1143.92
633.95	1136.83
634.29	1129.71
634.64	1123.03
634.98	1115.59
635.32	1108.54
635.67	1101.92
636.01	1095.36
636.36	1088.56
636.70	1082.05
637.05	1075.49
637.39	1069.03
637.73	1062.55
638.08	1056.69
638.42	1050.72
638.77	1044.33
639.11	1037.67
639.45	1031.35
639.80	1024.64
640.14	1018.14
640.49	1011.64
640.83	1005.42
641.17	999.20
641.52	992.91
641.86	986.41
642.20	980.66
642.55	974.42
642.89	968.00
643.23	961.41
643.58	955.63
643.92	949.39
644.26	943.26
644.61	937.33
644.95	931.32
645.29	924.62
645.64	917.92
645.98	911.55
646.32	905.79
646.66	899.78
647.01	894.01
647.35	888.42
647.69	882.60
648.04	877.07
648.38	871.25
648.72	865.31
649.06	859.36
649.41	853.42
649.75	847.29
650.09	841.34
650.43	835.53
650.78	829.43
651.12	823.55
651.46	817.86
651.80	812.08
652.14	806.63
652.49	801.28
652.83	796.10
653.17	790.41
653.51	784.67
653.85	779.37
654.20	773.73
654.54	767.70
654.88	762.03
655.22	756.11
655.56	750.46
655.90	745.01
656.25	739.78
656.59	734.42
656.93	729.43
657.27	724.28
657.61	718.95
657.95	713.78
658.29	708.71
658.64	703.52
658.98	698.17
659.32	692.78
659.66	687.60
660.00	682.20
660.34	677.30
660.68	672.47
661.02	667.34
661.36	662.67
661.70	658.22
662.05	653.86
662.39	649.59
662.73	645.10
663.07	640.69
663.41	636.21
663.75	631.66
664.09	627.08
664.43	622.68
664.77	618.50
665.11	614.25
665.45	610.13
665.79	606.06
666.13	601.93
666.47	597.78
666.81	593.63
667.15	589.54
667.49	585.70
667.83	581.81
668.17	577.88
668.51	573.78
668.85	569.75
669.19	565.87
669.53	561.94
669.87	558.10
670.21	554.43
670.55	550.83
670.89	547.48
671.23	544.06
671.57	540.58
671.91	537.08
672.25	533.64
672.58	530.13
672.92	526.68
673.26	523.53
673.60	520.42
673.94	517.31
674.28	514.47
674.62	511.52
674.96	508.45
675.30	505.56
675.64	502.67
675.97	499.93
676.31	497.08
676.65	494.18
676.99	491.47
677.33	488.53
677.67	485.67
678.01	482.58
678.34	479.58
678.68	476.69
679.02	473.85
679.36	471.01
679.70	468.29
680.04	465.58
680.37	462.66
680.71	459.86
681.05	457.26
681.39	454.55
681.73	451.86
682.06	449.33
682.40	446.79
682.74	444.25
683.08	441.67
683.42	439.05
683.75	436.58
684.09	434.06
684.43	431.66
684.77	429.25
685.10	426.94
685.44	424.66
685.78	422.40
686.12	420.22
686.45	418.01
686.79	415.76
687.13	413.58
687.46	411.46
687.80	409.36
688.14	407.15
688.48	405.07
688.81	402.84
689.15	400.71
689.49	398.52
689.82	396.45
690.16	394.38
690.50	392.47
690.83	390.53
691.17	388.55
691.51	386.67
691.84	384.77
692.18	382.86
692.52	380.88
692.85	378.98
693.19	377.08
693.52	375.25
693.86	373.46
694.20	371.68
694.53	369.93
694.87	368.08
695.21	366.30
695.54	364.52
695.88	362.83
696.21	361.10
696.55	359.52
696.88	357.84
697.22	356.24
697.56	354.64
697.89	353.02
698.23	351.42
698.56	349.78
698.90	348.24
699.23	346.61
699.57	345.08
699.90	343.58
700.24	342.05
700.58	340.52
700.91	339.02
701.25	337.53
701.58	336.12
701.92	334.80
702.25	333.42
702.59	332.02
702.92	330.69
703.26	329.43
703.59	328.10
703.93	326.92
704.26	325.62
704.60	324.35
704.93	323.08
705.26	321.85
705.60	320.74
705.93	319.56
706.27	318.51
706.60	317.47
706.94	316.35
707.27	315.22
707.61	314.14
707.94	313.11
708.27	312.05
708.61	310.99
708.94	309.99
709.28	309.02
709.61	308.09
709.94	307.11
710.28	306.08
710.61	305.12
710.95	304.05
711.28	303.14
711.61	302.14
711.95	301.20
712.28	300.21
712.61	299.18
712.95	298.23
713.28	297.37
713.61	296.45
713.95	295.59
714.28	294.74
714.61	293.88
714.95	293.03
715.28	292.17
715.61	291.30
715.95	290.38
716.28	289.52
716.61	288.65
716.95	287.85
717.28	287.11
717.61	286.32
717.94	285.57
718.28	284.76
718.61	284.11
718.94	283.41
719.27	282.76
719.61	282.12
719.94	281.49
720.27	280.74
720.60	280.10
720.94	279.43
721.27	278.85
721.60	278.25
721.93	277.64
722.27	277.08
722.60	276.53
722.93	275.99
723.26	275.46
723.59	274.93
723.93	274.38
724.26	273.79
724.59	273.22
724.92	272.71
725.25	272.24
725.59	271.69
725.92	271.18
726.25	270.68
726.58	270.19
726.91	269.70
727.24	269.24
727.57	268.76
727.91	268.28
728.24	267.82
728.57	267.35
728.90	266.90
729.23	266.44
729.56	266.00
729.89	265.53
730.22	265.04
730.55	264.55
730.89	264.15
731.22	263.72
731.55	263.29
731.88	262.87
732.21	262.42
732.54	261.97
732.87	261.53
733.20	261.13
733.53	260.73
733.86	260.33
734.19	259.95
734.52	259.60
734.85	259.29
735.18	258.90
735.51	258.54
735.84	258.20
736.17	257.83
736.50	257.45
736.83	257.20
737.16	256.89
737.49	256.58
737.82	256.23
738.15	255.91
738.48	255.61
738.81	255.28
739.14	254.97
739.47	254.67
739.80	254.40
740.13	254.10
740.46	253.79
740.79	253.50
741.12	253.19
741.45	252.87
741.78	252.51
742.11	252.20
742.44	251.91
742.77	251.60
743.10	251.30
743.43	251.00
743.75	250.64
744.08	250.51
744.41	250.22
744.74	249.93
745.07	249.66
745.40	249.40
745.73	249.15
746.06	248.85
746.39	248.58
746.71	248.30
747.04	248.02
747.37	247.77
747.70	247.49
748.03	247.20
748.36	246.97
748.68	246.73
749.01	246.47
749.34	246.21
749.67	245.95
750.00	245.74
750.33	245.57
750.65	245.31
750.98	244.95
751.31	244.72
751.64	244.50
751.97	244.30
752.29	244.06
752.62	243.79
752.95	243.59
753.28	243.34
753.60	243.14
753.93	242.95
754.26	242.77
754.59	242.56
754.91	242.37
755.24	242.16
755.57	241.91
755.90	241.70
756.22	241.53
756.55	241.32
756.88	241.11
757.20	240.90
757.53	240.71
757.86	240.53
758.19	240.37
758.51	240.20
758.84	240.02
759.17	239.88
759.49	239.76
759.82	239.60
760.15	239.49
760.47	239.31
760.80	239.11
761.13	238.97
761.45	238.80
761.78	238.69
762.11	238.54
762.43	238.45
762.76	238.33
763.08	238.23
763.41	238.13
763.74	238.01
764.06	237.88
764.39	237.76
764.71	237.64
765.04	237.51
765.37	237.38
765.69	237.24
766.02	237.09
766.34	236.97
766.67	236.89
767.00	236.76
767.32	236.68
767.65	236.66
767.97	236.55
768.30	236.45
768.62	236.31
768.95	236.19
769.27	236.07
769.60	235.99
769.92	235.86
770.25	235.76
770.57	235.63
770.90	235.52
771.22	235.39
771.55	235.30
771.87	235.21
772.20	235.12
772.52	235.10
772.85	235.15
773.17	235.05
773.50	234.93
773.82	234.82
774.15	234.72
774.47	234.58
774.80	234.47
775.12	234.40
775.45	234.35
775.77	234.26
776.09	234.21
776.42	234.14
776.74	234.07
777.07	233.96
777.39	233.89
777.72	233.82
778.04	233.77
778.36	233.73
778.69	233.69
779.01	233.63
779.33	233.52
779.66	233.31
779.98	233.25
780.31	233.20
780.63	233.23
780.95	233.18
781.28	233.11
781.60	233.05
781.92	232.96
782.25	232.89
782.57	232.85
782.89	232.77
783.22	232.70
783.54	232.65
783.86	232.63
784.19	232.58
784.51	232.55
784.83	232.48
785.16	232.38
785.48	232.32
785.80	232.24
786.12	232.16
786.45	232.16
786.77	232.11
787.09	232.05
