SpectraSuite Data File
++++++++++++++++++++++++++++++++++++
Date: Fri Feb 01 17:57:22 EST 2013
User: group
Dark Spectrum Present: No
Reference Spectrum Present: No
Number of Sampled Component Spectra: 1
Spectrometers: USB2E7196
Integration Time (usec): 35000 (USB2E7196)
Spectra Averaged: 100 (USB2E7196)
Boxcar Smoothing: 10 (USB2E7196)
Correct for Electrical Dark: No (USB2E7196)
Strobe/Lamp Enabled: No (USB2E7196)
Correct for Detector Non-linearity: No (USB2E7196)
Correct for Stray Light: No (USB2E7196)
Number of Pixels in Processed Spectrum: 2048
>>>>>Begin Processed Spectral Data<<<<<
339.09	0.00
339.48	212.78
339.86	213.75
340.24	216.17
340.63	217.61
341.01	219.99
341.39	220.09
341.78	220.99
342.16	221.94
342.54	222.80
342.93	211.35
343.31	222.01
343.69	222.55
344.07	223.05
344.46	223.45
344.84	223.79
345.22	224.03
345.60	224.26
345.99	224.45
346.37	224.58
346.75	224.68
347.13	224.75
347.52	224.79
347.90	224.84
348.28	224.88
348.66	224.92
349.05	224.93
349.43	224.93
349.81	225.04
350.19	225.05
350.57	225.11
350.96	225.22
351.34	225.32
351.72	225.42
352.10	225.52
352.48	225.57
352.87	225.62
353.25	225.69
353.63	225.77
354.01	225.84
354.39	225.95
354.77	226.02
355.15	226.15
355.54	226.20
355.92	226.23
356.30	226.27
356.68	226.39
357.06	226.46
357.44	226.52
357.82	226.55
358.20	226.62
358.58	226.68
358.97	226.69
359.35	226.74
359.73	226.79
360.11	226.82
360.49	226.90
360.87	226.97
361.25	227.00
361.63	227.03
362.01	227.07
362.39	227.07
362.77	227.12
363.15	227.10
363.53	227.13
363.91	227.16
364.29	227.18
364.67	227.11
365.05	227.11
365.43	227.11
365.81	227.10
366.19	227.15
366.57	227.21
366.95	227.20
367.33	227.16
367.71	227.18
368.09	227.20
368.47	227.19
368.85	227.17
369.23	227.17
369.61	227.13
369.99	227.15
370.37	227.13
370.75	227.13
371.13	227.11
371.51	227.06
371.89	227.04
372.27	227.03
372.65	226.99
373.03	226.92
373.41	226.87
373.78	226.83
374.16	226.71
374.54	226.61
374.92	226.56
375.30	226.53
375.68	226.44
376.06	226.41
376.44	226.33
376.82	226.26
377.19	226.21
377.57	226.18
377.95	226.09
378.33	226.04
378.71	225.93
379.09	225.88
379.47	225.83
379.84	225.75
380.22	225.63
380.60	225.55
380.98	225.51
381.36	225.46
381.73	225.36
382.11	225.34
382.49	225.32
382.87	225.28
383.25	225.22
383.62	225.27
384.00	225.17
384.38	225.12
384.76	225.11
385.13	225.11
385.51	225.04
385.89	224.97
386.27	224.95
386.64	224.92
387.02	224.84
387.40	224.81
387.78	224.78
388.15	224.77
388.53	224.73
388.91	224.72
389.29	224.68
389.66	224.69
390.04	224.63
390.42	224.61
390.79	224.60
391.17	224.58
391.55	224.43
391.92	224.43
392.30	224.42
392.68	224.38
393.05	224.34
393.43	224.31
393.81	224.36
394.18	224.32
394.56	224.33
394.94	224.40
395.31	224.40
395.69	224.48
396.06	224.50
396.44	224.54
396.82	224.54
397.19	224.64
397.57	224.68
397.95	224.76
398.32	224.77
398.70	224.76
399.07	224.86
399.45	224.95
399.82	225.00
400.20	225.08
400.58	225.14
400.95	225.16
401.33	225.29
401.70	225.42
402.08	225.51
402.45	225.58
402.83	225.67
403.20	225.79
403.58	225.89
403.95	226.06
404.33	226.21
404.71	226.35
405.08	226.51
405.46	226.67
405.83	226.84
406.21	227.01
406.58	227.27
406.96	227.43
407.33	227.67
407.70	227.87
408.08	228.18
408.45	228.47
408.83	228.76
409.20	229.01
409.58	229.21
409.95	229.55
410.33	229.93
410.70	230.25
411.08	230.62
411.45	231.02
411.82	231.38
412.20	231.85
412.57	232.36
412.95	232.79
413.32	233.33
413.69	233.87
414.07	234.45
414.44	235.04
414.82	235.68
415.19	236.39
415.56	237.17
415.94	237.89
416.31	238.71
416.68	239.56
417.06	240.49
417.43	241.39
417.81	242.36
418.18	243.38
418.55	244.49
418.93	245.66
419.30	246.84
419.67	248.12
420.04	249.37
420.42	250.72
420.79	252.28
421.16	253.84
421.54	255.42
421.91	257.08
422.28	258.78
422.66	260.58
423.03	262.26
423.40	264.05
423.77	265.95
424.15	267.88
424.52	269.85
424.89	272.06
425.26	274.16
425.64	276.21
426.01	278.36
426.38	280.60
426.75	282.82
427.13	285.12
427.50	287.53
427.87	290.05
428.24	292.57
428.61	294.94
428.99	297.55
429.36	300.39
429.73	303.18
430.10	305.90
430.47	308.68
430.85	311.60
431.22	314.62
431.59	317.78
431.96	320.77
432.33	324.13
432.70	327.32
433.08	331.11
433.45	334.60
433.82	338.08
434.19	341.96
434.56	345.80
434.93	349.41
435.30	352.93
435.68	356.81
436.05	360.60
436.42	364.34
436.79	367.66
437.16	371.24
437.53	375.02
437.90	378.78
438.27	382.42
438.64	386.18
439.01	389.63
439.38	392.68
439.75	395.61
440.13	398.97
440.50	402.07
440.87	404.56
441.24	407.14
441.61	410.03
441.98	412.01
442.35	414.39
442.72	416.88
443.09	419.31
443.46	420.69
443.83	421.49
444.20	422.21
444.57	423.42
444.94	423.87
445.31	424.31
445.68	424.74
446.05	424.88
446.42	424.41
446.79	423.90
447.16	423.28
447.53	422.86
447.90	421.27
448.27	419.74
448.64	417.61
449.01	416.14
449.37	413.48
449.74	410.92
450.11	407.87
450.48	404.49
450.85	401.12
451.22	398.24
451.59	395.54
451.96	392.91
452.33	389.36
452.70	386.20
453.07	382.40
453.43	378.53
453.80	374.81
454.17	371.19
454.54	367.75
454.91	364.11
455.28	360.51
455.65	357.17
456.02	353.80
456.38	350.90
456.75	347.27
457.12	344.26
457.49	341.31
457.86	338.37
458.23	335.87
458.59	333.07
458.96	330.20
459.33	327.68
459.70	325.19
460.07	323.14
460.43	320.75
460.80	318.54
461.17	316.58
461.54	314.50
461.91	312.53
462.27	310.56
462.64	308.90
463.01	307.05
463.38	305.27
463.74	303.48
464.11	301.90
464.48	300.50
464.85	299.01
465.21	297.80
465.58	296.59
465.95	295.13
466.32	293.92
466.68	292.70
467.05	291.47
467.42	290.22
467.78	288.97
468.15	287.83
468.52	286.96
468.88	285.85
469.25	284.86
469.62	284.02
469.98	283.09
470.35	282.18
470.72	281.40
471.08	280.53
471.45	279.79
471.82	279.05
472.18	278.26
472.55	277.65
472.92	276.94
473.28	276.28
473.65	275.67
474.02	275.06
474.38	274.53
474.75	274.09
475.11	273.62
475.48	273.21
475.85	272.86
476.21	272.50
476.58	272.19
476.94	271.95
477.31	271.67
477.67	271.45
478.04	271.25
478.41	271.11
478.77	271.10
479.14	270.94
479.50	270.91
479.87	270.94
480.23	270.96
480.60	270.99
480.96	271.08
481.33	271.24
481.69	271.39
482.06	271.54
482.42	271.68
482.79	271.89
483.15	272.16
483.52	272.52
483.88	272.82
484.25	273.16
484.61	273.56
484.98	274.03
485.34	274.59
485.71	275.17
486.07	275.80
486.44	276.35
486.80	277.07
487.17	277.79
487.53	278.59
487.90	279.47
488.26	280.43
488.62	281.41
488.99	282.41
489.35	283.48
489.72	284.66
490.08	285.92
490.44	287.19
490.81	288.59
491.17	289.96
491.54	291.51
491.90	293.09
492.26	294.80
492.63	296.63
492.99	298.48
493.36	300.45
493.72	302.59
494.08	304.86
494.45	307.21
494.81	309.71
495.17	312.30
495.54	315.03
495.90	317.86
496.26	320.81
496.63	323.95
496.99	327.27
497.35	330.76
497.72	334.35
498.08	338.12
498.44	341.99
498.80	346.19
499.17	350.43
499.53	354.87
499.89	359.47
500.26	364.21
500.62	369.11
500.98	374.39
501.34	379.77
501.71	385.36
502.07	391.15
502.43	397.19
502.79	403.36
503.16	409.77
503.52	416.41
503.88	423.18
504.24	430.10
504.60	437.43
504.97	445.00
505.33	452.75
505.69	460.92
506.05	469.20
506.41	477.51
506.78	486.25
507.14	495.29
507.50	504.63
507.86	514.24
508.22	524.08
508.59	533.89
508.95	544.06
509.31	554.52
509.67	565.26
510.03	576.16
510.39	587.41
510.75	598.92
511.12	610.66
511.48	622.72
511.84	635.09
512.20	647.34
512.56	660.09
512.92	673.13
513.28	686.37
513.64	699.70
514.00	713.35
514.37	727.25
514.73	741.24
515.09	755.16
515.45	769.38
515.81	783.95
516.17	798.97
516.53	814.18
516.89	829.51
517.25	844.76
517.61	860.37
517.97	876.02
518.33	891.64
518.69	907.59
519.05	923.87
519.41	940.28
519.77	957.13
520.13	973.93
520.49	990.71
520.85	1007.36
521.21	1024.55
521.57	1042.29
521.93	1059.40
522.29	1077.17
522.65	1094.98
523.01	1112.66
523.37	1130.21
523.73	1147.95
524.09	1165.61
524.45	1183.36
524.81	1201.68
525.17	1220.05
525.53	1238.52
525.89	1257.07
526.25	1275.61
526.61	1293.68
526.97	1312.20
527.33	1330.49
527.68	1348.79
528.04	1366.96
528.40	1385.39
528.76	1404.23
529.12	1422.62
529.48	1441.46
529.84	1459.35
530.20	1477.81
530.56	1496.81
530.91	1516.28
531.27	1534.95
531.63	1553.36
531.99	1571.95
532.35	1589.97
532.71	1608.06
533.07	1626.31
533.42	1644.25
533.78	1662.37
534.14	1680.68
534.50	1697.96
534.86	1715.93
535.21	1733.21
535.57	1751.25
535.93	1768.83
536.29	1785.82
536.65	1802.97
537.00	1819.82
537.36	1837.45
537.72	1854.03
538.08	1870.62
538.44	1886.47
538.79	1902.53
539.15	1918.29
539.51	1934.21
539.87	1950.67
540.22	1966.27
540.58	1982.27
540.94	1997.77
541.29	2012.85
541.65	2027.66
542.01	2043.10
542.37	2057.59
542.72	2072.32
543.08	2086.35
543.44	2101.01
543.79	2114.27
544.15	2127.44
544.51	2141.32
544.87	2154.37
545.22	2167.53
545.58	2179.96
545.94	2191.84
546.29	2203.75
546.65	2215.80
547.01	2227.26
547.36	2238.17
547.72	2248.74
548.07	2258.72
548.43	2268.89
548.79	2278.82
549.14	2288.39
549.50	2297.63
549.86	2307.08
550.21	2316.26
550.57	2325.52
550.92	2334.14
551.28	2343.12
551.64	2352.21
551.99	2360.43
552.35	2368.37
552.70	2376.28
553.06	2384.05
553.41	2392.36
553.77	2400.32
554.13	2408.26
554.48	2416.19
554.84	2423.57
555.19	2430.53
555.55	2437.46
555.90	2443.69
556.26	2450.35
556.61	2456.72
556.97	2462.93
557.32	2468.90
557.68	2474.56
558.03	2480.27
558.39	2485.35
558.74	2491.71
559.10	2497.33
559.45	2502.59
559.81	2508.38
560.16	2513.81
560.52	2518.54
560.87	2523.24
561.23	2527.30
561.58	2531.41
561.94	2535.31
562.29	2538.62
562.64	2542.88
563.00	2546.69
563.35	2551.52
563.71	2555.91
564.06	2560.52
564.42	2564.53
564.77	2568.34
565.12	2571.86
565.48	2575.09
565.83	2578.21
566.19	2580.72
566.54	2582.34
566.89	2584.62
567.25	2586.39
567.60	2588.73
567.96	2591.61
568.31	2593.46
568.66	2595.60
569.02	2597.33
569.37	2598.49
569.72	2600.40
570.08	2601.36
570.43	2602.15
570.78	2602.45
571.14	2601.68
571.49	2600.84
571.84	2601.16
572.20	2600.65
572.55	2600.31
572.90	2599.02
573.26	2598.19
573.61	2596.77
573.96	2595.61
574.31	2592.82
574.67	2590.01
575.02	2586.39
575.37	2583.10
575.72	2579.44
576.08	2576.11
576.43	2572.90
576.78	2569.32
577.13	2566.13
577.49	2563.00
577.84	2559.52
578.19	2555.49
578.54	2551.91
578.90	2547.81
579.25	2542.00
579.60	2536.57
579.95	2531.27
580.30	2526.12
580.66	2520.53
581.01	2515.27
581.36	2510.02
581.71	2505.80
582.06	2501.17
582.42	2496.55
582.77	2490.95
583.12	2486.05
583.47	2481.08
583.82	2475.78
584.17	2470.18
584.53	2464.44
584.88	2458.37
585.23	2452.28
585.58	2446.32
585.93	2440.31
586.28	2434.92
586.63	2429.50
586.98	2424.18
587.34	2419.07
587.69	2413.63
588.04	2407.95
588.39	2401.63
588.74	2394.39
589.09	2387.54
589.44	2380.08
589.79	2373.21
590.14	2366.92
590.49	2359.59
590.84	2352.40
591.19	2345.61
591.54	2338.38
591.89	2330.19
592.25	2322.60
592.60	2314.45
592.95	2306.10
593.30	2297.70
593.65	2289.21
594.00	2281.10
594.35	2272.78
594.70	2263.55
595.05	2255.59
595.40	2247.29
595.75	2238.80
596.10	2231.76
596.45	2224.04
596.80	2216.96
597.15	2209.52
597.50	2201.62
597.85	2194.11
598.19	2186.51
598.54	2178.42
598.89	2170.76
599.24	2163.85
599.59	2156.51
599.94	2149.41
600.29	2142.14
600.64	2134.58
600.99	2126.03
601.34	2118.33
601.69	2110.36
602.04	2102.59
602.39	2094.09
602.74	2086.24
603.08	2078.41
603.43	2070.55
603.78	2061.98
604.13	2053.57
604.48	2045.25
604.83	2037.11
605.18	2029.28
605.53	2020.00
605.87	2010.65
606.22	2002.15
606.57	1992.80
606.92	1983.92
607.27	1975.54
607.62	1967.36
607.96	1958.82
608.31	1951.21
608.66	1942.25
609.01	1933.37
609.36	1924.45
609.70	1914.97
610.05	1905.55
610.40	1896.68
610.75	1887.07
611.10	1878.24
611.44	1868.34
611.79	1858.91
612.14	1848.77
612.49	1837.94
612.83	1828.05
613.18	1818.54
613.53	1809.15
613.88	1799.26
614.22	1789.54
614.57	1779.28
614.92	1769.89
615.27	1761.17
615.61	1751.40
615.96	1741.92
616.31	1733.02
616.65	1724.37
617.00	1715.54
617.35	1706.51
617.70	1696.81
618.04	1686.89
618.39	1677.23
618.74	1668.43
619.08	1658.78
619.43	1649.89
619.78	1641.80
620.12	1633.45
620.47	1624.61
620.82	1615.03
621.16	1606.33
621.51	1597.39
621.85	1588.45
622.20	1578.48
622.55	1568.68
622.89	1559.41
623.24	1550.36
623.59	1541.55
623.93	1532.72
624.28	1524.30
624.62	1515.53
624.97	1506.96
625.32	1498.79
625.66	1490.42
626.01	1481.99
626.35	1473.21
626.70	1464.04
627.04	1455.02
627.39	1445.83
627.73	1437.05
628.08	1428.90
628.43	1420.36
628.77	1411.73
629.12	1402.97
629.46	1394.58
629.81	1385.64
630.15	1377.06
630.50	1368.51
630.84	1358.96
631.19	1349.56
631.53	1340.77
631.88	1331.88
632.22	1323.02
632.57	1314.55
632.91	1305.76
633.26	1297.13
633.60	1288.42
633.95	1280.07
634.29	1271.75
634.64	1263.95
634.98	1255.47
635.32	1247.03
635.67	1239.17
636.01	1231.50
636.36	1223.61
636.70	1216.00
637.05	1208.45
637.39	1200.96
637.73	1193.37
638.08	1186.54
638.42	1179.63
638.77	1172.03
639.11	1164.39
639.45	1156.91
639.80	1149.15
640.14	1141.69
640.49	1134.04
640.83	1126.83
641.17	1119.54
641.52	1112.19
641.86	1104.66
642.20	1097.74
642.55	1090.38
642.89	1082.93
643.23	1075.17
643.58	1068.43
643.92	1061.23
644.26	1054.30
644.61	1047.24
644.95	1040.24
645.29	1032.67
645.64	1024.89
645.98	1017.48
646.32	1010.64
646.66	1003.70
647.01	996.97
647.35	990.33
647.69	983.53
648.04	977.00
648.38	970.42
648.72	963.57
649.06	956.79
649.41	950.00
649.75	943.18
650.09	936.33
650.43	929.73
650.78	922.57
651.12	915.62
651.46	908.93
651.80	902.43
652.14	896.18
652.49	889.91
652.83	883.89
653.17	877.44
653.51	870.84
653.85	864.60
654.20	858.09
654.54	851.15
654.88	844.46
655.22	837.67
655.56	831.04
655.90	824.69
656.25	818.45
656.59	812.22
656.93	806.26
657.27	800.27
657.61	794.01
657.95	788.17
658.29	782.32
658.64	776.15
658.98	769.88
659.32	763.59
659.66	757.55
660.00	751.44
660.34	745.67
660.68	739.97
661.02	734.17
661.36	728.73
661.70	723.55
662.05	718.60
662.39	713.68
662.73	708.48
663.07	703.41
663.41	698.32
663.75	693.21
664.09	688.08
664.43	683.02
664.77	678.23
665.11	673.33
665.45	668.59
665.79	664.01
666.13	659.36
666.47	654.63
666.81	649.90
667.15	645.18
667.49	640.66
667.83	636.30
668.17	631.78
668.51	627.15
668.85	622.50
669.19	618.00
669.53	613.53
669.87	609.14
670.21	604.90
670.55	600.70
670.89	596.70
671.23	592.62
671.57	588.56
671.91	584.52
672.25	580.49
672.58	576.41
672.92	572.40
673.26	568.71
673.60	565.07
673.94	561.49
674.28	558.10
674.62	554.72
674.96	551.14
675.30	547.81
675.64	544.44
675.97	541.25
676.31	537.93
676.65	534.58
676.99	531.48
677.33	528.11
677.67	524.88
678.01	521.47
678.34	518.09
678.68	514.80
679.02	511.55
679.36	508.31
679.70	505.21
680.04	502.15
680.37	498.85
680.71	495.63
681.05	492.63
681.39	489.52
681.73	486.46
682.06	483.52
682.40	480.61
682.74	477.69
683.08	474.68
683.42	471.71
683.75	468.81
684.09	465.84
684.43	463.04
684.77	460.17
685.10	457.35
685.44	454.65
685.78	451.96
686.12	449.32
686.45	446.65
686.79	443.98
687.13	441.35
687.46	438.82
687.80	436.36
688.14	433.72
688.48	431.31
688.81	428.72
689.15	426.22
689.49	423.64
689.82	421.15
690.16	418.75
690.50	416.45
690.83	414.22
691.17	411.90
691.51	409.69
691.84	407.55
692.18	405.38
692.52	403.14
692.85	400.93
693.19	398.76
693.52	396.62
693.86	394.54
694.20	392.50
694.53	390.44
694.87	388.27
695.21	386.23
695.54	384.12
695.88	382.13
696.21	380.17
696.55	378.25
696.88	376.31
697.22	374.36
697.56	372.52
697.89	370.60
698.23	368.79
698.56	366.93
698.90	365.11
699.23	363.24
699.57	361.45
699.90	359.66
700.24	357.90
700.58	356.16
700.91	354.42
701.25	352.72
701.58	351.09
701.92	349.51
702.25	347.96
702.59	346.41
702.92	344.86
703.26	343.36
703.59	341.89
703.93	340.58
704.26	339.23
704.60	337.75
704.93	336.26
705.26	334.77
705.60	333.42
705.93	332.10
706.27	330.83
706.60	329.58
706.94	328.36
707.27	326.98
707.61	325.74
707.94	324.53
708.27	323.26
708.61	322.04
708.94	320.85
709.28	319.68
709.61	318.55
709.94	317.45
710.28	316.22
710.61	315.06
710.95	313.76
711.28	312.65
711.61	311.53
711.95	310.48
712.28	309.44
712.61	308.25
712.95	307.14
713.28	306.16
713.61	305.11
713.95	304.06
714.28	303.11
714.61	302.13
714.95	301.15
715.28	300.15
715.61	299.12
715.95	298.11
716.28	297.08
716.61	296.09
716.95	295.07
717.28	294.25
717.61	293.35
717.94	292.52
718.28	291.58
718.61	290.73
718.94	289.88
719.27	289.07
719.61	288.34
719.94	287.57
720.27	286.73
720.60	285.98
720.94	285.28
721.27	284.56
721.60	283.88
721.93	283.18
722.27	282.54
722.60	281.90
722.93	281.27
723.26	280.70
723.59	280.05
723.93	279.44
724.26	278.75
724.59	278.09
724.92	277.45
725.25	276.88
725.59	276.30
725.92	275.70
726.25	275.11
726.58	274.57
726.91	273.99
727.24	273.43
727.57	272.86
727.91	272.25
728.24	271.76
728.57	271.22
728.90	270.72
729.23	270.18
729.56	269.67
729.89	269.11
730.22	268.55
730.55	268.00
730.89	267.50
731.22	267.03
731.55	266.56
731.88	266.12
732.21	265.64
732.54	265.12
732.87	264.63
733.20	264.17
733.53	263.68
733.86	263.22
734.19	262.76
734.52	262.36
734.85	261.97
735.18	261.44
735.51	261.00
735.84	260.55
736.17	260.10
736.50	259.65
736.83	259.43
737.16	259.03
737.49	258.68
737.82	258.25
738.15	257.87
738.48	257.50
738.81	257.06
739.14	256.70
739.47	256.33
739.80	255.95
740.13	255.61
740.46	255.26
740.79	254.92
741.12	254.59
741.45	254.21
741.78	253.82
742.11	253.48
742.44	253.07
742.77	252.75
743.10	252.42
743.43	252.06
743.75	251.59
744.08	251.37
744.41	251.02
744.74	250.73
745.07	250.39
745.40	250.07
745.73	249.82
746.06	249.51
746.39	249.22
746.71	248.96
747.04	248.60
747.37	248.25
747.70	247.96
748.03	247.65
748.36	247.39
748.68	247.12
749.01	246.86
749.34	246.65
749.67	246.38
750.00	246.13
750.33	245.95
750.65	245.69
750.98	245.30
751.31	245.06
751.64	244.82
751.97	244.61
752.29	244.38
752.62	244.11
752.95	243.83
753.28	243.62
753.60	243.36
753.93	243.20
754.26	243.00
754.59	242.76
754.91	242.53
755.24	242.30
755.57	242.10
755.90	241.92
756.22	241.67
756.55	241.44
756.88	241.20
757.20	240.94
757.53	240.75
757.86	240.59
758.19	240.44
758.51	240.25
758.84	240.05
759.17	239.86
759.49	239.67
759.82	239.56
760.15	239.37
760.47	239.19
760.80	238.99
761.13	238.86
761.45	238.66
761.78	238.50
762.11	238.35
762.43	238.15
762.76	237.92
763.08	237.79
763.41	237.64
763.74	237.51
764.06	237.32
764.39	237.14
764.71	236.96
765.04	236.77
765.37	236.62
765.69	236.47
766.02	236.29
766.34	236.15
766.67	235.98
767.00	235.87
767.32	235.81
767.65	235.76
767.97	235.60
768.30	235.51
768.62	235.35
768.95	235.20
769.27	235.08
769.60	235.00
769.92	234.85
770.25	234.72
770.57	234.62
770.90	234.52
771.22	234.41
771.55	234.31
771.87	234.20
772.20	234.05
772.52	233.99
772.85	234.04
773.17	233.95
773.50	233.79
773.82	233.65
774.15	233.50
774.47	233.33
774.80	233.21
775.12	233.08
775.45	232.97
775.77	232.86
776.09	232.75
776.42	232.68
776.74	232.59
777.07	232.49
777.39	232.36
777.72	232.25
778.04	232.17
778.36	232.07
778.69	232.01
779.01	231.98
779.33	231.85
779.66	231.60
779.98	231.47
780.31	231.46
780.63	231.42
780.95	231.34
781.28	231.23
781.60	231.18
781.92	231.10
782.25	231.08
782.57	231.04
782.89	230.97
783.22	230.85
783.54	230.81
783.86	230.77
784.19	230.71
784.51	230.66
784.83	230.59
785.16	230.51
785.48	230.44
785.80	230.35
786.12	230.28
786.45	230.27
