SpectraSuite Data File
++++++++++++++++++++++++++++++++++++
Date: Fri Feb 01 16:50:39 EST 2013
User: group
Dark Spectrum Present: No
Reference Spectrum Present: No
Number of Sampled Component Spectra: 1
Spectrometers: USB2E7196
Integration Time (usec): 35000 (USB2E7196)
Spectra Averaged: 100 (USB2E7196)
Boxcar Smoothing: 10 (USB2E7196)
Correct for Electrical Dark: No (USB2E7196)
Strobe/Lamp Enabled: No (USB2E7196)
Correct for Detector Non-linearity: No (USB2E7196)
Correct for Stray Light: No (USB2E7196)
Number of Pixels in Processed Spectrum: 2048
>>>>>Begin Processed Spectral Data<<<<<
339.09	0.00
339.48	213.27
339.86	214.33
340.24	216.96
340.63	217.03
341.01	219.99
341.39	220.27
341.78	221.57
342.16	222.61
342.54	222.87
342.93	211.66
343.31	222.34
343.69	222.90
344.07	223.38
344.46	223.75
344.84	224.16
345.22	224.39
345.60	224.63
345.99	224.82
346.37	224.97
346.75	225.12
347.13	225.18
347.52	225.25
347.90	225.31
348.28	225.32
348.66	225.39
349.05	225.37
349.43	225.39
349.81	225.46
350.19	225.48
350.57	225.56
350.96	225.59
351.34	225.69
351.72	225.76
352.10	225.86
352.48	225.92
352.87	225.96
353.25	226.05
353.63	226.12
354.01	226.16
354.39	226.22
354.77	226.23
355.15	226.34
355.54	226.39
355.92	226.43
356.30	226.52
356.68	226.64
357.06	226.72
357.44	226.78
357.82	226.86
358.20	226.96
358.58	226.99
358.97	227.07
359.35	227.13
359.73	227.23
360.11	227.26
360.49	227.34
360.87	227.40
361.25	227.43
361.63	227.52
362.01	227.58
362.39	227.60
362.77	227.65
363.15	227.65
363.53	227.69
363.91	227.74
364.29	227.74
364.67	227.64
365.05	227.68
365.43	227.68
365.81	227.67
366.19	227.68
366.57	227.76
366.95	227.78
367.33	227.78
367.71	227.75
368.09	227.78
368.47	227.76
368.85	227.74
369.23	227.79
369.61	227.72
369.99	227.74
370.37	227.72
370.75	227.75
371.13	227.71
371.51	227.67
371.89	227.62
372.27	227.61
372.65	227.59
373.03	227.52
373.41	227.46
373.78	227.41
374.16	227.33
374.54	227.23
374.92	227.14
375.30	227.07
375.68	227.01
376.06	226.94
376.44	226.87
376.82	226.81
377.19	226.72
377.57	226.67
377.95	226.56
378.33	226.52
378.71	226.41
379.09	226.36
379.47	226.32
379.84	226.27
380.22	226.16
380.60	226.07
380.98	226.02
381.36	225.97
381.73	225.91
382.11	225.88
382.49	225.80
382.87	225.74
383.25	225.69
383.62	225.74
384.00	225.65
384.38	225.64
384.76	225.61
385.13	225.59
385.51	225.52
385.89	225.47
386.27	225.40
386.64	225.37
387.02	225.32
387.40	225.22
387.78	225.20
388.15	225.19
388.53	225.14
388.91	225.10
389.29	225.05
389.66	225.03
390.04	224.98
390.42	225.00
390.79	224.97
391.17	224.94
391.55	224.82
391.92	224.82
392.30	224.78
392.68	224.73
393.05	224.74
393.43	224.74
393.81	224.74
394.18	224.74
394.56	224.75
394.94	224.76
395.31	224.80
395.69	224.86
396.06	224.90
396.44	224.97
396.82	225.00
397.19	225.11
397.57	225.11
397.95	225.19
398.32	225.20
398.70	225.25
399.07	225.32
399.45	225.33
399.82	225.41
400.20	225.45
400.58	225.55
400.95	225.57
401.33	225.66
401.70	225.80
402.08	225.85
402.45	225.93
402.83	226.04
403.20	226.14
403.58	226.18
403.95	226.29
404.33	226.38
404.71	226.49
405.08	226.66
405.46	226.79
405.83	226.90
406.21	227.05
406.58	227.23
406.96	227.37
407.33	227.56
407.70	227.71
408.08	227.99
408.45	228.17
408.83	228.39
409.20	228.60
409.58	228.76
409.95	229.03
410.33	229.32
410.70	229.55
411.08	229.84
411.45	230.14
411.82	230.41
412.20	230.77
412.57	231.18
412.95	231.49
413.32	231.92
413.69	232.33
414.07	232.75
414.44	233.22
414.82	233.71
415.19	234.28
415.56	234.88
415.94	235.39
416.31	236.05
416.68	236.66
417.06	237.38
417.43	238.09
417.81	238.84
418.18	239.61
418.55	240.46
418.93	241.34
419.30	242.24
419.67	243.17
420.04	244.10
420.42	245.08
420.79	246.20
421.16	247.37
421.54	248.58
421.91	249.80
422.28	251.00
422.66	252.31
423.03	253.57
423.40	254.87
423.77	256.32
424.15	257.73
424.52	259.19
424.89	260.76
425.26	262.27
425.64	263.72
426.01	265.27
426.38	266.95
426.75	268.59
427.13	270.31
427.50	272.11
427.87	274.00
428.24	275.86
428.61	277.60
428.99	279.50
429.36	281.58
429.73	283.62
430.10	285.67
430.47	287.74
430.85	289.86
431.22	292.11
431.59	294.42
431.96	296.63
432.33	299.12
432.70	301.50
433.08	304.32
433.45	306.93
433.82	309.49
434.19	312.30
434.56	315.08
434.93	317.71
435.30	320.36
435.68	323.24
436.05	326.01
436.42	328.80
436.79	331.29
437.16	333.97
437.53	336.77
437.90	339.54
438.27	342.22
438.64	345.02
439.01	347.58
439.38	349.81
439.75	351.98
440.13	354.46
440.50	356.75
440.87	358.57
441.24	360.49
441.61	362.68
441.98	364.15
442.35	365.92
442.72	367.74
443.09	369.51
443.46	370.46
443.83	371.07
444.20	371.57
444.57	372.43
444.94	372.71
445.31	373.01
445.68	373.42
446.05	373.57
446.42	373.20
446.79	372.81
447.16	372.39
447.53	372.11
447.90	370.95
448.27	369.85
448.64	368.27
449.01	367.13
449.37	365.20
449.74	363.37
450.11	361.18
450.48	358.77
450.85	356.28
451.22	354.20
451.59	352.23
451.96	350.29
452.33	347.67
452.70	345.35
453.07	342.57
453.43	339.68
453.80	336.90
454.17	334.23
454.54	331.69
454.91	328.98
455.28	326.26
455.65	323.79
456.02	321.32
456.38	319.25
456.75	316.66
457.12	314.39
457.49	312.21
457.86	310.02
458.23	308.18
458.59	306.08
458.96	304.00
459.33	302.14
459.70	300.31
460.07	298.86
460.43	297.15
460.80	295.57
461.17	294.09
461.54	292.58
461.91	291.19
462.27	289.74
462.64	288.52
463.01	287.20
463.38	285.95
463.74	284.61
464.11	283.40
464.48	282.39
464.85	281.32
465.21	280.43
465.58	279.59
465.95	278.51
466.32	277.66
466.68	276.75
467.05	275.88
467.42	275.02
467.78	274.10
468.15	273.27
468.52	272.60
468.88	271.78
469.25	271.06
469.62	270.42
469.98	269.73
470.35	269.12
470.72	268.57
471.08	267.92
471.45	267.42
471.82	266.91
472.18	266.28
472.55	265.86
472.92	265.35
473.28	264.87
473.65	264.42
474.02	263.99
474.38	263.62
474.75	263.29
475.11	262.95
475.48	262.68
475.85	262.47
476.21	262.27
476.58	262.10
476.94	261.98
477.31	261.85
477.67	261.73
478.04	261.64
478.41	261.59
478.77	261.64
479.14	261.57
479.50	261.59
479.87	261.66
480.23	261.73
480.60	261.78
480.96	261.91
481.33	262.16
481.69	262.36
482.06	262.59
482.42	262.80
482.79	263.05
483.15	263.35
483.52	263.70
483.88	264.04
484.25	264.41
484.61	264.82
484.98	265.23
485.34	265.77
485.71	266.30
486.07	266.88
486.44	267.45
486.80	268.17
487.17	268.91
487.53	269.75
487.90	270.61
488.26	271.59
488.62	272.54
488.99	273.48
489.35	274.52
489.72	275.63
490.08	276.85
490.44	278.06
490.81	279.46
491.17	280.77
491.54	282.25
491.90	283.80
492.26	285.42
492.63	287.18
492.99	288.98
493.36	290.87
493.72	292.88
494.08	294.96
494.45	297.15
494.81	299.45
495.17	301.89
495.54	304.44
495.90	307.08
496.26	309.87
496.63	312.83
496.99	315.96
497.35	319.20
497.72	322.58
498.08	326.07
498.44	329.69
498.80	333.62
499.17	337.67
499.53	341.82
499.89	346.18
500.26	350.70
500.62	355.36
500.98	360.31
501.34	365.32
501.71	370.64
502.07	376.09
502.43	381.73
502.79	387.52
503.16	393.57
503.52	399.91
503.88	406.33
504.24	412.91
504.60	419.77
504.97	426.90
505.33	434.19
505.69	441.91
506.05	449.71
506.41	457.56
506.78	465.66
507.14	474.09
507.50	482.73
507.86	491.68
508.22	500.83
508.59	510.03
508.95	519.61
509.31	529.37
509.67	539.38
510.03	549.65
510.39	560.16
510.75	570.85
511.12	581.60
511.48	592.83
511.84	604.27
512.20	615.68
512.56	627.53
512.92	639.65
513.28	651.91
513.64	664.24
514.00	676.91
514.37	689.74
514.73	702.68
515.09	715.68
515.45	728.85
515.81	742.34
516.17	756.14
516.53	770.17
516.89	784.23
517.25	798.34
517.61	812.61
517.97	827.03
518.33	841.42
518.69	856.11
519.05	870.89
519.41	885.80
519.77	901.17
520.13	916.45
520.49	931.67
520.85	946.89
521.21	962.48
521.57	978.42
521.93	994.06
522.29	1010.21
522.65	1026.32
523.01	1042.34
523.37	1058.19
523.73	1074.15
524.09	1089.94
524.45	1105.98
524.81	1122.30
525.17	1138.83
525.53	1155.48
525.89	1172.17
526.25	1188.76
526.61	1205.02
526.97	1221.57
527.33	1237.77
527.68	1254.09
528.04	1270.29
528.40	1286.61
528.76	1303.38
529.12	1319.78
529.48	1336.45
529.84	1352.21
530.20	1368.50
530.56	1385.22
530.91	1402.32
531.27	1418.86
531.63	1435.18
531.99	1451.55
532.35	1467.29
532.71	1482.97
533.07	1498.92
533.42	1514.59
533.78	1530.45
534.14	1546.47
534.50	1561.66
534.86	1577.31
535.21	1592.28
535.57	1607.94
535.93	1623.20
536.29	1637.78
536.65	1652.58
537.00	1667.00
537.36	1682.12
537.72	1696.38
538.08	1710.60
538.44	1724.20
538.79	1738.10
539.15	1751.45
539.51	1764.91
539.87	1779.20
540.22	1792.61
540.58	1806.15
540.94	1819.11
541.29	1831.62
541.65	1843.96
542.01	1856.80
542.37	1868.96
542.72	1881.15
543.08	1892.79
543.44	1905.02
543.79	1916.19
544.15	1927.01
544.51	1938.51
544.87	1949.41
545.22	1960.05
545.58	1970.10
545.94	1979.79
546.29	1989.34
546.65	1999.18
547.01	2008.41
547.36	2016.88
547.72	2025.32
548.07	2033.06
548.43	2041.17
548.79	2049.14
549.14	2056.75
549.50	2063.93
549.86	2071.48
550.21	2078.76
550.57	2085.93
550.92	2092.51
551.28	2099.44
551.64	2106.51
551.99	2112.95
552.35	2119.08
552.70	2125.34
553.06	2131.41
553.41	2137.71
553.77	2143.66
554.13	2149.65
554.48	2155.82
554.84	2161.39
555.19	2166.66
555.55	2171.82
555.90	2176.23
556.26	2181.22
556.61	2185.95
556.97	2190.46
557.32	2194.67
557.68	2198.83
558.03	2203.00
558.39	2206.63
558.74	2211.28
559.10	2215.21
559.45	2218.76
559.81	2222.94
560.16	2226.90
560.52	2230.16
560.87	2233.55
561.23	2236.28
561.58	2239.24
561.94	2241.73
562.29	2243.99
562.64	2246.81
563.00	2249.58
563.35	2253.18
563.71	2256.34
564.06	2259.44
564.42	2262.42
564.77	2264.94
565.12	2267.45
565.48	2269.53
565.83	2271.49
566.19	2272.93
566.54	2273.86
566.89	2275.38
567.25	2276.17
567.60	2277.26
567.96	2279.00
568.31	2279.87
568.66	2281.18
569.02	2281.73
569.37	2282.19
569.72	2283.25
570.08	2283.47
570.43	2283.44
570.78	2283.08
571.14	2281.58
571.49	2280.40
571.84	2280.02
572.20	2279.27
572.55	2278.30
572.90	2276.73
573.26	2275.58
573.61	2273.89
573.96	2272.29
574.31	2269.48
574.67	2266.82
575.02	2263.41
575.37	2260.05
575.72	2256.59
576.08	2253.30
576.43	2250.24
576.78	2246.78
577.13	2243.78
577.49	2240.87
577.84	2237.67
578.19	2233.89
578.54	2230.50
578.90	2226.67
579.25	2221.47
579.60	2216.50
579.95	2211.59
580.30	2206.81
580.66	2201.73
581.01	2196.87
581.36	2192.09
581.71	2188.04
582.06	2183.55
582.42	2179.43
582.77	2174.52
583.12	2170.10
583.47	2165.58
583.82	2160.78
584.17	2155.74
584.53	2150.36
584.88	2144.78
585.23	2139.08
585.58	2133.82
585.93	2128.59
586.28	2123.73
586.63	2118.81
586.98	2113.93
587.34	2109.33
587.69	2104.58
588.04	2099.46
588.39	2093.97
588.74	2087.62
589.09	2081.50
589.44	2074.86
589.79	2068.77
590.14	2063.12
590.49	2056.54
590.84	2050.27
591.19	2044.40
591.54	2038.02
591.89	2030.86
592.25	2024.31
592.60	2017.27
592.95	2009.90
593.30	2002.54
593.65	1995.06
594.00	1988.03
594.35	1980.87
594.70	1973.00
595.05	1966.04
595.40	1958.90
595.75	1951.56
596.10	1945.58
596.45	1939.05
596.80	1933.07
597.15	1926.70
597.50	1919.81
597.85	1913.42
598.19	1906.87
598.54	1899.86
598.89	1893.36
599.24	1887.45
599.59	1880.95
599.94	1874.86
600.29	1868.62
600.64	1862.06
600.99	1854.79
601.34	1848.14
601.69	1841.28
602.04	1834.57
602.39	1827.27
602.74	1820.49
603.08	1813.76
603.43	1806.96
603.78	1799.61
604.13	1792.41
604.48	1785.13
604.83	1778.33
605.18	1771.66
605.53	1763.75
605.87	1755.83
606.22	1748.65
606.57	1740.79
606.92	1733.51
607.27	1726.44
607.62	1719.61
607.96	1712.64
608.31	1706.15
608.66	1698.70
609.01	1691.26
609.36	1683.74
609.70	1675.72
610.05	1667.69
610.40	1660.16
610.75	1651.93
611.10	1644.41
611.44	1636.02
611.79	1628.10
612.14	1619.61
612.49	1610.41
612.83	1602.07
613.18	1594.09
613.53	1585.97
613.88	1577.41
614.22	1569.08
614.57	1560.37
614.92	1552.39
615.27	1544.87
615.61	1536.66
615.96	1528.61
616.31	1520.87
616.65	1513.61
617.00	1506.17
617.35	1498.54
617.70	1490.33
618.04	1481.86
618.39	1473.57
618.74	1466.11
619.08	1457.88
619.43	1450.18
619.78	1443.24
620.12	1436.21
620.47	1428.65
620.82	1420.48
621.16	1413.19
621.51	1405.59
621.85	1398.07
622.20	1389.65
622.55	1381.23
622.89	1373.38
623.24	1365.62
623.59	1358.18
623.93	1350.56
624.28	1343.27
624.62	1335.84
624.97	1328.63
625.32	1321.94
625.66	1314.98
626.01	1307.74
626.35	1300.37
626.70	1292.70
627.04	1285.09
627.39	1277.16
627.73	1269.75
628.08	1262.89
628.43	1255.71
628.77	1248.32
629.12	1240.80
629.46	1233.55
629.81	1226.15
630.15	1218.81
630.50	1211.54
630.84	1203.55
631.19	1195.56
631.53	1188.02
631.88	1180.44
632.22	1172.78
632.57	1165.44
632.91	1157.87
633.26	1150.49
633.60	1143.01
633.95	1135.80
634.29	1128.66
634.64	1122.02
634.98	1114.72
635.32	1107.55
635.67	1100.87
636.01	1094.29
636.36	1087.51
636.70	1080.96
637.05	1074.38
637.39	1067.99
637.73	1061.41
638.08	1055.48
638.42	1049.49
638.77	1043.14
639.11	1036.61
639.45	1030.22
639.80	1023.56
640.14	1017.22
640.49	1010.77
640.83	1004.55
641.17	998.48
641.52	992.19
641.86	985.78
642.20	979.98
642.55	973.64
642.89	967.14
643.23	960.56
643.58	954.78
643.92	948.68
644.26	942.63
644.61	936.51
644.95	930.55
645.29	924.04
645.64	917.38
645.98	911.09
646.32	905.15
646.66	899.24
647.01	893.48
647.35	887.74
647.69	881.88
648.04	876.34
648.38	870.49
648.72	864.54
649.06	858.54
649.41	852.55
649.75	846.64
650.09	840.77
650.43	835.06
650.78	828.94
651.12	823.03
651.46	817.34
651.80	811.75
652.14	806.35
652.49	800.96
652.83	795.74
653.17	790.10
653.51	784.50
653.85	778.99
654.20	773.40
654.54	767.40
654.88	761.68
655.22	755.76
655.56	750.15
655.90	744.77
656.25	739.49
656.59	734.17
656.93	729.02
657.27	723.89
657.61	718.40
657.95	713.29
658.29	708.19
658.64	702.93
658.98	697.60
659.32	692.16
659.66	687.01
660.00	681.75
660.34	676.76
660.68	671.82
661.02	666.85
661.36	662.19
661.70	657.72
662.05	653.31
662.39	649.03
662.73	644.52
663.07	640.09
663.41	635.65
663.75	631.21
664.09	626.70
664.43	622.25
664.77	618.16
665.11	613.94
665.45	609.74
665.79	605.61
666.13	601.47
666.47	597.31
666.81	593.09
667.15	589.00
667.49	585.07
667.83	581.22
668.17	577.30
668.51	573.23
668.85	569.20
669.19	565.34
669.53	561.50
669.87	557.63
670.21	553.95
670.55	550.30
670.89	546.83
671.23	543.40
671.57	539.89
671.91	536.42
672.25	532.93
672.58	529.46
672.92	526.09
673.26	522.92
673.60	519.79
673.94	516.70
674.28	513.82
674.62	510.91
674.96	507.82
675.30	504.89
675.64	501.95
675.97	499.11
676.31	496.25
676.65	493.29
676.99	490.59
677.33	487.72
677.67	484.91
678.01	481.90
678.34	478.97
678.68	476.07
679.02	473.24
679.36	470.45
679.70	467.74
680.04	465.00
680.37	462.15
680.71	459.36
681.05	456.75
681.39	453.97
681.73	451.30
682.06	448.78
682.40	446.24
682.74	443.66
683.08	441.11
683.42	438.50
683.75	436.02
684.09	433.44
684.43	430.99
684.77	428.54
685.10	426.11
685.44	423.73
685.78	421.47
686.12	419.23
686.45	416.92
686.79	414.59
687.13	412.40
687.46	410.23
687.80	408.07
688.14	405.83
688.48	403.79
688.81	401.61
689.15	399.47
689.49	397.33
689.82	395.29
690.16	393.22
690.50	391.28
690.83	389.33
691.17	387.32
691.51	385.40
691.84	383.59
692.18	381.73
692.52	379.81
692.85	377.89
693.19	376.00
693.52	374.18
693.86	372.34
694.20	370.49
694.53	368.71
694.87	366.87
695.21	365.07
695.54	363.24
695.88	361.47
696.21	359.71
696.55	358.02
696.88	356.30
697.22	354.67
697.56	353.03
697.89	351.43
698.23	349.86
698.56	348.22
698.90	346.64
699.23	344.98
699.57	343.44
699.90	341.86
700.24	340.33
700.58	338.79
700.91	337.34
701.25	335.94
701.58	334.56
701.92	333.20
702.25	331.84
702.59	330.44
702.92	329.11
703.26	327.82
703.59	326.55
703.93	325.34
704.26	324.07
704.60	322.76
704.93	321.43
705.26	320.17
705.60	319.01
705.93	317.79
706.27	316.77
706.60	315.69
706.94	314.65
707.27	313.52
707.61	312.48
707.94	311.43
708.27	310.34
708.61	309.26
708.94	308.24
709.28	307.27
709.61	306.36
709.94	305.44
710.28	304.40
710.61	303.39
710.95	302.34
711.28	301.44
711.61	300.52
711.95	299.63
712.28	298.67
712.61	297.71
712.95	296.76
713.28	295.86
713.61	294.97
713.95	294.06
714.28	293.21
714.61	292.30
714.95	291.45
715.28	290.59
715.61	289.72
715.95	288.88
716.28	287.99
716.61	287.11
716.95	286.24
717.28	285.49
717.61	284.72
717.94	283.98
718.28	283.12
718.61	282.40
718.94	281.69
719.27	281.05
719.61	280.39
719.94	279.76
720.27	279.01
720.60	278.35
720.94	277.71
721.27	277.10
721.60	276.57
721.93	275.98
722.27	275.40
722.60	274.83
722.93	274.26
723.26	273.74
723.59	273.18
723.93	272.65
724.26	272.11
724.59	271.55
724.92	271.01
725.25	270.56
725.59	270.03
725.92	269.50
726.25	268.99
726.58	268.49
726.91	267.98
727.24	267.53
727.57	267.04
727.91	266.55
728.24	266.07
728.57	265.57
728.90	265.11
729.23	264.62
729.56	264.21
729.89	263.75
730.22	263.24
730.55	262.77
730.89	262.32
731.22	261.85
731.55	261.45
731.88	260.98
732.21	260.55
732.54	260.09
732.87	259.65
733.20	259.21
733.53	258.80
733.86	258.42
734.19	258.04
734.52	257.66
734.85	257.33
735.18	256.89
735.51	256.52
735.84	256.16
736.17	255.82
736.50	255.42
736.83	255.19
737.16	254.90
737.49	254.59
737.82	254.24
738.15	253.92
738.48	253.59
738.81	253.28
739.14	252.94
739.47	252.65
739.80	252.37
740.13	252.12
740.46	251.80
740.79	251.47
741.12	251.15
741.45	250.82
741.78	250.50
742.11	250.27
742.44	249.94
742.77	249.66
743.10	249.37
743.43	249.04
743.75	248.62
744.08	248.45
744.41	248.17
744.74	247.91
745.07	247.66
745.40	247.42
745.73	247.17
746.06	246.92
746.39	246.65
746.71	246.38
747.04	246.09
747.37	245.83
747.70	245.60
748.03	245.36
748.36	245.15
748.68	244.89
749.01	244.63
749.34	244.41
749.67	244.19
750.00	243.95
750.33	243.80
750.65	243.62
750.98	243.24
751.31	243.05
751.64	242.83
751.97	242.64
752.29	242.41
752.62	242.17
752.95	241.97
753.28	241.78
753.60	241.55
753.93	241.35
754.26	241.17
754.59	240.95
754.91	240.74
755.24	240.54
755.57	240.34
755.90	240.12
756.22	239.92
756.55	239.75
756.88	239.59
757.20	239.34
757.53	239.13
757.86	238.96
758.19	238.79
758.51	238.65
758.84	238.49
759.17	238.31
759.49	238.16
759.82	238.02
760.15	237.86
760.47	237.71
760.80	237.55
761.13	237.44
761.45	237.26
761.78	237.10
762.11	236.94
762.43	236.80
762.76	236.67
763.08	236.53
763.41	236.37
763.74	236.21
764.06	236.08
764.39	235.95
764.71	235.82
765.04	235.68
765.37	235.52
765.69	235.33
766.02	235.22
766.34	235.10
766.67	234.93
767.00	234.83
767.32	234.79
767.65	234.73
767.97	234.57
768.30	234.47
768.62	234.36
768.95	234.26
769.27	234.13
769.60	234.02
769.92	233.88
770.25	233.76
770.57	233.66
770.90	233.57
771.22	233.50
771.55	233.41
771.87	233.34
772.20	233.25
772.52	233.25
772.85	233.27
773.17	233.17
773.50	233.11
773.82	232.99
774.15	232.82
774.47	232.67
774.80	232.59
775.12	232.49
775.45	232.43
775.77	232.36
776.09	232.30
776.42	232.23
776.74	232.19
777.07	232.13
777.39	232.06
777.72	231.97
778.04	231.86
778.36	231.79
778.69	231.70
779.01	231.61
779.33	231.48
779.66	231.30
779.98	231.23
780.31	231.17
780.63	231.11
780.95	231.05
781.28	230.97
781.60	230.90
781.92	230.84
782.25	230.76
782.57	230.69
782.89	230.59
783.22	230.51
783.54	230.43
783.86	230.37
784.19	230.32
784.51	230.28
784.83	230.22
785.16	230.18
785.48	230.11
785.80	230.04
786.12	229.98
786.45	229.90
786.77	229.86
787.09	229.80
