SpectraSuite Data File
++++++++++++++++++++++++++++++++++++
Date: Fri Feb 01 15:32:07 EST 2013
User: group
Dark Spectrum Present: No
Reference Spectrum Present: No
Number of Sampled Component Spectra: 1
Spectrometers: USB2E7196
Integration Time (usec): 35000 (USB2E7196)
Spectra Averaged: 100 (USB2E7196)
Boxcar Smoothing: 10 (USB2E7196)
Correct for Electrical Dark: No (USB2E7196)
Strobe/Lamp Enabled: No (USB2E7196)
Correct for Detector Non-linearity: No (USB2E7196)
Correct for Stray Light: No (USB2E7196)
Number of Pixels in Processed Spectrum: 2048
>>>>>Begin Processed Spectral Data<<<<<
339.09	0.00
339.48	214.97
339.86	216.60
340.24	217.46
340.63	219.48
341.01	222.08
341.39	221.85
341.78	223.77
342.16	224.23
342.54	224.77
342.93	213.41
343.31	224.18
343.69	224.74
344.07	225.19
344.46	225.61
344.84	225.99
345.22	226.20
345.60	226.44
345.99	226.59
346.37	226.72
346.75	226.83
347.13	226.89
347.52	226.91
347.90	226.98
348.28	227.01
348.66	227.06
349.05	227.06
349.43	227.10
349.81	227.16
350.19	227.19
350.57	227.24
350.96	227.32
351.34	227.39
351.72	227.47
352.10	227.58
352.48	227.69
352.87	227.72
353.25	227.81
353.63	227.89
354.01	227.97
354.39	228.08
354.77	228.17
355.15	228.27
355.54	228.36
355.92	228.39
356.30	228.45
356.68	228.54
357.06	228.59
357.44	228.63
357.82	228.68
358.20	228.75
358.58	228.79
358.97	228.86
359.35	228.95
359.73	228.99
360.11	229.05
360.49	229.08
360.87	229.15
361.25	229.21
361.63	229.25
362.01	229.30
362.39	229.27
362.77	229.27
363.15	229.31
363.53	229.33
363.91	229.35
364.29	229.37
364.67	229.30
365.05	229.32
365.43	229.36
365.81	229.41
366.19	229.44
366.57	229.47
366.95	229.43
367.33	229.36
367.71	229.33
368.09	229.32
368.47	229.28
368.85	229.23
369.23	229.20
369.61	229.15
369.99	229.13
370.37	229.13
370.75	229.15
371.13	229.06
371.51	228.99
371.89	228.97
372.27	228.96
372.65	228.94
373.03	228.86
373.41	228.75
373.78	228.64
374.16	228.50
374.54	228.43
374.92	228.35
375.30	228.33
375.68	228.27
376.06	228.19
376.44	228.14
376.82	228.09
377.19	228.03
377.57	227.95
377.95	227.84
378.33	227.76
378.71	227.64
379.09	227.59
379.47	227.56
379.84	227.45
380.22	227.37
380.60	227.28
380.98	227.25
381.36	227.23
381.73	227.18
382.11	227.15
382.49	227.06
382.87	227.01
383.25	226.93
383.62	226.99
384.00	226.89
384.38	226.85
384.76	226.79
385.13	226.77
385.51	226.75
385.89	226.68
386.27	226.61
386.64	226.56
387.02	226.51
387.40	226.44
387.78	226.41
388.15	226.36
388.53	226.32
388.91	226.28
389.29	226.22
389.66	226.20
390.04	226.17
390.42	226.18
390.79	226.15
391.17	226.16
391.55	226.01
391.92	226.03
392.30	226.04
392.68	226.06
393.05	226.07
393.43	226.09
393.81	226.12
394.18	226.15
394.56	226.16
394.94	226.19
395.31	226.24
395.69	226.31
396.06	226.32
396.44	226.38
396.82	226.38
397.19	226.47
397.57	226.51
397.95	226.54
398.32	226.55
398.70	226.61
399.07	226.70
399.45	226.75
399.82	226.84
400.20	226.92
400.58	226.99
400.95	226.99
401.33	227.06
401.70	227.23
402.08	227.35
402.45	227.48
402.83	227.61
403.20	227.70
403.58	227.81
403.95	227.96
404.33	228.09
404.71	228.26
405.08	228.45
405.46	228.58
405.83	228.77
406.21	228.92
406.58	229.11
406.96	229.24
407.33	229.45
407.70	229.64
408.08	229.91
408.45	230.12
408.83	230.37
409.20	230.58
409.58	230.75
409.95	230.99
410.33	231.25
410.70	231.48
411.08	231.77
411.45	232.07
411.82	232.36
412.20	232.70
412.57	233.11
412.95	233.40
413.32	233.85
413.69	234.25
414.07	234.73
414.44	235.20
414.82	235.68
415.19	236.24
415.56	236.76
415.94	237.28
416.31	237.92
416.68	238.54
417.06	239.26
417.43	239.94
417.81	240.71
418.18	241.49
418.55	242.34
418.93	243.21
419.30	244.14
419.67	245.03
420.04	246.01
420.42	246.98
420.79	248.19
421.16	249.33
421.54	250.52
421.91	251.72
422.28	253.00
422.66	254.34
423.03	255.64
423.40	257.02
423.77	258.42
424.15	259.86
424.52	261.35
424.89	263.00
425.26	264.58
425.64	266.02
426.01	267.62
426.38	269.28
426.75	270.98
427.13	272.66
427.50	274.52
427.87	276.39
428.24	278.26
428.61	279.99
428.99	281.93
429.36	284.05
429.73	286.14
430.10	288.14
430.47	290.23
430.85	292.35
431.22	294.59
431.59	296.98
431.96	299.23
432.33	301.73
432.70	304.08
433.08	306.90
433.45	309.52
433.82	312.15
434.19	315.05
434.56	317.84
434.93	320.51
435.30	323.19
435.68	326.09
436.05	329.00
436.42	331.79
436.79	334.34
437.16	337.00
437.53	339.82
437.90	342.64
438.27	345.37
438.64	348.22
439.01	350.79
439.38	353.05
439.75	355.22
440.13	357.73
440.50	360.08
440.87	361.94
441.24	363.97
441.61	366.16
441.98	367.65
442.35	369.46
442.72	371.33
443.09	373.09
443.46	374.10
443.83	374.63
444.20	375.14
444.57	375.97
444.94	376.29
445.31	376.68
445.68	377.02
446.05	377.12
446.42	376.68
446.79	376.29
447.16	375.87
447.53	375.54
447.90	374.41
448.27	373.27
448.64	371.69
449.01	370.49
449.37	368.52
449.74	366.59
450.11	364.37
450.48	361.91
450.85	359.38
451.22	357.21
451.59	355.21
451.96	353.28
452.33	350.65
452.70	348.30
453.07	345.45
453.43	342.56
453.80	339.76
454.17	337.10
454.54	334.53
454.91	331.79
455.28	329.05
455.65	326.51
456.02	324.04
456.38	321.85
456.75	319.17
457.12	316.87
457.49	314.70
457.86	312.51
458.23	310.65
458.59	308.58
458.96	306.51
459.33	304.63
459.70	302.73
460.07	301.26
460.43	299.53
460.80	297.84
461.17	296.42
461.54	294.92
461.91	293.52
462.27	292.08
462.64	290.83
463.01	289.54
463.38	288.26
463.74	286.86
464.11	285.70
464.48	284.68
464.85	283.55
465.21	282.64
465.58	281.68
465.95	280.59
466.32	279.70
466.68	278.80
467.05	277.90
467.42	277.04
467.78	276.06
468.15	275.17
468.52	274.53
468.88	273.64
469.25	272.88
469.62	272.25
469.98	271.55
470.35	270.90
470.72	270.25
471.08	269.58
471.45	269.07
471.82	268.53
472.18	267.96
472.55	267.54
472.92	267.00
473.28	266.54
473.65	266.05
474.02	265.59
474.38	265.20
474.75	264.86
475.11	264.50
475.48	264.24
475.85	264.01
476.21	263.76
476.58	263.58
476.94	263.41
477.31	263.26
477.67	263.12
478.04	262.98
478.41	262.94
478.77	262.98
479.14	262.87
479.50	262.82
479.87	262.86
480.23	262.93
480.60	263.01
480.96	263.12
481.33	263.30
481.69	263.51
482.06	263.71
482.42	263.94
482.79	264.17
483.15	264.50
483.52	264.88
483.88	265.21
484.25	265.61
484.61	266.01
484.98	266.44
485.34	266.98
485.71	267.58
486.07	268.14
486.44	268.70
486.80	269.46
487.17	270.22
487.53	271.04
487.90	271.89
488.26	272.83
488.62	273.81
488.99	274.82
489.35	275.85
489.72	276.97
490.08	278.16
490.44	279.40
490.81	280.76
491.17	282.16
491.54	283.66
491.90	285.22
492.26	286.86
492.63	288.60
492.99	290.40
493.36	292.31
493.72	294.39
494.08	296.48
494.45	298.69
494.81	301.09
495.17	303.53
495.54	306.15
495.90	308.89
496.26	311.70
496.63	314.67
496.99	317.83
497.35	321.11
497.72	324.51
498.08	328.06
498.44	331.65
498.80	335.54
499.17	339.58
499.53	343.71
499.89	348.08
500.26	352.54
500.62	357.22
500.98	362.16
501.34	367.20
501.71	372.62
502.07	378.08
502.43	383.65
502.79	389.47
503.16	395.49
503.52	401.74
503.88	408.14
504.24	414.76
504.60	421.62
504.97	428.72
505.33	436.03
505.69	443.69
506.05	451.47
506.41	459.37
506.78	467.55
507.14	476.06
507.50	484.78
507.86	493.84
508.22	503.00
508.59	512.24
508.95	521.91
509.31	531.62
509.67	541.68
510.03	552.00
510.39	562.53
510.75	573.35
511.12	584.26
511.48	595.51
511.84	606.95
512.20	618.52
512.56	630.41
512.92	642.68
513.28	655.00
513.64	667.54
514.00	680.23
514.37	693.12
514.73	706.16
515.09	719.24
515.45	732.55
515.81	746.19
516.17	760.18
516.53	774.23
516.89	788.38
517.25	802.63
517.61	817.14
517.97	831.60
518.33	846.02
518.69	860.86
519.05	875.95
519.41	891.19
519.77	906.85
520.13	922.42
520.49	937.82
520.85	953.32
521.21	969.02
521.57	985.27
521.93	1001.10
522.29	1017.55
522.65	1033.83
523.01	1049.98
523.37	1066.05
523.73	1082.25
524.09	1098.42
524.45	1114.82
524.81	1131.59
525.17	1148.37
525.53	1165.35
525.89	1182.31
526.25	1199.17
526.61	1215.56
526.97	1232.43
527.33	1248.80
527.68	1265.44
528.04	1281.97
528.40	1298.65
528.76	1315.86
529.12	1332.56
529.48	1349.52
529.84	1365.62
530.20	1382.38
530.56	1399.51
530.91	1416.94
531.27	1433.74
531.63	1450.22
531.99	1466.90
532.35	1482.82
532.71	1498.79
533.07	1515.09
533.42	1530.92
533.78	1546.90
534.14	1563.25
534.50	1578.49
534.86	1594.36
535.21	1609.51
535.57	1625.40
535.93	1640.93
536.29	1655.59
536.65	1670.70
537.00	1685.56
537.36	1700.85
537.72	1715.31
538.08	1729.77
538.44	1743.64
538.79	1757.58
539.15	1771.36
539.51	1785.12
539.87	1799.49
540.22	1813.22
540.58	1827.14
540.94	1840.69
541.29	1853.73
541.65	1866.50
542.01	1879.82
542.37	1892.28
542.72	1904.89
543.08	1916.68
543.44	1929.20
543.79	1940.64
544.15	1951.65
544.51	1963.23
544.87	1974.29
545.22	1985.11
545.58	1995.46
545.94	2005.28
546.29	2015.26
546.65	2025.15
547.01	2034.44
547.36	2043.27
547.72	2051.92
548.07	2059.69
548.43	2067.84
548.79	2075.99
549.14	2083.59
549.50	2090.90
549.86	2098.63
550.21	2105.97
550.57	2113.17
550.92	2119.71
551.28	2126.71
551.64	2133.86
551.99	2140.42
552.35	2146.62
552.70	2152.72
553.06	2158.71
553.41	2165.07
553.77	2171.04
554.13	2177.09
554.48	2183.32
554.84	2188.69
555.19	2193.88
555.55	2199.05
555.90	2203.47
556.26	2208.32
556.61	2213.01
556.97	2217.29
557.32	2221.53
557.68	2225.54
558.03	2229.81
558.39	2233.57
558.74	2238.24
559.10	2242.01
559.45	2245.65
559.81	2249.98
560.16	2253.96
560.52	2257.06
560.87	2260.47
561.23	2263.12
561.58	2266.06
561.94	2268.62
562.29	2271.09
562.64	2273.73
563.00	2276.29
563.35	2279.88
563.71	2282.99
564.06	2286.14
564.42	2289.03
564.77	2291.38
565.12	2293.74
565.48	2295.70
565.83	2297.38
566.19	2298.60
566.54	2299.67
566.89	2300.71
567.25	2300.98
567.60	2302.25
567.96	2303.90
568.31	2304.71
568.66	2305.90
569.02	2306.48
569.37	2306.63
569.72	2307.43
570.08	2307.64
570.43	2307.68
570.78	2306.79
571.14	2304.97
571.49	2303.57
571.84	2303.22
572.20	2301.91
572.55	2300.75
572.90	2299.14
573.26	2297.72
573.61	2296.01
573.96	2294.03
574.31	2290.93
574.67	2288.05
575.02	2284.32
575.37	2280.93
575.72	2276.98
576.08	2273.52
576.43	2270.13
576.78	2266.33
577.13	2263.11
577.49	2259.81
577.84	2256.25
578.19	2252.69
578.54	2249.07
578.90	2244.79
579.25	2239.13
579.60	2234.07
579.95	2229.06
580.30	2223.93
580.66	2218.78
581.01	2213.92
581.36	2208.91
581.71	2204.83
582.06	2200.30
582.42	2195.70
582.77	2190.46
583.12	2185.89
583.47	2180.98
583.82	2175.79
584.17	2170.60
584.53	2164.98
584.88	2159.35
585.23	2153.36
585.58	2147.75
585.93	2142.44
586.28	2137.61
586.63	2132.39
586.98	2127.33
587.34	2122.56
587.69	2117.72
588.04	2112.48
588.39	2106.62
588.74	2100.08
589.09	2093.86
589.44	2086.97
589.79	2081.15
590.14	2075.47
590.49	2068.83
590.84	2062.43
591.19	2056.33
591.54	2049.91
591.89	2042.43
592.25	2035.57
592.60	2028.33
592.95	2020.62
593.30	2013.10
593.65	2005.36
594.00	1998.47
594.35	1991.29
594.70	1983.15
595.05	1975.86
595.40	1968.49
595.75	1960.95
596.10	1954.64
596.45	1947.84
596.80	1941.68
597.15	1934.91
597.50	1927.77
597.85	1921.39
598.19	1914.74
598.54	1907.92
598.89	1901.22
599.24	1895.41
599.59	1888.54
599.94	1882.48
600.29	1876.17
600.64	1869.50
600.99	1862.04
601.34	1855.08
601.69	1848.09
602.04	1841.16
602.39	1833.72
602.74	1826.84
603.08	1820.00
603.43	1813.22
603.78	1805.87
604.13	1798.64
604.48	1791.21
604.83	1784.29
605.18	1777.13
605.53	1769.08
605.87	1760.80
606.22	1753.48
606.57	1745.39
606.92	1738.22
607.27	1730.94
607.62	1724.14
607.96	1716.83
608.31	1710.23
608.66	1702.52
609.01	1694.94
609.36	1687.33
609.70	1679.31
610.05	1671.28
610.40	1663.56
610.75	1655.32
611.10	1647.63
611.44	1639.16
611.79	1631.26
612.14	1622.52
612.49	1613.34
612.83	1604.86
613.18	1596.76
613.53	1588.68
613.88	1580.19
614.22	1571.87
614.57	1563.25
614.92	1555.04
615.27	1547.54
615.61	1539.25
615.96	1531.36
616.31	1523.71
616.65	1516.37
617.00	1508.82
617.35	1501.10
617.70	1492.73
618.04	1484.25
618.39	1475.97
618.74	1468.39
619.08	1460.09
619.43	1452.53
619.78	1445.61
620.12	1438.43
620.47	1430.87
620.82	1422.58
621.16	1415.09
621.51	1407.55
621.85	1399.99
622.20	1391.53
622.55	1383.14
622.89	1375.20
623.24	1367.53
623.59	1360.14
623.93	1352.59
624.28	1345.38
624.62	1337.81
624.97	1330.72
625.32	1323.83
625.66	1316.83
626.01	1309.65
626.35	1302.12
626.70	1294.41
627.04	1286.73
627.39	1279.09
627.73	1271.69
628.08	1264.83
628.43	1257.60
628.77	1250.17
629.12	1242.55
629.46	1235.38
629.81	1227.99
630.15	1220.80
630.50	1213.44
630.84	1205.28
631.19	1197.38
631.53	1189.80
631.88	1182.17
632.22	1174.56
632.57	1167.35
632.91	1159.80
633.26	1152.29
633.60	1144.97
633.95	1137.81
634.29	1130.84
634.64	1124.10
634.98	1116.77
635.32	1109.57
635.67	1102.99
636.01	1096.29
636.36	1089.55
636.70	1083.08
637.05	1076.48
637.39	1070.12
637.73	1063.56
638.08	1057.65
638.42	1051.66
638.77	1045.29
639.11	1038.72
639.45	1032.30
639.80	1025.59
640.14	1019.11
640.49	1012.55
640.83	1006.27
641.17	1000.04
641.52	993.67
641.86	987.29
642.20	981.44
642.55	975.21
642.89	968.62
643.23	962.03
643.58	956.15
643.92	949.92
644.26	943.87
644.61	937.87
644.95	931.84
645.29	925.21
645.64	918.42
645.98	912.09
646.32	906.29
646.66	900.31
647.01	894.55
647.35	888.87
647.69	883.20
648.04	877.65
648.38	871.86
648.72	865.81
649.06	859.76
649.41	853.91
649.75	847.94
650.09	842.10
650.43	836.43
650.78	830.30
651.12	824.38
651.46	818.62
651.80	812.73
652.14	807.33
652.49	801.97
652.83	796.85
653.17	791.06
653.51	785.36
653.85	779.93
654.20	774.16
654.54	768.22
654.88	762.46
655.22	756.61
655.56	750.92
655.90	745.48
656.25	740.18
656.59	734.80
656.93	729.76
657.27	724.52
657.61	719.05
657.95	713.94
658.29	708.77
658.64	703.55
658.98	698.29
659.32	692.81
659.66	687.61
660.00	682.28
660.34	677.41
660.68	672.47
661.02	667.43
661.36	662.77
661.70	658.27
662.05	653.87
662.39	649.45
662.73	645.01
663.07	640.66
663.41	636.20
663.75	631.66
664.09	627.02
664.43	622.68
664.77	618.51
665.11	614.25
665.45	610.25
665.79	606.19
666.13	602.11
666.47	598.04
666.81	593.86
667.15	589.72
667.49	585.86
667.83	582.08
668.17	578.18
668.51	574.11
668.85	570.11
669.19	566.32
669.53	562.51
669.87	558.54
670.21	554.79
670.55	551.16
670.89	547.72
671.23	544.31
671.57	540.77
671.91	537.25
672.25	533.83
672.58	530.23
672.92	526.81
673.26	523.66
673.60	520.51
673.94	517.36
674.28	514.49
674.62	511.48
674.96	508.31
675.30	505.35
675.64	502.45
675.97	499.73
676.31	496.84
676.65	493.92
676.99	491.26
677.33	488.40
677.67	485.57
678.01	482.56
678.34	479.59
678.68	476.73
679.02	473.88
679.36	471.09
679.70	468.41
680.04	465.61
680.37	462.68
680.71	459.92
681.05	457.35
681.39	454.67
681.73	452.04
682.06	449.56
682.40	447.02
682.74	444.52
683.08	441.91
683.42	439.27
683.75	436.78
684.09	434.23
684.43	431.83
684.77	429.40
685.10	427.04
685.44	424.76
685.78	422.47
686.12	420.24
686.45	417.98
686.79	415.63
687.13	413.46
687.46	411.33
687.80	409.20
688.14	407.00
688.48	404.91
688.81	402.64
689.15	400.49
689.49	398.37
689.82	396.29
690.16	394.21
690.50	392.32
690.83	390.38
691.17	388.40
691.51	386.46
691.84	384.63
692.18	382.74
692.52	380.75
692.85	378.84
693.19	376.94
693.52	375.13
693.86	373.36
694.20	371.58
694.53	369.81
694.87	367.93
695.21	366.12
695.54	364.31
695.88	362.61
696.21	360.92
696.55	359.23
696.88	357.53
697.22	355.86
697.56	354.23
697.89	352.55
698.23	350.96
698.56	349.35
698.90	347.67
699.23	345.98
699.57	344.44
699.90	342.88
700.24	341.37
700.58	339.83
700.91	338.34
701.25	336.88
701.58	335.47
701.92	334.11
702.25	332.77
702.59	331.44
702.92	330.15
703.26	328.83
703.59	327.54
703.93	326.39
704.26	325.21
704.60	323.91
704.93	322.69
705.26	321.45
705.60	320.32
705.93	319.25
706.27	318.23
706.60	317.23
706.94	316.15
707.27	315.00
707.61	313.93
707.94	312.91
708.27	311.83
708.61	310.79
708.94	309.76
709.28	308.74
709.61	307.75
709.94	306.80
710.28	305.78
710.61	304.84
710.95	303.73
711.28	302.81
711.61	301.87
711.95	300.92
712.28	299.99
712.61	299.02
712.95	298.03
713.28	297.12
713.61	296.17
713.95	295.30
714.28	294.54
714.61	293.70
714.95	292.85
715.28	292.00
715.61	291.15
715.95	290.36
716.28	289.52
716.61	288.66
716.95	287.84
717.28	287.11
717.61	286.31
717.94	285.57
718.28	284.75
718.61	284.02
718.94	283.34
719.27	282.68
719.61	282.05
719.94	281.45
720.27	280.77
720.60	280.11
720.94	279.48
721.27	278.87
721.60	278.30
721.93	277.72
722.27	277.20
722.60	276.64
722.93	276.03
723.26	275.51
723.59	274.96
723.93	274.42
724.26	273.84
724.59	273.29
724.92	272.77
725.25	272.31
725.59	271.79
725.92	271.26
726.25	270.75
726.58	270.20
726.91	269.70
727.24	269.21
727.57	268.74
727.91	268.21
728.24	267.71
728.57	267.22
728.90	266.75
729.23	266.26
729.56	265.81
729.89	265.35
730.22	264.82
730.55	264.34
730.89	263.89
731.22	263.45
731.55	263.05
731.88	262.61
732.21	262.15
732.54	261.72
732.87	261.29
733.20	260.90
733.53	260.54
733.86	260.18
734.19	259.81
734.52	259.45
734.85	259.17
735.18	258.76
735.51	258.40
735.84	258.03
736.17	257.69
736.50	257.27
736.83	257.04
737.16	256.75
737.49	256.46
737.82	256.11
738.15	255.81
738.48	255.47
738.81	255.15
739.14	254.82
739.47	254.48
739.80	254.15
740.13	253.83
740.46	253.49
740.79	253.12
741.12	252.77
741.45	252.46
741.78	252.09
742.11	251.81
742.44	251.46
742.77	251.16
743.10	250.83
743.43	250.53
743.75	250.14
744.08	250.00
744.41	249.70
744.74	249.42
745.07	249.12
745.40	248.88
745.73	248.66
746.06	248.39
746.39	248.15
746.71	247.91
747.04	247.61
747.37	247.34
747.70	247.11
748.03	246.88
748.36	246.65
748.68	246.45
749.01	246.21
749.34	245.97
749.67	245.79
750.00	245.57
750.33	245.43
750.65	245.21
750.98	244.85
751.31	244.61
751.64	244.43
751.97	244.27
752.29	244.03
752.62	243.76
752.95	243.57
753.28	243.41
753.60	243.20
753.93	243.07
754.26	242.89
754.59	242.71
754.91	242.51
755.24	242.32
755.57	242.11
755.90	241.89
756.22	241.71
756.55	241.46
756.88	241.26
757.20	240.98
757.53	240.78
757.86	240.65
758.19	240.51
758.51	240.31
758.84	240.12
759.17	239.97
759.49	239.87
759.82	239.74
760.15	239.56
760.47	239.43
760.80	239.24
761.13	239.10
761.45	238.94
761.78	238.83
762.11	238.70
762.43	238.55
762.76	238.41
763.08	238.29
763.41	238.17
763.74	238.06
764.06	237.98
764.39	237.87
764.71	237.70
765.04	237.52
765.37	237.41
765.69	237.27
766.02	237.13
766.34	236.96
766.67	236.79
767.00	236.67
767.32	236.60
767.65	236.53
767.97	236.41
768.30	236.25
768.62	236.10
768.95	235.97
769.27	235.85
769.60	235.77
769.92	235.67
770.25	235.57
770.57	235.42
770.90	235.27
771.22	235.15
771.55	235.05
771.87	234.99
772.20	234.88
772.52	234.86
772.85	234.85
773.17	234.78
773.50	234.68
773.82	234.56
774.15	234.40
774.47	234.26
774.80	234.19
775.12	234.12
775.45	234.03
775.77	233.97
776.09	233.90
776.42	233.80
776.74	233.72
777.07	233.65
777.39	233.60
777.72	233.50
778.04	233.45
778.36	233.40
778.69	233.33
779.01	233.24
779.33	233.10
779.66	232.93
779.98	232.85
780.31	232.79
780.63	232.76
780.95	232.72
781.28	232.64
781.60	232.54
781.92	232.49
782.25	232.44
782.57	232.38
782.89	232.32
783.22	232.27
783.54	232.18
783.86	232.13
784.19	232.08
784.51	232.07
784.83	232.00
785.16	231.90
785.48	231.87
785.80	231.83
786.12	231.80
786.45	231.75
786.77	231.71
787.09	231.67
