SpectraSuite Data File
++++++++++++++++++++++++++++++++++++
Date: Fri Feb 01 17:06:16 EST 2013
User: group
Dark Spectrum Present: No
Reference Spectrum Present: No
Number of Sampled Component Spectra: 1
Spectrometers: USB2E7196
Integration Time (usec): 35000 (USB2E7196)
Spectra Averaged: 100 (USB2E7196)
Boxcar Smoothing: 10 (USB2E7196)
Correct for Electrical Dark: No (USB2E7196)
Strobe/Lamp Enabled: No (USB2E7196)
Correct for Detector Non-linearity: No (USB2E7196)
Correct for Stray Light: No (USB2E7196)
Number of Pixels in Processed Spectrum: 2048
>>>>>Begin Processed Spectral Data<<<<<
339.09	0.00
339.48	213.21
339.86	215.27
340.24	216.16
340.63	218.09
341.01	220.39
341.39	220.56
341.78	222.03
342.16	222.79
342.54	224.00
342.93	211.95
343.31	222.63
343.69	223.17
344.07	223.61
344.46	224.04
344.84	224.38
345.22	224.64
345.60	224.91
345.99	225.09
346.37	225.24
346.75	225.31
347.13	225.36
347.52	225.39
347.90	225.43
348.28	225.46
348.66	225.47
349.05	225.47
349.43	225.50
349.81	225.56
350.19	225.61
350.57	225.67
350.96	225.73
351.34	225.80
351.72	225.88
352.10	225.99
352.48	226.03
352.87	226.06
353.25	226.10
353.63	226.11
354.01	226.13
354.39	226.18
354.77	226.27
355.15	226.36
355.54	226.43
355.92	226.47
356.30	226.54
356.68	226.69
357.06	226.75
357.44	226.80
357.82	226.85
358.20	226.91
358.58	226.95
358.97	227.02
359.35	227.10
359.73	227.16
360.11	227.22
360.49	227.30
360.87	227.36
361.25	227.41
361.63	227.48
362.01	227.56
362.39	227.55
362.77	227.56
363.15	227.60
363.53	227.62
363.91	227.63
364.29	227.63
364.67	227.57
365.05	227.59
365.43	227.64
365.81	227.68
366.19	227.71
366.57	227.75
366.95	227.77
367.33	227.75
367.71	227.76
368.09	227.76
368.47	227.76
368.85	227.78
369.23	227.80
369.61	227.75
369.99	227.71
370.37	227.74
370.75	227.79
371.13	227.75
371.51	227.72
371.89	227.71
372.27	227.68
372.65	227.64
373.03	227.58
373.41	227.51
373.78	227.49
374.16	227.43
374.54	227.35
374.92	227.27
375.30	227.23
375.68	227.16
376.06	227.09
376.44	227.02
376.82	226.93
377.19	226.87
377.57	226.81
377.95	226.75
378.33	226.64
378.71	226.49
379.09	226.43
379.47	226.32
379.84	226.24
380.22	226.17
380.60	226.09
380.98	226.02
381.36	225.97
381.73	225.83
382.11	225.77
382.49	225.73
382.87	225.67
383.25	225.61
383.62	225.65
384.00	225.58
384.38	225.54
384.76	225.52
385.13	225.46
385.51	225.42
385.89	225.37
386.27	225.35
386.64	225.32
387.02	225.25
387.40	225.23
387.78	225.19
388.15	225.19
388.53	225.13
388.91	225.08
389.29	225.04
389.66	225.05
390.04	225.00
390.42	225.00
390.79	224.97
391.17	224.95
391.55	224.86
391.92	224.84
392.30	224.83
392.68	224.79
393.05	224.79
393.43	224.79
393.81	224.80
394.18	224.81
394.56	224.79
394.94	224.86
395.31	224.88
395.69	224.90
396.06	224.95
396.44	224.98
396.82	225.01
397.19	225.09
397.57	225.11
397.95	225.16
398.32	225.14
398.70	225.20
399.07	225.29
399.45	225.30
399.82	225.37
400.20	225.40
400.58	225.46
400.95	225.48
401.33	225.60
401.70	225.70
402.08	225.78
402.45	225.88
402.83	225.99
403.20	226.10
403.58	226.21
403.95	226.31
404.33	226.44
404.71	226.56
405.08	226.73
405.46	226.88
405.83	227.00
406.21	227.17
406.58	227.33
406.96	227.44
407.33	227.64
407.70	227.83
408.08	228.09
408.45	228.30
408.83	228.53
409.20	228.72
409.58	228.94
409.95	229.17
410.33	229.49
410.70	229.71
411.08	229.98
411.45	230.30
411.82	230.58
412.20	230.92
412.57	231.35
412.95	231.68
413.32	232.08
413.69	232.52
414.07	232.95
414.44	233.37
414.82	233.85
415.19	234.40
415.56	234.95
415.94	235.51
416.31	236.16
416.68	236.78
417.06	237.48
417.43	238.19
417.81	238.98
418.18	239.72
418.55	240.58
418.93	241.46
419.30	242.37
419.67	243.34
420.04	244.31
420.42	245.30
420.79	246.44
421.16	247.58
421.54	248.76
421.91	249.97
422.28	251.22
422.66	252.55
423.03	253.83
423.40	255.13
423.77	256.52
424.15	257.92
424.52	259.43
424.89	261.06
425.26	262.56
425.64	264.00
426.01	265.60
426.38	267.22
426.75	268.87
427.13	270.53
427.50	272.30
427.87	274.18
428.24	276.02
428.61	277.77
428.99	279.68
429.36	281.79
429.73	283.85
430.10	285.89
430.47	287.96
430.85	290.04
431.22	292.26
431.59	294.66
431.96	296.92
432.33	299.35
432.70	301.68
433.08	304.45
433.45	307.06
433.82	309.61
434.19	312.48
434.56	315.28
434.93	317.91
435.30	320.54
435.68	323.37
436.05	326.18
436.42	328.94
436.79	331.43
437.16	334.07
437.53	336.82
437.90	339.61
438.27	342.31
438.64	345.14
439.01	347.73
439.38	349.91
439.75	352.05
440.13	354.51
440.50	356.82
440.87	358.68
441.24	360.62
441.61	362.79
441.98	364.26
442.35	366.05
442.72	367.89
443.09	369.68
443.46	370.64
443.83	371.19
444.20	371.72
444.57	372.57
444.94	372.84
445.31	373.21
445.68	373.56
446.05	373.66
446.42	373.28
446.79	372.93
447.16	372.51
447.53	372.19
447.90	371.05
448.27	369.94
448.64	368.37
449.01	367.21
449.37	365.24
449.74	363.43
450.11	361.24
450.48	358.84
450.85	356.35
451.22	354.26
451.59	352.29
451.96	350.37
452.33	347.78
452.70	345.47
453.07	342.71
453.43	339.85
453.80	337.07
454.17	334.44
454.54	331.85
454.91	329.15
455.28	326.51
455.65	324.04
456.02	321.58
456.38	319.48
456.75	316.88
457.12	314.69
457.49	312.41
457.86	310.24
458.23	308.40
458.59	306.37
458.96	304.29
459.33	302.47
459.70	300.60
460.07	299.13
460.43	297.40
460.80	295.78
461.17	294.39
461.54	292.92
461.91	291.48
462.27	290.06
462.64	288.85
463.01	287.50
463.38	286.21
463.74	284.87
464.11	283.70
464.48	282.69
464.85	281.54
465.21	280.74
465.58	279.84
465.95	278.71
466.32	277.80
466.68	276.93
467.05	276.00
467.42	275.10
467.78	274.16
468.15	273.36
468.52	272.68
468.88	271.80
469.25	271.06
469.62	270.46
469.98	269.81
470.35	269.18
470.72	268.61
471.08	268.02
471.45	267.52
471.82	266.97
472.18	266.40
472.55	265.97
472.92	265.44
473.28	264.99
473.65	264.60
474.02	264.16
474.38	263.82
474.75	263.56
475.11	263.26
475.48	263.05
475.85	262.82
476.21	262.63
476.58	262.47
476.94	262.32
477.31	262.19
477.67	262.04
478.04	261.92
478.41	261.87
478.77	261.89
479.14	261.80
479.50	261.86
479.87	261.92
480.23	262.04
480.60	262.10
480.96	262.17
481.33	262.33
481.69	262.55
482.06	262.75
482.42	262.89
482.79	263.16
483.15	263.46
483.52	263.83
483.88	264.21
484.25	264.60
484.61	265.03
484.98	265.48
485.34	266.05
485.71	266.63
486.07	267.23
486.44	267.81
486.80	268.54
487.17	269.22
487.53	270.00
487.90	270.88
488.26	271.86
488.62	272.86
488.99	273.84
489.35	274.88
489.72	276.02
490.08	277.26
490.44	278.48
490.81	279.79
491.17	281.13
491.54	282.60
491.90	284.11
492.26	285.76
492.63	287.48
492.99	289.26
493.36	291.15
493.72	293.20
494.08	295.30
494.45	297.52
494.81	299.87
495.17	302.34
495.54	304.86
495.90	307.52
496.26	310.27
496.63	313.23
496.99	316.31
497.35	319.55
497.72	322.91
498.08	326.44
498.44	330.07
498.80	333.97
499.17	337.97
499.53	342.13
499.89	346.43
500.26	350.84
500.62	355.44
500.98	360.37
501.34	365.43
501.71	370.68
502.07	376.11
502.43	381.66
502.79	387.43
503.16	393.41
503.52	399.61
503.88	406.01
504.24	412.60
504.60	419.39
504.97	426.52
505.33	433.79
505.69	441.35
506.05	449.11
506.41	456.95
506.78	465.02
507.14	473.38
507.50	482.01
507.86	490.98
508.22	500.08
508.59	509.22
508.95	518.59
509.31	528.33
509.67	538.28
510.03	548.48
510.39	558.86
510.75	569.50
511.12	580.25
511.48	591.35
511.84	602.64
512.20	613.99
512.56	625.62
512.92	637.61
513.28	649.82
513.64	662.06
514.00	674.52
514.37	687.26
514.73	700.09
515.09	712.90
515.45	725.94
515.81	739.35
516.17	753.14
516.53	767.05
516.89	780.98
517.25	794.86
517.61	809.01
517.97	823.22
518.33	837.42
518.69	851.94
519.05	866.53
519.41	881.42
519.77	896.71
520.13	911.91
520.49	927.02
520.85	942.03
521.21	957.43
521.57	973.31
521.93	988.71
522.29	1004.79
522.65	1020.79
523.01	1036.57
523.37	1052.25
523.73	1068.02
524.09	1083.85
524.45	1099.81
524.81	1116.07
525.17	1132.42
525.53	1148.86
525.89	1165.34
526.25	1181.82
526.61	1197.92
526.97	1214.27
527.33	1230.42
527.68	1246.53
528.04	1262.61
528.40	1278.85
528.76	1295.44
529.12	1311.61
529.48	1328.16
529.84	1343.76
530.20	1359.93
530.56	1376.52
530.91	1393.40
531.27	1409.78
531.63	1425.82
531.99	1441.96
532.35	1457.67
532.71	1473.23
533.07	1489.09
533.42	1504.64
533.78	1520.32
534.14	1536.21
534.50	1551.20
534.86	1566.67
535.21	1581.58
535.57	1597.19
535.93	1612.26
536.29	1626.80
536.65	1641.49
537.00	1655.88
537.36	1670.77
537.72	1684.86
538.08	1699.09
538.44	1712.58
538.79	1726.08
539.15	1739.37
539.51	1752.74
539.87	1766.57
540.22	1779.92
540.58	1793.31
540.94	1806.05
541.29	1818.45
541.65	1830.85
542.01	1843.77
542.37	1855.66
542.72	1867.77
543.08	1879.20
543.44	1891.35
543.79	1902.43
544.15	1913.23
544.51	1924.45
544.87	1935.19
545.22	1945.91
545.58	1955.87
545.94	1965.49
546.29	1975.08
546.65	1984.83
547.01	1994.04
547.36	2002.66
547.72	2011.00
548.07	2018.86
548.43	2027.05
548.79	2034.99
549.14	2042.51
549.50	2049.63
549.86	2057.10
550.21	2064.19
550.57	2071.34
550.92	2077.82
551.28	2084.68
551.64	2091.67
551.99	2098.08
552.35	2104.15
552.70	2110.28
553.06	2116.28
553.41	2122.51
553.77	2128.48
554.13	2134.40
554.48	2140.35
554.84	2146.03
555.19	2151.32
555.55	2156.47
555.90	2161.06
556.26	2166.05
556.61	2170.69
556.97	2175.13
557.32	2179.43
557.68	2183.73
558.03	2187.96
558.39	2191.58
558.74	2196.16
559.10	2199.98
559.45	2203.69
559.81	2207.94
560.16	2211.85
560.52	2215.15
560.87	2218.61
561.23	2221.38
561.58	2224.30
561.94	2227.08
562.29	2229.23
562.64	2232.20
563.00	2234.79
563.35	2238.27
563.71	2241.38
564.06	2244.54
564.42	2247.41
564.77	2250.04
565.12	2252.57
565.48	2254.67
565.83	2256.91
566.19	2258.45
566.54	2259.51
566.89	2260.95
567.25	2261.82
567.60	2263.12
567.96	2264.92
568.31	2265.94
568.66	2267.31
569.02	2268.14
569.37	2268.70
569.72	2269.88
570.08	2270.17
570.43	2270.40
570.78	2270.17
571.14	2268.88
571.49	2267.81
571.84	2267.61
572.20	2266.81
572.55	2265.72
572.90	2264.18
573.26	2262.98
573.61	2261.35
573.96	2259.89
574.31	2257.28
574.67	2254.49
575.02	2250.98
575.37	2247.77
575.72	2244.31
576.08	2241.04
576.43	2237.92
576.78	2234.39
577.13	2231.21
577.49	2228.05
577.84	2224.90
578.19	2221.41
578.54	2218.10
578.90	2214.34
579.25	2209.12
579.60	2204.28
579.95	2199.65
580.30	2195.08
580.66	2190.21
581.01	2185.56
581.36	2180.71
581.71	2176.66
582.06	2172.48
582.42	2168.50
582.77	2163.51
583.12	2159.28
583.47	2155.07
583.82	2150.31
584.17	2145.34
584.53	2140.21
584.88	2134.94
585.23	2129.32
585.58	2123.80
585.93	2118.37
586.28	2113.47
586.63	2108.66
586.98	2103.80
587.34	2099.23
587.69	2094.41
588.04	2089.50
588.39	2084.14
588.74	2077.88
589.09	2071.85
589.44	2065.35
589.79	2059.27
590.14	2053.74
590.49	2047.23
590.84	2040.78
591.19	2034.94
591.54	2028.55
591.89	2021.53
592.25	2015.05
592.60	2008.09
592.95	2000.82
593.30	1993.78
593.65	1986.53
594.00	1979.61
594.35	1972.56
594.70	1964.65
595.05	1957.77
595.40	1950.40
595.75	1943.04
596.10	1937.23
596.45	1930.72
596.80	1924.76
597.15	1918.37
597.50	1911.82
597.85	1905.42
598.19	1899.06
598.54	1892.27
598.89	1885.97
599.24	1880.18
599.59	1873.76
599.94	1867.67
600.29	1861.45
600.64	1855.01
600.99	1847.73
601.34	1841.14
601.69	1834.29
602.04	1827.83
602.39	1820.59
602.74	1814.06
603.08	1807.55
603.43	1800.92
603.78	1793.75
604.13	1786.69
604.48	1779.79
604.83	1772.91
605.18	1766.27
605.53	1758.53
605.87	1750.73
606.22	1743.40
606.57	1735.52
606.92	1728.06
607.27	1721.12
607.62	1714.51
607.96	1707.52
608.31	1701.27
608.66	1693.80
609.01	1686.51
609.36	1679.05
609.70	1671.20
610.05	1663.16
610.40	1655.57
610.75	1647.34
611.10	1639.80
611.44	1631.38
611.79	1623.27
612.14	1614.73
612.49	1605.61
612.83	1597.22
613.18	1588.97
613.53	1581.07
613.88	1572.65
614.22	1564.49
614.57	1555.89
614.92	1547.90
615.27	1540.50
615.61	1532.11
615.96	1524.05
616.31	1516.37
616.65	1508.97
617.00	1501.45
617.35	1493.87
617.70	1485.62
618.04	1477.26
618.39	1469.09
618.74	1461.66
619.08	1453.42
619.43	1445.86
619.78	1439.02
620.12	1431.93
620.47	1424.56
620.82	1416.38
621.16	1408.92
621.51	1401.22
621.85	1393.63
622.20	1385.19
622.55	1376.74
622.89	1368.94
623.24	1361.37
623.59	1353.98
623.93	1346.51
624.28	1339.32
624.62	1331.94
624.97	1324.75
625.32	1317.91
625.66	1310.95
626.01	1303.83
626.35	1296.58
626.70	1288.80
627.04	1281.16
627.39	1273.35
627.73	1265.93
628.08	1259.14
628.43	1252.12
628.77	1245.09
629.12	1237.63
629.46	1230.59
629.81	1223.11
630.15	1215.90
630.50	1208.57
630.84	1200.50
631.19	1192.49
631.53	1184.96
631.88	1177.29
632.22	1169.65
632.57	1162.39
632.91	1154.86
633.26	1147.44
633.60	1139.99
633.95	1132.90
634.29	1125.74
634.64	1119.09
634.98	1111.85
635.32	1104.66
635.67	1097.90
636.01	1091.22
636.36	1084.42
636.70	1077.85
637.05	1071.42
637.39	1065.04
637.73	1058.60
638.08	1052.72
638.42	1046.82
638.77	1040.52
639.11	1034.09
639.45	1027.75
639.80	1021.12
640.14	1014.78
640.49	1008.33
640.83	1002.05
641.17	995.98
641.52	989.75
641.86	983.25
642.20	977.37
642.55	971.01
642.89	964.66
643.23	958.05
643.58	952.32
643.92	946.15
644.26	940.18
644.61	934.06
644.95	928.04
645.29	921.57
645.64	914.95
645.98	908.49
646.32	902.50
646.66	896.54
647.01	890.78
647.35	885.16
647.69	879.29
648.04	873.85
648.38	868.02
648.72	862.20
649.06	856.27
649.41	850.45
649.75	844.63
650.09	838.73
650.43	833.08
650.78	826.99
651.12	821.01
651.46	815.23
651.80	809.53
652.14	804.18
652.49	798.78
652.83	793.57
653.17	788.04
653.51	782.49
653.85	777.11
654.20	771.53
654.54	765.46
654.88	759.68
655.22	753.79
655.56	748.12
655.90	742.56
656.25	737.33
656.59	732.03
656.93	727.00
657.27	721.84
657.61	716.42
657.95	711.35
658.29	706.36
658.64	701.12
658.98	695.86
659.32	690.37
659.66	685.18
660.00	679.93
660.34	675.02
660.68	670.09
661.02	665.06
661.36	660.39
661.70	655.99
662.05	651.75
662.39	647.45
662.73	643.02
663.07	638.67
663.41	634.32
663.75	629.88
664.09	625.33
664.43	620.95
664.77	616.81
665.11	612.55
665.45	608.39
665.79	604.34
666.13	600.21
666.47	596.19
666.81	592.07
667.15	587.99
667.49	584.04
667.83	580.26
668.17	576.37
668.51	572.31
668.85	568.26
669.19	564.42
669.53	560.63
669.87	556.80
670.21	553.15
670.55	549.54
670.89	546.07
671.23	542.61
671.57	539.10
671.91	535.61
672.25	532.15
672.58	528.68
672.92	525.29
673.26	522.12
673.60	518.98
673.94	515.92
674.28	513.03
674.62	510.12
674.96	507.06
675.30	504.16
675.64	501.27
675.97	498.49
676.31	495.62
676.65	492.71
676.99	490.03
677.33	487.19
677.67	484.29
678.01	481.29
678.34	478.31
678.68	475.45
679.02	472.71
679.36	469.94
679.70	467.22
680.04	464.49
680.37	461.71
680.71	458.90
681.05	456.30
681.39	453.57
681.73	450.93
682.06	448.39
682.40	445.91
682.74	443.37
683.08	440.85
683.42	438.25
683.75	435.74
684.09	433.11
684.43	430.70
684.77	428.30
685.10	425.92
685.44	423.68
685.78	421.46
686.12	419.15
686.45	416.81
686.79	414.53
687.13	412.34
687.46	410.16
687.80	408.04
688.14	405.80
688.48	403.78
688.81	401.61
689.15	399.46
689.49	397.27
689.82	395.23
690.16	393.11
690.50	391.18
690.83	389.29
691.17	387.32
691.51	385.37
691.84	383.48
692.18	381.64
692.52	379.66
692.85	377.71
693.19	375.85
693.52	374.06
693.86	372.24
694.20	370.42
694.53	368.63
694.87	366.78
695.21	364.98
695.54	363.13
695.88	361.33
696.21	359.59
696.55	357.92
696.88	356.17
697.22	354.48
697.56	352.78
697.89	351.09
698.23	349.48
698.56	347.86
698.90	346.27
699.23	344.57
699.57	343.01
699.90	341.44
700.24	339.89
700.58	338.34
700.91	336.84
701.25	335.43
701.58	334.02
701.92	332.64
702.25	331.25
702.59	329.88
702.92	328.58
703.26	327.27
703.59	326.01
703.93	324.84
704.26	323.67
704.60	322.41
704.93	321.16
705.26	319.94
705.60	318.76
705.93	317.57
706.27	316.51
706.60	315.49
706.94	314.41
707.27	313.30
707.61	312.28
707.94	311.29
708.27	310.20
708.61	309.14
708.94	308.12
709.28	307.15
709.61	306.17
709.94	305.21
710.28	304.17
710.61	303.16
710.95	302.06
711.28	301.12
711.61	300.22
711.95	299.30
712.28	298.39
712.61	297.45
712.95	296.60
713.28	295.74
713.61	294.78
713.95	293.91
714.28	293.03
714.61	292.14
714.95	291.29
715.28	290.39
715.61	289.51
715.95	288.68
716.28	287.81
716.61	286.98
716.95	286.16
717.28	285.44
717.61	284.71
717.94	284.01
718.28	283.24
718.61	282.46
718.94	281.77
719.27	281.09
719.61	280.41
719.94	279.78
720.27	279.09
720.60	278.45
720.94	277.86
721.27	277.30
721.60	276.76
721.93	276.15
722.27	275.62
722.60	275.12
722.93	274.54
723.26	274.01
723.59	273.47
723.93	272.92
724.26	272.37
724.59	271.77
724.92	271.24
725.25	270.71
725.59	270.20
725.92	269.72
726.25	269.22
726.58	268.71
726.91	268.18
727.24	267.69
727.57	267.24
727.91	266.69
728.24	266.19
728.57	265.63
728.90	265.18
729.23	264.65
729.56	264.20
729.89	263.75
730.22	263.24
730.55	262.80
730.89	262.34
731.22	261.89
731.55	261.43
731.88	260.98
732.21	260.54
732.54	260.11
732.87	259.66
733.20	259.22
733.53	258.82
733.86	258.45
734.19	258.03
734.52	257.62
734.85	257.31
735.18	256.92
735.51	256.58
735.84	256.19
736.17	255.86
736.50	255.46
736.83	255.20
737.16	254.88
737.49	254.52
737.82	254.20
738.15	253.88
738.48	253.56
738.81	253.25
739.14	252.90
739.47	252.57
739.80	252.23
740.13	251.94
740.46	251.62
740.79	251.30
741.12	250.96
741.45	250.65
741.78	250.28
742.11	250.01
742.44	249.66
742.77	249.38
743.10	249.08
743.43	248.77
743.75	248.40
744.08	248.22
744.41	247.94
744.74	247.64
745.07	247.35
745.40	247.12
745.73	246.86
746.06	246.62
746.39	246.38
746.71	246.12
747.04	245.82
747.37	245.57
747.70	245.31
748.03	245.07
748.36	244.88
748.68	244.65
749.01	244.37
749.34	244.15
749.67	243.91
750.00	243.66
750.33	243.51
750.65	243.30
750.98	242.97
751.31	242.78
751.64	242.60
751.97	242.41
752.29	242.17
752.62	241.94
752.95	241.72
753.28	241.48
753.60	241.32
753.93	241.18
754.26	240.99
754.59	240.79
754.91	240.60
755.24	240.37
755.57	240.18
755.90	240.04
756.22	239.87
756.55	239.69
756.88	239.52
757.20	239.31
757.53	239.14
757.86	239.02
758.19	238.88
758.51	238.69
758.84	238.50
759.17	238.36
759.49	238.21
759.82	238.11
760.15	237.98
760.47	237.82
760.80	237.64
761.13	237.53
761.45	237.37
761.78	237.24
762.11	237.09
762.43	236.95
762.76	236.79
763.08	236.69
763.41	236.57
763.74	236.48
764.06	236.33
764.39	236.20
764.71	236.04
765.04	235.85
765.37	235.73
765.69	235.63
766.02	235.49
766.34	235.36
766.67	235.25
767.00	235.15
767.32	235.06
767.65	235.02
767.97	234.88
768.30	234.80
768.62	234.70
768.95	234.58
769.27	234.48
769.60	234.39
769.92	234.24
770.25	234.12
770.57	234.02
770.90	233.90
771.22	233.81
771.55	233.69
771.87	233.64
772.20	233.52
772.52	233.51
772.85	233.54
773.17	233.46
773.50	233.38
773.82	233.29
774.15	233.20
774.47	233.06
774.80	232.98
775.12	232.89
775.45	232.76
775.77	232.71
776.09	232.64
776.42	232.56
776.74	232.55
777.07	232.46
777.39	232.36
777.72	232.28
778.04	232.15
778.36	232.10
778.69	232.03
779.01	231.97
779.33	231.80
779.66	231.60
779.98	231.52
780.31	231.41
780.63	231.37
780.95	231.29
781.28	231.23
781.60	231.14
781.92	231.06
782.25	231.01
782.57	230.93
782.89	230.85
783.22	230.75
783.54	230.63
783.86	230.59
784.19	230.53
784.51	230.51
784.83	230.48
785.16	230.40
785.48	230.32
785.80	230.28
786.12	230.22
786.45	230.17
786.77	230.12
787.09	230.04
