SpectraSuite Data File
++++++++++++++++++++++++++++++++++++
Date: Fri Feb 01 17:17:05 EST 2013
User: group
Dark Spectrum Present: No
Reference Spectrum Present: No
Number of Sampled Component Spectra: 1
Spectrometers: USB2E7196
Integration Time (usec): 35000 (USB2E7196)
Spectra Averaged: 100 (USB2E7196)
Boxcar Smoothing: 10 (USB2E7196)
Correct for Electrical Dark: No (USB2E7196)
Strobe/Lamp Enabled: No (USB2E7196)
Correct for Detector Non-linearity: No (USB2E7196)
Correct for Stray Light: No (USB2E7196)
Number of Pixels in Processed Spectrum: 2048
>>>>>Begin Processed Spectral Data<<<<<
339.09	0.00
339.48	213.21
339.86	214.26
340.24	216.08
340.63	217.33
341.01	220.26
341.39	220.00
341.78	221.91
342.16	222.86
342.54	223.00
342.93	211.57
343.31	222.25
343.69	222.78
344.07	223.25
344.46	223.67
344.84	224.06
345.22	224.29
345.60	224.55
345.99	224.70
346.37	224.82
346.75	224.93
347.13	224.97
347.52	224.99
347.90	225.06
348.28	225.08
348.66	225.14
349.05	225.14
349.43	225.18
349.81	225.24
350.19	225.29
350.57	225.36
350.96	225.42
351.34	225.50
351.72	225.58
352.10	225.70
352.48	225.72
352.87	225.77
353.25	225.83
353.63	225.86
354.01	225.94
354.39	226.01
354.77	226.08
355.15	226.21
355.54	226.29
355.92	226.32
356.30	226.40
356.68	226.52
357.06	226.58
357.44	226.63
357.82	226.69
358.20	226.78
358.58	226.82
358.97	226.89
359.35	226.97
359.73	227.06
360.11	227.09
360.49	227.18
360.87	227.24
361.25	227.29
361.63	227.36
362.01	227.42
362.39	227.41
362.77	227.43
363.15	227.45
363.53	227.44
363.91	227.50
364.29	227.51
364.67	227.43
365.05	227.45
365.43	227.47
365.81	227.48
366.19	227.52
366.57	227.61
366.95	227.59
367.33	227.56
367.71	227.54
368.09	227.54
368.47	227.54
368.85	227.53
369.23	227.54
369.61	227.49
369.99	227.48
370.37	227.54
370.75	227.58
371.13	227.50
371.51	227.48
371.89	227.43
372.27	227.39
372.65	227.36
373.03	227.32
373.41	227.25
373.78	227.18
374.16	227.10
374.54	226.97
374.92	226.91
375.30	226.87
375.68	226.78
376.06	226.73
376.44	226.67
376.82	226.59
377.19	226.53
377.57	226.47
377.95	226.39
378.33	226.27
378.71	226.16
379.09	226.12
379.47	226.07
379.84	226.00
380.22	225.95
380.60	225.88
380.98	225.79
381.36	225.75
381.73	225.71
382.11	225.67
382.49	225.61
382.87	225.55
383.25	225.49
383.62	225.59
384.00	225.54
384.38	225.47
384.76	225.45
385.13	225.45
385.51	225.41
385.89	225.34
386.27	225.31
386.64	225.24
387.02	225.19
387.40	225.14
387.78	225.11
388.15	225.07
388.53	225.03
388.91	225.02
389.29	224.96
389.66	224.93
390.04	224.88
390.42	224.88
390.79	224.87
391.17	224.86
391.55	224.69
391.92	224.65
392.30	224.67
392.68	224.61
393.05	224.60
393.43	224.59
393.81	224.59
394.18	224.57
394.56	224.63
394.94	224.64
395.31	224.68
395.69	224.74
396.06	224.79
396.44	224.82
396.82	224.81
397.19	224.93
397.57	224.95
397.95	224.99
398.32	225.00
398.70	225.04
399.07	225.11
399.45	225.19
399.82	225.26
400.20	225.32
400.58	225.42
400.95	225.43
401.33	225.53
401.70	225.69
402.08	225.79
402.45	225.86
402.83	225.99
403.20	226.10
403.58	226.18
403.95	226.31
404.33	226.44
404.71	226.60
405.08	226.73
405.46	226.88
405.83	227.01
406.21	227.16
406.58	227.34
406.96	227.46
407.33	227.63
407.70	227.82
408.08	228.06
408.45	228.27
408.83	228.46
409.20	228.67
409.58	228.84
409.95	229.09
410.33	229.41
410.70	229.63
411.08	229.90
411.45	230.19
411.82	230.44
412.20	230.77
412.57	231.18
412.95	231.49
413.32	231.92
413.69	232.33
414.07	232.78
414.44	233.27
414.82	233.80
415.19	234.34
415.56	234.87
415.94	235.42
416.31	236.07
416.68	236.71
417.06	237.43
417.43	238.15
417.81	238.95
418.18	239.73
418.55	240.63
418.93	241.52
419.30	242.45
419.67	243.44
420.04	244.46
420.42	245.44
420.79	246.64
421.16	247.82
421.54	249.04
421.91	250.27
422.28	251.55
422.66	252.90
423.03	254.31
423.40	255.70
423.77	257.15
424.15	258.59
424.52	260.15
424.89	261.81
425.26	263.39
425.64	264.82
426.01	266.43
426.38	268.09
426.75	269.82
427.13	271.56
427.50	273.45
427.87	275.37
428.24	277.31
428.61	279.11
428.99	281.05
429.36	283.24
429.73	285.37
430.10	287.42
430.47	289.50
430.85	291.67
431.22	293.95
431.59	296.43
431.96	298.76
432.33	301.36
432.70	303.76
433.08	306.66
433.45	309.38
433.82	312.08
434.19	315.09
434.56	317.99
434.93	320.74
435.30	323.43
435.68	326.38
436.05	329.28
436.42	332.20
436.79	334.83
437.16	337.60
437.53	340.50
437.90	343.39
438.27	346.19
438.64	349.08
439.01	351.75
439.38	354.03
439.75	356.26
440.13	358.78
440.50	361.22
440.87	363.15
441.24	365.19
441.61	367.39
441.98	368.91
442.35	370.76
442.72	372.70
443.09	374.58
443.46	375.61
443.83	376.23
444.20	376.75
444.57	377.62
444.94	377.90
445.31	378.25
445.68	378.67
446.05	378.79
446.42	378.39
446.79	378.01
447.16	377.56
447.53	377.21
447.90	376.09
448.27	374.91
448.64	373.28
449.01	372.09
449.37	370.07
449.74	368.13
450.11	365.88
450.48	363.37
450.85	360.73
451.22	358.56
451.59	356.47
451.96	354.49
452.33	351.79
452.70	349.42
453.07	346.56
453.43	343.56
453.80	340.72
454.17	337.99
454.54	335.39
454.91	332.58
455.28	329.82
455.65	327.26
456.02	324.78
456.38	322.56
456.75	319.83
457.12	317.53
457.49	315.23
457.86	312.95
458.23	311.04
458.59	308.96
458.96	306.82
459.33	304.92
459.70	302.97
460.07	301.45
460.43	299.66
460.80	297.99
461.17	296.51
461.54	294.98
461.91	293.52
462.27	292.03
462.64	290.76
463.01	289.40
463.38	288.07
463.74	286.65
464.11	285.45
464.48	284.42
464.85	283.28
465.21	282.40
465.58	281.44
465.95	280.28
466.32	279.34
466.68	278.44
467.05	277.52
467.42	276.63
467.78	275.70
468.15	274.78
468.52	274.08
468.88	273.22
469.25	272.41
469.62	271.76
469.98	271.07
470.35	270.42
470.72	269.81
471.08	269.11
471.45	268.51
471.82	267.98
472.18	267.39
472.55	266.96
472.92	266.42
473.28	265.92
473.65	265.47
474.02	265.01
474.38	264.64
474.75	264.30
475.11	263.93
475.48	263.64
475.85	263.42
476.21	263.20
476.58	262.99
476.94	262.88
477.31	262.72
477.67	262.53
478.04	262.42
478.41	262.35
478.77	262.43
479.14	262.41
479.50	262.39
479.87	262.42
480.23	262.48
480.60	262.55
480.96	262.69
481.33	262.90
481.69	263.11
482.06	263.30
482.42	263.53
482.79	263.84
483.15	264.14
483.52	264.53
483.88	264.87
484.25	265.30
484.61	265.73
484.98	266.17
485.34	266.77
485.71	267.37
486.07	268.00
486.44	268.55
486.80	269.26
487.17	270.05
487.53	270.91
487.90	271.78
488.26	272.72
488.62	273.67
488.99	274.66
489.35	275.71
489.72	276.79
490.08	277.98
490.44	279.19
490.81	280.55
491.17	281.90
491.54	283.43
491.90	284.96
492.26	286.63
492.63	288.40
492.99	290.17
493.36	292.07
493.72	294.13
494.08	296.23
494.45	298.47
494.81	300.84
495.17	303.22
495.54	305.79
495.90	308.48
496.26	311.30
496.63	314.27
496.99	317.35
497.35	320.63
497.72	324.01
498.08	327.51
498.44	331.14
498.80	335.09
499.17	339.05
499.53	343.16
499.89	347.48
500.26	351.91
500.62	356.50
500.98	361.38
501.34	366.42
501.71	371.71
502.07	377.13
502.43	382.67
502.79	388.46
503.16	394.46
503.52	400.68
503.88	407.04
504.24	413.57
504.60	420.37
504.97	427.39
505.33	434.66
505.69	442.26
506.05	449.96
506.41	457.73
506.78	465.80
507.14	474.11
507.50	482.68
507.86	491.62
508.22	500.70
508.59	509.84
508.95	519.27
509.31	528.90
509.67	538.80
510.03	548.90
510.39	559.25
510.75	569.87
511.12	580.59
511.48	591.63
511.84	602.91
512.20	614.29
512.56	626.06
512.92	637.95
513.28	650.21
513.64	662.46
514.00	675.01
514.37	687.71
514.73	700.55
515.09	713.38
515.45	726.44
515.81	739.78
516.17	753.52
516.53	767.37
516.89	781.34
517.25	795.15
517.61	809.35
517.97	823.59
518.33	837.74
518.69	852.17
519.05	866.84
519.41	881.73
519.77	896.95
520.13	911.98
520.49	927.16
520.85	942.10
521.21	957.34
521.57	973.21
521.93	988.67
522.29	1004.74
522.65	1020.66
523.01	1036.42
523.37	1052.12
523.73	1067.87
524.09	1083.61
524.45	1099.55
524.81	1115.89
525.17	1132.21
525.53	1148.66
525.89	1165.25
526.25	1181.80
526.61	1197.86
526.97	1214.17
527.33	1230.33
527.68	1246.68
528.04	1262.84
528.40	1279.09
528.76	1295.94
529.12	1312.10
529.48	1328.71
529.84	1344.32
530.20	1360.69
530.56	1377.40
530.91	1394.45
531.27	1411.02
531.63	1427.15
531.99	1443.48
532.35	1459.26
532.71	1474.90
533.07	1490.94
533.42	1506.55
533.78	1522.39
534.14	1538.46
534.50	1553.69
534.86	1569.21
535.21	1584.17
535.57	1599.81
535.93	1615.11
536.29	1629.64
536.65	1644.56
537.00	1659.02
537.36	1674.31
537.72	1688.50
538.08	1702.81
538.44	1716.50
538.79	1730.15
539.15	1743.61
539.51	1757.14
539.87	1771.37
540.22	1785.00
540.58	1798.57
540.94	1811.65
541.29	1824.27
541.65	1836.75
542.01	1849.70
542.37	1862.09
542.72	1874.32
543.08	1886.09
543.44	1898.34
543.79	1909.65
544.15	1920.54
544.51	1932.06
544.87	1942.80
545.22	1953.79
545.58	1963.87
545.94	1973.63
546.29	1983.55
546.65	1993.46
547.01	2002.82
547.36	2011.43
547.72	2019.99
548.07	2028.00
548.43	2036.15
548.79	2044.13
549.14	2051.95
549.50	2059.30
549.86	2066.87
550.21	2074.35
550.57	2081.68
550.92	2088.49
551.28	2095.63
551.64	2102.82
551.99	2109.51
552.35	2115.99
552.70	2122.18
553.06	2128.47
553.41	2135.01
553.77	2141.06
554.13	2147.45
554.48	2153.65
554.84	2159.46
555.19	2164.78
555.55	2170.25
555.90	2175.17
556.26	2180.63
556.61	2185.51
556.97	2190.45
557.32	2194.86
557.68	2199.27
558.03	2203.62
558.39	2207.42
558.74	2212.26
559.10	2216.42
559.45	2220.42
559.81	2224.78
560.16	2228.82
560.52	2232.33
560.87	2235.84
561.23	2238.88
561.58	2241.87
561.94	2244.92
562.29	2247.49
562.64	2250.69
563.00	2253.28
563.35	2256.95
563.71	2260.20
564.06	2263.55
564.42	2266.51
564.77	2269.52
565.12	2272.31
565.48	2274.67
565.83	2276.93
566.19	2278.77
566.54	2279.82
566.89	2281.40
567.25	2282.55
567.60	2284.13
567.96	2286.18
568.31	2287.40
568.66	2288.88
569.02	2289.85
569.37	2290.36
569.72	2291.60
570.08	2292.14
570.43	2292.60
570.78	2292.55
571.14	2291.38
571.49	2290.41
571.84	2290.16
572.20	2289.33
572.55	2288.66
572.90	2287.26
573.26	2286.30
573.61	2284.59
573.96	2283.55
574.31	2280.84
574.67	2278.02
575.02	2274.82
575.37	2271.61
575.72	2268.35
576.08	2265.22
576.43	2262.19
576.78	2258.87
577.13	2255.82
577.49	2252.66
577.84	2249.65
578.19	2245.99
578.54	2242.62
578.90	2238.80
579.25	2233.72
579.60	2229.01
579.95	2224.21
580.30	2219.49
580.66	2214.54
581.01	2209.88
581.36	2204.90
581.71	2200.89
582.06	2196.88
582.42	2192.65
582.77	2187.81
583.12	2183.40
583.47	2179.02
583.82	2174.36
584.17	2169.35
584.53	2164.12
584.88	2158.98
585.23	2153.44
585.58	2148.31
585.93	2143.14
586.28	2138.46
586.63	2133.63
586.98	2128.66
587.34	2123.84
587.69	2119.09
588.04	2114.21
588.39	2108.92
588.74	2102.59
589.09	2096.70
589.44	2090.17
589.79	2084.13
590.14	2078.55
590.49	2072.03
590.84	2065.75
591.19	2059.91
591.54	2053.66
591.89	2046.76
592.25	2040.12
592.60	2033.04
592.95	2025.74
593.30	2018.42
593.65	2010.93
594.00	2004.05
594.35	1997.19
594.70	1989.42
595.05	1982.61
595.40	1975.27
595.75	1967.89
596.10	1962.02
596.45	1955.43
596.80	1949.27
597.15	1942.97
597.50	1936.28
597.85	1930.01
598.19	1923.47
598.54	1916.67
598.89	1910.16
599.24	1904.08
599.59	1897.73
599.94	1891.49
600.29	1885.08
600.64	1878.62
600.99	1871.42
601.34	1864.64
601.69	1857.39
602.04	1850.72
602.39	1843.38
602.74	1836.64
603.08	1829.99
603.43	1823.23
603.78	1815.88
604.13	1808.67
604.48	1801.48
604.83	1794.61
605.18	1787.97
605.53	1780.11
605.87	1771.92
606.22	1764.51
606.57	1756.63
606.92	1749.00
607.27	1742.11
607.62	1735.39
607.96	1728.25
608.31	1721.77
608.66	1714.32
609.01	1707.06
609.36	1699.50
609.70	1691.42
610.05	1683.41
610.40	1675.63
610.75	1667.40
611.10	1659.88
611.44	1651.42
611.79	1643.35
612.14	1634.47
612.49	1625.11
612.83	1616.56
613.18	1608.32
613.53	1600.23
613.88	1591.61
614.22	1583.27
614.57	1574.34
614.92	1566.12
615.27	1558.61
615.61	1550.26
615.96	1542.04
616.31	1534.23
616.65	1526.75
617.00	1519.15
617.35	1511.35
617.70	1503.09
618.04	1494.50
618.39	1486.12
618.74	1478.60
619.08	1470.22
619.43	1462.64
619.78	1455.64
620.12	1448.45
620.47	1440.91
620.82	1432.72
621.16	1425.20
621.51	1417.55
621.85	1409.86
622.20	1401.28
622.55	1392.68
622.89	1384.59
623.24	1376.75
623.59	1369.20
623.93	1361.54
624.28	1354.28
624.62	1346.82
624.97	1339.47
625.32	1332.52
625.66	1325.26
626.01	1317.87
626.35	1310.44
626.70	1302.66
627.04	1294.87
627.39	1287.01
627.73	1279.48
628.08	1272.50
628.43	1265.35
628.77	1258.06
629.12	1250.49
629.46	1243.30
629.81	1235.71
630.15	1228.38
630.50	1221.07
630.84	1212.90
631.19	1204.88
631.53	1197.25
631.88	1189.51
632.22	1181.83
632.57	1174.49
632.91	1166.98
633.26	1159.61
633.60	1152.06
633.95	1144.72
634.29	1137.45
634.64	1130.72
634.98	1123.29
635.32	1116.14
635.67	1109.31
636.01	1102.58
636.36	1095.78
636.70	1089.16
637.05	1082.63
637.39	1076.20
637.73	1069.71
638.08	1063.71
638.42	1057.66
638.77	1051.10
639.11	1044.65
639.45	1038.14
639.80	1031.50
640.14	1025.12
640.49	1018.58
640.83	1012.32
641.17	1006.13
641.52	999.80
641.86	993.24
642.20	987.41
642.55	980.88
642.89	974.49
643.23	967.79
643.58	961.95
643.92	955.73
644.26	949.73
644.61	943.58
644.95	937.46
645.29	930.85
645.64	924.10
645.98	917.73
646.32	911.58
646.66	905.57
647.01	899.68
647.35	893.86
647.69	887.84
648.04	882.10
648.38	876.26
648.72	870.33
649.06	864.35
649.41	858.42
649.75	852.52
650.09	846.45
650.43	840.72
650.78	834.49
651.12	828.52
651.46	822.70
651.80	817.08
652.14	811.60
652.49	806.28
652.83	801.06
653.17	795.49
653.51	789.90
653.85	784.41
654.20	778.79
654.54	772.74
654.88	766.99
655.22	761.17
655.56	755.43
655.90	749.85
656.25	744.58
656.59	739.14
656.93	733.97
657.27	728.76
657.61	723.26
657.95	718.08
658.29	712.98
658.64	707.63
658.98	702.14
659.32	696.62
659.66	691.39
660.00	686.11
660.34	681.06
660.68	676.03
661.02	670.98
661.36	666.24
661.70	661.76
662.05	657.40
662.39	653.08
662.73	648.63
663.07	644.22
663.41	639.74
663.75	635.26
664.09	630.69
664.43	626.30
664.77	622.23
665.11	618.01
665.45	613.76
665.79	609.70
666.13	605.56
666.47	601.45
666.81	597.29
667.15	593.11
667.49	589.11
667.83	585.24
668.17	581.23
668.51	577.16
668.85	573.07
669.19	569.14
669.53	565.24
669.87	561.36
670.21	557.67
670.55	553.97
670.89	550.53
671.23	547.11
671.57	543.59
671.91	540.01
672.25	536.51
672.58	532.97
672.92	529.47
673.26	526.24
673.60	523.07
673.94	519.93
674.28	516.94
674.62	514.08
674.96	511.00
675.30	508.11
675.64	505.17
675.97	502.35
676.31	499.49
676.65	496.58
676.99	493.82
677.33	490.90
677.67	488.09
678.01	485.07
678.34	482.13
678.68	479.21
679.02	476.35
679.36	473.58
679.70	470.84
680.04	468.12
680.37	465.31
680.71	462.46
681.05	459.84
681.39	457.10
681.73	454.38
682.06	451.90
682.40	449.36
682.74	446.76
683.08	444.17
683.42	441.55
683.75	439.03
684.09	436.45
684.43	433.96
684.77	431.46
685.10	429.02
685.44	426.62
685.78	424.37
686.12	422.05
686.45	419.68
686.79	417.37
687.13	415.17
687.46	412.93
687.80	410.76
688.14	408.46
688.48	406.42
688.81	404.16
689.15	401.93
689.49	399.75
689.82	397.66
690.16	395.55
690.50	393.52
690.83	391.51
691.17	389.44
691.51	387.51
691.84	385.67
692.18	383.74
692.52	381.73
692.85	379.68
693.19	377.83
693.52	375.97
693.86	374.11
694.20	372.25
694.53	370.46
694.87	368.59
695.21	366.74
695.54	364.84
695.88	363.06
696.21	361.31
696.55	359.57
696.88	357.87
697.22	356.18
697.56	354.53
697.89	352.89
698.23	351.31
698.56	349.69
698.90	348.02
699.23	346.41
699.57	344.83
699.90	343.26
700.24	341.62
700.58	340.09
700.91	338.58
701.25	337.14
701.58	335.77
701.92	334.38
702.25	333.02
702.59	331.66
702.92	330.33
703.26	328.97
703.59	327.69
703.93	326.47
704.26	325.25
704.60	323.95
704.93	322.65
705.26	321.36
705.60	320.12
705.93	318.91
706.27	317.79
706.60	316.71
706.94	315.65
707.27	314.55
707.61	313.45
707.94	312.38
708.27	311.26
708.61	310.14
708.94	309.10
709.28	308.09
709.61	307.13
709.94	306.18
710.28	305.19
710.61	304.15
710.95	303.03
711.28	302.09
711.61	301.14
711.95	300.22
712.28	299.28
712.61	298.33
712.95	297.44
713.28	296.59
713.61	295.67
713.95	294.74
714.28	293.89
714.61	293.02
714.95	292.19
715.28	291.31
715.61	290.45
715.95	289.61
716.28	288.77
716.61	287.89
716.95	287.06
717.28	286.32
717.61	285.58
717.94	284.84
718.28	284.03
718.61	283.32
718.94	282.60
719.27	281.95
719.61	281.27
719.94	280.62
720.27	279.87
720.60	279.24
720.94	278.66
721.27	278.05
721.60	277.45
721.93	276.87
722.27	276.30
722.60	275.73
722.93	275.14
723.26	274.58
723.59	274.05
723.93	273.51
724.26	272.93
724.59	272.39
724.92	271.89
725.25	271.39
725.59	270.86
725.92	270.35
726.25	269.81
726.58	269.31
726.91	268.78
727.24	268.31
727.57	267.80
727.91	267.25
728.24	266.78
728.57	266.28
728.90	265.81
729.23	265.31
729.56	264.87
729.89	264.39
730.22	263.92
730.55	263.39
730.89	262.90
731.22	262.45
731.55	261.99
731.88	261.55
732.21	261.09
732.54	260.60
732.87	260.16
733.20	259.78
733.53	259.38
733.86	258.99
734.19	258.59
734.52	258.24
734.85	257.91
735.18	257.47
735.51	257.12
735.84	256.70
736.17	256.34
736.50	255.91
736.83	255.69
737.16	255.31
737.49	255.00
737.82	254.63
738.15	254.28
738.48	253.91
738.81	253.57
739.14	253.25
739.47	252.93
739.80	252.62
740.13	252.29
740.46	251.97
740.79	251.65
741.12	251.33
741.45	251.03
741.78	250.70
742.11	250.39
742.44	250.04
742.77	249.81
743.10	249.51
743.43	249.23
743.75	248.83
744.08	248.69
744.41	248.39
744.74	248.15
745.07	247.87
745.40	247.63
745.73	247.35
746.06	247.08
746.39	246.82
746.71	246.56
747.04	246.27
747.37	245.99
747.70	245.75
748.03	245.49
748.36	245.22
748.68	244.96
749.01	244.77
749.34	244.56
749.67	244.32
750.00	244.11
750.33	243.93
750.65	243.69
750.98	243.36
751.31	243.15
751.64	242.92
751.97	242.76
752.29	242.53
752.62	242.29
752.95	242.09
753.28	241.89
753.60	241.67
753.93	241.50
754.26	241.31
754.59	241.09
754.91	240.87
755.24	240.66
755.57	240.46
755.90	240.21
756.22	239.98
756.55	239.76
756.88	239.59
757.20	239.36
757.53	239.21
757.86	239.04
758.19	238.87
758.51	238.72
758.84	238.50
759.17	238.34
759.49	238.17
759.82	238.05
760.15	237.87
760.47	237.73
760.80	237.56
761.13	237.39
761.45	237.21
761.78	237.03
762.11	236.89
762.43	236.74
762.76	236.62
763.08	236.48
763.41	236.35
763.74	236.19
764.06	236.02
764.39	235.83
764.71	235.69
765.04	235.54
765.37	235.38
765.69	235.27
766.02	235.14
766.34	235.01
766.67	234.84
767.00	234.76
767.32	234.70
767.65	234.66
767.97	234.56
768.30	234.48
768.62	234.42
768.95	234.28
769.27	234.19
769.60	234.11
769.92	234.04
770.25	233.91
770.57	233.78
770.90	233.70
771.22	233.60
771.55	233.51
771.87	233.46
772.20	233.35
772.52	233.35
772.85	233.40
773.17	233.31
773.50	233.23
773.82	233.12
774.15	232.97
774.47	232.83
774.80	232.72
775.12	232.61
775.45	232.52
775.77	232.45
776.09	232.38
776.42	232.30
776.74	232.24
777.07	232.17
777.39	232.14
777.72	232.07
778.04	232.02
778.36	231.98
778.69	231.87
779.01	231.81
779.33	231.66
779.66	231.44
779.98	231.37
780.31	231.33
780.63	231.34
780.95	231.28
781.28	231.20
781.60	231.12
781.92	231.07
782.25	231.00
782.57	230.95
782.89	230.87
783.22	230.79
783.54	230.69
783.86	230.64
784.19	230.56
784.51	230.51
784.83	230.50
785.16	230.39
785.48	230.34
785.80	230.28
786.12	230.21
786.45	230.18
786.77	230.14
787.09	230.08
