SpectraSuite Data File
++++++++++++++++++++++++++++++++++++
Date: Fri Feb 01 15:29:09 EST 2013
User: group
Dark Spectrum Present: No
Reference Spectrum Present: No
Number of Sampled Component Spectra: 1
Spectrometers: USB2E7196
Integration Time (usec): 35000 (USB2E7196)
Spectra Averaged: 100 (USB2E7196)
Boxcar Smoothing: 10 (USB2E7196)
Correct for Electrical Dark: No (USB2E7196)
Strobe/Lamp Enabled: No (USB2E7196)
Correct for Detector Non-linearity: No (USB2E7196)
Correct for Stray Light: No (USB2E7196)
Number of Pixels in Processed Spectrum: 2048
>>>>>Begin Processed Spectral Data<<<<<
339.09	0.00
339.48	215.35
339.86	216.67
340.24	217.73
340.63	219.14
341.01	222.44
341.39	222.05
341.78	222.78
342.16	225.24
342.54	224.67
342.93	213.46
343.31	224.25
343.69	224.76
344.07	225.23
344.46	225.70
344.84	226.06
345.22	226.28
345.60	226.52
345.99	226.70
346.37	226.81
346.75	226.92
347.13	226.97
347.52	227.02
347.90	227.04
348.28	227.06
348.66	227.12
349.05	227.09
349.43	227.13
349.81	227.16
350.19	227.18
350.57	227.25
350.96	227.29
351.34	227.37
351.72	227.45
352.10	227.52
352.48	227.52
352.87	227.59
353.25	227.66
353.63	227.70
354.01	227.80
354.39	227.86
354.77	227.94
355.15	228.06
355.54	228.08
355.92	228.14
356.30	228.17
356.68	228.29
357.06	228.35
357.44	228.39
357.82	228.46
358.20	228.53
358.58	228.61
358.97	228.71
359.35	228.77
359.73	228.83
360.11	228.90
360.49	228.99
360.87	229.01
361.25	229.04
361.63	229.13
362.01	229.16
362.39	229.18
362.77	229.22
363.15	229.27
363.53	229.31
363.91	229.32
364.29	229.33
364.67	229.27
365.05	229.28
365.43	229.30
365.81	229.33
366.19	229.40
366.57	229.43
366.95	229.42
367.33	229.41
367.71	229.42
368.09	229.40
368.47	229.39
368.85	229.41
369.23	229.38
369.61	229.34
369.99	229.34
370.37	229.35
370.75	229.35
371.13	229.29
371.51	229.26
371.89	229.23
372.27	229.25
372.65	229.19
373.03	229.15
373.41	229.09
373.78	229.01
374.16	228.89
374.54	228.80
374.92	228.75
375.30	228.69
375.68	228.59
376.06	228.54
376.44	228.50
376.82	228.43
377.19	228.40
377.57	228.31
377.95	228.22
378.33	228.10
378.71	227.97
379.09	227.90
379.47	227.85
379.84	227.79
380.22	227.69
380.60	227.61
380.98	227.51
381.36	227.44
381.73	227.36
382.11	227.29
382.49	227.23
382.87	227.11
383.25	227.02
383.62	227.07
384.00	226.99
384.38	226.91
384.76	226.87
385.13	226.83
385.51	226.78
385.89	226.73
386.27	226.69
386.64	226.65
387.02	226.61
387.40	226.57
387.78	226.53
388.15	226.47
388.53	226.44
388.91	226.45
389.29	226.42
389.66	226.42
390.04	226.38
390.42	226.36
390.79	226.36
391.17	226.34
391.55	226.22
391.92	226.21
392.30	226.20
392.68	226.18
393.05	226.15
393.43	226.17
393.81	226.17
394.18	226.13
394.56	226.16
394.94	226.20
395.31	226.21
395.69	226.25
396.06	226.27
396.44	226.30
396.82	226.32
397.19	226.41
397.57	226.41
397.95	226.49
398.32	226.52
398.70	226.60
399.07	226.69
399.45	226.75
399.82	226.79
400.20	226.86
400.58	226.94
400.95	226.99
401.33	227.09
401.70	227.23
402.08	227.37
402.45	227.48
402.83	227.58
403.20	227.72
403.58	227.81
403.95	227.94
404.33	228.08
404.71	228.22
405.08	228.42
405.46	228.55
405.83	228.71
406.21	228.85
406.58	228.99
406.96	229.16
407.33	229.33
407.70	229.53
408.08	229.78
408.45	230.01
408.83	230.28
409.20	230.49
409.58	230.66
409.95	230.92
410.33	231.18
410.70	231.40
411.08	231.66
411.45	231.98
411.82	232.31
412.20	232.67
412.57	233.05
412.95	233.32
413.32	233.81
413.69	234.21
414.07	234.65
414.44	235.16
414.82	235.63
415.19	236.20
415.56	236.75
415.94	237.32
416.31	237.94
416.68	238.53
417.06	239.28
417.43	239.97
417.81	240.75
418.18	241.55
418.55	242.42
418.93	243.30
419.30	244.21
419.67	245.17
420.04	246.12
420.42	247.12
420.79	248.33
421.16	249.45
421.54	250.64
421.91	251.87
422.28	253.14
422.66	254.48
423.03	255.79
423.40	257.14
423.77	258.53
424.15	259.98
424.52	261.48
424.89	263.07
425.26	264.64
425.64	266.10
426.01	267.70
426.38	269.32
426.75	271.01
427.13	272.70
427.50	274.48
427.87	276.38
428.24	278.24
428.61	279.99
428.99	281.95
429.36	284.10
429.73	286.19
430.10	288.24
430.47	290.31
430.85	292.44
431.22	294.69
431.59	297.12
431.96	299.37
432.33	301.89
432.70	304.29
433.08	307.10
433.45	309.75
433.82	312.43
434.19	315.36
434.56	318.19
434.93	320.90
435.30	323.54
435.68	326.47
436.05	329.36
436.42	332.12
436.79	334.63
437.16	337.27
437.53	340.10
437.90	342.93
438.27	345.71
438.64	348.55
439.01	351.14
439.38	353.33
439.75	355.54
440.13	358.04
440.50	360.35
440.87	362.19
441.24	364.12
441.61	366.23
441.98	367.75
442.35	369.55
442.72	371.38
443.09	373.20
443.46	374.14
443.83	374.68
444.20	375.21
444.57	376.03
444.94	376.30
445.31	376.64
445.68	376.93
446.05	376.98
446.42	376.54
446.79	376.13
447.16	375.72
447.53	375.34
447.90	374.16
448.27	372.98
448.64	371.37
449.01	370.24
449.37	368.27
449.74	366.31
450.11	364.04
450.48	361.58
450.85	359.03
451.22	356.91
451.59	354.89
451.96	352.91
452.33	350.33
452.70	348.00
453.07	345.17
453.43	342.28
453.80	339.50
454.17	336.84
454.54	334.28
454.91	331.53
455.28	328.87
455.65	326.32
456.02	323.88
456.38	321.75
456.75	319.04
457.12	316.80
457.49	314.61
457.86	312.44
458.23	310.58
458.59	308.52
458.96	306.46
459.33	304.59
459.70	302.75
460.07	301.22
460.43	299.51
460.80	297.86
461.17	296.42
461.54	294.92
461.91	293.50
462.27	292.04
462.64	290.77
463.01	289.41
463.38	288.17
463.74	286.81
464.11	285.66
464.48	284.66
464.85	283.56
465.21	282.71
465.58	281.78
465.95	280.70
466.32	279.82
466.68	278.86
467.05	277.99
467.42	277.10
467.78	276.19
468.15	275.28
468.52	274.63
468.88	273.77
469.25	273.01
469.62	272.35
469.98	271.67
470.35	271.09
470.72	270.51
471.08	269.85
471.45	269.29
471.82	268.72
472.18	268.13
472.55	267.68
472.92	267.09
473.28	266.64
473.65	266.15
474.02	265.67
474.38	265.35
474.75	265.01
475.11	264.65
475.48	264.35
475.85	264.13
476.21	263.89
476.58	263.66
476.94	263.50
477.31	263.34
477.67	263.22
478.04	263.09
478.41	263.02
478.77	263.04
479.14	262.94
479.50	262.97
479.87	263.04
480.23	263.07
480.60	263.15
480.96	263.20
481.33	263.43
481.69	263.62
482.06	263.82
482.42	264.01
482.79	264.24
483.15	264.56
483.52	264.92
483.88	265.28
484.25	265.71
484.61	266.14
484.98	266.61
485.34	267.15
485.71	267.74
486.07	268.33
486.44	268.91
486.80	269.62
487.17	270.33
487.53	271.14
487.90	272.02
488.26	272.96
488.62	273.94
488.99	274.88
489.35	275.92
489.72	277.02
490.08	278.25
490.44	279.48
490.81	280.78
491.17	282.11
491.54	283.59
491.90	285.09
492.26	286.72
492.63	288.42
492.99	290.17
493.36	292.03
493.72	294.02
494.08	296.10
494.45	298.38
494.81	300.79
495.17	303.21
495.54	305.75
495.90	308.43
496.26	311.26
496.63	314.24
496.99	317.37
497.35	320.57
497.72	323.93
498.08	327.47
498.44	331.13
498.80	335.04
499.17	339.10
499.53	343.29
499.89	347.70
500.26	352.22
500.62	356.93
500.98	361.94
501.34	367.03
501.71	372.38
502.07	377.78
502.43	383.39
502.79	389.16
503.16	395.25
503.52	401.51
503.88	407.90
504.24	414.47
504.60	421.38
504.97	428.60
505.33	435.96
505.69	443.72
506.05	451.51
506.41	459.49
506.78	467.58
507.14	476.01
507.50	484.72
507.86	493.80
508.22	503.01
508.59	512.23
508.95	521.87
509.31	531.75
509.67	541.90
510.03	552.14
510.39	562.77
510.75	573.62
511.12	584.64
511.48	595.94
511.84	607.40
512.20	618.96
512.56	630.85
512.92	643.04
513.28	655.32
513.64	667.90
514.00	680.62
514.37	693.64
514.73	706.80
515.09	719.89
515.45	733.21
515.81	746.86
516.17	760.85
516.53	774.99
516.89	789.12
517.25	803.29
517.61	817.79
517.97	832.29
518.33	846.68
518.69	861.43
519.05	876.42
519.41	891.71
519.77	907.32
520.13	922.82
520.49	938.14
520.85	953.66
521.21	969.39
521.57	985.53
521.93	1001.40
522.29	1017.86
522.65	1034.10
523.01	1050.37
523.37	1066.38
523.73	1082.61
524.09	1098.72
524.45	1115.17
524.81	1131.90
525.17	1148.75
525.53	1165.70
525.89	1182.59
526.25	1199.53
526.61	1215.93
526.97	1232.76
527.33	1249.30
527.68	1266.00
528.04	1282.62
528.40	1299.31
528.76	1316.40
529.12	1333.18
529.48	1350.02
529.84	1366.05
530.20	1382.86
530.56	1399.98
530.91	1417.43
531.27	1434.29
531.63	1450.71
531.99	1467.32
532.35	1483.36
532.71	1499.31
533.07	1515.66
533.42	1531.72
533.78	1547.74
534.14	1564.22
534.50	1579.57
534.86	1595.48
535.21	1610.65
535.57	1626.70
535.93	1642.13
536.29	1656.98
536.65	1672.17
537.00	1687.09
537.36	1702.40
537.72	1716.80
538.08	1731.21
538.44	1745.05
538.79	1759.00
539.15	1772.91
539.51	1786.71
539.87	1801.08
540.22	1814.96
540.58	1828.72
540.94	1842.06
541.29	1855.14
541.65	1867.83
542.01	1881.23
542.37	1893.63
542.72	1906.16
543.08	1917.95
543.44	1930.53
543.79	1941.75
544.15	1952.78
544.51	1964.32
544.87	1975.39
545.22	1986.41
545.58	1996.67
545.94	2006.53
546.29	2016.34
546.65	2026.19
547.01	2035.45
547.36	2044.23
547.72	2052.71
548.07	2060.62
548.43	2068.91
548.79	2076.82
549.14	2084.34
549.50	2091.69
549.86	2099.43
550.21	2106.75
550.57	2114.00
550.92	2120.64
551.28	2127.91
551.64	2134.96
551.99	2141.60
552.35	2147.80
552.70	2153.87
553.06	2159.70
553.41	2166.05
553.77	2172.11
554.13	2178.15
554.48	2184.18
554.84	2189.67
555.19	2194.96
555.55	2200.06
555.90	2204.44
556.26	2209.38
556.61	2214.19
556.97	2218.33
557.32	2222.42
557.68	2226.64
558.03	2230.85
558.39	2234.48
558.74	2239.02
559.10	2242.89
559.45	2246.52
559.81	2250.80
560.16	2254.60
560.52	2257.98
560.87	2261.51
561.23	2264.22
561.58	2267.29
561.94	2269.82
562.29	2272.25
562.64	2274.87
563.00	2277.57
563.35	2281.17
563.71	2284.29
564.06	2287.38
564.42	2290.28
564.77	2292.82
565.12	2294.91
565.48	2296.87
565.83	2298.74
566.19	2299.98
566.54	2300.94
566.89	2302.00
567.25	2302.37
567.60	2303.80
567.96	2305.45
568.31	2306.05
568.66	2307.03
569.02	2307.39
569.37	2307.79
569.72	2308.52
570.08	2308.79
570.43	2308.66
570.78	2307.84
571.14	2306.28
571.49	2304.95
571.84	2304.56
572.20	2303.19
572.55	2302.03
572.90	2300.40
573.26	2298.88
573.61	2297.16
573.96	2295.25
574.31	2292.30
574.67	2289.23
575.02	2285.47
575.37	2282.12
575.72	2278.16
576.08	2274.77
576.43	2271.52
576.78	2267.72
577.13	2264.50
577.49	2261.27
577.84	2257.80
578.19	2254.20
578.54	2250.44
578.90	2246.14
579.25	2240.54
579.60	2235.58
579.95	2230.60
580.30	2225.48
580.66	2220.28
581.01	2215.13
581.36	2210.04
581.71	2205.85
582.06	2201.36
582.42	2196.74
582.77	2191.24
583.12	2186.79
583.47	2182.04
583.82	2176.95
584.17	2171.58
584.53	2165.98
584.88	2160.23
585.23	2154.38
585.58	2148.81
585.93	2143.26
586.28	2138.57
586.63	2133.53
586.98	2128.46
587.34	2123.75
587.69	2118.77
588.04	2113.50
588.39	2107.87
588.74	2101.42
589.09	2095.05
589.44	2088.35
589.79	2082.34
590.14	2076.72
590.49	2070.10
590.84	2063.60
591.19	2057.43
591.54	2050.89
591.89	2043.41
592.25	2036.51
592.60	2029.20
592.95	2021.56
593.30	2014.18
593.65	2006.37
594.00	1999.11
594.35	1991.81
594.70	1983.67
595.05	1976.36
595.40	1969.01
595.75	1961.32
596.10	1954.94
596.45	1948.20
596.80	1941.87
597.15	1935.06
597.50	1927.96
597.85	1921.48
598.19	1914.88
598.54	1907.91
598.89	1901.38
599.24	1895.47
599.59	1888.72
599.94	1882.35
600.29	1876.03
600.64	1869.36
600.99	1861.81
601.34	1854.93
601.69	1847.88
602.04	1840.92
602.39	1833.57
602.74	1826.69
603.08	1820.09
603.43	1813.47
603.78	1806.10
604.13	1799.01
604.48	1791.76
604.83	1784.84
605.18	1777.86
605.53	1769.71
605.87	1761.48
606.22	1754.13
606.57	1746.05
606.92	1738.65
607.27	1731.53
607.62	1724.49
607.96	1717.28
608.31	1710.65
608.66	1703.04
609.01	1695.42
609.36	1687.87
609.70	1679.88
610.05	1671.74
610.40	1664.00
610.75	1655.55
611.10	1647.90
611.44	1639.33
611.79	1631.32
612.14	1622.57
612.49	1613.27
612.83	1604.89
613.18	1596.89
613.53	1588.97
613.88	1580.54
614.22	1572.32
614.57	1563.72
614.92	1555.67
615.27	1548.05
615.61	1539.64
615.96	1531.63
616.31	1524.00
616.65	1516.60
617.00	1508.93
617.35	1501.23
617.70	1492.84
618.04	1484.21
618.39	1475.94
618.74	1468.39
619.08	1460.04
619.43	1452.43
619.78	1445.58
620.12	1438.64
620.47	1430.95
620.82	1422.61
621.16	1415.17
621.51	1407.52
621.85	1399.86
622.20	1391.35
622.55	1383.05
622.89	1375.24
623.24	1367.64
623.59	1360.32
623.93	1352.76
624.28	1345.56
624.62	1338.11
624.97	1330.94
625.32	1324.37
625.66	1317.30
626.01	1310.10
626.35	1302.67
626.70	1294.95
627.04	1287.19
627.39	1279.17
627.73	1271.82
628.08	1264.96
628.43	1257.62
628.77	1250.19
629.12	1242.67
629.46	1235.51
629.81	1228.08
630.15	1220.90
630.50	1213.38
630.84	1205.09
631.19	1197.22
631.53	1189.78
631.88	1182.13
632.22	1174.52
632.57	1167.08
632.91	1159.58
633.26	1152.12
633.60	1144.76
633.95	1137.62
634.29	1130.64
634.64	1124.05
634.98	1116.67
635.32	1109.54
635.67	1102.97
636.01	1096.37
636.36	1089.61
636.70	1083.01
637.05	1076.43
637.39	1070.04
637.73	1063.63
638.08	1057.78
638.42	1051.78
638.77	1045.28
639.11	1038.69
639.45	1032.22
639.80	1025.58
640.14	1019.14
640.49	1012.66
640.83	1006.37
641.17	1000.16
641.52	993.81
641.86	987.35
642.20	981.56
642.55	975.20
642.89	968.69
643.23	962.25
643.58	956.51
643.92	950.29
644.26	944.18
644.61	938.10
644.95	932.08
645.29	925.46
645.64	918.80
645.98	912.50
646.32	906.72
646.66	900.78
647.01	895.04
647.35	889.35
647.69	883.49
648.04	877.95
648.38	872.16
648.72	866.10
649.06	860.10
649.41	854.23
649.75	848.22
650.09	842.31
650.43	836.37
650.78	830.09
651.12	824.14
651.46	818.42
651.80	812.66
652.14	807.28
652.49	801.85
652.83	796.64
653.17	790.91
653.51	785.06
653.85	779.69
654.20	774.01
654.54	767.96
654.88	762.23
655.22	756.37
655.56	750.68
655.90	745.32
656.25	739.97
656.59	734.51
656.93	729.38
657.27	724.20
657.61	718.87
657.95	713.79
658.29	708.76
658.64	703.54
658.98	698.25
659.32	692.70
659.66	687.56
660.00	682.17
660.34	677.25
660.68	672.45
661.02	667.42
661.36	662.74
661.70	658.28
662.05	653.95
662.39	649.55
662.73	645.10
663.07	640.64
663.41	636.21
663.75	631.78
664.09	627.30
664.43	622.85
664.77	618.74
665.11	614.54
665.45	610.41
665.79	606.34
666.13	602.20
666.47	598.15
666.81	593.98
667.15	589.91
667.49	585.96
667.83	582.14
668.17	578.15
668.51	574.12
668.85	570.08
669.19	566.17
669.53	562.35
669.87	558.44
670.21	554.78
670.55	551.16
670.89	547.67
671.23	544.23
671.57	540.76
671.91	537.23
672.25	533.72
672.58	530.19
672.92	526.77
673.26	523.63
673.60	520.51
673.94	517.42
674.28	514.54
674.62	511.64
674.96	508.53
675.30	505.68
675.64	502.70
675.97	500.01
676.31	497.19
676.65	494.32
676.99	491.64
677.33	488.72
677.67	485.92
678.01	482.93
678.34	479.98
678.68	477.16
679.02	474.26
679.36	471.45
679.70	468.76
680.04	466.06
680.37	463.17
680.71	460.39
681.05	457.78
681.39	455.05
681.73	452.38
682.06	449.85
682.40	447.25
682.74	444.76
683.08	442.17
683.42	439.58
683.75	437.13
684.09	434.59
684.43	432.19
684.77	429.68
685.10	427.32
685.44	425.01
685.78	422.66
686.12	420.49
686.45	418.24
686.79	415.99
687.13	413.74
687.46	411.54
687.80	409.36
688.14	407.13
688.48	405.07
688.81	402.83
689.15	400.67
689.49	398.54
689.82	396.47
690.16	394.40
690.50	392.43
690.83	390.45
691.17	388.48
691.51	386.61
691.84	384.79
692.18	382.91
692.52	380.92
692.85	379.05
693.19	377.19
693.52	375.39
693.86	373.53
694.20	371.81
694.53	370.06
694.87	368.21
695.21	366.49
695.54	364.70
695.88	362.99
696.21	361.31
696.55	359.63
696.88	357.92
697.22	356.28
697.56	354.70
697.89	353.02
698.23	351.37
698.56	349.78
698.90	348.19
699.23	346.52
699.57	345.00
699.90	343.48
700.24	341.91
700.58	340.36
700.91	338.83
701.25	337.32
701.58	335.94
701.92	334.58
702.25	333.19
702.59	331.81
702.92	330.51
703.26	329.17
703.59	327.89
703.93	326.75
704.26	325.52
704.60	324.19
704.93	322.95
705.26	321.74
705.60	320.52
705.93	319.37
706.27	318.30
706.60	317.25
706.94	316.12
707.27	315.00
707.61	313.92
707.94	312.91
708.27	311.85
708.61	310.77
708.94	309.75
709.28	308.73
709.61	307.75
709.94	306.72
710.28	305.73
710.61	304.78
710.95	303.69
711.28	302.72
711.61	301.77
711.95	300.88
712.28	299.93
712.61	298.95
712.95	298.02
713.28	297.17
713.61	296.25
713.95	295.37
714.28	294.52
714.61	293.69
714.95	292.85
715.28	292.00
715.61	291.11
715.95	290.27
716.28	289.40
716.61	288.57
716.95	287.83
717.28	287.05
717.61	286.24
717.94	285.53
718.28	284.71
718.61	284.00
718.94	283.28
719.27	282.61
719.61	281.98
719.94	281.30
720.27	280.56
720.60	279.90
720.94	279.28
721.27	278.66
721.60	278.11
721.93	277.53
722.27	276.99
722.60	276.47
722.93	275.89
723.26	275.36
723.59	274.82
723.93	274.26
724.26	273.76
724.59	273.24
724.92	272.69
725.25	272.21
725.59	271.74
725.92	271.20
726.25	270.72
726.58	270.19
726.91	269.71
727.24	269.24
727.57	268.79
727.91	268.26
728.24	267.82
728.57	267.29
728.90	266.85
729.23	266.34
729.56	265.90
729.89	265.46
730.22	265.02
730.55	264.53
730.89	264.06
731.22	263.60
731.55	263.15
731.88	262.74
732.21	262.34
732.54	261.89
732.87	261.50
733.20	261.08
733.53	260.73
733.86	260.37
734.19	260.00
734.52	259.60
734.85	259.37
735.18	258.95
735.51	258.58
735.84	258.21
736.17	257.86
736.50	257.45
736.83	257.23
737.16	256.88
737.49	256.59
737.82	256.28
738.15	255.94
738.48	255.61
738.81	255.27
739.14	254.93
739.47	254.62
739.80	254.30
740.13	254.02
740.46	253.65
740.79	253.35
741.12	253.07
741.45	252.78
741.78	252.38
742.11	252.11
742.44	251.81
742.77	251.49
743.10	251.16
743.43	250.86
743.75	250.47
744.08	250.29
744.41	250.00
744.74	249.69
745.07	249.42
745.40	249.21
745.73	248.98
746.06	248.69
746.39	248.42
746.71	248.18
747.04	247.86
747.37	247.58
747.70	247.32
748.03	247.01
748.36	246.78
748.68	246.53
749.01	246.23
749.34	246.01
749.67	245.80
750.00	245.60
750.33	245.46
750.65	245.23
750.98	244.89
751.31	244.67
751.64	244.47
751.97	244.31
752.29	244.04
752.62	243.79
752.95	243.58
753.28	243.39
753.60	243.16
753.93	243.01
754.26	242.83
754.59	242.60
754.91	242.41
755.24	242.20
755.57	241.99
755.90	241.83
756.22	241.66
756.55	241.43
756.88	241.25
757.20	241.01
757.53	240.83
757.86	240.68
758.19	240.48
758.51	240.32
758.84	240.10
759.17	239.92
759.49	239.77
759.82	239.64
760.15	239.44
760.47	239.28
760.80	239.14
761.13	239.05
761.45	238.90
761.78	238.75
762.11	238.61
762.43	238.49
762.76	238.37
763.08	238.23
763.41	238.10
763.74	237.96
764.06	237.80
764.39	237.68
764.71	237.53
765.04	237.38
765.37	237.23
765.69	237.15
766.02	237.02
766.34	236.87
766.67	236.71
767.00	236.66
767.32	236.59
767.65	236.51
767.97	236.40
768.30	236.33
768.62	236.24
768.95	236.12
769.27	236.01
769.60	235.92
769.92	235.78
770.25	235.71
770.57	235.62
770.90	235.53
771.22	235.44
771.55	235.36
771.87	235.30
772.20	235.20
772.52	235.16
772.85	235.21
773.17	235.18
773.50	235.09
773.82	234.95
774.15	234.80
774.47	234.67
774.80	234.52
775.12	234.41
775.45	234.30
775.77	234.23
776.09	234.15
776.42	234.05
776.74	233.98
777.07	233.86
777.39	233.76
777.72	233.69
778.04	233.59
778.36	233.50
778.69	233.42
779.01	233.40
779.33	233.24
779.66	233.05
779.98	232.93
780.31	232.90
780.63	232.88
780.95	232.85
781.28	232.80
781.60	232.71
781.92	232.62
782.25	232.58
782.57	232.46
782.89	232.40
783.22	232.31
783.54	232.26
783.86	232.23
784.19	232.12
784.51	232.09
784.83	232.04
785.16	232.00
785.48	231.97
785.80	231.85
786.12	231.81
786.45	231.78
786.77	231.72
787.09	231.65
