SpectraSuite Data File
++++++++++++++++++++++++++++++++++++
Date: Fri Feb 01 16:43:48 EST 2013
User: group
Dark Spectrum Present: No
Reference Spectrum Present: No
Number of Sampled Component Spectra: 1
Spectrometers: USB2E7196
Integration Time (usec): 35000 (USB2E7196)
Spectra Averaged: 100 (USB2E7196)
Boxcar Smoothing: 10 (USB2E7196)
Correct for Electrical Dark: No (USB2E7196)
Strobe/Lamp Enabled: No (USB2E7196)
Correct for Detector Non-linearity: No (USB2E7196)
Correct for Stray Light: No (USB2E7196)
Number of Pixels in Processed Spectrum: 2048
>>>>>Begin Processed Spectral Data<<<<<
339.09	0.00
339.48	214.23
339.86	214.89
340.24	216.23
340.63	217.86
341.01	221.01
341.39	220.29
341.78	222.32
342.16	223.19
342.54	223.41
342.93	212.17
343.31	222.89
343.69	223.41
344.07	223.89
344.46	224.34
344.84	224.71
345.22	224.93
345.60	225.19
345.99	225.33
346.37	225.47
346.75	225.57
347.13	225.65
347.52	225.69
347.90	225.75
348.28	225.74
348.66	225.74
349.05	225.71
349.43	225.74
349.81	225.80
350.19	225.82
350.57	225.89
350.96	225.97
351.34	226.03
351.72	226.10
352.10	226.20
352.48	226.26
352.87	226.33
353.25	226.39
353.63	226.45
354.01	226.54
354.39	226.60
354.77	226.70
355.15	226.81
355.54	226.88
355.92	226.91
356.30	226.99
356.68	227.10
357.06	227.18
357.44	227.24
357.82	227.31
358.20	227.38
358.58	227.41
358.97	227.42
359.35	227.49
359.73	227.55
360.11	227.59
360.49	227.65
360.87	227.68
361.25	227.73
361.63	227.80
362.01	227.84
362.39	227.88
362.77	227.93
363.15	227.94
363.53	227.96
363.91	227.96
364.29	227.97
364.67	227.90
365.05	227.92
365.43	227.92
365.81	227.95
366.19	227.95
366.57	227.99
366.95	228.02
367.33	228.00
367.71	228.01
368.09	228.01
368.47	228.00
368.85	228.00
369.23	228.01
369.61	227.94
369.99	227.93
370.37	227.89
370.75	227.86
371.13	227.77
371.51	227.74
371.89	227.72
372.27	227.71
372.65	227.68
373.03	227.61
373.41	227.57
373.78	227.48
374.16	227.43
374.54	227.33
374.92	227.28
375.30	227.21
375.68	227.13
376.06	227.06
376.44	226.97
376.82	226.90
377.19	226.83
377.57	226.77
377.95	226.68
378.33	226.62
378.71	226.52
379.09	226.49
379.47	226.42
379.84	226.35
380.22	226.27
380.60	226.17
380.98	226.13
381.36	226.08
381.73	226.01
382.11	225.99
382.49	225.96
382.87	225.88
383.25	225.85
383.62	225.88
384.00	225.82
384.38	225.78
384.76	225.75
385.13	225.74
385.51	225.70
385.89	225.64
386.27	225.58
386.64	225.53
387.02	225.46
387.40	225.43
387.78	225.41
388.15	225.39
388.53	225.35
388.91	225.32
389.29	225.27
389.66	225.27
390.04	225.19
390.42	225.18
390.79	225.18
391.17	225.16
391.55	225.03
391.92	225.01
392.30	224.99
392.68	224.96
393.05	224.97
393.43	224.96
393.81	224.95
394.18	225.00
394.56	225.04
394.94	225.10
395.31	225.10
395.69	225.14
396.06	225.16
396.44	225.23
396.82	225.28
397.19	225.35
397.57	225.39
397.95	225.49
398.32	225.52
398.70	225.57
399.07	225.64
399.45	225.72
399.82	225.77
400.20	225.86
400.58	225.91
400.95	225.91
401.33	226.02
401.70	226.16
402.08	226.21
402.45	226.26
402.83	226.36
403.20	226.46
403.58	226.55
403.95	226.67
404.33	226.79
404.71	226.86
405.08	227.05
405.46	227.14
405.83	227.26
406.21	227.41
406.58	227.53
406.96	227.70
407.33	227.88
407.70	228.09
408.08	228.35
408.45	228.60
408.83	228.87
409.20	229.06
409.58	229.26
409.95	229.54
410.33	229.81
410.70	230.06
411.08	230.35
411.45	230.64
411.82	230.93
412.20	231.27
412.57	231.71
412.95	232.01
413.32	232.45
413.69	232.84
414.07	233.29
414.44	233.77
414.82	234.23
415.19	234.74
415.56	235.27
415.94	235.80
416.31	236.43
416.68	237.03
417.06	237.73
417.43	238.40
417.81	239.15
418.18	239.92
418.55	240.75
418.93	241.64
419.30	242.51
419.67	243.48
420.04	244.44
420.42	245.40
420.79	246.53
421.16	247.67
421.54	248.84
421.91	250.04
422.28	251.30
422.66	252.65
423.03	253.97
423.40	255.29
423.77	256.67
424.15	258.05
424.52	259.51
424.89	261.12
425.26	262.70
425.64	264.13
426.01	265.74
426.38	267.37
426.75	269.01
427.13	270.75
427.50	272.48
427.87	274.30
428.24	276.14
428.61	277.92
428.99	279.83
429.36	281.87
429.73	283.90
430.10	285.90
430.47	287.93
430.85	289.96
431.22	292.19
431.59	294.55
431.96	296.78
432.33	299.25
432.70	301.59
433.08	304.32
433.45	306.95
433.82	309.52
434.19	312.36
434.56	315.13
434.93	317.74
435.30	320.34
435.68	323.22
436.05	326.01
436.42	328.74
436.79	331.21
437.16	333.90
437.53	336.70
437.90	339.49
438.27	342.18
438.64	345.03
439.01	347.58
439.38	349.76
439.75	351.92
440.13	354.36
440.50	356.68
440.87	358.50
441.24	360.39
441.61	362.49
441.98	364.01
442.35	365.81
442.72	367.62
443.09	369.44
443.46	370.43
443.83	371.03
444.20	371.51
444.57	372.37
444.94	372.65
445.31	373.02
445.68	373.43
446.05	373.53
446.42	373.16
446.79	372.79
447.16	372.38
447.53	372.08
447.90	370.97
448.27	369.86
448.64	368.32
449.01	367.21
449.37	365.30
449.74	363.41
450.11	361.22
450.48	358.82
450.85	356.32
451.22	354.24
451.59	352.26
451.96	350.35
452.33	347.72
452.70	345.43
453.07	342.66
453.43	339.71
453.80	336.94
454.17	334.28
454.54	331.77
454.91	329.08
455.28	326.42
455.65	323.96
456.02	321.51
456.38	319.37
456.75	316.79
457.12	314.56
457.49	312.36
457.86	310.22
458.23	308.40
458.59	306.36
458.96	304.29
459.33	302.45
459.70	300.66
460.07	299.23
460.43	297.52
460.80	295.88
461.17	294.46
461.54	293.01
461.91	291.65
462.27	290.21
462.64	289.01
463.01	287.69
463.38	286.43
463.74	285.07
464.11	283.94
464.48	282.90
464.85	281.79
465.21	280.95
465.58	279.97
465.95	278.88
466.32	277.98
466.68	277.03
467.05	276.15
467.42	275.27
467.78	274.33
468.15	273.49
468.52	272.84
468.88	272.00
469.25	271.20
469.62	270.58
469.98	269.90
470.35	269.26
470.72	268.68
471.08	268.00
471.45	267.50
471.82	266.97
472.18	266.38
472.55	265.97
472.92	265.46
473.28	265.04
473.65	264.60
474.02	264.20
474.38	263.87
474.75	263.54
475.11	263.24
475.48	263.00
475.85	262.78
476.21	262.57
476.58	262.38
476.94	262.30
477.31	262.09
477.67	262.00
478.04	261.88
478.41	261.83
478.77	261.88
479.14	261.82
479.50	261.83
479.87	261.92
480.23	262.03
480.60	262.09
480.96	262.23
481.33	262.47
481.69	262.68
482.06	262.90
482.42	263.12
482.79	263.36
483.15	263.67
483.52	264.04
483.88	264.39
484.25	264.81
484.61	265.19
484.98	265.66
485.34	266.20
485.71	266.79
486.07	267.43
486.44	268.01
486.80	268.70
487.17	269.42
487.53	270.24
487.90	271.08
488.26	272.03
488.62	272.99
488.99	273.94
489.35	274.96
489.72	276.08
490.08	277.30
490.44	278.53
490.81	279.87
491.17	281.21
491.54	282.69
491.90	284.24
492.26	285.92
492.63	287.67
492.99	289.43
493.36	291.34
493.72	293.34
494.08	295.45
494.45	297.68
494.81	300.04
495.17	302.42
495.54	305.01
495.90	307.66
496.26	310.47
496.63	313.45
496.99	316.58
497.35	319.83
497.72	323.23
498.08	326.73
498.44	330.41
498.80	334.38
499.17	338.40
499.53	342.55
499.89	346.93
500.26	351.45
500.62	356.09
500.98	361.05
501.34	366.13
501.71	371.49
502.07	376.93
502.43	382.59
502.79	388.41
503.16	394.41
503.52	400.69
503.88	407.05
504.24	413.68
504.60	420.53
504.97	427.63
505.33	434.86
505.69	442.55
506.05	450.34
506.41	458.17
506.78	466.31
507.14	474.75
507.50	483.37
507.86	492.33
508.22	501.54
508.59	510.74
508.95	520.26
509.31	530.02
509.67	540.08
510.03	550.33
510.39	560.88
510.75	571.64
511.12	582.47
511.48	593.76
511.84	605.17
512.20	616.60
512.56	628.51
512.92	640.66
513.28	653.02
513.64	665.37
514.00	678.00
514.37	690.87
514.73	703.89
515.09	716.93
515.45	730.18
515.81	743.62
516.17	757.55
516.53	771.66
516.89	785.67
517.25	799.77
517.61	814.10
517.97	828.51
518.33	842.91
518.69	857.66
519.05	872.55
519.41	887.66
519.77	903.02
520.13	918.44
520.49	933.68
520.85	948.90
521.21	964.53
521.57	980.67
521.93	996.33
522.29	1012.56
522.65	1028.65
523.01	1044.65
523.37	1060.59
523.73	1076.60
524.09	1092.49
524.45	1108.58
524.81	1125.10
525.17	1141.68
525.53	1158.30
525.89	1174.92
526.25	1191.60
526.61	1207.81
526.97	1224.43
527.33	1240.84
527.68	1257.15
528.04	1273.56
528.40	1290.04
528.76	1306.95
529.12	1323.35
529.48	1340.05
529.84	1355.89
530.20	1372.33
530.56	1389.13
530.91	1406.37
531.27	1423.09
531.63	1439.39
531.99	1455.93
532.35	1471.76
532.71	1487.56
533.07	1503.82
533.42	1519.78
533.78	1535.76
534.14	1551.95
534.50	1567.01
534.86	1582.62
535.21	1597.67
535.57	1613.40
535.93	1628.59
536.29	1643.12
536.65	1657.97
537.00	1672.67
537.36	1687.83
537.72	1702.18
538.08	1716.60
538.44	1730.32
538.79	1743.98
539.15	1757.54
539.51	1771.06
539.87	1785.25
540.22	1798.76
540.58	1812.33
540.94	1825.22
541.29	1837.70
541.65	1850.05
542.01	1863.13
542.37	1875.27
542.72	1887.51
543.08	1899.14
543.44	1911.38
543.79	1922.60
544.15	1933.49
544.51	1944.85
544.87	1955.56
545.22	1966.36
545.58	1976.47
545.94	1986.08
546.29	1995.64
546.65	2005.43
547.01	2014.65
547.36	2023.33
547.72	2031.71
548.07	2039.37
548.43	2047.51
548.79	2055.41
549.14	2063.00
549.50	2070.23
549.86	2077.87
550.21	2085.07
550.57	2092.25
550.92	2098.79
551.28	2105.79
551.64	2112.78
551.99	2119.25
552.35	2125.54
552.70	2131.59
553.06	2137.46
553.41	2143.60
553.77	2149.66
554.13	2155.61
554.48	2161.60
554.84	2166.96
555.19	2172.10
555.55	2177.33
555.90	2181.80
556.26	2186.90
556.61	2191.53
556.97	2195.98
557.32	2200.25
557.68	2204.48
558.03	2208.64
558.39	2212.25
558.74	2216.86
559.10	2220.88
559.45	2224.48
559.81	2228.59
560.16	2232.34
560.52	2235.60
560.87	2239.23
561.23	2241.83
561.58	2244.67
561.94	2247.28
562.29	2249.61
562.64	2252.63
563.00	2255.15
563.35	2258.60
563.71	2261.59
564.06	2264.68
564.42	2267.47
564.77	2270.06
565.12	2272.49
565.48	2274.46
565.83	2276.54
566.19	2278.03
566.54	2278.61
566.89	2279.85
567.25	2280.72
567.60	2282.12
567.96	2283.90
568.31	2284.62
568.66	2286.00
569.02	2286.71
569.37	2287.07
569.72	2287.98
570.08	2288.09
570.43	2288.18
570.78	2287.81
571.14	2286.50
571.49	2285.40
571.84	2285.16
572.20	2284.13
572.55	2283.08
572.90	2281.57
573.26	2280.22
573.61	2278.27
573.96	2276.93
574.31	2274.04
574.67	2271.09
575.02	2267.51
575.37	2264.07
575.72	2260.61
576.08	2257.09
576.43	2253.69
576.78	2250.14
577.13	2247.07
577.49	2243.82
577.84	2240.54
578.19	2236.84
578.54	2233.38
578.90	2229.39
579.25	2223.89
579.60	2219.03
579.95	2214.14
580.30	2209.24
580.66	2204.20
581.01	2199.37
581.36	2194.42
581.71	2190.48
582.06	2186.24
582.42	2181.97
582.77	2176.91
583.12	2172.31
583.47	2167.86
583.82	2163.23
584.17	2158.16
584.53	2152.80
584.88	2147.38
585.23	2141.79
585.58	2136.36
585.93	2130.79
586.28	2125.82
586.63	2120.87
586.98	2115.81
587.34	2111.09
587.69	2106.11
588.04	2100.98
588.39	2095.46
588.74	2089.02
589.09	2082.82
589.44	2075.94
589.79	2069.84
590.14	2064.22
590.49	2057.61
590.84	2051.23
591.19	2045.20
591.54	2038.72
591.89	2031.57
592.25	2024.99
592.60	2017.84
592.95	2010.52
593.30	2003.40
593.65	1995.96
594.00	1989.03
594.35	1981.87
594.70	1973.89
595.05	1967.24
595.40	1960.02
595.75	1952.71
596.10	1946.82
596.45	1940.20
596.80	1934.10
597.15	1927.64
597.50	1920.98
597.85	1914.66
598.19	1908.22
598.54	1901.40
598.89	1894.91
599.24	1889.00
599.59	1882.44
599.94	1876.17
600.29	1869.85
600.64	1863.13
600.99	1855.81
601.34	1849.13
601.69	1842.24
602.04	1835.55
602.39	1827.94
602.74	1821.31
603.08	1814.65
603.43	1807.82
603.78	1800.54
604.13	1793.49
604.48	1786.40
604.83	1779.37
605.18	1772.60
605.53	1764.78
605.87	1756.63
606.22	1749.34
606.57	1741.43
606.92	1733.94
607.27	1726.80
607.62	1719.97
607.96	1712.92
608.31	1706.59
608.66	1699.00
609.01	1691.56
609.36	1684.04
609.70	1676.12
610.05	1668.20
610.40	1660.59
610.75	1652.43
611.10	1644.92
611.44	1636.53
611.79	1628.42
612.14	1619.91
612.49	1610.85
612.83	1602.38
613.18	1594.33
613.53	1586.32
613.88	1577.77
614.22	1569.74
614.57	1561.17
614.92	1553.19
615.27	1545.84
615.61	1537.54
615.96	1529.49
616.31	1521.84
616.65	1514.51
617.00	1506.98
617.35	1499.13
617.70	1490.86
618.04	1482.43
618.39	1474.12
618.74	1466.60
619.08	1458.25
619.43	1450.57
619.78	1443.64
620.12	1436.53
620.47	1429.10
620.82	1420.90
621.16	1413.45
621.51	1405.76
621.85	1398.17
622.20	1389.68
622.55	1381.22
622.89	1373.29
623.24	1365.69
623.59	1358.24
623.93	1350.78
624.28	1343.54
624.62	1336.23
624.97	1329.02
625.32	1322.15
625.66	1315.15
626.01	1307.85
626.35	1300.72
626.70	1292.91
627.04	1285.26
627.39	1277.40
627.73	1269.98
628.08	1263.17
628.43	1256.03
628.77	1248.78
629.12	1241.27
629.46	1234.12
629.81	1226.62
630.15	1219.34
630.50	1212.00
630.84	1203.89
631.19	1195.82
631.53	1188.35
631.88	1180.65
632.22	1173.06
632.57	1165.72
632.91	1158.22
633.26	1150.94
633.60	1143.42
633.95	1136.31
634.29	1129.04
634.64	1122.34
634.98	1115.13
635.32	1108.03
635.67	1101.40
636.01	1094.68
636.36	1087.89
636.70	1081.40
637.05	1074.82
637.39	1068.44
637.73	1061.99
638.08	1056.08
638.42	1050.20
638.77	1043.80
639.11	1037.29
639.45	1030.94
639.80	1024.35
640.14	1018.00
640.49	1011.50
640.83	1005.20
641.17	999.11
641.52	992.93
641.86	986.51
642.20	980.61
642.55	974.19
642.89	967.77
643.23	961.14
643.58	955.42
643.92	949.32
644.26	943.34
644.61	937.31
644.95	931.21
645.29	924.68
645.64	917.93
645.98	911.58
646.32	905.70
646.66	899.64
647.01	893.86
647.35	888.14
647.69	882.27
648.04	876.78
648.38	870.99
648.72	865.09
649.06	859.12
649.41	853.14
649.75	847.25
650.09	841.30
650.43	835.61
650.78	829.45
651.12	823.37
651.46	817.65
651.80	811.93
652.14	806.58
652.49	801.28
652.83	796.10
653.17	790.44
653.51	784.80
653.85	779.48
654.20	773.90
654.54	767.86
654.88	762.08
655.22	756.17
655.56	750.43
655.90	744.86
656.25	739.63
656.59	734.30
656.93	729.27
657.27	724.13
657.61	718.69
657.95	713.64
658.29	708.53
658.64	703.22
658.98	697.79
659.32	692.29
659.66	687.01
660.00	681.77
660.34	676.88
660.68	671.92
661.02	666.84
661.36	662.09
661.70	657.64
662.05	653.28
662.39	648.99
662.73	644.53
663.07	640.14
663.41	635.66
663.75	631.13
664.09	626.53
664.43	622.07
664.77	618.00
665.11	613.71
665.45	609.53
665.79	605.51
666.13	601.45
666.47	597.26
666.81	593.19
667.15	589.09
667.49	585.14
667.83	581.28
668.17	577.33
668.51	573.33
668.85	569.29
669.19	565.36
669.53	561.56
669.87	557.74
670.21	554.04
670.55	550.44
670.89	547.07
671.23	543.70
671.57	540.25
671.91	536.72
672.25	533.26
672.58	529.82
672.92	526.38
673.26	523.16
673.60	520.10
673.94	516.94
674.28	513.97
674.62	511.02
674.96	507.89
675.30	505.01
675.64	502.00
675.97	499.23
676.31	496.47
676.65	493.51
676.99	490.82
677.33	487.98
677.67	485.09
678.01	482.06
678.34	479.02
678.68	476.17
679.02	473.30
679.36	470.45
679.70	467.76
680.04	465.00
680.37	462.21
680.71	459.32
681.05	456.66
681.39	453.96
681.73	451.26
682.06	448.81
682.40	446.23
682.74	443.75
683.08	441.19
683.42	438.61
683.75	436.17
684.09	433.54
684.43	431.10
684.77	428.66
685.10	426.28
685.44	423.99
685.78	421.62
686.12	419.39
686.45	417.15
686.79	414.90
687.13	412.77
687.46	410.57
687.80	408.45
688.14	406.27
688.48	404.26
688.81	402.06
689.15	399.88
689.49	397.76
689.82	395.59
690.16	393.46
690.50	391.48
690.83	389.51
691.17	387.52
691.51	385.59
691.84	383.74
692.18	381.84
692.52	379.92
692.85	378.04
693.19	376.14
693.52	374.31
693.86	372.41
694.20	370.56
694.53	368.77
694.87	366.95
695.21	365.15
695.54	363.27
695.88	361.54
696.21	359.83
696.55	358.13
696.88	356.44
697.22	354.82
697.56	353.12
697.89	351.48
698.23	349.93
698.56	348.36
698.90	346.77
699.23	345.12
699.57	343.53
699.90	341.95
700.24	340.40
700.58	338.85
700.91	337.39
701.25	335.97
701.58	334.60
701.92	333.22
702.25	331.84
702.59	330.47
702.92	329.12
703.26	327.81
703.59	326.55
703.93	325.38
704.26	324.10
704.60	322.87
704.93	321.60
705.26	320.32
705.60	319.14
705.93	317.98
706.27	316.92
706.60	315.88
706.94	314.82
707.27	313.71
707.61	312.66
707.94	311.59
708.27	310.51
708.61	309.45
708.94	308.46
709.28	307.48
709.61	306.54
709.94	305.59
710.28	304.57
710.61	303.57
710.95	302.48
711.28	301.58
711.61	300.64
711.95	299.71
712.28	298.78
712.61	297.75
712.95	296.84
713.28	295.95
713.61	295.06
713.95	294.21
714.28	293.39
714.61	292.52
714.95	291.70
715.28	290.89
715.61	289.98
715.95	289.10
716.28	288.25
716.61	287.40
716.95	286.57
717.28	285.83
717.61	285.06
717.94	284.32
718.28	283.51
718.61	282.76
718.94	282.07
719.27	281.43
719.61	280.79
719.94	280.13
720.27	279.46
720.60	278.75
720.94	278.12
721.27	277.47
721.60	276.89
721.93	276.27
722.27	275.70
722.60	275.18
722.93	274.64
723.26	274.11
723.59	273.58
723.93	273.01
724.26	272.40
724.59	271.85
724.92	271.33
725.25	270.82
725.59	270.29
725.92	269.77
726.25	269.26
726.58	268.76
726.91	268.25
727.24	267.77
727.57	267.31
727.91	266.77
728.24	266.35
728.57	265.86
728.90	265.41
729.23	264.92
729.56	264.48
729.89	264.01
730.22	263.51
730.55	263.03
730.89	262.57
731.22	262.17
731.55	261.73
731.88	261.30
732.21	260.85
732.54	260.42
732.87	259.96
733.20	259.55
733.53	259.14
733.86	258.75
734.19	258.34
734.52	257.95
734.85	257.64
735.18	257.17
735.51	256.81
735.84	256.42
736.17	256.08
736.50	255.69
736.83	255.44
737.16	255.12
737.49	254.81
737.82	254.49
738.15	254.15
738.48	253.78
738.81	253.46
739.14	253.16
739.47	252.85
739.80	252.57
740.13	252.23
740.46	251.90
740.79	251.58
741.12	251.27
741.45	250.96
741.78	250.62
742.11	250.34
742.44	250.01
742.77	249.71
743.10	249.37
743.43	249.06
743.75	248.65
744.08	248.46
744.41	248.15
744.74	247.87
745.07	247.57
745.40	247.39
745.73	247.14
746.06	246.87
746.39	246.62
746.71	246.34
747.04	246.04
747.37	245.79
747.70	245.55
748.03	245.30
748.36	245.08
748.68	244.85
749.01	244.62
749.34	244.39
749.67	244.14
750.00	243.93
750.33	243.80
750.65	243.58
750.98	243.26
751.31	243.07
751.64	242.83
751.97	242.68
752.29	242.43
752.62	242.20
752.95	241.97
753.28	241.75
753.60	241.55
753.93	241.40
754.26	241.23
754.59	241.00
754.91	240.82
755.24	240.59
755.57	240.38
755.90	240.19
756.22	239.99
756.55	239.83
756.88	239.61
757.20	239.33
757.53	239.11
757.86	238.97
758.19	238.78
758.51	238.64
758.84	238.42
759.17	238.27
759.49	238.11
759.82	238.05
760.15	237.88
760.47	237.76
760.80	237.61
761.13	237.49
761.45	237.30
761.78	237.14
762.11	237.01
762.43	236.84
762.76	236.71
763.08	236.62
763.41	236.48
763.74	236.38
764.06	236.27
764.39	236.17
764.71	236.01
765.04	235.88
765.37	235.77
765.69	235.63
766.02	235.51
766.34	235.39
766.67	235.19
767.00	235.12
767.32	235.04
767.65	234.98
767.97	234.84
768.30	234.76
768.62	234.63
768.95	234.54
769.27	234.45
769.60	234.34
769.92	234.21
770.25	234.11
770.57	234.01
770.90	233.91
771.22	233.83
771.55	233.77
771.87	233.71
772.20	233.62
772.52	233.63
772.85	233.67
773.17	233.56
773.50	233.53
773.82	233.40
774.15	233.26
774.47	233.09
774.80	233.01
775.12	232.93
775.45	232.92
775.77	232.84
776.09	232.77
776.42	232.71
776.74	232.66
777.07	232.59
777.39	232.52
777.72	232.43
778.04	232.35
778.36	232.29
778.69	232.19
779.01	232.11
779.33	231.95
779.66	231.78
779.98	231.74
780.31	231.68
780.63	231.66
780.95	231.61
781.28	231.58
781.60	231.51
781.92	231.44
782.25	231.33
782.57	231.26
782.89	231.21
783.22	231.17
783.54	231.07
783.86	231.00
784.19	230.95
784.51	230.94
784.83	230.87
785.16	230.82
785.48	230.78
785.80	230.77
786.12	230.73
786.45	230.68
786.77	230.62
787.09	230.55
