SpectraSuite Data File
++++++++++++++++++++++++++++++++++++
Date: Fri Feb 01 17:34:25 EST 2013
User: group
Dark Spectrum Present: No
Reference Spectrum Present: No
Number of Sampled Component Spectra: 1
Spectrometers: USB2E7196
Integration Time (usec): 35000 (USB2E7196)
Spectra Averaged: 100 (USB2E7196)
Boxcar Smoothing: 10 (USB2E7196)
Correct for Electrical Dark: No (USB2E7196)
Strobe/Lamp Enabled: No (USB2E7196)
Correct for Detector Non-linearity: No (USB2E7196)
Correct for Stray Light: No (USB2E7196)
Number of Pixels in Processed Spectrum: 2048
>>>>>Begin Processed Spectral Data<<<<<
339.09	0.00
339.48	213.63
339.86	214.38
340.24	216.75
340.63	217.85
341.01	220.72
341.39	219.82
341.78	221.06
342.16	223.15
342.54	223.44
342.93	211.74
343.31	222.43
343.69	222.94
344.07	223.41
344.46	223.81
344.84	224.15
345.22	224.35
345.60	224.65
345.99	224.87
346.37	225.01
346.75	225.08
347.13	225.14
347.52	225.18
347.90	225.27
348.28	225.28
348.66	225.34
349.05	225.32
349.43	225.34
349.81	225.38
350.19	225.44
350.57	225.47
350.96	225.53
351.34	225.61
351.72	225.70
352.10	225.80
352.48	225.86
352.87	225.94
353.25	226.02
353.63	226.03
354.01	226.08
354.39	226.10
354.77	226.19
355.15	226.28
355.54	226.35
355.92	226.35
356.30	226.44
356.68	226.54
357.06	226.59
357.44	226.69
357.82	226.76
358.20	226.80
358.58	226.82
358.97	226.83
359.35	226.90
359.73	227.01
360.11	227.04
360.49	227.05
360.87	227.07
361.25	227.10
361.63	227.18
362.01	227.21
362.39	227.25
362.77	227.27
363.15	227.29
363.53	227.30
363.91	227.34
364.29	227.37
364.67	227.27
365.05	227.32
365.43	227.27
365.81	227.29
366.19	227.32
366.57	227.37
366.95	227.41
367.33	227.36
367.71	227.27
368.09	227.27
368.47	227.25
368.85	227.22
369.23	227.21
369.61	227.16
369.99	227.15
370.37	227.12
370.75	227.10
371.13	227.06
371.51	227.02
371.89	227.00
372.27	226.90
372.65	226.86
373.03	226.80
373.41	226.79
373.78	226.71
374.16	226.60
374.54	226.51
374.92	226.42
375.30	226.38
375.68	226.35
376.06	226.31
376.44	226.24
376.82	226.18
377.19	226.10
377.57	226.02
377.95	225.93
378.33	225.86
378.71	225.77
379.09	225.71
379.47	225.66
379.84	225.58
380.22	225.54
380.60	225.49
380.98	225.43
381.36	225.35
381.73	225.29
382.11	225.26
382.49	225.19
382.87	225.14
383.25	225.07
383.62	225.10
384.00	225.02
384.38	224.99
384.76	224.98
385.13	225.01
385.51	224.95
385.89	224.89
386.27	224.85
386.64	224.81
387.02	224.77
387.40	224.70
387.78	224.65
388.15	224.62
388.53	224.59
388.91	224.53
389.29	224.52
389.66	224.52
390.04	224.48
390.42	224.49
390.79	224.47
391.17	224.47
391.55	224.36
391.92	224.38
392.30	224.39
392.68	224.37
393.05	224.31
393.43	224.33
393.81	224.37
394.18	224.36
394.56	224.39
394.94	224.44
395.31	224.46
395.69	224.54
396.06	224.57
396.44	224.61
396.82	224.62
397.19	224.70
397.57	224.68
397.95	224.73
398.32	224.76
398.70	224.83
399.07	224.89
399.45	224.92
399.82	224.98
400.20	225.00
400.58	225.04
400.95	225.11
401.33	225.19
401.70	225.32
402.08	225.41
402.45	225.50
402.83	225.61
403.20	225.71
403.58	225.77
403.95	225.94
404.33	226.08
404.71	226.24
405.08	226.39
405.46	226.54
405.83	226.70
406.21	226.83
406.58	226.98
406.96	227.16
407.33	227.34
407.70	227.49
408.08	227.79
408.45	228.00
408.83	228.23
409.20	228.46
409.58	228.64
409.95	228.91
410.33	229.18
410.70	229.44
411.08	229.76
411.45	230.08
411.82	230.33
412.20	230.63
412.57	231.06
412.95	231.37
413.32	231.78
413.69	232.19
414.07	232.68
414.44	233.17
414.82	233.65
415.19	234.24
415.56	234.87
415.94	235.45
416.31	236.14
416.68	236.83
417.06	237.54
417.43	238.25
417.81	239.05
418.18	239.82
418.55	240.69
418.93	241.57
419.30	242.47
419.67	243.47
420.04	244.52
420.42	245.52
420.79	246.75
421.16	247.98
421.54	249.24
421.91	250.49
422.28	251.77
422.66	253.17
423.03	254.53
423.40	255.89
423.77	257.33
424.15	258.79
424.52	260.31
424.89	262.01
425.26	263.67
425.64	265.14
426.01	266.82
426.38	268.52
426.75	270.29
427.13	272.13
427.50	274.04
427.87	276.01
428.24	277.99
428.61	279.80
428.99	281.82
429.36	284.01
429.73	286.18
430.10	288.34
430.47	290.47
430.85	292.70
431.22	295.03
431.59	297.55
431.96	299.92
432.33	302.53
432.70	305.00
433.08	307.89
433.45	310.67
433.82	313.42
434.19	316.44
434.56	319.34
434.93	322.11
435.30	324.82
435.68	327.85
436.05	330.80
436.42	333.71
436.79	336.32
437.16	339.13
437.53	342.05
437.90	344.97
438.27	347.85
438.64	350.77
439.01	353.44
439.38	355.72
439.75	357.99
440.13	360.58
440.50	363.02
440.87	364.93
441.24	366.96
441.61	369.22
441.98	370.77
442.35	372.69
442.72	374.59
443.09	376.42
443.46	377.39
443.83	378.00
444.20	378.52
444.57	379.40
444.94	379.72
445.31	380.09
445.68	380.42
446.05	380.47
446.42	380.11
446.79	379.74
447.16	379.31
447.53	378.98
447.90	377.77
448.27	376.59
448.64	375.00
449.01	373.83
449.37	371.76
449.74	369.81
450.11	367.50
450.48	364.93
450.85	362.35
451.22	360.15
451.59	358.05
451.96	356.04
452.33	353.33
452.70	350.83
453.07	347.87
453.43	344.88
453.80	342.00
454.17	339.17
454.54	336.47
454.91	333.62
455.28	330.86
455.65	328.25
456.02	325.67
456.38	323.34
456.75	320.54
457.12	318.21
457.49	315.88
457.86	313.57
458.23	311.67
458.59	309.56
458.96	307.38
459.33	305.42
459.70	303.47
460.07	301.91
460.43	300.15
460.80	298.47
461.17	296.96
461.54	295.42
461.91	293.97
462.27	292.49
462.64	291.17
463.01	289.72
463.38	288.37
463.74	286.91
464.11	285.73
464.48	284.67
464.85	283.47
465.21	282.58
465.58	281.62
465.95	280.48
466.32	279.51
466.68	278.58
467.05	277.66
467.42	276.76
467.78	275.77
468.15	274.84
468.52	274.19
468.88	273.31
469.25	272.51
469.62	271.83
469.98	271.12
470.35	270.47
470.72	269.88
471.08	269.20
471.45	268.70
471.82	268.15
472.18	267.54
472.55	267.13
472.92	266.55
473.28	266.06
473.65	265.62
474.02	265.18
474.38	264.81
474.75	264.50
475.11	264.11
475.48	263.88
475.85	263.66
476.21	263.37
476.58	263.18
476.94	263.01
477.31	262.83
477.67	262.71
478.04	262.61
478.41	262.53
478.77	262.61
479.14	262.56
479.50	262.60
479.87	262.66
480.23	262.76
480.60	262.84
480.96	262.96
481.33	263.13
481.69	263.32
482.06	263.54
482.42	263.73
482.79	264.02
483.15	264.37
483.52	264.74
483.88	265.11
484.25	265.50
484.61	265.98
484.98	266.45
485.34	267.00
485.71	267.60
486.07	268.22
486.44	268.75
486.80	269.42
487.17	270.13
487.53	270.98
487.90	271.82
488.26	272.77
488.62	273.74
488.99	274.67
489.35	275.70
489.72	276.79
490.08	277.99
490.44	279.21
490.81	280.50
491.17	281.86
491.54	283.37
491.90	284.89
492.26	286.42
492.63	288.15
492.99	289.86
493.36	291.73
493.72	293.74
494.08	295.86
494.45	298.11
494.81	300.47
495.17	302.83
495.54	305.35
495.90	308.01
496.26	310.83
496.63	313.82
496.99	316.92
497.35	320.17
497.72	323.57
498.08	327.04
498.44	330.66
498.80	334.56
499.17	338.52
499.53	342.59
499.89	347.03
500.26	351.46
500.62	356.09
500.98	360.98
501.34	365.97
501.71	371.19
502.07	376.50
502.43	382.03
502.79	387.78
503.16	393.75
503.52	399.98
503.88	406.20
504.24	412.70
504.60	419.44
504.97	426.45
505.33	433.62
505.69	441.23
506.05	448.85
506.41	456.54
506.78	464.54
507.14	472.89
507.50	481.43
507.86	490.31
508.22	499.35
508.59	508.41
508.95	517.80
509.31	527.41
509.67	537.32
510.03	547.34
510.39	557.70
510.75	568.25
511.12	578.89
511.48	589.99
511.84	601.15
512.20	612.38
512.56	623.97
512.92	635.84
513.28	647.88
513.64	660.03
514.00	672.45
514.37	685.04
514.73	697.79
515.09	710.38
515.45	723.26
515.81	736.55
516.17	750.13
516.53	763.82
516.89	777.59
517.25	791.37
517.61	805.50
517.97	819.48
518.33	833.46
518.69	847.83
519.05	862.27
519.41	877.03
519.77	892.09
520.13	907.11
520.49	922.02
520.85	936.84
521.21	952.13
521.57	967.71
521.93	982.98
522.29	998.84
522.65	1014.63
523.01	1030.31
523.37	1045.72
523.73	1061.35
524.09	1076.94
524.45	1092.71
524.81	1108.80
525.17	1124.88
525.53	1141.20
525.89	1157.61
526.25	1173.90
526.61	1189.85
526.97	1206.05
527.33	1222.05
527.68	1238.05
528.04	1254.02
528.40	1270.06
528.76	1286.54
529.12	1302.74
529.48	1319.22
529.84	1334.74
530.20	1350.76
530.56	1367.27
530.91	1384.25
531.27	1400.52
531.63	1416.50
531.99	1432.59
532.35	1448.25
532.71	1463.82
533.07	1479.73
533.42	1495.26
533.78	1510.88
534.14	1526.63
534.50	1541.63
534.86	1557.09
535.21	1571.87
535.57	1587.35
535.93	1602.56
536.29	1617.01
536.65	1631.86
537.00	1646.13
537.36	1661.03
537.72	1675.23
538.08	1689.47
538.44	1702.84
538.79	1716.46
539.15	1729.85
539.51	1743.38
539.87	1757.40
540.22	1770.80
540.58	1784.26
540.94	1797.19
541.29	1809.63
541.65	1822.19
542.01	1835.18
542.37	1847.43
542.72	1859.77
543.08	1871.60
543.44	1883.87
543.79	1895.02
544.15	1905.62
544.51	1917.20
544.87	1928.11
545.22	1939.08
545.58	1949.14
545.94	1959.10
546.29	1968.96
546.65	1978.96
547.01	1988.37
547.36	1997.08
547.72	2005.65
548.07	2013.83
548.43	2022.20
548.79	2030.41
549.14	2038.15
549.50	2045.51
549.86	2053.13
550.21	2060.57
550.57	2067.83
550.92	2074.69
551.28	2082.07
551.64	2089.55
551.99	2096.29
552.35	2102.86
552.70	2109.29
553.06	2115.60
553.41	2122.18
553.77	2128.48
554.13	2134.72
554.48	2141.04
554.84	2146.99
555.19	2152.62
555.55	2158.02
555.90	2163.01
556.26	2168.52
556.61	2173.61
556.97	2178.56
557.32	2183.13
557.68	2187.65
558.03	2192.33
558.39	2196.28
558.74	2201.08
559.10	2205.41
559.45	2209.53
559.81	2213.90
560.16	2217.98
560.52	2221.64
560.87	2225.42
561.23	2228.36
561.58	2231.69
561.94	2234.58
562.29	2237.19
562.64	2240.42
563.00	2243.21
563.35	2246.99
563.71	2250.42
564.06	2253.83
564.42	2257.05
564.77	2260.16
565.12	2263.02
565.48	2265.41
565.83	2267.80
566.19	2269.76
566.54	2270.78
566.89	2272.35
567.25	2273.51
567.60	2275.14
567.96	2277.42
568.31	2278.67
568.66	2280.40
569.02	2281.49
569.37	2282.28
569.72	2283.66
570.08	2284.30
570.43	2284.72
570.78	2284.65
571.14	2283.48
571.49	2282.53
571.84	2282.49
572.20	2281.68
572.55	2280.94
572.90	2279.64
573.26	2278.77
573.61	2277.23
573.96	2276.28
574.31	2273.66
574.67	2271.20
575.02	2268.13
575.37	2265.00
575.72	2261.77
576.08	2258.71
576.43	2255.71
576.78	2252.59
577.13	2249.65
577.49	2246.66
577.84	2243.68
578.19	2240.19
578.54	2236.99
578.90	2233.36
579.25	2228.26
579.60	2223.86
579.95	2219.25
580.30	2214.58
580.66	2209.66
581.01	2205.16
581.36	2200.43
581.71	2196.72
582.06	2192.67
582.42	2188.59
582.77	2183.62
583.12	2179.26
583.47	2174.96
583.82	2170.48
584.17	2165.56
584.53	2160.35
584.88	2155.12
585.23	2149.68
585.58	2144.51
585.93	2139.22
586.28	2134.61
586.63	2129.77
586.98	2124.87
587.34	2120.40
587.69	2115.70
588.04	2110.81
588.39	2105.40
588.74	2099.18
589.09	2093.22
589.44	2086.69
589.79	2080.73
590.14	2075.36
590.49	2069.01
590.84	2062.79
591.19	2056.89
591.54	2050.64
591.89	2043.78
592.25	2037.41
592.60	2030.41
592.95	2023.03
593.30	2016.07
593.65	2008.76
594.00	2001.93
594.35	1994.77
594.70	1986.92
595.05	1980.18
595.40	1973.06
595.75	1965.79
596.10	1959.91
596.45	1953.39
596.80	1947.32
597.15	1940.92
597.50	1934.23
597.85	1927.97
598.19	1921.52
598.54	1914.64
598.89	1908.10
599.24	1902.16
599.59	1895.68
599.94	1889.62
600.29	1883.54
600.64	1876.95
600.99	1869.72
601.34	1863.17
601.69	1856.33
602.04	1849.58
602.39	1842.30
602.74	1835.65
603.08	1829.05
603.43	1822.43
603.78	1815.17
604.13	1808.15
604.48	1801.11
604.83	1794.19
605.18	1787.48
605.53	1779.57
605.87	1771.64
606.22	1764.40
606.57	1756.46
606.92	1748.91
607.27	1741.79
607.62	1735.05
607.96	1728.03
608.31	1721.55
608.66	1713.88
609.01	1706.48
609.36	1699.05
609.70	1691.02
610.05	1683.02
610.40	1675.35
610.75	1666.94
611.10	1659.29
611.44	1650.81
611.79	1642.68
612.14	1634.01
612.49	1624.61
612.83	1616.16
613.18	1607.84
613.53	1599.68
613.88	1591.18
614.22	1583.01
614.57	1574.22
614.92	1566.03
615.27	1558.31
615.61	1549.89
615.96	1541.78
616.31	1533.94
616.65	1526.49
617.00	1518.87
617.35	1510.90
617.70	1502.55
618.04	1494.06
618.39	1485.65
618.74	1478.01
619.08	1469.74
619.43	1462.04
619.78	1455.08
620.12	1447.89
620.47	1440.39
620.82	1432.13
621.16	1424.48
621.51	1416.61
621.85	1409.07
622.20	1400.40
622.55	1391.89
622.89	1383.90
623.24	1376.14
623.59	1368.53
623.93	1360.80
624.28	1353.50
624.62	1345.96
624.97	1338.59
625.32	1331.54
625.66	1324.50
626.01	1317.28
626.35	1309.78
626.70	1301.88
627.04	1294.11
627.39	1286.20
627.73	1278.67
628.08	1271.69
628.43	1264.54
628.77	1257.21
629.12	1249.52
629.46	1242.40
629.81	1234.86
630.15	1227.53
630.50	1220.03
630.84	1211.96
631.19	1203.96
631.53	1196.16
631.88	1188.51
632.22	1180.83
632.57	1173.44
632.91	1165.73
633.26	1158.14
633.60	1150.61
633.95	1143.39
634.29	1136.14
634.64	1129.36
634.98	1122.02
635.32	1114.82
635.67	1108.03
636.01	1101.32
636.36	1094.49
636.70	1087.75
637.05	1081.08
637.39	1074.54
637.73	1068.06
638.08	1062.06
638.42	1056.07
638.77	1049.71
639.11	1043.18
639.45	1036.82
639.80	1030.18
640.14	1023.79
640.49	1017.27
640.83	1010.88
641.17	1004.72
641.52	998.50
641.86	991.97
642.20	986.01
642.55	979.58
642.89	973.17
643.23	966.54
643.58	960.72
643.92	954.60
644.26	948.69
644.61	942.61
644.95	936.61
645.29	930.09
645.64	923.32
645.98	917.04
646.32	910.98
646.66	904.96
647.01	899.22
647.35	893.52
647.69	887.60
648.04	881.97
648.38	876.11
648.72	870.11
649.06	864.17
649.41	858.20
649.75	852.35
650.09	846.30
650.43	840.51
650.78	834.34
651.12	828.31
651.46	822.48
651.80	816.89
652.14	811.43
652.49	806.03
652.83	800.86
653.17	795.25
653.51	789.64
653.85	784.10
654.20	778.46
654.54	772.40
654.88	766.63
655.22	760.78
655.56	755.07
655.90	749.60
656.25	744.29
656.59	739.05
656.93	733.92
657.27	728.80
657.61	723.33
657.95	718.21
658.29	713.11
658.64	707.82
658.98	702.31
659.32	696.83
659.66	691.57
660.00	686.22
660.34	681.13
660.68	676.15
661.02	671.14
661.36	666.32
661.70	661.88
662.05	657.52
662.39	653.17
662.73	648.72
663.07	644.25
663.41	639.78
663.75	635.14
664.09	630.52
664.43	626.08
664.77	621.98
665.11	617.75
665.45	613.55
665.79	609.54
666.13	605.44
666.47	601.19
666.81	596.99
667.15	592.90
667.49	588.96
667.83	585.05
668.17	581.07
668.51	577.07
668.85	572.96
669.19	569.09
669.53	565.32
669.87	561.43
670.21	557.69
670.55	554.02
670.89	550.61
671.23	547.19
671.57	543.63
671.91	540.14
672.25	536.58
672.58	533.07
672.92	529.55
673.26	526.39
673.60	523.29
673.94	520.21
674.28	517.21
674.62	514.24
674.96	511.20
675.30	508.28
675.64	505.27
675.97	502.46
676.31	499.54
676.65	496.52
676.99	493.75
677.33	490.86
677.67	488.01
678.01	484.89
678.34	481.91
678.68	479.05
679.02	476.13
679.36	473.36
679.70	470.67
680.04	467.91
680.37	465.00
680.71	462.17
681.05	459.49
681.39	456.76
681.73	454.06
682.06	451.47
682.40	448.92
682.74	446.34
683.08	443.73
683.42	441.15
683.75	438.67
684.09	436.08
684.43	433.61
684.77	431.17
685.10	428.90
685.44	426.58
685.78	424.30
686.12	422.05
686.45	419.71
686.79	417.36
687.13	415.13
687.46	412.96
687.80	410.80
688.14	408.54
688.48	406.48
688.81	404.24
689.15	402.10
689.49	399.89
689.82	397.81
690.16	395.72
690.50	393.73
690.83	391.79
691.17	389.80
691.51	387.88
691.84	385.97
692.18	384.02
692.52	382.01
692.85	380.01
693.19	378.14
693.52	376.26
693.86	374.38
694.20	372.55
694.53	370.73
694.87	368.84
695.21	367.06
695.54	365.20
695.88	363.44
696.21	361.67
696.55	359.99
696.88	358.26
697.22	356.56
697.56	354.85
697.89	353.16
698.23	351.52
698.56	349.86
698.90	348.27
699.23	346.61
699.57	345.03
699.90	343.47
700.24	341.87
700.58	340.34
700.91	338.89
701.25	337.46
701.58	336.06
701.92	334.71
702.25	333.32
702.59	331.93
702.92	330.59
703.26	329.31
703.59	328.02
703.93	326.83
704.26	325.62
704.60	324.36
704.93	323.07
705.26	321.82
705.60	320.62
705.93	319.42
706.27	318.34
706.60	317.26
706.94	316.13
707.27	315.02
707.61	313.91
707.94	312.84
708.27	311.69
708.61	310.58
708.94	309.46
709.28	308.46
709.61	307.46
709.94	306.48
710.28	305.39
710.61	304.33
710.95	303.27
711.28	302.30
711.61	301.31
711.95	300.42
712.28	299.47
712.61	298.53
712.95	297.59
713.28	296.70
713.61	295.77
713.95	294.88
714.28	293.95
714.61	293.07
714.95	292.21
715.28	291.37
715.61	290.50
715.95	289.70
716.28	288.84
716.61	288.01
716.95	287.15
717.28	286.44
717.61	285.72
717.94	284.93
718.28	284.14
718.61	283.40
718.94	282.66
719.27	282.00
719.61	281.33
719.94	280.65
720.27	279.91
720.60	279.24
720.94	278.60
721.27	278.03
721.60	277.45
721.93	276.88
722.27	276.29
722.60	275.74
722.93	275.18
723.26	274.61
723.59	274.04
723.93	273.52
724.26	272.95
724.59	272.36
724.92	271.82
725.25	271.31
725.59	270.82
725.92	270.28
726.25	269.73
726.58	269.20
726.91	268.71
727.24	268.24
727.57	267.78
727.91	267.23
728.24	266.74
728.57	266.24
728.90	265.75
729.23	265.26
729.56	264.81
729.89	264.30
730.22	263.82
730.55	263.34
730.89	262.89
731.22	262.43
731.55	262.02
731.88	261.58
732.21	261.11
732.54	260.62
732.87	260.17
733.20	259.74
733.53	259.36
733.86	258.95
734.19	258.56
734.52	258.18
734.85	257.86
735.18	257.47
735.51	257.10
735.84	256.70
736.17	256.38
736.50	255.94
736.83	255.70
737.16	255.32
737.49	254.99
737.82	254.67
738.15	254.34
738.48	254.00
738.81	253.66
739.14	253.37
739.47	253.07
739.80	252.78
740.13	252.44
740.46	252.10
740.79	251.75
741.12	251.45
741.45	251.11
741.78	250.80
742.11	250.49
742.44	250.20
742.77	249.90
743.10	249.56
743.43	249.29
743.75	248.90
744.08	248.77
744.41	248.46
744.74	248.17
745.07	247.84
745.40	247.58
745.73	247.34
746.06	247.04
746.39	246.79
746.71	246.48
747.04	246.20
747.37	245.94
747.70	245.72
748.03	245.41
748.36	245.18
748.68	244.95
749.01	244.66
749.34	244.41
749.67	244.16
750.00	243.94
750.33	243.75
750.65	243.53
750.98	243.19
751.31	242.96
751.64	242.72
751.97	242.57
752.29	242.36
752.62	242.11
752.95	241.91
753.28	241.67
753.60	241.49
753.93	241.37
754.26	241.15
754.59	240.94
754.91	240.73
755.24	240.53
755.57	240.30
755.90	240.15
756.22	239.96
756.55	239.77
756.88	239.55
757.20	239.31
757.53	239.11
757.86	238.95
758.19	238.78
758.51	238.63
758.84	238.42
759.17	238.23
759.49	238.09
759.82	237.92
760.15	237.78
760.47	237.65
760.80	237.44
761.13	237.31
761.45	237.16
761.78	237.02
762.11	236.90
762.43	236.74
762.76	236.60
763.08	236.45
763.41	236.33
763.74	236.22
764.06	236.10
764.39	235.99
764.71	235.81
765.04	235.68
765.37	235.52
765.69	235.39
766.02	235.26
766.34	235.12
766.67	234.96
767.00	234.87
767.32	234.78
767.65	234.74
767.97	234.66
768.30	234.52
768.62	234.43
768.95	234.29
769.27	234.22
769.60	234.13
769.92	234.02
770.25	233.89
770.57	233.80
770.90	233.71
771.22	233.58
771.55	233.53
771.87	233.40
772.20	233.29
772.52	233.26
772.85	233.27
773.17	233.20
773.50	233.12
773.82	233.01
774.15	232.91
774.47	232.76
774.80	232.61
775.12	232.56
775.45	232.44
775.77	232.35
776.09	232.24
776.42	232.16
776.74	232.11
777.07	232.05
777.39	231.90
777.72	231.82
778.04	231.78
778.36	231.69
778.69	231.64
779.01	231.62
779.33	231.47
779.66	231.30
779.98	231.21
780.31	231.14
780.63	231.11
780.95	231.03
781.28	230.96
781.60	230.91
781.92	230.82
782.25	230.76
782.57	230.73
782.89	230.68
783.22	230.60
783.54	230.49
783.86	230.45
784.19	230.39
784.51	230.34
784.83	230.25
785.16	230.19
785.48	230.14
785.80	230.08
786.12	230.03
786.45	229.96
786.77	229.92
787.09	229.88
