SpectraSuite Data File
++++++++++++++++++++++++++++++++++++
Date: Fri Feb 01 15:47:00 EST 2013
User: group
Dark Spectrum Present: No
Reference Spectrum Present: No
Number of Sampled Component Spectra: 1
Spectrometers: USB2E7196
Integration Time (usec): 35000 (USB2E7196)
Spectra Averaged: 100 (USB2E7196)
Boxcar Smoothing: 10 (USB2E7196)
Correct for Electrical Dark: No (USB2E7196)
Strobe/Lamp Enabled: No (USB2E7196)
Correct for Detector Non-linearity: No (USB2E7196)
Correct for Stray Light: No (USB2E7196)
Number of Pixels in Processed Spectrum: 2048
>>>>>Begin Processed Spectral Data<<<<<
339.09	0.00
339.48	215.35
339.86	216.00
340.24	217.69
340.63	219.09
341.01	222.02
341.39	221.88
341.78	223.05
342.16	224.05
342.54	224.37
342.93	213.11
343.31	223.88
343.69	224.37
344.07	224.80
344.46	225.23
344.84	225.60
345.22	225.80
345.60	226.03
345.99	226.17
346.37	226.30
346.75	226.40
347.13	226.48
347.52	226.54
347.90	226.59
348.28	226.64
348.66	226.65
349.05	226.65
349.43	226.69
349.81	226.74
350.19	226.79
350.57	226.79
350.96	226.86
351.34	226.96
351.72	227.08
352.10	227.19
352.48	227.24
352.87	227.32
353.25	227.39
353.63	227.45
354.01	227.54
354.39	227.59
354.77	227.70
355.15	227.81
355.54	227.89
355.92	227.91
356.30	227.97
356.68	228.14
357.06	228.22
357.44	228.28
357.82	228.34
358.20	228.41
358.58	228.49
358.97	228.57
359.35	228.61
359.73	228.66
360.11	228.75
360.49	228.80
360.87	228.85
361.25	228.94
361.63	229.01
362.01	229.08
362.39	229.15
362.77	229.16
363.15	229.18
363.53	229.19
363.91	229.24
364.29	229.27
364.67	229.19
365.05	229.20
365.43	229.22
365.81	229.21
366.19	229.25
366.57	229.31
366.95	229.30
367.33	229.26
367.71	229.25
368.09	229.27
368.47	229.28
368.85	229.23
369.23	229.23
369.61	229.19
369.99	229.20
370.37	229.18
370.75	229.23
371.13	229.18
371.51	229.12
371.89	229.09
372.27	229.06
372.65	229.04
373.03	228.98
373.41	228.93
373.78	228.90
374.16	228.84
374.54	228.71
374.92	228.62
375.30	228.60
375.68	228.50
376.06	228.42
376.44	228.35
376.82	228.31
377.19	228.23
377.57	228.16
377.95	228.06
378.33	228.00
378.71	227.87
379.09	227.80
379.47	227.74
379.84	227.68
380.22	227.60
380.60	227.52
380.98	227.45
381.36	227.39
381.73	227.31
382.11	227.25
382.49	227.19
382.87	227.15
383.25	227.12
383.62	227.18
384.00	227.12
384.38	227.05
384.76	227.00
385.13	226.99
385.51	226.94
385.89	226.85
386.27	226.80
386.64	226.75
387.02	226.71
387.40	226.68
387.78	226.59
388.15	226.58
388.53	226.54
388.91	226.52
389.29	226.46
389.66	226.44
390.04	226.38
390.42	226.41
390.79	226.38
391.17	226.33
391.55	226.19
391.92	226.16
392.30	226.18
392.68	226.15
393.05	226.13
393.43	226.10
393.81	226.16
394.18	226.16
394.56	226.16
394.94	226.20
395.31	226.20
395.69	226.27
396.06	226.28
396.44	226.32
396.82	226.35
397.19	226.45
397.57	226.48
397.95	226.56
398.32	226.55
398.70	226.62
399.07	226.70
399.45	226.77
399.82	226.83
400.20	226.91
400.58	227.02
400.95	227.07
401.33	227.22
401.70	227.32
402.08	227.41
402.45	227.51
402.83	227.60
403.20	227.75
403.58	227.87
403.95	227.98
404.33	228.12
404.71	228.24
405.08	228.41
405.46	228.55
405.83	228.73
406.21	228.91
406.58	229.10
406.96	229.26
407.33	229.48
407.70	229.69
408.08	229.95
408.45	230.18
408.83	230.39
409.20	230.58
409.58	230.77
409.95	231.04
410.33	231.32
410.70	231.59
411.08	231.83
411.45	232.16
411.82	232.48
412.20	232.79
412.57	233.24
412.95	233.50
413.32	233.93
413.69	234.30
414.07	234.73
414.44	235.19
414.82	235.65
415.19	236.17
415.56	236.71
415.94	237.26
416.31	237.88
416.68	238.53
417.06	239.28
417.43	239.98
417.81	240.72
418.18	241.49
418.55	242.35
418.93	243.21
419.30	244.11
419.67	245.05
420.04	246.02
420.42	246.97
420.79	248.18
421.16	249.30
421.54	250.51
421.91	251.73
422.28	253.00
422.66	254.35
423.03	255.65
423.40	256.98
423.77	258.38
424.15	259.80
424.52	261.27
424.89	262.86
425.26	264.40
425.64	265.84
426.01	267.43
426.38	269.07
426.75	270.76
427.13	272.46
427.50	274.28
427.87	276.20
428.24	278.08
428.61	279.83
428.99	281.78
429.36	283.87
429.73	285.93
430.10	287.92
430.47	289.95
430.85	292.04
431.22	294.30
431.59	296.68
431.96	298.90
432.33	301.36
432.70	303.71
433.08	306.52
433.45	309.19
433.82	311.81
434.19	314.73
434.56	317.55
434.93	320.24
435.30	322.87
435.68	325.76
436.05	328.61
436.42	331.39
436.79	333.92
437.16	336.66
437.53	339.54
437.90	342.36
438.27	345.16
438.64	348.03
439.01	350.66
439.38	352.92
439.75	355.12
440.13	357.67
440.50	360.07
440.87	361.93
441.24	363.85
441.61	366.06
441.98	367.54
442.35	369.37
442.72	371.21
443.09	373.03
443.46	374.05
443.83	374.65
444.20	375.17
444.57	376.02
444.94	376.31
445.31	376.60
445.68	376.95
446.05	377.01
446.42	376.63
446.79	376.23
447.16	375.79
447.53	375.50
447.90	374.30
448.27	373.08
448.64	371.50
449.01	370.39
449.37	368.37
449.74	366.51
450.11	364.25
450.48	361.80
450.85	359.24
451.22	357.08
451.59	355.09
451.96	353.18
452.33	350.62
452.70	348.25
453.07	345.46
453.43	342.62
453.80	339.87
454.17	337.25
454.54	334.65
454.91	331.97
455.28	329.26
455.65	326.81
456.02	324.42
456.38	322.29
456.75	319.66
457.12	317.43
457.49	315.18
457.86	313.00
458.23	311.15
458.59	309.13
458.96	307.04
459.33	305.16
459.70	303.27
460.07	301.72
460.43	299.98
460.80	298.33
461.17	296.82
461.54	295.29
461.91	293.86
462.27	292.39
462.64	291.10
463.01	289.78
463.38	288.47
463.74	287.08
464.11	285.89
464.48	284.85
464.85	283.72
465.21	282.85
465.58	281.93
465.95	280.80
466.32	279.87
466.68	278.92
467.05	277.98
467.42	277.04
467.78	276.11
468.15	275.26
468.52	274.62
468.88	273.75
469.25	272.96
469.62	272.28
469.98	271.60
470.35	270.93
470.72	270.27
471.08	269.58
471.45	269.03
471.82	268.46
472.18	267.83
472.55	267.39
472.92	266.85
473.28	266.36
473.65	265.88
474.02	265.45
474.38	265.10
474.75	264.77
475.11	264.44
475.48	264.15
475.85	263.88
476.21	263.63
476.58	263.46
476.94	263.33
477.31	263.16
477.67	263.01
478.04	262.92
478.41	262.83
478.77	262.88
479.14	262.82
479.50	262.84
479.87	262.89
480.23	262.98
480.60	263.02
480.96	263.12
481.33	263.32
481.69	263.52
482.06	263.68
482.42	263.91
482.79	264.19
483.15	264.51
483.52	264.91
483.88	265.25
484.25	265.63
484.61	266.04
484.98	266.48
485.34	267.05
485.71	267.62
486.07	268.28
486.44	268.85
486.80	269.53
487.17	270.26
487.53	271.09
487.90	271.91
488.26	272.89
488.62	273.88
488.99	274.84
489.35	275.88
489.72	277.06
490.08	278.28
490.44	279.52
490.81	280.88
491.17	282.22
491.54	283.67
491.90	285.23
492.26	286.90
492.63	288.63
492.99	290.40
493.36	292.30
493.72	294.36
494.08	296.49
494.45	298.79
494.81	301.18
495.17	303.61
495.54	306.20
495.90	308.93
496.26	311.73
496.63	314.73
496.99	317.84
497.35	321.12
497.72	324.49
498.08	328.05
498.44	331.71
498.80	335.66
499.17	339.77
499.53	343.94
499.89	348.35
500.26	352.91
500.62	357.60
500.98	362.57
501.34	367.67
501.71	373.01
502.07	378.43
502.43	384.02
502.79	389.84
503.16	395.92
503.52	402.19
503.88	408.61
504.24	415.25
504.60	422.15
504.97	429.28
505.33	436.64
505.69	444.32
506.05	452.12
506.41	460.04
506.78	468.19
507.14	476.65
507.50	485.36
507.86	494.39
508.22	503.59
508.59	512.81
508.95	522.36
509.31	532.23
509.67	542.36
510.03	552.62
510.39	563.16
510.75	573.99
511.12	584.90
511.48	596.20
511.84	607.67
512.20	619.22
512.56	631.19
512.92	643.34
513.28	655.62
513.64	668.11
514.00	680.79
514.37	693.76
514.73	706.86
515.09	719.88
515.45	733.12
515.81	746.71
516.17	760.74
516.53	774.85
516.89	788.91
517.25	803.08
517.61	817.59
517.97	832.08
518.33	846.55
518.69	861.34
519.05	876.30
519.41	891.42
519.77	906.94
520.13	922.29
520.49	937.65
520.85	953.11
521.21	968.85
521.57	985.15
521.93	1000.82
522.29	1017.21
522.65	1033.45
523.01	1049.70
523.37	1065.80
523.73	1081.90
524.09	1097.96
524.45	1114.31
524.81	1130.91
525.17	1147.71
525.53	1164.58
525.89	1181.45
526.25	1198.26
526.61	1214.73
526.97	1231.56
527.33	1248.02
527.68	1264.76
528.04	1281.35
528.40	1297.99
528.76	1315.04
529.12	1331.51
529.48	1348.51
529.84	1364.55
530.20	1381.17
530.56	1398.25
530.91	1415.66
531.27	1432.53
531.63	1449.03
531.99	1465.60
532.35	1481.51
532.71	1497.43
533.07	1513.67
533.42	1529.49
533.78	1545.55
534.14	1561.69
534.50	1577.08
534.86	1593.02
535.21	1608.08
535.57	1623.95
535.93	1639.38
536.29	1654.15
536.65	1669.25
537.00	1683.92
537.36	1699.15
537.72	1713.74
538.08	1728.12
538.44	1741.80
538.79	1755.59
539.15	1769.29
539.51	1783.11
539.87	1797.47
540.22	1811.29
540.58	1825.13
540.94	1838.49
541.29	1851.48
541.65	1864.35
542.01	1877.56
542.37	1889.85
542.72	1902.33
543.08	1914.15
543.44	1926.54
543.79	1937.77
544.15	1948.82
544.51	1960.44
544.87	1971.37
545.22	1982.20
545.58	1992.41
545.94	2002.16
546.29	2012.08
546.65	2021.91
547.01	2031.14
547.36	2039.92
547.72	2048.32
548.07	2056.23
548.43	2064.43
548.79	2072.51
549.14	2079.93
549.50	2087.20
549.86	2094.91
550.21	2102.18
550.57	2109.29
550.92	2115.87
551.28	2122.89
551.64	2129.89
551.99	2136.47
552.35	2142.70
552.70	2149.02
553.06	2154.99
553.41	2161.43
553.77	2167.48
554.13	2173.66
554.48	2179.85
554.84	2185.36
555.19	2190.64
555.55	2195.61
555.90	2199.99
556.26	2204.71
556.61	2209.58
556.97	2213.75
557.32	2217.78
557.68	2222.12
558.03	2226.45
558.39	2230.23
558.74	2234.97
559.10	2238.87
559.45	2242.54
559.81	2246.88
560.16	2250.54
560.52	2253.77
560.87	2257.16
561.23	2259.75
561.58	2262.74
561.94	2265.15
562.29	2267.50
562.64	2270.07
563.00	2272.84
563.35	2276.43
563.71	2279.66
564.06	2282.73
564.42	2285.73
564.77	2288.20
565.12	2290.31
565.48	2292.15
565.83	2293.96
566.19	2295.13
566.54	2296.03
566.89	2297.08
567.25	2297.50
567.60	2298.74
567.96	2300.31
568.31	2301.19
568.66	2302.38
569.02	2302.79
569.37	2303.09
569.72	2303.89
570.08	2304.05
570.43	2304.03
570.78	2303.43
571.14	2301.77
571.49	2300.38
571.84	2299.98
572.20	2298.78
572.55	2297.80
572.90	2296.22
573.26	2294.81
573.61	2293.13
573.96	2291.30
574.31	2288.21
574.67	2285.27
575.02	2281.78
575.37	2278.48
575.72	2274.49
576.08	2271.13
576.43	2267.84
576.78	2264.16
577.13	2261.09
577.49	2258.01
577.84	2254.39
578.19	2250.66
578.54	2246.96
578.90	2242.83
579.25	2237.32
579.60	2232.34
579.95	2227.24
580.30	2222.30
580.66	2217.20
581.01	2212.19
581.36	2207.34
581.71	2203.32
582.06	2198.76
582.42	2194.25
582.77	2189.05
583.12	2184.51
583.47	2179.61
583.82	2174.44
584.17	2169.12
584.53	2163.59
584.88	2157.97
585.23	2152.25
585.58	2146.75
585.93	2141.40
586.28	2136.58
586.63	2131.55
586.98	2126.59
587.34	2121.87
587.69	2117.10
588.04	2111.77
588.39	2106.06
588.74	2099.64
589.09	2093.49
589.44	2086.84
589.79	2080.89
590.14	2075.37
590.49	2068.82
590.84	2062.48
591.19	2056.61
591.54	2050.23
591.89	2042.80
592.25	2035.96
592.60	2028.74
592.95	2021.19
593.30	2013.81
593.65	2006.19
594.00	1999.12
594.35	1991.95
594.70	1984.00
595.05	1976.56
595.40	1969.22
595.75	1961.85
596.10	1955.51
596.45	1948.72
596.80	1942.48
597.15	1935.60
597.50	1928.29
597.85	1921.96
598.19	1915.27
598.54	1908.03
598.89	1901.44
599.24	1895.54
599.59	1888.81
599.94	1882.66
600.29	1876.23
600.64	1869.66
600.99	1862.23
601.34	1855.37
601.69	1848.36
602.04	1841.36
602.39	1834.00
602.74	1827.13
603.08	1820.29
603.43	1813.57
603.78	1806.26
604.13	1799.09
604.48	1791.92
604.83	1785.14
605.18	1778.07
605.53	1770.07
605.87	1762.18
606.22	1754.90
606.57	1746.91
606.92	1739.65
607.27	1732.35
607.62	1725.45
607.96	1718.11
608.31	1711.45
608.66	1703.82
609.01	1696.07
609.36	1688.60
609.70	1680.57
610.05	1672.58
610.40	1664.93
610.75	1656.55
611.10	1648.91
611.44	1640.38
611.79	1632.38
612.14	1623.60
612.49	1614.49
612.83	1606.11
613.18	1597.92
613.53	1589.82
613.88	1581.20
614.22	1572.78
614.57	1564.28
614.92	1556.27
615.27	1548.71
615.61	1540.33
615.96	1532.28
616.31	1524.76
616.65	1517.31
617.00	1509.84
617.35	1502.24
617.70	1493.82
618.04	1485.36
618.39	1477.05
618.74	1469.42
619.08	1461.01
619.43	1453.48
619.78	1446.54
620.12	1439.34
620.47	1431.81
620.82	1423.62
621.16	1416.24
621.51	1408.76
621.85	1401.06
622.20	1392.35
622.55	1383.94
622.89	1376.08
623.24	1368.54
623.59	1361.15
623.93	1353.63
624.28	1346.36
624.62	1338.70
624.97	1331.53
625.32	1324.89
625.66	1317.86
626.01	1310.76
626.35	1303.25
626.70	1295.56
627.04	1287.83
627.39	1280.10
627.73	1272.77
628.08	1265.79
628.43	1258.46
628.77	1250.95
629.12	1243.38
629.46	1236.42
629.81	1229.00
630.15	1221.77
630.50	1214.25
630.84	1205.98
631.19	1198.10
631.53	1190.65
631.88	1183.08
632.22	1175.39
632.57	1167.90
632.91	1160.38
633.26	1152.95
633.60	1145.64
633.95	1138.39
634.29	1131.44
634.64	1124.77
634.98	1117.37
635.32	1110.28
635.67	1103.67
636.01	1097.05
636.36	1090.28
636.70	1083.73
637.05	1077.18
637.39	1070.70
637.73	1064.17
638.08	1058.42
638.42	1052.39
638.77	1045.85
639.11	1039.23
639.45	1032.85
639.80	1026.21
640.14	1019.75
640.49	1013.21
640.83	1006.87
641.17	1000.73
641.52	994.27
641.86	987.82
642.20	981.90
642.55	975.58
642.89	969.11
643.23	962.57
643.58	956.88
643.92	950.59
644.26	944.50
644.61	938.59
644.95	932.52
645.29	925.79
645.64	918.98
645.98	912.64
646.32	906.87
646.66	900.86
647.01	895.11
647.35	889.43
647.69	883.68
648.04	878.20
648.38	872.32
648.72	866.32
649.06	860.19
649.41	854.32
649.75	848.33
650.09	842.41
650.43	836.67
650.78	830.48
651.12	824.49
651.46	818.69
651.80	812.87
652.14	807.54
652.49	802.21
652.83	797.10
653.17	791.40
653.51	785.62
653.85	780.27
654.20	774.61
654.54	768.62
654.88	762.79
655.22	756.90
655.56	751.27
655.90	745.81
656.25	740.59
656.59	735.21
656.93	730.15
657.27	725.01
657.61	719.60
657.95	714.44
658.29	709.42
658.64	704.23
658.98	699.00
659.32	693.56
659.66	688.41
660.00	683.06
660.34	678.18
660.68	673.29
661.02	668.25
661.36	663.56
661.70	659.03
662.05	654.74
662.39	650.40
662.73	645.92
663.07	641.56
663.41	637.15
663.75	632.70
664.09	628.05
664.43	623.65
664.77	619.56
665.11	615.37
665.45	611.19
665.79	607.19
666.13	602.98
666.47	598.84
666.81	594.60
667.15	590.45
667.49	586.52
667.83	582.71
668.17	578.76
668.51	574.66
668.85	570.61
669.19	566.73
669.53	562.85
669.87	558.98
670.21	555.29
670.55	551.63
670.89	548.22
671.23	544.86
671.57	541.35
671.91	537.73
672.25	534.24
672.58	530.77
672.92	527.28
673.26	524.17
673.60	521.06
673.94	517.96
674.28	515.13
674.62	512.15
674.96	509.08
675.30	506.16
675.64	503.23
675.97	500.49
676.31	497.62
676.65	494.72
676.99	492.02
677.33	489.19
677.67	486.36
678.01	483.31
678.34	480.30
678.68	477.40
679.02	474.61
679.36	471.77
679.70	469.03
680.04	466.31
680.37	463.40
680.71	460.53
681.05	457.96
681.39	455.17
681.73	452.53
682.06	449.97
682.40	447.44
682.74	444.97
683.08	442.43
683.42	439.80
683.75	437.29
684.09	434.71
684.43	432.20
684.77	429.77
685.10	427.44
685.44	425.17
685.78	422.89
686.12	420.65
686.45	418.40
686.79	416.10
687.13	413.86
687.46	411.72
687.80	409.58
688.14	407.31
688.48	405.27
688.81	403.04
689.15	400.87
689.49	398.73
689.82	396.63
690.16	394.53
690.50	392.63
690.83	390.66
691.17	388.70
691.51	386.81
691.84	384.90
692.18	382.94
692.52	380.91
692.85	378.96
693.19	377.07
693.52	375.25
693.86	373.45
694.20	371.69
694.53	369.90
694.87	368.07
695.21	366.35
695.54	364.55
695.88	362.79
696.21	361.12
696.55	359.45
696.88	357.74
697.22	356.08
697.56	354.45
697.89	352.82
698.23	351.19
698.56	349.54
698.90	347.99
699.23	346.33
699.57	344.79
699.90	343.27
700.24	341.72
700.58	340.20
700.91	338.71
701.25	337.25
701.58	335.85
701.92	334.53
702.25	333.14
702.59	331.78
702.92	330.47
703.26	329.18
703.59	327.88
703.93	326.67
704.26	325.41
704.60	324.12
704.93	322.85
705.26	321.60
705.60	320.47
705.93	319.29
706.27	318.27
706.60	317.22
706.94	316.15
707.27	315.03
707.61	313.93
707.94	312.92
708.27	311.86
708.61	310.78
708.94	309.79
709.28	308.78
709.61	307.79
709.94	306.88
710.28	305.83
710.61	304.86
710.95	303.81
711.28	302.95
711.61	301.97
711.95	301.07
712.28	300.15
712.61	299.13
712.95	298.23
713.28	297.33
713.61	296.45
713.95	295.52
714.28	294.65
714.61	293.82
714.95	292.92
715.28	292.05
715.61	291.17
715.95	290.28
716.28	289.46
716.61	288.62
716.95	287.78
717.28	287.04
717.61	286.31
717.94	285.57
718.28	284.72
718.61	283.99
718.94	283.28
719.27	282.66
719.61	281.99
719.94	281.33
720.27	280.62
720.60	279.97
720.94	279.39
721.27	278.79
721.60	278.18
721.93	277.57
722.27	277.00
722.60	276.42
722.93	275.84
723.26	275.25
723.59	274.71
723.93	274.17
724.26	273.62
724.59	273.04
724.92	272.49
725.25	271.99
725.59	271.47
725.92	270.97
726.25	270.45
726.58	270.02
726.91	269.53
727.24	269.07
727.57	268.56
727.91	268.04
728.24	267.59
728.57	267.15
728.90	266.74
729.23	266.27
729.56	265.86
729.89	265.40
730.22	264.98
730.55	264.51
730.89	264.04
731.22	263.59
731.55	263.15
731.88	262.74
732.21	262.32
732.54	261.87
732.87	261.47
733.20	261.05
733.53	260.65
733.86	260.26
734.19	259.91
734.52	259.56
734.85	259.30
735.18	258.92
735.51	258.55
735.84	258.19
736.17	257.83
736.50	257.46
736.83	257.20
737.16	256.82
737.49	256.49
737.82	256.14
738.15	255.82
738.48	255.49
738.81	255.16
739.14	254.85
739.47	254.52
739.80	254.18
740.13	253.89
740.46	253.58
740.79	253.23
741.12	252.89
741.45	252.56
741.78	252.22
742.11	251.91
742.44	251.60
742.77	251.31
743.10	251.01
743.43	250.72
743.75	250.37
744.08	250.23
744.41	249.99
744.74	249.72
745.07	249.40
745.40	249.19
745.73	248.97
746.06	248.66
746.39	248.42
746.71	248.16
747.04	247.87
747.37	247.60
747.70	247.34
748.03	247.09
748.36	246.87
748.68	246.58
749.01	246.34
749.34	246.10
749.67	245.87
750.00	245.65
750.33	245.51
750.65	245.32
750.98	244.98
751.31	244.71
751.64	244.51
751.97	244.39
752.29	244.11
752.62	243.83
752.95	243.65
753.28	243.44
753.60	243.25
753.93	243.06
754.26	242.86
754.59	242.61
754.91	242.39
755.24	242.16
755.57	241.96
755.90	241.76
756.22	241.55
756.55	241.31
756.88	241.08
757.20	240.80
757.53	240.59
757.86	240.41
758.19	240.28
758.51	240.11
758.84	239.88
759.17	239.75
759.49	239.60
759.82	239.48
760.15	239.35
760.47	239.17
760.80	239.01
761.13	238.85
761.45	238.74
761.78	238.58
762.11	238.46
762.43	238.30
762.76	238.18
763.08	238.04
763.41	237.90
763.74	237.83
764.06	237.67
764.39	237.49
764.71	237.38
765.04	237.25
765.37	237.10
765.69	236.98
766.02	236.82
766.34	236.72
766.67	236.55
767.00	236.44
767.32	236.40
767.65	236.36
767.97	236.27
768.30	236.16
768.62	236.10
768.95	236.00
769.27	235.91
769.60	235.79
769.92	235.68
770.25	235.62
770.57	235.47
770.90	235.41
771.22	235.35
771.55	235.28
771.87	235.17
772.20	235.06
772.52	235.06
772.85	235.12
773.17	235.04
773.50	234.94
773.82	234.86
774.15	234.71
774.47	234.55
774.80	234.45
775.12	234.35
775.45	234.24
775.77	234.17
776.09	234.09
776.42	234.01
776.74	233.97
777.07	233.87
777.39	233.82
777.72	233.74
778.04	233.66
778.36	233.57
778.69	233.52
779.01	233.48
779.33	233.33
779.66	233.12
779.98	233.03
780.31	233.01
780.63	232.92
780.95	232.89
781.28	232.82
781.60	232.76
781.92	232.72
782.25	232.70
782.57	232.64
782.89	232.59
783.22	232.56
783.54	232.47
783.86	232.41
784.19	232.36
784.51	232.30
784.83	232.27
785.16	232.20
785.48	232.13
785.80	232.09
786.12	232.07
786.45	232.04
786.77	232.00
787.09	231.90
