SpectraSuite Data File
++++++++++++++++++++++++++++++++++++
Date: Fri Feb 01 18:04:06 EST 2013
User: group
Dark Spectrum Present: No
Reference Spectrum Present: No
Number of Sampled Component Spectra: 1
Spectrometers: USB2E7196
Integration Time (usec): 35000 (USB2E7196)
Spectra Averaged: 100 (USB2E7196)
Boxcar Smoothing: 10 (USB2E7196)
Correct for Electrical Dark: No (USB2E7196)
Strobe/Lamp Enabled: No (USB2E7196)
Correct for Detector Non-linearity: No (USB2E7196)
Correct for Stray Light: No (USB2E7196)
Number of Pixels in Processed Spectrum: 2048
>>>>>Begin Processed Spectral Data<<<<<
339.09	0.00
339.48	213.16
339.86	214.37
340.24	215.83
340.63	217.04
341.01	220.00
341.39	219.95
341.78	221.79
342.16	223.11
342.54	222.41
342.93	211.41
343.31	222.09
343.69	222.62
344.07	223.07
344.46	223.52
344.84	223.91
345.22	224.18
345.60	224.44
345.99	224.58
346.37	224.69
346.75	224.82
347.13	224.91
347.52	224.97
347.90	225.06
348.28	225.09
348.66	225.12
349.05	225.13
349.43	225.20
349.81	225.24
350.19	225.30
350.57	225.36
350.96	225.45
351.34	225.53
351.72	225.62
352.10	225.72
352.48	225.76
352.87	225.79
353.25	225.84
353.63	225.90
354.01	225.99
354.39	226.03
354.77	226.10
355.15	226.19
355.54	226.26
355.92	226.26
356.30	226.34
356.68	226.50
357.06	226.56
357.44	226.59
357.82	226.67
358.20	226.72
358.58	226.77
358.97	226.82
359.35	226.89
359.73	226.96
360.11	226.99
360.49	227.04
360.87	227.13
361.25	227.19
361.63	227.26
362.01	227.30
362.39	227.36
362.77	227.40
363.15	227.40
363.53	227.43
363.91	227.49
364.29	227.50
364.67	227.39
365.05	227.41
365.43	227.44
365.81	227.45
366.19	227.49
366.57	227.52
366.95	227.53
367.33	227.52
367.71	227.48
368.09	227.49
368.47	227.45
368.85	227.41
369.23	227.39
369.61	227.31
369.99	227.27
370.37	227.26
370.75	227.26
371.13	227.21
371.51	227.18
371.89	227.10
372.27	227.09
372.65	227.06
373.03	226.99
373.41	226.93
373.78	226.87
374.16	226.79
374.54	226.72
374.92	226.67
375.30	226.58
375.68	226.55
376.06	226.51
376.44	226.47
376.82	226.42
377.19	226.36
377.57	226.27
377.95	226.24
378.33	226.14
378.71	226.05
379.09	226.04
379.47	226.00
379.84	225.93
380.22	225.84
380.60	225.77
380.98	225.70
381.36	225.66
381.73	225.60
382.11	225.58
382.49	225.49
382.87	225.43
383.25	225.41
383.62	225.42
384.00	225.35
384.38	225.30
384.76	225.28
385.13	225.27
385.51	225.24
385.89	225.18
386.27	225.17
386.64	225.12
387.02	225.06
387.40	225.00
387.78	224.98
388.15	224.92
388.53	224.91
388.91	224.91
389.29	224.82
389.66	224.82
390.04	224.75
390.42	224.74
390.79	224.73
391.17	224.72
391.55	224.64
391.92	224.68
392.30	224.68
392.68	224.66
393.05	224.65
393.43	224.66
393.81	224.68
394.18	224.66
394.56	224.68
394.94	224.70
395.31	224.71
395.69	224.76
396.06	224.81
396.44	224.83
396.82	224.87
397.19	224.98
397.57	224.99
397.95	225.08
398.32	225.13
398.70	225.16
399.07	225.23
399.45	225.26
399.82	225.29
400.20	225.35
400.58	225.45
400.95	225.48
401.33	225.58
401.70	225.71
402.08	225.83
402.45	225.90
402.83	226.01
403.20	226.12
403.58	226.19
403.95	226.35
404.33	226.47
404.71	226.61
405.08	226.83
405.46	226.98
405.83	227.13
406.21	227.31
406.58	227.47
406.96	227.64
407.33	227.87
407.70	228.10
408.08	228.42
408.45	228.66
408.83	228.98
409.20	229.24
409.58	229.48
409.95	229.78
410.33	230.15
410.70	230.46
411.08	230.86
411.45	231.25
411.82	231.62
412.20	232.10
412.57	232.62
412.95	233.03
413.32	233.55
413.69	234.08
414.07	234.63
414.44	235.27
414.82	235.89
415.19	236.61
415.56	237.33
415.94	238.09
416.31	238.95
416.68	239.77
417.06	240.70
417.43	241.61
417.81	242.64
418.18	243.64
418.55	244.80
418.93	245.97
419.30	247.23
419.67	248.50
420.04	249.77
420.42	251.12
420.79	252.64
421.16	254.22
421.54	255.82
421.91	257.48
422.28	259.18
422.66	261.02
423.03	262.75
423.40	264.56
423.77	266.45
424.15	268.40
424.52	270.46
424.89	272.63
425.26	274.77
425.64	276.78
426.01	278.96
426.38	281.22
426.75	283.50
427.13	285.82
427.50	288.29
427.87	290.86
428.24	293.40
428.61	295.85
428.99	298.46
429.36	301.36
429.73	304.15
430.10	306.92
430.47	309.68
430.85	312.60
431.22	315.63
431.59	318.80
431.96	321.86
432.33	325.23
432.70	328.51
433.08	332.30
433.45	335.87
433.82	339.42
434.19	343.35
434.56	347.17
434.93	350.84
435.30	354.39
435.68	358.31
436.05	362.13
436.42	365.94
436.79	369.34
437.16	373.05
437.53	376.87
437.90	380.63
438.27	384.39
438.64	388.23
439.01	391.76
439.38	394.87
439.75	397.76
440.13	401.14
440.50	404.32
440.87	406.82
441.24	409.48
441.61	412.49
441.98	414.48
442.35	416.96
442.72	419.42
443.09	421.89
443.46	423.29
443.83	424.12
444.20	424.82
444.57	426.03
444.94	426.40
445.31	426.94
445.68	427.41
446.05	427.55
446.42	427.06
446.79	426.53
447.16	425.93
447.53	425.50
447.90	423.91
448.27	422.34
448.64	420.21
449.01	418.67
449.37	415.93
449.74	413.35
450.11	410.28
450.48	406.91
450.85	403.47
451.22	400.51
451.59	397.77
451.96	395.10
452.33	391.56
452.70	388.37
453.07	384.50
453.43	380.65
453.80	376.88
454.17	373.26
454.54	369.79
454.91	366.11
455.28	362.48
455.65	359.09
456.02	355.70
456.38	352.80
456.75	349.15
457.12	346.08
457.49	343.06
457.86	340.07
458.23	337.54
458.59	334.76
458.96	331.91
459.33	329.37
459.70	326.80
460.07	324.70
460.43	322.31
460.80	320.04
461.17	317.98
461.54	315.92
461.91	313.91
462.27	311.87
462.64	310.14
463.01	308.30
463.38	306.51
463.74	304.67
464.11	303.01
464.48	301.58
464.85	300.07
465.21	298.88
465.58	297.62
465.95	296.11
466.32	294.82
466.68	293.60
467.05	292.34
467.42	291.13
467.78	289.85
468.15	288.64
468.52	287.73
468.88	286.59
469.25	285.51
469.62	284.63
469.98	283.72
470.35	282.81
470.72	281.97
471.08	281.08
471.45	280.31
471.82	279.58
472.18	278.74
472.55	278.12
472.92	277.39
473.28	276.75
473.65	276.13
474.02	275.50
474.38	274.95
474.75	274.49
475.11	274.01
475.48	273.65
475.85	273.30
476.21	272.97
476.58	272.69
476.94	272.45
477.31	272.22
477.67	271.97
478.04	271.75
478.41	271.59
478.77	271.57
479.14	271.43
479.50	271.36
479.87	271.40
480.23	271.40
480.60	271.39
480.96	271.42
481.33	271.61
481.69	271.81
482.06	272.01
482.42	272.18
482.79	272.42
483.15	272.70
483.52	273.08
483.88	273.38
484.25	273.78
484.61	274.19
484.98	274.59
485.34	275.16
485.71	275.80
486.07	276.40
486.44	276.94
486.80	277.67
487.17	278.46
487.53	279.29
487.90	280.19
488.26	281.18
488.62	282.22
488.99	283.19
489.35	284.25
489.72	285.39
490.08	286.65
490.44	287.90
490.81	289.28
491.17	290.69
491.54	292.25
491.90	293.84
492.26	295.56
492.63	297.40
492.99	299.29
493.36	301.25
493.72	303.44
494.08	305.67
494.45	308.05
494.81	310.52
495.17	313.04
495.54	315.70
495.90	318.53
496.26	321.46
496.63	324.59
496.99	327.87
497.35	331.34
497.72	334.94
498.08	338.71
498.44	342.55
498.80	346.73
499.17	350.98
499.53	355.46
499.89	360.12
500.26	364.89
500.62	369.81
500.98	375.06
501.34	380.45
501.71	386.13
502.07	391.89
502.43	397.85
502.79	404.08
503.16	410.57
503.52	417.22
503.88	424.05
504.24	431.09
504.60	438.48
504.97	446.05
505.33	453.89
505.69	462.09
506.05	470.41
506.41	478.84
506.78	487.58
507.14	496.53
507.50	505.79
507.86	515.42
508.22	525.23
508.59	535.10
508.95	545.37
509.31	555.83
509.67	566.59
510.03	577.69
510.39	588.99
510.75	600.57
511.12	612.29
511.48	624.36
511.84	636.68
512.20	649.00
512.56	661.84
512.92	674.83
513.28	688.09
513.64	701.52
514.00	715.11
514.37	729.09
514.73	743.20
515.09	757.25
515.45	771.52
515.81	786.26
516.17	801.31
516.53	816.60
516.89	831.96
517.25	847.39
517.61	862.98
517.97	878.69
518.33	894.26
518.69	910.38
519.05	926.69
519.41	943.23
519.77	960.10
520.13	976.94
520.49	993.86
520.85	1010.66
521.21	1027.81
521.57	1045.50
521.93	1062.65
522.29	1080.54
522.65	1098.40
523.01	1116.22
523.37	1133.82
523.73	1151.64
524.09	1169.30
524.45	1187.19
524.81	1205.47
525.17	1223.92
525.53	1242.53
525.89	1261.20
526.25	1279.76
526.61	1297.90
526.97	1316.37
527.33	1334.74
527.68	1353.22
528.04	1371.48
528.40	1389.89
528.76	1408.80
529.12	1427.35
529.48	1446.32
529.84	1464.25
530.20	1482.80
530.56	1501.81
530.91	1521.30
531.27	1540.08
531.63	1558.51
531.99	1577.17
532.35	1595.24
532.71	1613.28
533.07	1631.67
533.42	1649.86
533.78	1668.03
534.14	1686.52
534.50	1704.00
534.86	1721.97
535.21	1739.33
535.57	1757.41
535.93	1775.17
536.29	1792.14
536.65	1809.55
537.00	1826.40
537.36	1843.96
537.72	1860.75
538.08	1877.62
538.44	1893.48
538.79	1909.61
539.15	1925.53
539.51	1941.48
539.87	1958.02
540.22	1974.02
540.58	1990.03
540.94	2005.36
541.29	2020.53
541.65	2035.48
542.01	2050.99
542.37	2065.64
542.72	2080.30
543.08	2094.32
543.44	2109.06
543.79	2122.61
544.15	2135.64
544.51	2149.59
544.87	2162.73
545.22	2175.87
545.58	2188.32
545.94	2200.43
546.29	2212.53
546.65	2224.70
547.01	2236.23
547.36	2247.16
547.72	2257.68
548.07	2267.67
548.43	2278.19
548.79	2288.30
549.14	2297.92
549.50	2307.33
549.86	2317.05
550.21	2326.44
550.57	2335.82
550.92	2344.34
551.28	2353.61
551.64	2362.73
551.99	2371.20
552.35	2379.47
552.70	2387.65
553.06	2395.50
553.41	2403.81
553.77	2411.60
554.13	2419.51
554.48	2427.56
554.84	2434.96
555.19	2442.03
555.55	2449.15
555.90	2455.19
556.26	2462.03
556.61	2468.57
556.97	2474.71
557.32	2480.54
557.68	2486.39
558.03	2492.26
558.39	2497.47
558.74	2503.58
559.10	2509.12
559.45	2514.31
559.81	2520.07
560.16	2525.33
560.52	2529.95
560.87	2534.80
561.23	2538.90
561.58	2543.22
561.94	2547.11
562.29	2550.68
562.64	2554.78
563.00	2558.45
563.35	2563.56
563.71	2567.89
564.06	2572.36
564.42	2576.52
564.77	2580.40
565.12	2583.96
565.48	2586.97
565.83	2590.18
566.19	2592.75
566.54	2594.62
566.89	2596.98
567.25	2598.68
567.60	2600.90
567.96	2603.83
568.31	2605.71
568.66	2607.97
569.02	2609.55
569.37	2610.71
569.72	2612.57
570.08	2613.59
570.43	2614.46
570.78	2614.54
571.14	2613.52
571.49	2612.61
571.84	2613.03
572.20	2612.62
572.55	2612.10
572.90	2610.96
573.26	2610.11
573.61	2608.70
573.96	2607.55
574.31	2604.89
574.67	2602.07
575.02	2598.64
575.37	2595.35
575.72	2591.81
576.08	2588.54
576.43	2585.20
576.78	2581.70
577.13	2578.61
577.49	2575.52
577.84	2572.14
578.19	2568.33
578.54	2564.94
578.90	2560.95
579.25	2554.94
579.60	2549.61
579.95	2544.30
580.30	2539.08
580.66	2533.59
581.01	2528.28
581.36	2523.02
581.71	2518.58
582.06	2514.09
582.42	2509.55
582.77	2503.88
583.12	2498.86
583.47	2493.90
583.82	2488.80
584.17	2483.13
584.53	2477.23
584.88	2471.07
585.23	2464.83
585.58	2458.76
585.93	2452.73
586.28	2447.26
586.63	2441.77
586.98	2436.26
587.34	2430.97
587.69	2425.55
588.04	2419.83
588.39	2413.73
588.74	2406.51
589.09	2399.61
589.44	2392.04
589.79	2385.13
590.14	2378.87
590.49	2371.47
590.84	2364.21
591.19	2357.19
591.54	2349.80
591.89	2341.57
592.25	2334.13
592.60	2325.94
592.95	2317.45
593.30	2308.95
593.65	2300.43
594.00	2292.34
594.35	2283.90
594.70	2274.79
595.05	2266.82
595.40	2258.41
595.75	2249.77
596.10	2242.59
596.45	2234.88
596.80	2227.67
597.15	2220.17
597.50	2212.29
597.85	2204.85
598.19	2197.37
598.54	2189.55
598.89	2182.02
599.24	2175.20
599.59	2167.60
599.94	2160.41
600.29	2153.17
600.64	2145.54
600.99	2137.00
601.34	2129.26
601.69	2121.28
602.04	2113.41
602.39	2104.78
602.74	2096.99
603.08	2089.27
603.43	2081.57
603.78	2072.95
604.13	2064.53
604.48	2056.24
604.83	2048.02
605.18	2040.07
605.53	2030.75
605.87	2021.18
606.22	2012.66
606.57	2003.21
606.92	1994.33
607.27	1985.98
607.62	1977.77
607.96	1969.36
608.31	1961.62
608.66	1952.74
609.01	1943.90
609.36	1934.97
609.70	1925.63
610.05	1916.08
610.40	1906.97
610.75	1897.11
611.10	1888.30
611.44	1878.43
611.79	1868.75
612.14	1858.57
612.49	1847.73
612.83	1837.71
613.18	1828.14
613.53	1818.67
613.88	1808.70
614.22	1799.03
614.57	1788.72
614.92	1779.36
615.27	1770.63
615.61	1760.87
615.96	1751.30
616.31	1742.27
616.65	1733.65
617.00	1724.73
617.35	1715.55
617.70	1705.83
618.04	1695.90
618.39	1686.14
618.74	1677.16
619.08	1667.45
619.43	1658.45
619.78	1650.17
620.12	1641.84
620.47	1632.97
620.82	1623.16
621.16	1614.28
621.51	1605.22
621.85	1596.33
622.20	1586.26
622.55	1576.26
622.89	1566.88
623.24	1557.83
623.59	1549.06
623.93	1540.04
624.28	1531.50
624.62	1522.68
624.97	1514.16
625.32	1505.95
625.66	1497.42
626.01	1488.99
626.35	1480.30
626.70	1471.06
627.04	1461.94
627.39	1452.56
627.73	1443.80
628.08	1435.77
628.43	1427.34
628.77	1418.77
629.12	1409.89
629.46	1401.37
629.81	1392.44
630.15	1383.90
630.50	1375.19
630.84	1365.63
631.19	1356.27
631.53	1347.39
631.88	1338.51
632.22	1329.48
632.57	1320.89
632.91	1312.20
633.26	1303.49
633.60	1294.76
633.95	1286.40
634.29	1278.15
634.64	1270.34
634.98	1261.71
635.32	1253.34
635.67	1245.42
636.01	1237.60
636.36	1229.65
636.70	1222.04
637.05	1214.45
637.39	1206.85
637.73	1199.17
638.08	1192.12
638.42	1185.10
638.77	1177.46
639.11	1169.76
639.45	1162.34
639.80	1154.61
640.14	1147.03
640.49	1139.37
640.83	1131.90
641.17	1124.68
641.52	1117.22
641.86	1109.60
642.20	1102.73
642.55	1095.20
642.89	1087.63
643.23	1079.87
643.58	1073.08
643.92	1065.84
644.26	1058.78
644.61	1051.69
644.95	1044.79
645.29	1037.23
645.64	1029.44
645.98	1022.14
646.32	1015.15
646.66	1008.06
647.01	1001.34
647.35	994.73
647.69	987.83
648.04	981.35
648.38	974.58
648.72	967.68
649.06	960.78
649.41	953.90
649.75	947.05
650.09	940.20
650.43	933.52
650.78	926.41
651.12	919.46
651.46	912.79
651.80	906.17
652.14	899.77
652.49	893.53
652.83	887.55
653.17	880.94
653.51	874.44
653.85	868.14
654.20	861.55
654.54	854.52
654.88	847.86
655.22	841.07
655.56	834.51
655.90	828.08
656.25	821.96
656.59	815.76
656.93	809.85
657.27	803.84
657.61	797.49
657.95	791.54
658.29	785.65
658.64	779.50
658.98	773.28
659.32	766.96
659.66	760.84
660.00	754.62
660.34	748.87
660.68	743.14
661.02	737.27
661.36	731.91
661.70	726.70
662.05	721.69
662.39	716.64
662.73	711.39
663.07	706.29
663.41	701.11
663.75	695.95
664.09	690.64
664.43	685.53
664.77	680.79
665.11	675.86
665.45	670.98
665.79	666.20
666.13	661.46
666.47	656.75
666.81	651.92
667.15	647.17
667.49	642.62
667.83	638.14
668.17	633.65
668.51	628.96
668.85	624.41
669.19	619.84
669.53	615.45
669.87	610.98
670.21	606.78
670.55	602.52
670.89	598.53
671.23	594.56
671.57	590.49
671.91	586.44
672.25	582.37
672.58	578.28
672.92	574.36
673.26	570.64
673.60	566.95
673.94	563.37
674.28	559.98
674.62	556.59
674.96	552.98
675.30	549.55
675.64	546.09
675.97	542.80
676.31	539.53
676.65	536.16
676.99	533.03
677.33	529.69
677.67	526.44
678.01	522.88
678.34	519.44
678.68	516.12
679.02	512.88
679.36	509.63
679.70	506.57
680.04	503.41
680.37	500.17
680.71	496.96
681.05	493.93
681.39	490.82
681.73	487.70
682.06	484.83
682.40	481.95
682.74	479.01
683.08	476.05
683.42	473.03
683.75	470.11
684.09	467.15
684.43	464.27
684.77	461.40
685.10	458.77
685.44	456.08
685.78	453.45
686.12	450.77
686.45	448.13
686.79	445.45
687.13	442.88
687.46	440.32
687.80	437.80
688.14	435.22
688.48	432.80
688.81	430.25
689.15	427.70
689.49	425.19
689.82	422.73
690.16	420.28
690.50	418.04
690.83	415.79
691.17	413.49
691.51	411.24
691.84	409.13
692.18	406.79
692.52	404.48
692.85	402.18
693.19	400.03
693.52	397.90
693.86	395.76
694.20	393.67
694.53	391.59
694.87	389.43
695.21	387.37
695.54	385.18
695.88	383.19
696.21	381.20
696.55	379.22
696.88	377.26
697.22	375.34
697.56	373.38
697.89	371.45
698.23	369.57
698.56	367.72
698.90	365.86
699.23	364.03
699.57	362.26
699.90	360.50
700.24	358.68
700.58	356.89
700.91	355.17
701.25	353.51
701.58	351.88
701.92	350.29
702.25	348.71
702.59	347.18
702.92	345.58
703.26	344.10
703.59	342.59
703.93	341.23
704.26	339.83
704.60	338.41
704.93	336.95
705.26	335.48
705.60	334.12
705.93	332.76
706.27	331.50
706.60	330.24
706.94	328.96
707.27	327.67
707.61	326.45
707.94	325.24
708.27	323.96
708.61	322.72
708.94	321.56
709.28	320.37
709.61	319.21
709.94	318.07
710.28	316.87
710.61	315.77
710.95	314.52
711.28	313.41
711.61	312.25
711.95	311.19
712.28	310.13
712.61	309.00
712.95	307.95
713.28	306.90
713.61	305.86
713.95	304.85
714.28	303.88
714.61	302.87
714.95	301.88
715.28	300.87
715.61	299.85
715.95	298.85
716.28	297.87
716.61	296.92
716.95	295.98
717.28	295.10
717.61	294.17
717.94	293.32
718.28	292.39
718.61	291.55
718.94	290.71
719.27	289.91
719.61	289.16
719.94	288.35
720.27	287.54
720.60	286.75
720.94	286.01
721.27	285.30
721.60	284.63
721.93	283.93
722.27	283.30
722.60	282.68
722.93	282.02
723.26	281.41
723.59	280.76
723.93	280.13
724.26	279.45
724.59	278.83
724.92	278.23
725.25	277.65
725.59	277.03
725.92	276.44
726.25	275.84
726.58	275.23
726.91	274.66
727.24	274.13
727.57	273.62
727.91	273.01
728.24	272.41
728.57	271.85
728.90	271.32
729.23	270.72
729.56	270.23
729.89	269.67
730.22	269.10
730.55	268.59
730.89	268.10
731.22	267.60
731.55	267.05
731.88	266.51
732.21	265.99
732.54	265.49
732.87	265.01
733.20	264.53
733.53	264.10
733.86	263.67
734.19	263.19
734.52	262.72
734.85	262.37
735.18	261.93
735.51	261.47
735.84	261.04
736.17	260.65
736.50	260.14
736.83	259.88
737.16	259.47
737.49	259.04
737.82	258.61
738.15	258.18
738.48	257.82
738.81	257.44
739.14	257.08
739.47	256.70
739.80	256.35
740.13	256.03
740.46	255.64
740.79	255.23
741.12	254.86
741.45	254.51
741.78	254.12
742.11	253.82
742.44	253.46
742.77	253.12
743.10	252.76
743.43	252.44
743.75	251.98
744.08	251.79
744.41	251.50
744.74	251.22
745.07	250.91
745.40	250.61
745.73	250.33
746.06	249.99
746.39	249.71
746.71	249.36
747.04	249.02
747.37	248.72
747.70	248.47
748.03	248.14
748.36	247.87
748.68	247.57
749.01	247.25
749.34	247.00
749.67	246.70
750.00	246.39
750.33	246.23
750.65	245.97
750.98	245.58
751.31	245.28
751.64	244.97
751.97	244.80
752.29	244.50
752.62	244.22
752.95	244.00
753.28	243.75
753.60	243.54
753.93	243.30
754.26	243.03
754.59	242.73
754.91	242.52
755.24	242.27
755.57	242.06
755.90	241.85
756.22	241.61
756.55	241.41
756.88	241.22
757.20	240.94
757.53	240.74
757.86	240.55
758.19	240.38
758.51	240.22
758.84	239.97
759.17	239.81
759.49	239.64
759.82	239.48
760.15	239.30
760.47	239.16
760.80	238.97
761.13	238.86
761.45	238.72
761.78	238.51
762.11	238.36
762.43	238.16
762.76	238.02
763.08	237.87
763.41	237.74
763.74	237.59
764.06	237.44
764.39	237.27
764.71	237.13
765.04	236.99
765.37	236.85
765.69	236.70
766.02	236.56
766.34	236.42
766.67	236.26
767.00	236.16
767.32	236.05
767.65	235.99
767.97	235.87
768.30	235.75
768.62	235.68
768.95	235.55
769.27	235.47
769.60	235.32
769.92	235.18
770.25	235.05
770.57	234.93
770.90	234.77
771.22	234.66
771.55	234.56
771.87	234.46
772.20	234.36
772.52	234.36
772.85	234.36
773.17	234.28
773.50	234.15
773.82	234.02
774.15	233.86
774.47	233.71
774.80	233.58
775.12	233.49
775.45	233.37
775.77	233.29
776.09	233.18
776.42	233.11
776.74	233.05
777.07	232.96
777.39	232.84
777.72	232.76
778.04	232.72
778.36	232.61
778.69	232.52
779.01	232.43
779.33	232.25
779.66	232.06
779.98	231.97
780.31	231.91
780.63	231.91
780.95	231.83
781.28	231.74
781.60	231.67
781.92	231.60
782.25	231.55
782.57	231.51
782.89	231.41
783.22	231.33
783.54	231.26
783.86	231.19
784.19	231.13
784.51	231.09
784.83	230.99
785.16	230.93
785.48	230.84
785.80	230.78
786.12	230.74
786.45	230.67
