SpectraSuite Data File
++++++++++++++++++++++++++++++++++++
Date: Fri Feb 01 15:49:51 EST 2013
User: group
Dark Spectrum Present: No
Reference Spectrum Present: No
Number of Sampled Component Spectra: 1
Spectrometers: USB2E7196
Integration Time (usec): 35000 (USB2E7196)
Spectra Averaged: 100 (USB2E7196)
Boxcar Smoothing: 10 (USB2E7196)
Correct for Electrical Dark: No (USB2E7196)
Strobe/Lamp Enabled: No (USB2E7196)
Correct for Detector Non-linearity: No (USB2E7196)
Correct for Stray Light: No (USB2E7196)
Number of Pixels in Processed Spectrum: 2048
>>>>>Begin Processed Spectral Data<<<<<
339.09	0.00
339.48	215.03
339.86	215.58
340.24	217.88
340.63	218.52
341.01	222.15
341.39	221.65
341.78	222.52
342.16	224.26
342.54	224.96
342.93	213.14
343.31	223.90
343.69	224.44
344.07	224.94
344.46	225.35
344.84	225.79
345.22	226.01
345.60	226.28
345.99	226.50
346.37	226.63
346.75	226.72
347.13	226.79
347.52	226.82
347.90	226.90
348.28	226.97
348.66	227.03
349.05	227.02
349.43	227.07
349.81	227.14
350.19	227.17
350.57	227.26
350.96	227.32
351.34	227.43
351.72	227.51
352.10	227.62
352.48	227.71
352.87	227.73
353.25	227.80
353.63	227.88
354.01	227.98
354.39	228.07
354.77	228.15
355.15	228.23
355.54	228.32
355.92	228.36
356.30	228.39
356.68	228.49
357.06	228.54
357.44	228.60
357.82	228.71
358.20	228.78
358.58	228.84
358.97	228.89
359.35	228.98
359.73	229.07
360.11	229.10
360.49	229.13
360.87	229.19
361.25	229.22
361.63	229.26
362.01	229.27
362.39	229.27
362.77	229.32
363.15	229.36
363.53	229.34
363.91	229.35
364.29	229.40
364.67	229.33
365.05	229.40
365.43	229.41
365.81	229.39
366.19	229.44
366.57	229.46
366.95	229.48
367.33	229.42
367.71	229.38
368.09	229.37
368.47	229.32
368.85	229.28
369.23	229.29
369.61	229.23
369.99	229.22
370.37	229.24
370.75	229.25
371.13	229.18
371.51	229.15
371.89	229.11
372.27	229.02
372.65	228.99
373.03	228.88
373.41	228.81
373.78	228.75
374.16	228.63
374.54	228.52
374.92	228.44
375.30	228.38
375.68	228.31
376.06	228.28
376.44	228.22
376.82	228.16
377.19	228.11
377.57	228.04
377.95	227.94
378.33	227.83
378.71	227.70
379.09	227.64
379.47	227.57
379.84	227.48
380.22	227.41
380.60	227.32
380.98	227.27
381.36	227.20
381.73	227.14
382.11	227.09
382.49	227.06
382.87	226.97
383.25	226.94
383.62	226.97
384.00	226.87
384.38	226.82
384.76	226.79
385.13	226.74
385.51	226.65
385.89	226.61
386.27	226.56
386.64	226.53
387.02	226.45
387.40	226.40
387.78	226.38
388.15	226.34
388.53	226.29
388.91	226.26
389.29	226.22
389.66	226.21
390.04	226.17
390.42	226.16
390.79	226.17
391.17	226.13
391.55	226.01
391.92	226.02
392.30	226.05
392.68	226.02
393.05	226.01
393.43	226.04
393.81	226.03
394.18	226.01
394.56	226.02
394.94	226.05
395.31	226.08
395.69	226.12
396.06	226.18
396.44	226.25
396.82	226.28
397.19	226.38
397.57	226.40
397.95	226.44
398.32	226.47
398.70	226.53
399.07	226.63
399.45	226.72
399.82	226.75
400.20	226.80
400.58	226.87
400.95	226.91
401.33	227.03
401.70	227.20
402.08	227.32
402.45	227.42
402.83	227.56
403.20	227.68
403.58	227.76
403.95	227.89
404.33	228.00
404.71	228.12
405.08	228.25
405.46	228.40
405.83	228.58
406.21	228.73
406.58	228.88
406.96	229.02
407.33	229.19
407.70	229.42
408.08	229.69
408.45	229.93
408.83	230.17
409.20	230.40
409.58	230.58
409.95	230.84
410.33	231.11
410.70	231.35
411.08	231.64
411.45	231.97
411.82	232.28
412.20	232.66
412.57	233.07
412.95	233.38
413.32	233.77
413.69	234.18
414.07	234.63
414.44	235.10
414.82	235.60
415.19	236.13
415.56	236.67
415.94	237.21
416.31	237.86
416.68	238.53
417.06	239.23
417.43	239.92
417.81	240.67
418.18	241.48
418.55	242.32
418.93	243.21
419.30	244.12
419.67	245.02
420.04	245.96
420.42	247.01
420.79	248.20
421.16	249.37
421.54	250.54
421.91	251.76
422.28	252.99
422.66	254.33
423.03	255.64
423.40	256.96
423.77	258.37
424.15	259.77
424.52	261.23
424.89	262.82
425.26	264.36
425.64	265.84
426.01	267.40
426.38	269.04
426.75	270.72
427.13	272.41
427.50	274.25
427.87	276.13
428.24	277.97
428.61	279.71
428.99	281.62
429.36	283.72
429.73	285.76
430.10	287.80
430.47	289.86
430.85	291.99
431.22	294.24
431.59	296.64
431.96	298.92
432.33	301.43
432.70	303.85
433.08	306.67
433.45	309.28
433.82	311.89
434.19	314.81
434.56	317.59
434.93	320.27
435.30	322.87
435.68	325.74
436.05	328.51
436.42	331.29
436.79	333.80
437.16	336.51
437.53	339.35
437.90	342.20
438.27	344.93
438.64	347.75
439.01	350.37
439.38	352.57
439.75	354.70
440.13	357.20
440.50	359.46
440.87	361.31
441.24	363.27
441.61	365.43
441.98	366.90
442.35	368.73
442.72	370.60
443.09	372.43
443.46	373.42
443.83	374.06
444.20	374.57
444.57	375.44
444.94	375.73
445.31	376.06
445.68	376.35
446.05	376.42
446.42	376.01
446.79	375.58
447.16	375.16
447.53	374.85
447.90	373.70
448.27	372.62
448.64	371.03
449.01	369.90
449.37	367.89
449.74	366.02
450.11	363.74
450.48	361.20
450.85	358.66
451.22	356.58
451.59	354.58
451.96	352.64
452.33	350.03
452.70	347.68
453.07	344.87
453.43	342.04
453.80	339.27
454.17	336.64
454.54	334.08
454.91	331.30
455.28	328.65
455.65	326.16
456.02	323.69
456.38	321.54
456.75	318.83
457.12	316.60
457.49	314.38
457.86	312.19
458.23	310.40
458.59	308.33
458.96	306.21
459.33	304.32
459.70	302.48
460.07	300.96
460.43	299.26
460.80	297.63
461.17	296.16
461.54	294.67
461.91	293.24
462.27	291.82
462.64	290.61
463.01	289.23
463.38	287.90
463.74	286.51
464.11	285.32
464.48	284.32
464.85	283.24
465.21	282.36
465.58	281.44
465.95	280.33
466.32	279.43
466.68	278.53
467.05	277.65
467.42	276.73
467.78	275.81
468.15	274.88
468.52	274.24
468.88	273.40
469.25	272.65
469.62	272.01
469.98	271.34
470.35	270.68
470.72	270.06
471.08	269.43
471.45	268.91
471.82	268.44
472.18	267.85
472.55	267.39
472.92	266.87
473.28	266.42
473.65	266.00
474.02	265.55
474.38	265.21
474.75	264.85
475.11	264.51
475.48	264.24
475.85	264.04
476.21	263.80
476.58	263.58
476.94	263.42
477.31	263.28
477.67	263.13
478.04	263.04
478.41	263.01
478.77	263.07
479.14	263.01
479.50	263.01
479.87	263.12
480.23	263.22
480.60	263.29
480.96	263.38
481.33	263.57
481.69	263.77
482.06	263.91
482.42	264.12
482.79	264.40
483.15	264.71
483.52	265.09
483.88	265.46
484.25	265.88
484.61	266.31
484.98	266.78
485.34	267.34
485.71	267.92
486.07	268.53
486.44	269.09
486.80	269.81
487.17	270.52
487.53	271.29
487.90	272.14
488.26	273.10
488.62	274.09
488.99	275.08
489.35	276.15
489.72	277.34
490.08	278.57
490.44	279.81
490.81	281.19
491.17	282.59
491.54	284.06
491.90	285.60
492.26	287.26
492.63	288.96
492.99	290.77
493.36	292.69
493.72	294.75
494.08	296.86
494.45	299.10
494.81	301.48
495.17	303.95
495.54	306.53
495.90	309.21
496.26	312.04
496.63	315.00
496.99	318.05
497.35	321.33
497.72	324.73
498.08	328.25
498.44	331.93
498.80	335.84
499.17	339.88
499.53	344.04
499.89	348.41
500.26	352.93
500.62	357.60
500.98	362.60
501.34	367.65
501.71	372.95
502.07	378.36
502.43	383.97
502.79	389.76
503.16	395.84
503.52	402.12
503.88	408.49
504.24	415.18
504.60	422.11
504.97	429.23
505.33	436.55
505.69	444.25
506.05	452.01
506.41	459.95
506.78	468.10
507.14	476.54
507.50	485.29
507.86	494.29
508.22	503.46
508.59	512.64
508.95	522.21
509.31	531.98
509.67	542.15
510.03	552.48
510.39	563.10
510.75	573.91
511.12	584.80
511.48	596.16
511.84	607.58
512.20	619.14
512.56	631.08
512.92	643.29
513.28	655.63
513.64	668.10
514.00	680.74
514.37	693.68
514.73	706.76
515.09	719.72
515.45	733.08
515.81	746.70
516.17	760.72
516.53	774.86
516.89	789.15
517.25	803.24
517.61	817.59
517.97	831.95
518.33	846.32
518.69	861.05
519.05	876.01
519.41	891.13
519.77	906.59
520.13	921.99
520.49	937.31
520.85	952.82
521.21	968.51
521.57	984.68
521.93	1000.44
522.29	1016.86
522.65	1033.12
523.01	1049.30
523.37	1065.27
523.73	1081.38
524.09	1097.38
524.45	1113.67
524.81	1130.27
525.17	1147.16
525.53	1164.12
525.89	1181.02
526.25	1197.88
526.61	1214.22
526.97	1231.00
527.33	1247.45
527.68	1264.08
528.04	1280.55
528.40	1297.05
528.76	1314.13
529.12	1330.73
529.48	1347.60
529.84	1363.52
530.20	1380.10
530.56	1397.15
530.91	1414.57
531.27	1431.34
531.63	1447.89
531.99	1464.32
532.35	1480.37
532.71	1496.14
533.07	1512.38
533.42	1528.26
533.78	1544.24
534.14	1560.53
534.50	1575.75
534.86	1591.69
535.21	1606.83
535.57	1622.80
535.93	1638.28
536.29	1652.96
536.65	1667.99
537.00	1682.85
537.36	1698.20
537.72	1712.78
538.08	1727.12
538.44	1740.73
538.79	1754.61
539.15	1768.27
539.51	1782.20
539.87	1796.49
540.22	1810.28
540.58	1824.05
540.94	1837.36
541.29	1850.49
541.65	1863.21
542.01	1876.48
542.37	1888.70
542.72	1901.19
543.08	1912.90
543.44	1925.29
543.79	1936.53
544.15	1947.59
544.51	1959.00
544.87	1970.02
545.22	1980.73
545.58	1990.98
545.94	2000.85
546.29	2010.69
546.65	2020.51
547.01	2029.68
547.36	2038.38
547.72	2046.85
548.07	2054.58
548.43	2062.79
548.79	2070.65
549.14	2078.05
549.50	2085.37
549.86	2093.23
550.21	2100.47
550.57	2107.60
550.92	2114.12
551.28	2121.36
551.64	2128.31
551.99	2134.76
552.35	2140.98
552.70	2147.16
553.06	2153.09
553.41	2159.49
553.77	2165.51
554.13	2171.50
554.48	2177.56
554.84	2182.90
555.19	2188.16
555.55	2193.31
555.90	2197.80
556.26	2202.74
556.61	2207.55
556.97	2211.94
557.32	2216.00
557.68	2220.10
558.03	2224.47
558.39	2228.22
558.74	2232.83
559.10	2236.73
559.45	2240.50
559.81	2244.74
560.16	2248.70
560.52	2251.90
560.87	2255.22
561.23	2257.96
561.58	2261.08
561.94	2263.55
562.29	2266.11
562.64	2268.79
563.00	2271.32
563.35	2274.76
563.71	2277.92
564.06	2281.14
564.42	2283.83
564.77	2286.26
565.12	2288.53
565.48	2290.29
565.83	2292.11
566.19	2293.39
566.54	2294.36
566.89	2295.51
567.25	2295.96
567.60	2297.21
567.96	2298.86
568.31	2299.77
568.66	2300.85
569.02	2301.24
569.37	2301.52
569.72	2302.41
570.08	2302.43
570.43	2302.55
570.78	2301.96
571.14	2300.33
571.49	2299.07
571.84	2298.88
572.20	2297.64
572.55	2296.62
572.90	2295.11
573.26	2293.80
573.61	2292.07
573.96	2290.10
574.31	2287.18
574.67	2284.12
575.02	2280.34
575.37	2277.00
575.72	2273.18
576.08	2269.74
576.43	2266.57
576.78	2262.98
577.13	2259.77
577.49	2256.82
577.84	2253.33
578.19	2249.73
578.54	2246.07
578.90	2241.76
579.25	2236.08
579.60	2231.12
579.95	2226.04
580.30	2221.05
580.66	2215.77
581.01	2210.78
581.36	2206.03
581.71	2201.75
582.06	2197.45
582.42	2193.07
582.77	2187.76
583.12	2183.15
583.47	2178.51
583.82	2173.47
584.17	2168.26
584.53	2162.64
584.88	2156.84
585.23	2151.02
585.58	2145.45
585.93	2140.00
586.28	2135.28
586.63	2130.31
586.98	2125.28
587.34	2120.67
587.69	2115.70
588.04	2110.53
588.39	2104.74
588.74	2098.30
589.09	2092.23
589.44	2085.35
589.79	2079.43
590.14	2073.88
590.49	2067.32
590.84	2060.92
591.19	2054.74
591.54	2048.26
591.89	2040.90
592.25	2034.25
592.60	2027.08
592.95	2019.50
593.30	2012.14
593.65	2004.46
594.00	1997.40
594.35	1990.22
594.70	1982.10
595.05	1974.90
595.40	1967.60
595.75	1960.11
596.10	1953.89
596.45	1947.09
596.80	1940.97
597.15	1934.36
597.50	1927.16
597.85	1920.81
598.19	1914.04
598.54	1906.96
598.89	1900.33
599.24	1894.50
599.59	1887.80
599.94	1881.62
600.29	1875.35
600.64	1868.84
600.99	1861.35
601.34	1854.51
601.69	1847.63
602.04	1840.82
602.39	1833.63
602.74	1826.67
603.08	1820.06
603.43	1813.33
603.78	1805.98
604.13	1798.79
604.48	1791.32
604.83	1784.49
605.18	1777.31
605.53	1769.36
605.87	1761.41
606.22	1754.20
606.57	1746.21
606.92	1738.85
607.27	1731.60
607.62	1724.51
607.96	1717.20
608.31	1710.63
608.66	1702.99
609.01	1695.30
609.36	1687.63
609.70	1679.59
610.05	1671.65
610.40	1663.94
610.75	1655.46
611.10	1647.78
611.44	1639.19
611.79	1631.28
612.14	1622.57
612.49	1613.48
612.83	1605.17
613.18	1597.11
613.53	1588.88
613.88	1580.25
614.22	1571.85
614.57	1563.29
614.92	1555.28
615.27	1547.58
615.61	1539.16
615.96	1531.20
616.31	1523.64
616.65	1516.30
617.00	1508.59
617.35	1500.91
617.70	1492.46
618.04	1484.09
618.39	1475.86
618.74	1468.34
619.08	1459.96
619.43	1452.41
619.78	1445.60
620.12	1438.31
620.47	1430.64
620.82	1422.44
621.16	1415.08
621.51	1407.55
621.85	1399.93
622.20	1391.33
622.55	1383.03
622.89	1375.17
623.24	1367.54
623.59	1360.07
623.93	1352.54
624.28	1345.38
624.62	1337.71
624.97	1330.58
625.32	1323.82
625.66	1316.82
626.01	1309.68
626.35	1302.24
626.70	1294.58
627.04	1286.79
627.39	1279.13
627.73	1271.90
628.08	1265.10
628.43	1257.83
628.77	1250.52
629.12	1242.93
629.46	1235.85
629.81	1228.46
630.15	1221.34
630.50	1213.84
630.84	1205.72
631.19	1197.81
631.53	1190.26
631.88	1182.80
632.22	1175.22
632.57	1167.87
632.91	1160.39
633.26	1152.91
633.60	1145.65
633.95	1138.51
634.29	1131.52
634.64	1124.84
634.98	1117.42
635.32	1110.29
635.67	1103.77
636.01	1097.04
636.36	1090.24
636.70	1083.73
637.05	1077.17
637.39	1070.72
637.73	1064.21
638.08	1058.35
638.42	1052.40
638.77	1046.07
639.11	1039.44
639.45	1033.01
639.80	1026.37
640.14	1019.94
640.49	1013.46
640.83	1007.11
641.17	1000.80
641.52	994.41
641.86	987.93
642.20	981.94
642.55	975.64
642.89	969.10
643.23	962.52
643.58	956.82
643.92	950.66
644.26	944.57
644.61	938.47
644.95	932.52
645.29	925.83
645.64	919.09
645.98	912.68
646.32	906.87
646.66	900.83
647.01	895.06
647.35	889.32
647.69	883.43
648.04	877.87
648.38	872.15
648.72	866.11
649.06	860.02
649.41	854.27
649.75	848.26
650.09	842.26
650.43	836.64
650.78	830.38
651.12	824.34
651.46	818.66
651.80	812.89
652.14	807.47
652.49	802.17
652.83	796.96
653.17	791.23
653.51	785.53
653.85	780.11
654.20	774.41
654.54	768.39
654.88	762.73
655.22	756.90
655.56	751.22
655.90	745.80
656.25	740.61
656.59	735.23
656.93	730.17
657.27	725.01
657.61	719.51
657.95	714.47
658.29	709.38
658.64	704.16
658.98	698.89
659.32	693.42
659.66	688.16
660.00	682.83
660.34	677.88
660.68	672.95
661.02	667.97
661.36	663.18
661.70	658.72
662.05	654.30
662.39	649.96
662.73	645.43
663.07	641.04
663.41	636.54
663.75	632.04
664.09	627.45
664.43	623.06
664.77	618.90
665.11	614.64
665.45	610.54
665.79	606.42
666.13	602.28
666.47	598.24
666.81	594.11
667.15	589.97
667.49	586.12
667.83	582.27
668.17	578.36
668.51	574.40
668.85	570.33
669.19	566.52
669.53	562.60
669.87	558.73
670.21	555.09
670.55	551.44
670.89	548.00
671.23	544.55
671.57	541.06
671.91	537.50
672.25	533.97
672.58	530.43
672.92	527.03
673.26	523.91
673.60	520.68
673.94	517.54
674.28	514.61
674.62	511.69
674.96	508.64
675.30	505.68
675.64	502.70
675.97	499.97
676.31	497.10
676.65	494.20
676.99	491.54
677.33	488.66
677.67	485.90
678.01	482.86
678.34	479.86
678.68	477.03
679.02	474.28
679.36	471.56
679.70	468.90
680.04	466.15
680.37	463.28
680.71	460.50
681.05	457.91
681.39	455.24
681.73	452.58
682.06	450.05
682.40	447.54
682.74	445.06
683.08	442.49
683.42	439.93
683.75	437.47
684.09	434.90
684.43	432.40
684.77	429.91
685.10	427.57
685.44	425.32
685.78	423.03
686.12	420.79
686.45	418.47
686.79	416.19
687.13	413.97
687.46	411.81
687.80	409.65
688.14	407.48
688.48	405.44
688.81	403.17
689.15	401.05
689.49	398.93
689.82	396.82
690.16	394.76
690.50	392.78
690.83	390.81
691.17	388.83
691.51	386.96
691.84	385.10
692.18	383.14
692.52	381.15
692.85	379.20
693.19	377.31
693.52	375.52
693.86	373.71
694.20	371.95
694.53	370.13
694.87	368.34
695.21	366.52
695.54	364.70
695.88	363.01
696.21	361.26
696.55	359.57
696.88	357.91
697.22	356.25
697.56	354.63
697.89	352.97
698.23	351.38
698.56	349.75
698.90	348.17
699.23	346.55
699.57	345.00
699.90	343.48
700.24	341.93
700.58	340.39
700.91	338.83
701.25	337.42
701.58	336.02
701.92	334.64
702.25	333.27
702.59	331.86
702.92	330.53
703.26	329.20
703.59	327.90
703.93	326.67
704.26	325.42
704.60	324.13
704.93	322.84
705.26	321.55
705.60	320.39
705.93	319.20
706.27	318.16
706.60	317.08
706.94	315.94
707.27	314.83
707.61	313.73
707.94	312.73
708.27	311.55
708.61	310.47
708.94	309.44
709.28	308.44
709.61	307.51
709.94	306.54
710.28	305.53
710.61	304.52
710.95	303.46
711.28	302.52
711.61	301.58
711.95	300.66
712.28	299.75
712.61	298.80
712.95	297.89
713.28	297.01
713.61	296.10
713.95	295.26
714.28	294.37
714.61	293.50
714.95	292.64
715.28	291.84
715.61	291.01
715.95	290.14
716.28	289.33
716.61	288.51
716.95	287.66
717.28	286.90
717.61	286.19
717.94	285.46
718.28	284.71
718.61	283.96
718.94	283.28
719.27	282.61
719.61	281.98
719.94	281.31
720.27	280.59
720.60	279.94
720.94	279.33
721.27	278.78
721.60	278.24
721.93	277.65
722.27	277.08
722.60	276.50
722.93	275.97
723.26	275.41
723.59	274.85
723.93	274.35
724.26	273.81
724.59	273.23
724.92	272.72
725.25	272.17
725.59	271.69
725.92	271.19
726.25	270.69
726.58	270.19
726.91	269.70
727.24	269.25
727.57	268.82
727.91	268.29
728.24	267.83
728.57	267.33
728.90	266.90
729.23	266.43
729.56	266.01
729.89	265.50
730.22	265.02
730.55	264.56
730.89	264.12
731.22	263.68
731.55	263.24
731.88	262.81
732.21	262.42
732.54	261.96
732.87	261.52
733.20	261.13
733.53	260.73
733.86	260.34
734.19	259.94
734.52	259.55
734.85	259.24
735.18	258.84
735.51	258.46
735.84	258.04
736.17	257.67
736.50	257.26
736.83	257.05
737.16	256.73
737.49	256.40
737.82	256.03
738.15	255.72
738.48	255.35
738.81	255.00
739.14	254.67
739.47	254.38
739.80	254.07
740.13	253.75
740.46	253.43
740.79	253.11
741.12	252.79
741.45	252.50
741.78	252.15
742.11	251.84
742.44	251.51
742.77	251.23
743.10	250.94
743.43	250.64
743.75	250.26
744.08	250.10
744.41	249.83
744.74	249.57
745.07	249.27
745.40	249.07
745.73	248.81
746.06	248.53
746.39	248.26
746.71	248.02
747.04	247.74
747.37	247.45
747.70	247.23
748.03	246.98
748.36	246.72
748.68	246.48
749.01	246.24
749.34	246.04
749.67	245.83
750.00	245.60
750.33	245.45
750.65	245.23
750.98	244.89
751.31	244.64
751.64	244.45
751.97	244.27
752.29	244.00
752.62	243.77
752.95	243.56
753.28	243.34
753.60	243.10
753.93	242.93
754.26	242.77
754.59	242.51
754.91	242.28
755.24	242.12
755.57	241.92
755.90	241.73
756.22	241.53
756.55	241.31
756.88	241.09
757.20	240.84
757.53	240.66
757.86	240.46
758.19	240.32
758.51	240.14
758.84	239.90
759.17	239.73
759.49	239.58
759.82	239.45
760.15	239.28
760.47	239.13
760.80	238.95
761.13	238.79
761.45	238.65
761.78	238.52
762.11	238.34
762.43	238.19
762.76	238.04
763.08	237.91
763.41	237.79
763.74	237.67
764.06	237.54
764.39	237.39
764.71	237.27
765.04	237.13
765.37	236.98
765.69	236.87
766.02	236.77
766.34	236.64
766.67	236.49
767.00	236.44
767.32	236.36
767.65	236.34
767.97	236.17
768.30	236.03
768.62	235.94
768.95	235.84
769.27	235.72
769.60	235.63
769.92	235.50
770.25	235.39
770.57	235.25
770.90	235.14
771.22	235.04
771.55	234.94
771.87	234.85
772.20	234.75
772.52	234.75
772.85	234.77
773.17	234.67
773.50	234.57
773.82	234.44
774.15	234.31
774.47	234.11
774.80	234.06
775.12	234.00
775.45	233.90
775.77	233.78
776.09	233.69
776.42	233.62
776.74	233.58
777.07	233.49
777.39	233.41
777.72	233.35
778.04	233.26
778.36	233.18
778.69	233.13
779.01	233.09
779.33	232.96
779.66	232.80
779.98	232.73
780.31	232.65
780.63	232.63
780.95	232.59
781.28	232.55
781.60	232.46
781.92	232.41
782.25	232.37
782.57	232.30
782.89	232.26
783.22	232.19
783.54	232.11
783.86	232.06
784.19	232.02
784.51	232.00
784.83	231.96
785.16	231.89
785.48	231.83
785.80	231.76
786.12	231.69
786.45	231.65
786.77	231.59
787.09	231.57
