SpectraSuite Data File
++++++++++++++++++++++++++++++++++++
Date: Fri Feb 01 15:27:07 EST 2013
User: group
Dark Spectrum Present: No
Reference Spectrum Present: No
Number of Sampled Component Spectra: 1
Spectrometers: USB2E7196
Integration Time (usec): 35000 (USB2E7196)
Spectra Averaged: 100 (USB2E7196)
Boxcar Smoothing: 10 (USB2E7196)
Correct for Electrical Dark: No (USB2E7196)
Strobe/Lamp Enabled: No (USB2E7196)
Correct for Detector Non-linearity: No (USB2E7196)
Correct for Stray Light: No (USB2E7196)
Number of Pixels in Processed Spectrum: 2048
>>>>>Begin Processed Spectral Data<<<<<
339.09	0.00
339.48	214.93
339.86	216.51
340.24	217.82
340.63	219.45
341.01	221.79
341.39	221.60
341.78	222.90
342.16	225.10
342.54	225.27
342.93	213.44
343.31	224.23
343.69	224.77
344.07	225.26
344.46	225.66
344.84	226.02
345.22	226.29
345.60	226.54
345.99	226.77
346.37	226.88
346.75	227.00
347.13	227.07
347.52	227.11
347.90	227.18
348.28	227.22
348.66	227.28
349.05	227.28
349.43	227.32
349.81	227.37
350.19	227.42
350.57	227.50
350.96	227.58
351.34	227.65
351.72	227.77
352.10	227.85
352.48	227.97
352.87	228.06
353.25	228.13
353.63	228.25
354.01	228.31
354.39	228.39
354.77	228.46
355.15	228.57
355.54	228.64
355.92	228.68
356.30	228.75
356.68	228.85
357.06	228.92
357.44	228.95
357.82	229.00
358.20	229.06
358.58	229.12
358.97	229.14
359.35	229.24
359.73	229.29
360.11	229.35
360.49	229.39
360.87	229.42
361.25	229.46
361.63	229.49
362.01	229.52
362.39	229.53
362.77	229.51
363.15	229.51
363.53	229.50
363.91	229.51
364.29	229.53
364.67	229.44
365.05	229.48
365.43	229.48
365.81	229.53
366.19	229.54
366.57	229.54
366.95	229.55
367.33	229.50
367.71	229.48
368.09	229.44
368.47	229.40
368.85	229.38
369.23	229.35
369.61	229.29
369.99	229.28
370.37	229.25
370.75	229.29
371.13	229.23
371.51	229.21
371.89	229.17
372.27	229.09
372.65	229.05
373.03	228.95
373.41	228.91
373.78	228.81
374.16	228.71
374.54	228.61
374.92	228.53
375.30	228.48
375.68	228.38
376.06	228.31
376.44	228.24
376.82	228.17
377.19	228.09
377.57	228.02
377.95	227.91
378.33	227.82
378.71	227.69
379.09	227.61
379.47	227.55
379.84	227.45
380.22	227.39
380.60	227.29
380.98	227.25
381.36	227.17
381.73	227.08
382.11	227.07
382.49	227.03
382.87	226.98
383.25	226.91
383.62	226.95
384.00	226.89
384.38	226.85
384.76	226.82
385.13	226.80
385.51	226.75
385.89	226.70
386.27	226.66
386.64	226.65
387.02	226.64
387.40	226.59
387.78	226.60
388.15	226.56
388.53	226.57
388.91	226.54
389.29	226.50
389.66	226.49
390.04	226.46
390.42	226.45
390.79	226.45
391.17	226.46
391.55	226.40
391.92	226.38
392.30	226.36
392.68	226.34
393.05	226.35
393.43	226.39
393.81	226.39
394.18	226.41
394.56	226.40
394.94	226.43
395.31	226.45
395.69	226.48
396.06	226.53
396.44	226.55
396.82	226.60
397.19	226.72
397.57	226.78
397.95	226.84
398.32	226.86
398.70	226.94
399.07	227.02
399.45	227.06
399.82	227.14
400.20	227.22
400.58	227.33
400.95	227.36
401.33	227.46
401.70	227.67
402.08	227.78
402.45	227.88
402.83	228.03
403.20	228.17
403.58	228.29
403.95	228.45
404.33	228.57
404.71	228.73
405.08	228.91
405.46	229.07
405.83	229.21
406.21	229.41
406.58	229.59
406.96	229.76
407.33	229.94
407.70	230.18
408.08	230.43
408.45	230.68
408.83	230.95
409.20	231.12
409.58	231.31
409.95	231.60
410.33	231.90
410.70	232.12
411.08	232.39
411.45	232.68
411.82	232.98
412.20	233.37
412.57	233.78
412.95	234.10
413.32	234.45
413.69	234.87
414.07	235.30
414.44	235.76
414.82	236.26
415.19	236.84
415.56	237.37
415.94	237.96
416.31	238.57
416.68	239.19
417.06	239.94
417.43	240.61
417.81	241.35
418.18	242.11
418.55	242.96
418.93	243.86
419.30	244.77
419.67	245.73
420.04	246.66
420.42	247.63
420.79	248.79
421.16	249.95
421.54	251.11
421.91	252.31
422.28	253.53
422.66	254.83
423.03	256.11
423.40	257.44
423.77	258.80
424.15	260.21
424.52	261.73
424.89	263.34
425.26	264.86
425.64	266.30
426.01	267.89
426.38	269.54
426.75	271.18
427.13	272.90
427.50	274.69
427.87	276.56
428.24	278.44
428.61	280.19
428.99	282.13
429.36	284.26
429.73	286.32
430.10	288.34
430.47	290.36
430.85	292.48
431.22	294.68
431.59	297.07
431.96	299.33
432.33	301.76
432.70	304.12
433.08	306.97
433.45	309.60
433.82	312.18
434.19	315.06
434.56	317.90
434.93	320.54
435.30	323.19
435.68	326.05
436.05	328.88
436.42	331.69
436.79	334.20
437.16	336.89
437.53	339.73
437.90	342.57
438.27	345.38
438.64	348.21
439.01	350.87
439.38	353.14
439.75	355.28
440.13	357.76
440.50	360.10
440.87	361.96
441.24	363.93
441.61	366.12
441.98	367.63
442.35	369.39
442.72	371.24
443.09	373.06
443.46	374.09
443.83	374.68
444.20	375.21
444.57	376.11
444.94	376.37
445.31	376.71
445.68	377.07
446.05	377.11
446.42	376.71
446.79	376.25
447.16	375.78
447.53	375.51
447.90	374.36
448.27	373.20
448.64	371.57
449.01	370.41
449.37	368.44
449.74	366.51
450.11	364.30
450.48	361.86
450.85	359.29
451.22	357.11
451.59	355.06
451.96	353.09
452.33	350.41
452.70	348.06
453.07	345.24
453.43	342.32
453.80	339.59
454.17	336.95
454.54	334.42
454.91	331.67
455.28	328.95
455.65	326.46
456.02	324.02
456.38	321.84
456.75	319.18
457.12	316.93
457.49	314.72
457.86	312.54
458.23	310.67
458.59	308.64
458.96	306.56
459.33	304.72
459.70	302.84
460.07	301.35
460.43	299.63
460.80	297.99
461.17	296.57
461.54	295.01
461.91	293.55
462.27	292.10
462.64	290.86
463.01	289.49
463.38	288.22
463.74	286.86
464.11	285.72
464.48	284.71
464.85	283.59
465.21	282.71
465.58	281.76
465.95	280.64
466.32	279.68
466.68	278.77
467.05	277.84
467.42	276.93
467.78	275.98
468.15	275.10
468.52	274.42
468.88	273.52
469.25	272.77
469.62	272.16
469.98	271.47
470.35	270.84
470.72	270.22
471.08	269.53
471.45	268.97
471.82	268.45
472.18	267.84
472.55	267.41
472.92	266.86
473.28	266.41
473.65	266.00
474.02	265.57
474.38	265.20
474.75	264.90
475.11	264.52
475.48	264.27
475.85	264.09
476.21	263.86
476.58	263.67
476.94	263.50
477.31	263.33
477.67	263.17
478.04	263.04
478.41	263.03
478.77	263.10
479.14	263.02
479.50	262.97
479.87	263.04
480.23	263.11
480.60	263.19
480.96	263.24
481.33	263.42
481.69	263.66
482.06	263.86
482.42	264.07
482.79	264.36
483.15	264.68
483.52	265.04
483.88	265.40
484.25	265.79
484.61	266.23
484.98	266.65
485.34	267.18
485.71	267.72
486.07	268.31
486.44	268.85
486.80	269.55
487.17	270.30
487.53	271.11
487.90	271.96
488.26	272.94
488.62	273.97
488.99	274.99
489.35	275.98
489.72	277.12
490.08	278.33
490.44	279.58
490.81	280.86
491.17	282.19
491.54	283.67
491.90	285.22
492.26	286.87
492.63	288.64
492.99	290.45
493.36	292.43
493.72	294.50
494.08	296.62
494.45	298.90
494.81	301.30
495.17	303.73
495.54	306.27
495.90	308.93
496.26	311.72
496.63	314.66
496.99	317.78
497.35	320.97
497.72	324.33
498.08	327.82
498.44	331.54
498.80	335.45
499.17	339.48
499.53	343.60
499.89	347.96
500.26	352.50
500.62	357.16
500.98	362.05
501.34	367.11
501.71	372.42
502.07	377.85
502.43	383.44
502.79	389.22
503.16	395.33
503.52	401.60
503.88	408.02
504.24	414.61
504.60	421.47
504.97	428.62
505.33	435.99
505.69	443.71
506.05	451.45
506.41	459.38
506.78	467.58
507.14	476.08
507.50	484.85
507.86	493.83
508.22	503.02
508.59	512.24
508.95	521.83
509.31	531.65
509.67	541.73
510.03	552.04
510.39	562.54
510.75	573.31
511.12	584.26
511.48	595.62
511.84	607.13
512.20	618.74
512.56	630.72
512.92	642.86
513.28	655.14
513.64	667.70
514.00	680.39
514.37	693.33
514.73	706.34
515.09	719.40
515.45	732.68
515.81	746.28
516.17	760.30
516.53	774.41
516.89	788.63
517.25	802.86
517.61	817.26
517.97	831.77
518.33	846.23
518.69	860.99
519.05	875.96
519.41	891.14
519.77	906.69
520.13	922.21
520.49	937.59
520.85	953.05
521.21	968.71
521.57	984.94
521.93	1000.77
522.29	1017.29
522.65	1033.43
523.01	1049.78
523.37	1065.84
523.73	1082.12
524.09	1098.32
524.45	1114.61
524.81	1131.35
525.17	1148.30
525.53	1165.38
525.89	1182.29
526.25	1199.27
526.61	1215.66
526.97	1232.48
527.33	1249.06
527.68	1265.65
528.04	1282.34
528.40	1299.03
528.76	1316.23
529.12	1332.85
529.48	1349.69
529.84	1365.77
530.20	1382.53
530.56	1399.59
530.91	1417.04
531.27	1433.84
531.63	1450.36
531.99	1467.05
532.35	1483.07
532.71	1498.86
533.07	1515.06
533.42	1531.05
533.78	1547.04
534.14	1563.38
534.50	1578.70
534.86	1594.69
535.21	1609.92
535.57	1625.87
535.93	1641.48
536.29	1656.41
536.65	1671.72
537.00	1686.57
537.36	1702.06
537.72	1716.76
538.08	1731.26
538.44	1745.17
538.79	1759.02
539.15	1772.89
539.51	1786.81
539.87	1801.32
540.22	1815.28
540.58	1829.32
540.94	1842.78
541.29	1855.82
541.65	1868.55
542.01	1881.95
542.37	1894.16
542.72	1906.79
543.08	1918.56
543.44	1931.06
543.79	1942.08
544.15	1953.14
544.51	1964.78
544.87	1975.62
545.22	1986.41
545.58	1996.57
545.94	2006.41
546.29	2016.35
546.65	2025.91
547.01	2035.00
547.36	2043.59
547.72	2051.89
548.07	2059.67
548.43	2067.75
548.79	2075.73
549.14	2083.37
549.50	2090.73
549.86	2098.52
550.21	2105.64
550.57	2112.82
550.92	2119.33
551.28	2126.50
551.64	2133.61
551.99	2140.22
552.35	2146.38
552.70	2152.56
553.06	2158.59
553.41	2164.93
553.77	2171.06
554.13	2177.32
554.48	2183.50
554.84	2188.88
555.19	2194.32
555.55	2199.51
555.90	2204.00
556.26	2208.91
556.61	2213.56
556.97	2217.80
557.32	2221.96
557.68	2226.30
558.03	2230.69
558.39	2234.41
558.74	2239.20
559.10	2242.87
559.45	2246.44
559.81	2250.85
560.16	2254.64
560.52	2257.88
560.87	2261.36
561.23	2263.82
561.58	2266.74
561.94	2269.26
562.29	2271.73
562.64	2274.45
563.00	2277.04
563.35	2280.65
563.71	2283.71
564.06	2286.94
564.42	2289.68
564.77	2292.05
565.12	2294.09
565.48	2295.94
565.83	2297.75
566.19	2298.88
566.54	2299.79
566.89	2301.06
567.25	2301.52
567.60	2302.78
567.96	2304.40
568.31	2305.20
568.66	2306.40
569.02	2307.05
569.37	2307.34
569.72	2308.15
570.08	2308.12
570.43	2308.01
570.78	2307.30
571.14	2305.66
571.49	2304.37
571.84	2304.15
572.20	2302.89
572.55	2301.99
572.90	2300.27
573.26	2298.78
573.61	2297.05
573.96	2295.32
574.31	2292.13
574.67	2289.04
575.02	2285.53
575.37	2282.07
575.72	2278.09
576.08	2274.77
576.43	2271.35
576.78	2267.58
577.13	2264.38
577.49	2261.33
577.84	2257.85
578.19	2253.96
578.54	2250.23
578.90	2245.92
579.25	2240.29
579.60	2235.25
579.95	2230.09
580.30	2225.03
580.66	2219.78
581.01	2214.83
581.36	2209.71
581.71	2205.52
582.06	2201.02
582.42	2196.34
582.77	2191.10
583.12	2186.46
583.47	2181.55
583.82	2176.32
584.17	2171.04
584.53	2165.45
584.88	2159.66
585.23	2153.61
585.58	2148.15
585.93	2142.78
586.28	2137.93
586.63	2132.73
586.98	2127.78
587.34	2123.05
587.69	2118.12
588.04	2112.92
588.39	2107.16
588.74	2100.64
589.09	2094.36
589.44	2087.39
589.79	2081.35
590.14	2075.63
590.49	2069.06
590.84	2062.64
591.19	2056.67
591.54	2050.08
591.89	2042.45
592.25	2035.61
592.60	2028.43
592.95	2020.65
593.30	2013.21
593.65	2005.46
594.00	1998.40
594.35	1990.93
594.70	1982.78
595.05	1975.44
595.40	1968.07
595.75	1960.44
596.10	1954.12
596.45	1947.28
596.80	1941.23
597.15	1934.41
597.50	1927.11
597.85	1920.59
598.19	1913.81
598.54	1906.50
598.89	1899.91
599.24	1894.17
599.59	1887.46
599.94	1881.26
600.29	1875.04
600.64	1868.47
600.99	1860.96
601.34	1853.94
601.69	1847.04
602.04	1839.97
602.39	1832.64
602.74	1825.76
603.08	1819.09
603.43	1812.36
603.78	1805.02
604.13	1797.63
604.48	1790.34
604.83	1783.59
605.18	1776.56
605.53	1768.57
605.87	1760.46
606.22	1753.16
606.57	1744.99
606.92	1737.64
607.27	1730.36
607.62	1723.36
607.96	1716.00
608.31	1709.30
608.66	1701.68
609.01	1694.05
609.36	1686.54
609.70	1678.60
610.05	1670.40
610.40	1662.59
610.75	1654.28
611.10	1646.81
611.44	1638.51
611.79	1630.53
612.14	1621.75
612.49	1612.70
612.83	1604.29
613.18	1596.34
613.53	1588.17
613.88	1579.75
614.22	1571.43
614.57	1562.91
614.92	1554.81
615.27	1547.22
615.61	1538.88
615.96	1530.88
616.31	1523.35
616.65	1515.99
617.00	1508.38
617.35	1500.78
617.70	1492.44
618.04	1483.91
618.39	1475.48
618.74	1467.82
619.08	1459.47
619.43	1452.03
619.78	1445.05
620.12	1437.92
620.47	1430.34
620.82	1422.23
621.16	1414.81
621.51	1407.17
621.85	1399.51
622.20	1391.08
622.55	1382.69
622.89	1374.93
623.24	1367.44
623.59	1360.02
623.93	1352.53
624.28	1345.21
624.62	1337.70
624.97	1330.47
625.32	1323.76
625.66	1316.75
626.01	1309.46
626.35	1302.02
626.70	1294.17
627.04	1286.49
627.39	1278.71
627.73	1271.31
628.08	1264.32
628.43	1257.06
628.77	1249.73
629.12	1242.13
629.46	1234.88
629.81	1227.63
630.15	1220.36
630.50	1212.87
630.84	1204.67
631.19	1196.83
631.53	1189.33
631.88	1181.83
632.22	1174.29
632.57	1166.98
632.91	1159.53
633.26	1152.18
633.60	1144.86
633.95	1137.77
634.29	1130.68
634.64	1123.98
634.98	1116.62
635.32	1109.63
635.67	1103.06
636.01	1096.36
636.36	1089.57
636.70	1083.12
637.05	1076.36
637.39	1069.93
637.73	1063.45
638.08	1057.60
638.42	1051.56
638.77	1045.10
639.11	1038.41
639.45	1032.00
639.80	1025.32
640.14	1018.74
640.49	1012.26
640.83	1005.84
641.17	999.52
641.52	993.18
641.86	986.86
642.20	980.96
642.55	974.58
642.89	967.95
643.23	961.51
643.58	955.80
643.92	949.60
644.26	943.56
644.61	937.59
644.95	931.57
645.29	924.95
645.64	918.21
645.98	911.96
646.32	906.19
646.66	900.18
647.01	894.30
647.35	888.67
647.69	882.80
648.04	877.41
648.38	871.65
648.72	865.53
649.06	859.35
649.41	853.52
649.75	847.46
650.09	841.62
650.43	835.77
650.78	829.62
651.12	823.64
651.46	817.94
651.80	812.09
652.14	806.60
652.49	801.23
652.83	796.04
653.17	790.28
653.51	784.50
653.85	779.11
654.20	773.51
654.54	767.53
654.88	761.78
655.22	755.91
655.56	750.24
655.90	744.84
656.25	739.59
656.59	734.28
656.93	729.38
657.27	724.13
657.61	718.64
657.95	713.51
658.29	708.46
658.64	703.19
658.98	697.94
659.32	692.53
659.66	687.31
660.00	681.95
660.34	677.04
660.68	672.14
661.02	667.14
661.36	662.43
661.70	657.93
662.05	653.59
662.39	649.21
662.73	644.79
663.07	640.46
663.41	636.07
663.75	631.58
664.09	626.93
664.43	622.62
664.77	618.59
665.11	614.35
665.45	610.18
665.79	606.14
666.13	602.06
666.47	597.97
666.81	593.78
667.15	589.68
667.49	585.79
667.83	582.02
668.17	578.04
668.51	574.04
668.85	570.09
669.19	566.31
669.53	562.49
669.87	558.60
670.21	554.90
670.55	551.28
670.89	547.83
671.23	544.44
671.57	540.95
671.91	537.42
672.25	533.97
672.58	530.43
672.92	527.08
673.26	523.87
673.60	520.78
673.94	517.69
674.28	514.80
674.62	511.84
674.96	508.69
675.30	505.83
675.64	502.87
675.97	500.07
676.31	497.18
676.65	494.26
676.99	491.62
677.33	488.77
677.67	485.91
678.01	482.93
678.34	479.94
678.68	477.11
679.02	474.27
679.36	471.52
679.70	468.86
680.04	466.05
680.37	463.22
680.71	460.40
681.05	457.82
681.39	455.11
681.73	452.47
682.06	450.01
682.40	447.40
682.74	444.86
683.08	442.30
683.42	439.72
683.75	437.26
684.09	434.69
684.43	432.21
684.77	429.71
685.10	427.33
685.44	425.05
685.78	422.70
686.12	420.47
686.45	418.17
686.79	415.86
687.13	413.66
687.46	411.48
687.80	409.32
688.14	407.10
688.48	405.05
688.81	402.78
689.15	400.61
689.49	398.50
689.82	396.44
690.16	394.34
690.50	392.40
690.83	390.42
691.17	388.41
691.51	386.54
691.84	384.75
692.18	382.81
692.52	380.84
692.85	378.92
693.19	377.04
693.52	375.22
693.86	373.45
694.20	371.72
694.53	369.92
694.87	368.12
695.21	366.31
695.54	364.47
695.88	362.80
696.21	361.08
696.55	359.44
696.88	357.77
697.22	356.10
697.56	354.45
697.89	352.82
698.23	351.19
698.56	349.56
698.90	347.96
699.23	346.30
699.57	344.73
699.90	343.20
700.24	341.66
700.58	340.11
700.91	338.62
701.25	337.15
701.58	335.78
701.92	334.41
702.25	333.01
702.59	331.65
702.92	330.31
703.26	329.01
703.59	327.72
703.93	326.56
704.26	325.33
704.60	324.07
704.93	322.77
705.26	321.55
705.60	320.40
705.93	319.24
706.27	318.20
706.60	317.16
706.94	316.04
707.27	314.90
707.61	313.85
707.94	312.86
708.27	311.78
708.61	310.69
708.94	309.68
709.28	308.78
709.61	307.85
709.94	306.89
710.28	305.86
710.61	304.90
710.95	303.82
711.28	302.93
711.61	301.97
711.95	301.11
712.28	300.19
712.61	299.18
712.95	298.24
713.28	297.40
713.61	296.49
713.95	295.66
714.28	294.85
714.61	293.99
714.95	293.09
715.28	292.23
715.61	291.39
715.95	290.53
716.28	289.66
716.61	288.83
716.95	288.05
717.28	287.32
717.61	286.55
717.94	285.84
718.28	285.03
718.61	284.33
718.94	283.61
719.27	282.96
719.61	282.33
719.94	281.71
720.27	280.97
720.60	280.31
720.94	279.67
721.27	279.10
721.60	278.55
721.93	277.97
722.27	277.44
722.60	276.90
722.93	276.32
723.26	275.77
723.59	275.20
723.93	274.67
724.26	274.10
724.59	273.51
724.92	272.93
725.25	272.46
725.59	271.92
725.92	271.40
726.25	270.89
726.58	270.37
726.91	269.83
727.24	269.36
727.57	268.86
727.91	268.32
728.24	267.80
728.57	267.29
728.90	266.83
729.23	266.32
729.56	265.88
729.89	265.43
730.22	264.95
730.55	264.45
730.89	263.99
731.22	263.55
731.55	263.14
731.88	262.70
732.21	262.23
732.54	261.80
732.87	261.40
733.20	260.95
733.53	260.56
733.86	260.20
734.19	259.79
734.52	259.43
734.85	259.15
735.18	258.75
735.51	258.40
735.84	257.98
736.17	257.61
736.50	257.18
736.83	256.95
737.16	256.59
737.49	256.30
737.82	255.93
738.15	255.58
738.48	255.25
738.81	254.93
739.14	254.58
739.47	254.27
739.80	253.94
740.13	253.64
740.46	253.30
740.79	252.99
741.12	252.66
741.45	252.35
741.78	252.00
742.11	251.70
742.44	251.36
742.77	251.08
743.10	250.77
743.43	250.48
743.75	250.10
744.08	249.96
744.41	249.68
744.74	249.42
745.07	249.14
745.40	248.92
745.73	248.74
746.06	248.48
746.39	248.20
746.71	247.93
747.04	247.69
747.37	247.46
747.70	247.22
748.03	247.01
748.36	246.83
748.68	246.60
749.01	246.36
749.34	246.10
749.67	245.87
750.00	245.68
750.33	245.55
750.65	245.34
750.98	245.00
751.31	244.79
751.64	244.61
751.97	244.47
752.29	244.21
752.62	243.93
752.95	243.78
753.28	243.60
753.60	243.43
753.93	243.26
754.26	243.06
754.59	242.83
754.91	242.66
755.24	242.44
755.57	242.28
755.90	242.11
756.22	241.95
756.55	241.78
756.88	241.58
757.20	241.35
757.53	241.16
757.86	240.99
758.19	240.87
758.51	240.69
758.84	240.48
759.17	240.33
759.49	240.16
759.82	240.00
760.15	239.84
760.47	239.67
760.80	239.50
761.13	239.40
761.45	239.29
761.78	239.12
762.11	238.95
762.43	238.79
762.76	238.63
763.08	238.52
763.41	238.39
763.74	238.28
764.06	238.14
764.39	238.00
764.71	237.85
765.04	237.67
765.37	237.53
765.69	237.41
766.02	237.28
766.34	237.16
766.67	237.04
767.00	236.91
767.32	236.83
767.65	236.78
767.97	236.60
768.30	236.46
768.62	236.32
768.95	236.22
769.27	236.07
769.60	235.98
769.92	235.80
770.25	235.66
770.57	235.48
770.90	235.39
771.22	235.28
771.55	235.21
771.87	235.12
772.20	235.02
772.52	235.00
772.85	235.00
773.17	234.89
773.50	234.78
773.82	234.70
774.15	234.54
774.47	234.36
774.80	234.27
775.12	234.19
775.45	234.12
775.77	234.02
776.09	233.96
776.42	233.85
776.74	233.81
777.07	233.75
777.39	233.71
777.72	233.60
778.04	233.56
778.36	233.45
778.69	233.39
779.01	233.32
779.33	233.12
779.66	232.95
779.98	232.87
780.31	232.78
780.63	232.74
780.95	232.74
781.28	232.69
781.60	232.64
781.92	232.57
782.25	232.52
782.57	232.45
782.89	232.38
783.22	232.34
783.54	232.29
783.86	232.23
784.19	232.17
784.51	232.15
784.83	232.06
785.16	232.02
785.48	231.97
785.80	231.89
786.12	231.89
786.45	231.84
786.77	231.81
787.09	231.78
