SpectraSuite Data File
++++++++++++++++++++++++++++++++++++
Date: Fri Feb 01 15:24:53 EST 2013
User: group
Dark Spectrum Present: No
Reference Spectrum Present: No
Number of Sampled Component Spectra: 1
Spectrometers: USB2E7196
Integration Time (usec): 35000 (USB2E7196)
Spectra Averaged: 100 (USB2E7196)
Boxcar Smoothing: 10 (USB2E7196)
Correct for Electrical Dark: No (USB2E7196)
Strobe/Lamp Enabled: No (USB2E7196)
Correct for Detector Non-linearity: No (USB2E7196)
Correct for Stray Light: No (USB2E7196)
Number of Pixels in Processed Spectrum: 2048
>>>>>Begin Processed Spectral Data<<<<<
339.09	0.00
339.48	215.08
339.86	217.07
340.24	217.50
340.63	219.43
341.01	222.67
341.39	221.66
341.78	223.61
342.16	224.74
342.54	225.26
342.93	213.57
343.31	224.37
343.69	224.92
344.07	225.37
344.46	225.80
344.84	226.19
345.22	226.41
345.60	226.66
345.99	226.87
346.37	227.01
346.75	227.09
347.13	227.18
347.52	227.22
347.90	227.27
348.28	227.29
348.66	227.30
349.05	227.29
349.43	227.32
349.81	227.37
350.19	227.37
350.57	227.44
350.96	227.49
351.34	227.58
351.72	227.66
352.10	227.75
352.48	227.84
352.87	227.89
353.25	227.94
353.63	228.04
354.01	228.08
354.39	228.17
354.77	228.26
355.15	228.35
355.54	228.41
355.92	228.46
356.30	228.54
356.68	228.68
357.06	228.77
357.44	228.83
357.82	228.90
358.20	228.98
358.58	229.04
358.97	229.11
359.35	229.18
359.73	229.26
360.11	229.33
360.49	229.39
360.87	229.40
361.25	229.46
361.63	229.53
362.01	229.57
362.39	229.61
362.77	229.64
363.15	229.64
363.53	229.68
363.91	229.71
364.29	229.71
364.67	229.61
365.05	229.65
365.43	229.68
365.81	229.73
366.19	229.79
366.57	229.81
366.95	229.78
367.33	229.74
367.71	229.70
368.09	229.67
368.47	229.63
368.85	229.64
369.23	229.64
369.61	229.55
369.99	229.53
370.37	229.48
370.75	229.49
371.13	229.43
371.51	229.37
371.89	229.34
372.27	229.32
372.65	229.32
373.03	229.24
373.41	229.18
373.78	229.09
374.16	228.97
374.54	228.89
374.92	228.82
375.30	228.75
375.68	228.67
376.06	228.61
376.44	228.56
376.82	228.52
377.19	228.42
377.57	228.35
377.95	228.24
378.33	228.17
378.71	228.04
379.09	228.00
379.47	227.93
379.84	227.82
380.22	227.71
380.60	227.59
380.98	227.52
381.36	227.44
381.73	227.39
382.11	227.36
382.49	227.30
382.87	227.23
383.25	227.16
383.62	227.21
384.00	227.13
384.38	227.03
384.76	226.95
385.13	226.92
385.51	226.85
385.89	226.80
386.27	226.75
386.64	226.72
387.02	226.67
387.40	226.64
387.78	226.63
388.15	226.64
388.53	226.65
388.91	226.61
389.29	226.61
389.66	226.58
390.04	226.52
390.42	226.50
390.79	226.49
391.17	226.48
391.55	226.37
391.92	226.39
392.30	226.43
392.68	226.40
393.05	226.45
393.43	226.47
393.81	226.51
394.18	226.52
394.56	226.54
394.94	226.56
395.31	226.59
395.69	226.65
396.06	226.67
396.44	226.70
396.82	226.77
397.19	226.83
397.57	226.87
397.95	226.94
398.32	226.95
398.70	227.03
399.07	227.12
399.45	227.18
399.82	227.23
400.20	227.30
400.58	227.40
400.95	227.40
401.33	227.50
401.70	227.63
402.08	227.72
402.45	227.80
402.83	227.92
403.20	228.02
403.58	228.08
403.95	228.18
404.33	228.28
404.71	228.40
405.08	228.56
405.46	228.70
405.83	228.84
406.21	229.00
406.58	229.17
406.96	229.34
407.33	229.50
407.70	229.69
408.08	229.96
408.45	230.19
408.83	230.43
409.20	230.66
409.58	230.87
409.95	231.12
410.33	231.38
410.70	231.61
411.08	231.92
411.45	232.24
411.82	232.55
412.20	232.92
412.57	233.29
412.95	233.62
413.32	234.01
413.69	234.42
414.07	234.89
414.44	235.35
414.82	235.82
415.19	236.40
415.56	236.95
415.94	237.49
416.31	238.12
416.68	238.74
417.06	239.47
417.43	240.15
417.81	240.91
418.18	241.72
418.55	242.56
418.93	243.40
419.30	244.28
419.67	245.22
420.04	246.15
420.42	247.16
420.79	248.37
421.16	249.53
421.54	250.74
421.91	251.95
422.28	253.27
422.66	254.60
423.03	255.88
423.40	257.25
423.77	258.66
424.15	260.09
424.52	261.59
424.89	263.21
425.26	264.77
425.64	266.24
426.01	267.82
426.38	269.50
426.75	271.20
427.13	272.97
427.50	274.82
427.87	276.76
428.24	278.63
428.61	280.35
428.99	282.29
429.36	284.38
429.73	286.43
430.10	288.43
430.47	290.47
430.85	292.64
431.22	294.88
431.59	297.28
431.96	299.54
432.33	302.09
432.70	304.49
433.08	307.30
433.45	309.95
433.82	312.57
434.19	315.49
434.56	318.34
434.93	320.98
435.30	323.64
435.68	326.53
436.05	329.40
436.42	332.21
436.79	334.72
437.16	337.42
437.53	340.28
437.90	343.10
438.27	345.85
438.64	348.72
439.01	351.33
439.38	353.56
439.75	355.76
440.13	358.20
440.50	360.53
440.87	362.40
441.24	364.34
441.61	366.52
441.98	368.00
442.35	369.77
442.72	371.62
443.09	373.37
443.46	374.34
443.83	374.91
444.20	375.43
444.57	376.30
444.94	376.59
445.31	376.91
445.68	377.28
446.05	377.39
446.42	376.95
446.79	376.53
447.16	376.12
447.53	375.76
447.90	374.55
448.27	373.32
448.64	371.72
449.01	370.58
449.37	368.57
449.74	366.65
450.11	364.40
450.48	361.94
450.85	359.44
451.22	357.29
451.59	355.24
451.96	353.26
452.33	350.62
452.70	348.26
453.07	345.42
453.43	342.44
453.80	339.67
454.17	336.99
454.54	334.41
454.91	331.63
455.28	328.94
455.65	326.46
456.02	324.05
456.38	321.88
456.75	319.23
457.12	316.99
457.49	314.82
457.86	312.61
458.23	310.73
458.59	308.64
458.96	306.55
459.33	304.70
459.70	302.83
460.07	301.33
460.43	299.61
460.80	298.01
461.17	296.60
461.54	295.07
461.91	293.63
462.27	292.18
462.64	290.94
463.01	289.63
463.38	288.31
463.74	286.92
464.11	285.75
464.48	284.71
464.85	283.59
465.21	282.70
465.58	281.78
465.95	280.67
466.32	279.76
466.68	278.89
467.05	277.99
467.42	277.11
467.78	276.17
468.15	275.31
468.52	274.61
468.88	273.73
469.25	272.99
469.62	272.35
469.98	271.66
470.35	271.01
470.72	270.34
471.08	269.70
471.45	269.17
471.82	268.61
472.18	268.01
472.55	267.58
472.92	267.04
473.28	266.62
473.65	266.15
474.02	265.75
474.38	265.37
474.75	265.04
475.11	264.71
475.48	264.42
475.85	264.19
476.21	263.96
476.58	263.79
476.94	263.60
477.31	263.47
477.67	263.31
478.04	263.21
478.41	263.21
478.77	263.27
479.14	263.21
479.50	263.22
479.87	263.31
480.23	263.39
480.60	263.44
480.96	263.53
481.33	263.75
481.69	263.95
482.06	264.13
482.42	264.33
482.79	264.56
483.15	264.91
483.52	265.27
483.88	265.66
484.25	266.05
484.61	266.51
484.98	266.98
485.34	267.57
485.71	268.15
486.07	268.73
486.44	269.30
486.80	270.01
487.17	270.74
487.53	271.53
487.90	272.36
488.26	273.31
488.62	274.31
488.99	275.30
489.35	276.34
489.72	277.46
490.08	278.66
490.44	279.91
490.81	281.23
491.17	282.57
491.54	284.04
491.90	285.57
492.26	287.19
492.63	288.88
492.99	290.64
493.36	292.52
493.72	294.56
494.08	296.65
494.45	298.87
494.81	301.24
495.17	303.62
495.54	306.19
495.90	308.86
496.26	311.64
496.63	314.60
496.99	317.73
497.35	320.97
497.72	324.34
498.08	327.84
498.44	331.49
498.80	335.40
499.17	339.43
499.53	343.61
499.89	347.99
500.26	352.44
500.62	357.16
500.98	362.11
501.34	367.25
501.71	372.60
502.07	378.09
502.43	383.63
502.79	389.44
503.16	395.45
503.52	401.73
503.88	408.06
504.24	414.69
504.60	421.51
504.97	428.66
505.33	435.98
505.69	443.72
506.05	451.53
506.41	459.44
506.78	467.57
507.14	476.01
507.50	484.73
507.86	493.78
508.22	502.91
508.59	512.13
508.95	521.61
509.31	531.41
509.67	541.54
510.03	551.86
510.39	562.46
510.75	573.34
511.12	584.27
511.48	595.64
511.84	607.12
512.20	618.65
512.56	630.61
512.92	642.79
513.28	655.08
513.64	667.55
514.00	680.22
514.37	693.24
514.73	706.29
515.09	719.37
515.45	732.72
515.81	746.40
516.17	760.42
516.53	774.63
516.89	788.75
517.25	802.91
517.61	817.47
517.97	831.92
518.33	846.34
518.69	861.14
519.05	876.11
519.41	891.27
519.77	906.91
520.13	922.51
520.49	937.98
520.85	953.49
521.21	969.26
521.57	985.65
521.93	1001.50
522.29	1018.04
522.65	1034.34
523.01	1050.60
523.37	1066.61
523.73	1082.78
524.09	1098.86
524.45	1115.35
524.81	1132.02
525.17	1148.90
525.53	1165.94
525.89	1182.84
526.25	1199.75
526.61	1216.23
526.97	1233.08
527.33	1249.54
527.68	1266.08
528.04	1282.62
528.40	1299.34
528.76	1316.49
529.12	1333.15
529.48	1349.98
529.84	1366.01
530.20	1382.73
530.56	1399.86
530.91	1417.36
531.27	1434.00
531.63	1450.60
531.99	1467.24
532.35	1483.44
532.71	1499.32
533.07	1515.54
533.42	1531.40
533.78	1547.43
534.14	1563.77
534.50	1579.16
534.86	1595.20
535.21	1610.35
535.57	1626.45
535.93	1641.95
536.29	1656.75
536.65	1671.76
537.00	1686.56
537.36	1701.89
537.72	1716.45
538.08	1730.79
538.44	1744.64
538.79	1758.76
539.15	1772.53
539.51	1786.38
539.87	1800.64
540.22	1814.47
540.58	1828.37
540.94	1842.00
541.29	1855.08
541.65	1867.81
542.01	1881.16
542.37	1893.47
542.72	1905.98
543.08	1917.81
543.44	1930.25
543.79	1941.70
544.15	1952.73
544.51	1964.38
544.87	1975.53
545.22	1986.24
545.58	1996.44
545.94	2006.22
546.29	2016.20
546.65	2025.92
547.01	2035.14
547.36	2043.91
547.72	2052.39
548.07	2060.17
548.43	2068.30
548.79	2076.32
549.14	2084.02
549.50	2091.38
549.86	2099.19
550.21	2106.56
550.57	2113.73
550.92	2120.27
551.28	2127.23
551.64	2134.36
551.99	2140.89
552.35	2146.82
552.70	2152.97
553.06	2159.07
553.41	2165.50
553.77	2171.45
554.13	2177.56
554.48	2183.64
554.84	2188.97
555.19	2194.34
555.55	2199.53
555.90	2203.91
556.26	2208.59
556.61	2213.20
556.97	2217.25
557.32	2221.36
557.68	2225.60
558.03	2229.66
558.39	2233.64
558.74	2238.20
559.10	2242.00
559.45	2245.68
559.81	2250.22
560.16	2254.17
560.52	2257.49
560.87	2260.89
561.23	2263.61
561.58	2266.62
561.94	2269.20
562.29	2271.71
562.64	2274.35
563.00	2277.00
563.35	2280.66
563.71	2283.91
564.06	2287.07
564.42	2289.99
564.77	2292.33
565.12	2294.47
565.48	2296.50
565.83	2298.14
566.19	2299.54
566.54	2300.50
566.89	2301.58
567.25	2301.96
567.60	2303.39
567.96	2305.07
568.31	2306.02
568.66	2307.06
569.02	2307.71
569.37	2307.90
569.72	2308.57
570.08	2308.49
570.43	2308.46
570.78	2307.57
571.14	2306.11
571.49	2304.90
571.84	2304.60
572.20	2303.38
572.55	2302.36
572.90	2300.79
573.26	2299.15
573.61	2297.35
573.96	2295.48
574.31	2292.40
574.67	2289.38
575.02	2285.58
575.37	2282.08
575.72	2278.10
576.08	2274.80
576.43	2271.31
576.78	2267.66
577.13	2264.53
577.49	2261.50
577.84	2257.89
578.19	2254.23
578.54	2250.31
578.90	2245.85
579.25	2240.14
579.60	2235.10
579.95	2229.96
580.30	2224.97
580.66	2219.83
581.01	2214.71
581.36	2209.63
581.71	2205.39
582.06	2200.91
582.42	2196.25
582.77	2190.82
583.12	2186.02
583.47	2181.06
583.82	2175.92
584.17	2170.51
584.53	2164.87
584.88	2159.09
585.23	2153.23
585.58	2147.70
585.93	2142.17
586.28	2137.35
586.63	2132.26
586.98	2127.24
587.34	2122.42
587.69	2117.20
588.04	2111.87
588.39	2106.10
588.74	2099.75
589.09	2093.57
589.44	2086.56
589.79	2080.56
590.14	2075.00
590.49	2068.46
590.84	2061.96
591.19	2055.90
591.54	2049.42
591.89	2041.96
592.25	2035.16
592.60	2028.03
592.95	2020.34
593.30	2013.07
593.65	2005.42
594.00	1998.38
594.35	1991.07
594.70	1983.14
595.05	1975.89
595.40	1968.53
595.75	1961.06
596.10	1954.63
596.45	1947.71
596.80	1941.53
597.15	1934.78
597.50	1927.50
597.85	1921.01
598.19	1914.36
598.54	1907.17
598.89	1900.50
599.24	1894.57
599.59	1887.73
599.94	1881.35
600.29	1875.14
600.64	1868.53
600.99	1860.92
601.34	1853.91
601.69	1846.88
602.04	1839.72
602.39	1832.32
602.74	1825.55
603.08	1818.75
603.43	1812.05
603.78	1804.76
604.13	1797.50
604.48	1790.16
604.83	1783.29
605.18	1776.22
605.53	1768.21
605.87	1760.22
606.22	1752.95
606.57	1744.96
606.92	1737.85
607.27	1730.56
607.62	1723.53
607.96	1716.15
608.31	1709.57
608.66	1701.99
609.01	1694.37
609.36	1686.88
609.70	1678.85
610.05	1670.75
610.40	1662.96
610.75	1654.54
611.10	1646.92
611.44	1638.59
611.79	1630.69
612.14	1622.03
612.49	1612.92
612.83	1604.57
613.18	1596.50
613.53	1588.60
613.88	1580.10
614.22	1571.67
614.57	1563.20
614.92	1555.11
615.27	1547.46
615.61	1539.10
615.96	1531.16
616.31	1523.52
616.65	1516.14
617.00	1508.59
617.35	1500.91
617.70	1492.56
618.04	1484.01
618.39	1475.73
618.74	1468.12
619.08	1459.75
619.43	1452.14
619.78	1445.20
620.12	1437.99
620.47	1430.43
620.82	1422.01
621.16	1414.58
621.51	1406.91
621.85	1399.30
622.20	1390.73
622.55	1382.40
622.89	1374.63
623.24	1367.03
623.59	1359.73
623.93	1352.23
624.28	1345.08
624.62	1337.48
624.97	1330.43
625.32	1323.76
625.66	1316.82
626.01	1309.59
626.35	1302.14
626.70	1294.44
627.04	1286.61
627.39	1278.95
627.73	1271.41
628.08	1264.54
628.43	1257.23
628.77	1249.88
629.12	1242.23
629.46	1235.04
629.81	1227.68
630.15	1220.36
630.50	1212.90
630.84	1204.65
631.19	1196.76
631.53	1189.23
631.88	1181.70
632.22	1174.03
632.57	1166.70
632.91	1159.18
633.26	1151.77
633.60	1144.44
633.95	1137.35
634.29	1130.45
634.64	1123.60
634.98	1116.31
635.32	1109.22
635.67	1102.65
636.01	1095.93
636.36	1089.20
636.70	1082.79
637.05	1076.26
637.39	1069.82
637.73	1063.26
638.08	1057.50
638.42	1051.52
638.77	1044.96
639.11	1038.40
639.45	1032.01
639.80	1025.38
640.14	1018.90
640.49	1012.42
640.83	1006.16
641.17	999.86
641.52	993.49
641.86	987.17
642.20	981.36
642.55	975.04
642.89	968.49
643.23	962.07
643.58	956.24
643.92	949.96
644.26	943.82
644.61	937.91
644.95	931.88
645.29	925.15
645.64	918.40
645.98	912.18
646.32	906.40
646.66	900.42
647.01	894.61
647.35	888.96
647.69	883.17
648.04	877.60
648.38	871.75
648.72	865.78
649.06	859.69
649.41	853.80
649.75	847.71
650.09	841.76
650.43	835.91
650.78	829.77
651.12	823.86
651.46	818.15
651.80	812.32
652.14	806.93
652.49	801.60
652.83	796.35
653.17	790.62
653.51	784.83
653.85	779.36
654.20	773.76
654.54	767.71
654.88	761.94
655.22	756.07
655.56	750.50
655.90	745.02
656.25	739.78
656.59	734.43
656.93	729.41
657.27	724.30
657.61	718.97
657.95	713.83
658.29	708.73
658.64	703.58
658.98	698.27
659.32	692.84
659.66	687.67
660.00	682.40
660.34	677.46
660.68	672.57
661.02	667.60
661.36	662.94
661.70	658.49
662.05	654.09
662.39	649.78
662.73	645.34
663.07	640.96
663.41	636.52
663.75	632.02
664.09	627.47
664.43	623.06
664.77	618.93
665.11	614.73
665.45	610.62
665.79	606.50
666.13	602.39
666.47	598.31
666.81	594.06
667.15	589.94
667.49	586.13
667.83	582.37
668.17	578.47
668.51	574.28
668.85	570.21
669.19	566.41
669.53	562.49
669.87	558.57
670.21	554.86
670.55	551.22
670.89	547.78
671.23	544.37
671.57	540.87
671.91	537.30
672.25	533.83
672.58	530.33
672.92	526.93
673.26	523.79
673.60	520.65
673.94	517.56
674.28	514.66
674.62	511.63
674.96	508.48
675.30	505.55
675.64	502.67
675.97	499.91
676.31	497.00
676.65	494.12
676.99	491.46
677.33	488.61
677.67	485.75
678.01	482.68
678.34	479.69
678.68	476.84
679.02	474.04
679.36	471.28
679.70	468.60
680.04	465.84
680.37	462.93
680.71	460.14
681.05	457.51
681.39	454.78
681.73	452.14
682.06	449.64
682.40	447.11
682.74	444.57
683.08	442.03
683.42	439.47
683.75	436.95
684.09	434.40
684.43	431.94
684.77	429.54
685.10	427.24
685.44	424.97
685.78	422.67
686.12	420.43
686.45	418.15
686.79	415.84
687.13	413.66
687.46	411.54
687.80	409.39
688.14	407.24
688.48	405.20
688.81	402.95
689.15	400.78
689.49	398.60
689.82	396.55
690.16	394.52
690.50	392.55
690.83	390.59
691.17	388.61
691.51	386.69
691.84	384.88
692.18	382.93
692.52	380.95
692.85	379.11
693.19	377.22
693.52	375.38
693.86	373.55
694.20	371.76
694.53	369.93
694.87	368.11
695.21	366.35
695.54	364.59
695.88	362.88
696.21	361.18
696.55	359.54
696.88	357.86
697.22	356.22
697.56	354.60
697.89	352.98
698.23	351.41
698.56	349.81
698.90	348.19
699.23	346.54
699.57	344.97
699.90	343.41
700.24	341.89
700.58	340.38
700.91	338.95
701.25	337.55
701.58	336.20
701.92	334.84
702.25	333.45
702.59	332.07
702.92	330.76
703.26	329.49
703.59	328.21
703.93	327.05
704.26	325.79
704.60	324.53
704.93	323.27
705.26	321.99
705.60	320.85
705.93	319.71
706.27	318.71
706.60	317.66
706.94	316.59
707.27	315.46
707.61	314.41
707.94	313.31
708.27	312.18
708.61	311.11
708.94	310.12
709.28	309.16
709.61	308.20
709.94	307.22
710.28	306.21
710.61	305.23
710.95	304.13
711.28	303.21
711.61	302.26
711.95	301.33
712.28	300.38
712.61	299.38
712.95	298.44
713.28	297.54
713.61	296.65
713.95	295.75
714.28	294.89
714.61	294.01
714.95	293.19
715.28	292.35
715.61	291.46
715.95	290.58
716.28	289.70
716.61	288.87
716.95	288.10
717.28	287.35
717.61	286.55
717.94	285.84
718.28	285.03
718.61	284.28
718.94	283.59
719.27	282.96
719.61	282.32
719.94	281.66
720.27	280.96
720.60	280.28
720.94	279.64
721.27	279.06
721.60	278.49
721.93	277.88
722.27	277.33
722.60	276.77
722.93	276.20
723.26	275.65
723.59	275.08
723.93	274.52
724.26	273.96
724.59	273.41
724.92	272.89
725.25	272.40
725.59	271.90
725.92	271.37
726.25	270.85
726.58	270.36
726.91	269.85
727.24	269.39
727.57	268.93
727.91	268.42
728.24	267.93
728.57	267.45
728.90	267.00
729.23	266.49
729.56	266.07
729.89	265.60
730.22	265.13
730.55	264.69
730.89	264.23
731.22	263.78
731.55	263.37
731.88	262.93
732.21	262.49
732.54	262.04
732.87	261.68
733.20	261.28
733.53	260.90
733.86	260.52
734.19	260.11
734.52	259.72
734.85	259.41
735.18	259.05
735.51	258.65
735.84	258.25
736.17	257.93
736.50	257.52
736.83	257.30
737.16	256.98
737.49	256.61
737.82	256.28
738.15	255.94
738.48	255.55
738.81	255.24
739.14	254.90
739.47	254.56
739.80	254.24
740.13	253.92
740.46	253.55
740.79	253.24
741.12	252.89
741.45	252.59
741.78	252.23
742.11	251.90
742.44	251.58
742.77	251.36
743.10	251.02
743.43	250.75
743.75	250.34
744.08	250.18
744.41	249.93
744.74	249.65
745.07	249.38
745.40	249.22
745.73	248.95
746.06	248.71
746.39	248.47
746.71	248.19
747.04	247.92
747.37	247.69
747.70	247.48
748.03	247.28
748.36	247.05
748.68	246.81
749.01	246.56
749.34	246.36
749.67	246.08
750.00	245.92
750.33	245.75
750.65	245.58
750.98	245.25
751.31	245.00
751.64	244.81
751.97	244.63
752.29	244.39
752.62	244.15
752.95	243.91
753.28	243.71
753.60	243.52
753.93	243.36
754.26	243.18
754.59	242.91
754.91	242.68
755.24	242.47
755.57	242.30
755.90	242.12
756.22	241.95
756.55	241.78
756.88	241.55
757.20	241.31
757.53	241.09
757.86	240.94
758.19	240.79
758.51	240.61
758.84	240.42
759.17	240.26
759.49	240.13
759.82	240.01
760.15	239.89
760.47	239.70
760.80	239.52
761.13	239.40
761.45	239.30
761.78	239.18
762.11	239.06
762.43	238.89
762.76	238.77
763.08	238.61
763.41	238.49
763.74	238.37
764.06	238.23
764.39	238.11
764.71	237.93
765.04	237.77
765.37	237.65
765.69	237.52
766.02	237.36
766.34	237.25
766.67	237.10
767.00	236.97
767.32	236.90
767.65	236.83
767.97	236.64
768.30	236.52
768.62	236.39
768.95	236.27
769.27	236.16
769.60	236.04
769.92	235.97
770.25	235.81
770.57	235.71
770.90	235.61
771.22	235.47
771.55	235.37
771.87	235.31
772.20	235.21
772.52	235.17
772.85	235.22
773.17	235.11
773.50	235.01
773.82	234.91
774.15	234.80
774.47	234.64
774.80	234.55
775.12	234.45
775.45	234.36
775.77	234.27
776.09	234.20
776.42	234.10
776.74	234.01
777.07	233.96
777.39	233.86
777.72	233.78
778.04	233.72
778.36	233.65
778.69	233.57
779.01	233.49
779.33	233.37
779.66	233.13
779.98	233.02
780.31	232.95
780.63	232.91
780.95	232.84
781.28	232.79
781.60	232.72
781.92	232.66
782.25	232.62
782.57	232.59
782.89	232.53
783.22	232.47
783.54	232.41
783.86	232.32
784.19	232.24
784.51	232.21
784.83	232.14
785.16	232.04
785.48	231.96
785.80	231.93
786.12	231.86
786.45	231.85
786.77	231.84
787.09	231.79
