SpectraSuite Data File
++++++++++++++++++++++++++++++++++++
Date: Fri Feb 01 17:21:43 EST 2013
User: group
Dark Spectrum Present: No
Reference Spectrum Present: No
Number of Sampled Component Spectra: 1
Spectrometers: USB2E7196
Integration Time (usec): 35000 (USB2E7196)
Spectra Averaged: 100 (USB2E7196)
Boxcar Smoothing: 10 (USB2E7196)
Correct for Electrical Dark: No (USB2E7196)
Strobe/Lamp Enabled: No (USB2E7196)
Correct for Detector Non-linearity: No (USB2E7196)
Correct for Stray Light: No (USB2E7196)
Number of Pixels in Processed Spectrum: 2048
>>>>>Begin Processed Spectral Data<<<<<
339.09	0.00
339.48	212.61
339.86	214.38
340.24	215.92
340.63	216.91
341.01	220.19
341.39	220.01
341.78	220.90
342.16	221.98
342.54	222.71
342.93	211.24
343.31	221.92
343.69	222.46
344.07	222.90
344.46	223.31
344.84	223.68
345.22	223.89
345.60	224.11
345.99	224.32
346.37	224.46
346.75	224.56
347.13	224.65
347.52	224.68
347.90	224.75
348.28	224.76
348.66	224.80
349.05	224.76
349.43	224.79
349.81	224.79
350.19	224.85
350.57	224.90
350.96	225.00
351.34	225.09
351.72	225.18
352.10	225.28
352.48	225.35
352.87	225.40
353.25	225.47
353.63	225.56
354.01	225.59
354.39	225.68
354.77	225.80
355.15	225.89
355.54	225.98
355.92	226.02
356.30	226.13
356.68	226.25
357.06	226.34
357.44	226.41
357.82	226.49
358.20	226.57
358.58	226.65
358.97	226.67
359.35	226.77
359.73	226.87
360.11	226.96
360.49	227.04
360.87	227.10
361.25	227.15
361.63	227.22
362.01	227.28
362.39	227.33
362.77	227.33
363.15	227.37
363.53	227.40
363.91	227.47
364.29	227.50
364.67	227.46
365.05	227.47
365.43	227.51
365.81	227.52
366.19	227.57
366.57	227.64
366.95	227.64
367.33	227.59
367.71	227.57
368.09	227.57
368.47	227.54
368.85	227.56
369.23	227.57
369.61	227.49
369.99	227.50
370.37	227.48
370.75	227.52
371.13	227.45
371.51	227.43
371.89	227.37
372.27	227.35
372.65	227.31
373.03	227.29
373.41	227.20
373.78	227.18
374.16	227.07
374.54	226.98
374.92	226.93
375.30	226.87
375.68	226.80
376.06	226.71
376.44	226.66
376.82	226.60
377.19	226.54
377.57	226.51
377.95	226.39
378.33	226.31
378.71	226.20
379.09	226.13
379.47	226.07
379.84	225.99
380.22	225.91
380.60	225.82
380.98	225.76
381.36	225.73
381.73	225.63
382.11	225.57
382.49	225.48
382.87	225.40
383.25	225.38
383.62	225.45
384.00	225.39
384.38	225.31
384.76	225.27
385.13	225.24
385.51	225.18
385.89	225.15
386.27	225.12
386.64	225.06
387.02	225.02
387.40	224.93
387.78	224.90
388.15	224.85
388.53	224.82
388.91	224.79
389.29	224.73
389.66	224.71
390.04	224.67
390.42	224.68
390.79	224.67
391.17	224.60
391.55	224.47
391.92	224.44
392.30	224.45
392.68	224.43
393.05	224.43
393.43	224.41
393.81	224.42
394.18	224.39
394.56	224.39
394.94	224.45
395.31	224.46
395.69	224.49
396.06	224.52
396.44	224.54
396.82	224.52
397.19	224.61
397.57	224.65
397.95	224.71
398.32	224.71
398.70	224.75
399.07	224.81
399.45	224.87
399.82	224.92
400.20	224.95
400.58	224.99
400.95	225.00
401.33	225.12
401.70	225.21
402.08	225.32
402.45	225.39
402.83	225.48
403.20	225.58
403.58	225.66
403.95	225.77
404.33	225.88
404.71	226.00
405.08	226.18
405.46	226.28
405.83	226.43
406.21	226.54
406.58	226.72
406.96	226.90
407.33	227.07
407.70	227.30
408.08	227.59
408.45	227.81
408.83	228.04
409.20	228.23
409.58	228.45
409.95	228.69
410.33	228.98
410.70	229.22
411.08	229.54
411.45	229.87
411.82	230.21
412.20	230.59
412.57	231.03
412.95	231.29
413.32	231.72
413.69	232.14
414.07	232.61
414.44	233.07
414.82	233.55
415.19	234.12
415.56	234.65
415.94	235.22
416.31	235.90
416.68	236.53
417.06	237.30
417.43	238.00
417.81	238.81
418.18	239.60
418.55	240.45
418.93	241.38
419.30	242.31
419.67	243.28
420.04	244.29
420.42	245.30
420.79	246.56
421.16	247.77
421.54	249.00
421.91	250.29
422.28	251.64
422.66	253.01
423.03	254.34
423.40	255.74
423.77	257.20
424.15	258.65
424.52	260.22
424.89	261.88
425.26	263.49
425.64	264.95
426.01	266.62
426.38	268.36
426.75	270.09
427.13	271.86
427.50	273.74
427.87	275.62
428.24	277.58
428.61	279.36
428.99	281.38
429.36	283.53
429.73	285.67
430.10	287.74
430.47	289.93
430.85	292.15
431.22	294.46
431.59	296.93
431.96	299.24
432.33	301.84
432.70	304.29
433.08	307.18
433.45	309.95
433.82	312.61
434.19	315.60
434.56	318.50
434.93	321.26
435.30	323.97
435.68	326.99
436.05	329.90
436.42	332.79
436.79	335.37
437.16	338.19
437.53	341.08
437.90	343.96
438.27	346.76
438.64	349.67
439.01	352.36
439.38	354.64
439.75	356.88
440.13	359.46
440.50	361.86
440.87	363.79
441.24	365.81
441.61	368.09
441.98	369.61
442.35	371.45
442.72	373.38
443.09	375.27
443.46	376.34
443.83	377.00
444.20	377.54
444.57	378.43
444.94	378.74
445.31	379.09
445.68	379.46
446.05	379.56
446.42	379.17
446.79	378.78
447.16	378.34
447.53	377.99
447.90	376.81
448.27	375.66
448.64	374.02
449.01	372.84
449.37	370.82
449.74	368.91
450.11	366.61
450.48	364.10
450.85	361.49
451.22	359.25
451.59	357.13
451.96	355.15
452.33	352.45
452.70	350.03
453.07	347.17
453.43	344.21
453.80	341.35
454.17	338.63
454.54	336.01
454.91	333.22
455.28	330.54
455.65	327.94
456.02	325.34
456.38	323.13
456.75	320.38
457.12	318.07
457.49	315.76
457.86	313.54
458.23	311.59
458.59	309.52
458.96	307.40
459.33	305.50
459.70	303.60
460.07	302.06
460.43	300.24
460.80	298.55
461.17	297.06
461.54	295.51
461.91	294.01
462.27	292.47
462.64	291.17
463.01	289.81
463.38	288.51
463.74	287.19
464.11	285.96
464.48	284.93
464.85	283.76
465.21	282.87
465.58	281.92
465.95	280.80
466.32	279.85
466.68	278.90
467.05	277.95
467.42	277.04
467.78	276.11
468.15	275.25
468.52	274.56
468.88	273.69
469.25	272.88
469.62	272.24
469.98	271.59
470.35	270.94
470.72	270.25
471.08	269.55
471.45	268.98
471.82	268.44
472.18	267.79
472.55	267.35
472.92	266.83
473.28	266.34
473.65	265.86
474.02	265.40
474.38	265.03
474.75	264.70
475.11	264.31
475.48	264.01
475.85	263.76
476.21	263.52
476.58	263.30
476.94	263.15
477.31	262.99
477.67	262.82
478.04	262.72
478.41	262.67
478.77	262.70
479.14	262.64
479.50	262.64
479.87	262.75
480.23	262.84
480.60	262.88
480.96	262.95
481.33	263.20
481.69	263.39
482.06	263.57
482.42	263.77
482.79	264.02
483.15	264.33
483.52	264.71
483.88	265.03
484.25	265.44
484.61	265.86
484.98	266.31
485.34	266.83
485.71	267.42
486.07	268.03
486.44	268.59
486.80	269.26
487.17	270.00
487.53	270.80
487.90	271.64
488.26	272.57
488.62	273.61
488.99	274.50
489.35	275.56
489.72	276.67
490.08	277.82
490.44	279.06
490.81	280.38
491.17	281.78
491.54	283.27
491.90	284.79
492.26	286.43
492.63	288.16
492.99	289.95
493.36	291.79
493.72	293.83
494.08	295.96
494.45	298.23
494.81	300.56
495.17	302.94
495.54	305.49
495.90	308.16
496.26	310.91
496.63	313.85
496.99	316.91
497.35	320.17
497.72	323.62
498.08	327.10
498.44	330.73
498.80	334.61
499.17	338.62
499.53	342.75
499.89	347.01
500.26	351.49
500.62	356.12
500.98	361.08
501.34	366.14
501.71	371.35
502.07	376.73
502.43	382.26
502.79	388.00
503.16	393.98
503.52	400.13
503.88	406.46
504.24	412.99
504.60	419.75
504.97	426.80
505.33	433.99
505.69	441.60
506.05	449.27
506.41	457.00
506.78	465.05
507.14	473.42
507.50	482.03
507.86	490.92
508.22	500.00
508.59	509.07
508.95	518.52
509.31	528.19
509.67	538.12
510.03	548.30
510.39	558.72
510.75	569.36
511.12	580.16
511.48	591.29
511.84	602.55
512.20	613.87
512.56	625.57
512.92	637.53
513.28	649.64
513.64	661.92
514.00	674.44
514.37	687.19
514.73	700.00
515.09	712.78
515.45	725.79
515.81	739.04
516.17	752.72
516.53	766.49
516.89	780.44
517.25	794.30
517.61	808.42
517.97	822.58
518.33	836.61
518.69	851.03
519.05	865.60
519.41	880.45
519.77	895.61
520.13	910.66
520.49	925.68
520.85	940.61
521.21	955.92
521.57	971.69
521.93	986.95
522.29	1002.86
522.65	1018.75
523.01	1034.57
523.37	1050.29
523.73	1065.99
524.09	1081.68
524.45	1097.42
524.81	1113.60
525.17	1129.84
525.53	1146.23
525.89	1162.79
526.25	1179.35
526.61	1195.38
526.97	1211.72
527.33	1227.84
527.68	1244.07
528.04	1260.20
528.40	1276.50
528.76	1293.21
529.12	1309.35
529.48	1325.96
529.84	1341.70
530.20	1357.97
530.56	1374.60
530.91	1391.54
531.27	1407.92
531.63	1423.98
531.99	1440.26
532.35	1456.05
532.71	1471.63
533.07	1487.54
533.42	1503.11
533.78	1518.74
534.14	1534.60
534.50	1549.66
534.86	1565.22
535.21	1580.14
535.57	1595.70
535.93	1611.01
536.29	1625.60
536.65	1640.57
537.00	1654.82
537.36	1669.95
537.72	1684.23
538.08	1698.31
538.44	1711.97
538.79	1725.89
539.15	1739.34
539.51	1752.82
539.87	1766.84
540.22	1780.33
540.58	1793.88
540.94	1806.95
541.29	1819.63
541.65	1832.31
542.01	1845.27
542.37	1857.55
542.72	1869.86
543.08	1881.60
543.44	1893.93
543.79	1905.04
544.15	1915.98
544.51	1927.69
544.87	1938.48
545.22	1949.32
545.58	1959.69
545.94	1969.43
546.29	1979.27
546.65	1989.19
547.01	1998.65
547.36	2007.48
547.72	2016.23
548.07	2024.47
548.43	2032.90
548.79	2040.99
549.14	2048.66
549.50	2056.21
549.86	2063.85
550.21	2071.28
550.57	2078.67
550.92	2085.36
551.28	2092.58
551.64	2099.79
551.99	2106.54
552.35	2112.97
552.70	2119.28
553.06	2125.50
553.41	2132.16
553.77	2138.24
554.13	2144.53
554.48	2150.80
554.84	2156.70
555.19	2162.15
555.55	2167.51
555.90	2172.28
556.26	2177.56
556.61	2182.47
556.97	2187.13
557.32	2191.76
557.68	2196.32
558.03	2200.81
558.39	2204.70
558.74	2209.68
559.10	2213.90
559.45	2217.74
559.81	2222.02
560.16	2226.18
560.52	2229.63
560.87	2233.17
561.23	2236.21
561.58	2239.33
561.94	2242.30
562.29	2244.76
562.64	2247.94
563.00	2250.65
563.35	2254.37
563.71	2257.83
564.06	2261.37
564.42	2264.64
564.77	2267.51
565.12	2270.29
565.48	2272.64
565.83	2274.91
566.19	2276.66
566.54	2277.84
566.89	2279.46
567.25	2280.77
567.60	2282.43
567.96	2284.58
568.31	2285.86
568.66	2287.40
569.02	2288.54
569.37	2289.17
569.72	2290.52
570.08	2291.05
570.43	2291.40
570.78	2291.26
571.14	2289.98
571.49	2288.96
571.84	2288.89
572.20	2288.08
572.55	2287.17
572.90	2285.66
573.26	2284.70
573.61	2283.08
573.96	2281.82
574.31	2279.25
574.67	2276.55
575.02	2273.23
575.37	2270.18
575.72	2266.97
576.08	2263.87
576.43	2260.75
576.78	2257.60
577.13	2254.64
577.49	2251.54
577.84	2248.57
578.19	2245.19
578.54	2242.14
578.90	2238.46
579.25	2233.29
579.60	2228.75
579.95	2224.28
580.30	2219.79
580.66	2214.91
581.01	2210.29
581.36	2205.68
581.71	2201.88
582.06	2197.88
582.42	2193.83
582.77	2188.89
583.12	2184.42
583.47	2180.22
583.82	2175.80
584.17	2170.80
584.53	2165.64
584.88	2160.62
585.23	2155.22
585.58	2149.91
585.93	2144.53
586.28	2139.70
586.63	2134.97
586.98	2130.03
587.34	2125.26
587.69	2120.56
588.04	2115.63
588.39	2110.37
588.74	2103.97
589.09	2097.92
589.44	2091.21
589.79	2085.14
590.14	2079.54
590.49	2073.07
590.84	2066.57
591.19	2060.52
591.54	2054.26
591.89	2047.21
592.25	2040.71
592.60	2033.65
592.95	2026.39
593.30	2019.32
593.65	2011.84
594.00	2004.87
594.35	1997.80
594.70	1989.81
595.05	1983.02
595.40	1975.87
595.75	1968.53
596.10	1962.58
596.45	1956.07
596.80	1950.09
597.15	1943.75
597.50	1937.03
597.85	1930.75
598.19	1924.39
598.54	1917.71
598.89	1911.01
599.24	1905.21
599.59	1898.57
599.94	1892.34
600.29	1886.01
600.64	1879.30
600.99	1872.22
601.34	1865.62
601.69	1858.71
602.04	1852.14
602.39	1844.71
602.74	1837.92
603.08	1831.29
603.43	1824.57
603.78	1817.26
604.13	1810.13
604.48	1803.09
604.83	1796.19
605.18	1789.45
605.53	1781.69
605.87	1773.58
606.22	1766.40
606.57	1758.44
606.92	1750.87
607.27	1743.92
607.62	1737.13
607.96	1730.09
608.31	1723.64
608.66	1715.98
609.01	1708.50
609.36	1700.97
609.70	1692.91
610.05	1684.94
610.40	1677.15
610.75	1668.89
611.10	1661.20
611.44	1652.65
611.79	1644.37
612.14	1635.73
612.49	1626.42
612.83	1617.75
613.18	1609.49
613.53	1601.32
613.88	1592.61
614.22	1584.26
614.57	1575.18
614.92	1566.95
615.27	1559.37
615.61	1550.93
615.96	1542.73
616.31	1534.92
616.65	1527.38
617.00	1519.81
617.35	1511.85
617.70	1503.48
618.04	1494.76
618.39	1486.44
618.74	1478.87
619.08	1470.57
619.43	1462.83
619.78	1455.75
620.12	1448.63
620.47	1441.16
620.82	1432.88
621.16	1425.34
621.51	1417.64
621.85	1410.10
622.20	1401.53
622.55	1393.03
622.89	1384.91
623.24	1377.17
623.59	1369.58
623.93	1362.04
624.28	1354.64
624.62	1347.22
624.97	1339.90
625.32	1333.06
625.66	1325.92
626.01	1318.61
626.35	1311.25
626.70	1303.46
627.04	1295.78
627.39	1287.79
627.73	1280.10
628.08	1273.11
628.43	1265.92
628.77	1258.67
629.12	1251.19
629.46	1243.93
629.81	1236.32
630.15	1229.06
630.50	1221.54
630.84	1213.32
631.19	1205.22
631.53	1197.56
631.88	1189.74
632.22	1182.07
632.57	1174.58
632.91	1166.96
633.26	1159.51
633.60	1151.82
633.95	1144.53
634.29	1137.29
634.64	1130.46
634.98	1123.10
635.32	1115.99
635.67	1109.15
636.01	1102.35
636.36	1095.35
636.70	1088.73
637.05	1082.12
637.39	1075.57
637.73	1069.06
638.08	1063.21
638.42	1057.18
638.77	1050.80
639.11	1044.39
639.45	1037.87
639.80	1031.28
640.14	1024.87
640.49	1018.31
640.83	1012.06
641.17	1005.81
641.52	999.49
641.86	993.09
642.20	987.21
642.55	980.65
642.89	974.17
643.23	967.50
643.58	961.78
643.92	955.53
644.26	949.47
644.61	943.37
644.95	937.41
645.29	930.81
645.64	924.09
645.98	917.66
646.32	911.49
646.66	905.47
647.01	899.53
647.35	893.80
647.69	887.85
648.04	882.20
648.38	876.38
648.72	870.44
649.06	864.37
649.41	858.41
649.75	852.59
650.09	846.64
650.43	840.95
650.78	834.76
651.12	828.82
651.46	823.06
651.80	817.37
652.14	811.88
652.49	806.52
652.83	801.31
653.17	795.74
653.51	790.14
653.85	784.73
654.20	779.16
654.54	773.06
654.88	767.30
655.22	761.37
655.56	755.61
655.90	750.03
656.25	744.75
656.59	739.37
656.93	734.19
657.27	729.04
657.61	723.55
657.95	718.42
658.29	713.35
658.64	707.98
658.98	702.60
659.32	697.05
659.66	691.74
660.00	686.47
660.34	681.40
660.68	676.42
661.02	671.28
661.36	666.61
661.70	662.10
662.05	657.69
662.39	653.46
662.73	649.03
663.07	644.61
663.41	640.06
663.75	635.61
664.09	631.05
664.43	626.65
664.77	622.50
665.11	618.21
665.45	613.98
665.79	609.94
666.13	605.85
666.47	601.77
666.81	597.62
667.15	593.35
667.49	589.38
667.83	585.53
668.17	581.55
668.51	577.39
668.85	573.32
669.19	569.40
669.53	565.54
669.87	561.64
670.21	557.89
670.55	554.26
670.89	550.75
671.23	547.23
671.57	543.60
671.91	540.06
672.25	536.49
672.58	532.97
672.92	529.53
673.26	526.25
673.60	523.03
673.94	519.91
674.28	516.94
674.62	513.98
674.96	510.88
675.30	507.96
675.64	505.10
675.97	502.26
676.31	499.37
676.65	496.42
676.99	493.68
677.33	490.84
677.67	488.00
678.01	484.96
678.34	482.00
678.68	479.12
679.02	476.26
679.36	473.50
679.70	470.71
680.04	467.89
680.37	465.02
680.71	462.18
681.05	459.53
681.39	456.84
681.73	454.16
682.06	451.64
682.40	449.11
682.74	446.51
683.08	443.95
683.42	441.37
683.75	438.80
684.09	436.18
684.43	433.68
684.77	431.19
685.10	428.79
685.44	426.43
685.78	424.11
686.12	421.82
686.45	419.50
686.79	417.24
687.13	415.02
687.46	412.83
687.80	410.71
688.14	408.41
688.48	406.38
688.81	404.17
689.15	401.96
689.49	399.74
689.82	397.66
690.16	395.50
690.50	393.52
690.83	391.60
691.17	389.63
691.51	387.72
691.84	385.88
692.18	384.01
692.52	382.07
692.85	380.11
693.19	378.24
693.52	376.37
693.86	374.47
694.20	372.67
694.53	370.91
694.87	369.02
695.21	367.25
695.54	365.37
695.88	363.61
696.21	361.86
696.55	360.20
696.88	358.50
697.22	356.91
697.56	355.25
697.89	353.54
698.23	351.91
698.56	350.27
698.90	348.67
699.23	346.97
699.57	345.40
699.90	343.85
700.24	342.27
700.58	340.69
700.91	339.27
701.25	337.81
701.58	336.40
701.92	335.01
702.25	333.59
702.59	332.18
702.92	330.83
703.26	329.50
703.59	328.16
703.93	326.92
704.26	325.66
704.60	324.39
704.93	323.12
705.26	321.88
705.60	320.65
705.93	319.40
706.27	318.36
706.60	317.26
706.94	316.13
707.27	314.98
707.61	313.94
707.94	312.85
708.27	311.70
708.61	310.57
708.94	309.52
709.28	308.52
709.61	307.55
709.94	306.56
710.28	305.54
710.61	304.55
710.95	303.47
711.28	302.48
711.61	301.44
711.95	300.49
712.28	299.44
712.61	298.41
712.95	297.48
713.28	296.51
713.61	295.58
713.95	294.68
714.28	293.84
714.61	292.95
714.95	292.08
715.28	291.25
715.61	290.35
715.95	289.45
716.28	288.57
716.61	287.68
716.95	286.77
717.28	285.98
717.61	285.18
717.94	284.40
718.28	283.57
718.61	282.82
718.94	282.09
719.27	281.46
719.61	280.82
719.94	280.12
720.27	279.41
720.60	278.73
720.94	278.09
721.27	277.41
721.60	276.80
721.93	276.16
722.27	275.56
722.60	275.00
722.93	274.47
723.26	273.92
723.59	273.38
723.93	272.88
724.26	272.29
724.59	271.71
724.92	271.19
725.25	270.69
725.59	270.18
725.92	269.68
726.25	269.12
726.58	268.62
726.91	268.12
727.24	267.64
727.57	267.17
727.91	266.66
728.24	266.21
728.57	265.72
728.90	265.30
729.23	264.79
729.56	264.36
729.89	263.88
730.22	263.40
730.55	262.95
730.89	262.50
731.22	262.10
731.55	261.68
731.88	261.26
732.21	260.83
732.54	260.43
732.87	260.02
733.20	259.65
733.53	259.27
733.86	258.88
734.19	258.52
734.52	258.14
734.85	257.81
735.18	257.42
735.51	257.06
735.84	256.67
736.17	256.35
736.50	255.96
736.83	255.72
737.16	255.39
737.49	255.05
737.82	254.69
738.15	254.36
738.48	254.02
738.81	253.69
739.14	253.36
739.47	253.05
739.80	252.75
740.13	252.44
740.46	252.09
740.79	251.79
741.12	251.49
741.45	251.18
741.78	250.87
742.11	250.59
742.44	250.25
742.77	249.95
743.10	249.67
743.43	249.37
743.75	249.01
744.08	248.87
744.41	248.57
744.74	248.30
745.07	247.99
745.40	247.74
745.73	247.52
746.06	247.24
746.39	246.92
746.71	246.62
747.04	246.38
747.37	246.14
747.70	245.87
748.03	245.60
748.36	245.35
748.68	245.07
749.01	244.81
749.34	244.56
749.67	244.33
750.00	244.06
750.33	243.88
750.65	243.65
750.98	243.25
751.31	243.01
751.64	242.80
751.97	242.63
752.29	242.40
752.62	242.10
752.95	241.88
753.28	241.69
753.60	241.47
753.93	241.27
754.26	241.04
754.59	240.79
754.91	240.56
755.24	240.33
755.57	240.11
755.90	239.91
756.22	239.74
756.55	239.54
756.88	239.34
757.20	239.11
757.53	238.89
757.86	238.74
758.19	238.58
758.51	238.39
758.84	238.17
759.17	237.99
759.49	237.83
759.82	237.71
760.15	237.55
760.47	237.34
760.80	237.15
761.13	237.00
761.45	236.88
761.78	236.73
762.11	236.61
762.43	236.47
762.76	236.30
763.08	236.13
763.41	235.98
763.74	235.85
764.06	235.71
764.39	235.55
764.71	235.43
765.04	235.30
765.37	235.15
765.69	235.05
766.02	234.92
766.34	234.80
766.67	234.64
767.00	234.53
767.32	234.53
767.65	234.45
767.97	234.37
768.30	234.25
768.62	234.16
768.95	234.01
769.27	233.90
769.60	233.80
769.92	233.68
770.25	233.57
770.57	233.44
770.90	233.33
771.22	233.26
771.55	233.14
771.87	233.04
772.20	232.95
772.52	232.91
772.85	232.93
773.17	232.85
773.50	232.78
773.82	232.70
774.15	232.56
774.47	232.40
774.80	232.32
775.12	232.22
775.45	232.14
775.77	232.10
776.09	232.02
776.42	231.95
776.74	231.93
777.07	231.83
777.39	231.76
777.72	231.67
778.04	231.60
778.36	231.52
778.69	231.46
779.01	231.41
779.33	231.28
779.66	231.11
779.98	231.01
780.31	230.95
780.63	230.93
780.95	230.89
781.28	230.86
781.60	230.76
781.92	230.74
782.25	230.67
782.57	230.60
782.89	230.55
783.22	230.50
783.54	230.39
783.86	230.39
784.19	230.35
784.51	230.35
784.83	230.27
785.16	230.20
785.48	230.15
785.80	230.10
786.12	230.05
786.45	229.97
786.77	229.96
787.09	229.89
