SpectraSuite Data File
++++++++++++++++++++++++++++++++++++
Date: Fri Feb 01 15:30:29 EST 2013
User: group
Dark Spectrum Present: No
Reference Spectrum Present: No
Number of Sampled Component Spectra: 1
Spectrometers: USB2E7196
Integration Time (usec): 35000 (USB2E7196)
Spectra Averaged: 100 (USB2E7196)
Boxcar Smoothing: 10 (USB2E7196)
Correct for Electrical Dark: No (USB2E7196)
Strobe/Lamp Enabled: No (USB2E7196)
Correct for Detector Non-linearity: No (USB2E7196)
Correct for Stray Light: No (USB2E7196)
Number of Pixels in Processed Spectrum: 2048
>>>>>Begin Processed Spectral Data<<<<<
339.09	0.00
339.48	214.73
339.86	216.87
340.24	218.27
340.63	219.55
341.01	222.17
341.39	222.14
341.78	223.57
342.16	223.92
342.54	225.34
342.93	213.50
343.31	224.31
343.69	224.86
344.07	225.31
344.46	225.72
344.84	226.09
345.22	226.32
345.60	226.57
345.99	226.75
346.37	226.90
346.75	227.01
347.13	227.08
347.52	227.15
347.90	227.24
348.28	227.27
348.66	227.32
349.05	227.31
349.43	227.33
349.81	227.39
350.19	227.43
350.57	227.47
350.96	227.53
351.34	227.57
351.72	227.66
352.10	227.77
352.48	227.83
352.87	227.89
353.25	227.96
353.63	228.02
354.01	228.07
354.39	228.16
354.77	228.21
355.15	228.30
355.54	228.34
355.92	228.36
356.30	228.43
356.68	228.54
357.06	228.62
357.44	228.65
357.82	228.69
358.20	228.76
358.58	228.84
358.97	228.91
359.35	229.00
359.73	229.04
360.11	229.05
360.49	229.10
360.87	229.16
361.25	229.21
361.63	229.28
362.01	229.31
362.39	229.31
362.77	229.35
363.15	229.38
363.53	229.41
363.91	229.41
364.29	229.41
364.67	229.35
365.05	229.35
365.43	229.36
365.81	229.39
366.19	229.43
366.57	229.45
366.95	229.42
367.33	229.39
367.71	229.37
368.09	229.41
368.47	229.40
368.85	229.35
369.23	229.34
369.61	229.26
369.99	229.25
370.37	229.24
370.75	229.24
371.13	229.17
371.51	229.08
371.89	229.03
372.27	228.98
372.65	228.92
373.03	228.87
373.41	228.81
373.78	228.73
374.16	228.63
374.54	228.52
374.92	228.47
375.30	228.41
375.68	228.36
376.06	228.27
376.44	228.20
376.82	228.14
377.19	228.03
377.57	228.01
377.95	227.92
378.33	227.83
378.71	227.74
379.09	227.68
379.47	227.65
379.84	227.58
380.22	227.52
380.60	227.42
380.98	227.34
381.36	227.30
381.73	227.22
382.11	227.17
382.49	227.10
382.87	227.05
383.25	226.99
383.62	227.02
384.00	226.97
384.38	226.90
384.76	226.85
385.13	226.88
385.51	226.80
385.89	226.75
386.27	226.71
386.64	226.65
387.02	226.61
387.40	226.57
387.78	226.56
388.15	226.48
388.53	226.44
388.91	226.41
389.29	226.36
389.66	226.35
390.04	226.33
390.42	226.33
390.79	226.33
391.17	226.33
391.55	226.21
391.92	226.21
392.30	226.23
392.68	226.23
393.05	226.22
393.43	226.25
393.81	226.30
394.18	226.32
394.56	226.35
394.94	226.40
395.31	226.43
395.69	226.48
396.06	226.55
396.44	226.63
396.82	226.66
397.19	226.79
397.57	226.82
397.95	226.88
398.32	226.91
398.70	226.97
399.07	227.07
399.45	227.13
399.82	227.19
400.20	227.24
400.58	227.32
400.95	227.37
401.33	227.46
401.70	227.59
402.08	227.72
402.45	227.79
402.83	227.89
403.20	227.99
403.58	228.09
403.95	228.19
404.33	228.31
404.71	228.47
405.08	228.66
405.46	228.78
405.83	228.95
406.21	229.09
406.58	229.26
406.96	229.38
407.33	229.55
407.70	229.77
408.08	230.05
408.45	230.24
408.83	230.49
409.20	230.72
409.58	230.90
409.95	231.13
410.33	231.41
410.70	231.67
411.08	231.97
411.45	232.27
411.82	232.61
412.20	232.97
412.57	233.39
412.95	233.66
413.32	234.08
413.69	234.46
414.07	234.93
414.44	235.40
414.82	235.91
415.19	236.50
415.56	237.02
415.94	237.57
416.31	238.24
416.68	238.86
417.06	239.59
417.43	240.29
417.81	241.04
418.18	241.81
418.55	242.65
418.93	243.54
419.30	244.44
419.67	245.39
420.04	246.36
420.42	247.34
420.79	248.49
421.16	249.67
421.54	250.87
421.91	252.05
422.28	253.33
422.66	254.63
423.03	255.95
423.40	257.27
423.77	258.71
424.15	260.12
424.52	261.58
424.89	263.17
425.26	264.72
425.64	266.17
426.01	267.73
426.38	269.40
426.75	271.06
427.13	272.80
427.50	274.59
427.87	276.46
428.24	278.31
428.61	280.10
428.99	282.04
429.36	284.14
429.73	286.20
430.10	288.23
430.47	290.31
430.85	292.38
431.22	294.63
431.59	297.01
431.96	299.28
432.33	301.82
432.70	304.18
433.08	307.00
433.45	309.66
433.82	312.36
434.19	315.29
434.56	318.12
434.93	320.79
435.30	323.44
435.68	326.32
436.05	329.16
436.42	331.94
436.79	334.46
437.16	337.17
437.53	340.07
437.90	342.92
438.27	345.63
438.64	348.49
439.01	351.09
439.38	353.29
439.75	355.46
440.13	357.88
440.50	360.26
440.87	362.12
441.24	364.05
441.61	366.20
441.98	367.64
442.35	369.45
442.72	371.31
443.09	373.13
443.46	374.14
443.83	374.73
444.20	375.26
444.57	376.10
444.94	376.38
445.31	376.65
445.68	376.96
446.05	377.06
446.42	376.65
446.79	376.23
447.16	375.81
447.53	375.50
447.90	374.33
448.27	373.12
448.64	371.49
449.01	370.39
449.37	368.38
449.74	366.52
450.11	364.26
450.48	361.76
450.85	359.17
451.22	357.03
451.59	355.01
451.96	353.04
452.33	350.43
452.70	348.06
453.07	345.24
453.43	342.29
453.80	339.52
454.17	336.84
454.54	334.28
454.91	331.55
455.28	328.81
455.65	326.35
456.02	323.93
456.38	321.81
456.75	319.12
457.12	316.86
457.49	314.59
457.86	312.39
458.23	310.54
458.59	308.50
458.96	306.37
459.33	304.50
459.70	302.62
460.07	301.10
460.43	299.36
460.80	297.74
461.17	296.32
461.54	294.82
461.91	293.39
462.27	291.94
462.64	290.69
463.01	289.35
463.38	288.06
463.74	286.66
464.11	285.48
464.48	284.45
464.85	283.33
465.21	282.48
465.58	281.55
465.95	280.42
466.32	279.55
466.68	278.67
467.05	277.78
467.42	276.92
467.78	275.99
468.15	275.13
468.52	274.45
468.88	273.60
469.25	272.83
469.62	272.21
469.98	271.55
470.35	270.93
470.72	270.35
471.08	269.70
471.45	269.17
471.82	268.61
472.18	268.00
472.55	267.57
472.92	267.04
473.28	266.60
473.65	266.19
474.02	265.72
474.38	265.36
474.75	265.02
475.11	264.66
475.48	264.38
475.85	264.17
476.21	263.94
476.58	263.74
476.94	263.57
477.31	263.39
477.67	263.24
478.04	263.11
478.41	263.05
478.77	263.07
479.14	263.00
479.50	263.05
479.87	263.11
480.23	263.20
480.60	263.28
480.96	263.37
481.33	263.54
481.69	263.75
482.06	263.94
482.42	264.12
482.79	264.38
483.15	264.71
483.52	265.09
483.88	265.46
484.25	265.87
484.61	266.33
484.98	266.82
485.34	267.40
485.71	267.99
486.07	268.58
486.44	269.15
486.80	269.84
487.17	270.57
487.53	271.39
487.90	272.23
488.26	273.13
488.62	274.11
488.99	275.11
489.35	276.13
489.72	277.25
490.08	278.46
490.44	279.69
490.81	281.00
491.17	282.32
491.54	283.78
491.90	285.29
492.26	286.92
492.63	288.65
492.99	290.39
493.36	292.22
493.72	294.25
494.08	296.38
494.45	298.66
494.81	301.02
495.17	303.41
495.54	305.98
495.90	308.67
496.26	311.44
496.63	314.40
496.99	317.51
497.35	320.78
497.72	324.18
498.08	327.69
498.44	331.41
498.80	335.35
499.17	339.35
499.53	343.53
499.89	347.87
500.26	352.33
500.62	357.03
500.98	362.08
501.34	367.18
501.71	372.49
502.07	377.93
502.43	383.49
502.79	389.32
503.16	395.40
503.52	401.71
503.88	408.12
504.24	414.73
504.60	421.61
504.97	428.72
505.33	435.99
505.69	443.65
506.05	451.39
506.41	459.30
506.78	467.53
507.14	475.94
507.50	484.72
507.86	493.76
508.22	502.96
508.59	512.15
508.95	521.71
509.31	531.52
509.67	541.65
510.03	551.96
510.39	562.54
510.75	573.37
511.12	584.28
511.48	595.55
511.84	607.01
512.20	618.61
512.56	630.62
512.92	642.93
513.28	655.32
513.64	667.79
514.00	680.40
514.37	693.32
514.73	706.43
515.09	719.47
515.45	732.83
515.81	746.47
516.17	760.48
516.53	774.73
516.89	788.97
517.25	803.21
517.61	817.75
517.97	832.26
518.33	846.71
518.69	861.52
519.05	876.65
519.41	891.98
519.77	907.59
520.13	923.05
520.49	938.52
520.85	954.00
521.21	969.84
521.57	986.22
521.93	1002.14
522.29	1018.56
522.65	1034.81
523.01	1051.08
523.37	1067.15
523.73	1083.35
524.09	1099.38
524.45	1115.70
524.81	1132.37
525.17	1149.21
525.53	1166.23
525.89	1183.06
526.25	1199.93
526.61	1216.29
526.97	1232.97
527.33	1249.34
527.68	1266.11
528.04	1282.52
528.40	1299.11
528.76	1316.22
529.12	1332.81
529.48	1349.56
529.84	1365.79
530.20	1382.61
530.56	1399.74
530.91	1417.09
531.27	1433.91
531.63	1450.55
531.99	1467.32
532.35	1483.39
532.71	1499.31
533.07	1515.55
533.42	1531.49
533.78	1547.64
534.14	1564.03
534.50	1579.40
534.86	1595.43
535.21	1610.44
535.57	1626.56
535.93	1642.15
536.29	1657.10
536.65	1672.22
537.00	1687.16
537.36	1702.39
537.72	1716.85
538.08	1731.25
538.44	1745.26
538.79	1759.24
539.15	1772.99
539.51	1786.65
539.87	1800.90
540.22	1814.69
540.58	1828.63
540.94	1842.13
541.29	1855.02
541.65	1867.69
542.01	1881.12
542.37	1893.40
542.72	1906.03
543.08	1917.90
543.44	1930.41
543.79	1941.55
544.15	1952.58
544.51	1964.23
544.87	1975.33
545.22	1986.31
545.58	1996.49
545.94	2006.16
546.29	2016.01
546.65	2025.79
547.01	2035.12
547.36	2043.99
547.72	2052.53
548.07	2060.35
548.43	2068.59
548.79	2076.75
549.14	2084.45
549.50	2091.82
549.86	2099.76
550.21	2107.06
550.57	2114.11
550.92	2120.58
551.28	2127.71
551.64	2134.83
551.99	2141.42
552.35	2147.45
552.70	2153.56
553.06	2159.52
553.41	2165.89
553.77	2172.00
554.13	2178.11
554.48	2184.15
554.84	2189.48
555.19	2194.78
555.55	2199.81
555.90	2204.18
556.26	2208.92
556.61	2213.63
556.97	2217.82
557.32	2221.78
557.68	2225.87
558.03	2230.14
558.39	2233.95
558.74	2238.69
559.10	2242.59
559.45	2246.16
559.81	2250.55
560.16	2254.31
560.52	2257.67
560.87	2261.20
561.23	2263.83
561.58	2266.74
561.94	2269.30
562.29	2271.77
562.64	2274.51
563.00	2277.28
563.35	2280.81
563.71	2283.91
564.06	2287.06
564.42	2289.90
564.77	2292.37
565.12	2294.65
565.48	2296.36
565.83	2298.16
566.19	2299.35
566.54	2300.20
566.89	2301.37
567.25	2301.77
567.60	2303.13
567.96	2304.79
568.31	2305.53
568.66	2306.54
569.02	2307.08
569.37	2307.28
569.72	2307.90
570.08	2307.80
570.43	2307.64
570.78	2307.08
571.14	2305.44
571.49	2304.10
571.84	2303.77
572.20	2302.68
572.55	2301.67
572.90	2300.27
573.26	2298.87
573.61	2297.00
573.96	2295.08
574.31	2292.03
574.67	2289.12
575.02	2285.40
575.37	2281.92
575.72	2277.94
576.08	2274.66
576.43	2271.24
576.78	2267.58
577.13	2264.53
577.49	2261.61
577.84	2258.04
578.19	2254.23
578.54	2250.58
578.90	2246.21
579.25	2240.63
579.60	2235.40
579.95	2230.20
580.30	2225.08
580.66	2219.89
581.01	2214.88
581.36	2209.97
581.71	2205.77
582.06	2201.34
582.42	2196.78
582.77	2191.44
583.12	2186.71
583.47	2181.80
583.82	2176.69
584.17	2171.44
584.53	2165.77
584.88	2159.89
585.23	2154.12
585.58	2148.44
585.93	2142.92
586.28	2138.12
586.63	2132.90
586.98	2127.90
587.34	2123.22
587.69	2118.31
588.04	2113.00
588.39	2107.28
588.74	2100.61
589.09	2094.37
589.44	2087.35
589.79	2081.29
590.14	2075.72
590.49	2069.32
590.84	2062.92
591.19	2056.89
591.54	2050.33
591.89	2042.98
592.25	2036.19
592.60	2028.89
592.95	2021.29
593.30	2013.99
593.65	2006.36
594.00	1999.20
594.35	1991.88
594.70	1983.79
595.05	1976.32
595.40	1968.91
595.75	1961.48
596.10	1955.29
596.45	1948.27
596.80	1942.12
597.15	1935.40
597.50	1928.05
597.85	1921.60
598.19	1914.89
598.54	1907.79
598.89	1901.14
599.24	1895.17
599.59	1888.35
599.94	1882.14
600.29	1875.84
600.64	1869.20
600.99	1861.65
601.34	1854.81
601.69	1847.83
602.04	1840.75
602.39	1833.48
602.74	1826.60
603.08	1819.76
603.43	1812.90
603.78	1805.69
604.13	1798.38
604.48	1791.06
604.83	1784.19
605.18	1777.07
605.53	1768.97
605.87	1760.76
606.22	1753.51
606.57	1745.56
606.92	1738.33
607.27	1730.99
607.62	1724.02
607.96	1716.62
608.31	1709.99
608.66	1702.29
609.01	1694.75
609.36	1687.27
609.70	1679.38
610.05	1671.34
610.40	1663.52
610.75	1655.27
611.10	1647.64
611.44	1639.35
611.79	1631.38
612.14	1622.74
612.49	1613.67
612.83	1605.35
613.18	1597.45
613.53	1589.34
613.88	1580.86
614.22	1572.49
614.57	1564.00
614.92	1556.01
615.27	1548.49
615.61	1540.21
615.96	1532.23
616.31	1524.53
616.65	1517.13
617.00	1509.42
617.35	1501.80
617.70	1493.40
618.04	1484.86
618.39	1476.59
618.74	1468.90
619.08	1460.54
619.43	1452.83
619.78	1445.95
620.12	1438.77
620.47	1431.08
620.82	1422.91
621.16	1415.43
621.51	1407.87
621.85	1400.22
622.20	1391.62
622.55	1383.22
622.89	1375.32
623.24	1367.75
623.59	1360.45
623.93	1352.86
624.28	1345.60
624.62	1338.00
624.97	1330.97
625.32	1324.42
625.66	1317.40
626.01	1310.16
626.35	1302.68
626.70	1295.02
627.04	1287.18
627.39	1279.42
627.73	1272.04
628.08	1264.95
628.43	1257.63
628.77	1250.20
629.12	1242.56
629.46	1235.38
629.81	1228.02
630.15	1220.78
630.50	1213.36
630.84	1205.07
631.19	1197.27
631.53	1189.80
631.88	1182.24
632.22	1174.52
632.57	1167.04
632.91	1159.51
633.26	1152.17
633.60	1144.93
633.95	1137.89
634.29	1130.85
634.64	1124.17
634.98	1116.84
635.32	1109.79
635.67	1103.20
636.01	1096.63
636.36	1089.85
636.70	1083.37
637.05	1076.72
637.39	1070.29
637.73	1063.76
638.08	1058.00
638.42	1051.99
638.77	1045.54
639.11	1038.90
639.45	1032.57
639.80	1025.95
640.14	1019.58
640.49	1013.06
640.83	1006.70
641.17	1000.36
641.52	993.99
641.86	987.54
642.20	981.71
642.55	975.43
642.89	968.92
643.23	962.40
643.58	956.66
643.92	950.48
644.26	944.47
644.61	938.44
644.95	932.40
645.29	925.65
645.64	918.95
645.98	912.59
646.32	906.79
646.66	900.78
647.01	894.99
647.35	889.20
647.69	883.37
648.04	877.81
648.38	872.04
648.72	866.09
649.06	860.02
649.41	854.13
649.75	848.14
650.09	842.23
650.43	836.34
650.78	830.15
651.12	824.23
651.46	818.52
651.80	812.70
652.14	807.28
652.49	801.94
652.83	796.69
653.17	790.99
653.51	785.19
653.85	779.75
654.20	774.09
654.54	768.13
654.88	762.37
655.22	756.43
655.56	750.73
655.90	745.31
656.25	740.10
656.59	734.74
656.93	729.59
657.27	724.37
657.61	718.96
657.95	713.86
658.29	708.72
658.64	703.45
658.98	698.20
659.32	692.76
659.66	687.55
660.00	682.28
660.34	677.35
660.68	672.48
661.02	667.49
661.36	662.76
661.70	658.27
662.05	653.95
662.39	649.65
662.73	645.27
663.07	640.87
663.41	636.35
663.75	631.84
664.09	627.35
664.43	623.03
664.77	618.91
665.11	614.66
665.45	610.50
665.79	606.42
666.13	602.26
666.47	598.11
666.81	594.00
667.15	589.90
667.49	586.03
667.83	582.28
668.17	578.29
668.51	574.24
668.85	570.18
669.19	566.25
669.53	562.44
669.87	558.47
670.21	554.69
670.55	551.02
670.89	547.56
671.23	544.13
671.57	540.58
671.91	537.02
672.25	533.58
672.58	530.15
672.92	526.79
673.26	523.67
673.60	520.62
673.94	517.54
674.28	514.59
674.62	511.65
674.96	508.54
675.30	505.65
675.64	502.72
675.97	499.95
676.31	497.14
676.65	494.17
676.99	491.54
677.33	488.73
677.67	485.98
678.01	483.04
678.34	480.04
678.68	477.23
679.02	474.37
679.36	471.60
679.70	468.82
680.04	466.00
680.37	463.12
680.71	460.29
681.05	457.64
681.39	454.95
681.73	452.31
682.06	449.75
682.40	447.22
682.74	444.69
683.08	442.20
683.42	439.59
683.75	437.10
684.09	434.57
684.43	432.07
684.77	429.55
685.10	427.17
685.44	424.93
685.78	422.63
686.12	420.41
686.45	418.14
686.79	415.85
687.13	413.69
687.46	411.56
687.80	409.41
688.14	407.19
688.48	405.13
688.81	402.87
689.15	400.74
689.49	398.61
689.82	396.52
690.16	394.45
690.50	392.49
690.83	390.54
691.17	388.58
691.51	386.68
691.84	384.86
692.18	382.89
692.52	380.89
692.85	378.94
693.19	377.09
693.52	375.26
693.86	373.44
694.20	371.66
694.53	369.87
694.87	368.04
695.21	366.29
695.54	364.48
695.88	362.78
696.21	361.06
696.55	359.35
696.88	357.68
697.22	356.00
697.56	354.38
697.89	352.73
698.23	351.12
698.56	349.56
698.90	347.93
699.23	346.31
699.57	344.73
699.90	343.19
700.24	341.61
700.58	340.07
700.91	338.58
701.25	337.10
701.58	335.70
701.92	334.33
702.25	332.91
702.59	331.57
702.92	330.28
703.26	328.96
703.59	327.74
703.93	326.57
704.26	325.38
704.60	324.13
704.93	322.88
705.26	321.60
705.60	320.41
705.93	319.25
706.27	318.22
706.60	317.24
706.94	316.19
707.27	315.12
707.61	314.07
707.94	313.04
708.27	311.98
708.61	310.93
708.94	309.93
709.28	308.97
709.61	307.96
709.94	307.00
710.28	305.98
710.61	305.01
710.95	303.95
711.28	303.00
711.61	302.03
711.95	301.13
712.28	300.22
712.61	299.27
712.95	298.41
713.28	297.53
713.61	296.56
713.95	295.61
714.28	294.78
714.61	293.90
714.95	293.08
715.28	292.24
715.61	291.34
715.95	290.50
716.28	289.63
716.61	288.80
716.95	287.96
717.28	287.23
717.61	286.45
717.94	285.69
718.28	284.91
718.61	284.19
718.94	283.52
719.27	282.84
719.61	282.16
719.94	281.46
720.27	280.76
720.60	280.12
720.94	279.54
721.27	278.91
721.60	278.33
721.93	277.71
722.27	277.17
722.60	276.61
722.93	276.05
723.26	275.51
723.59	274.97
723.93	274.44
724.26	273.89
724.59	273.33
724.92	272.78
725.25	272.26
725.59	271.77
725.92	271.23
726.25	270.73
726.58	270.25
726.91	269.74
727.24	269.28
727.57	268.79
727.91	268.31
728.24	267.89
728.57	267.41
728.90	267.02
729.23	266.52
729.56	266.08
729.89	265.56
730.22	265.10
730.55	264.63
730.89	264.17
731.22	263.70
731.55	263.26
731.88	262.84
732.21	262.41
732.54	261.96
732.87	261.54
733.20	261.13
733.53	260.74
733.86	260.36
734.19	259.97
734.52	259.61
734.85	259.26
735.18	258.82
735.51	258.45
735.84	258.03
736.17	257.67
736.50	257.28
736.83	257.06
737.16	256.68
737.49	256.35
737.82	255.98
738.15	255.67
738.48	255.35
738.81	255.04
739.14	254.69
739.47	254.41
739.80	254.09
740.13	253.81
740.46	253.46
740.79	253.14
741.12	252.82
741.45	252.53
741.78	252.25
742.11	251.94
742.44	251.61
742.77	251.35
743.10	251.06
743.43	250.76
743.75	250.38
744.08	250.30
744.41	249.99
744.74	249.74
745.07	249.44
745.40	249.17
745.73	248.95
746.06	248.70
746.39	248.39
746.71	248.14
747.04	247.86
747.37	247.63
747.70	247.38
748.03	247.16
748.36	246.90
748.68	246.63
749.01	246.39
749.34	246.21
749.67	245.96
750.00	245.72
750.33	245.57
750.65	245.40
750.98	245.04
751.31	244.84
751.64	244.67
751.97	244.54
752.29	244.33
752.62	244.04
752.95	243.82
753.28	243.63
753.60	243.42
753.93	243.26
754.26	243.07
754.59	242.85
754.91	242.61
755.24	242.40
755.57	242.19
755.90	242.03
756.22	241.80
756.55	241.60
756.88	241.42
757.20	241.20
757.53	240.98
757.86	240.79
758.19	240.64
758.51	240.43
758.84	240.23
759.17	240.05
759.49	239.94
759.82	239.82
760.15	239.66
760.47	239.51
760.80	239.32
761.13	239.17
761.45	239.01
761.78	238.87
762.11	238.76
762.43	238.59
762.76	238.44
763.08	238.32
763.41	238.22
763.74	238.08
764.06	237.92
764.39	237.76
764.71	237.64
765.04	237.47
765.37	237.35
765.69	237.20
766.02	237.07
766.34	236.89
766.67	236.76
767.00	236.67
767.32	236.62
767.65	236.56
767.97	236.46
768.30	236.39
768.62	236.32
768.95	236.20
769.27	236.09
769.60	235.98
769.92	235.84
770.25	235.69
770.57	235.60
770.90	235.53
771.22	235.44
771.55	235.34
771.87	235.27
772.20	235.19
772.52	235.20
772.85	235.25
773.17	235.18
773.50	235.10
773.82	235.00
774.15	234.85
774.47	234.70
774.80	234.59
775.12	234.51
775.45	234.39
775.77	234.33
776.09	234.28
776.42	234.23
776.74	234.17
777.07	234.14
777.39	234.04
777.72	233.96
778.04	233.91
778.36	233.82
778.69	233.73
779.01	233.67
779.33	233.49
779.66	233.32
779.98	233.26
780.31	233.19
780.63	233.16
780.95	233.14
781.28	233.07
781.60	233.01
781.92	232.95
782.25	232.89
782.57	232.80
782.89	232.70
783.22	232.64
783.54	232.59
783.86	232.52
784.19	232.48
784.51	232.45
784.83	232.37
785.16	232.35
785.48	232.32
785.80	232.25
786.12	232.21
786.45	232.18
786.77	232.14
787.09	232.06
