SpectraSuite Data File
++++++++++++++++++++++++++++++++++++
Date: Fri Feb 01 16:13:19 EST 2013
User: group
Dark Spectrum Present: No
Reference Spectrum Present: No
Number of Sampled Component Spectra: 1
Spectrometers: USB2E7196
Integration Time (usec): 35000 (USB2E7196)
Spectra Averaged: 100 (USB2E7196)
Boxcar Smoothing: 10 (USB2E7196)
Correct for Electrical Dark: No (USB2E7196)
Strobe/Lamp Enabled: No (USB2E7196)
Correct for Detector Non-linearity: No (USB2E7196)
Correct for Stray Light: No (USB2E7196)
Number of Pixels in Processed Spectrum: 2048
>>>>>Begin Processed Spectral Data<<<<<
339.09	0.00
339.48	214.56
339.86	215.87
340.24	217.22
340.63	217.91
341.01	221.21
341.39	221.52
341.78	222.35
342.16	224.09
342.54	224.19
342.93	212.65
343.31	223.38
343.69	223.90
344.07	224.36
344.46	224.79
344.84	225.21
345.22	225.46
345.60	225.69
345.99	225.89
346.37	226.01
346.75	226.13
347.13	226.21
347.52	226.26
347.90	226.36
348.28	226.41
348.66	226.47
349.05	226.50
349.43	226.52
349.81	226.55
350.19	226.57
350.57	226.59
350.96	226.67
351.34	226.78
351.72	226.90
352.10	227.01
352.48	227.07
352.87	227.12
353.25	227.18
353.63	227.24
354.01	227.27
354.39	227.35
354.77	227.40
355.15	227.51
355.54	227.58
355.92	227.60
356.30	227.70
356.68	227.83
357.06	227.89
357.44	227.96
357.82	228.04
358.20	228.11
358.58	228.20
358.97	228.23
359.35	228.27
359.73	228.32
360.11	228.37
360.49	228.44
360.87	228.49
361.25	228.53
361.63	228.62
362.01	228.71
362.39	228.72
362.77	228.74
363.15	228.75
363.53	228.77
363.91	228.82
364.29	228.81
364.67	228.72
365.05	228.73
365.43	228.74
365.81	228.79
366.19	228.82
366.57	228.85
366.95	228.84
367.33	228.83
367.71	228.81
368.09	228.81
368.47	228.80
368.85	228.75
369.23	228.76
369.61	228.66
369.99	228.62
370.37	228.63
370.75	228.64
371.13	228.59
371.51	228.53
371.89	228.44
372.27	228.43
372.65	228.37
373.03	228.29
373.41	228.23
373.78	228.16
374.16	228.08
374.54	227.99
374.92	227.95
375.30	227.87
375.68	227.79
376.06	227.73
376.44	227.62
376.82	227.57
377.19	227.48
377.57	227.44
377.95	227.35
378.33	227.27
378.71	227.13
379.09	227.03
379.47	227.00
379.84	226.95
380.22	226.84
380.60	226.75
380.98	226.67
381.36	226.59
381.73	226.48
382.11	226.44
382.49	226.38
382.87	226.28
383.25	226.26
383.62	226.30
384.00	226.23
384.38	226.18
384.76	226.15
385.13	226.16
385.51	226.14
385.89	226.08
386.27	226.06
386.64	226.04
387.02	226.04
387.40	225.99
387.78	225.94
388.15	225.92
388.53	225.91
388.91	225.91
389.29	225.88
389.66	225.88
390.04	225.85
390.42	225.86
390.79	225.87
391.17	225.84
391.55	225.71
391.92	225.71
392.30	225.72
392.68	225.72
393.05	225.69
393.43	225.68
393.81	225.70
394.18	225.68
394.56	225.69
394.94	225.74
395.31	225.74
395.69	225.83
396.06	225.88
396.44	225.92
396.82	225.95
397.19	226.06
397.57	226.08
397.95	226.14
398.32	226.12
398.70	226.20
399.07	226.31
399.45	226.40
399.82	226.47
400.20	226.51
400.58	226.58
400.95	226.63
401.33	226.75
401.70	226.90
402.08	227.04
402.45	227.14
402.83	227.27
403.20	227.37
403.58	227.43
403.95	227.56
404.33	227.66
404.71	227.80
405.08	227.98
405.46	228.16
405.83	228.31
406.21	228.47
406.58	228.62
406.96	228.75
407.33	228.93
407.70	229.14
408.08	229.43
408.45	229.63
408.83	229.82
409.20	230.01
409.58	230.21
409.95	230.45
410.33	230.71
410.70	230.93
411.08	231.23
411.45	231.48
411.82	231.76
412.20	232.15
412.57	232.53
412.95	232.77
413.32	233.15
413.69	233.52
414.07	233.96
414.44	234.42
414.82	234.90
415.19	235.42
415.56	235.90
415.94	236.41
416.31	237.03
416.68	237.67
417.06	238.39
417.43	239.05
417.81	239.78
418.18	240.53
418.55	241.37
418.93	242.25
419.30	243.20
419.67	244.17
420.04	245.07
420.42	246.07
420.79	247.25
421.16	248.37
421.54	249.59
421.91	250.80
422.28	252.03
422.66	253.38
423.03	254.67
423.40	256.02
423.77	257.45
424.15	258.91
424.52	260.40
424.89	262.00
425.26	263.51
425.64	265.00
426.01	266.59
426.38	268.22
426.75	269.86
427.13	271.56
427.50	273.36
427.87	275.25
428.24	277.12
428.61	278.89
428.99	280.88
429.36	282.99
429.73	285.07
430.10	287.12
430.47	289.17
430.85	291.29
431.22	293.56
431.59	295.91
431.96	298.10
432.33	300.60
432.70	302.98
433.08	305.84
433.45	308.48
433.82	311.12
434.19	314.04
434.56	316.87
434.93	319.51
435.30	322.14
435.68	325.03
436.05	327.85
436.42	330.66
436.79	333.16
437.16	335.83
437.53	338.66
437.90	341.44
438.27	344.18
438.64	346.99
439.01	349.56
439.38	351.82
439.75	354.00
440.13	356.51
440.50	358.83
440.87	360.62
441.24	362.58
441.61	364.71
441.98	366.18
442.35	367.97
442.72	369.84
443.09	371.65
443.46	372.69
443.83	373.27
444.20	373.76
444.57	374.59
444.94	374.90
445.31	375.26
445.68	375.60
446.05	375.68
446.42	375.34
446.79	374.93
447.16	374.46
447.53	374.14
447.90	372.99
448.27	371.80
448.64	370.26
449.01	369.08
449.37	367.14
449.74	365.24
450.11	363.02
450.48	360.60
450.85	358.05
451.22	355.90
451.59	353.89
451.96	351.94
452.33	349.31
452.70	346.94
453.07	344.07
453.43	341.15
453.80	338.39
454.17	335.67
454.54	333.12
454.91	330.41
455.28	327.74
455.65	325.22
456.02	322.77
456.38	320.63
456.75	317.96
457.12	315.70
457.49	313.46
457.86	311.29
458.23	309.42
458.59	307.39
458.96	305.31
459.33	303.45
459.70	301.61
460.07	300.12
460.43	298.38
460.80	296.79
461.17	295.39
461.54	293.85
461.91	292.42
462.27	290.95
462.64	289.72
463.01	288.32
463.38	287.05
463.74	285.70
464.11	284.52
464.48	283.49
464.85	282.34
465.21	281.46
465.58	280.53
465.95	279.40
466.32	278.45
466.68	277.50
467.05	276.60
467.42	275.69
467.78	274.77
468.15	273.91
468.52	273.22
468.88	272.37
469.25	271.62
469.62	271.04
469.98	270.37
470.35	269.73
470.72	269.18
471.08	268.51
471.45	268.01
471.82	267.45
472.18	266.87
472.55	266.49
472.92	266.01
473.28	265.60
473.65	265.18
474.02	264.75
474.38	264.42
474.75	264.10
475.11	263.73
475.48	263.46
475.85	263.23
476.21	263.01
476.58	262.84
476.94	262.68
477.31	262.51
477.67	262.40
478.04	262.29
478.41	262.27
478.77	262.29
479.14	262.20
479.50	262.23
479.87	262.33
480.23	262.40
480.60	262.45
480.96	262.53
481.33	262.73
481.69	262.98
482.06	263.17
482.42	263.43
482.79	263.73
483.15	264.10
483.52	264.50
483.88	264.90
484.25	265.30
484.61	265.73
484.98	266.25
485.34	266.82
485.71	267.46
486.07	268.06
486.44	268.67
486.80	269.38
487.17	270.19
487.53	271.03
487.90	271.91
488.26	272.87
488.62	273.88
488.99	274.90
489.35	275.92
489.72	277.06
490.08	278.26
490.44	279.51
490.81	280.82
491.17	282.17
491.54	283.63
491.90	285.15
492.26	286.81
492.63	288.51
492.99	290.30
493.36	292.16
493.72	294.19
494.08	296.26
494.45	298.49
494.81	300.81
495.17	303.21
495.54	305.78
495.90	308.47
496.26	311.26
496.63	314.19
496.99	317.32
497.35	320.59
497.72	323.97
498.08	327.50
498.44	331.21
498.80	335.15
499.17	339.21
499.53	343.40
499.89	347.79
500.26	352.30
500.62	356.99
500.98	361.96
501.34	367.02
501.71	372.39
502.07	377.85
502.43	383.49
502.79	389.33
503.16	395.45
503.52	401.75
503.88	408.19
504.24	414.82
504.60	421.63
504.97	428.80
505.33	436.10
505.69	443.82
506.05	451.58
506.41	459.40
506.78	467.54
507.14	475.95
507.50	484.65
507.86	493.63
508.22	502.83
508.59	512.03
508.95	521.59
509.31	531.40
509.67	541.52
510.03	551.83
510.39	562.39
510.75	573.11
511.12	584.03
511.48	595.24
511.84	606.72
512.20	618.22
512.56	630.14
512.92	642.35
513.28	654.62
513.64	667.15
514.00	679.87
514.37	692.84
514.73	705.95
515.09	718.95
515.45	732.30
515.81	745.79
516.17	759.77
516.53	773.96
516.89	788.08
517.25	802.18
517.61	816.59
517.97	830.96
518.33	845.45
518.69	860.19
519.05	875.24
519.41	890.40
519.77	905.97
520.13	921.42
520.49	936.78
520.85	952.21
521.21	967.85
521.57	984.16
521.93	999.84
522.29	1016.20
522.65	1032.48
523.01	1048.65
523.37	1064.74
523.73	1080.84
524.09	1096.91
524.45	1113.26
524.81	1129.90
525.17	1146.51
525.53	1163.45
525.89	1180.22
526.25	1197.03
526.61	1213.24
526.97	1229.97
527.33	1246.40
527.68	1262.83
528.04	1279.35
528.40	1295.84
528.76	1312.87
529.12	1329.28
529.48	1346.20
529.84	1362.00
530.20	1378.64
530.56	1395.50
530.91	1412.81
531.27	1429.50
531.63	1445.96
531.99	1462.48
532.35	1478.42
532.71	1494.43
533.07	1510.67
533.42	1526.55
533.78	1542.53
534.14	1558.94
534.50	1574.24
534.86	1590.03
535.21	1605.31
535.57	1621.08
535.93	1636.42
536.29	1651.10
536.65	1666.18
537.00	1680.73
537.36	1696.08
537.72	1710.46
538.08	1724.92
538.44	1738.76
538.79	1752.65
539.15	1766.11
539.51	1779.71
539.87	1794.04
540.22	1807.55
540.58	1821.03
540.94	1834.26
541.29	1846.94
541.65	1859.35
542.01	1872.33
542.37	1884.54
542.72	1896.88
543.08	1908.62
543.44	1921.13
543.79	1932.34
544.15	1943.19
544.51	1954.75
544.87	1965.62
545.22	1976.41
545.58	1986.49
545.94	1995.99
546.29	2005.85
546.65	2015.69
547.01	2024.93
547.36	2033.52
547.72	2042.00
548.07	2050.05
548.43	2058.12
548.79	2066.14
549.14	2073.87
549.50	2081.28
549.86	2088.87
550.21	2096.11
550.57	2103.13
550.92	2109.55
551.28	2116.69
551.64	2123.73
551.99	2130.24
552.35	2136.40
552.70	2142.44
553.06	2148.28
553.41	2154.65
553.77	2160.51
554.13	2166.56
554.48	2172.61
554.84	2178.17
555.19	2183.34
555.55	2188.39
555.90	2192.86
556.26	2197.88
556.61	2202.40
556.97	2206.78
557.32	2210.92
557.68	2214.96
558.03	2219.44
558.39	2223.17
558.74	2227.66
559.10	2231.63
559.45	2235.13
559.81	2239.25
560.16	2243.09
560.52	2246.39
560.87	2249.78
561.23	2252.51
561.58	2255.35
561.94	2258.02
562.29	2260.24
562.64	2263.12
563.00	2265.64
563.35	2269.22
563.71	2272.21
564.06	2275.58
564.42	2278.36
564.77	2281.03
565.12	2283.45
565.48	2285.32
565.83	2287.32
566.19	2288.66
566.54	2289.50
566.89	2290.87
567.25	2291.70
567.60	2293.08
567.96	2294.92
568.31	2295.88
568.66	2296.98
569.02	2297.67
569.37	2297.93
569.72	2298.83
570.08	2299.04
570.43	2299.17
570.78	2298.63
571.14	2297.10
571.49	2295.77
571.84	2295.37
572.20	2294.25
572.55	2293.09
572.90	2291.44
573.26	2290.05
573.61	2288.34
573.96	2286.68
574.31	2283.66
574.67	2280.78
575.02	2277.15
575.37	2273.78
575.72	2270.06
576.08	2266.69
576.43	2263.32
576.78	2259.87
577.13	2256.66
577.49	2253.49
577.84	2249.97
578.19	2246.26
578.54	2242.79
578.90	2238.53
579.25	2233.06
579.60	2228.09
579.95	2223.17
580.30	2218.19
580.66	2212.93
581.01	2207.97
581.36	2203.03
581.71	2198.95
582.06	2194.54
582.42	2190.14
582.77	2184.95
583.12	2180.51
583.47	2175.83
583.82	2170.94
584.17	2165.69
584.53	2160.26
584.88	2154.58
585.23	2149.07
585.58	2143.55
585.93	2138.03
586.28	2133.15
586.63	2128.10
586.98	2123.18
587.34	2118.52
587.69	2113.63
588.04	2108.49
588.39	2102.79
588.74	2096.38
589.09	2090.06
589.44	2083.24
589.79	2077.03
590.14	2071.40
590.49	2064.77
590.84	2058.38
591.19	2052.33
591.54	2045.69
591.89	2038.48
592.25	2031.85
592.60	2024.38
592.95	2016.87
593.30	2009.65
593.65	2002.11
594.00	1995.10
594.35	1987.69
594.70	1979.55
595.05	1972.42
595.40	1965.10
595.75	1957.79
596.10	1951.70
596.45	1945.19
596.80	1938.99
597.15	1932.64
597.50	1925.73
597.85	1919.20
598.19	1912.58
598.54	1905.64
598.89	1899.09
599.24	1893.08
599.59	1886.48
599.94	1880.37
600.29	1874.07
600.64	1867.32
600.99	1859.96
601.34	1853.22
601.69	1846.32
602.04	1839.55
602.39	1832.31
602.74	1825.49
603.08	1818.86
603.43	1811.90
603.78	1804.60
604.13	1797.35
604.48	1790.17
604.83	1783.18
605.18	1776.35
605.53	1768.48
605.87	1760.39
606.22	1753.16
606.57	1745.19
606.92	1737.79
607.27	1730.72
607.62	1723.79
607.96	1716.68
608.31	1710.23
608.66	1702.68
609.01	1695.19
609.36	1687.85
609.70	1679.76
610.05	1671.96
610.40	1664.17
610.75	1655.89
611.10	1648.20
611.44	1639.92
611.79	1631.77
612.14	1623.23
612.49	1614.07
612.83	1605.61
613.18	1597.48
613.53	1589.37
613.88	1580.88
614.22	1572.57
614.57	1563.86
614.92	1555.79
615.27	1548.34
615.61	1540.01
615.96	1531.84
616.31	1524.20
616.65	1516.68
617.00	1509.18
617.35	1501.37
617.70	1493.05
618.04	1484.71
618.39	1476.46
618.74	1468.83
619.08	1460.55
619.43	1452.88
619.78	1446.01
620.12	1439.00
620.47	1431.56
620.82	1423.36
621.16	1415.94
621.51	1408.40
621.85	1400.85
622.20	1392.41
622.55	1383.99
622.89	1376.13
623.24	1368.50
623.59	1360.99
623.93	1353.54
624.28	1346.32
624.62	1338.88
624.97	1331.75
625.32	1324.81
625.66	1317.77
626.01	1310.68
626.35	1303.35
626.70	1295.55
627.04	1287.74
627.39	1279.88
627.73	1272.45
628.08	1265.64
628.43	1258.41
628.77	1251.04
629.12	1243.51
629.46	1236.38
629.81	1228.83
630.15	1221.60
630.50	1214.17
630.84	1206.02
631.19	1197.90
631.53	1190.33
631.88	1182.71
632.22	1175.12
632.57	1167.92
632.91	1160.34
633.26	1152.93
633.60	1145.36
633.95	1138.15
634.29	1131.09
634.64	1124.45
634.98	1116.99
635.32	1109.78
635.67	1103.19
636.01	1096.50
636.36	1089.73
636.70	1083.12
637.05	1076.63
637.39	1070.17
637.73	1063.83
638.08	1058.01
638.42	1052.13
638.77	1045.69
639.11	1039.06
639.45	1032.57
639.80	1025.79
640.14	1019.54
640.49	1012.86
640.83	1006.60
641.17	1000.50
641.52	994.16
641.86	987.61
642.20	981.81
642.55	975.54
642.89	969.04
643.23	962.56
643.58	956.68
643.92	950.55
644.26	944.54
644.61	938.45
644.95	932.34
645.29	925.77
645.64	919.00
645.98	912.66
646.32	906.70
646.66	900.71
647.01	895.01
647.35	889.17
647.69	883.34
648.04	877.83
648.38	871.93
648.72	865.98
649.06	860.02
649.41	854.14
649.75	848.18
650.09	842.21
650.43	836.31
650.78	830.26
651.12	824.21
651.46	818.44
651.80	812.69
652.14	807.29
652.49	801.95
652.83	796.76
653.17	791.11
653.51	785.48
653.85	780.04
654.20	774.41
654.54	768.55
654.88	762.80
655.22	756.88
655.56	751.25
655.90	745.72
656.25	740.45
656.59	735.03
656.93	729.93
657.27	724.79
657.61	719.40
657.95	714.22
658.29	709.16
658.64	703.94
658.98	698.57
659.32	693.11
659.66	687.87
660.00	682.63
660.34	677.72
660.68	672.80
661.02	667.82
661.36	663.13
661.70	658.51
662.05	654.19
662.39	649.95
662.73	645.49
663.07	641.14
663.41	636.69
663.75	632.30
664.09	627.79
664.43	623.45
664.77	619.34
665.11	615.13
665.45	611.03
665.79	606.95
666.13	602.86
666.47	598.76
666.81	594.65
667.15	590.49
667.49	586.52
667.83	582.71
668.17	578.71
668.51	574.64
668.85	570.64
669.19	566.80
669.53	562.91
669.87	559.07
670.21	555.36
670.55	551.72
670.89	548.28
671.23	544.77
671.57	541.25
671.91	537.74
672.25	534.23
672.58	530.71
672.92	527.28
673.26	524.08
673.60	520.97
673.94	517.85
674.28	514.89
674.62	511.98
674.96	508.87
675.30	506.01
675.64	503.10
675.97	500.36
676.31	497.53
676.65	494.64
676.99	491.92
677.33	489.08
677.67	486.25
678.01	483.20
678.34	480.24
678.68	477.28
679.02	474.42
679.36	471.67
679.70	468.96
680.04	466.17
680.37	463.34
680.71	460.52
681.05	457.88
681.39	455.18
681.73	452.52
682.06	450.01
682.40	447.45
682.74	444.90
683.08	442.30
683.42	439.64
683.75	437.11
684.09	434.53
684.43	432.02
684.77	429.52
685.10	427.14
685.44	424.80
685.78	422.55
686.12	420.29
686.45	417.99
686.79	415.64
687.13	413.45
687.46	411.28
687.80	409.08
688.14	406.81
688.48	404.73
688.81	402.50
689.15	400.29
689.49	398.13
689.82	396.04
690.16	393.92
690.50	391.96
690.83	390.03
691.17	388.02
691.51	386.10
691.84	384.31
692.18	382.36
692.52	380.41
692.85	378.46
693.19	376.61
693.52	374.73
693.86	372.91
694.20	371.17
694.53	369.35
694.87	367.47
695.21	365.68
695.54	363.87
695.88	362.12
696.21	360.39
696.55	358.69
696.88	357.01
697.22	355.36
697.56	353.72
697.89	352.05
698.23	350.44
698.56	348.80
698.90	347.15
699.23	345.57
699.57	344.02
699.90	342.49
700.24	340.93
700.58	339.48
700.91	338.02
701.25	336.52
701.58	335.15
701.92	333.83
702.25	332.46
702.59	331.14
702.92	329.79
703.26	328.51
703.59	327.24
703.93	326.05
704.26	324.83
704.60	323.54
704.93	322.25
705.26	321.02
705.60	319.88
705.93	318.74
706.27	317.70
706.60	316.61
706.94	315.51
707.27	314.38
707.61	313.29
707.94	312.23
708.27	311.16
708.61	310.08
708.94	309.07
709.28	308.12
709.61	307.17
709.94	306.27
710.28	305.25
710.61	304.27
710.95	303.16
711.28	302.24
711.61	301.31
711.95	300.42
712.28	299.49
712.61	298.51
712.95	297.58
713.28	296.69
713.61	295.81
713.95	294.96
714.28	294.13
714.61	293.23
714.95	292.40
715.28	291.56
715.61	290.67
715.95	289.79
716.28	288.93
716.61	288.08
716.95	287.24
717.28	286.49
717.61	285.72
717.94	285.03
718.28	284.21
718.61	283.48
718.94	282.79
719.27	282.14
719.61	281.51
719.94	280.86
720.27	280.13
720.60	279.43
720.94	278.79
721.27	278.23
721.60	277.63
721.93	277.07
722.27	276.50
722.60	275.99
722.93	275.42
723.26	274.88
723.59	274.27
723.93	273.73
724.26	273.16
724.59	272.62
724.92	272.06
725.25	271.56
725.59	271.06
725.92	270.53
726.25	270.01
726.58	269.54
726.91	269.05
727.24	268.59
727.57	268.15
727.91	267.57
728.24	267.04
728.57	266.58
728.90	266.10
729.23	265.57
729.56	265.17
729.89	264.71
730.22	264.25
730.55	263.82
730.89	263.35
731.22	262.90
731.55	262.48
731.88	262.05
732.21	261.66
732.54	261.20
732.87	260.81
733.20	260.41
733.53	259.99
733.86	259.60
734.19	259.20
734.52	258.79
734.85	258.54
735.18	258.14
735.51	257.80
735.84	257.43
736.17	257.13
736.50	256.70
736.83	256.48
737.16	256.13
737.49	255.78
737.82	255.44
738.15	255.15
738.48	254.77
738.81	254.44
739.14	254.11
739.47	253.80
739.80	253.47
740.13	253.17
740.46	252.86
740.79	252.53
741.12	252.24
741.45	251.94
741.78	251.58
742.11	251.29
742.44	250.93
742.77	250.61
743.10	250.30
743.43	250.02
743.75	249.64
744.08	249.49
744.41	249.19
744.74	248.94
745.07	248.64
745.40	248.43
745.73	248.19
746.06	247.90
746.39	247.59
746.71	247.33
747.04	247.08
747.37	246.80
747.70	246.55
748.03	246.27
748.36	246.03
748.68	245.80
749.01	245.58
749.34	245.38
749.67	245.16
750.00	244.92
750.33	244.71
750.65	244.49
750.98	244.15
751.31	243.97
751.64	243.75
751.97	243.58
752.29	243.35
752.62	243.12
752.95	242.91
753.28	242.76
753.60	242.52
753.93	242.29
754.26	242.12
754.59	241.90
754.91	241.70
755.24	241.50
755.57	241.30
755.90	241.09
756.22	240.87
756.55	240.69
756.88	240.51
757.20	240.30
757.53	240.10
757.86	239.93
758.19	239.73
758.51	239.57
758.84	239.38
759.17	239.19
759.49	239.04
759.82	238.93
760.15	238.76
760.47	238.59
760.80	238.40
761.13	238.27
761.45	238.14
761.78	237.99
762.11	237.90
762.43	237.74
762.76	237.59
763.08	237.45
763.41	237.32
763.74	237.21
764.06	237.05
764.39	236.89
764.71	236.76
765.04	236.64
765.37	236.51
765.69	236.35
766.02	236.24
766.34	236.11
766.67	235.98
767.00	235.88
767.32	235.86
767.65	235.85
767.97	235.73
768.30	235.64
768.62	235.54
768.95	235.38
769.27	235.28
769.60	235.20
769.92	235.15
770.25	235.03
770.57	234.89
770.90	234.84
771.22	234.78
771.55	234.66
771.87	234.60
772.20	234.49
772.52	234.54
772.85	234.57
773.17	234.45
773.50	234.35
773.82	234.29
774.15	234.16
774.47	234.03
774.80	233.91
775.12	233.82
775.45	233.74
775.77	233.70
776.09	233.63
776.42	233.57
776.74	233.48
777.07	233.42
777.39	233.36
777.72	233.26
778.04	233.17
778.36	233.11
778.69	233.04
779.01	232.98
779.33	232.79
779.66	232.62
779.98	232.56
780.31	232.49
780.63	232.43
780.95	232.37
781.28	232.29
781.60	232.25
781.92	232.18
782.25	232.13
782.57	232.04
782.89	231.98
783.22	231.90
783.54	231.83
783.86	231.78
784.19	231.74
784.51	231.69
784.83	231.63
785.16	231.60
785.48	231.54
785.80	231.48
786.12	231.44
786.45	231.38
786.77	231.37
787.09	231.31
