SpectraSuite Data File
++++++++++++++++++++++++++++++++++++
Date: Fri Feb 01 17:05:30 EST 2013
User: group
Dark Spectrum Present: No
Reference Spectrum Present: No
Number of Sampled Component Spectra: 1
Spectrometers: USB2E7196
Integration Time (usec): 35000 (USB2E7196)
Spectra Averaged: 100 (USB2E7196)
Boxcar Smoothing: 10 (USB2E7196)
Correct for Electrical Dark: No (USB2E7196)
Strobe/Lamp Enabled: No (USB2E7196)
Correct for Detector Non-linearity: No (USB2E7196)
Correct for Stray Light: No (USB2E7196)
Number of Pixels in Processed Spectrum: 2048
>>>>>Begin Processed Spectral Data<<<<<
339.09	0.00
339.48	213.85
339.86	214.51
340.24	216.25
340.63	217.51
341.01	220.25
341.39	220.31
341.78	221.39
342.16	222.70
342.54	223.14
342.93	211.74
343.31	222.43
343.69	222.95
344.07	223.41
344.46	223.80
344.84	224.19
345.22	224.42
345.60	224.66
345.99	224.85
346.37	224.99
346.75	225.09
347.13	225.19
347.52	225.24
347.90	225.31
348.28	225.33
348.66	225.39
349.05	225.40
349.43	225.47
349.81	225.55
350.19	225.60
350.57	225.61
350.96	225.69
351.34	225.80
351.72	225.87
352.10	225.96
352.48	226.05
352.87	226.10
353.25	226.17
353.63	226.24
354.01	226.29
354.39	226.34
354.77	226.40
355.15	226.48
355.54	226.51
355.92	226.52
356.30	226.61
356.68	226.71
357.06	226.78
357.44	226.82
357.82	226.86
358.20	226.92
358.58	227.01
358.97	227.07
359.35	227.12
359.73	227.21
360.11	227.29
360.49	227.35
360.87	227.40
361.25	227.46
361.63	227.53
362.01	227.60
362.39	227.65
362.77	227.68
363.15	227.70
363.53	227.71
363.91	227.77
364.29	227.75
364.67	227.66
365.05	227.72
365.43	227.71
365.81	227.74
366.19	227.80
366.57	227.83
366.95	227.80
367.33	227.81
367.71	227.81
368.09	227.83
368.47	227.85
368.85	227.84
369.23	227.84
369.61	227.82
369.99	227.82
370.37	227.84
370.75	227.87
371.13	227.86
371.51	227.86
371.89	227.80
372.27	227.80
372.65	227.79
373.03	227.73
373.41	227.71
373.78	227.65
374.16	227.54
374.54	227.46
374.92	227.42
375.30	227.35
375.68	227.27
376.06	227.18
376.44	227.08
376.82	227.02
377.19	226.95
377.57	226.88
377.95	226.78
378.33	226.69
378.71	226.58
379.09	226.53
379.47	226.44
379.84	226.37
380.22	226.30
380.60	226.23
380.98	226.15
381.36	226.06
381.73	225.99
382.11	225.94
382.49	225.89
382.87	225.82
383.25	225.74
383.62	225.77
384.00	225.71
384.38	225.68
384.76	225.64
385.13	225.62
385.51	225.53
385.89	225.48
386.27	225.45
386.64	225.39
387.02	225.30
387.40	225.27
387.78	225.23
388.15	225.19
388.53	225.15
388.91	225.08
389.29	225.08
389.66	225.05
390.04	225.03
390.42	225.02
390.79	224.96
391.17	224.96
391.55	224.86
391.92	224.83
392.30	224.82
392.68	224.76
393.05	224.73
393.43	224.77
393.81	224.78
394.18	224.76
394.56	224.82
394.94	224.85
395.31	224.86
395.69	224.90
396.06	224.95
396.44	225.00
396.82	225.01
397.19	225.09
397.57	225.09
397.95	225.13
398.32	225.13
398.70	225.21
399.07	225.25
399.45	225.26
399.82	225.34
400.20	225.37
400.58	225.43
400.95	225.47
401.33	225.54
401.70	225.65
402.08	225.73
402.45	225.76
402.83	225.89
403.20	225.98
403.58	226.06
403.95	226.15
404.33	226.25
404.71	226.39
405.08	226.55
405.46	226.69
405.83	226.80
406.21	226.95
406.58	227.11
406.96	227.26
407.33	227.43
407.70	227.60
408.08	227.85
408.45	228.09
408.83	228.30
409.20	228.46
409.58	228.65
409.95	228.90
410.33	229.19
410.70	229.42
411.08	229.72
411.45	230.04
411.82	230.34
412.20	230.70
412.57	231.09
412.95	231.38
413.32	231.77
413.69	232.21
414.07	232.64
414.44	233.12
414.82	233.61
415.19	234.18
415.56	234.69
415.94	235.26
416.31	235.91
416.68	236.54
417.06	237.28
417.43	237.99
417.81	238.74
418.18	239.52
418.55	240.35
418.93	241.19
419.30	242.09
419.67	243.03
420.04	243.95
420.42	244.95
420.79	246.11
421.16	247.29
421.54	248.47
421.91	249.68
422.28	250.91
422.66	252.25
423.03	253.53
423.40	254.87
423.77	256.26
424.15	257.68
424.52	259.16
424.89	260.77
425.26	262.29
425.64	263.74
426.01	265.33
426.38	267.00
426.75	268.67
427.13	270.37
427.50	272.20
427.87	274.08
428.24	275.89
428.61	277.65
428.99	279.57
429.36	281.63
429.73	283.69
430.10	285.69
430.47	287.69
430.85	289.80
431.22	292.07
431.59	294.44
431.96	296.65
432.33	299.14
432.70	301.49
433.08	304.30
433.45	306.95
433.82	309.51
434.19	312.38
434.56	315.19
434.93	317.82
435.30	320.39
435.68	323.25
436.05	326.08
436.42	328.85
436.79	331.36
437.16	334.02
437.53	336.80
437.90	339.61
438.27	342.34
438.64	345.11
439.01	347.63
439.38	349.83
439.75	351.94
440.13	354.36
440.50	356.66
440.87	358.46
441.24	360.33
441.61	362.54
441.98	363.99
442.35	365.78
442.72	367.64
443.09	369.45
443.46	370.47
443.83	371.07
444.20	371.57
444.57	372.39
444.94	372.71
445.31	373.04
445.68	373.39
446.05	373.48
446.42	373.18
446.79	372.76
447.16	372.33
447.53	372.09
447.90	371.00
448.27	369.87
448.64	368.33
449.01	367.23
449.37	365.21
449.74	363.37
450.11	361.12
450.48	358.65
450.85	356.15
451.22	354.01
451.59	352.01
451.96	350.07
452.33	347.51
452.70	345.19
453.07	342.46
453.43	339.59
453.80	336.89
454.17	334.21
454.54	331.73
454.91	329.06
455.28	326.38
455.65	323.90
456.02	321.49
456.38	319.32
456.75	316.69
457.12	314.48
457.49	312.27
457.86	310.13
458.23	308.27
458.59	306.23
458.96	304.17
459.33	302.35
459.70	300.54
460.07	299.03
460.43	297.30
460.80	295.66
461.17	294.23
461.54	292.75
461.91	291.34
462.27	289.92
462.64	288.68
463.01	287.38
463.38	286.14
463.74	284.80
464.11	283.65
464.48	282.63
464.85	281.58
465.21	280.70
465.58	279.79
465.95	278.75
466.32	277.87
466.68	276.98
467.05	276.10
467.42	275.19
467.78	274.29
468.15	273.45
468.52	272.83
468.88	272.00
469.25	271.22
469.62	270.58
469.98	269.91
470.35	269.28
470.72	268.67
471.08	268.03
471.45	267.48
471.82	266.97
472.18	266.41
472.55	265.97
472.92	265.49
473.28	265.05
473.65	264.64
474.02	264.21
474.38	263.84
474.75	263.53
475.11	263.22
475.48	262.95
475.85	262.76
476.21	262.54
476.58	262.33
476.94	262.24
477.31	262.13
477.67	262.00
478.04	261.90
478.41	261.85
478.77	261.87
479.14	261.81
479.50	261.85
479.87	261.93
480.23	262.01
480.60	262.09
480.96	262.22
481.33	262.40
481.69	262.63
482.06	262.88
482.42	263.07
482.79	263.34
483.15	263.68
483.52	264.06
483.88	264.39
484.25	264.81
484.61	265.22
484.98	265.66
485.34	266.19
485.71	266.79
486.07	267.39
486.44	267.95
486.80	268.65
487.17	269.34
487.53	270.14
487.90	270.98
488.26	271.86
488.62	272.80
488.99	273.78
489.35	274.78
489.72	275.87
490.08	277.05
490.44	278.29
490.81	279.63
491.17	280.96
491.54	282.43
491.90	283.97
492.26	285.60
492.63	287.28
492.99	289.05
493.36	290.97
493.72	293.01
494.08	295.12
494.45	297.34
494.81	299.69
495.17	302.11
495.54	304.65
495.90	307.38
496.26	310.19
496.63	313.15
496.99	316.24
497.35	319.45
497.72	322.86
498.08	326.38
498.44	330.01
498.80	333.90
499.17	337.93
499.53	342.08
499.89	346.42
500.26	350.93
500.62	355.57
500.98	360.47
501.34	365.48
501.71	370.79
502.07	376.25
502.43	381.80
502.79	387.61
503.16	393.64
503.52	399.80
503.88	406.13
504.24	412.68
504.60	419.49
504.97	426.63
505.33	433.88
505.69	441.52
506.05	449.19
506.41	456.96
506.78	465.04
507.14	473.37
507.50	481.96
507.86	490.86
508.22	499.93
508.59	509.00
508.95	518.48
509.31	528.20
509.67	538.14
510.03	548.34
510.39	558.74
510.75	569.35
511.12	580.22
511.48	591.36
511.84	602.74
512.20	614.14
512.56	625.87
512.92	637.84
513.28	649.94
513.64	662.27
514.00	674.79
514.37	687.45
514.73	700.38
515.09	713.25
515.45	726.39
515.81	739.77
516.17	753.53
516.53	767.44
516.89	781.31
517.25	795.24
517.61	809.41
517.97	823.72
518.33	837.92
518.69	852.42
519.05	867.20
519.41	881.98
519.77	897.16
520.13	912.22
520.49	927.37
520.85	942.45
521.21	957.84
521.57	973.66
521.93	989.14
522.29	1005.12
522.65	1021.04
523.01	1036.88
523.37	1052.57
523.73	1068.46
524.09	1084.19
524.45	1100.15
524.81	1116.41
525.17	1132.82
525.53	1149.21
525.89	1165.62
526.25	1182.05
526.61	1197.99
526.97	1214.34
527.33	1230.51
527.68	1246.75
528.04	1262.76
528.40	1278.99
528.76	1295.65
529.12	1312.01
529.48	1328.46
529.84	1344.02
530.20	1360.17
530.56	1376.63
530.91	1393.62
531.27	1409.80
531.63	1425.88
531.99	1442.07
532.35	1457.71
532.71	1473.31
533.07	1489.07
533.42	1504.74
533.78	1520.41
534.14	1536.20
534.50	1551.16
534.86	1566.67
535.21	1581.42
535.57	1596.95
535.93	1612.01
536.29	1626.31
536.65	1640.91
537.00	1655.35
537.36	1670.35
537.72	1684.60
538.08	1698.81
538.44	1712.27
538.79	1725.89
539.15	1739.06
539.51	1752.31
539.87	1766.38
540.22	1779.61
540.58	1793.01
540.94	1805.86
541.29	1818.33
541.65	1830.88
542.01	1843.81
542.37	1855.87
542.72	1868.11
543.08	1879.54
543.44	1891.66
543.79	1902.83
544.15	1913.54
544.51	1924.92
544.87	1935.59
545.22	1946.08
545.58	1956.00
545.94	1965.57
546.29	1975.18
546.65	1985.02
547.01	1994.26
547.36	2002.67
547.72	2011.01
548.07	2018.88
548.43	2026.82
548.79	2034.63
549.14	2041.97
549.50	2049.16
549.86	2056.50
550.21	2063.72
550.57	2070.91
550.92	2077.47
551.28	2084.41
551.64	2091.42
551.99	2097.78
552.35	2104.03
552.70	2110.23
553.06	2116.17
553.41	2122.47
553.77	2128.48
554.13	2134.57
554.48	2140.82
554.84	2146.32
555.19	2151.54
555.55	2156.63
555.90	2161.28
556.26	2166.34
556.61	2171.11
556.97	2175.44
557.32	2179.69
557.68	2183.78
558.03	2188.07
558.39	2191.73
558.74	2196.38
559.10	2200.39
559.45	2204.21
559.81	2208.32
560.16	2212.25
560.52	2215.62
560.87	2219.15
561.23	2221.96
561.58	2224.77
561.94	2227.23
562.29	2229.67
562.64	2232.64
563.00	2235.33
563.35	2238.94
563.71	2242.17
564.06	2245.32
564.42	2248.39
564.77	2251.26
565.12	2253.86
565.48	2255.94
565.83	2258.05
566.19	2259.54
566.54	2260.44
566.89	2261.67
567.25	2262.57
567.60	2263.75
567.96	2265.57
568.31	2266.37
568.66	2267.74
569.02	2268.63
569.37	2269.23
569.72	2270.30
570.08	2270.64
570.43	2270.83
570.78	2270.45
571.14	2269.09
571.49	2268.08
571.84	2267.86
572.20	2266.90
572.55	2265.87
572.90	2264.36
573.26	2263.20
573.61	2261.53
573.96	2260.01
574.31	2257.34
574.67	2254.55
575.02	2251.36
575.37	2248.20
575.72	2244.93
576.08	2241.73
576.43	2238.50
576.78	2234.97
577.13	2231.92
577.49	2228.79
577.84	2225.65
578.19	2222.04
578.54	2218.70
578.90	2214.80
579.25	2209.48
579.60	2204.62
579.95	2199.94
580.30	2195.10
580.66	2190.14
581.01	2185.42
581.36	2180.85
581.71	2176.90
582.06	2172.66
582.42	2168.53
582.77	2163.58
583.12	2159.25
583.47	2154.81
583.82	2150.15
584.17	2145.23
584.53	2140.02
584.88	2134.74
585.23	2129.24
585.58	2123.97
585.93	2118.66
586.28	2113.86
586.63	2109.08
586.98	2104.25
587.34	2099.64
587.69	2095.14
588.04	2090.20
588.39	2084.82
588.74	2078.46
589.09	2072.46
589.44	2065.98
589.79	2059.87
590.14	2054.38
590.49	2047.99
590.84	2041.72
591.19	2035.90
591.54	2029.51
591.89	2022.47
592.25	2015.86
592.60	2008.89
592.95	2001.74
593.30	1994.55
593.65	1987.36
594.00	1980.33
594.35	1973.26
594.70	1965.38
595.05	1958.52
595.40	1951.25
595.75	1944.02
596.10	1938.17
596.45	1931.81
596.80	1925.84
597.15	1919.47
597.50	1912.68
597.85	1906.33
598.19	1899.90
598.54	1893.03
598.89	1886.57
599.24	1880.68
599.59	1874.31
599.94	1868.06
600.29	1861.71
600.64	1855.37
600.99	1848.12
601.34	1841.58
601.69	1834.70
602.04	1828.16
602.39	1820.82
602.74	1814.22
603.08	1807.65
603.43	1800.93
603.78	1793.59
604.13	1786.46
604.48	1779.48
604.83	1772.75
605.18	1766.10
605.53	1758.29
605.87	1750.40
606.22	1743.32
606.57	1735.53
606.92	1728.23
607.27	1721.27
607.62	1714.53
607.96	1707.34
608.31	1700.83
608.66	1693.45
609.01	1686.13
609.36	1678.72
609.70	1670.85
610.05	1662.95
610.40	1655.35
610.75	1647.16
611.10	1639.64
611.44	1631.37
611.79	1623.25
612.14	1614.69
612.49	1605.46
612.83	1597.14
613.18	1589.02
613.53	1581.03
613.88	1572.62
614.22	1564.46
614.57	1555.82
614.92	1547.85
615.27	1540.50
615.61	1532.19
615.96	1524.03
616.31	1516.31
616.65	1508.98
617.00	1501.48
617.35	1493.86
617.70	1485.76
618.04	1477.27
618.39	1469.09
618.74	1461.50
619.08	1453.52
619.43	1445.83
619.78	1438.89
620.12	1431.84
620.47	1424.39
620.82	1416.16
621.16	1408.78
621.51	1401.05
621.85	1393.50
622.20	1385.07
622.55	1376.59
622.89	1368.83
623.24	1361.22
623.59	1353.86
623.93	1346.28
624.28	1339.15
624.62	1331.73
624.97	1324.45
625.32	1317.67
625.66	1310.68
626.01	1303.59
626.35	1296.10
626.70	1288.51
627.04	1280.92
627.39	1273.06
627.73	1265.59
628.08	1258.77
628.43	1251.56
628.77	1244.29
629.12	1236.84
629.46	1229.69
629.81	1222.32
630.15	1215.04
630.50	1207.83
630.84	1199.79
631.19	1191.84
631.53	1184.23
631.88	1176.56
632.22	1168.94
632.57	1161.63
632.91	1154.08
633.26	1146.67
633.60	1139.28
633.95	1132.07
634.29	1125.00
634.64	1118.38
634.98	1111.08
635.32	1104.02
635.67	1097.38
636.01	1090.76
636.36	1084.10
636.70	1077.53
637.05	1071.05
637.39	1064.64
637.73	1058.14
638.08	1052.19
638.42	1046.29
638.77	1039.93
639.11	1033.48
639.45	1027.14
639.80	1020.60
640.14	1014.26
640.49	1007.77
640.83	1001.50
641.17	995.33
641.52	989.05
641.86	982.61
642.20	976.90
642.55	970.54
642.89	964.17
643.23	957.59
643.58	951.82
643.92	945.77
644.26	939.71
644.61	933.71
644.95	927.69
645.29	921.17
645.64	914.49
645.98	908.10
646.32	902.22
646.66	896.19
647.01	890.48
647.35	884.80
647.69	878.98
648.04	873.46
648.38	867.76
648.72	861.86
649.06	855.87
649.41	849.97
649.75	844.14
650.09	838.19
650.43	832.55
650.78	826.40
651.12	820.45
651.46	814.74
651.80	809.08
652.14	803.74
652.49	798.49
652.83	793.33
653.17	787.74
653.51	782.08
653.85	776.75
654.20	771.11
654.54	765.16
654.88	759.40
655.22	753.55
655.56	747.89
655.90	742.39
656.25	737.22
656.59	731.88
656.93	726.73
657.27	721.70
657.61	716.31
657.95	711.25
658.29	706.25
658.64	700.99
658.98	695.75
659.32	690.34
659.66	685.21
660.00	679.98
660.34	675.11
660.68	670.21
661.02	665.17
661.36	660.53
661.70	656.02
662.05	651.76
662.39	647.47
662.73	643.03
663.07	638.72
663.41	634.28
663.75	629.89
664.09	625.41
664.43	621.01
664.77	616.89
665.11	612.69
665.45	608.50
665.79	604.50
666.13	600.36
666.47	596.26
666.81	592.04
667.15	587.93
667.49	584.03
667.83	580.20
668.17	576.37
668.51	572.29
668.85	568.31
669.19	564.47
669.53	560.69
669.87	556.87
670.21	553.08
670.55	549.46
670.89	546.00
671.23	542.53
671.57	539.02
671.91	535.50
672.25	531.92
672.58	528.42
672.92	524.99
673.26	521.86
673.60	518.71
673.94	515.67
674.28	512.76
674.62	509.81
674.96	506.70
675.30	503.78
675.64	500.87
675.97	498.09
676.31	495.21
676.65	492.27
676.99	489.51
677.33	486.75
677.67	483.94
678.01	480.92
678.34	477.99
678.68	475.14
679.02	472.33
679.36	469.58
679.70	466.88
680.04	464.14
680.37	461.30
680.71	458.56
681.05	455.91
681.39	453.20
681.73	450.58
682.06	448.14
682.40	445.59
682.74	443.04
683.08	440.41
683.42	437.84
683.75	435.38
684.09	432.83
684.43	430.36
684.77	427.92
685.10	425.60
685.44	423.27
685.78	421.00
686.12	418.75
686.45	416.50
686.79	414.28
687.13	412.11
687.46	409.94
687.80	407.75
688.14	405.51
688.48	403.45
688.81	401.21
689.15	399.08
689.49	396.93
689.82	394.87
690.16	392.83
690.50	390.88
690.83	388.96
691.17	387.01
691.51	385.13
691.84	383.26
692.18	381.35
692.52	379.42
692.85	377.46
693.19	375.60
693.52	373.79
693.86	371.98
694.20	370.18
694.53	368.37
694.87	366.54
695.21	364.79
695.54	362.96
695.88	361.27
696.21	359.50
696.55	357.87
696.88	356.17
697.22	354.54
697.56	352.89
697.89	351.22
698.23	349.63
698.56	348.01
698.90	346.42
699.23	344.78
699.57	343.24
699.90	341.66
700.24	340.19
700.58	338.68
700.91	337.20
701.25	335.79
701.58	334.47
701.92	333.13
702.25	331.78
702.59	330.45
702.92	329.14
703.26	327.84
703.59	326.52
703.93	325.35
704.26	324.14
704.60	322.91
704.93	321.65
705.26	320.42
705.60	319.23
705.93	318.15
706.27	317.09
706.60	316.07
706.94	315.02
707.27	313.89
707.61	312.81
707.94	311.76
708.27	310.66
708.61	309.55
708.94	308.52
709.28	307.56
709.61	306.61
709.94	305.65
710.28	304.66
710.61	303.63
710.95	302.57
711.28	301.68
711.61	300.72
711.95	299.80
712.28	298.81
712.61	297.84
712.95	296.86
713.28	296.01
713.61	295.06
713.95	294.18
714.28	293.32
714.61	292.43
714.95	291.58
715.28	290.69
715.61	289.78
715.95	288.93
716.28	288.04
716.61	287.18
716.95	286.36
717.28	285.59
717.61	284.88
717.94	284.12
718.28	283.29
718.61	282.57
718.94	281.85
719.27	281.22
719.61	280.56
719.94	279.89
720.27	279.12
720.60	278.47
720.94	277.84
721.27	277.22
721.60	276.63
721.93	276.04
722.27	275.49
722.60	274.99
722.93	274.46
723.26	273.90
723.59	273.35
723.93	272.78
724.26	272.26
724.59	271.71
724.92	271.19
725.25	270.70
725.59	270.16
725.92	269.67
726.25	269.17
726.58	268.67
726.91	268.18
727.24	267.72
727.57	267.22
727.91	266.73
728.24	266.30
728.57	265.85
728.90	265.39
729.23	264.90
729.56	264.47
729.89	263.94
730.22	263.49
730.55	262.99
730.89	262.56
731.22	262.11
731.55	261.65
731.88	261.23
732.21	260.74
732.54	260.30
732.87	259.88
733.20	259.48
733.53	259.09
733.86	258.69
734.19	258.32
734.52	257.95
734.85	257.61
735.18	257.14
735.51	256.77
735.84	256.43
736.17	256.10
736.50	255.71
736.83	255.49
737.16	255.16
737.49	254.85
737.82	254.50
738.15	254.14
738.48	253.81
738.81	253.51
739.14	253.21
739.47	252.93
739.80	252.58
740.13	252.24
740.46	251.93
740.79	251.66
741.12	251.34
741.45	251.03
741.78	250.69
742.11	250.44
742.44	250.10
742.77	249.77
743.10	249.48
743.43	249.18
743.75	248.82
744.08	248.65
744.41	248.38
744.74	248.12
745.07	247.85
745.40	247.60
745.73	247.35
746.06	247.09
746.39	246.83
746.71	246.58
747.04	246.33
747.37	246.05
747.70	245.78
748.03	245.52
748.36	245.29
748.68	245.05
749.01	244.80
749.34	244.59
749.67	244.36
750.00	244.12
750.33	243.97
750.65	243.73
750.98	243.37
751.31	243.17
751.64	242.98
751.97	242.80
752.29	242.58
752.62	242.31
752.95	242.10
753.28	241.88
753.60	241.65
753.93	241.45
754.26	241.29
754.59	241.05
754.91	240.84
755.24	240.64
755.57	240.44
755.90	240.25
756.22	240.03
756.55	239.81
756.88	239.59
757.20	239.30
757.53	239.14
757.86	238.95
758.19	238.76
758.51	238.57
758.84	238.35
759.17	238.20
759.49	238.06
759.82	237.95
760.15	237.81
760.47	237.70
760.80	237.53
761.13	237.44
761.45	237.28
761.78	237.15
762.11	237.01
762.43	236.88
762.76	236.75
763.08	236.61
763.41	236.47
763.74	236.36
764.06	236.25
764.39	236.08
764.71	235.97
765.04	235.81
765.37	235.67
765.69	235.54
766.02	235.39
766.34	235.25
766.67	235.07
767.00	234.95
767.32	234.89
767.65	234.81
767.97	234.64
768.30	234.52
768.62	234.39
768.95	234.24
769.27	234.12
769.60	234.01
769.92	233.89
770.25	233.79
770.57	233.67
770.90	233.59
771.22	233.51
771.55	233.38
771.87	233.31
772.20	233.21
772.52	233.21
772.85	233.25
773.17	233.17
773.50	233.07
773.82	232.97
774.15	232.79
774.47	232.65
774.80	232.54
775.12	232.49
775.45	232.42
775.77	232.37
776.09	232.29
776.42	232.20
776.74	232.22
777.07	232.14
777.39	232.08
777.72	231.96
778.04	231.87
778.36	231.83
778.69	231.75
779.01	231.67
779.33	231.53
779.66	231.36
779.98	231.26
780.31	231.17
780.63	231.14
780.95	231.16
781.28	231.09
781.60	231.05
781.92	230.97
782.25	230.92
782.57	230.85
782.89	230.79
783.22	230.73
783.54	230.62
783.86	230.60
784.19	230.56
784.51	230.55
784.83	230.49
785.16	230.44
785.48	230.39
785.80	230.37
786.12	230.28
786.45	230.19
786.77	230.18
787.09	230.15
