SpectraSuite Data File
++++++++++++++++++++++++++++++++++++
Date: Fri Feb 01 14:52:33 EST 2013
User: group
Dark Spectrum Present: No
Reference Spectrum Present: No
Number of Sampled Component Spectra: 1
Spectrometers: USB2E7196
Integration Time (usec): 35000 (USB2E7196)
Spectra Averaged: 100 (USB2E7196)
Boxcar Smoothing: 10 (USB2E7196)
Correct for Electrical Dark: No (USB2E7196)
Strobe/Lamp Enabled: No (USB2E7196)
Correct for Detector Non-linearity: No (USB2E7196)
Correct for Stray Light: No (USB2E7196)
Number of Pixels in Processed Spectrum: 2048
>>>>>Begin Processed Spectral Data<<<<<
339.09	0.00
339.48	215.85
339.86	217.19
340.24	218.48
340.63	219.78
341.01	222.41
341.39	222.44
341.78	223.98
342.16	224.97
342.54	225.53
342.93	213.88
343.31	224.68
343.69	225.20
344.07	225.66
344.46	226.10
344.84	226.48
345.22	226.72
345.60	226.98
345.99	227.19
346.37	227.35
346.75	227.44
347.13	227.55
347.52	227.58
347.90	227.68
348.28	227.70
348.66	227.71
349.05	227.69
349.43	227.73
349.81	227.80
350.19	227.84
350.57	227.91
350.96	227.93
351.34	228.01
351.72	228.10
352.10	228.20
352.48	228.23
352.87	228.29
353.25	228.37
353.63	228.43
354.01	228.47
354.39	228.52
354.77	228.60
355.15	228.69
355.54	228.78
355.92	228.78
356.30	228.87
356.68	229.01
357.06	229.07
357.44	229.14
357.82	229.17
358.20	229.25
358.58	229.31
358.97	229.38
359.35	229.47
359.73	229.52
360.11	229.55
360.49	229.63
360.87	229.68
361.25	229.72
361.63	229.79
362.01	229.80
362.39	229.80
362.77	229.82
363.15	229.81
363.53	229.81
363.91	229.82
364.29	229.82
364.67	229.74
365.05	229.76
365.43	229.79
365.81	229.81
366.19	229.86
366.57	229.90
366.95	229.88
367.33	229.84
367.71	229.82
368.09	229.81
368.47	229.80
368.85	229.75
369.23	229.74
369.61	229.63
369.99	229.64
370.37	229.65
370.75	229.66
371.13	229.63
371.51	229.59
371.89	229.59
372.27	229.55
372.65	229.51
373.03	229.45
373.41	229.37
373.78	229.31
374.16	229.18
374.54	229.05
374.92	228.98
375.30	228.91
375.68	228.83
376.06	228.77
376.44	228.68
376.82	228.63
377.19	228.53
377.57	228.47
377.95	228.37
378.33	228.27
378.71	228.15
379.09	228.05
379.47	227.97
379.84	227.87
380.22	227.76
380.60	227.64
380.98	227.55
381.36	227.46
381.73	227.36
382.11	227.28
382.49	227.23
382.87	227.16
383.25	227.09
383.62	227.15
384.00	227.06
384.38	226.98
384.76	226.94
385.13	226.91
385.51	226.85
385.89	226.77
386.27	226.71
386.64	226.65
387.02	226.59
387.40	226.54
387.78	226.51
388.15	226.45
388.53	226.43
388.91	226.38
389.29	226.37
389.66	226.36
390.04	226.33
390.42	226.33
390.79	226.31
391.17	226.30
391.55	226.17
391.92	226.19
392.30	226.19
392.68	226.16
393.05	226.18
393.43	226.23
393.81	226.27
394.18	226.29
394.56	226.34
394.94	226.40
395.31	226.44
395.69	226.50
396.06	226.58
396.44	226.67
396.82	226.75
397.19	226.84
397.57	226.92
397.95	227.01
398.32	227.06
398.70	227.14
399.07	227.24
399.45	227.33
399.82	227.40
400.20	227.48
400.58	227.58
400.95	227.63
401.33	227.73
401.70	227.87
402.08	227.99
402.45	228.10
402.83	228.23
403.20	228.33
403.58	228.47
403.95	228.61
404.33	228.73
404.71	228.87
405.08	229.05
405.46	229.20
405.83	229.36
406.21	229.56
406.58	229.73
406.96	229.90
407.33	230.10
407.70	230.34
408.08	230.59
408.45	230.86
408.83	231.12
409.20	231.37
409.58	231.56
409.95	231.82
410.33	232.12
410.70	232.39
411.08	232.70
411.45	233.00
411.82	233.31
412.20	233.70
412.57	234.12
412.95	234.44
413.32	234.84
413.69	235.23
414.07	235.63
414.44	236.08
414.82	236.55
415.19	237.07
415.56	237.59
415.94	238.16
416.31	238.77
416.68	239.39
417.06	240.08
417.43	240.74
417.81	241.49
418.18	242.26
418.55	243.11
418.93	243.99
419.30	244.89
419.67	245.85
420.04	246.79
420.42	247.76
420.79	248.93
421.16	250.06
421.54	251.26
421.91	252.49
422.28	253.76
422.66	255.08
423.03	256.40
423.40	257.73
423.77	259.14
424.15	260.54
424.52	262.02
424.89	263.59
425.26	265.15
425.64	266.60
426.01	268.17
426.38	269.80
426.75	271.45
427.13	273.15
427.50	274.88
427.87	276.74
428.24	278.59
428.61	280.29
428.99	282.25
429.36	284.34
429.73	286.39
430.10	288.37
430.47	290.42
430.85	292.50
431.22	294.69
431.59	297.06
431.96	299.33
432.33	301.79
432.70	304.18
433.08	306.98
433.45	309.61
433.82	312.19
434.19	315.08
434.56	317.90
434.93	320.55
435.30	323.17
435.68	326.08
436.05	328.92
436.42	331.73
436.79	334.22
437.16	336.93
437.53	339.79
437.90	342.63
438.27	345.36
438.64	348.22
439.01	350.85
439.38	353.07
439.75	355.21
440.13	357.69
440.50	360.02
440.87	361.85
441.24	363.81
441.61	365.98
441.98	367.44
442.35	369.21
442.72	371.06
443.09	372.89
443.46	373.85
443.83	374.40
444.20	374.86
444.57	375.74
444.94	376.02
445.31	376.30
445.68	376.66
446.05	376.72
446.42	376.31
446.79	375.88
447.16	375.43
447.53	375.09
447.90	373.98
448.27	372.84
448.64	371.31
449.01	370.15
449.37	368.19
449.74	366.31
450.11	364.10
450.48	361.67
450.85	359.16
451.22	357.00
451.59	355.00
451.96	353.14
452.33	350.49
452.70	348.14
453.07	345.35
453.43	342.45
453.80	339.70
454.17	337.06
454.54	334.57
454.91	331.89
455.28	329.28
455.65	326.80
456.02	324.33
456.38	322.17
456.75	319.56
457.12	317.31
457.49	315.09
457.86	312.90
458.23	311.03
458.59	308.98
458.96	306.93
459.33	305.08
459.70	303.18
460.07	301.70
460.43	299.97
460.80	298.38
461.17	296.92
461.54	295.46
461.91	293.98
462.27	292.48
462.64	291.18
463.01	289.83
463.38	288.49
463.74	287.14
464.11	285.97
464.48	284.92
464.85	283.83
465.21	282.95
465.58	282.06
465.95	280.92
466.32	280.02
466.68	279.08
467.05	278.18
467.42	277.29
467.78	276.36
468.15	275.45
468.52	274.73
468.88	273.88
469.25	273.07
469.62	272.47
469.98	271.80
470.35	271.16
470.72	270.52
471.08	269.86
471.45	269.27
471.82	268.70
472.18	268.09
472.55	267.62
472.92	267.10
473.28	266.58
473.65	266.13
474.02	265.67
474.38	265.31
474.75	264.99
475.11	264.61
475.48	264.33
475.85	264.07
476.21	263.83
476.58	263.63
476.94	263.47
477.31	263.27
477.67	263.11
478.04	263.00
478.41	262.96
478.77	262.96
479.14	262.89
479.50	262.91
479.87	262.94
480.23	262.98
480.60	263.01
480.96	263.11
481.33	263.34
481.69	263.53
482.06	263.70
482.42	263.89
482.79	264.17
483.15	264.46
483.52	264.86
483.88	265.22
484.25	265.61
484.61	266.06
484.98	266.49
485.34	267.03
485.71	267.61
486.07	268.20
486.44	268.77
486.80	269.48
487.17	270.21
487.53	271.04
487.90	271.93
488.26	272.87
488.62	273.86
488.99	274.78
489.35	275.81
489.72	276.96
490.08	278.15
490.44	279.36
490.81	280.70
491.17	282.05
491.54	283.50
491.90	285.02
492.26	286.64
492.63	288.37
492.99	290.15
493.36	292.01
493.72	294.00
494.08	296.08
494.45	298.30
494.81	300.64
495.17	303.02
495.54	305.54
495.90	308.21
496.26	311.03
496.63	313.97
496.99	317.07
497.35	320.32
497.72	323.64
498.08	327.12
498.44	330.74
498.80	334.63
499.17	338.64
499.53	342.78
499.89	347.10
500.26	351.64
500.62	356.26
500.98	361.19
501.34	366.25
501.71	371.57
502.07	376.98
502.43	382.59
502.79	388.36
503.16	394.42
503.52	400.66
503.88	407.00
504.24	413.63
504.60	420.45
504.97	427.50
505.33	434.84
505.69	442.50
506.05	450.24
506.41	458.08
506.78	466.19
507.14	474.62
507.50	483.25
507.86	492.18
508.22	501.33
508.59	510.50
508.95	520.02
509.31	529.84
509.67	539.90
510.03	550.20
510.39	560.73
510.75	571.48
511.12	582.41
511.48	593.65
511.84	605.07
512.20	616.56
512.56	628.51
512.92	640.65
513.28	652.95
513.64	665.39
514.00	678.14
514.37	691.05
514.73	704.05
515.09	717.12
515.45	730.44
515.81	744.01
516.17	758.01
516.53	772.15
516.89	786.26
517.25	800.42
517.61	814.79
517.97	829.24
518.33	843.62
518.69	858.36
519.05	873.37
519.41	888.51
519.77	904.04
520.13	919.57
520.49	934.93
520.85	950.34
521.21	966.11
521.57	982.35
521.93	998.18
522.29	1014.66
522.65	1030.96
523.01	1047.28
523.37	1063.42
523.73	1079.69
524.09	1095.77
524.45	1112.19
524.81	1128.94
525.17	1145.79
525.53	1162.73
525.89	1179.78
526.25	1196.60
526.61	1212.90
526.97	1229.80
527.33	1246.41
527.68	1262.97
528.04	1279.59
528.40	1296.28
528.76	1313.39
529.12	1329.97
529.48	1346.95
529.84	1362.96
530.20	1379.63
530.56	1396.49
530.91	1413.87
531.27	1430.62
531.63	1447.20
531.99	1463.79
532.35	1479.79
532.71	1495.71
533.07	1512.06
533.42	1527.97
533.78	1544.18
534.14	1560.59
534.50	1575.91
534.86	1591.77
535.21	1607.04
535.57	1623.03
535.93	1638.54
536.29	1653.39
536.65	1668.60
537.00	1683.38
537.36	1698.77
537.72	1713.36
538.08	1727.86
538.44	1741.91
538.79	1755.80
539.15	1769.73
539.51	1783.63
539.87	1798.08
540.22	1811.87
540.58	1825.48
540.94	1838.87
541.29	1851.84
541.65	1864.68
542.01	1877.97
542.37	1890.26
542.72	1902.72
543.08	1914.45
543.44	1927.03
543.79	1938.24
544.15	1949.14
544.51	1960.76
544.87	1971.75
545.22	1982.61
545.58	1992.91
545.94	2002.53
546.29	2012.51
546.65	2022.11
547.01	2031.22
547.36	2039.90
547.72	2048.45
548.07	2056.54
548.43	2064.74
548.79	2072.77
549.14	2080.29
549.50	2087.71
549.86	2095.54
550.21	2102.72
550.57	2109.90
550.92	2116.45
551.28	2123.72
551.64	2130.81
551.99	2137.35
552.35	2143.48
552.70	2149.55
553.06	2155.51
553.41	2161.76
553.77	2167.79
554.13	2173.82
554.48	2179.89
554.84	2185.27
555.19	2190.39
555.55	2195.35
555.90	2199.71
556.26	2204.46
556.61	2209.00
556.97	2213.09
557.32	2217.13
557.68	2221.32
558.03	2225.48
558.39	2228.93
558.74	2233.27
559.10	2236.97
559.45	2240.40
559.81	2244.60
560.16	2248.26
560.52	2251.31
560.87	2254.70
561.23	2257.11
561.58	2259.85
561.94	2262.29
562.29	2264.60
562.64	2267.26
563.00	2269.88
563.35	2273.44
563.71	2276.36
564.06	2279.62
564.42	2282.51
564.77	2284.86
565.12	2287.00
565.48	2288.86
565.83	2290.64
566.19	2291.89
566.54	2292.79
566.89	2293.96
567.25	2294.37
567.60	2295.60
567.96	2297.04
568.31	2297.61
568.66	2298.44
569.02	2298.97
569.37	2299.05
569.72	2299.57
570.08	2299.39
570.43	2298.95
570.78	2297.82
571.14	2296.08
571.49	2294.35
571.84	2293.54
572.20	2292.07
572.55	2290.67
572.90	2288.78
573.26	2287.06
573.61	2285.15
573.96	2283.06
574.31	2279.79
574.67	2276.50
575.02	2272.68
575.37	2269.01
575.72	2265.06
576.08	2261.55
576.43	2258.04
576.78	2254.30
577.13	2250.85
577.49	2247.53
577.84	2244.00
578.19	2240.17
578.54	2236.29
578.90	2232.02
579.25	2226.53
579.60	2221.55
579.95	2216.37
580.30	2211.16
580.66	2205.95
581.01	2200.65
581.36	2195.53
581.71	2191.10
582.06	2186.58
582.42	2182.01
582.77	2176.70
583.12	2171.86
583.47	2166.98
583.82	2161.83
584.17	2156.52
584.53	2151.06
584.88	2145.41
585.23	2139.46
585.58	2133.89
585.93	2128.31
586.28	2123.30
586.63	2117.80
586.98	2112.52
587.34	2107.77
587.69	2102.76
588.04	2097.37
588.39	2091.71
588.74	2085.22
589.09	2078.95
589.44	2072.08
589.79	2065.71
590.14	2059.83
590.49	2053.15
590.84	2046.51
591.19	2040.17
591.54	2033.40
591.89	2025.91
592.25	2018.90
592.60	2011.66
592.95	2003.79
593.30	1996.39
593.65	1988.56
594.00	1981.54
594.35	1974.15
594.70	1965.92
595.05	1958.68
595.40	1951.32
595.75	1943.67
596.10	1937.35
596.45	1930.51
596.80	1924.04
597.15	1917.36
597.50	1910.40
597.85	1903.97
598.19	1897.50
598.54	1890.63
598.89	1884.05
599.24	1877.98
599.59	1871.29
599.94	1864.96
600.29	1858.78
600.64	1852.16
600.99	1844.80
601.34	1837.91
601.69	1830.75
602.04	1823.87
602.39	1816.45
602.74	1809.70
603.08	1802.99
603.43	1796.21
603.78	1788.96
604.13	1781.89
604.48	1774.77
604.83	1767.94
605.18	1760.96
605.53	1752.94
605.87	1744.76
606.22	1737.50
606.57	1729.70
606.92	1722.40
607.27	1715.26
607.62	1708.34
607.96	1701.09
608.31	1694.52
608.66	1686.94
609.01	1679.59
609.36	1672.20
609.70	1664.37
610.05	1656.31
610.40	1648.74
610.75	1640.39
611.10	1632.67
611.44	1624.28
611.79	1616.19
612.14	1607.51
612.49	1598.52
612.83	1590.32
613.18	1582.29
613.53	1574.31
613.88	1565.81
614.22	1557.61
614.57	1549.10
614.92	1541.27
615.27	1533.85
615.61	1525.49
615.96	1517.62
616.31	1510.00
616.65	1502.58
617.00	1495.01
617.35	1487.28
617.70	1478.89
618.04	1470.51
618.39	1462.52
618.74	1455.07
619.08	1446.91
619.43	1439.55
619.78	1432.61
620.12	1425.46
620.47	1418.02
620.82	1409.81
621.16	1402.37
621.51	1394.78
621.85	1387.21
622.20	1378.71
622.55	1370.44
622.89	1362.78
623.24	1355.26
623.59	1348.00
623.93	1340.68
624.28	1333.55
624.62	1326.20
624.97	1319.08
625.32	1312.32
625.66	1305.19
626.01	1298.12
626.35	1290.74
626.70	1283.02
627.04	1275.41
627.39	1267.63
627.73	1260.42
628.08	1253.67
628.43	1246.55
628.77	1239.33
629.12	1231.95
629.46	1224.75
629.81	1217.31
630.15	1210.20
630.50	1202.91
630.84	1194.84
631.19	1186.94
631.53	1179.43
631.88	1171.95
632.22	1164.57
632.57	1157.50
632.91	1150.17
633.26	1142.76
633.60	1135.51
633.95	1128.49
634.29	1121.42
634.64	1114.90
634.98	1107.59
635.32	1100.51
635.67	1094.00
636.01	1087.42
636.36	1080.70
636.70	1074.26
637.05	1067.86
637.39	1061.54
637.73	1055.11
638.08	1049.28
638.42	1043.37
638.77	1037.03
639.11	1030.60
639.45	1024.27
639.80	1017.68
640.14	1011.30
640.49	1004.88
640.83	998.70
641.17	992.65
641.52	986.53
641.86	980.16
642.20	974.44
642.55	968.14
642.89	961.74
643.23	955.25
643.58	949.51
643.92	943.42
644.26	937.39
644.61	931.33
644.95	925.27
645.29	918.81
645.64	912.06
645.98	905.83
646.32	899.98
646.66	893.97
647.01	888.23
647.35	882.66
647.69	876.93
648.04	871.38
648.38	865.61
648.72	859.64
649.06	853.55
649.41	847.57
649.75	841.66
650.09	835.72
650.43	829.93
650.78	823.81
651.12	817.99
651.46	812.30
651.80	806.59
652.14	801.35
652.49	795.99
652.83	790.89
653.17	785.28
653.51	779.65
653.85	774.26
654.20	768.63
654.54	762.55
654.88	756.74
655.22	750.97
655.56	745.26
655.90	739.84
656.25	734.69
656.59	729.37
656.93	724.34
657.27	719.29
657.61	713.97
657.95	708.88
658.29	703.75
658.64	698.59
658.98	693.40
659.32	687.94
659.66	682.78
660.00	677.57
660.34	672.72
660.68	667.83
661.02	662.89
661.36	658.24
661.70	653.86
662.05	649.61
662.39	645.30
662.73	640.90
663.07	636.61
663.41	632.17
663.75	627.77
664.09	623.31
664.43	618.98
664.77	614.91
665.11	610.79
665.45	606.76
665.79	602.69
666.13	598.59
666.47	594.47
666.81	590.38
667.15	586.30
667.49	582.46
667.83	578.71
668.17	574.77
668.51	570.76
668.85	566.82
669.19	562.99
669.53	559.25
669.87	555.42
670.21	551.78
670.55	548.26
670.89	544.90
671.23	541.56
671.57	538.06
671.91	534.55
672.25	531.13
672.58	527.68
672.92	524.39
673.26	521.33
673.60	518.28
673.94	515.28
674.28	512.35
674.62	509.37
674.96	506.28
675.30	503.49
675.64	500.60
675.97	497.82
676.31	495.06
676.65	492.13
676.99	489.43
677.33	486.58
677.67	483.75
678.01	480.73
678.34	477.70
678.68	474.91
679.02	472.14
679.36	469.38
679.70	466.68
680.04	463.91
680.37	461.04
680.71	458.26
681.05	455.66
681.39	453.00
681.73	450.41
682.06	447.93
682.40	445.42
682.74	442.98
683.08	440.47
683.42	437.90
683.75	435.47
684.09	432.97
684.43	430.50
684.77	428.03
685.10	425.72
685.44	423.49
685.78	421.17
686.12	418.99
686.45	416.72
686.79	414.49
687.13	412.33
687.46	410.21
687.80	408.08
688.14	405.86
688.48	403.87
688.81	401.65
689.15	399.48
689.49	397.34
689.82	395.20
690.16	393.15
690.50	391.20
690.83	389.26
691.17	387.30
691.51	385.41
691.84	383.63
692.18	381.73
692.52	379.77
692.85	377.90
693.19	376.06
693.52	374.25
693.86	372.45
694.20	370.65
694.53	368.84
694.87	366.98
695.21	365.26
695.54	363.44
695.88	361.69
696.21	360.04
696.55	358.37
696.88	356.73
697.22	355.11
697.56	353.48
697.89	351.82
698.23	350.24
698.56	348.65
698.90	347.08
699.23	345.45
699.57	343.91
699.90	342.40
700.24	340.85
700.58	339.34
700.91	337.85
701.25	336.43
701.58	335.08
701.92	333.79
702.25	332.44
702.59	331.11
702.92	329.82
703.26	328.51
703.59	327.25
703.93	326.09
704.26	324.83
704.60	323.58
704.93	322.38
705.26	321.16
705.60	320.01
705.93	318.87
706.27	317.89
706.60	316.90
706.94	315.79
707.27	314.67
707.61	313.64
707.94	312.61
708.27	311.52
708.61	310.48
708.94	309.47
709.28	308.47
709.61	307.49
709.94	306.58
710.28	305.54
710.61	304.56
710.95	303.48
711.28	302.60
711.61	301.68
711.95	300.74
712.28	299.78
712.61	298.79
712.95	297.86
713.28	296.97
713.61	296.08
713.95	295.24
714.28	294.41
714.61	293.54
714.95	292.69
715.28	291.86
715.61	291.00
715.95	290.12
716.28	289.28
716.61	288.46
716.95	287.64
717.28	286.94
717.61	286.19
717.94	285.44
718.28	284.65
718.61	283.93
718.94	283.26
719.27	282.64
719.61	281.99
719.94	281.32
720.27	280.57
720.60	279.89
720.94	279.27
721.27	278.69
721.60	278.12
721.93	277.58
722.27	277.02
722.60	276.47
722.93	275.95
723.26	275.43
723.59	274.88
723.93	274.34
724.26	273.78
724.59	273.20
724.92	272.73
725.25	272.22
725.59	271.71
725.92	271.19
726.25	270.71
726.58	270.29
726.91	269.84
727.24	269.40
727.57	268.95
727.91	268.44
728.24	268.00
728.57	267.50
728.90	267.05
729.23	266.53
729.56	266.12
729.89	265.62
730.22	265.11
730.55	264.67
730.89	264.23
731.22	263.77
731.55	263.34
731.88	262.88
732.21	262.44
732.54	261.97
732.87	261.54
733.20	261.10
733.53	260.69
733.86	260.31
734.19	259.89
734.52	259.52
734.85	259.19
735.18	258.76
735.51	258.42
735.84	258.04
736.17	257.72
736.50	257.31
736.83	257.08
737.16	256.75
737.49	256.43
737.82	256.08
738.15	255.78
738.48	255.44
738.81	255.13
739.14	254.82
739.47	254.54
739.80	254.28
740.13	253.96
740.46	253.63
740.79	253.29
741.12	252.97
741.45	252.62
741.78	252.30
742.11	252.03
742.44	251.69
742.77	251.38
743.10	251.07
743.43	250.78
743.75	250.41
744.08	250.24
744.41	249.95
744.74	249.67
745.07	249.37
745.40	249.14
745.73	248.91
746.06	248.65
746.39	248.37
746.71	248.08
747.04	247.83
747.37	247.58
747.70	247.35
748.03	247.13
748.36	246.91
748.68	246.69
749.01	246.41
749.34	246.24
749.67	246.00
750.00	245.82
750.33	245.68
750.65	245.46
750.98	245.20
751.31	244.96
751.64	244.76
751.97	244.64
752.29	244.42
752.62	244.16
752.95	243.96
753.28	243.76
753.60	243.55
753.93	243.36
754.26	243.19
754.59	242.98
754.91	242.76
755.24	242.55
755.57	242.33
755.90	242.14
756.22	241.93
756.55	241.74
756.88	241.51
757.20	241.25
757.53	241.08
757.86	240.84
758.19	240.72
758.51	240.56
758.84	240.36
759.17	240.22
759.49	240.10
759.82	239.97
760.15	239.84
760.47	239.71
760.80	239.55
761.13	239.40
761.45	239.27
761.78	239.16
762.11	239.07
762.43	238.94
762.76	238.83
763.08	238.70
763.41	238.61
763.74	238.48
764.06	238.34
764.39	238.22
764.71	238.13
765.04	238.03
765.37	237.87
765.69	237.72
766.02	237.59
766.34	237.45
766.67	237.31
767.00	237.22
767.32	237.15
767.65	237.10
767.97	236.95
768.30	236.84
768.62	236.72
768.95	236.60
769.27	236.49
769.60	236.39
769.92	236.25
770.25	236.14
770.57	236.02
770.90	235.92
771.22	235.81
771.55	235.72
771.87	235.64
772.20	235.56
772.52	235.55
772.85	235.58
773.17	235.48
773.50	235.40
773.82	235.30
774.15	235.17
774.47	235.03
774.80	234.97
775.12	234.84
775.45	234.77
775.77	234.67
776.09	234.62
776.42	234.51
776.74	234.49
777.07	234.38
777.39	234.33
777.72	234.30
778.04	234.23
778.36	234.16
778.69	234.06
779.01	234.00
779.33	233.85
779.66	233.62
779.98	233.56
780.31	233.48
780.63	233.44
780.95	233.38
781.28	233.33
781.60	233.23
781.92	233.18
782.25	233.10
782.57	233.05
782.89	232.96
783.22	232.91
783.54	232.82
783.86	232.81
784.19	232.74
784.51	232.69
784.83	232.61
785.16	232.53
785.48	232.47
785.80	232.38
786.12	232.35
786.45	232.31
786.77	232.26
787.09	232.19
