SpectraSuite Data File
++++++++++++++++++++++++++++++++++++
Date: Fri Feb 01 14:52:26 EST 2013
User: group
Dark Spectrum Present: No
Reference Spectrum Present: No
Number of Sampled Component Spectra: 1
Spectrometers: USB2E7196
Integration Time (usec): 35000 (USB2E7196)
Spectra Averaged: 100 (USB2E7196)
Boxcar Smoothing: 10 (USB2E7196)
Correct for Electrical Dark: No (USB2E7196)
Strobe/Lamp Enabled: No (USB2E7196)
Correct for Detector Non-linearity: No (USB2E7196)
Correct for Stray Light: No (USB2E7196)
Number of Pixels in Processed Spectrum: 2048
>>>>>Begin Processed Spectral Data<<<<<
339.09	0.00
339.48	215.59
339.86	216.09
340.24	218.30
340.63	219.23
341.01	222.60
341.39	222.30
341.78	223.54
342.16	225.47
342.54	225.83
342.93	213.78
343.31	224.54
343.69	225.06
344.07	225.58
344.46	225.96
344.84	226.37
345.22	226.59
345.60	226.85
345.99	227.04
346.37	227.13
346.75	227.21
347.13	227.30
347.52	227.33
347.90	227.44
348.28	227.44
348.66	227.48
349.05	227.47
349.43	227.50
349.81	227.54
350.19	227.62
350.57	227.67
350.96	227.74
351.34	227.86
351.72	227.94
352.10	228.02
352.48	228.13
352.87	228.15
353.25	228.22
353.63	228.26
354.01	228.33
354.39	228.41
354.77	228.48
355.15	228.56
355.54	228.62
355.92	228.66
356.30	228.77
356.68	228.89
357.06	228.97
357.44	229.00
357.82	229.07
358.20	229.10
358.58	229.18
358.97	229.21
359.35	229.27
359.73	229.36
360.11	229.38
360.49	229.45
360.87	229.48
361.25	229.55
361.63	229.67
362.01	229.71
362.39	229.76
362.77	229.78
363.15	229.80
363.53	229.86
363.91	229.89
364.29	229.90
364.67	229.83
365.05	229.86
365.43	229.90
365.81	229.89
366.19	229.95
366.57	229.96
366.95	229.98
367.33	229.96
367.71	229.95
368.09	229.98
368.47	229.91
368.85	229.92
369.23	229.92
369.61	229.81
369.99	229.80
370.37	229.74
370.75	229.75
371.13	229.71
371.51	229.65
371.89	229.61
372.27	229.58
372.65	229.47
373.03	229.39
373.41	229.30
373.78	229.22
374.16	229.08
374.54	229.00
374.92	228.93
375.30	228.85
375.68	228.76
376.06	228.68
376.44	228.64
376.82	228.58
377.19	228.48
377.57	228.43
377.95	228.32
378.33	228.25
378.71	228.12
379.09	228.07
379.47	227.99
379.84	227.87
380.22	227.77
380.60	227.71
380.98	227.65
381.36	227.57
381.73	227.54
382.11	227.51
382.49	227.43
382.87	227.33
383.25	227.28
383.62	227.32
384.00	227.25
384.38	227.16
384.76	227.10
385.13	227.07
385.51	227.01
385.89	226.94
386.27	226.92
386.64	226.86
387.02	226.78
387.40	226.69
387.78	226.65
388.15	226.60
388.53	226.57
388.91	226.54
389.29	226.51
389.66	226.47
390.04	226.45
390.42	226.47
390.79	226.48
391.17	226.42
391.55	226.35
391.92	226.34
392.30	226.35
392.68	226.35
393.05	226.34
393.43	226.34
393.81	226.37
394.18	226.36
394.56	226.40
394.94	226.43
395.31	226.49
395.69	226.57
396.06	226.65
396.44	226.69
396.82	226.72
397.19	226.81
397.57	226.86
397.95	226.90
398.32	226.93
398.70	227.01
399.07	227.12
399.45	227.16
399.82	227.23
400.20	227.29
400.58	227.38
400.95	227.46
401.33	227.60
401.70	227.76
402.08	227.90
402.45	228.01
402.83	228.17
403.20	228.32
403.58	228.43
403.95	228.56
404.33	228.72
404.71	228.89
405.08	229.14
405.46	229.28
405.83	229.45
406.21	229.63
406.58	229.81
406.96	229.99
407.33	230.19
407.70	230.39
408.08	230.69
408.45	230.93
408.83	231.15
409.20	231.34
409.58	231.55
409.95	231.79
410.33	232.10
410.70	232.33
411.08	232.65
411.45	232.96
411.82	233.24
412.20	233.57
412.57	234.00
412.95	234.26
413.32	234.67
413.69	235.10
414.07	235.54
414.44	236.01
414.82	236.47
415.19	237.03
415.56	237.62
415.94	238.19
416.31	238.80
416.68	239.45
417.06	240.19
417.43	240.83
417.81	241.62
418.18	242.33
418.55	243.18
418.93	244.01
419.30	244.89
419.67	245.82
420.04	246.81
420.42	247.77
420.79	248.96
421.16	250.08
421.54	251.25
421.91	252.46
422.28	253.69
422.66	255.05
423.03	256.34
423.40	257.63
423.77	259.01
424.15	260.42
424.52	261.87
424.89	263.46
425.26	265.05
425.64	266.46
426.01	268.11
426.38	269.72
426.75	271.40
427.13	273.13
427.50	274.94
427.87	276.81
428.24	278.64
428.61	280.35
428.99	282.29
429.36	284.37
429.73	286.40
430.10	288.43
430.47	290.47
430.85	292.59
431.22	294.84
431.59	297.21
431.96	299.47
432.33	301.95
432.70	304.35
433.08	307.10
433.45	309.72
433.82	312.30
434.19	315.20
434.56	317.97
434.93	320.61
435.30	323.25
435.68	326.14
436.05	328.98
436.42	331.77
436.79	334.30
437.16	337.03
437.53	339.89
437.90	342.70
438.27	345.43
438.64	348.20
439.01	350.82
439.38	353.07
439.75	355.25
440.13	357.77
440.50	360.10
440.87	362.00
441.24	363.99
441.61	366.17
441.98	367.66
442.35	369.49
442.72	371.34
443.09	373.11
443.46	374.12
443.83	374.72
444.20	375.31
444.57	376.15
444.94	376.46
445.31	376.79
445.68	377.14
446.05	377.27
446.42	376.95
446.79	376.54
447.16	376.06
447.53	375.72
447.90	374.59
448.27	373.41
448.64	371.79
449.01	370.66
449.37	368.68
449.74	366.80
450.11	364.57
450.48	362.12
450.85	359.68
451.22	357.55
451.59	355.55
451.96	353.60
452.33	351.00
452.70	348.65
453.07	345.82
453.43	342.89
453.80	340.12
454.17	337.43
454.54	334.88
454.91	332.19
455.28	329.52
455.65	327.01
456.02	324.55
456.38	322.44
456.75	319.75
457.12	317.52
457.49	315.32
457.86	313.15
458.23	311.28
458.59	309.17
458.96	307.10
459.33	305.21
459.70	303.30
460.07	301.82
460.43	300.07
460.80	298.47
461.17	297.07
461.54	295.57
461.91	294.16
462.27	292.67
462.64	291.39
463.01	290.03
463.38	288.73
463.74	287.40
464.11	286.21
464.48	285.19
464.85	284.05
465.21	283.17
465.58	282.24
465.95	281.15
466.32	280.25
466.68	279.29
467.05	278.37
467.42	277.49
467.78	276.51
468.15	275.63
468.52	274.93
468.88	274.05
469.25	273.27
469.62	272.62
469.98	271.95
470.35	271.33
470.72	270.69
471.08	270.00
471.45	269.44
471.82	268.85
472.18	268.26
472.55	267.82
472.92	267.24
473.28	266.75
473.65	266.27
474.02	265.81
474.38	265.43
474.75	265.13
475.11	264.75
475.48	264.50
475.85	264.25
476.21	264.00
476.58	263.81
476.94	263.61
477.31	263.42
477.67	263.26
478.04	263.14
478.41	263.08
478.77	263.13
479.14	263.05
479.50	263.11
479.87	263.13
480.23	263.17
480.60	263.25
480.96	263.34
481.33	263.55
481.69	263.71
482.06	263.89
482.42	264.06
482.79	264.29
483.15	264.60
483.52	264.95
483.88	265.32
484.25	265.71
484.61	266.16
484.98	266.60
485.34	267.14
485.71	267.72
486.07	268.31
486.44	268.87
486.80	269.57
487.17	270.24
487.53	271.07
487.90	271.92
488.26	272.85
488.62	273.80
488.99	274.77
489.35	275.82
489.72	276.92
490.08	278.13
490.44	279.38
490.81	280.70
491.17	282.05
491.54	283.50
491.90	285.01
492.26	286.64
492.63	288.34
492.99	290.12
493.36	291.96
493.72	293.99
494.08	296.08
494.45	298.28
494.81	300.64
495.17	303.08
495.54	305.65
495.90	308.31
496.26	311.12
496.63	314.06
496.99	317.14
497.35	320.40
497.72	323.77
498.08	327.26
498.44	330.87
498.80	334.75
499.17	338.72
499.53	342.83
499.89	347.20
500.26	351.63
500.62	356.30
500.98	361.21
501.34	366.25
501.71	371.54
502.07	376.96
502.43	382.52
502.79	388.24
503.16	394.25
503.52	400.51
503.88	406.84
504.24	413.39
504.60	420.21
504.97	427.23
505.33	434.52
505.69	442.16
506.05	449.92
506.41	457.77
506.78	465.97
507.14	474.36
507.50	482.96
507.86	491.99
508.22	501.09
508.59	510.26
508.95	519.76
509.31	529.54
509.67	539.60
510.03	549.82
510.39	560.36
510.75	571.14
511.12	581.98
511.48	593.28
511.84	604.72
512.20	616.23
512.56	628.24
512.92	640.45
513.28	652.68
513.64	665.13
514.00	677.79
514.37	690.63
514.73	703.63
515.09	716.66
515.45	729.98
515.81	743.57
516.17	757.58
516.53	771.72
516.89	785.81
517.25	799.97
517.61	814.41
517.97	828.95
518.33	843.40
518.69	858.26
519.05	873.27
519.41	888.38
519.77	903.90
520.13	919.38
520.49	934.69
520.85	950.20
521.21	965.93
521.57	982.26
521.93	998.13
522.29	1014.64
522.65	1030.93
523.01	1047.14
523.37	1063.31
523.73	1079.51
524.09	1095.70
524.45	1112.15
524.81	1128.87
525.17	1145.78
525.53	1162.60
525.89	1179.50
526.25	1196.33
526.61	1212.73
526.97	1229.60
527.33	1246.18
527.68	1262.84
528.04	1279.42
528.40	1296.09
528.76	1313.28
529.12	1329.90
529.48	1346.79
529.84	1362.85
530.20	1379.57
530.56	1396.62
530.91	1414.03
531.27	1430.85
531.63	1447.36
531.99	1463.93
532.35	1479.90
532.71	1495.82
533.07	1512.28
533.42	1528.14
533.78	1544.22
534.14	1560.54
534.50	1575.89
534.86	1591.80
535.21	1606.93
535.57	1622.96
535.93	1638.42
536.29	1653.08
536.65	1668.23
537.00	1683.21
537.36	1698.69
537.72	1713.37
538.08	1727.84
538.44	1741.72
538.79	1755.67
539.15	1769.51
539.51	1783.48
539.87	1798.02
540.22	1811.80
540.58	1825.47
540.94	1838.89
541.29	1851.90
541.65	1864.67
542.01	1877.98
542.37	1890.34
542.72	1902.91
543.08	1914.71
543.44	1927.42
543.79	1938.80
544.15	1949.77
544.51	1961.23
544.87	1972.09
545.22	1983.01
545.58	1993.33
545.94	2003.05
546.29	2012.90
546.65	2022.70
547.01	2031.73
547.36	2040.43
547.72	2048.96
548.07	2056.89
548.43	2065.12
548.79	2072.96
549.14	2080.55
549.50	2087.89
549.86	2095.64
550.21	2102.90
550.57	2110.14
550.92	2116.44
551.28	2123.56
551.64	2130.48
551.99	2136.99
552.35	2143.13
552.70	2149.16
553.06	2155.03
553.41	2161.39
553.77	2167.52
554.13	2173.52
554.48	2179.54
554.84	2184.88
555.19	2190.18
555.55	2195.28
555.90	2199.58
556.26	2204.55
556.61	2209.08
556.97	2213.39
557.32	2217.41
557.68	2221.52
558.03	2225.59
558.39	2229.26
558.74	2233.77
559.10	2237.64
559.45	2241.15
559.81	2245.37
560.16	2248.98
560.52	2252.08
560.87	2255.22
561.23	2257.69
561.58	2260.46
561.94	2262.99
562.29	2265.25
562.64	2267.68
563.00	2270.16
563.35	2273.65
563.71	2276.59
564.06	2279.67
564.42	2282.19
564.77	2284.46
565.12	2286.46
565.48	2288.16
565.83	2289.98
566.19	2291.05
566.54	2291.98
566.89	2292.94
567.25	2293.24
567.60	2294.42
567.96	2295.98
568.31	2296.67
568.66	2297.43
569.02	2297.82
569.37	2297.83
569.72	2298.45
570.08	2298.38
570.43	2297.99
570.78	2296.91
571.14	2295.11
571.49	2293.52
571.84	2292.96
572.20	2291.46
572.55	2290.17
572.90	2288.21
573.26	2286.34
573.61	2284.50
573.96	2282.43
574.31	2279.23
574.67	2275.96
575.02	2271.99
575.37	2268.12
575.72	2264.20
576.08	2260.71
576.43	2257.27
576.78	2253.57
577.13	2250.06
577.49	2246.74
577.84	2243.32
578.19	2239.67
578.54	2235.81
578.90	2231.36
579.25	2225.66
579.60	2220.61
579.95	2215.45
580.30	2210.47
580.66	2205.14
581.01	2199.94
581.36	2194.75
581.71	2190.46
582.06	2185.98
582.42	2181.33
582.77	2176.13
583.12	2171.27
583.47	2166.40
583.82	2161.23
584.17	2155.84
584.53	2150.30
584.88	2144.43
585.23	2138.45
585.58	2132.79
585.93	2127.11
586.28	2122.27
586.63	2117.09
586.98	2111.99
587.34	2107.17
587.69	2102.13
588.04	2096.89
588.39	2091.09
588.74	2084.44
589.09	2078.16
589.44	2071.23
589.79	2065.13
590.14	2059.23
590.49	2052.63
590.84	2045.91
591.19	2039.49
591.54	2032.86
591.89	2025.34
592.25	2018.59
592.60	2011.28
592.95	2003.62
593.30	1996.31
593.65	1988.55
594.00	1981.45
594.35	1973.97
594.70	1965.72
595.05	1958.50
595.40	1951.18
595.75	1943.66
596.10	1937.37
596.45	1930.34
596.80	1924.06
597.15	1917.32
597.50	1910.32
597.85	1903.86
598.19	1897.56
598.54	1890.69
598.89	1883.92
599.24	1878.00
599.59	1871.27
599.94	1864.93
600.29	1858.52
600.64	1851.85
600.99	1844.36
601.34	1837.55
601.69	1830.71
602.04	1823.89
602.39	1816.46
602.74	1809.53
603.08	1802.80
603.43	1796.26
603.78	1789.10
604.13	1781.87
604.48	1774.85
604.83	1767.97
605.18	1761.00
605.53	1752.81
605.87	1744.82
606.22	1737.75
606.57	1729.86
606.92	1722.48
607.27	1715.33
607.62	1708.51
607.96	1701.39
608.31	1694.94
608.66	1687.27
609.01	1679.70
609.36	1672.36
609.70	1664.46
610.05	1656.55
610.40	1648.89
610.75	1640.41
611.10	1632.77
611.44	1624.60
611.79	1616.30
612.14	1607.57
612.49	1598.53
612.83	1590.18
613.18	1582.04
613.53	1573.93
613.88	1565.48
614.22	1557.33
614.57	1548.78
614.92	1540.76
615.27	1533.28
615.61	1525.05
615.96	1517.21
616.31	1509.70
616.65	1502.25
617.00	1494.72
617.35	1487.00
617.70	1478.62
618.04	1470.18
618.39	1462.12
618.74	1454.45
619.08	1446.42
619.43	1439.03
619.78	1432.13
620.12	1425.05
620.47	1417.64
620.82	1409.45
621.16	1401.99
621.51	1394.42
621.85	1386.89
622.20	1378.42
622.55	1370.12
622.89	1362.25
623.24	1354.64
623.59	1347.24
623.93	1339.79
624.28	1332.67
624.62	1325.33
624.97	1318.25
625.32	1311.54
625.66	1304.42
626.01	1297.41
626.35	1290.03
626.70	1282.34
627.04	1274.67
627.39	1266.90
627.73	1259.59
628.08	1252.80
628.43	1245.71
628.77	1238.50
629.12	1231.05
629.46	1223.96
629.81	1216.60
630.15	1209.59
630.50	1202.32
630.84	1194.24
631.19	1186.41
631.53	1178.94
631.88	1171.39
632.22	1163.93
632.57	1156.82
632.91	1149.59
633.26	1142.18
633.60	1134.86
633.95	1127.95
634.29	1121.07
634.64	1114.57
634.98	1107.29
635.32	1100.36
635.67	1093.90
636.01	1087.34
636.36	1080.65
636.70	1074.26
637.05	1067.85
637.39	1061.48
637.73	1055.06
638.08	1049.35
638.42	1043.47
638.77	1037.15
639.11	1030.73
639.45	1024.50
639.80	1017.90
640.14	1011.48
640.49	1005.02
640.83	998.85
641.17	992.71
641.52	986.40
641.86	980.04
642.20	974.37
642.55	968.06
642.89	961.63
643.23	955.21
643.58	949.54
643.92	943.40
644.26	937.41
644.61	931.44
644.95	925.46
645.29	918.96
645.64	912.28
645.98	906.00
646.32	900.23
646.66	894.19
647.01	888.55
647.35	882.96
647.69	877.22
648.04	871.76
648.38	865.98
648.72	860.21
649.06	854.23
649.41	848.33
649.75	842.39
650.09	836.51
650.43	830.73
650.78	824.54
651.12	818.70
651.46	812.94
651.80	807.19
652.14	801.90
652.49	796.51
652.83	791.39
653.17	785.78
653.51	780.07
653.85	774.73
654.20	769.07
654.54	763.06
654.88	757.33
655.22	751.52
655.56	745.85
655.90	740.33
656.25	735.08
656.59	729.71
656.93	724.71
657.27	719.51
657.61	714.11
657.95	709.18
658.29	704.12
658.64	698.90
658.98	693.66
659.32	688.12
659.66	683.10
660.00	677.89
660.34	673.01
660.68	668.17
661.02	663.18
661.36	658.53
661.70	654.09
662.05	649.76
662.39	645.48
662.73	641.09
663.07	636.78
663.41	632.38
663.75	628.02
664.09	623.47
664.43	619.16
664.77	615.04
665.11	610.76
665.45	606.67
665.79	602.67
666.13	598.58
666.47	594.60
666.81	590.32
667.15	586.24
667.49	582.35
667.83	578.52
668.17	574.63
668.51	570.64
668.85	566.66
669.19	562.92
669.53	559.06
669.87	555.26
670.21	551.57
670.55	548.03
670.89	544.59
671.23	541.22
671.57	537.73
671.91	534.25
672.25	530.82
672.58	527.38
672.92	524.03
673.26	520.94
673.60	517.80
673.94	514.79
674.28	511.89
674.62	508.91
674.96	505.89
675.30	503.01
675.64	500.11
675.97	497.37
676.31	494.57
676.65	491.72
676.99	489.01
677.33	486.21
677.67	483.38
678.01	480.39
678.34	477.52
678.68	474.72
679.02	472.03
679.36	469.29
679.70	466.60
680.04	463.89
680.37	461.04
680.71	458.35
681.05	455.71
681.39	453.02
681.73	450.47
682.06	447.99
682.40	445.49
682.74	442.97
683.08	440.50
683.42	437.86
683.75	435.45
684.09	432.94
684.43	430.53
684.77	428.12
685.10	425.81
685.44	423.53
685.78	421.26
686.12	419.03
686.45	416.78
686.79	414.51
687.13	412.37
687.46	410.21
687.80	408.02
688.14	405.86
688.48	403.88
688.81	401.69
689.15	399.55
689.49	397.45
689.82	395.41
690.16	393.37
690.50	391.49
690.83	389.53
691.17	387.61
691.51	385.66
691.84	383.83
692.18	381.94
692.52	379.95
692.85	378.02
693.19	376.09
693.52	374.29
693.86	372.48
694.20	370.71
694.53	368.93
694.87	367.10
695.21	365.38
695.54	363.54
695.88	361.78
696.21	360.05
696.55	358.40
696.88	356.69
697.22	355.01
697.56	353.44
697.89	351.79
698.23	350.20
698.56	348.64
698.90	347.05
699.23	345.40
699.57	343.93
699.90	342.41
700.24	340.86
700.58	339.33
700.91	337.85
701.25	336.35
701.58	335.00
701.92	333.70
702.25	332.37
702.59	331.05
702.92	329.79
703.26	328.54
703.59	327.30
703.93	326.15
704.26	324.93
704.60	323.64
704.93	322.42
705.26	321.18
705.60	320.02
705.93	318.89
706.27	317.86
706.60	316.75
706.94	315.69
707.27	314.64
707.61	313.63
707.94	312.63
708.27	311.61
708.61	310.54
708.94	309.53
709.28	308.53
709.61	307.60
709.94	306.62
710.28	305.59
710.61	304.60
710.95	303.56
711.28	302.68
711.61	301.74
711.95	300.82
712.28	299.88
712.61	298.91
712.95	297.99
713.28	297.14
713.61	296.28
713.95	295.44
714.28	294.59
714.61	293.72
714.95	292.87
715.28	292.04
715.61	291.14
715.95	290.30
716.28	289.44
716.61	288.57
716.95	287.76
717.28	287.03
717.61	286.27
717.94	285.53
718.28	284.74
718.61	284.02
718.94	283.34
719.27	282.70
719.61	282.08
719.94	281.40
720.27	280.73
720.60	280.08
720.94	279.41
721.27	278.86
721.60	278.32
721.93	277.76
722.27	277.18
722.60	276.71
722.93	276.14
723.26	275.65
723.59	275.10
723.93	274.58
724.26	274.06
724.59	273.50
724.92	273.00
725.25	272.48
725.59	271.97
725.92	271.44
726.25	270.95
726.58	270.40
726.91	269.92
727.24	269.43
727.57	268.96
727.91	268.49
728.24	268.02
728.57	267.49
728.90	267.01
729.23	266.55
729.56	266.10
729.89	265.64
730.22	265.15
730.55	264.69
730.89	264.25
731.22	263.80
731.55	263.35
731.88	262.90
732.21	262.46
732.54	262.02
732.87	261.61
733.20	261.19
733.53	260.85
733.86	260.47
734.19	260.07
734.52	259.67
734.85	259.35
735.18	258.93
735.51	258.58
735.84	258.23
736.17	257.86
736.50	257.41
736.83	257.17
737.16	256.82
737.49	256.46
737.82	256.09
738.15	255.74
738.48	255.43
738.81	255.12
739.14	254.79
739.47	254.46
739.80	254.14
740.13	253.83
740.46	253.49
740.79	253.15
741.12	252.81
741.45	252.48
741.78	252.11
742.11	251.85
742.44	251.52
742.77	251.24
743.10	250.94
743.43	250.66
743.75	250.31
744.08	250.14
744.41	249.87
744.74	249.64
745.07	249.36
745.40	249.10
745.73	248.86
746.06	248.63
746.39	248.41
746.71	248.16
747.04	247.89
747.37	247.65
747.70	247.42
748.03	247.24
748.36	247.04
748.68	246.85
749.01	246.59
749.34	246.35
749.67	246.16
750.00	245.93
750.33	245.80
750.65	245.56
750.98	245.27
751.31	245.08
751.64	244.87
751.97	244.72
752.29	244.50
752.62	244.28
752.95	244.06
753.28	243.84
753.60	243.66
753.93	243.50
754.26	243.32
754.59	243.11
754.91	242.87
755.24	242.68
755.57	242.49
755.90	242.33
756.22	242.17
756.55	241.98
756.88	241.83
757.20	241.62
757.53	241.43
757.86	241.27
758.19	241.14
758.51	240.97
758.84	240.78
759.17	240.66
759.49	240.49
759.82	240.39
760.15	240.28
760.47	240.11
760.80	239.94
761.13	239.80
761.45	239.67
761.78	239.53
762.11	239.43
762.43	239.27
762.76	239.12
763.08	238.99
763.41	238.86
763.74	238.74
764.06	238.59
764.39	238.46
764.71	238.31
765.04	238.15
765.37	238.03
765.69	237.88
766.02	237.75
766.34	237.60
766.67	237.41
767.00	237.31
767.32	237.24
767.65	237.22
767.97	237.11
768.30	237.03
768.62	236.92
768.95	236.81
769.27	236.70
769.60	236.60
769.92	236.45
770.25	236.33
770.57	236.18
770.90	236.07
771.22	235.99
771.55	235.89
771.87	235.81
772.20	235.70
772.52	235.70
772.85	235.69
773.17	235.62
773.50	235.54
773.82	235.41
774.15	235.30
774.47	235.10
774.80	234.97
775.12	234.85
775.45	234.73
775.77	234.62
776.09	234.51
776.42	234.42
776.74	234.38
777.07	234.25
777.39	234.17
777.72	234.09
778.04	233.99
778.36	233.87
778.69	233.80
779.01	233.74
779.33	233.56
779.66	233.39
779.98	233.32
780.31	233.23
780.63	233.21
780.95	233.13
781.28	233.07
781.60	232.98
781.92	232.90
782.25	232.87
782.57	232.78
782.89	232.75
783.22	232.67
783.54	232.59
783.86	232.57
784.19	232.51
784.51	232.48
784.83	232.43
785.16	232.39
785.48	232.32
785.80	232.25
786.12	232.23
786.45	232.18
786.77	232.12
787.09	232.09
