SpectraSuite Data File
++++++++++++++++++++++++++++++++++++
Date: Fri Feb 01 16:12:46 EST 2013
User: group
Dark Spectrum Present: No
Reference Spectrum Present: No
Number of Sampled Component Spectra: 1
Spectrometers: USB2E7196
Integration Time (usec): 35000 (USB2E7196)
Spectra Averaged: 100 (USB2E7196)
Boxcar Smoothing: 10 (USB2E7196)
Correct for Electrical Dark: No (USB2E7196)
Strobe/Lamp Enabled: No (USB2E7196)
Correct for Detector Non-linearity: No (USB2E7196)
Correct for Stray Light: No (USB2E7196)
Number of Pixels in Processed Spectrum: 2048
>>>>>Begin Processed Spectral Data<<<<<
339.09	0.00
339.48	214.36
339.86	215.98
340.24	217.36
340.63	218.62
341.01	221.19
341.39	220.70
341.78	222.60
342.16	223.97
342.54	224.28
342.93	212.60
343.31	223.35
343.69	223.91
344.07	224.37
344.46	224.79
344.84	225.16
345.22	225.40
345.60	225.70
345.99	225.85
346.37	225.98
346.75	226.06
347.13	226.15
347.52	226.23
347.90	226.27
348.28	226.31
348.66	226.34
349.05	226.36
349.43	226.42
349.81	226.47
350.19	226.51
350.57	226.54
350.96	226.63
351.34	226.70
351.72	226.78
352.10	226.84
352.48	226.92
352.87	226.99
353.25	227.06
353.63	227.08
354.01	227.17
354.39	227.26
354.77	227.37
355.15	227.44
355.54	227.49
355.92	227.53
356.30	227.60
356.68	227.73
357.06	227.81
357.44	227.84
357.82	227.92
358.20	228.00
358.58	228.05
358.97	228.12
359.35	228.21
359.73	228.30
360.11	228.36
360.49	228.39
360.87	228.46
361.25	228.51
361.63	228.58
362.01	228.63
362.39	228.65
362.77	228.70
363.15	228.72
363.53	228.77
363.91	228.82
364.29	228.85
364.67	228.81
365.05	228.84
365.43	228.87
365.81	228.91
366.19	228.97
366.57	229.07
366.95	229.05
367.33	229.00
367.71	228.99
368.09	228.98
368.47	228.97
368.85	228.94
369.23	228.94
369.61	228.90
369.99	228.92
370.37	228.93
370.75	228.93
371.13	228.90
371.51	228.85
371.89	228.83
372.27	228.81
372.65	228.76
373.03	228.69
373.41	228.61
373.78	228.54
374.16	228.42
374.54	228.31
374.92	228.27
375.30	228.22
375.68	228.11
376.06	228.09
376.44	228.04
376.82	227.93
377.19	227.87
377.57	227.81
377.95	227.68
378.33	227.58
378.71	227.43
379.09	227.35
379.47	227.29
379.84	227.23
380.22	227.13
380.60	227.02
380.98	226.95
381.36	226.93
381.73	226.86
382.11	226.83
382.49	226.77
382.87	226.65
383.25	226.61
383.62	226.69
384.00	226.61
384.38	226.60
384.76	226.59
385.13	226.59
385.51	226.50
385.89	226.49
386.27	226.41
386.64	226.40
387.02	226.35
387.40	226.30
387.78	226.23
388.15	226.16
388.53	226.12
388.91	226.08
389.29	226.00
389.66	226.00
390.04	225.95
390.42	225.95
390.79	225.97
391.17	225.94
391.55	225.77
391.92	225.77
392.30	225.70
392.68	225.69
393.05	225.65
393.43	225.69
393.81	225.67
394.18	225.70
394.56	225.69
394.94	225.71
395.31	225.75
395.69	225.81
396.06	225.84
396.44	225.90
396.82	225.92
397.19	226.03
397.57	226.04
397.95	226.11
398.32	226.12
398.70	226.18
399.07	226.25
399.45	226.35
399.82	226.38
400.20	226.44
400.58	226.49
400.95	226.53
401.33	226.63
401.70	226.76
402.08	226.84
402.45	226.95
402.83	227.07
403.20	227.17
403.58	227.23
403.95	227.37
404.33	227.50
404.71	227.61
405.08	227.75
405.46	227.88
405.83	228.05
406.21	228.17
406.58	228.32
406.96	228.47
407.33	228.63
407.70	228.82
408.08	229.07
408.45	229.29
408.83	229.53
409.20	229.73
409.58	229.91
409.95	230.19
410.33	230.45
410.70	230.71
411.08	231.02
411.45	231.32
411.82	231.65
412.20	232.00
412.57	232.44
412.95	232.77
413.32	233.17
413.69	233.56
414.07	234.03
414.44	234.50
414.82	234.97
415.19	235.54
415.56	236.12
415.94	236.69
416.31	237.35
416.68	237.99
417.06	238.71
417.43	239.41
417.81	240.16
418.18	240.92
418.55	241.75
418.93	242.62
419.30	243.55
419.67	244.43
420.04	245.39
420.42	246.38
420.79	247.54
421.16	248.66
421.54	249.84
421.91	251.01
422.28	252.27
422.66	253.63
423.03	254.93
423.40	256.21
423.77	257.65
424.15	259.01
424.52	260.48
424.89	262.09
425.26	263.64
425.64	265.09
426.01	266.68
426.38	268.35
426.75	270.01
427.13	271.69
427.50	273.58
427.87	275.44
428.24	277.29
428.61	279.07
428.99	281.05
429.36	283.17
429.73	285.29
430.10	287.35
430.47	289.37
430.85	291.50
431.22	293.78
431.59	296.12
431.96	298.43
432.33	300.92
432.70	303.26
433.08	306.05
433.45	308.68
433.82	311.27
434.19	314.17
434.56	316.98
434.93	319.66
435.30	322.23
435.68	325.12
436.05	327.96
436.42	330.71
436.79	333.21
437.16	335.87
437.53	338.68
437.90	341.44
438.27	344.18
438.64	347.00
439.01	349.60
439.38	351.85
439.75	353.97
440.13	356.48
440.50	358.83
440.87	360.68
441.24	362.59
441.61	364.79
441.98	366.29
442.35	368.07
442.72	369.92
443.09	371.74
443.46	372.72
443.83	373.30
444.20	373.83
444.57	374.68
444.94	375.00
445.31	375.34
445.68	375.71
446.05	375.81
446.42	375.38
446.79	374.92
447.16	374.45
447.53	374.12
447.90	372.94
448.27	371.79
448.64	370.20
449.01	369.07
449.37	367.08
449.74	365.17
450.11	362.99
450.48	360.54
450.85	358.01
451.22	355.90
451.59	353.83
451.96	351.87
452.33	349.23
452.70	346.82
453.07	343.95
453.43	340.99
453.80	338.25
454.17	335.61
454.54	333.10
454.91	330.38
455.28	327.73
455.65	325.23
456.02	322.80
456.38	320.70
456.75	318.07
457.12	315.83
457.49	313.57
457.86	311.36
458.23	309.46
458.59	307.41
458.96	305.31
459.33	303.51
459.70	301.65
460.07	300.17
460.43	298.48
460.80	296.91
461.17	295.51
461.54	294.00
461.91	292.57
462.27	291.11
462.64	289.86
463.01	288.49
463.38	287.20
463.74	285.84
464.11	284.62
464.48	283.60
464.85	282.46
465.21	281.64
465.58	280.67
465.95	279.61
466.32	278.70
466.68	277.83
467.05	276.93
467.42	276.05
467.78	275.12
468.15	274.25
468.52	273.57
468.88	272.75
469.25	271.93
469.62	271.30
469.98	270.64
470.35	270.04
470.72	269.43
471.08	268.81
471.45	268.28
471.82	267.77
472.18	267.17
472.55	266.75
472.92	266.19
473.28	265.76
473.65	265.36
474.02	264.92
474.38	264.53
474.75	264.21
475.11	263.85
475.48	263.63
475.85	263.39
476.21	263.20
476.58	263.00
476.94	262.86
477.31	262.71
477.67	262.56
478.04	262.47
478.41	262.45
478.77	262.46
479.14	262.38
479.50	262.41
479.87	262.52
480.23	262.59
480.60	262.71
480.96	262.83
481.33	263.01
481.69	263.22
482.06	263.44
482.42	263.68
482.79	263.91
483.15	264.18
483.52	264.58
483.88	264.91
484.25	265.34
484.61	265.83
484.98	266.29
485.34	266.87
485.71	267.44
486.07	268.05
486.44	268.65
486.80	269.38
487.17	270.12
487.53	270.95
487.90	271.83
488.26	272.77
488.62	273.75
488.99	274.71
489.35	275.73
489.72	276.87
490.08	278.06
490.44	279.37
490.81	280.74
491.17	282.11
491.54	283.59
491.90	285.11
492.26	286.73
492.63	288.47
492.99	290.22
493.36	292.11
493.72	294.12
494.08	296.20
494.45	298.46
494.81	300.82
495.17	303.22
495.54	305.81
495.90	308.51
496.26	311.33
496.63	314.31
496.99	317.47
497.35	320.71
497.72	324.12
498.08	327.65
498.44	331.32
498.80	335.24
499.17	339.29
499.53	343.47
499.89	347.83
500.26	352.28
500.62	356.96
500.98	361.93
501.34	367.04
501.71	372.38
502.07	377.86
502.43	383.47
502.79	389.28
503.16	395.35
503.52	401.60
503.88	407.95
504.24	414.61
504.60	421.49
504.97	428.65
505.33	435.91
505.69	443.62
506.05	451.36
506.41	459.26
506.78	467.40
507.14	475.86
507.50	484.59
507.86	493.67
508.22	502.87
508.59	512.11
508.95	521.68
509.31	531.48
509.67	541.50
510.03	551.72
510.39	562.29
510.75	573.07
511.12	584.01
511.48	595.31
511.84	606.79
512.20	618.27
512.56	630.23
512.92	642.47
513.28	654.84
513.64	667.29
514.00	680.04
514.37	693.06
514.73	706.10
515.09	719.16
515.45	732.41
515.81	745.99
516.17	759.90
516.53	774.08
516.89	788.30
517.25	802.47
517.61	816.98
517.97	831.51
518.33	845.96
518.69	860.69
519.05	875.68
519.41	890.75
519.77	906.38
520.13	921.73
520.49	937.05
520.85	952.31
521.21	968.01
521.57	984.15
521.93	999.85
522.29	1016.13
522.65	1032.33
523.01	1048.58
523.37	1064.60
523.73	1080.75
524.09	1096.69
524.45	1113.02
524.81	1129.68
525.17	1146.42
525.53	1163.11
525.89	1179.90
526.25	1196.83
526.61	1213.18
526.97	1229.94
527.33	1246.33
527.68	1262.89
528.04	1279.29
528.40	1295.83
528.76	1312.94
529.12	1329.61
529.48	1346.47
529.84	1362.48
530.20	1379.11
530.56	1396.08
530.91	1413.38
531.27	1430.16
531.63	1446.66
531.99	1463.11
532.35	1478.91
532.71	1494.85
533.07	1511.21
533.42	1527.20
533.78	1543.01
534.14	1559.20
534.50	1574.55
534.86	1590.39
535.21	1605.59
535.57	1621.52
535.93	1636.87
536.29	1651.57
536.65	1666.33
537.00	1680.97
537.36	1696.24
537.72	1710.62
538.08	1724.98
538.44	1738.81
538.79	1752.57
539.15	1765.92
539.51	1779.49
539.87	1793.86
540.22	1807.38
540.58	1820.93
540.94	1833.94
541.29	1846.79
541.65	1859.32
542.01	1872.40
542.37	1884.65
542.72	1896.96
543.08	1908.73
543.44	1921.17
543.79	1932.40
544.15	1943.33
544.51	1954.77
544.87	1965.54
545.22	1976.34
545.58	1986.59
545.94	1996.24
546.29	2005.97
546.65	2016.02
547.01	2025.33
547.36	2033.96
547.72	2042.52
548.07	2050.41
548.43	2058.68
548.79	2066.63
549.14	2074.26
549.50	2081.53
549.86	2089.00
550.21	2096.12
550.57	2103.28
550.92	2109.93
551.28	2116.97
551.64	2124.20
551.99	2130.77
552.35	2137.00
552.70	2143.17
553.06	2148.88
553.41	2155.20
553.77	2161.19
554.13	2167.19
554.48	2173.29
554.84	2178.75
555.19	2183.81
555.55	2189.06
555.90	2193.55
556.26	2198.46
556.61	2203.18
556.97	2207.58
557.32	2211.73
557.68	2215.97
558.03	2220.16
558.39	2223.74
558.74	2228.31
559.10	2232.07
559.45	2235.61
559.81	2239.91
560.16	2243.71
560.52	2247.01
560.87	2250.42
561.23	2253.16
561.58	2256.05
561.94	2258.58
562.29	2260.85
562.64	2263.74
563.00	2266.12
563.35	2269.54
563.71	2272.54
564.06	2275.63
564.42	2278.53
564.77	2281.13
565.12	2283.68
565.48	2285.55
565.83	2287.56
566.19	2288.88
566.54	2289.60
566.89	2290.91
567.25	2291.61
567.60	2292.89
567.96	2294.68
568.31	2295.41
568.66	2296.63
569.02	2297.32
569.37	2297.69
569.72	2298.84
570.08	2298.94
570.43	2299.05
570.78	2298.56
571.14	2297.21
571.49	2295.86
571.84	2295.36
572.20	2294.29
572.55	2293.11
572.90	2291.43
573.26	2289.96
573.61	2288.14
573.96	2286.75
574.31	2283.76
574.67	2280.68
575.02	2277.06
575.37	2273.55
575.72	2270.01
576.08	2266.56
576.43	2263.12
576.78	2259.56
577.13	2256.13
577.49	2252.99
577.84	2249.55
578.19	2245.75
578.54	2242.13
578.90	2238.08
579.25	2232.69
579.60	2227.89
579.95	2222.91
580.30	2218.04
580.66	2212.93
581.01	2208.06
581.36	2203.09
581.71	2199.11
582.06	2194.81
582.42	2190.41
582.77	2185.29
583.12	2180.67
583.47	2176.20
583.82	2171.36
584.17	2166.08
584.53	2160.59
584.88	2154.98
585.23	2149.28
585.58	2143.88
585.93	2138.44
586.28	2133.59
586.63	2128.64
586.98	2123.45
587.34	2118.66
587.69	2113.84
588.04	2108.70
588.39	2103.08
588.74	2096.58
589.09	2090.27
589.44	2083.53
589.79	2077.43
590.14	2071.77
590.49	2065.18
590.84	2058.68
591.19	2052.69
591.54	2046.33
591.89	2039.25
592.25	2032.69
592.60	2025.55
592.95	2018.05
593.30	2010.72
593.65	2003.06
594.00	1995.90
594.35	1988.61
594.70	1980.53
595.05	1973.42
595.40	1966.10
595.75	1958.69
596.10	1952.62
596.45	1946.09
596.80	1939.93
597.15	1933.40
597.50	1926.59
597.85	1920.28
598.19	1913.72
598.54	1906.67
598.89	1899.98
599.24	1893.90
599.59	1887.21
599.94	1880.86
600.29	1874.53
600.64	1867.99
600.99	1860.76
601.34	1853.93
601.69	1847.00
602.04	1840.26
602.39	1832.89
602.74	1826.12
603.08	1819.35
603.43	1812.54
603.78	1805.18
604.13	1797.97
604.48	1790.77
604.83	1783.92
605.18	1776.97
605.53	1769.00
605.87	1760.97
606.22	1753.72
606.57	1745.89
606.92	1738.41
607.27	1731.44
607.62	1724.70
607.96	1717.44
608.31	1711.04
608.66	1703.57
609.01	1696.16
609.36	1688.69
609.70	1680.72
610.05	1672.71
610.40	1665.10
610.75	1656.81
611.10	1649.13
611.44	1640.68
611.79	1632.58
612.14	1623.91
612.49	1614.71
612.83	1606.21
613.18	1598.10
613.53	1590.06
613.88	1581.55
614.22	1573.33
614.57	1564.62
614.92	1556.45
615.27	1548.99
615.61	1540.50
615.96	1532.28
616.31	1524.55
616.65	1517.21
617.00	1509.66
617.35	1502.05
617.70	1493.76
618.04	1485.24
618.39	1477.06
618.74	1469.55
619.08	1461.39
619.43	1453.64
619.78	1446.76
620.12	1439.73
620.47	1432.22
620.82	1424.02
621.16	1416.54
621.51	1408.91
621.85	1401.32
622.20	1392.85
622.55	1384.44
622.89	1376.60
623.24	1369.04
623.59	1361.63
623.93	1354.05
624.28	1346.79
624.62	1339.21
624.97	1331.92
625.32	1325.15
625.66	1318.06
626.01	1310.83
626.35	1303.40
626.70	1295.68
627.04	1287.98
627.39	1280.08
627.73	1272.64
628.08	1265.65
628.43	1258.41
628.77	1251.09
629.12	1243.60
629.46	1236.43
629.81	1228.96
630.15	1221.66
630.50	1214.24
630.84	1206.08
631.19	1198.14
631.53	1190.59
631.88	1182.94
632.22	1175.39
632.57	1168.14
632.91	1160.57
633.26	1153.16
633.60	1145.73
633.95	1138.63
634.29	1131.42
634.64	1124.69
634.98	1117.39
635.32	1110.24
635.67	1103.63
636.01	1097.04
636.36	1090.19
636.70	1083.62
637.05	1077.03
637.39	1070.56
637.73	1064.22
638.08	1058.23
638.42	1052.21
638.77	1045.77
639.11	1039.33
639.45	1032.92
639.80	1026.17
640.14	1019.80
640.49	1013.30
640.83	1006.97
641.17	1000.78
641.52	994.52
641.86	988.13
642.20	982.25
642.55	975.92
642.89	969.44
643.23	962.78
643.58	956.98
643.92	950.78
644.26	944.85
644.61	938.84
644.95	932.71
645.29	926.29
645.64	919.53
645.98	913.13
646.32	907.10
646.66	901.12
647.01	895.38
647.35	889.75
647.69	883.90
648.04	878.27
648.38	872.43
648.72	866.44
649.06	860.40
649.41	854.51
649.75	848.62
650.09	842.71
650.43	837.03
650.78	830.88
651.12	824.89
651.46	819.09
651.80	813.40
652.14	807.97
652.49	802.55
652.83	797.40
653.17	791.82
653.51	786.17
653.85	780.77
654.20	775.11
654.54	768.99
654.88	763.14
655.22	757.27
655.56	751.59
655.90	746.06
656.25	740.85
656.59	735.45
656.93	730.35
657.27	725.19
657.61	719.61
657.95	714.56
658.29	709.46
658.64	704.15
658.98	698.78
659.32	693.31
659.66	688.16
660.00	682.87
660.34	677.95
660.68	673.04
661.02	667.92
661.36	663.24
661.70	658.74
662.05	654.45
662.39	650.14
662.73	645.64
663.07	641.32
663.41	636.83
663.75	632.40
664.09	627.81
664.43	623.39
664.77	619.43
665.11	615.18
665.45	611.10
665.79	607.04
666.13	602.93
666.47	598.80
666.81	594.58
667.15	590.43
667.49	586.44
667.83	582.57
668.17	578.67
668.51	574.58
668.85	570.59
669.19	566.68
669.53	562.89
669.87	559.02
670.21	555.35
670.55	551.65
670.89	548.16
671.23	544.73
671.57	541.16
671.91	537.55
672.25	533.99
672.58	530.45
672.92	527.08
673.26	523.93
673.60	520.80
673.94	517.75
674.28	514.82
674.62	511.91
674.96	508.90
675.30	505.97
675.64	503.08
675.97	500.26
676.31	497.44
676.65	494.50
676.99	491.80
677.33	488.92
677.67	486.14
678.01	483.15
678.34	480.18
678.68	477.30
679.02	474.48
679.36	471.74
679.70	468.98
680.04	466.20
680.37	463.34
680.71	460.56
681.05	457.88
681.39	455.15
681.73	452.46
682.06	449.87
682.40	447.35
682.74	444.76
683.08	442.19
683.42	439.63
683.75	437.11
684.09	434.56
684.43	432.05
684.77	429.62
685.10	427.26
685.44	424.96
685.78	422.67
686.12	420.37
686.45	418.04
686.79	415.81
687.13	413.63
687.46	411.50
687.80	409.31
688.14	407.08
688.48	405.05
688.81	402.83
689.15	400.74
689.49	398.61
689.82	396.57
690.16	394.47
690.50	392.47
690.83	390.58
691.17	388.60
691.51	386.72
691.84	384.83
692.18	382.93
692.52	380.96
692.85	379.03
693.19	377.22
693.52	375.37
693.86	373.51
694.20	371.73
694.53	369.90
694.87	368.08
695.21	366.31
695.54	364.45
695.88	362.75
696.21	360.96
696.55	359.24
696.88	357.55
697.22	355.92
697.56	354.31
697.89	352.60
698.23	351.04
698.56	349.41
698.90	347.86
699.23	346.24
699.57	344.70
699.90	343.20
700.24	341.61
700.58	340.16
700.91	338.69
701.25	337.25
701.58	335.91
701.92	334.49
702.25	333.11
702.59	331.77
702.92	330.46
703.26	329.16
703.59	327.90
703.93	326.72
704.26	325.50
704.60	324.18
704.93	322.92
705.26	321.59
705.60	320.39
705.93	319.20
706.27	318.13
706.60	317.06
706.94	315.92
707.27	314.81
707.61	313.70
707.94	312.67
708.27	311.54
708.61	310.40
708.94	309.44
709.28	308.48
709.61	307.49
709.94	306.52
710.28	305.50
710.61	304.53
710.95	303.40
711.28	302.46
711.61	301.51
711.95	300.60
712.28	299.71
712.61	298.77
712.95	297.84
713.28	296.99
713.61	296.09
713.95	295.20
714.28	294.32
714.61	293.50
714.95	292.65
715.28	291.78
715.61	290.91
715.95	290.03
716.28	289.13
716.61	288.29
716.95	287.44
717.28	286.68
717.61	285.87
717.94	285.12
718.28	284.29
718.61	283.57
718.94	282.87
719.27	282.19
719.61	281.52
719.94	280.87
720.27	280.11
720.60	279.44
720.94	278.82
721.27	278.24
721.60	277.63
721.93	277.04
722.27	276.49
722.60	275.92
722.93	275.38
723.26	274.87
723.59	274.33
723.93	273.78
724.26	273.23
724.59	272.69
724.92	272.20
725.25	271.72
725.59	271.20
725.92	270.69
726.25	270.18
726.58	269.70
726.91	269.20
727.24	268.73
727.57	268.26
727.91	267.75
728.24	267.27
728.57	266.77
728.90	266.31
729.23	265.85
729.56	265.43
729.89	264.94
730.22	264.44
730.55	263.96
730.89	263.55
731.22	263.11
731.55	262.70
731.88	262.25
732.21	261.82
732.54	261.39
732.87	260.93
733.20	260.53
733.53	260.13
733.86	259.73
734.19	259.33
734.52	258.96
734.85	258.65
735.18	258.21
735.51	257.85
735.84	257.45
736.17	257.04
736.50	256.65
736.83	256.41
737.16	256.10
737.49	255.81
737.82	255.45
738.15	255.11
738.48	254.78
738.81	254.45
739.14	254.10
739.47	253.81
739.80	253.52
740.13	253.22
740.46	252.91
740.79	252.59
741.12	252.29
741.45	251.97
741.78	251.63
742.11	251.39
742.44	251.08
742.77	250.81
743.10	250.55
743.43	250.26
743.75	249.85
744.08	249.68
744.41	249.37
744.74	249.10
745.07	248.83
745.40	248.57
745.73	248.34
746.06	248.08
746.39	247.80
746.71	247.49
747.04	247.18
747.37	246.94
747.70	246.71
748.03	246.48
748.36	246.25
748.68	246.03
749.01	245.78
749.34	245.57
749.67	245.32
750.00	245.09
750.33	244.94
750.65	244.75
750.98	244.42
751.31	244.20
751.64	243.99
751.97	243.81
752.29	243.59
752.62	243.33
752.95	243.10
753.28	242.88
753.60	242.72
753.93	242.57
754.26	242.33
754.59	242.11
754.91	241.89
755.24	241.67
755.57	241.47
755.90	241.26
756.22	241.05
756.55	240.83
756.88	240.63
757.20	240.38
757.53	240.17
757.86	239.98
758.19	239.80
758.51	239.63
758.84	239.41
759.17	239.22
759.49	239.03
759.82	238.93
760.15	238.78
760.47	238.58
760.80	238.39
761.13	238.28
761.45	238.12
761.78	237.97
762.11	237.82
762.43	237.69
762.76	237.57
763.08	237.45
763.41	237.34
763.74	237.21
764.06	237.06
764.39	236.96
764.71	236.80
765.04	236.66
765.37	236.52
765.69	236.42
766.02	236.36
766.34	236.25
766.67	236.08
767.00	236.00
767.32	235.98
767.65	235.93
767.97	235.84
768.30	235.75
768.62	235.65
768.95	235.53
769.27	235.42
769.60	235.34
769.92	235.22
770.25	235.13
770.57	235.04
770.90	234.94
771.22	234.82
771.55	234.74
771.87	234.67
772.20	234.59
772.52	234.58
772.85	234.57
773.17	234.51
773.50	234.43
773.82	234.32
774.15	234.16
774.47	234.03
774.80	233.91
775.12	233.82
775.45	233.77
775.77	233.69
776.09	233.60
776.42	233.54
776.74	233.47
777.07	233.38
777.39	233.30
777.72	233.23
778.04	233.18
778.36	233.13
778.69	233.09
779.01	233.02
779.33	232.87
779.66	232.69
779.98	232.61
780.31	232.57
780.63	232.53
780.95	232.46
781.28	232.42
781.60	232.36
781.92	232.33
782.25	232.26
782.57	232.21
782.89	232.15
783.22	232.06
783.54	231.98
783.86	231.91
784.19	231.82
784.51	231.83
784.83	231.75
785.16	231.65
785.48	231.58
785.80	231.54
786.12	231.50
786.45	231.40
786.77	231.38
787.09	231.31
