SpectraSuite Data File
++++++++++++++++++++++++++++++++++++
Date: Fri Feb 01 15:27:22 EST 2013
User: group
Dark Spectrum Present: No
Reference Spectrum Present: No
Number of Sampled Component Spectra: 1
Spectrometers: USB2E7196
Integration Time (usec): 35000 (USB2E7196)
Spectra Averaged: 100 (USB2E7196)
Boxcar Smoothing: 10 (USB2E7196)
Correct for Electrical Dark: No (USB2E7196)
Strobe/Lamp Enabled: No (USB2E7196)
Correct for Detector Non-linearity: No (USB2E7196)
Correct for Stray Light: No (USB2E7196)
Number of Pixels in Processed Spectrum: 2048
>>>>>Begin Processed Spectral Data<<<<<
339.09	0.00
339.48	214.69
339.86	216.76
340.24	218.04
340.63	219.18
341.01	222.11
341.39	221.92
341.78	223.12
342.16	224.35
342.54	224.76
342.93	213.30
343.31	224.08
343.69	224.64
344.07	225.10
344.46	225.49
344.84	225.85
345.22	226.10
345.60	226.31
345.99	226.51
346.37	226.61
346.75	226.70
347.13	226.79
347.52	226.84
347.90	226.88
348.28	226.89
348.66	226.91
349.05	226.87
349.43	226.93
349.81	227.00
350.19	227.06
350.57	227.10
350.96	227.13
351.34	227.20
351.72	227.25
352.10	227.33
352.48	227.42
352.87	227.51
353.25	227.56
353.63	227.65
354.01	227.71
354.39	227.83
354.77	227.91
355.15	227.96
355.54	228.02
355.92	228.06
356.30	228.15
356.68	228.28
357.06	228.34
357.44	228.39
357.82	228.42
358.20	228.49
358.58	228.55
358.97	228.64
359.35	228.72
359.73	228.81
360.11	228.86
360.49	228.93
360.87	228.95
361.25	229.00
361.63	229.09
362.01	229.12
362.39	229.14
362.77	229.16
363.15	229.19
363.53	229.24
363.91	229.30
364.29	229.32
364.67	229.29
365.05	229.31
365.43	229.34
365.81	229.42
366.19	229.45
366.57	229.51
366.95	229.50
367.33	229.48
367.71	229.48
368.09	229.46
368.47	229.45
368.85	229.46
369.23	229.46
369.61	229.41
369.99	229.44
370.37	229.45
370.75	229.51
371.13	229.47
371.51	229.40
371.89	229.37
372.27	229.33
372.65	229.27
373.03	229.25
373.41	229.20
373.78	229.11
374.16	229.03
374.54	228.90
374.92	228.84
375.30	228.80
375.68	228.76
376.06	228.71
376.44	228.64
376.82	228.55
377.19	228.48
377.57	228.39
377.95	228.28
378.33	228.19
378.71	228.03
379.09	228.01
379.47	227.95
379.84	227.84
380.22	227.75
380.60	227.69
380.98	227.59
381.36	227.51
381.73	227.44
382.11	227.39
382.49	227.38
382.87	227.29
383.25	227.22
383.62	227.24
384.00	227.16
384.38	227.11
384.76	227.11
385.13	227.10
385.51	227.06
385.89	227.00
386.27	226.96
386.64	226.94
387.02	226.89
387.40	226.86
387.78	226.83
388.15	226.84
388.53	226.77
388.91	226.75
389.29	226.71
389.66	226.68
390.04	226.62
390.42	226.63
390.79	226.63
391.17	226.58
391.55	226.43
391.92	226.42
392.30	226.40
392.68	226.38
393.05	226.36
393.43	226.39
393.81	226.39
394.18	226.39
394.56	226.40
394.94	226.41
395.31	226.39
395.69	226.46
396.06	226.47
396.44	226.51
396.82	226.53
397.19	226.64
397.57	226.68
397.95	226.77
398.32	226.74
398.70	226.79
399.07	226.86
399.45	226.99
399.82	227.04
400.20	227.12
400.58	227.16
400.95	227.21
401.33	227.29
401.70	227.43
402.08	227.49
402.45	227.58
402.83	227.72
403.20	227.86
403.58	227.95
403.95	228.08
404.33	228.23
404.71	228.34
405.08	228.49
405.46	228.65
405.83	228.78
406.21	228.93
406.58	229.11
406.96	229.30
407.33	229.45
407.70	229.70
408.08	229.96
408.45	230.23
408.83	230.45
409.20	230.73
409.58	230.92
409.95	231.20
410.33	231.48
410.70	231.71
411.08	232.01
411.45	232.31
411.82	232.62
412.20	232.97
412.57	233.40
412.95	233.71
413.32	234.13
413.69	234.54
414.07	234.99
414.44	235.48
414.82	235.97
415.19	236.50
415.56	237.03
415.94	237.56
416.31	238.16
416.68	238.81
417.06	239.48
417.43	240.18
417.81	240.95
418.18	241.74
418.55	242.59
418.93	243.46
419.30	244.35
419.67	245.30
420.04	246.24
420.42	247.26
420.79	248.41
421.16	249.56
421.54	250.78
421.91	251.99
422.28	253.24
422.66	254.57
423.03	255.88
423.40	257.21
423.77	258.62
424.15	260.06
424.52	261.51
424.89	263.11
425.26	264.66
425.64	266.14
426.01	267.71
426.38	269.37
426.75	271.05
427.13	272.76
427.50	274.58
427.87	276.48
428.24	278.34
428.61	280.09
428.99	282.07
429.36	284.15
429.73	286.24
430.10	288.29
430.47	290.34
430.85	292.48
431.22	294.72
431.59	297.11
431.96	299.39
432.33	301.94
432.70	304.32
433.08	307.12
433.45	309.76
433.82	312.41
434.19	315.30
434.56	318.09
434.93	320.78
435.30	323.38
435.68	326.27
436.05	329.09
436.42	331.89
436.79	334.32
437.16	337.05
437.53	339.89
437.90	342.67
438.27	345.37
438.64	348.24
439.01	350.84
439.38	353.10
439.75	355.26
440.13	357.74
440.50	360.13
440.87	362.00
441.24	363.92
441.61	366.09
441.98	367.59
442.35	369.39
442.72	371.31
443.09	373.13
443.46	374.13
443.83	374.78
444.20	375.33
444.57	376.22
444.94	376.47
445.31	376.77
445.68	377.16
446.05	377.28
446.42	376.86
446.79	376.47
447.16	375.99
447.53	375.65
447.90	374.46
448.27	373.24
448.64	371.64
449.01	370.49
449.37	368.45
449.74	366.52
450.11	364.33
450.48	361.79
450.85	359.26
451.22	357.05
451.59	355.00
451.96	353.02
452.33	350.39
452.70	348.02
453.07	345.23
453.43	342.28
453.80	339.54
454.17	336.86
454.54	334.29
454.91	331.56
455.28	328.90
455.65	326.43
456.02	323.99
456.38	321.86
456.75	319.20
457.12	316.93
457.49	314.70
457.86	312.47
458.23	310.58
458.59	308.52
458.96	306.44
459.33	304.59
459.70	302.71
460.07	301.21
460.43	299.51
460.80	297.85
461.17	296.40
461.54	294.86
461.91	293.47
462.27	291.97
462.64	290.76
463.01	289.38
463.38	288.07
463.74	286.71
464.11	285.55
464.48	284.53
464.85	283.45
465.21	282.59
465.58	281.65
465.95	280.58
466.32	279.68
466.68	278.79
467.05	277.86
467.42	276.97
467.78	276.02
468.15	275.16
468.52	274.48
468.88	273.62
469.25	272.83
469.62	272.18
469.98	271.53
470.35	270.84
470.72	270.25
471.08	269.55
471.45	268.98
471.82	268.44
472.18	267.83
472.55	267.36
472.92	266.83
473.28	266.40
473.65	265.95
474.02	265.52
474.38	265.16
474.75	264.81
475.11	264.47
475.48	264.20
475.85	263.95
476.21	263.73
476.58	263.58
476.94	263.45
477.31	263.31
477.67	263.19
478.04	263.10
478.41	263.02
478.77	263.08
479.14	263.03
479.50	262.97
479.87	263.02
480.23	263.14
480.60	263.25
480.96	263.34
481.33	263.57
481.69	263.79
482.06	264.02
482.42	264.22
482.79	264.47
483.15	264.81
483.52	265.20
483.88	265.53
484.25	265.88
484.61	266.28
484.98	266.71
485.34	267.25
485.71	267.82
486.07	268.44
486.44	269.00
486.80	269.69
487.17	270.48
487.53	271.32
487.90	272.14
488.26	273.03
488.62	274.02
488.99	274.95
489.35	275.95
489.72	277.01
490.08	278.22
490.44	279.46
490.81	280.79
491.17	282.14
491.54	283.62
491.90	285.19
492.26	286.82
492.63	288.53
492.99	290.30
493.36	292.21
493.72	294.23
494.08	296.35
494.45	298.62
494.81	300.97
495.17	303.34
495.54	305.93
495.90	308.62
496.26	311.39
496.63	314.36
496.99	317.46
497.35	320.77
497.72	324.17
498.08	327.69
498.44	331.41
498.80	335.34
499.17	339.43
499.53	343.59
499.89	348.00
500.26	352.53
500.62	357.20
500.98	362.13
501.34	367.25
501.71	372.57
502.07	377.99
502.43	383.61
502.79	389.50
503.16	395.55
503.52	401.81
503.88	408.23
504.24	414.89
504.60	421.76
504.97	428.89
505.33	436.20
505.69	443.87
506.05	451.60
506.41	459.50
506.78	467.63
507.14	476.11
507.50	484.85
507.86	493.86
508.22	503.03
508.59	512.20
508.95	521.75
509.31	531.56
509.67	541.63
510.03	551.92
510.39	562.40
510.75	573.26
511.12	584.21
511.48	595.58
511.84	607.03
512.20	618.62
512.56	630.54
512.92	642.70
513.28	655.07
513.64	667.56
514.00	680.28
514.37	693.27
514.73	706.34
515.09	719.34
515.45	732.70
515.81	746.38
516.17	760.41
516.53	774.51
516.89	788.76
517.25	802.99
517.61	817.46
517.97	832.03
518.33	846.46
518.69	861.20
519.05	876.15
519.41	891.33
519.77	906.95
520.13	922.43
520.49	937.91
520.85	953.36
521.21	969.19
521.57	985.55
521.93	1001.35
522.29	1017.70
522.65	1033.99
523.01	1050.29
523.37	1066.41
523.73	1082.65
524.09	1098.82
524.45	1115.11
524.81	1131.90
525.17	1148.82
525.53	1165.72
525.89	1182.67
526.25	1199.61
526.61	1216.11
526.97	1232.90
527.33	1249.35
527.68	1266.04
528.04	1282.53
528.40	1299.25
528.76	1316.25
529.12	1332.79
529.48	1349.68
529.84	1365.82
530.20	1382.44
530.56	1399.50
530.91	1416.93
531.27	1433.76
531.63	1450.35
531.99	1467.03
532.35	1483.02
532.71	1498.86
533.07	1515.23
533.42	1530.99
533.78	1547.09
534.14	1563.39
534.50	1578.81
534.86	1594.82
535.21	1610.05
535.57	1626.17
535.93	1641.75
536.29	1656.68
536.65	1671.81
537.00	1686.77
537.36	1702.09
537.72	1716.84
538.08	1731.28
538.44	1745.03
538.79	1758.98
539.15	1772.73
539.51	1786.56
539.87	1800.88
540.22	1814.79
540.58	1828.63
540.94	1842.20
541.29	1855.33
541.65	1868.16
542.01	1881.59
542.37	1893.80
542.72	1906.29
543.08	1918.01
543.44	1930.50
543.79	1941.86
544.15	1952.97
544.51	1964.46
544.87	1975.46
545.22	1986.20
545.58	1996.39
545.94	2006.28
546.29	2016.22
546.65	2025.99
547.01	2035.25
547.36	2044.15
547.72	2052.63
548.07	2060.55
548.43	2068.75
548.79	2076.72
549.14	2084.29
549.50	2091.70
549.86	2099.60
550.21	2106.97
550.57	2114.33
550.92	2120.77
551.28	2127.89
551.64	2134.93
551.99	2141.45
552.35	2147.78
552.70	2153.95
553.06	2160.08
553.41	2166.39
553.77	2172.44
554.13	2178.55
554.48	2184.63
554.84	2190.00
555.19	2195.43
555.55	2200.42
555.90	2204.82
556.26	2209.60
556.61	2214.15
556.97	2218.21
557.32	2222.27
557.68	2226.46
558.03	2230.67
558.39	2234.48
558.74	2239.03
559.10	2242.74
559.45	2246.43
559.81	2250.53
560.16	2254.29
560.52	2257.37
560.87	2260.91
561.23	2263.53
561.58	2266.57
561.94	2269.18
562.29	2271.58
562.64	2274.06
563.00	2276.68
563.35	2280.21
563.71	2283.51
564.06	2286.78
564.42	2289.57
564.77	2291.97
565.12	2294.11
565.48	2295.73
565.83	2297.50
566.19	2298.61
566.54	2299.67
566.89	2300.89
567.25	2301.53
567.60	2302.92
567.96	2304.62
568.31	2305.50
568.66	2306.52
569.02	2306.92
569.37	2307.15
569.72	2307.78
570.08	2307.88
570.43	2307.96
570.78	2307.32
571.14	2305.73
571.49	2304.36
571.84	2304.04
572.20	2302.78
572.55	2301.80
572.90	2300.41
573.26	2298.96
573.61	2297.31
573.96	2295.49
574.31	2292.33
574.67	2289.12
575.02	2285.35
575.37	2281.88
575.72	2277.77
576.08	2274.57
576.43	2271.20
576.78	2267.46
577.13	2264.47
577.49	2261.37
577.84	2257.68
578.19	2253.91
578.54	2249.92
578.90	2245.55
579.25	2240.06
579.60	2235.17
579.95	2229.99
580.30	2224.81
580.66	2219.57
581.01	2214.64
581.36	2209.54
581.71	2205.30
582.06	2200.91
582.42	2196.28
582.77	2191.04
583.12	2186.45
583.47	2181.44
583.82	2176.41
584.17	2171.08
584.53	2165.47
584.88	2159.58
585.23	2153.74
585.58	2148.26
585.93	2142.82
586.28	2138.11
586.63	2132.88
586.98	2127.68
587.34	2122.90
587.69	2118.02
588.04	2112.76
588.39	2106.79
588.74	2100.32
589.09	2094.15
589.44	2087.27
589.79	2081.36
590.14	2075.74
590.49	2069.03
590.84	2062.49
591.19	2056.42
591.54	2049.89
591.89	2042.28
592.25	2035.61
592.60	2028.47
592.95	2020.73
593.30	2013.35
593.65	2005.66
594.00	1998.49
594.35	1991.26
594.70	1983.15
595.05	1975.83
595.40	1968.53
595.75	1961.09
596.10	1954.74
596.45	1947.81
596.80	1941.59
597.15	1934.79
597.50	1927.43
597.85	1921.10
598.19	1914.54
598.54	1907.33
598.89	1900.59
599.24	1894.65
599.59	1887.94
599.94	1881.58
600.29	1875.20
600.64	1868.57
600.99	1861.03
601.34	1854.10
601.69	1846.98
602.04	1839.93
602.39	1832.69
602.74	1825.69
603.08	1818.91
603.43	1812.17
603.78	1805.06
604.13	1797.89
604.48	1790.45
604.83	1783.70
605.18	1776.56
605.53	1768.48
605.87	1760.54
606.22	1753.33
606.57	1745.46
606.92	1738.02
607.27	1730.86
607.62	1724.01
607.96	1716.62
608.31	1709.93
608.66	1702.35
609.01	1694.84
609.36	1687.34
609.70	1679.16
610.05	1671.08
610.40	1663.30
610.75	1654.95
611.10	1647.18
611.44	1638.79
611.79	1630.93
612.14	1622.14
612.49	1613.05
612.83	1604.63
613.18	1596.46
613.53	1588.34
613.88	1579.84
614.22	1571.48
614.57	1562.87
614.92	1554.67
615.27	1547.07
615.61	1538.81
615.96	1530.80
616.31	1523.19
616.65	1515.81
617.00	1508.26
617.35	1500.70
617.70	1492.32
618.04	1483.81
618.39	1475.54
618.74	1467.79
619.08	1459.47
619.43	1451.95
619.78	1444.97
620.12	1437.80
620.47	1430.20
620.82	1422.13
621.16	1414.70
621.51	1407.09
621.85	1399.39
622.20	1390.95
622.55	1382.69
622.89	1374.77
623.24	1367.16
623.59	1359.72
623.93	1352.18
624.28	1344.91
624.62	1337.27
624.97	1330.19
625.32	1323.49
625.66	1316.50
626.01	1309.30
626.35	1301.82
626.70	1294.01
627.04	1286.19
627.39	1278.51
627.73	1271.06
628.08	1264.10
628.43	1256.67
628.77	1249.39
629.12	1241.79
629.46	1234.62
629.81	1227.20
630.15	1219.97
630.50	1212.55
630.84	1204.43
631.19	1196.51
631.53	1189.14
631.88	1181.61
632.22	1174.00
632.57	1166.66
632.91	1159.04
633.26	1151.75
633.60	1144.56
633.95	1137.58
634.29	1130.74
634.64	1124.08
634.98	1116.75
635.32	1109.61
635.67	1103.15
636.01	1096.49
636.36	1089.74
636.70	1083.26
637.05	1076.72
637.39	1070.31
637.73	1063.87
638.08	1058.00
638.42	1052.06
638.77	1045.50
639.11	1038.87
639.45	1032.48
639.80	1025.79
640.14	1019.29
640.49	1012.75
640.83	1006.39
641.17	1000.05
641.52	993.63
641.86	987.21
642.20	981.38
642.55	975.09
642.89	968.49
643.23	961.99
643.58	956.23
643.92	949.95
644.26	943.83
644.61	937.76
644.95	931.69
645.29	925.03
645.64	918.25
645.98	911.88
646.32	906.13
646.66	900.11
647.01	894.34
647.35	888.68
647.69	882.79
648.04	877.25
648.38	871.48
648.72	865.39
649.06	859.24
649.41	853.39
649.75	847.36
650.09	841.41
650.43	835.51
650.78	829.40
651.12	823.53
651.46	817.85
651.80	812.08
652.14	806.75
652.49	801.36
652.83	796.22
653.17	790.57
653.51	784.82
653.85	779.46
654.20	773.76
654.54	767.87
654.88	762.17
655.22	756.26
655.56	750.57
655.90	745.16
656.25	739.96
656.59	734.60
656.93	729.57
657.27	724.37
657.61	719.01
657.95	713.96
658.29	708.85
658.64	703.55
658.98	698.24
659.32	692.70
659.66	687.48
660.00	682.16
660.34	677.24
660.68	672.37
661.02	667.34
661.36	662.70
661.70	658.17
662.05	653.84
662.39	649.54
662.73	645.15
663.07	640.80
663.41	636.31
663.75	631.78
664.09	627.20
664.43	622.92
664.77	618.83
665.11	614.55
665.45	610.44
665.79	606.46
666.13	602.40
666.47	598.38
666.81	594.27
667.15	590.20
667.49	586.34
667.83	582.55
668.17	578.59
668.51	574.50
668.85	570.49
669.19	566.65
669.53	562.84
669.87	558.89
670.21	555.19
670.55	551.62
670.89	548.21
671.23	544.81
671.57	541.31
671.91	537.79
672.25	534.25
672.58	530.72
672.92	527.26
673.26	524.09
673.60	520.92
673.94	517.77
674.28	514.87
674.62	511.90
674.96	508.77
675.30	505.86
675.64	502.93
675.97	500.18
676.31	497.31
676.65	494.28
676.99	491.57
677.33	488.68
677.67	485.82
678.01	482.80
678.34	479.76
678.68	476.89
679.02	474.04
679.36	471.30
679.70	468.60
680.04	465.83
680.37	462.94
680.71	460.17
681.05	457.62
681.39	454.89
681.73	452.17
682.06	449.63
682.40	447.08
682.74	444.58
683.08	441.95
683.42	439.33
683.75	436.85
684.09	434.33
684.43	431.92
684.77	429.52
685.10	427.18
685.44	424.96
685.78	422.70
686.12	420.45
686.45	418.17
686.79	415.85
687.13	413.66
687.46	411.53
687.80	409.34
688.14	407.05
688.48	405.01
688.81	402.82
689.15	400.64
689.49	398.46
689.82	396.35
690.16	394.32
690.50	392.40
690.83	390.49
691.17	388.51
691.51	386.58
691.84	384.73
692.18	382.76
692.52	380.73
692.85	378.82
693.19	376.95
693.52	375.14
693.86	373.35
694.20	371.58
694.53	369.79
694.87	367.96
695.21	366.22
695.54	364.38
695.88	362.64
696.21	360.96
696.55	359.30
696.88	357.67
697.22	356.01
697.56	354.39
697.89	352.71
698.23	351.12
698.56	349.53
698.90	347.90
699.23	346.33
699.57	344.84
699.90	343.25
700.24	341.73
700.58	340.22
700.91	338.72
701.25	337.26
701.58	335.92
701.92	334.57
702.25	333.24
702.59	331.89
702.92	330.56
703.26	329.28
703.59	328.01
703.93	326.83
704.26	325.61
704.60	324.30
704.93	323.02
705.26	321.76
705.60	320.62
705.93	319.46
706.27	318.45
706.60	317.35
706.94	316.25
707.27	315.11
707.61	314.04
707.94	313.01
708.27	311.94
708.61	310.82
708.94	309.83
709.28	308.84
709.61	307.88
709.94	306.95
710.28	305.96
710.61	305.01
710.95	303.90
711.28	302.98
711.61	302.04
711.95	301.16
712.28	300.21
712.61	299.22
712.95	298.32
713.28	297.39
713.61	296.48
713.95	295.61
714.28	294.76
714.61	293.88
714.95	293.05
715.28	292.21
715.61	291.36
715.95	290.49
716.28	289.61
716.61	288.76
716.95	287.90
717.28	287.13
717.61	286.35
717.94	285.65
718.28	284.84
718.61	284.13
718.94	283.43
719.27	282.77
719.61	282.12
719.94	281.43
720.27	280.70
720.60	280.06
720.94	279.43
721.27	278.86
721.60	278.27
721.93	277.69
722.27	277.12
722.60	276.59
722.93	276.03
723.26	275.54
723.59	274.97
723.93	274.47
724.26	273.91
724.59	273.34
724.92	272.79
725.25	272.31
725.59	271.75
725.92	271.27
726.25	270.81
726.58	270.32
726.91	269.82
727.24	269.35
727.57	268.87
727.91	268.36
728.24	267.88
728.57	267.39
728.90	266.93
729.23	266.43
729.56	265.98
729.89	265.49
730.22	264.95
730.55	264.50
730.89	264.06
731.22	263.58
731.55	263.12
731.88	262.71
732.21	262.27
732.54	261.86
732.87	261.43
733.20	260.99
733.53	260.60
733.86	260.26
734.19	259.88
734.52	259.50
734.85	259.21
735.18	258.79
735.51	258.44
735.84	258.08
736.17	257.73
736.50	257.34
736.83	257.14
737.16	256.84
737.49	256.49
737.82	256.12
738.15	255.82
738.48	255.50
738.81	255.23
739.14	254.90
739.47	254.58
739.80	254.22
740.13	253.95
740.46	253.62
740.79	253.28
741.12	252.94
741.45	252.65
741.78	252.28
742.11	252.05
742.44	251.74
742.77	251.41
743.10	251.13
743.43	250.84
743.75	250.44
744.08	250.31
744.41	250.05
744.74	249.81
745.07	249.53
745.40	249.27
745.73	249.02
746.06	248.72
746.39	248.47
746.71	248.25
747.04	247.96
747.37	247.68
747.70	247.46
748.03	247.23
748.36	246.97
748.68	246.76
749.01	246.48
749.34	246.25
749.67	246.09
750.00	245.88
750.33	245.70
750.65	245.50
750.98	245.13
751.31	244.94
751.64	244.73
751.97	244.58
752.29	244.39
752.62	244.11
752.95	243.93
753.28	243.77
753.60	243.56
753.93	243.36
754.26	243.17
754.59	242.92
754.91	242.70
755.24	242.56
755.57	242.35
755.90	242.16
756.22	241.97
756.55	241.72
756.88	241.48
757.20	241.26
757.53	241.08
757.86	240.93
758.19	240.75
758.51	240.55
758.84	240.31
759.17	240.14
759.49	240.02
759.82	239.86
760.15	239.66
760.47	239.52
760.80	239.36
761.13	239.26
761.45	239.12
761.78	239.00
762.11	238.87
762.43	238.74
762.76	238.62
763.08	238.48
763.41	238.35
763.74	238.26
764.06	238.13
764.39	237.97
764.71	237.82
765.04	237.66
765.37	237.53
765.69	237.41
766.02	237.28
766.34	237.15
766.67	237.02
767.00	236.91
767.32	236.84
767.65	236.78
767.97	236.62
768.30	236.51
768.62	236.37
768.95	236.19
769.27	236.08
769.60	235.97
769.92	235.87
770.25	235.75
770.57	235.60
770.90	235.48
771.22	235.33
771.55	235.26
771.87	235.19
772.20	235.10
772.52	235.10
772.85	235.15
773.17	235.04
773.50	234.94
773.82	234.86
774.15	234.70
774.47	234.53
774.80	234.47
775.12	234.38
775.45	234.31
775.77	234.23
776.09	234.13
776.42	234.03
776.74	233.97
777.07	233.89
777.39	233.85
777.72	233.75
778.04	233.71
778.36	233.64
778.69	233.58
779.01	233.49
779.33	233.32
779.66	233.11
779.98	233.05
780.31	232.99
780.63	232.94
780.95	232.91
781.28	232.86
781.60	232.76
781.92	232.71
782.25	232.67
782.57	232.66
782.89	232.58
783.22	232.51
783.54	232.44
783.86	232.39
784.19	232.31
784.51	232.31
784.83	232.25
785.16	232.22
785.48	232.14
785.80	232.14
786.12	232.13
786.45	232.09
786.77	232.04
787.09	231.99
