SpectraSuite Data File
++++++++++++++++++++++++++++++++++++
Date: Fri Feb 01 17:18:37 EST 2013
User: group
Dark Spectrum Present: No
Reference Spectrum Present: No
Number of Sampled Component Spectra: 1
Spectrometers: USB2E7196
Integration Time (usec): 35000 (USB2E7196)
Spectra Averaged: 100 (USB2E7196)
Boxcar Smoothing: 10 (USB2E7196)
Correct for Electrical Dark: No (USB2E7196)
Strobe/Lamp Enabled: No (USB2E7196)
Correct for Detector Non-linearity: No (USB2E7196)
Correct for Stray Light: No (USB2E7196)
Number of Pixels in Processed Spectrum: 2048
>>>>>Begin Processed Spectral Data<<<<<
339.09	0.00
339.48	212.82
339.86	214.17
340.24	215.93
340.63	216.92
341.01	220.47
341.39	219.70
341.78	221.08
342.16	222.60
342.54	222.55
342.93	211.34
343.31	222.05
343.69	222.59
344.07	223.06
344.46	223.47
344.84	223.86
345.22	224.06
345.60	224.33
345.99	224.56
346.37	224.70
346.75	224.85
347.13	224.90
347.52	224.94
347.90	225.01
348.28	225.03
348.66	225.07
349.05	225.08
349.43	225.12
349.81	225.19
350.19	225.24
350.57	225.32
350.96	225.40
351.34	225.45
351.72	225.52
352.10	225.64
352.48	225.74
352.87	225.81
353.25	225.87
353.63	225.91
354.01	225.93
354.39	226.00
354.77	226.05
355.15	226.16
355.54	226.24
355.92	226.24
356.30	226.27
356.68	226.43
357.06	226.52
357.44	226.56
357.82	226.62
358.20	226.71
358.58	226.74
358.97	226.80
359.35	226.91
359.73	227.00
360.11	227.03
360.49	227.07
360.87	227.13
361.25	227.18
361.63	227.26
362.01	227.31
362.39	227.30
362.77	227.35
363.15	227.40
363.53	227.43
363.91	227.47
364.29	227.53
364.67	227.45
365.05	227.48
365.43	227.52
365.81	227.53
366.19	227.55
366.57	227.61
366.95	227.62
367.33	227.57
367.71	227.60
368.09	227.63
368.47	227.58
368.85	227.54
369.23	227.58
369.61	227.52
369.99	227.55
370.37	227.59
370.75	227.57
371.13	227.50
371.51	227.43
371.89	227.41
372.27	227.37
372.65	227.35
373.03	227.30
373.41	227.26
373.78	227.21
374.16	227.12
374.54	227.03
374.92	226.97
375.30	226.92
375.68	226.81
376.06	226.75
376.44	226.73
376.82	226.71
377.19	226.63
377.57	226.62
377.95	226.51
378.33	226.41
378.71	226.32
379.09	226.24
379.47	226.17
379.84	226.11
380.22	226.02
380.60	225.93
380.98	225.86
381.36	225.76
381.73	225.69
382.11	225.66
382.49	225.62
382.87	225.53
383.25	225.47
383.62	225.52
384.00	225.43
384.38	225.38
384.76	225.34
385.13	225.29
385.51	225.19
385.89	225.15
386.27	225.11
386.64	225.04
387.02	225.00
387.40	225.02
387.78	224.97
388.15	224.94
388.53	224.90
388.91	224.86
389.29	224.84
389.66	224.84
390.04	224.75
390.42	224.74
390.79	224.74
391.17	224.72
391.55	224.57
391.92	224.57
392.30	224.56
392.68	224.49
393.05	224.48
393.43	224.48
393.81	224.44
394.18	224.42
394.56	224.43
394.94	224.46
395.31	224.46
395.69	224.50
396.06	224.52
396.44	224.54
396.82	224.56
397.19	224.63
397.57	224.67
397.95	224.72
398.32	224.72
398.70	224.76
399.07	224.81
399.45	224.88
399.82	224.90
400.20	224.92
400.58	224.99
400.95	225.06
401.33	225.12
401.70	225.27
402.08	225.37
402.45	225.48
402.83	225.57
403.20	225.64
403.58	225.74
403.95	225.87
404.33	226.03
404.71	226.15
405.08	226.32
405.46	226.44
405.83	226.59
406.21	226.72
406.58	226.89
406.96	227.05
407.33	227.23
407.70	227.46
408.08	227.76
408.45	227.98
408.83	228.21
409.20	228.42
409.58	228.60
409.95	228.88
410.33	229.16
410.70	229.41
411.08	229.70
411.45	230.01
411.82	230.34
412.20	230.68
412.57	231.11
412.95	231.44
413.32	231.84
413.69	232.27
414.07	232.70
414.44	233.20
414.82	233.70
415.19	234.27
415.56	234.81
415.94	235.32
416.31	235.99
416.68	236.63
417.06	237.40
417.43	238.10
417.81	238.91
418.18	239.71
418.55	240.60
418.93	241.51
419.30	242.43
419.67	243.42
420.04	244.43
420.42	245.45
420.79	246.67
421.16	247.86
421.54	249.11
421.91	250.38
422.28	251.67
422.66	253.03
423.03	254.38
423.40	255.79
423.77	257.25
424.15	258.71
424.52	260.24
424.89	261.94
425.26	263.55
425.64	265.01
426.01	266.66
426.38	268.37
426.75	270.08
427.13	271.83
427.50	273.69
427.87	275.64
428.24	277.57
428.61	279.35
428.99	281.36
429.36	283.47
429.73	285.63
430.10	287.74
430.47	289.85
430.85	292.04
431.22	294.37
431.59	296.89
431.96	299.20
432.33	301.76
432.70	304.17
433.08	307.08
433.45	309.82
433.82	312.49
434.19	315.46
434.56	318.43
434.93	321.17
435.30	323.84
435.68	326.78
436.05	329.69
436.42	332.55
436.79	335.18
437.16	337.98
437.53	340.84
437.90	343.72
438.27	346.57
438.64	349.46
439.01	352.07
439.38	354.33
439.75	356.60
440.13	359.14
440.50	361.57
440.87	363.46
441.24	365.44
441.61	367.70
441.98	369.23
442.35	371.00
442.72	372.93
443.09	374.85
443.46	375.89
443.83	376.55
444.20	377.08
444.57	377.91
444.94	378.24
445.31	378.63
445.68	379.00
446.05	379.11
446.42	378.75
446.79	378.37
447.16	377.88
447.53	377.55
447.90	376.42
448.27	375.27
448.64	373.67
449.01	372.55
449.37	370.56
449.74	368.64
450.11	366.40
450.48	363.87
450.85	361.29
451.22	359.13
451.59	357.03
451.96	355.04
452.33	352.39
452.70	349.97
453.07	347.10
453.43	344.15
453.80	341.35
454.17	338.60
454.54	336.04
454.91	333.28
455.28	330.51
455.65	327.91
456.02	325.36
456.38	323.11
456.75	320.33
457.12	317.99
457.49	315.69
457.86	313.44
458.23	311.53
458.59	309.36
458.96	307.21
459.33	305.30
459.70	303.40
460.07	301.91
460.43	300.15
460.80	298.44
461.17	296.91
461.54	295.34
461.91	293.84
462.27	292.25
462.64	290.99
463.01	289.61
463.38	288.29
463.74	286.87
464.11	285.71
464.48	284.67
464.85	283.54
465.21	282.63
465.58	281.67
465.95	280.53
466.32	279.60
466.68	278.63
467.05	277.70
467.42	276.81
467.78	275.82
468.15	274.92
468.52	274.23
468.88	273.35
469.25	272.53
469.62	271.89
469.98	271.24
470.35	270.57
470.72	269.98
471.08	269.31
471.45	268.79
471.82	268.24
472.18	267.61
472.55	267.14
472.92	266.59
473.28	266.12
473.65	265.68
474.02	265.26
474.38	264.86
474.75	264.54
475.11	264.15
475.48	263.89
475.85	263.65
476.21	263.41
476.58	263.24
476.94	263.09
477.31	262.92
477.67	262.76
478.04	262.64
478.41	262.54
478.77	262.58
479.14	262.47
479.50	262.49
479.87	262.58
480.23	262.63
480.60	262.68
480.96	262.79
481.33	262.98
481.69	263.16
482.06	263.37
482.42	263.57
482.79	263.82
483.15	264.11
483.52	264.45
483.88	264.81
484.25	265.16
484.61	265.59
484.98	266.05
485.34	266.66
485.71	267.28
486.07	267.87
486.44	268.43
486.80	269.14
487.17	269.82
487.53	270.65
487.90	271.51
488.26	272.47
488.62	273.43
488.99	274.41
489.35	275.43
489.72	276.55
490.08	277.73
490.44	278.99
490.81	280.32
491.17	281.70
491.54	283.15
491.90	284.64
492.26	286.28
492.63	288.04
492.99	289.75
493.36	291.62
493.72	293.67
494.08	295.76
494.45	298.01
494.81	300.40
495.17	302.80
495.54	305.39
495.90	308.07
496.26	310.88
496.63	313.85
496.99	316.99
497.35	320.22
497.72	323.60
498.08	327.07
498.44	330.69
498.80	334.56
499.17	338.61
499.53	342.79
499.89	347.12
500.26	351.57
500.62	356.20
500.98	361.14
501.34	366.16
501.71	371.45
502.07	376.87
502.43	382.44
502.79	388.18
503.16	394.19
503.52	400.41
503.88	406.74
504.24	413.30
504.60	420.14
504.97	427.26
505.33	434.50
505.69	442.18
506.05	449.95
506.41	457.76
506.78	465.81
507.14	474.21
507.50	482.83
507.86	491.77
508.22	500.88
508.59	509.98
508.95	519.46
509.31	529.22
509.67	539.16
510.03	549.30
510.39	559.73
510.75	570.31
511.12	581.07
511.48	592.19
511.84	603.44
512.20	614.73
512.56	626.45
512.92	638.44
513.28	650.59
513.64	662.82
514.00	675.32
514.37	688.06
514.73	700.87
515.09	713.67
515.45	726.70
515.81	740.01
516.17	753.70
516.53	767.50
516.89	781.36
517.25	795.21
517.61	809.40
517.97	823.52
518.33	837.66
518.69	852.15
519.05	866.78
519.41	881.64
519.77	896.80
520.13	911.87
520.49	926.94
520.85	942.03
521.21	957.39
521.57	973.34
521.93	988.75
522.29	1004.79
522.65	1020.84
523.01	1036.73
523.37	1052.43
523.73	1068.23
524.09	1084.03
524.45	1099.90
524.81	1116.28
525.17	1132.60
525.53	1149.09
525.89	1165.60
526.25	1182.12
526.61	1198.18
526.97	1214.61
527.33	1230.81
527.68	1247.06
528.04	1263.14
528.40	1279.24
528.76	1295.92
529.12	1312.05
529.48	1328.68
529.84	1344.25
530.20	1360.37
530.56	1376.86
530.91	1393.89
531.27	1410.34
531.63	1426.42
531.99	1442.73
532.35	1458.44
532.71	1474.16
533.07	1490.12
533.42	1505.84
533.78	1521.48
534.14	1537.46
534.50	1552.53
534.86	1567.99
535.21	1582.97
535.57	1598.65
535.93	1613.99
536.29	1628.47
536.65	1643.25
537.00	1657.61
537.36	1672.88
537.72	1687.12
538.08	1701.46
538.44	1715.01
538.79	1728.67
539.15	1742.18
539.51	1755.65
539.87	1769.67
540.22	1783.05
540.58	1796.60
540.94	1809.65
541.29	1822.25
541.65	1834.93
542.01	1847.98
542.37	1860.28
542.72	1872.55
543.08	1884.34
543.44	1896.56
543.79	1908.00
544.15	1919.02
544.51	1930.60
544.87	1941.39
545.22	1952.30
545.58	1962.49
545.94	1972.40
546.29	1982.28
546.65	1992.24
547.01	2001.67
547.36	2010.36
547.72	2019.08
548.07	2027.21
548.43	2035.42
548.79	2043.52
549.14	2051.14
549.50	2058.44
549.86	2066.23
550.21	2073.60
550.57	2080.78
550.92	2087.58
551.28	2094.73
551.64	2102.00
551.99	2108.65
552.35	2115.15
552.70	2121.43
553.06	2127.73
553.41	2134.35
553.77	2140.63
554.13	2146.97
554.48	2153.25
554.84	2159.16
555.19	2164.69
555.55	2170.07
555.90	2174.98
556.26	2180.41
556.61	2185.32
556.97	2190.23
557.32	2194.56
557.68	2199.15
558.03	2203.86
558.39	2207.86
558.74	2212.59
559.10	2216.67
559.45	2220.65
559.81	2225.01
560.16	2229.16
560.52	2232.64
560.87	2236.13
561.23	2239.09
561.58	2242.05
561.94	2245.03
562.29	2247.55
562.64	2250.64
563.00	2253.52
563.35	2257.17
563.71	2260.63
564.06	2263.95
564.42	2267.04
564.77	2269.98
565.12	2272.69
565.48	2274.93
565.83	2277.29
566.19	2279.09
566.54	2280.30
566.89	2281.89
567.25	2283.02
567.60	2284.48
567.96	2286.54
568.31	2287.84
568.66	2289.40
569.02	2290.36
569.37	2290.86
569.72	2292.11
570.08	2292.42
570.43	2292.70
570.78	2292.59
571.14	2291.35
571.49	2290.35
571.84	2290.29
572.20	2289.58
572.55	2288.72
572.90	2287.29
573.26	2286.16
573.61	2284.71
573.96	2283.35
574.31	2280.65
574.67	2277.97
575.02	2274.80
575.37	2271.74
575.72	2268.38
576.08	2264.96
576.43	2261.93
576.78	2258.78
577.13	2255.78
577.49	2252.91
577.84	2249.92
578.19	2246.45
578.54	2243.25
578.90	2239.62
579.25	2234.28
579.60	2229.62
579.95	2224.86
580.30	2220.16
580.66	2215.32
581.01	2210.59
581.36	2205.87
581.71	2202.06
582.06	2197.94
582.42	2193.85
582.77	2188.85
583.12	2184.45
583.47	2180.29
583.82	2175.65
584.17	2170.57
584.53	2165.41
584.88	2160.07
585.23	2154.46
585.58	2149.12
585.93	2143.80
586.28	2138.98
586.63	2134.23
586.98	2129.36
587.34	2124.81
587.69	2120.11
588.04	2115.14
588.39	2109.72
588.74	2103.43
589.09	2097.42
589.44	2090.72
589.79	2084.62
590.14	2079.14
590.49	2072.68
590.84	2066.39
591.19	2060.63
591.54	2054.23
591.89	2047.19
592.25	2040.76
592.60	2033.69
592.95	2026.49
593.30	2019.16
593.65	2011.76
594.00	2004.83
594.35	1997.63
594.70	1989.76
595.05	1982.87
595.40	1975.49
595.75	1968.08
596.10	1962.22
596.45	1955.75
596.80	1949.85
597.15	1943.48
597.50	1936.67
597.85	1930.22
598.19	1923.76
598.54	1916.94
598.89	1910.53
599.24	1904.49
599.59	1897.98
599.94	1891.83
600.29	1885.34
600.64	1878.79
600.99	1871.58
601.34	1864.87
601.69	1857.92
602.04	1851.31
602.39	1843.91
602.74	1837.16
603.08	1830.56
603.43	1823.73
603.78	1816.32
604.13	1809.06
604.48	1801.97
604.83	1795.01
605.18	1788.41
605.53	1780.51
605.87	1772.43
606.22	1765.18
606.57	1757.31
606.92	1749.77
607.27	1742.78
607.62	1736.00
607.96	1728.91
608.31	1722.53
608.66	1715.00
609.01	1707.72
609.36	1700.13
609.70	1692.20
610.05	1684.20
610.40	1676.42
610.75	1668.16
611.10	1660.64
611.44	1652.11
611.79	1643.90
612.14	1635.27
612.49	1625.91
612.83	1617.40
613.18	1609.06
613.53	1600.97
613.88	1592.50
614.22	1584.18
614.57	1575.37
614.92	1567.39
615.27	1559.81
615.61	1551.27
615.96	1543.10
616.31	1535.09
616.65	1527.55
617.00	1519.95
617.35	1512.17
617.70	1503.87
618.04	1495.26
618.39	1486.71
618.74	1479.14
619.08	1470.91
619.43	1463.20
619.78	1456.18
620.12	1448.85
620.47	1441.38
620.82	1433.08
621.16	1425.37
621.51	1417.73
621.85	1409.90
622.20	1401.30
622.55	1392.73
622.89	1384.74
623.24	1376.99
623.59	1369.53
623.93	1361.93
624.28	1354.67
624.62	1347.01
624.97	1339.73
625.32	1332.82
625.66	1325.76
626.01	1318.50
626.35	1311.01
626.70	1303.12
627.04	1295.40
627.39	1287.56
627.73	1279.90
628.08	1272.88
628.43	1265.67
628.77	1258.21
629.12	1250.70
629.46	1243.43
629.81	1235.87
630.15	1228.48
630.50	1221.02
630.84	1212.91
631.19	1204.72
631.53	1196.94
631.88	1189.32
632.22	1181.65
632.57	1174.21
632.91	1166.49
633.26	1159.03
633.60	1151.43
633.95	1144.30
634.29	1137.03
634.64	1130.28
634.98	1122.95
635.32	1115.71
635.67	1108.97
636.01	1102.28
636.36	1095.43
636.70	1088.77
637.05	1082.10
637.39	1075.62
637.73	1069.13
638.08	1063.12
638.42	1057.23
638.77	1050.79
639.11	1044.21
639.45	1037.71
639.80	1031.08
640.14	1024.81
640.49	1018.34
640.83	1012.02
641.17	1005.71
641.52	999.49
641.86	993.05
642.20	987.20
642.55	980.75
642.89	974.29
643.23	967.55
643.58	961.74
643.92	955.61
644.26	949.70
644.61	943.63
644.95	937.59
645.29	931.02
645.64	924.26
645.98	917.88
646.32	911.87
646.66	905.92
647.01	900.06
647.35	894.26
647.69	888.12
648.04	882.58
648.38	876.78
648.72	870.75
649.06	864.67
649.41	858.68
649.75	852.83
650.09	846.88
650.43	841.20
650.78	835.04
651.12	828.93
651.46	823.16
651.80	817.48
652.14	812.00
652.49	806.60
652.83	801.38
653.17	795.80
653.51	790.24
653.85	784.70
654.20	779.14
654.54	773.19
654.88	767.48
655.22	761.56
655.56	755.76
655.90	750.23
656.25	744.94
656.59	739.60
656.93	734.43
657.27	729.22
657.61	723.66
657.95	718.54
658.29	713.49
658.64	708.10
658.98	702.65
659.32	697.11
659.66	691.84
660.00	686.55
660.34	681.48
660.68	676.43
661.02	671.35
661.36	666.56
661.70	661.98
662.05	657.58
662.39	653.23
662.73	648.80
663.07	644.37
663.41	639.89
663.75	635.36
664.09	630.78
664.43	626.39
664.77	622.35
665.11	618.06
665.45	613.78
665.79	609.76
666.13	605.62
666.47	601.48
666.81	597.31
667.15	593.12
667.49	589.17
667.83	585.26
668.17	581.34
668.51	577.24
668.85	573.14
669.19	569.25
669.53	565.36
669.87	561.47
670.21	557.72
670.55	554.05
670.89	550.61
671.23	547.14
671.57	543.59
671.91	540.03
672.25	536.48
672.58	533.04
672.92	529.56
673.26	526.40
673.60	523.22
673.94	520.06
674.28	517.08
674.62	514.11
674.96	511.01
675.30	508.04
675.64	505.14
675.97	502.32
676.31	499.43
676.65	496.49
676.99	493.74
677.33	490.87
677.67	487.99
678.01	484.93
678.34	482.00
678.68	479.06
679.02	476.12
679.36	473.32
679.70	470.57
680.04	467.79
680.37	464.88
680.71	462.07
681.05	459.47
681.39	456.74
681.73	454.02
682.06	451.54
682.40	448.99
682.74	446.38
683.08	443.82
683.42	441.24
683.75	438.73
684.09	436.10
684.43	433.62
684.77	431.16
685.10	428.76
685.44	426.36
685.78	424.06
686.12	421.84
686.45	419.53
686.79	417.20
687.13	414.97
687.46	412.77
687.80	410.53
688.14	408.28
688.48	406.22
688.81	403.97
689.15	401.75
689.49	399.54
689.82	397.44
690.16	395.31
690.50	393.34
690.83	391.37
691.17	389.42
691.51	387.45
691.84	385.57
692.18	383.68
692.52	381.74
692.85	379.73
693.19	377.82
693.52	375.93
693.86	374.04
694.20	372.18
694.53	370.38
694.87	368.52
695.21	366.71
695.54	364.85
695.88	363.17
696.21	361.42
696.55	359.73
696.88	357.98
697.22	356.28
697.56	354.61
697.89	352.94
698.23	351.28
698.56	349.67
698.90	348.07
699.23	346.40
699.57	344.78
699.90	343.24
700.24	341.62
700.58	340.12
700.91	338.65
701.25	337.24
701.58	335.87
701.92	334.52
702.25	333.13
702.59	331.75
702.92	330.39
703.26	329.05
703.59	327.77
703.93	326.61
704.26	325.37
704.60	324.08
704.93	322.82
705.26	321.57
705.60	320.35
705.93	319.17
706.27	318.12
706.60	317.09
706.94	315.99
707.27	314.89
707.61	313.81
707.94	312.76
708.27	311.64
708.61	310.50
708.94	309.46
709.28	308.46
709.61	307.47
709.94	306.51
710.28	305.52
710.61	304.48
710.95	303.37
711.28	302.44
711.61	301.49
711.95	300.54
712.28	299.59
712.61	298.65
712.95	297.70
713.28	296.77
713.61	295.84
713.95	294.95
714.28	294.11
714.61	293.20
714.95	292.34
715.28	291.52
715.61	290.67
715.95	289.83
716.28	288.96
716.61	288.07
716.95	287.22
717.28	286.42
717.61	285.66
717.94	284.92
718.28	284.11
718.61	283.33
718.94	282.63
719.27	281.98
719.61	281.30
719.94	280.63
720.27	279.93
720.60	279.25
720.94	278.61
721.27	277.97
721.60	277.41
721.93	276.81
722.27	276.22
722.60	275.70
722.93	275.13
723.26	274.59
723.59	274.08
723.93	273.47
724.26	272.93
724.59	272.35
724.92	271.81
725.25	271.30
725.59	270.81
725.92	270.30
726.25	269.73
726.58	269.20
726.91	268.68
727.24	268.15
727.57	267.67
727.91	267.18
728.24	266.72
728.57	266.21
728.90	265.73
729.23	265.19
729.56	264.72
729.89	264.17
730.22	263.66
730.55	263.17
730.89	262.74
731.22	262.28
731.55	261.82
731.88	261.37
732.21	260.93
732.54	260.43
732.87	259.99
733.20	259.57
733.53	259.18
733.86	258.81
734.19	258.43
734.52	258.03
734.85	257.68
735.18	257.27
735.51	256.90
735.84	256.50
736.17	256.18
736.50	255.76
736.83	255.58
737.16	255.25
737.49	254.91
737.82	254.58
738.15	254.28
738.48	253.98
738.81	253.67
739.14	253.36
739.47	253.06
739.80	252.73
740.13	252.47
740.46	252.12
740.79	251.79
741.12	251.49
741.45	251.17
741.78	250.84
742.11	250.52
742.44	250.18
742.77	249.93
743.10	249.59
743.43	249.29
743.75	248.87
744.08	248.73
744.41	248.46
744.74	248.19
745.07	247.86
745.40	247.61
745.73	247.37
746.06	247.08
746.39	246.83
746.71	246.59
747.04	246.29
747.37	246.03
747.70	245.79
748.03	245.53
748.36	245.32
748.68	245.07
749.01	244.85
749.34	244.65
749.67	244.41
750.00	244.21
750.33	244.06
750.65	243.83
750.98	243.48
751.31	243.26
751.64	243.03
751.97	242.88
752.29	242.64
752.62	242.39
752.95	242.16
753.28	241.92
753.60	241.67
753.93	241.47
754.26	241.28
754.59	241.04
754.91	240.80
755.24	240.57
755.57	240.37
755.90	240.17
756.22	239.95
756.55	239.73
756.88	239.51
757.20	239.28
757.53	239.07
757.86	238.90
758.19	238.74
758.51	238.58
758.84	238.35
759.17	238.18
759.49	238.03
759.82	237.93
760.15	237.78
760.47	237.63
760.80	237.47
761.13	237.33
761.45	237.18
761.78	237.04
762.11	236.91
762.43	236.78
762.76	236.64
763.08	236.52
763.41	236.43
763.74	236.30
764.06	236.14
764.39	236.01
764.71	235.84
765.04	235.65
765.37	235.51
765.69	235.38
766.02	235.25
766.34	235.10
766.67	234.89
767.00	234.78
767.32	234.74
767.65	234.66
767.97	234.55
768.30	234.43
768.62	234.32
768.95	234.18
769.27	234.03
769.60	233.94
769.92	233.79
770.25	233.67
770.57	233.57
770.90	233.48
771.22	233.41
771.55	233.31
771.87	233.25
772.20	233.13
772.52	233.13
772.85	233.14
773.17	233.04
773.50	232.96
773.82	232.86
774.15	232.74
774.47	232.59
774.80	232.50
775.12	232.42
775.45	232.34
775.77	232.26
776.09	232.19
776.42	232.11
776.74	232.07
777.07	231.95
777.39	231.85
777.72	231.79
778.04	231.71
778.36	231.65
778.69	231.56
779.01	231.51
779.33	231.33
779.66	231.16
779.98	231.10
780.31	231.04
780.63	231.03
780.95	230.94
781.28	230.89
781.60	230.82
781.92	230.74
782.25	230.69
782.57	230.62
782.89	230.55
783.22	230.49
783.54	230.40
783.86	230.35
784.19	230.30
784.51	230.25
784.83	230.21
785.16	230.15
785.48	230.12
785.80	230.07
786.12	230.05
786.45	230.06
786.77	230.04
787.09	229.97
