SpectraSuite Data File
++++++++++++++++++++++++++++++++++++
Date: Fri Feb 01 17:17:13 EST 2013
User: group
Dark Spectrum Present: No
Reference Spectrum Present: No
Number of Sampled Component Spectra: 1
Spectrometers: USB2E7196
Integration Time (usec): 35000 (USB2E7196)
Spectra Averaged: 100 (USB2E7196)
Boxcar Smoothing: 10 (USB2E7196)
Correct for Electrical Dark: No (USB2E7196)
Strobe/Lamp Enabled: No (USB2E7196)
Correct for Detector Non-linearity: No (USB2E7196)
Correct for Stray Light: No (USB2E7196)
Number of Pixels in Processed Spectrum: 2048
>>>>>Begin Processed Spectral Data<<<<<
339.09	0.00
339.48	213.37
339.86	214.80
340.24	216.17
340.63	216.98
341.01	220.41
341.39	220.68
341.78	221.68
342.16	223.01
342.54	223.66
342.93	211.67
343.31	222.37
343.69	222.90
344.07	223.37
344.46	223.77
344.84	224.15
345.22	224.38
345.60	224.60
345.99	224.77
346.37	224.88
346.75	224.95
347.13	225.01
347.52	225.06
347.90	225.15
348.28	225.21
348.66	225.24
349.05	225.19
349.43	225.26
349.81	225.30
350.19	225.36
350.57	225.42
350.96	225.48
351.34	225.56
351.72	225.63
352.10	225.72
352.48	225.79
352.87	225.83
353.25	225.91
353.63	225.96
354.01	226.04
354.39	226.14
354.77	226.20
355.15	226.33
355.54	226.39
355.92	226.38
356.30	226.45
356.68	226.57
357.06	226.70
357.44	226.72
357.82	226.79
358.20	226.81
358.58	226.87
358.97	226.92
359.35	226.96
359.73	227.03
360.11	227.09
360.49	227.18
360.87	227.24
361.25	227.26
361.63	227.37
362.01	227.39
362.39	227.40
362.77	227.47
363.15	227.46
363.53	227.48
363.91	227.54
364.29	227.54
364.67	227.48
365.05	227.47
365.43	227.51
365.81	227.54
366.19	227.64
366.57	227.66
366.95	227.67
367.33	227.67
367.71	227.64
368.09	227.65
368.47	227.63
368.85	227.62
369.23	227.62
369.61	227.56
369.99	227.56
370.37	227.58
370.75	227.57
371.13	227.53
371.51	227.50
371.89	227.49
372.27	227.49
372.65	227.46
373.03	227.42
373.41	227.39
373.78	227.33
374.16	227.23
374.54	227.15
374.92	227.08
375.30	227.03
375.68	226.98
376.06	226.89
376.44	226.81
376.82	226.77
377.19	226.72
377.57	226.63
377.95	226.51
378.33	226.42
378.71	226.32
379.09	226.28
379.47	226.23
379.84	226.14
380.22	226.08
380.60	226.02
380.98	225.94
381.36	225.88
381.73	225.81
382.11	225.76
382.49	225.69
382.87	225.62
383.25	225.62
383.62	225.69
384.00	225.60
384.38	225.54
384.76	225.51
385.13	225.51
385.51	225.45
385.89	225.41
386.27	225.38
386.64	225.34
387.02	225.27
387.40	225.21
387.78	225.16
388.15	225.09
388.53	225.05
388.91	225.04
389.29	225.00
389.66	224.96
390.04	224.94
390.42	224.93
390.79	224.91
391.17	224.85
391.55	224.72
391.92	224.72
392.30	224.73
392.68	224.71
393.05	224.71
393.43	224.70
393.81	224.72
394.18	224.69
394.56	224.67
394.94	224.70
395.31	224.70
395.69	224.75
396.06	224.77
396.44	224.75
396.82	224.74
397.19	224.81
397.57	224.85
397.95	224.87
398.32	224.91
398.70	224.94
399.07	224.98
399.45	225.04
399.82	225.09
400.20	225.11
400.58	225.14
400.95	225.14
401.33	225.26
401.70	225.37
402.08	225.47
402.45	225.57
402.83	225.69
403.20	225.80
403.58	225.90
403.95	226.01
404.33	226.19
404.71	226.31
405.08	226.50
405.46	226.63
405.83	226.80
406.21	226.94
406.58	227.13
406.96	227.29
407.33	227.46
407.70	227.68
408.08	227.97
408.45	228.23
408.83	228.46
409.20	228.62
409.58	228.81
409.95	229.07
410.33	229.32
410.70	229.54
411.08	229.84
411.45	230.16
411.82	230.46
412.20	230.80
412.57	231.23
412.95	231.50
413.32	231.92
413.69	232.32
414.07	232.76
414.44	233.21
414.82	233.72
415.19	234.31
415.56	234.85
415.94	235.38
416.31	236.00
416.68	236.66
417.06	237.43
417.43	238.15
417.81	238.90
418.18	239.72
418.55	240.63
418.93	241.54
419.30	242.43
419.67	243.39
420.04	244.34
420.42	245.36
420.79	246.59
421.16	247.73
421.54	248.96
421.91	250.22
422.28	251.50
422.66	252.88
423.03	254.21
423.40	255.59
423.77	257.07
424.15	258.55
424.52	260.10
424.89	261.77
425.26	263.35
425.64	264.88
426.01	266.50
426.38	268.17
426.75	269.86
427.13	271.63
427.50	273.53
427.87	275.49
428.24	277.41
428.61	279.18
428.99	281.21
429.36	283.33
429.73	285.45
430.10	287.58
430.47	289.69
430.85	291.87
431.22	294.11
431.59	296.57
431.96	298.89
432.33	301.38
432.70	303.80
433.08	306.69
433.45	309.40
433.82	312.10
434.19	315.10
434.56	318.00
434.93	320.78
435.30	323.44
435.68	326.39
436.05	329.27
436.42	332.15
436.79	334.76
437.16	337.53
437.53	340.44
437.90	343.30
438.27	346.08
438.64	348.97
439.01	351.66
439.38	353.96
439.75	356.17
440.13	358.72
440.50	361.13
440.87	363.03
441.24	365.06
441.61	367.29
441.98	368.82
442.35	370.70
442.72	372.60
443.09	374.48
443.46	375.51
443.83	376.15
444.20	376.67
444.57	377.54
444.94	377.86
445.31	378.22
445.68	378.59
446.05	378.72
446.42	378.38
446.79	378.01
447.16	377.56
447.53	377.27
447.90	376.15
448.27	375.02
448.64	373.44
449.01	372.25
449.37	370.25
449.74	368.32
450.11	366.04
450.48	363.54
450.85	360.95
451.22	358.78
451.59	356.70
451.96	354.77
452.33	352.11
452.70	349.72
453.07	346.87
453.43	343.91
453.80	341.07
454.17	338.30
454.54	335.67
454.91	332.91
455.28	330.14
455.65	327.60
456.02	325.03
456.38	322.76
456.75	320.07
457.12	317.76
457.49	315.47
457.86	313.19
458.23	311.23
458.59	309.15
458.96	307.02
459.33	305.10
459.70	303.17
460.07	301.60
460.43	299.82
460.80	298.13
461.17	296.61
461.54	295.10
461.91	293.64
462.27	292.13
462.64	290.85
463.01	289.45
463.38	288.08
463.74	286.70
464.11	285.50
464.48	284.45
464.85	283.28
465.21	282.39
465.58	281.48
465.95	280.38
466.32	279.44
466.68	278.50
467.05	277.58
467.42	276.66
467.78	275.69
468.15	274.78
468.52	274.08
468.88	273.23
469.25	272.43
469.62	271.78
469.98	271.12
470.35	270.47
470.72	269.86
471.08	269.19
471.45	268.61
471.82	268.06
472.18	267.44
472.55	266.99
472.92	266.42
473.28	265.93
473.65	265.49
474.02	265.03
474.38	264.66
474.75	264.34
475.11	263.95
475.48	263.70
475.85	263.48
476.21	263.24
476.58	263.06
476.94	262.92
477.31	262.73
477.67	262.57
478.04	262.43
478.41	262.40
478.77	262.45
479.14	262.42
479.50	262.45
479.87	262.50
480.23	262.58
480.60	262.68
480.96	262.78
481.33	262.98
481.69	263.17
482.06	263.38
482.42	263.55
482.79	263.85
483.15	264.18
483.52	264.61
483.88	264.97
484.25	265.35
484.61	265.74
484.98	266.23
485.34	266.81
485.71	267.41
486.07	267.96
486.44	268.55
486.80	269.26
487.17	269.97
487.53	270.78
487.90	271.62
488.26	272.57
488.62	273.52
488.99	274.49
489.35	275.55
489.72	276.64
490.08	277.88
490.44	279.11
490.81	280.39
491.17	281.70
491.54	283.20
491.90	284.73
492.26	286.41
492.63	288.14
492.99	289.89
493.36	291.77
493.72	293.84
494.08	295.91
494.45	298.15
494.81	300.57
495.17	303.04
495.54	305.57
495.90	308.21
496.26	310.99
496.63	313.92
496.99	316.99
497.35	320.28
497.72	323.66
498.08	327.15
498.44	330.82
498.80	334.76
499.17	338.76
499.53	342.90
499.89	347.21
500.26	351.69
500.62	356.33
500.98	361.29
501.34	366.35
501.71	371.60
502.07	377.01
502.43	382.50
502.79	388.23
503.16	394.25
503.52	400.50
503.88	406.87
504.24	413.47
504.60	420.28
504.97	427.37
505.33	434.60
505.69	442.27
506.05	449.92
506.41	457.67
506.78	465.68
507.14	474.02
507.50	482.59
507.86	491.48
508.22	500.59
508.59	509.65
508.95	519.05
509.31	528.75
509.67	538.76
510.03	548.91
510.39	559.40
510.75	570.05
511.12	580.78
511.48	591.86
511.84	603.14
512.20	614.45
512.56	626.13
512.92	638.07
513.28	650.22
513.64	662.56
514.00	675.10
514.37	687.89
514.73	700.83
515.09	713.68
515.45	726.74
515.81	740.06
516.17	753.79
516.53	767.70
516.89	781.62
517.25	795.51
517.61	809.71
517.97	823.80
518.33	837.93
518.69	852.45
519.05	867.16
519.41	882.02
519.77	897.25
520.13	912.37
520.49	927.50
520.85	942.48
521.21	957.80
521.57	973.66
521.93	989.11
522.29	1005.05
522.65	1021.03
523.01	1036.82
523.37	1052.54
523.73	1068.34
524.09	1084.09
524.45	1100.01
524.81	1116.31
525.17	1132.66
525.53	1149.20
525.89	1165.75
526.25	1182.16
526.61	1198.28
526.97	1214.79
527.33	1230.97
527.68	1247.10
528.04	1263.29
528.40	1279.51
528.76	1296.26
529.12	1312.56
529.48	1329.09
529.84	1344.72
530.20	1360.91
530.56	1377.68
530.91	1394.76
531.27	1411.29
531.63	1427.45
531.99	1443.68
532.35	1459.37
532.71	1474.99
533.07	1491.06
533.42	1506.76
533.78	1522.57
534.14	1538.48
534.50	1553.31
534.86	1568.82
535.21	1583.96
535.57	1599.57
535.93	1614.82
536.29	1629.39
536.65	1644.13
537.00	1658.62
537.36	1673.83
537.72	1688.13
538.08	1702.23
538.44	1715.74
538.79	1729.39
539.15	1742.69
539.51	1756.29
539.87	1770.51
540.22	1783.98
540.58	1797.47
540.94	1810.55
541.29	1823.18
541.65	1835.52
542.01	1848.81
542.37	1860.99
542.72	1873.28
543.08	1885.04
543.44	1897.44
543.79	1908.70
544.15	1919.64
544.51	1931.20
544.87	1942.01
545.22	1952.88
545.58	1963.12
545.94	1972.95
546.29	1982.85
546.65	1992.86
547.01	2002.37
547.36	2011.02
547.72	2019.73
548.07	2027.71
548.43	2035.92
548.79	2044.00
549.14	2052.03
549.50	2059.40
549.86	2067.24
550.21	2074.61
550.57	2081.95
550.92	2088.66
551.28	2095.82
551.64	2103.10
551.99	2109.79
552.35	2116.22
552.70	2122.42
553.06	2128.78
553.41	2135.37
553.77	2141.52
554.13	2147.85
554.48	2154.01
554.84	2159.99
555.19	2165.43
555.55	2170.82
555.90	2175.62
556.26	2181.01
556.61	2185.89
556.97	2190.56
557.32	2195.06
557.68	2199.52
558.03	2203.87
558.39	2207.83
558.74	2212.69
559.10	2216.85
559.45	2220.65
559.81	2225.09
560.16	2229.24
560.52	2232.67
560.87	2236.36
561.23	2239.24
561.58	2242.27
561.94	2245.20
562.29	2247.52
562.64	2250.71
563.00	2253.55
563.35	2257.27
563.71	2260.60
564.06	2263.99
564.42	2267.12
564.77	2269.98
565.12	2272.73
565.48	2275.15
565.83	2277.45
566.19	2279.09
566.54	2280.19
566.89	2281.89
567.25	2282.95
567.60	2284.58
567.96	2286.68
568.31	2287.81
568.66	2289.28
569.02	2290.23
569.37	2290.80
569.72	2292.11
570.08	2292.52
570.43	2292.77
570.78	2292.55
571.14	2291.23
571.49	2290.24
571.84	2290.22
572.20	2289.39
572.55	2288.41
572.90	2287.00
573.26	2285.89
573.61	2284.43
573.96	2283.33
574.31	2280.54
574.67	2277.84
575.02	2274.58
575.37	2271.25
575.72	2267.83
576.08	2264.68
576.43	2261.55
576.78	2258.34
577.13	2255.25
577.49	2252.31
577.84	2249.32
578.19	2245.83
578.54	2242.63
578.90	2238.87
579.25	2233.46
579.60	2228.91
579.95	2224.38
580.30	2219.55
580.66	2214.63
581.01	2209.75
581.36	2204.81
581.71	2200.98
582.06	2196.97
582.42	2192.82
582.77	2187.98
583.12	2183.62
583.47	2179.45
583.82	2174.95
584.17	2169.88
584.53	2164.65
584.88	2159.32
585.23	2153.86
585.58	2148.65
585.93	2143.36
586.28	2138.53
586.63	2133.73
586.98	2128.81
587.34	2124.10
587.69	2119.40
588.04	2114.46
588.39	2109.19
588.74	2102.88
589.09	2096.93
589.44	2090.13
589.79	2084.02
590.14	2078.54
590.49	2072.11
590.84	2065.72
591.19	2059.81
591.54	2053.43
591.89	2046.52
592.25	2040.00
592.60	2032.86
592.95	2025.54
593.30	2018.40
593.65	2010.88
594.00	2004.01
594.35	1996.85
594.70	1988.87
595.05	1982.07
595.40	1974.79
595.75	1967.49
596.10	1961.56
596.45	1954.97
596.80	1949.06
597.15	1942.64
597.50	1935.87
597.85	1929.56
598.19	1923.00
598.54	1916.22
598.89	1909.72
599.24	1903.68
599.59	1897.24
599.94	1891.12
600.29	1884.78
600.64	1878.25
600.99	1871.07
601.34	1864.40
601.69	1857.26
602.04	1850.70
602.39	1843.37
602.74	1836.64
603.08	1830.01
603.43	1823.33
603.78	1816.02
604.13	1808.81
604.48	1801.80
604.83	1794.90
605.18	1788.15
605.53	1780.40
605.87	1772.38
606.22	1765.12
606.57	1757.35
606.92	1749.68
607.27	1742.55
607.62	1735.77
607.96	1728.63
608.31	1722.24
608.66	1714.56
609.01	1707.30
609.36	1699.84
609.70	1691.84
610.05	1683.83
610.40	1676.07
610.75	1667.71
611.10	1660.04
611.44	1651.49
611.79	1643.48
612.14	1634.74
612.49	1625.40
612.83	1616.84
613.18	1608.48
613.53	1600.43
613.88	1591.76
614.22	1583.50
614.57	1574.74
614.92	1566.62
615.27	1559.08
615.61	1550.64
615.96	1542.59
616.31	1534.77
616.65	1527.14
617.00	1519.54
617.35	1511.72
617.70	1503.47
618.04	1495.01
618.39	1486.64
618.74	1479.11
619.08	1470.58
619.43	1463.00
619.78	1456.04
620.12	1448.79
620.47	1441.29
620.82	1432.93
621.16	1425.36
621.51	1417.65
621.85	1409.95
622.20	1401.30
622.55	1392.68
622.89	1384.73
623.24	1376.86
623.59	1369.31
623.93	1361.77
624.28	1354.41
624.62	1346.81
624.97	1339.42
625.32	1332.41
625.66	1325.38
626.01	1318.13
626.35	1310.78
626.70	1302.84
627.04	1295.10
627.39	1287.24
627.73	1279.73
628.08	1272.76
628.43	1265.62
628.77	1258.24
629.12	1250.71
629.46	1243.50
629.81	1235.96
630.15	1228.57
630.50	1221.33
630.84	1213.18
631.19	1205.09
631.53	1197.45
631.88	1189.83
632.22	1182.19
632.57	1174.81
632.91	1167.11
633.26	1159.58
633.60	1152.01
633.95	1144.67
634.29	1137.40
634.64	1130.59
634.98	1123.19
635.32	1116.04
635.67	1109.15
636.01	1102.38
636.36	1095.57
636.70	1088.98
637.05	1082.42
637.39	1075.89
637.73	1069.27
638.08	1063.38
638.42	1057.40
638.77	1050.88
639.11	1044.39
639.45	1037.87
639.80	1031.14
640.14	1024.79
640.49	1018.25
640.83	1011.89
641.17	1005.76
641.52	999.51
641.86	993.02
642.20	987.15
642.55	980.66
642.89	974.14
643.23	967.48
643.58	961.59
643.92	955.32
644.26	949.32
644.61	943.22
644.95	937.27
645.29	930.64
645.64	923.89
645.98	917.64
646.32	911.51
646.66	905.40
647.01	899.63
647.35	893.90
647.69	887.94
648.04	882.36
648.38	876.64
648.72	870.63
649.06	864.67
649.41	858.68
649.75	852.71
650.09	846.77
650.43	841.07
650.78	834.86
651.12	828.88
651.46	823.05
651.80	817.40
652.14	811.87
652.49	806.47
652.83	801.22
653.17	795.50
653.51	789.87
653.85	784.50
654.20	778.87
654.54	772.77
654.88	767.03
655.22	761.05
655.56	755.22
655.90	749.64
656.25	744.31
656.59	738.98
656.93	733.90
657.27	728.80
657.61	723.27
657.95	718.15
658.29	713.05
658.64	707.70
658.98	702.27
659.32	696.73
659.66	691.50
660.00	686.11
660.34	681.10
660.68	676.11
661.02	671.11
661.36	666.37
661.70	661.85
662.05	657.54
662.39	653.31
662.73	648.81
663.07	644.41
663.41	639.94
663.75	635.43
664.09	630.88
664.43	626.45
664.77	622.42
665.11	618.17
665.45	613.99
665.79	609.88
666.13	605.81
666.47	601.71
666.81	597.51
667.15	593.45
667.49	589.51
667.83	585.63
668.17	581.64
668.51	577.51
668.85	573.42
669.19	569.40
669.53	565.55
669.87	561.74
670.21	558.00
670.55	554.28
670.89	550.80
671.23	547.34
671.57	543.70
671.91	540.12
672.25	536.52
672.58	532.95
672.92	529.50
673.26	526.18
673.60	522.98
673.94	519.87
674.28	516.88
674.62	513.94
674.96	510.85
675.30	507.92
675.64	505.00
675.97	502.24
676.31	499.40
676.65	496.40
676.99	493.63
677.33	490.73
677.67	487.95
678.01	484.90
678.34	481.93
678.68	479.06
679.02	476.19
679.36	473.42
679.70	470.70
680.04	467.98
680.37	465.20
680.71	462.34
681.05	459.65
681.39	456.87
681.73	454.10
682.06	451.61
682.40	449.01
682.74	446.44
683.08	443.82
683.42	441.15
683.75	438.65
684.09	436.02
684.43	433.53
684.77	431.01
685.10	428.64
685.44	426.21
685.78	423.93
686.12	421.68
686.45	419.37
686.79	417.07
687.13	414.82
687.46	412.58
687.80	410.42
688.14	408.16
688.48	406.17
688.81	403.97
689.15	401.77
689.49	399.56
689.82	397.44
690.16	395.34
690.50	393.40
690.83	391.44
691.17	389.44
691.51	387.50
691.84	385.65
692.18	383.72
692.52	381.80
692.85	379.84
693.19	377.92
693.52	376.02
693.86	374.15
694.20	372.37
694.53	370.57
694.87	368.70
695.21	366.93
695.54	364.99
695.88	363.24
696.21	361.45
696.55	359.78
696.88	358.04
697.22	356.34
697.56	354.64
697.89	352.95
698.23	351.34
698.56	349.69
698.90	348.09
699.23	346.44
699.57	344.84
699.90	343.26
700.24	341.66
700.58	340.12
700.91	338.66
701.25	337.14
701.58	335.76
701.92	334.38
702.25	332.94
702.59	331.63
702.92	330.26
703.26	328.94
703.59	327.63
703.93	326.44
704.26	325.22
704.60	323.97
704.93	322.65
705.26	321.35
705.60	320.21
705.93	319.02
706.27	317.94
706.60	316.91
706.94	315.80
707.27	314.68
707.61	313.61
707.94	312.52
708.27	311.47
708.61	310.32
708.94	309.31
709.28	308.31
709.61	307.32
709.94	306.38
710.28	305.35
710.61	304.35
710.95	303.24
711.28	302.30
711.61	301.35
711.95	300.46
712.28	299.55
712.61	298.49
712.95	297.54
713.28	296.63
713.61	295.67
713.95	294.80
714.28	293.97
714.61	293.11
714.95	292.27
715.28	291.38
715.61	290.52
715.95	289.65
716.28	288.78
716.61	287.93
716.95	287.08
717.28	286.29
717.61	285.50
717.94	284.77
718.28	283.99
718.61	283.21
718.94	282.48
719.27	281.83
719.61	281.20
719.94	280.54
720.27	279.82
720.60	279.16
720.94	278.50
721.27	277.89
721.60	277.29
721.93	276.67
722.27	276.13
722.60	275.57
722.93	275.04
723.26	274.49
723.59	273.94
723.93	273.38
724.26	272.83
724.59	272.25
724.92	271.70
725.25	271.15
725.59	270.63
725.92	270.10
726.25	269.58
726.58	269.05
726.91	268.53
727.24	268.02
727.57	267.56
727.91	267.06
728.24	266.54
728.57	266.06
728.90	265.61
729.23	265.10
729.56	264.65
729.89	264.11
730.22	263.60
730.55	263.10
730.89	262.66
731.22	262.24
731.55	261.82
731.88	261.38
732.21	260.97
732.54	260.52
732.87	260.09
733.20	259.63
733.53	259.25
733.86	258.83
734.19	258.45
734.52	258.03
734.85	257.71
735.18	257.27
735.51	256.89
735.84	256.50
736.17	256.11
736.50	255.70
736.83	255.47
737.16	255.19
737.49	254.85
737.82	254.50
738.15	254.13
738.48	253.79
738.81	253.46
739.14	253.09
739.47	252.79
739.80	252.46
740.13	252.18
740.46	251.86
740.79	251.54
741.12	251.22
741.45	250.89
741.78	250.54
742.11	250.33
742.44	250.00
742.77	249.71
743.10	249.44
743.43	249.19
743.75	248.83
744.08	248.64
744.41	248.37
744.74	248.09
745.07	247.84
745.40	247.59
745.73	247.36
746.06	247.09
746.39	246.86
746.71	246.61
747.04	246.35
747.37	246.08
747.70	245.86
748.03	245.62
748.36	245.38
748.68	245.16
749.01	244.87
749.34	244.63
749.67	244.39
750.00	244.15
750.33	243.99
750.65	243.76
750.98	243.42
751.31	243.20
751.64	243.03
751.97	242.86
752.29	242.63
752.62	242.37
752.95	242.17
753.28	241.96
753.60	241.76
753.93	241.57
754.26	241.34
754.59	241.14
754.91	240.94
755.24	240.74
755.57	240.54
755.90	240.37
756.22	240.17
756.55	239.97
756.88	239.75
757.20	239.51
757.53	239.34
757.86	239.18
758.19	239.02
758.51	238.82
758.84	238.61
759.17	238.47
759.49	238.33
759.82	238.22
760.15	238.06
760.47	237.89
760.80	237.70
761.13	237.59
761.45	237.43
761.78	237.30
762.11	237.17
762.43	237.00
762.76	236.87
763.08	236.74
763.41	236.61
763.74	236.52
764.06	236.35
764.39	236.22
764.71	236.04
765.04	235.88
765.37	235.71
765.69	235.56
766.02	235.39
766.34	235.25
766.67	235.06
767.00	234.93
767.32	234.85
767.65	234.79
767.97	234.65
768.30	234.52
768.62	234.36
768.95	234.20
769.27	234.06
769.60	233.94
769.92	233.79
770.25	233.65
770.57	233.52
770.90	233.42
771.22	233.28
771.55	233.20
771.87	233.11
772.20	233.00
772.52	233.01
772.85	233.04
773.17	232.94
773.50	232.84
773.82	232.73
774.15	232.61
774.47	232.49
774.80	232.41
775.12	232.32
775.45	232.27
775.77	232.22
776.09	232.18
776.42	232.08
776.74	232.08
777.07	232.02
777.39	231.95
777.72	231.85
778.04	231.81
778.36	231.74
778.69	231.69
779.01	231.65
779.33	231.47
779.66	231.30
779.98	231.23
780.31	231.19
780.63	231.17
780.95	231.08
781.28	231.00
781.60	230.90
781.92	230.81
782.25	230.74
782.57	230.67
782.89	230.57
783.22	230.51
783.54	230.42
783.86	230.37
784.19	230.29
784.51	230.28
784.83	230.18
785.16	230.13
785.48	230.07
785.80	230.02
786.12	229.99
786.45	229.94
786.77	229.87
787.09	229.80
