SpectraSuite Data File
++++++++++++++++++++++++++++++++++++
Date: Fri Feb 01 16:08:45 EST 2013
User: group
Dark Spectrum Present: No
Reference Spectrum Present: No
Number of Sampled Component Spectra: 1
Spectrometers: USB2E7196
Integration Time (usec): 35000 (USB2E7196)
Spectra Averaged: 100 (USB2E7196)
Boxcar Smoothing: 10 (USB2E7196)
Correct for Electrical Dark: No (USB2E7196)
Strobe/Lamp Enabled: No (USB2E7196)
Correct for Detector Non-linearity: No (USB2E7196)
Correct for Stray Light: No (USB2E7196)
Number of Pixels in Processed Spectrum: 2048
>>>>>Begin Processed Spectral Data<<<<<
339.09	0.00
339.48	214.67
339.86	216.14
340.24	216.82
340.63	219.26
341.01	221.66
341.39	221.20
341.78	223.11
342.16	224.26
342.54	225.14
342.93	212.89
343.31	223.65
343.69	224.20
344.07	224.65
344.46	225.07
344.84	225.40
345.22	225.66
345.60	225.90
345.99	226.07
346.37	226.19
346.75	226.24
347.13	226.32
347.52	226.40
347.90	226.46
348.28	226.52
348.66	226.55
349.05	226.57
349.43	226.59
349.81	226.63
350.19	226.63
350.57	226.70
350.96	226.77
351.34	226.84
351.72	226.94
352.10	227.01
352.48	227.09
352.87	227.17
353.25	227.19
353.63	227.26
354.01	227.34
354.39	227.41
354.77	227.51
355.15	227.64
355.54	227.69
355.92	227.74
356.30	227.79
356.68	227.95
357.06	228.01
357.44	228.04
357.82	228.11
358.20	228.23
358.58	228.27
358.97	228.36
359.35	228.43
359.73	228.46
360.11	228.53
360.49	228.60
360.87	228.66
361.25	228.73
361.63	228.82
362.01	228.86
362.39	228.91
362.77	228.95
363.15	228.95
363.53	228.98
363.91	229.01
364.29	229.04
364.67	228.96
365.05	228.97
365.43	229.02
365.81	229.04
366.19	229.09
366.57	229.17
366.95	229.16
367.33	229.17
367.71	229.19
368.09	229.24
368.47	229.23
368.85	229.18
369.23	229.19
369.61	229.13
369.99	229.14
370.37	229.13
370.75	229.16
371.13	229.14
371.51	229.10
371.89	229.06
372.27	229.04
372.65	228.99
373.03	228.96
373.41	228.88
373.78	228.83
374.16	228.70
374.54	228.59
374.92	228.53
375.30	228.46
375.68	228.38
376.06	228.27
376.44	228.22
376.82	228.19
377.19	228.13
377.57	228.04
377.95	227.90
378.33	227.82
378.71	227.69
379.09	227.59
379.47	227.53
379.84	227.45
380.22	227.37
380.60	227.29
380.98	227.19
381.36	227.14
381.73	227.07
382.11	227.03
382.49	226.98
382.87	226.89
383.25	226.83
383.62	226.85
384.00	226.74
384.38	226.65
384.76	226.60
385.13	226.59
385.51	226.57
385.89	226.51
386.27	226.45
386.64	226.38
387.02	226.35
387.40	226.32
387.78	226.30
388.15	226.23
388.53	226.17
388.91	226.16
389.29	226.11
389.66	226.09
390.04	226.05
390.42	226.03
390.79	225.99
391.17	225.96
391.55	225.86
391.92	225.88
392.30	225.90
392.68	225.87
393.05	225.83
393.43	225.81
393.81	225.84
394.18	225.86
394.56	225.89
394.94	225.92
395.31	225.93
395.69	225.96
396.06	226.04
396.44	226.09
396.82	226.12
397.19	226.23
397.57	226.25
397.95	226.31
398.32	226.32
398.70	226.42
399.07	226.49
399.45	226.54
399.82	226.60
400.20	226.65
400.58	226.73
400.95	226.76
401.33	226.86
401.70	226.96
402.08	227.06
402.45	227.14
402.83	227.26
403.20	227.35
403.58	227.43
403.95	227.53
404.33	227.67
404.71	227.79
405.08	227.94
405.46	228.06
405.83	228.23
406.21	228.39
406.58	228.54
406.96	228.72
407.33	228.91
407.70	229.11
408.08	229.37
408.45	229.61
408.83	229.84
409.20	230.07
409.58	230.31
409.95	230.58
410.33	230.86
410.70	231.07
411.08	231.40
411.45	231.72
411.82	232.02
412.20	232.37
412.57	232.78
412.95	233.06
413.32	233.48
413.69	233.88
414.07	234.36
414.44	234.81
414.82	235.27
415.19	235.79
415.56	236.35
415.94	236.91
416.31	237.53
416.68	238.16
417.06	238.89
417.43	239.53
417.81	240.27
418.18	241.03
418.55	241.90
418.93	242.76
419.30	243.69
419.67	244.60
420.04	245.54
420.42	246.56
420.79	247.77
421.16	248.89
421.54	250.09
421.91	251.27
422.28	252.53
422.66	253.87
423.03	255.17
423.40	256.52
423.77	257.91
424.15	259.33
424.52	260.84
424.89	262.41
425.26	264.00
425.64	265.45
426.01	267.07
426.38	268.68
426.75	270.34
427.13	272.04
427.50	273.85
427.87	275.71
428.24	277.49
428.61	279.25
428.99	281.22
429.36	283.31
429.73	285.41
430.10	287.42
430.47	289.47
430.85	291.63
431.22	293.83
431.59	296.20
431.96	298.41
432.33	300.88
432.70	303.27
433.08	306.03
433.45	308.69
433.82	311.28
434.19	314.19
434.56	316.98
434.93	319.60
435.30	322.20
435.68	325.14
436.05	328.01
436.42	330.79
436.79	333.29
437.16	335.99
437.53	338.83
437.90	341.66
438.27	344.36
438.64	347.13
439.01	349.72
439.38	351.99
439.75	354.15
440.13	356.64
440.50	358.96
440.87	360.83
441.24	362.73
441.61	364.90
441.98	366.39
442.35	368.17
442.72	370.04
443.09	371.86
443.46	372.86
443.83	373.43
444.20	373.93
444.57	374.78
444.94	375.04
445.31	375.33
445.68	375.66
446.05	375.76
446.42	375.37
446.79	374.94
447.16	374.50
447.53	374.21
447.90	373.06
448.27	371.91
448.64	370.29
449.01	369.15
449.37	367.15
449.74	365.23
450.11	363.01
450.48	360.55
450.85	357.98
451.22	355.80
451.59	353.76
451.96	351.84
452.33	349.21
452.70	346.86
453.07	344.02
453.43	341.11
453.80	338.35
454.17	335.68
454.54	333.13
454.91	330.41
455.28	327.72
455.65	325.22
456.02	322.77
456.38	320.63
456.75	318.02
457.12	315.78
457.49	313.58
457.86	311.37
458.23	309.54
458.59	307.52
458.96	305.45
459.33	303.62
459.70	301.74
460.07	300.27
460.43	298.54
460.80	296.95
461.17	295.55
461.54	294.06
461.91	292.67
462.27	291.22
462.64	289.99
463.01	288.64
463.38	287.35
463.74	286.01
464.11	284.86
464.48	283.81
464.85	282.73
465.21	281.89
465.58	280.99
465.95	279.89
466.32	278.96
466.68	278.08
467.05	277.21
467.42	276.33
467.78	275.39
468.15	274.54
468.52	273.90
468.88	273.09
469.25	272.34
469.62	271.72
469.98	271.09
470.35	270.46
470.72	269.88
471.08	269.25
471.45	268.71
471.82	268.18
472.18	267.59
472.55	267.14
472.92	266.62
473.28	266.18
473.65	265.73
474.02	265.33
474.38	264.95
474.75	264.62
475.11	264.28
475.48	264.01
475.85	263.79
476.21	263.55
476.58	263.33
476.94	263.17
477.31	263.02
477.67	262.88
478.04	262.78
478.41	262.73
478.77	262.75
479.14	262.69
479.50	262.69
479.87	262.77
480.23	262.87
480.60	262.91
480.96	262.98
481.33	263.21
481.69	263.45
482.06	263.62
482.42	263.83
482.79	264.09
483.15	264.43
483.52	264.78
483.88	265.08
484.25	265.48
484.61	265.95
484.98	266.42
485.34	266.99
485.71	267.57
486.07	268.17
486.44	268.75
486.80	269.48
487.17	270.24
487.53	271.05
487.90	271.91
488.26	272.89
488.62	273.90
488.99	274.85
489.35	275.88
489.72	277.04
490.08	278.23
490.44	279.48
490.81	280.81
491.17	282.18
491.54	283.71
491.90	285.26
492.26	286.89
492.63	288.61
492.99	290.41
493.36	292.30
493.72	294.35
494.08	296.49
494.45	298.70
494.81	301.04
495.17	303.51
495.54	306.12
495.90	308.81
496.26	311.63
496.63	314.63
496.99	317.72
497.35	320.94
497.72	324.40
498.08	327.87
498.44	331.52
498.80	335.48
499.17	339.54
499.53	343.70
499.89	348.02
500.26	352.50
500.62	357.17
500.98	362.16
501.34	367.22
501.71	372.54
502.07	378.04
502.43	383.64
502.79	389.48
503.16	395.52
503.52	401.76
503.88	408.16
504.24	414.78
504.60	421.74
504.97	428.89
505.33	436.16
505.69	443.94
506.05	451.73
506.41	459.55
506.78	467.72
507.14	476.18
507.50	484.98
507.86	494.02
508.22	503.21
508.59	512.44
508.95	522.01
509.31	531.83
509.67	541.91
510.03	552.18
510.39	562.69
510.75	573.44
511.12	584.36
511.48	595.60
511.84	607.10
512.20	618.56
512.56	630.48
512.92	642.70
513.28	655.07
513.64	667.58
514.00	680.34
514.37	693.26
514.73	706.23
515.09	719.29
515.45	732.55
515.81	746.13
516.17	760.06
516.53	774.20
516.89	788.37
517.25	802.53
517.61	817.03
517.97	831.44
518.33	845.88
518.69	860.71
519.05	875.72
519.41	890.78
519.77	906.31
520.13	921.74
520.49	937.00
520.85	952.35
521.21	968.02
521.57	984.19
521.93	999.88
522.29	1016.26
522.65	1032.45
523.01	1048.68
523.37	1064.66
523.73	1080.86
524.09	1096.91
524.45	1113.07
524.81	1129.61
525.17	1146.26
525.53	1163.22
525.89	1180.06
526.25	1196.83
526.61	1213.18
526.97	1229.83
527.33	1246.18
527.68	1262.69
528.04	1279.09
528.40	1295.57
528.76	1312.48
529.12	1329.13
529.48	1345.99
529.84	1361.93
530.20	1378.52
530.56	1395.43
530.91	1412.78
531.27	1429.46
531.63	1445.83
531.99	1462.38
532.35	1478.35
532.71	1494.18
533.07	1510.31
533.42	1526.10
533.78	1541.97
534.14	1558.15
534.50	1573.53
534.86	1589.33
535.21	1604.49
535.57	1620.50
535.93	1635.92
536.29	1650.68
536.65	1665.51
537.00	1680.16
537.36	1695.28
537.72	1709.62
538.08	1723.97
538.44	1737.74
538.79	1751.57
539.15	1765.08
539.51	1778.84
539.87	1793.05
540.22	1806.63
540.58	1820.20
540.94	1833.47
541.29	1846.44
541.65	1859.16
542.01	1872.27
542.37	1884.68
542.72	1897.03
543.08	1908.67
543.44	1920.96
543.79	1932.26
544.15	1943.34
544.51	1954.91
544.87	1966.04
545.22	1976.84
545.58	1987.02
545.94	1996.70
546.29	2006.26
546.65	2016.09
547.01	2025.21
547.36	2033.91
547.72	2042.50
548.07	2050.43
548.43	2058.57
548.79	2066.46
549.14	2073.81
549.50	2081.16
549.86	2088.66
550.21	2096.02
550.57	2103.11
550.92	2109.63
551.28	2116.60
551.64	2123.62
551.99	2130.02
552.35	2136.20
552.70	2142.39
553.06	2148.28
553.41	2154.57
553.77	2160.76
554.13	2166.81
554.48	2173.02
554.84	2178.58
555.19	2183.80
555.55	2188.87
555.90	2193.37
556.26	2198.27
556.61	2203.09
556.97	2207.32
557.32	2211.43
557.68	2215.53
558.03	2219.92
558.39	2223.77
558.74	2228.32
559.10	2232.07
559.45	2235.81
559.81	2240.04
560.16	2243.78
560.52	2247.10
560.87	2250.55
561.23	2253.18
561.58	2256.15
561.94	2258.55
562.29	2260.77
562.64	2263.50
563.00	2266.17
563.35	2269.78
563.71	2272.90
564.06	2276.12
564.42	2279.02
564.77	2281.67
565.12	2284.05
565.48	2286.01
565.83	2287.83
566.19	2289.27
566.54	2290.14
566.89	2291.23
567.25	2291.80
567.60	2293.05
567.96	2294.71
568.31	2295.64
568.66	2296.84
569.02	2297.57
569.37	2297.87
569.72	2298.89
570.08	2299.06
570.43	2299.08
570.78	2298.48
571.14	2296.98
571.49	2295.62
571.84	2295.39
572.20	2294.30
572.55	2293.04
572.90	2291.41
573.26	2290.11
573.61	2288.38
573.96	2286.64
574.31	2283.86
574.67	2281.06
575.02	2277.66
575.37	2274.30
575.72	2270.61
576.08	2267.34
576.43	2264.08
576.78	2260.51
577.13	2257.30
577.49	2254.16
577.84	2250.70
578.19	2246.96
578.54	2243.44
578.90	2239.34
579.25	2233.81
579.60	2228.80
579.95	2223.86
580.30	2218.90
580.66	2213.75
581.01	2208.78
581.36	2204.15
581.71	2199.94
582.06	2195.55
582.42	2191.14
582.77	2186.01
583.12	2181.35
583.47	2176.68
583.82	2171.69
584.17	2166.56
584.53	2161.05
584.88	2155.45
585.23	2149.82
585.58	2144.35
585.93	2138.76
586.28	2133.92
586.63	2128.86
586.98	2123.91
587.34	2119.24
587.69	2114.34
588.04	2109.11
588.39	2103.41
588.74	2096.68
589.09	2090.64
589.44	2083.76
589.79	2077.49
590.14	2071.83
590.49	2065.15
590.84	2058.58
591.19	2052.52
591.54	2046.01
591.89	2038.66
592.25	2031.97
592.60	2024.75
592.95	2017.11
593.30	2009.81
593.65	2002.18
594.00	1995.04
594.35	1987.72
594.70	1979.68
595.05	1972.52
595.40	1965.17
595.75	1957.76
596.10	1951.73
596.45	1944.92
596.80	1938.77
597.15	1932.41
597.50	1925.27
597.85	1918.83
598.19	1912.35
598.54	1905.13
598.89	1898.52
599.24	1892.73
599.59	1886.10
599.94	1879.84
600.29	1873.61
600.64	1867.14
600.99	1859.82
601.34	1853.12
601.69	1846.32
602.04	1839.56
602.39	1832.24
602.74	1825.47
603.08	1818.79
603.43	1812.14
603.78	1804.93
604.13	1797.71
604.48	1790.34
604.83	1783.69
605.18	1776.92
605.53	1768.90
605.87	1760.99
606.22	1753.84
606.57	1745.82
606.92	1738.55
607.27	1731.45
607.62	1724.65
607.96	1717.30
608.31	1710.70
608.66	1703.16
609.01	1695.51
609.36	1687.92
609.70	1680.00
610.05	1672.02
610.40	1664.26
610.75	1655.79
611.10	1648.11
611.44	1639.66
611.79	1631.68
612.14	1622.89
612.49	1613.73
612.83	1605.38
613.18	1597.31
613.53	1589.26
613.88	1580.70
614.22	1572.35
614.57	1563.76
614.92	1555.63
615.27	1548.14
615.61	1539.84
615.96	1531.67
616.31	1524.13
616.65	1516.73
617.00	1509.13
617.35	1501.35
617.70	1493.08
618.04	1484.70
618.39	1476.42
618.74	1468.90
619.08	1460.61
619.43	1453.16
619.78	1446.20
620.12	1438.99
620.47	1431.55
620.82	1423.32
621.16	1416.01
621.51	1408.41
621.85	1400.69
622.20	1392.25
622.55	1383.84
622.89	1375.99
623.24	1368.36
623.59	1360.88
623.93	1353.36
624.28	1346.09
624.62	1338.76
624.97	1331.63
625.32	1324.70
625.66	1317.69
626.01	1310.54
626.35	1303.12
626.70	1295.29
627.04	1287.55
627.39	1279.65
627.73	1272.15
628.08	1265.26
628.43	1257.87
628.77	1250.41
629.12	1242.91
629.46	1235.68
629.81	1228.24
630.15	1220.99
630.50	1213.61
630.84	1205.42
631.19	1197.52
631.53	1189.91
631.88	1182.26
632.22	1174.61
632.57	1167.37
632.91	1159.75
633.26	1152.24
633.60	1144.76
633.95	1137.45
634.29	1130.43
634.64	1123.87
634.98	1116.55
635.32	1109.31
635.67	1102.69
636.01	1096.12
636.36	1089.39
636.70	1082.89
637.05	1076.39
637.39	1069.87
637.73	1063.40
638.08	1057.47
638.42	1051.44
638.77	1045.08
639.11	1038.46
639.45	1032.03
639.80	1025.40
640.14	1019.11
640.49	1012.60
640.83	1006.33
641.17	1000.21
641.52	993.85
641.86	987.32
642.20	981.46
642.55	975.28
642.89	968.85
643.23	962.25
643.58	956.36
643.92	950.23
644.26	944.15
644.61	938.17
644.95	932.12
645.29	925.54
645.64	918.86
645.98	912.52
646.32	906.72
646.66	900.72
647.01	894.95
647.35	889.16
647.69	883.31
648.04	877.82
648.38	872.13
648.72	866.10
649.06	860.08
649.41	854.15
649.75	848.10
650.09	842.18
650.43	836.41
650.78	830.34
651.12	824.26
651.46	818.57
651.80	812.84
652.14	807.46
652.49	802.15
652.83	796.96
653.17	791.31
653.51	785.60
653.85	780.20
654.20	774.50
654.54	768.52
654.88	762.79
655.22	756.86
655.56	751.09
655.90	745.62
656.25	740.42
656.59	735.04
656.93	729.98
657.27	724.81
657.61	719.40
657.95	714.26
658.29	709.20
658.64	703.90
658.98	698.57
659.32	693.08
659.66	687.87
660.00	682.56
660.34	677.59
660.68	672.64
661.02	667.65
661.36	662.94
661.70	658.39
662.05	654.01
662.39	649.69
662.73	645.26
663.07	640.96
663.41	636.51
663.75	632.03
664.09	627.49
664.43	623.10
664.77	618.95
665.11	614.73
665.45	610.62
665.79	606.54
666.13	602.36
666.47	598.32
666.81	594.15
667.15	590.04
667.49	586.11
667.83	582.36
668.17	578.36
668.51	574.30
668.85	570.30
669.19	566.45
669.53	562.63
669.87	558.80
670.21	555.07
670.55	551.39
670.89	547.98
671.23	544.51
671.57	541.01
671.91	537.45
672.25	533.91
672.58	530.42
672.92	526.97
673.26	523.85
673.60	520.68
673.94	517.53
674.28	514.62
674.62	511.69
674.96	508.48
675.30	505.60
675.64	502.68
675.97	499.91
676.31	497.07
676.65	494.16
676.99	491.41
677.33	488.51
677.67	485.72
678.01	482.70
678.34	479.78
678.68	476.89
679.02	474.12
679.36	471.39
679.70	468.59
680.04	465.86
680.37	462.94
680.71	460.18
681.05	457.59
681.39	454.89
681.73	452.23
682.06	449.74
682.40	447.19
682.74	444.63
683.08	442.07
683.42	439.45
683.75	436.92
684.09	434.33
684.43	431.92
684.77	429.47
685.10	427.10
685.44	424.76
685.78	422.50
686.12	420.24
686.45	417.92
686.79	415.71
687.13	413.56
687.46	411.42
687.80	409.25
688.14	407.03
688.48	404.97
688.81	402.74
689.15	400.62
689.49	398.48
689.82	396.46
690.16	394.41
690.50	392.49
690.83	390.61
691.17	388.67
691.51	386.76
691.84	384.91
692.18	382.98
692.52	381.00
692.85	379.07
693.19	377.17
693.52	375.35
693.86	373.51
694.20	371.67
694.53	369.93
694.87	368.08
695.21	366.32
695.54	364.47
695.88	362.77
696.21	361.03
696.55	359.34
696.88	357.67
697.22	355.99
697.56	354.35
697.89	352.66
698.23	351.05
698.56	349.43
698.90	347.84
699.23	346.22
699.57	344.67
699.90	343.15
700.24	341.64
700.58	340.12
700.91	338.61
701.25	337.19
701.58	335.79
701.92	334.41
702.25	333.01
702.59	331.64
702.92	330.30
703.26	328.99
703.59	327.71
703.93	326.51
704.26	325.28
704.60	323.96
704.93	322.68
705.26	321.44
705.60	320.21
705.93	319.07
706.27	318.02
706.60	316.95
706.94	315.85
707.27	314.72
707.61	313.65
707.94	312.63
708.27	311.52
708.61	310.40
708.94	309.38
709.28	308.37
709.61	307.38
709.94	306.43
710.28	305.41
710.61	304.42
710.95	303.37
711.28	302.45
711.61	301.53
711.95	300.62
712.28	299.67
712.61	298.73
712.95	297.80
713.28	296.87
713.61	295.94
713.95	295.04
714.28	294.15
714.61	293.27
714.95	292.41
715.28	291.55
715.61	290.71
715.95	289.85
716.28	289.00
716.61	288.17
716.95	287.36
717.28	286.61
717.61	285.83
717.94	285.05
718.28	284.25
718.61	283.51
718.94	282.78
719.27	282.14
719.61	281.46
719.94	280.80
720.27	280.14
720.60	279.52
720.94	278.91
721.27	278.34
721.60	277.77
721.93	277.17
722.27	276.61
722.60	276.01
722.93	275.45
723.26	274.92
723.59	274.39
723.93	273.82
724.26	273.24
724.59	272.70
724.92	272.18
725.25	271.65
725.59	271.12
725.92	270.62
726.25	270.07
726.58	269.59
726.91	269.07
727.24	268.55
727.57	268.05
727.91	267.52
728.24	267.06
728.57	266.57
728.90	266.15
729.23	265.69
729.56	265.29
729.89	264.83
730.22	264.35
730.55	263.86
730.89	263.43
731.22	263.03
731.55	262.59
731.88	262.13
732.21	261.72
732.54	261.33
732.87	260.92
733.20	260.52
733.53	260.11
733.86	259.75
734.19	259.41
734.52	259.01
734.85	258.72
735.18	258.31
735.51	257.95
735.84	257.55
736.17	257.21
736.50	256.80
736.83	256.58
737.16	256.27
737.49	255.99
737.82	255.64
738.15	255.32
738.48	254.97
738.81	254.64
739.14	254.32
739.47	253.97
739.80	253.66
740.13	253.37
740.46	253.10
740.79	252.79
741.12	252.48
741.45	252.17
741.78	251.81
742.11	251.55
742.44	251.21
742.77	250.97
743.10	250.66
743.43	250.38
743.75	250.01
744.08	249.84
744.41	249.55
744.74	249.25
745.07	248.94
745.40	248.73
745.73	248.51
746.06	248.24
746.39	247.98
746.71	247.73
747.04	247.42
747.37	247.11
747.70	246.85
748.03	246.57
748.36	246.34
748.68	246.10
749.01	245.84
749.34	245.63
749.67	245.39
750.00	245.18
750.33	245.02
750.65	244.79
750.98	244.44
751.31	244.19
751.64	243.99
751.97	243.84
752.29	243.59
752.62	243.34
752.95	243.11
753.28	242.89
753.60	242.68
753.93	242.53
754.26	242.35
754.59	242.11
754.91	241.89
755.24	241.67
755.57	241.48
755.90	241.30
756.22	241.10
756.55	240.87
756.88	240.65
757.20	240.40
757.53	240.21
757.86	240.05
758.19	239.91
758.51	239.76
758.84	239.55
759.17	239.40
759.49	239.26
759.82	239.16
760.15	239.01
760.47	238.85
760.80	238.66
761.13	238.52
761.45	238.39
761.78	238.25
762.11	238.14
762.43	237.99
762.76	237.82
763.08	237.69
763.41	237.57
763.74	237.45
764.06	237.34
764.39	237.22
764.71	237.06
765.04	236.94
765.37	236.81
765.69	236.68
766.02	236.57
766.34	236.44
766.67	236.29
767.00	236.19
767.32	236.15
767.65	236.12
767.97	236.00
768.30	235.86
768.62	235.77
768.95	235.63
769.27	235.52
769.60	235.47
769.92	235.34
770.25	235.23
770.57	235.11
770.90	235.00
771.22	234.87
771.55	234.79
771.87	234.69
772.20	234.60
772.52	234.58
772.85	234.59
773.17	234.53
773.50	234.43
773.82	234.34
774.15	234.18
774.47	234.05
774.80	233.97
775.12	233.95
775.45	233.88
775.77	233.83
776.09	233.75
776.42	233.66
776.74	233.61
777.07	233.54
777.39	233.48
777.72	233.42
778.04	233.36
778.36	233.28
778.69	233.20
779.01	233.13
779.33	233.00
779.66	232.82
779.98	232.71
780.31	232.64
780.63	232.60
780.95	232.57
781.28	232.50
781.60	232.44
781.92	232.34
782.25	232.27
782.57	232.20
782.89	232.15
783.22	232.05
783.54	232.00
783.86	231.95
784.19	231.89
784.51	231.83
784.83	231.75
785.16	231.73
785.48	231.68
785.80	231.59
786.12	231.53
786.45	231.47
786.77	231.43
787.09	231.37
