SpectraSuite Data File
++++++++++++++++++++++++++++++++++++
Date: Fri Feb 01 16:29:50 EST 2013
User: group
Dark Spectrum Present: No
Reference Spectrum Present: No
Number of Sampled Component Spectra: 1
Spectrometers: USB2E7196
Integration Time (usec): 35000 (USB2E7196)
Spectra Averaged: 100 (USB2E7196)
Boxcar Smoothing: 10 (USB2E7196)
Correct for Electrical Dark: No (USB2E7196)
Strobe/Lamp Enabled: No (USB2E7196)
Correct for Detector Non-linearity: No (USB2E7196)
Correct for Stray Light: No (USB2E7196)
Number of Pixels in Processed Spectrum: 2048
>>>>>Begin Processed Spectral Data<<<<<
339.09	0.00
339.48	214.37
339.86	215.12
340.24	216.60
340.63	218.51
341.01	220.56
341.39	220.45
341.78	222.91
342.16	223.77
342.54	223.99
342.93	212.35
343.31	223.09
343.69	223.62
344.07	224.10
344.46	224.53
344.84	224.88
345.22	225.13
345.60	225.39
345.99	225.53
346.37	225.65
346.75	225.75
347.13	225.79
347.52	225.87
347.90	225.95
348.28	225.96
348.66	225.97
349.05	225.97
349.43	226.02
349.81	226.08
350.19	226.12
350.57	226.20
350.96	226.26
351.34	226.32
351.72	226.39
352.10	226.47
352.48	226.55
352.87	226.65
353.25	226.73
353.63	226.78
354.01	226.86
354.39	226.92
354.77	227.00
355.15	227.11
355.54	227.16
355.92	227.20
356.30	227.28
356.68	227.43
357.06	227.51
357.44	227.57
357.82	227.62
358.20	227.67
358.58	227.73
358.97	227.83
359.35	227.93
359.73	228.04
360.11	228.13
360.49	228.16
360.87	228.16
361.25	228.23
361.63	228.32
362.01	228.35
362.39	228.39
362.77	228.39
363.15	228.44
363.53	228.47
363.91	228.51
364.29	228.56
364.67	228.48
365.05	228.50
365.43	228.51
365.81	228.58
366.19	228.60
366.57	228.64
366.95	228.62
367.33	228.59
367.71	228.56
368.09	228.56
368.47	228.59
368.85	228.59
369.23	228.59
369.61	228.54
369.99	228.58
370.37	228.58
370.75	228.60
371.13	228.50
371.51	228.50
371.89	228.46
372.27	228.40
372.65	228.38
373.03	228.31
373.41	228.23
373.78	228.13
374.16	228.05
374.54	227.91
374.92	227.89
375.30	227.84
375.68	227.75
376.06	227.66
376.44	227.59
376.82	227.52
377.19	227.42
377.57	227.38
377.95	227.26
378.33	227.17
378.71	227.09
379.09	227.04
379.47	226.96
379.84	226.86
380.22	226.83
380.60	226.73
380.98	226.67
381.36	226.65
381.73	226.58
382.11	226.54
382.49	226.50
382.87	226.37
383.25	226.31
383.62	226.38
384.00	226.32
384.38	226.23
384.76	226.21
385.13	226.21
385.51	226.11
385.89	226.05
386.27	226.01
386.64	225.94
387.02	225.93
387.40	225.87
387.78	225.86
388.15	225.80
388.53	225.78
388.91	225.76
389.29	225.69
389.66	225.69
390.04	225.66
390.42	225.66
390.79	225.68
391.17	225.67
391.55	225.55
391.92	225.54
392.30	225.53
392.68	225.51
393.05	225.53
393.43	225.57
393.81	225.61
394.18	225.59
394.56	225.63
394.94	225.62
395.31	225.64
395.69	225.67
396.06	225.71
396.44	225.75
396.82	225.75
397.19	225.87
397.57	225.88
397.95	225.92
398.32	225.95
398.70	225.97
399.07	226.02
399.45	226.07
399.82	226.12
400.20	226.18
400.58	226.27
400.95	226.30
401.33	226.38
401.70	226.51
402.08	226.62
402.45	226.69
402.83	226.83
403.20	226.94
403.58	227.01
403.95	227.15
404.33	227.27
404.71	227.38
405.08	227.54
405.46	227.68
405.83	227.88
406.21	228.02
406.58	228.25
406.96	228.43
407.33	228.59
407.70	228.80
408.08	229.09
408.45	229.26
408.83	229.49
409.20	229.70
409.58	229.87
409.95	230.12
410.33	230.38
410.70	230.61
411.08	230.89
411.45	231.21
411.82	231.49
412.20	231.80
412.57	232.22
412.95	232.51
413.32	232.92
413.69	233.28
414.07	233.74
414.44	234.19
414.82	234.65
415.19	235.19
415.56	235.73
415.94	236.26
416.31	236.91
416.68	237.50
417.06	238.23
417.43	238.90
417.81	239.64
418.18	240.40
418.55	241.24
418.93	242.10
419.30	242.99
419.67	243.91
420.04	244.89
420.42	245.87
420.79	247.04
421.16	248.19
421.54	249.39
421.91	250.60
422.28	251.81
422.66	253.11
423.03	254.42
423.40	255.74
423.77	257.10
424.15	258.47
424.52	259.95
424.89	261.53
425.26	263.06
425.64	264.56
426.01	266.17
426.38	267.82
426.75	269.48
427.13	271.18
427.50	273.00
427.87	274.87
428.24	276.69
428.61	278.47
428.99	280.40
429.36	282.44
429.73	284.48
430.10	286.52
430.47	288.61
430.85	290.73
431.22	292.94
431.59	295.29
431.96	297.54
432.33	300.04
432.70	302.43
433.08	305.25
433.45	307.86
433.82	310.48
434.19	313.37
434.56	316.17
434.93	318.81
435.30	321.38
435.68	324.23
436.05	327.10
436.42	329.88
436.79	332.36
437.16	335.10
437.53	337.90
437.90	340.69
438.27	343.43
438.64	346.22
439.01	348.83
439.38	351.11
439.75	353.32
440.13	355.76
440.50	358.09
440.87	359.92
441.24	361.83
441.61	363.96
441.98	365.45
442.35	367.24
442.72	369.13
443.09	370.91
443.46	371.93
443.83	372.52
444.20	372.99
444.57	373.85
444.94	374.12
445.31	374.49
445.68	374.82
446.05	374.87
446.42	374.51
446.79	374.09
447.16	373.64
447.53	373.29
447.90	372.14
448.27	371.03
448.64	369.47
449.01	368.34
449.37	366.38
449.74	364.46
450.11	362.25
450.48	359.78
450.85	357.32
451.22	355.19
451.59	353.14
451.96	351.21
452.33	348.62
452.70	346.28
453.07	343.49
453.43	340.61
453.80	337.89
454.17	335.23
454.54	332.75
454.91	330.07
455.28	327.39
455.65	324.97
456.02	322.50
456.38	320.35
456.75	317.74
457.12	315.50
457.49	313.33
457.86	311.19
458.23	309.35
458.59	307.32
458.96	305.27
459.33	303.40
459.70	301.55
460.07	300.03
460.43	298.31
460.80	296.70
461.17	295.31
461.54	293.81
461.91	292.38
462.27	290.93
462.64	289.67
463.01	288.35
463.38	287.08
463.74	285.72
464.11	284.53
464.48	283.48
464.85	282.38
465.21	281.49
465.58	280.56
465.95	279.46
466.32	278.56
466.68	277.67
467.05	276.81
467.42	275.93
467.78	275.01
468.15	274.17
468.52	273.52
468.88	272.64
469.25	271.89
469.62	271.26
469.98	270.60
470.35	270.00
470.72	269.39
471.08	268.72
471.45	268.17
471.82	267.64
472.18	267.04
472.55	266.61
472.92	266.09
473.28	265.61
473.65	265.17
474.02	264.72
474.38	264.33
474.75	264.05
475.11	263.70
475.48	263.45
475.85	263.19
476.21	262.93
476.58	262.77
476.94	262.61
477.31	262.46
477.67	262.28
478.04	262.15
478.41	262.09
478.77	262.12
479.14	262.07
479.50	262.10
479.87	262.22
480.23	262.32
480.60	262.38
480.96	262.49
481.33	262.75
481.69	262.97
482.06	263.19
482.42	263.37
482.79	263.61
483.15	263.94
483.52	264.34
483.88	264.68
484.25	265.07
484.61	265.50
484.98	265.96
485.34	266.56
485.71	267.12
486.07	267.75
486.44	268.33
486.80	269.06
487.17	269.76
487.53	270.55
487.90	271.40
488.26	272.35
488.62	273.34
488.99	274.30
489.35	275.34
489.72	276.47
490.08	277.66
490.44	278.95
490.81	280.27
491.17	281.62
491.54	283.12
491.90	284.66
492.26	286.28
492.63	288.02
492.99	289.79
493.36	291.75
493.72	293.79
494.08	295.91
494.45	298.16
494.81	300.54
495.17	303.01
495.54	305.56
495.90	308.27
496.26	311.12
496.63	314.08
496.99	317.24
497.35	320.48
497.72	323.93
498.08	327.45
498.44	331.12
498.80	335.05
499.17	339.10
499.53	343.30
499.89	347.73
500.26	352.22
500.62	356.94
500.98	361.85
501.34	366.90
501.71	372.23
502.07	377.64
502.43	383.32
502.79	389.12
503.16	395.22
503.52	401.51
503.88	407.90
504.24	414.54
504.60	421.41
504.97	428.61
505.33	435.90
505.69	443.64
506.05	451.49
506.41	459.40
506.78	467.58
507.14	475.97
507.50	484.65
507.86	493.73
508.22	502.84
508.59	512.08
508.95	521.71
509.31	531.53
509.67	541.64
510.03	551.84
510.39	562.40
510.75	573.13
511.12	583.97
511.48	595.21
511.84	606.58
512.20	618.06
512.56	629.87
512.92	642.08
513.28	654.39
513.64	666.86
514.00	679.56
514.37	692.45
514.73	705.54
515.09	718.65
515.45	731.84
515.81	745.42
516.17	759.38
516.53	773.49
516.89	787.70
517.25	801.79
517.61	816.17
517.97	830.55
518.33	844.94
518.69	859.78
519.05	874.80
519.41	890.04
519.77	905.52
520.13	921.02
520.49	936.29
520.85	951.65
521.21	967.23
521.57	983.38
521.93	999.04
522.29	1015.40
522.65	1031.41
523.01	1047.61
523.37	1063.54
523.73	1079.69
524.09	1095.62
524.45	1111.74
524.81	1128.35
525.17	1145.15
525.53	1161.93
525.89	1178.73
526.25	1195.47
526.61	1211.75
526.97	1228.45
527.33	1244.83
527.68	1261.26
528.04	1277.63
528.40	1294.06
528.76	1311.05
529.12	1327.52
529.48	1344.37
529.84	1360.18
530.20	1376.88
530.56	1393.91
530.91	1411.33
531.27	1427.97
531.63	1444.36
531.99	1460.95
532.35	1476.78
532.71	1492.47
533.07	1508.69
533.42	1524.63
533.78	1540.57
534.14	1556.82
534.50	1571.98
534.86	1587.80
535.21	1602.99
535.57	1618.89
535.93	1634.28
536.29	1648.92
536.65	1663.94
537.00	1678.57
537.36	1693.73
537.72	1708.14
538.08	1722.45
538.44	1736.25
538.79	1750.06
539.15	1763.52
539.51	1777.10
539.87	1791.33
540.22	1805.01
540.58	1818.68
540.94	1831.79
541.29	1844.55
541.65	1857.11
542.01	1870.19
542.37	1882.34
542.72	1894.63
543.08	1906.31
543.44	1918.70
543.79	1929.92
544.15	1940.77
544.51	1952.20
544.87	1963.29
545.22	1973.99
545.58	1984.04
545.94	1993.58
546.29	2003.39
546.65	2013.36
547.01	2022.62
547.36	2031.38
547.72	2039.74
548.07	2047.58
548.43	2055.77
548.79	2063.78
549.14	2071.05
549.50	2078.32
549.86	2086.04
550.21	2093.34
550.57	2100.40
550.92	2106.86
551.28	2113.70
551.64	2120.75
551.99	2127.35
552.35	2133.27
552.70	2139.43
553.06	2145.39
553.41	2151.63
553.77	2157.51
554.13	2163.43
554.48	2169.63
554.84	2175.10
555.19	2180.33
555.55	2185.37
555.90	2189.78
556.26	2194.52
556.61	2199.41
556.97	2203.77
557.32	2207.86
557.68	2211.98
558.03	2216.38
558.39	2220.10
558.74	2224.91
559.10	2228.81
559.45	2232.55
559.81	2236.96
560.16	2240.73
560.52	2243.96
560.87	2247.43
561.23	2250.22
561.58	2253.11
561.94	2255.50
562.29	2257.83
562.64	2260.64
563.00	2263.22
563.35	2266.82
563.71	2270.05
564.06	2273.36
564.42	2276.26
564.77	2278.78
565.12	2281.06
565.48	2283.01
565.83	2284.97
566.19	2286.26
566.54	2287.09
566.89	2288.14
567.25	2288.70
567.60	2290.03
567.96	2291.75
568.31	2292.55
568.66	2293.75
569.02	2294.43
569.37	2294.84
569.72	2295.77
570.08	2295.90
570.43	2296.08
570.78	2295.52
571.14	2294.02
571.49	2292.67
571.84	2292.45
572.20	2291.43
572.55	2290.39
572.90	2288.89
573.26	2287.50
573.61	2285.81
573.96	2284.20
574.31	2281.28
574.67	2278.40
575.02	2274.94
575.37	2271.64
575.72	2267.94
576.08	2264.62
576.43	2261.41
576.78	2257.79
577.13	2254.59
577.49	2251.71
577.84	2248.18
578.19	2244.48
578.54	2241.00
578.90	2236.67
579.25	2231.01
579.60	2226.12
579.95	2221.12
580.30	2216.07
580.66	2211.04
581.01	2206.26
581.36	2201.43
581.71	2197.41
582.06	2193.03
582.42	2188.62
582.77	2183.42
583.12	2179.09
583.47	2174.47
583.82	2169.66
584.17	2164.46
584.53	2159.06
584.88	2153.40
585.23	2147.72
585.58	2142.40
585.93	2137.04
586.28	2132.50
586.63	2127.55
586.98	2122.45
587.34	2117.85
587.69	2113.04
588.04	2107.85
588.39	2102.23
588.74	2095.81
589.09	2089.69
589.44	2082.92
589.79	2076.83
590.14	2071.35
590.49	2064.79
590.84	2058.40
591.19	2052.39
591.54	2045.95
591.89	2038.66
592.25	2031.88
592.60	2024.92
592.95	2017.37
593.30	2009.97
593.65	2002.40
594.00	1995.41
594.35	1988.33
594.70	1980.41
595.05	1973.33
595.40	1966.20
595.75	1958.68
596.10	1952.64
596.45	1946.01
596.80	1939.95
597.15	1933.47
597.50	1926.31
597.85	1919.88
598.19	1913.21
598.54	1906.00
598.89	1899.51
599.24	1893.61
599.59	1886.96
599.94	1880.77
600.29	1874.27
600.64	1867.77
600.99	1860.42
601.34	1853.62
601.69	1846.69
602.04	1839.89
602.39	1832.55
602.74	1825.59
603.08	1818.95
603.43	1812.16
603.78	1804.79
604.13	1797.57
604.48	1790.29
604.83	1783.52
605.18	1776.57
605.53	1768.62
605.87	1760.80
606.22	1753.61
606.57	1745.64
606.92	1738.40
607.27	1731.23
607.62	1724.44
607.96	1717.13
608.31	1710.62
608.66	1703.10
609.01	1695.60
609.36	1688.00
609.70	1679.98
610.05	1671.99
610.40	1664.30
610.75	1656.05
611.10	1648.47
611.44	1640.03
611.79	1632.11
612.14	1623.47
612.49	1614.23
612.83	1605.92
613.18	1597.72
613.53	1589.57
613.88	1581.26
614.22	1572.99
614.57	1564.27
614.92	1556.27
615.27	1548.81
615.61	1540.39
615.96	1532.32
616.31	1524.66
616.65	1517.26
617.00	1509.79
617.35	1502.16
617.70	1493.78
618.04	1485.22
618.39	1476.95
618.74	1469.38
619.08	1461.02
619.43	1453.39
619.78	1446.57
620.12	1439.37
620.47	1431.83
620.82	1423.63
621.16	1416.06
621.51	1408.42
621.85	1400.83
622.20	1392.36
622.55	1383.89
622.89	1376.12
623.24	1368.49
623.59	1361.07
623.93	1353.57
624.28	1346.20
624.62	1338.62
624.97	1331.45
625.32	1324.65
625.66	1317.67
626.01	1310.54
626.35	1303.02
626.70	1295.29
627.04	1287.43
627.39	1279.65
627.73	1272.30
628.08	1265.41
628.43	1258.15
628.77	1250.75
629.12	1243.12
629.46	1236.06
629.81	1228.57
630.15	1221.25
630.50	1213.83
630.84	1205.60
631.19	1197.71
631.53	1190.22
631.88	1182.63
632.22	1175.06
632.57	1167.64
632.91	1160.00
633.26	1152.51
633.60	1145.16
633.95	1138.05
634.29	1131.08
634.64	1124.39
634.98	1117.04
635.32	1109.89
635.67	1103.28
636.01	1096.59
636.36	1089.91
636.70	1083.24
637.05	1076.74
637.39	1070.26
637.73	1063.77
638.08	1057.81
638.42	1051.73
638.77	1045.23
639.11	1038.63
639.45	1032.26
639.80	1025.67
640.14	1019.34
640.49	1012.85
640.83	1006.64
641.17	1000.40
641.52	994.03
641.86	987.64
642.20	981.78
642.55	975.40
642.89	968.87
643.23	962.47
643.58	956.72
643.92	950.48
644.26	944.49
644.61	938.49
644.95	932.45
645.29	926.00
645.64	919.29
645.98	913.02
646.32	907.25
646.66	901.20
647.01	895.41
647.35	889.70
647.69	883.89
648.04	878.32
648.38	872.46
648.72	866.46
649.06	860.38
649.41	854.44
649.75	848.54
650.09	842.63
650.43	836.79
650.78	830.55
651.12	824.62
651.46	818.80
651.80	813.02
652.14	807.71
652.49	802.28
652.83	797.10
653.17	791.42
653.51	785.67
653.85	780.26
654.20	774.65
654.54	768.62
654.88	762.86
655.22	756.98
655.56	751.34
655.90	745.98
656.25	740.72
656.59	735.38
656.93	730.33
657.27	725.17
657.61	719.75
657.95	714.70
658.29	709.70
658.64	704.52
658.98	699.23
659.32	693.66
659.66	688.46
660.00	683.14
660.34	678.22
660.68	673.30
661.02	668.27
661.36	663.59
661.70	659.11
662.05	654.68
662.39	650.31
662.73	645.83
663.07	641.39
663.41	636.93
663.75	632.40
664.09	627.76
664.43	623.37
664.77	619.25
665.11	614.97
665.45	610.76
665.79	606.61
666.13	602.42
666.47	598.31
666.81	594.17
667.15	590.10
667.49	586.20
667.83	582.33
668.17	578.38
668.51	574.23
668.85	570.20
669.19	566.36
669.53	562.54
669.87	558.71
670.21	555.00
670.55	551.32
670.89	547.89
671.23	544.43
671.57	540.91
671.91	537.34
672.25	533.86
672.58	530.32
672.92	526.93
673.26	523.79
673.60	520.65
673.94	517.54
674.28	514.56
674.62	511.56
674.96	508.47
675.30	505.50
675.64	502.55
675.97	499.74
676.31	496.83
676.65	493.89
676.99	491.16
677.33	488.31
677.67	485.50
678.01	482.50
678.34	479.54
678.68	476.71
679.02	473.93
679.36	471.14
679.70	468.43
680.04	465.65
680.37	462.76
680.71	459.92
681.05	457.28
681.39	454.57
681.73	451.91
682.06	449.41
682.40	446.88
682.74	444.36
683.08	441.83
683.42	439.28
683.75	436.80
684.09	434.23
684.43	431.70
684.77	429.25
685.10	426.84
685.44	424.52
685.78	422.19
686.12	419.89
686.45	417.61
686.79	415.25
687.13	413.12
687.46	410.99
687.80	408.87
688.14	406.66
688.48	404.58
688.81	402.35
689.15	400.15
689.49	397.98
689.82	395.90
690.16	393.79
690.50	391.85
690.83	389.86
691.17	387.88
691.51	386.01
691.84	384.14
692.18	382.26
692.52	380.25
692.85	378.30
693.19	376.43
693.52	374.60
693.86	372.86
694.20	371.06
694.53	369.22
694.87	367.37
695.21	365.59
695.54	363.78
695.88	362.06
696.21	360.35
696.55	358.73
696.88	357.05
697.22	355.40
697.56	353.74
697.89	352.12
698.23	350.55
698.56	348.92
698.90	347.34
699.23	345.70
699.57	344.22
699.90	342.72
700.24	341.21
700.58	339.64
700.91	338.12
701.25	336.70
701.58	335.33
701.92	333.97
702.25	332.57
702.59	331.18
702.92	329.83
703.26	328.54
703.59	327.24
703.93	326.04
704.26	324.80
704.60	323.50
704.93	322.22
705.26	320.94
705.60	319.78
705.93	318.56
706.27	317.51
706.60	316.42
706.94	315.31
707.27	314.11
707.61	313.09
707.94	312.09
708.27	310.95
708.61	309.91
708.94	308.91
709.28	307.94
709.61	307.02
709.94	306.11
710.28	305.08
710.61	304.10
710.95	303.04
711.28	302.14
711.61	301.16
711.95	300.26
712.28	299.32
712.61	298.35
712.95	297.44
713.28	296.56
713.61	295.66
713.95	294.81
714.28	294.00
714.61	293.10
714.95	292.24
715.28	291.41
715.61	290.49
715.95	289.65
716.28	288.77
716.61	287.86
716.95	287.03
717.28	286.30
717.61	285.52
717.94	284.77
718.28	283.98
718.61	283.29
718.94	282.59
719.27	281.93
719.61	281.28
719.94	280.64
720.27	279.90
720.60	279.21
720.94	278.52
721.27	277.93
721.60	277.35
721.93	276.76
722.27	276.20
722.60	275.68
722.93	275.12
723.26	274.61
723.59	274.08
723.93	273.52
724.26	272.93
724.59	272.36
724.92	271.88
725.25	271.36
725.59	270.85
725.92	270.35
726.25	269.82
726.58	269.34
726.91	268.82
727.24	268.34
727.57	267.89
727.91	267.41
728.24	266.95
728.57	266.48
728.90	266.00
729.23	265.50
729.56	265.07
729.89	264.57
730.22	264.07
730.55	263.60
730.89	263.17
731.22	262.72
731.55	262.31
731.88	261.82
732.21	261.38
732.54	260.93
732.87	260.47
733.20	260.09
733.53	259.70
733.86	259.31
734.19	258.95
734.52	258.60
734.85	258.29
735.18	257.86
735.51	257.48
735.84	257.09
736.17	256.76
736.50	256.33
736.83	256.10
737.16	255.75
737.49	255.44
737.82	255.06
738.15	254.76
738.48	254.45
738.81	254.13
739.14	253.81
739.47	253.49
739.80	253.16
740.13	252.84
740.46	252.52
740.79	252.22
741.12	251.94
741.45	251.57
741.78	251.27
742.11	251.01
742.44	250.70
742.77	250.47
743.10	250.16
743.43	249.88
743.75	249.51
744.08	249.42
744.41	249.16
744.74	248.92
745.07	248.66
745.40	248.39
745.73	248.20
746.06	247.94
746.39	247.70
746.71	247.46
747.04	247.18
747.37	246.91
747.70	246.67
748.03	246.38
748.36	246.20
748.68	245.94
749.01	245.67
749.34	245.49
749.67	245.24
750.00	245.01
750.33	244.85
750.65	244.61
750.98	244.22
751.31	243.98
751.64	243.76
751.97	243.58
752.29	243.36
752.62	243.08
752.95	242.84
753.28	242.65
753.60	242.45
753.93	242.29
754.26	242.08
754.59	241.86
754.91	241.68
755.24	241.44
755.57	241.21
755.90	241.03
756.22	240.79
756.55	240.59
756.88	240.40
757.20	240.17
757.53	239.96
757.86	239.82
758.19	239.63
758.51	239.48
758.84	239.27
759.17	239.09
759.49	238.93
759.82	238.85
760.15	238.68
760.47	238.52
760.80	238.34
761.13	238.23
761.45	238.06
761.78	237.91
762.11	237.80
762.43	237.66
762.76	237.52
763.08	237.39
763.41	237.24
763.74	237.12
764.06	236.98
764.39	236.85
764.71	236.69
765.04	236.56
765.37	236.41
765.69	236.27
766.02	236.14
766.34	236.03
766.67	235.86
767.00	235.76
767.32	235.70
767.65	235.62
767.97	235.50
768.30	235.38
768.62	235.27
768.95	235.12
769.27	235.01
769.60	234.90
769.92	234.79
770.25	234.67
770.57	234.53
770.90	234.44
771.22	234.34
771.55	234.25
771.87	234.18
772.20	234.07
772.52	234.05
772.85	234.09
773.17	233.98
773.50	233.88
773.82	233.79
774.15	233.63
774.47	233.52
774.80	233.40
775.12	233.35
775.45	233.24
775.77	233.19
776.09	233.14
776.42	233.06
776.74	233.01
777.07	232.93
777.39	232.87
777.72	232.79
778.04	232.74
778.36	232.69
778.69	232.63
779.01	232.57
779.33	232.44
779.66	232.28
779.98	232.23
780.31	232.20
780.63	232.18
780.95	232.15
781.28	232.08
781.60	232.01
781.92	231.94
782.25	231.89
782.57	231.82
782.89	231.72
783.22	231.70
783.54	231.61
783.86	231.56
784.19	231.45
784.51	231.41
784.83	231.34
785.16	231.23
785.48	231.19
785.80	231.16
786.12	231.12
786.45	231.06
786.77	231.01
787.09	230.94
