SpectraSuite Data File
++++++++++++++++++++++++++++++++++++
Date: Fri Feb 01 14:51:12 EST 2013
User: group
Dark Spectrum Present: No
Reference Spectrum Present: No
Number of Sampled Component Spectra: 1
Spectrometers: USB2E7196
Integration Time (usec): 35000 (USB2E7196)
Spectra Averaged: 100 (USB2E7196)
Boxcar Smoothing: 10 (USB2E7196)
Correct for Electrical Dark: No (USB2E7196)
Strobe/Lamp Enabled: No (USB2E7196)
Correct for Detector Non-linearity: No (USB2E7196)
Correct for Stray Light: No (USB2E7196)
Number of Pixels in Processed Spectrum: 2048
>>>>>Begin Processed Spectral Data<<<<<
339.09	0.00
339.48	215.10
339.86	217.07
340.24	218.78
340.63	219.74
341.01	222.42
341.39	222.27
341.78	223.79
342.16	224.33
342.54	225.30
342.93	213.85
343.31	224.66
343.69	225.23
344.07	225.70
344.46	226.11
344.84	226.47
345.22	226.71
345.60	226.96
345.99	227.15
346.37	227.32
346.75	227.44
347.13	227.47
347.52	227.52
347.90	227.58
348.28	227.62
348.66	227.63
349.05	227.63
349.43	227.69
349.81	227.72
350.19	227.74
350.57	227.77
350.96	227.82
351.34	227.88
351.72	227.94
352.10	228.01
352.48	228.08
352.87	228.15
353.25	228.21
353.63	228.28
354.01	228.31
354.39	228.37
354.77	228.46
355.15	228.57
355.54	228.60
355.92	228.62
356.30	228.69
356.68	228.83
357.06	228.89
357.44	228.93
357.82	229.03
358.20	229.10
358.58	229.13
358.97	229.19
359.35	229.27
359.73	229.34
360.11	229.37
360.49	229.43
360.87	229.50
361.25	229.53
361.63	229.57
362.01	229.62
362.39	229.64
362.77	229.66
363.15	229.68
363.53	229.69
363.91	229.72
364.29	229.73
364.67	229.63
365.05	229.66
365.43	229.67
365.81	229.66
366.19	229.69
366.57	229.73
366.95	229.72
367.33	229.68
367.71	229.64
368.09	229.67
368.47	229.61
368.85	229.54
369.23	229.52
369.61	229.47
369.99	229.43
370.37	229.41
370.75	229.40
371.13	229.33
371.51	229.27
371.89	229.23
372.27	229.15
372.65	229.11
373.03	229.04
373.41	228.97
373.78	228.88
374.16	228.78
374.54	228.68
374.92	228.58
375.30	228.49
375.68	228.43
376.06	228.35
376.44	228.28
376.82	228.22
377.19	228.17
377.57	228.09
377.95	228.02
378.33	227.95
378.71	227.82
379.09	227.74
379.47	227.70
379.84	227.59
380.22	227.52
380.60	227.43
380.98	227.33
381.36	227.26
381.73	227.18
382.11	227.12
382.49	227.08
382.87	227.00
383.25	226.99
383.62	227.05
384.00	226.97
384.38	226.90
384.76	226.90
385.13	226.84
385.51	226.81
385.89	226.74
386.27	226.69
386.64	226.66
387.02	226.67
387.40	226.64
387.78	226.63
388.15	226.62
388.53	226.61
388.91	226.61
389.29	226.59
389.66	226.61
390.04	226.59
390.42	226.60
390.79	226.62
391.17	226.60
391.55	226.51
391.92	226.51
392.30	226.54
392.68	226.51
393.05	226.56
393.43	226.57
393.81	226.62
394.18	226.66
394.56	226.70
394.94	226.71
395.31	226.72
395.69	226.77
396.06	226.86
396.44	226.90
396.82	226.98
397.19	227.08
397.57	227.15
397.95	227.23
398.32	227.28
398.70	227.34
399.07	227.47
399.45	227.51
399.82	227.62
400.20	227.71
400.58	227.77
400.95	227.82
401.33	227.92
401.70	228.06
402.08	228.15
402.45	228.27
402.83	228.40
403.20	228.51
403.58	228.65
403.95	228.76
404.33	228.92
404.71	229.02
405.08	229.19
405.46	229.35
405.83	229.52
406.21	229.68
406.58	229.89
406.96	230.03
407.33	230.25
407.70	230.45
408.08	230.73
408.45	230.99
408.83	231.21
409.20	231.42
409.58	231.59
409.95	231.86
410.33	232.11
410.70	232.35
411.08	232.68
411.45	232.97
411.82	233.26
412.20	233.60
412.57	234.02
412.95	234.30
413.32	234.68
413.69	235.06
414.07	235.47
414.44	235.91
414.82	236.39
415.19	236.89
415.56	237.42
415.94	237.94
416.31	238.57
416.68	239.19
417.06	239.92
417.43	240.62
417.81	241.39
418.18	242.15
418.55	243.00
418.93	243.86
419.30	244.73
419.67	245.70
420.04	246.65
420.42	247.61
420.79	248.77
421.16	249.90
421.54	251.02
421.91	252.20
422.28	253.46
422.66	254.78
423.03	256.09
423.40	257.39
423.77	258.78
424.15	260.17
424.52	261.68
424.89	263.25
425.26	264.79
425.64	266.22
426.01	267.78
426.38	269.42
426.75	271.04
427.13	272.77
427.50	274.52
427.87	276.36
428.24	278.22
428.61	279.97
428.99	281.92
429.36	284.04
429.73	286.13
430.10	288.12
430.47	290.17
430.85	292.30
431.22	294.54
431.59	296.91
431.96	299.20
432.33	301.67
432.70	304.08
433.08	306.90
433.45	309.56
433.82	312.16
434.19	315.05
434.56	317.89
434.93	320.54
435.30	323.18
435.68	326.06
436.05	328.87
436.42	331.68
436.79	334.19
437.16	336.95
437.53	339.78
437.90	342.63
438.27	345.36
438.64	348.17
439.01	350.80
439.38	353.05
439.75	355.18
440.13	357.66
440.50	360.01
440.87	361.86
441.24	363.84
441.61	366.04
441.98	367.56
442.35	369.34
442.72	371.25
443.09	373.06
443.46	374.12
443.83	374.74
444.20	375.23
444.57	376.09
444.94	376.37
445.31	376.71
445.68	377.02
446.05	377.09
446.42	376.71
446.79	376.27
447.16	375.83
447.53	375.51
447.90	374.33
448.27	373.15
448.64	371.57
449.01	370.36
449.37	368.39
449.74	366.46
450.11	364.28
450.48	361.81
450.85	359.31
451.22	357.15
451.59	355.12
451.96	353.22
452.33	350.62
452.70	348.28
453.07	345.49
453.43	342.64
453.80	339.89
454.17	337.25
454.54	334.69
454.91	331.99
455.28	329.34
455.65	326.91
456.02	324.48
456.38	322.33
456.75	319.66
457.12	317.38
457.49	315.20
457.86	313.03
458.23	311.13
458.59	309.08
458.96	307.01
459.33	305.17
459.70	303.33
460.07	301.81
460.43	300.09
460.80	298.44
461.17	296.99
461.54	295.51
461.91	294.08
462.27	292.65
462.64	291.39
463.01	290.04
463.38	288.68
463.74	287.29
464.11	286.13
464.48	285.13
464.85	284.02
465.21	283.09
465.58	282.15
465.95	281.04
466.32	280.06
466.68	279.15
467.05	278.24
467.42	277.27
467.78	276.32
468.15	275.39
468.52	274.68
468.88	273.78
469.25	273.00
469.62	272.35
469.98	271.65
470.35	270.99
470.72	270.38
471.08	269.72
471.45	269.17
471.82	268.59
472.18	267.97
472.55	267.55
472.92	267.06
473.28	266.57
473.65	266.16
474.02	265.72
474.38	265.32
474.75	265.01
475.11	264.65
475.48	264.36
475.85	264.15
476.21	263.91
476.58	263.72
476.94	263.52
477.31	263.37
477.67	263.21
478.04	263.07
478.41	262.98
478.77	263.05
479.14	262.95
479.50	262.92
479.87	262.98
480.23	263.02
480.60	263.08
480.96	263.16
481.33	263.29
481.69	263.52
482.06	263.70
482.42	263.87
482.79	264.12
483.15	264.47
483.52	264.81
483.88	265.18
484.25	265.59
484.61	266.03
484.98	266.46
485.34	267.02
485.71	267.63
486.07	268.25
486.44	268.77
486.80	269.50
487.17	270.25
487.53	271.09
487.90	271.94
488.26	272.89
488.62	273.88
488.99	274.85
489.35	275.86
489.72	277.01
490.08	278.21
490.44	279.45
490.81	280.74
491.17	282.08
491.54	283.55
491.90	285.10
492.26	286.72
492.63	288.43
492.99	290.19
493.36	292.06
493.72	294.07
494.08	296.18
494.45	298.39
494.81	300.76
495.17	303.15
495.54	305.70
495.90	308.33
496.26	311.11
496.63	314.04
496.99	317.11
497.35	320.29
497.72	323.63
498.08	327.14
498.44	330.75
498.80	334.63
499.17	338.64
499.53	342.79
499.89	347.11
500.26	351.57
500.62	356.20
500.98	361.12
501.34	366.17
501.71	371.45
502.07	376.82
502.43	382.39
502.79	388.17
503.16	394.14
503.52	400.38
503.88	406.73
504.24	413.33
504.60	420.16
504.97	427.24
505.33	434.51
505.69	442.12
506.05	449.87
506.41	457.72
506.78	465.84
507.14	474.20
507.50	482.90
507.86	491.90
508.22	500.99
508.59	510.12
508.95	519.62
509.31	529.41
509.67	539.50
510.03	549.79
510.39	560.27
510.75	571.00
511.12	581.85
511.48	593.15
511.84	604.63
512.20	616.22
512.56	628.13
512.92	640.31
513.28	652.66
513.64	665.15
514.00	677.82
514.37	690.67
514.73	703.72
515.09	716.71
515.45	730.00
515.81	743.55
516.17	757.51
516.53	771.67
516.89	785.79
517.25	799.98
517.61	814.31
517.97	828.75
518.33	843.19
518.69	858.01
519.05	873.08
519.41	888.22
519.77	903.69
520.13	919.26
520.49	934.64
520.85	950.09
521.21	965.77
521.57	981.92
521.93	997.81
522.29	1014.20
522.65	1030.51
523.01	1046.78
523.37	1062.96
523.73	1079.29
524.09	1095.47
524.45	1111.85
524.81	1128.57
525.17	1145.42
525.53	1162.39
525.89	1179.34
526.25	1196.14
526.61	1212.45
526.97	1229.25
527.33	1245.82
527.68	1262.39
528.04	1278.92
528.40	1295.57
528.76	1312.72
529.12	1329.53
529.48	1346.35
529.84	1362.42
530.20	1379.15
530.56	1396.26
530.91	1413.65
531.27	1430.54
531.63	1446.98
531.99	1463.62
532.35	1479.64
532.71	1495.56
533.07	1511.91
533.42	1527.93
533.78	1544.10
534.14	1560.46
534.50	1575.78
534.86	1591.76
535.21	1606.96
535.57	1623.05
535.93	1638.50
536.29	1653.29
536.65	1668.46
537.00	1683.42
537.36	1698.86
537.72	1713.41
538.08	1727.79
538.44	1741.71
538.79	1755.58
539.15	1769.37
539.51	1783.28
539.87	1797.70
540.22	1811.51
540.58	1825.28
540.94	1838.71
541.29	1851.60
541.65	1864.32
542.01	1877.71
542.37	1889.99
542.72	1902.60
543.08	1914.28
543.44	1926.77
543.79	1938.10
544.15	1949.04
544.51	1960.44
544.87	1971.46
545.22	1982.28
545.58	1992.34
545.94	2002.17
546.29	2012.05
546.65	2021.80
547.01	2030.85
547.36	2039.49
547.72	2048.03
548.07	2055.94
548.43	2064.04
548.79	2072.12
549.14	2079.58
549.50	2086.78
549.86	2094.57
550.21	2101.76
550.57	2108.88
550.92	2115.48
551.28	2122.59
551.64	2129.69
551.99	2136.39
552.35	2142.37
552.70	2148.54
553.06	2154.59
553.41	2160.72
553.77	2166.60
554.13	2172.71
554.48	2178.81
554.84	2184.15
555.19	2189.29
555.55	2194.19
555.90	2198.47
556.26	2203.12
556.61	2207.88
556.97	2212.09
557.32	2215.94
557.68	2219.92
558.03	2224.14
558.39	2227.70
558.74	2232.20
559.10	2235.89
559.45	2239.25
559.81	2243.64
560.16	2247.28
560.52	2250.51
560.87	2253.96
561.23	2256.51
561.58	2259.33
561.94	2261.78
562.29	2264.17
562.64	2266.76
563.00	2269.31
563.35	2272.78
563.71	2275.88
564.06	2278.82
564.42	2281.50
564.77	2283.92
565.12	2286.10
565.48	2287.88
565.83	2289.54
566.19	2290.52
566.54	2291.27
566.89	2292.27
567.25	2292.48
567.60	2293.58
567.96	2295.00
568.31	2295.56
568.66	2296.43
569.02	2296.80
569.37	2296.83
569.72	2297.25
570.08	2297.11
570.43	2296.73
570.78	2295.70
571.14	2293.78
571.49	2292.33
571.84	2291.78
572.20	2290.29
572.55	2289.03
572.90	2287.19
573.26	2285.56
573.61	2283.64
573.96	2281.68
574.31	2278.58
574.67	2275.34
575.02	2271.44
575.37	2267.74
575.72	2263.77
576.08	2260.27
576.43	2256.70
576.78	2252.87
577.13	2249.59
577.49	2246.43
577.84	2242.96
578.19	2239.36
578.54	2235.57
578.90	2231.08
579.25	2225.46
579.60	2220.37
579.95	2215.10
580.30	2209.96
580.66	2204.61
581.01	2199.48
581.36	2194.37
581.71	2189.98
582.06	2185.34
582.42	2180.79
582.77	2175.39
583.12	2170.59
583.47	2165.51
583.82	2160.42
584.17	2155.11
584.53	2149.49
584.88	2143.72
585.23	2137.72
585.58	2131.91
585.93	2126.46
586.28	2121.55
586.63	2116.28
586.98	2111.07
587.34	2106.27
587.69	2101.27
588.04	2095.92
588.39	2090.14
588.74	2083.53
589.09	2077.17
589.44	2070.26
589.79	2064.01
590.14	2058.36
590.49	2051.63
590.84	2045.26
591.19	2039.02
591.54	2032.32
591.89	2024.72
592.25	2017.62
592.60	2010.35
592.95	2002.66
593.30	1995.08
593.65	1987.31
594.00	1980.14
594.35	1972.75
594.70	1964.67
595.05	1957.28
595.40	1949.92
595.75	1942.38
596.10	1935.88
596.45	1929.17
596.80	1922.87
597.15	1916.10
597.50	1908.87
597.85	1902.47
598.19	1895.78
598.54	1888.62
598.89	1881.96
599.24	1876.08
599.59	1869.50
599.94	1863.28
600.29	1856.93
600.64	1850.46
600.99	1843.00
601.34	1836.15
601.69	1829.20
602.04	1822.21
602.39	1814.88
602.74	1808.12
603.08	1801.31
603.43	1794.72
603.78	1787.40
604.13	1780.26
604.48	1773.07
604.83	1766.27
605.18	1759.17
605.53	1751.06
605.87	1743.10
606.22	1735.84
606.57	1727.87
606.92	1720.43
607.27	1713.19
607.62	1706.28
607.96	1698.93
608.31	1692.42
608.66	1684.79
609.01	1677.35
609.36	1669.90
609.70	1661.87
610.05	1653.69
610.40	1646.19
610.75	1637.87
611.10	1630.26
611.44	1621.97
611.79	1614.02
612.14	1605.48
612.49	1596.50
612.83	1588.33
613.18	1580.32
613.53	1572.38
613.88	1564.02
614.22	1555.87
614.57	1547.40
614.92	1539.53
615.27	1532.08
615.61	1523.80
615.96	1515.86
616.31	1508.20
616.65	1500.86
617.00	1493.46
617.35	1485.94
617.70	1477.53
618.04	1469.07
618.39	1460.91
618.74	1453.37
619.08	1445.25
619.43	1437.69
619.78	1430.86
620.12	1423.77
620.47	1416.31
620.82	1408.23
621.16	1401.03
621.51	1393.54
621.85	1386.10
622.20	1377.60
622.55	1369.41
622.89	1361.66
623.24	1354.22
623.59	1346.90
623.93	1339.52
624.28	1332.42
624.62	1325.09
624.97	1318.06
625.32	1311.43
625.66	1304.50
626.01	1297.31
626.35	1289.93
626.70	1282.27
627.04	1274.56
627.39	1266.82
627.73	1259.58
628.08	1252.63
628.43	1245.27
628.77	1238.02
629.12	1230.52
629.46	1223.44
629.81	1216.10
630.15	1209.06
630.50	1201.71
630.84	1193.76
631.19	1185.87
631.53	1178.47
631.88	1170.88
632.22	1163.45
632.57	1156.34
632.91	1148.87
633.26	1141.68
633.60	1134.44
633.95	1127.41
634.29	1120.44
634.64	1113.88
634.98	1106.53
635.32	1099.58
635.67	1093.10
636.01	1086.57
636.36	1079.80
636.70	1073.36
637.05	1066.90
637.39	1060.49
637.73	1054.17
638.08	1048.44
638.42	1042.61
638.77	1036.16
639.11	1029.73
639.45	1023.40
639.80	1016.71
640.14	1010.41
640.49	1003.91
640.83	997.67
641.17	991.60
641.52	985.45
641.86	979.15
642.20	973.38
642.55	967.19
642.89	960.72
643.23	954.29
643.58	948.68
643.92	942.71
644.26	936.72
644.61	930.74
644.95	924.67
645.29	918.10
645.64	911.41
645.98	905.15
646.32	899.37
646.66	893.45
647.01	887.78
647.35	882.18
647.69	876.49
648.04	870.98
648.38	865.27
648.72	859.29
649.06	853.28
649.41	847.51
649.75	841.48
650.09	835.64
650.43	829.83
650.78	823.74
651.12	817.73
651.46	811.96
651.80	806.25
652.14	800.96
652.49	795.61
652.83	790.46
653.17	784.83
653.51	779.16
653.85	773.83
654.20	768.28
654.54	762.29
654.88	756.60
655.22	750.87
655.56	745.26
655.90	739.82
656.25	734.62
656.59	729.21
656.93	724.28
657.27	719.21
657.61	713.84
657.95	708.71
658.29	703.68
658.64	698.60
658.98	693.42
659.32	688.05
659.66	682.88
660.00	677.63
660.34	672.70
660.68	667.83
661.02	662.79
661.36	658.08
661.70	653.67
662.05	649.29
662.39	644.96
662.73	640.52
663.07	636.29
663.41	631.86
663.75	627.47
664.09	622.89
664.43	618.56
664.77	614.43
665.11	610.22
665.45	606.20
665.79	602.11
666.13	598.00
666.47	593.86
666.81	589.77
667.15	585.71
667.49	581.96
667.83	578.25
668.17	574.38
668.51	570.40
668.85	566.41
669.19	562.68
669.53	558.84
669.87	554.99
670.21	551.36
670.55	547.74
670.89	544.38
671.23	541.01
671.57	537.56
671.91	534.14
672.25	530.76
672.58	527.30
672.92	523.92
673.26	520.78
673.60	517.71
673.94	514.61
674.28	511.76
674.62	508.82
674.96	505.73
675.30	502.85
675.64	500.01
675.97	497.23
676.31	494.42
676.65	491.57
676.99	488.88
677.33	485.95
677.67	483.21
678.01	480.16
678.34	477.24
678.68	474.39
679.02	471.58
679.36	468.84
679.70	466.16
680.04	463.46
680.37	460.67
680.71	457.94
681.05	455.40
681.39	452.76
681.73	450.17
682.06	447.71
682.40	445.19
682.74	442.69
683.08	440.24
683.42	437.61
683.75	435.14
684.09	432.66
684.43	430.28
684.77	427.87
685.10	425.59
685.44	423.35
685.78	421.12
686.12	418.92
686.45	416.68
686.79	414.41
687.13	412.28
687.46	410.14
687.80	408.01
688.14	405.81
688.48	403.77
688.81	401.52
689.15	399.38
689.49	397.29
689.82	395.19
690.16	393.12
690.50	391.23
690.83	389.33
691.17	387.40
691.51	385.52
691.84	383.69
692.18	381.77
692.52	379.79
692.85	377.89
693.19	376.01
693.52	374.21
693.86	372.42
694.20	370.60
694.53	368.84
694.87	367.02
695.21	365.26
695.54	363.48
695.88	361.82
696.21	360.08
696.55	358.40
696.88	356.75
697.22	355.13
697.56	353.53
697.89	351.89
698.23	350.28
698.56	348.67
698.90	347.11
699.23	345.48
699.57	343.97
699.90	342.43
700.24	340.93
700.58	339.43
700.91	337.92
701.25	336.51
701.58	335.09
701.92	333.75
702.25	332.35
702.59	330.93
702.92	329.60
703.26	328.31
703.59	327.06
703.93	325.86
704.26	324.63
704.60	323.35
704.93	322.10
705.26	320.85
705.60	319.70
705.93	318.57
706.27	317.56
706.60	316.49
706.94	315.41
707.27	314.26
707.61	313.16
707.94	312.15
708.27	311.07
708.61	310.01
708.94	309.02
709.28	308.07
709.61	307.15
709.94	306.19
710.28	305.18
710.61	304.21
710.95	303.15
711.28	302.20
711.61	301.29
711.95	300.39
712.28	299.47
712.61	298.52
712.95	297.54
713.28	296.69
713.61	295.83
713.95	294.95
714.28	294.16
714.61	293.32
714.95	292.52
715.28	291.67
715.61	290.82
715.95	289.96
716.28	289.11
716.61	288.32
716.95	287.55
717.28	286.82
717.61	286.05
717.94	285.35
718.28	284.58
718.61	283.85
718.94	283.17
719.27	282.51
719.61	281.85
719.94	281.24
720.27	280.54
720.60	279.91
720.94	279.35
721.27	278.77
721.60	278.23
721.93	277.65
722.27	277.15
722.60	276.63
722.93	276.09
723.26	275.55
723.59	274.99
723.93	274.45
724.26	273.92
724.59	273.43
724.92	272.92
725.25	272.44
725.59	271.91
725.92	271.43
726.25	270.93
726.58	270.44
726.91	269.98
727.24	269.55
727.57	269.05
727.91	268.52
728.24	268.05
728.57	267.56
728.90	267.13
729.23	266.63
729.56	266.20
729.89	265.74
730.22	265.30
730.55	264.85
730.89	264.42
731.22	264.00
731.55	263.55
731.88	263.15
732.21	262.73
732.54	262.34
732.87	261.90
733.20	261.53
733.53	261.16
733.86	260.76
734.19	260.31
734.52	259.92
734.85	259.61
735.18	259.22
735.51	258.86
735.84	258.46
736.17	258.11
736.50	257.72
736.83	257.48
737.16	257.12
737.49	256.79
737.82	256.43
738.15	256.07
738.48	255.72
738.81	255.38
739.14	255.05
739.47	254.71
739.80	254.42
740.13	254.07
740.46	253.70
740.79	253.37
741.12	253.07
741.45	252.75
741.78	252.39
742.11	252.09
742.44	251.77
742.77	251.46
743.10	251.17
743.43	250.88
743.75	250.50
744.08	250.39
744.41	250.13
744.74	249.85
745.07	249.58
745.40	249.33
745.73	249.09
746.06	248.80
746.39	248.52
746.71	248.23
747.04	247.99
747.37	247.74
747.70	247.47
748.03	247.22
748.36	247.03
748.68	246.78
749.01	246.51
749.34	246.28
749.67	246.08
750.00	245.86
750.33	245.69
750.65	245.49
750.98	245.12
751.31	244.87
751.64	244.66
751.97	244.50
752.29	244.26
752.62	244.01
752.95	243.83
753.28	243.62
753.60	243.47
753.93	243.29
754.26	243.12
754.59	242.91
754.91	242.73
755.24	242.53
755.57	242.37
755.90	242.24
756.22	242.06
756.55	241.84
756.88	241.67
757.20	241.42
757.53	241.24
757.86	241.09
758.19	240.97
758.51	240.84
758.84	240.66
759.17	240.52
759.49	240.37
759.82	240.26
760.15	240.14
760.47	239.97
760.80	239.80
761.13	239.68
761.45	239.57
761.78	239.45
762.11	239.31
762.43	239.18
762.76	239.01
763.08	238.91
763.41	238.83
763.74	238.66
764.06	238.51
764.39	238.36
764.71	238.24
765.04	238.10
765.37	237.93
765.69	237.78
766.02	237.64
766.34	237.49
766.67	237.35
767.00	237.29
767.32	237.25
767.65	237.24
767.97	237.12
768.30	237.02
768.62	236.91
768.95	236.80
769.27	236.70
769.60	236.59
769.92	236.45
770.25	236.32
770.57	236.23
770.90	236.15
771.22	236.04
771.55	235.92
771.87	235.82
772.20	235.76
772.52	235.72
772.85	235.75
773.17	235.68
773.50	235.58
773.82	235.42
774.15	235.26
774.47	235.04
774.80	234.92
775.12	234.82
775.45	234.70
775.77	234.61
776.09	234.51
776.42	234.43
776.74	234.37
777.07	234.27
777.39	234.20
777.72	234.12
778.04	234.03
778.36	233.94
778.69	233.88
779.01	233.79
779.33	233.63
779.66	233.46
779.98	233.36
780.31	233.25
780.63	233.23
780.95	233.15
781.28	233.09
781.60	233.02
781.92	232.93
782.25	232.84
782.57	232.73
782.89	232.66
783.22	232.56
783.54	232.49
783.86	232.43
784.19	232.28
784.51	232.24
784.83	232.18
785.16	232.10
785.48	232.02
785.80	231.97
786.12	231.92
786.45	231.84
786.77	231.82
787.09	231.76
