SpectraSuite Data File
++++++++++++++++++++++++++++++++++++
Date: Fri Feb 01 16:33:06 EST 2013
User: group
Dark Spectrum Present: No
Reference Spectrum Present: No
Number of Sampled Component Spectra: 1
Spectrometers: USB2E7196
Integration Time (usec): 35000 (USB2E7196)
Spectra Averaged: 100 (USB2E7196)
Boxcar Smoothing: 10 (USB2E7196)
Correct for Electrical Dark: No (USB2E7196)
Strobe/Lamp Enabled: No (USB2E7196)
Correct for Detector Non-linearity: No (USB2E7196)
Correct for Stray Light: No (USB2E7196)
Number of Pixels in Processed Spectrum: 2048
>>>>>Begin Processed Spectral Data<<<<<
339.09	0.00
339.48	213.83
339.86	215.74
340.24	216.60
340.63	218.30
341.01	221.01
341.39	220.98
341.78	221.94
342.16	223.85
342.54	223.75
342.93	212.39
343.31	223.11
343.69	223.66
344.07	224.12
344.46	224.54
344.84	224.91
345.22	225.15
345.60	225.41
345.99	225.62
346.37	225.75
346.75	225.86
347.13	225.91
347.52	225.97
347.90	226.05
348.28	226.08
348.66	226.11
349.05	226.11
349.43	226.18
349.81	226.25
350.19	226.29
350.57	226.31
350.96	226.40
351.34	226.48
351.72	226.56
352.10	226.66
352.48	226.73
352.87	226.78
353.25	226.83
353.63	226.89
354.01	226.95
354.39	226.99
354.77	227.08
355.15	227.22
355.54	227.30
355.92	227.31
356.30	227.37
356.68	227.47
357.06	227.53
357.44	227.60
357.82	227.64
358.20	227.71
358.58	227.77
358.97	227.84
359.35	227.95
359.73	228.04
360.11	228.08
360.49	228.16
360.87	228.21
361.25	228.27
361.63	228.33
362.01	228.37
362.39	228.39
362.77	228.41
363.15	228.44
363.53	228.42
363.91	228.44
364.29	228.46
364.67	228.42
365.05	228.45
365.43	228.45
365.81	228.48
366.19	228.53
366.57	228.57
366.95	228.51
367.33	228.43
367.71	228.40
368.09	228.41
368.47	228.35
368.85	228.32
369.23	228.32
369.61	228.25
369.99	228.26
370.37	228.23
370.75	228.25
371.13	228.18
371.51	228.14
371.89	228.11
372.27	228.05
372.65	227.98
373.03	227.91
373.41	227.85
373.78	227.79
374.16	227.67
374.54	227.57
374.92	227.51
375.30	227.48
375.68	227.41
376.06	227.35
376.44	227.29
376.82	227.23
377.19	227.14
377.57	227.08
377.95	226.98
378.33	226.95
378.71	226.80
379.09	226.76
379.47	226.67
379.84	226.58
380.22	226.50
380.60	226.44
380.98	226.36
381.36	226.29
381.73	226.22
382.11	226.15
382.49	226.12
382.87	226.06
383.25	225.99
383.62	226.03
384.00	225.96
384.38	225.93
384.76	225.92
385.13	225.92
385.51	225.88
385.89	225.80
386.27	225.73
386.64	225.73
387.02	225.69
387.40	225.67
387.78	225.68
388.15	225.69
388.53	225.67
388.91	225.64
389.29	225.61
389.66	225.58
390.04	225.59
390.42	225.58
390.79	225.57
391.17	225.55
391.55	225.45
391.92	225.42
392.30	225.42
392.68	225.40
393.05	225.44
393.43	225.46
393.81	225.53
394.18	225.52
394.56	225.52
394.94	225.55
395.31	225.58
395.69	225.62
396.06	225.63
396.44	225.67
396.82	225.69
397.19	225.77
397.57	225.81
397.95	225.85
398.32	225.85
398.70	225.92
399.07	226.01
399.45	226.03
399.82	226.09
400.20	226.15
400.58	226.20
400.95	226.22
401.33	226.27
401.70	226.41
402.08	226.50
402.45	226.57
402.83	226.65
403.20	226.74
403.58	226.85
403.95	226.98
404.33	227.09
404.71	227.24
405.08	227.41
405.46	227.54
405.83	227.68
406.21	227.84
406.58	227.98
406.96	228.09
407.33	228.26
407.70	228.48
408.08	228.72
408.45	228.95
408.83	229.15
409.20	229.36
409.58	229.52
409.95	229.79
410.33	230.07
410.70	230.32
411.08	230.62
411.45	230.89
411.82	231.21
412.20	231.53
412.57	231.93
412.95	232.23
413.32	232.62
413.69	233.05
414.07	233.45
414.44	233.92
414.82	234.43
415.19	235.00
415.56	235.54
415.94	236.07
416.31	236.70
416.68	237.34
417.06	238.05
417.43	238.73
417.81	239.49
418.18	240.26
418.55	241.12
418.93	241.97
419.30	242.87
419.67	243.78
420.04	244.73
420.42	245.69
420.79	246.85
421.16	248.00
421.54	249.16
421.91	250.37
422.28	251.66
422.66	252.99
423.03	254.29
423.40	255.66
423.77	257.08
424.15	258.52
424.52	259.97
424.89	261.58
425.26	263.12
425.64	264.56
426.01	266.13
426.38	267.76
426.75	269.43
427.13	271.15
427.50	272.99
427.87	274.87
428.24	276.75
428.61	278.52
428.99	280.43
429.36	282.56
429.73	284.61
430.10	286.57
430.47	288.60
430.85	290.69
431.22	292.88
431.59	295.25
431.96	297.45
432.33	299.97
432.70	302.36
433.08	305.17
433.45	307.81
433.82	310.46
434.19	313.34
434.56	316.17
434.93	318.81
435.30	321.39
435.68	324.24
436.05	327.08
436.42	329.87
436.79	332.37
437.16	335.04
437.53	337.89
437.90	340.73
438.27	343.47
438.64	346.28
439.01	348.86
439.38	351.07
439.75	353.23
440.13	355.67
440.50	357.98
440.87	359.82
441.24	361.76
441.61	363.89
441.98	365.38
442.35	367.13
442.72	368.95
443.09	370.78
443.46	371.81
443.83	372.40
444.20	372.87
444.57	373.73
444.94	374.07
445.31	374.36
445.68	374.69
446.05	374.78
446.42	374.38
446.79	373.97
447.16	373.53
447.53	373.21
447.90	372.08
448.27	370.93
448.64	369.35
449.01	368.15
449.37	366.19
449.74	364.30
450.11	362.09
450.48	359.66
450.85	357.10
451.22	354.93
451.59	352.86
451.96	350.96
452.33	348.35
452.70	345.98
453.07	343.15
453.43	340.28
453.80	337.48
454.17	334.89
454.54	332.34
454.91	329.62
455.28	326.97
455.65	324.43
456.02	321.99
456.38	319.81
456.75	317.22
457.12	314.94
457.49	312.72
457.86	310.55
458.23	308.69
458.59	306.68
458.96	304.61
459.33	302.80
459.70	300.90
460.07	299.37
460.43	297.66
460.80	296.11
461.17	294.66
461.54	293.20
461.91	291.72
462.27	290.29
462.64	289.08
463.01	287.73
463.38	286.50
463.74	285.12
464.11	284.01
464.48	282.98
464.85	281.88
465.21	281.05
465.58	280.13
465.95	279.06
466.32	278.16
466.68	277.32
467.05	276.41
467.42	275.58
467.78	274.68
468.15	273.83
468.52	273.17
468.88	272.32
469.25	271.55
469.62	270.96
469.98	270.32
470.35	269.65
470.72	269.08
471.08	268.42
471.45	267.90
471.82	267.34
472.18	266.75
472.55	266.33
472.92	265.79
473.28	265.33
473.65	264.92
474.02	264.47
474.38	264.09
474.75	263.77
475.11	263.44
475.48	263.21
475.85	262.98
476.21	262.76
476.58	262.61
476.94	262.50
477.31	262.35
477.67	262.20
478.04	262.15
478.41	262.07
478.77	262.14
479.14	262.06
479.50	262.09
479.87	262.20
480.23	262.29
480.60	262.40
480.96	262.53
481.33	262.75
481.69	262.96
482.06	263.18
482.42	263.38
482.79	263.62
483.15	263.90
483.52	264.25
483.88	264.59
484.25	264.97
484.61	265.39
484.98	265.85
485.34	266.44
485.71	267.00
486.07	267.61
486.44	268.14
486.80	268.88
487.17	269.61
487.53	270.43
487.90	271.29
488.26	272.21
488.62	273.20
488.99	274.15
489.35	275.20
489.72	276.32
490.08	277.55
490.44	278.76
490.81	280.12
491.17	281.50
491.54	283.00
491.90	284.55
492.26	286.16
492.63	287.92
492.99	289.68
493.36	291.59
493.72	293.65
494.08	295.81
494.45	298.05
494.81	300.40
495.17	302.83
495.54	305.40
495.90	308.11
496.26	310.87
496.63	313.80
496.99	316.93
497.35	320.19
497.72	323.59
498.08	327.17
498.44	330.85
498.80	334.77
499.17	338.77
499.53	342.94
499.89	347.32
500.26	351.78
500.62	356.43
500.98	361.42
501.34	366.51
501.71	371.77
502.07	377.21
502.43	382.86
502.79	388.65
503.16	394.71
503.52	400.97
503.88	407.42
504.24	414.04
504.60	420.98
504.97	428.12
505.33	435.39
505.69	443.08
506.05	450.86
506.41	458.75
506.78	466.95
507.14	475.36
507.50	484.13
507.86	493.17
508.22	502.40
508.59	511.65
508.95	521.22
509.31	531.07
509.67	541.21
510.03	551.45
510.39	562.03
510.75	572.82
511.12	583.75
511.48	595.00
511.84	606.45
512.20	617.94
512.56	629.90
512.92	642.14
513.28	654.53
513.64	666.91
514.00	679.63
514.37	692.58
514.73	705.66
515.09	718.64
515.45	731.86
515.81	745.45
516.17	759.37
516.53	773.48
516.89	787.67
517.25	801.83
517.61	816.32
517.97	830.76
518.33	845.18
518.69	859.89
519.05	874.87
519.41	890.00
519.77	905.49
520.13	920.89
520.49	936.20
520.85	951.47
521.21	967.15
521.57	983.37
521.93	999.03
522.29	1015.38
522.65	1031.62
523.01	1047.88
523.37	1063.80
523.73	1079.95
524.09	1095.92
524.45	1112.13
524.81	1128.68
525.17	1145.36
525.53	1162.15
525.89	1179.09
526.25	1195.84
526.61	1212.22
526.97	1228.87
527.33	1245.34
527.68	1261.81
528.04	1278.24
528.40	1294.79
528.76	1311.83
529.12	1328.29
529.48	1345.11
529.84	1361.03
530.20	1377.51
530.56	1394.38
530.91	1411.75
531.27	1428.32
531.63	1444.77
531.99	1461.26
532.35	1477.10
532.71	1492.90
533.07	1509.11
533.42	1524.89
533.78	1540.85
534.14	1556.93
534.50	1572.24
534.86	1587.82
535.21	1602.89
535.57	1618.69
535.93	1634.04
536.29	1648.71
536.65	1663.67
537.00	1678.23
537.36	1693.35
537.72	1707.63
538.08	1721.87
538.44	1735.52
538.79	1749.39
539.15	1762.84
539.51	1776.52
539.87	1790.81
540.22	1804.35
540.58	1817.80
540.94	1830.75
541.29	1843.47
541.65	1855.99
542.01	1869.08
542.37	1881.34
542.72	1893.65
543.08	1905.28
543.44	1917.55
543.79	1928.82
544.15	1939.63
544.51	1951.01
544.87	1962.03
545.22	1973.00
545.58	1983.28
545.94	1992.83
546.29	2002.59
546.65	2012.46
547.01	2021.62
547.36	2030.19
547.72	2038.73
548.07	2046.68
548.43	2054.94
548.79	2062.92
549.14	2070.40
549.50	2077.77
549.86	2085.30
550.21	2092.62
550.57	2099.77
550.92	2106.30
551.28	2113.31
551.64	2120.45
551.99	2127.20
552.35	2133.20
552.70	2139.37
553.06	2145.37
553.41	2151.71
553.77	2157.71
554.13	2163.68
554.48	2169.74
554.84	2175.30
555.19	2180.45
555.55	2185.69
555.90	2190.12
556.26	2195.08
556.61	2199.93
556.97	2204.24
557.32	2208.43
557.68	2212.57
558.03	2216.89
558.39	2220.66
558.74	2225.20
559.10	2229.03
559.45	2232.70
559.81	2236.91
560.16	2240.69
560.52	2243.88
560.87	2247.44
561.23	2250.05
561.58	2253.13
561.94	2255.80
562.29	2258.05
562.64	2260.79
563.00	2263.26
563.35	2266.75
563.71	2269.82
564.06	2273.05
564.42	2275.81
564.77	2278.56
565.12	2280.97
565.48	2283.03
565.83	2284.93
566.19	2286.27
566.54	2287.22
566.89	2288.33
567.25	2289.13
567.60	2290.44
567.96	2292.05
568.31	2292.91
568.66	2294.11
569.02	2294.61
569.37	2294.88
569.72	2295.84
570.08	2296.06
570.43	2296.27
570.78	2295.80
571.14	2294.37
571.49	2293.05
571.84	2292.73
572.20	2291.56
572.55	2290.45
572.90	2288.81
573.26	2287.54
573.61	2285.92
573.96	2284.29
574.31	2281.42
574.67	2278.47
575.02	2274.83
575.37	2271.60
575.72	2267.90
576.08	2264.55
576.43	2261.40
576.78	2257.86
577.13	2254.65
577.49	2251.58
577.84	2248.13
578.19	2244.35
578.54	2240.86
578.90	2236.70
579.25	2231.27
579.60	2226.41
579.95	2221.57
580.30	2216.56
580.66	2211.31
581.01	2206.27
581.36	2201.32
581.71	2197.14
582.06	2192.89
582.42	2188.65
582.77	2183.43
583.12	2178.94
583.47	2174.35
583.82	2169.44
584.17	2164.30
584.53	2159.04
584.88	2153.38
585.23	2147.66
585.58	2142.33
585.93	2136.87
586.28	2132.18
586.63	2127.25
586.98	2122.26
587.34	2117.52
587.69	2112.71
588.04	2107.61
588.39	2102.10
588.74	2095.62
589.09	2089.45
589.44	2082.67
589.79	2076.57
590.14	2071.08
590.49	2064.45
590.84	2058.09
591.19	2052.15
591.54	2045.77
591.89	2038.41
592.25	2031.85
592.60	2024.75
592.95	2017.23
593.30	2009.89
593.65	2002.33
594.00	1995.35
594.35	1988.06
594.70	1980.02
595.05	1972.93
595.40	1965.68
595.75	1958.26
596.10	1952.13
596.45	1945.57
596.80	1939.40
597.15	1932.90
597.50	1925.77
597.85	1919.44
598.19	1912.90
598.54	1905.84
598.89	1899.09
599.24	1893.25
599.59	1886.62
599.94	1880.40
600.29	1874.05
600.64	1867.56
600.99	1860.20
601.34	1853.44
601.69	1846.51
602.04	1839.73
602.39	1832.34
602.74	1825.61
603.08	1818.87
603.43	1812.22
603.78	1804.92
604.13	1797.67
604.48	1790.48
604.83	1783.64
605.18	1776.78
605.53	1768.66
605.87	1760.52
606.22	1753.33
606.57	1745.24
606.92	1737.91
607.27	1730.82
607.62	1724.03
607.96	1716.84
608.31	1710.35
608.66	1702.76
609.01	1695.26
609.36	1687.78
609.70	1679.79
610.05	1671.59
610.40	1663.96
610.75	1655.67
611.10	1648.08
611.44	1639.85
611.79	1631.77
612.14	1623.18
612.49	1613.92
612.83	1605.61
613.18	1597.57
613.53	1589.55
613.88	1581.12
614.22	1572.88
614.57	1564.22
614.92	1556.13
615.27	1548.61
615.61	1540.14
615.96	1532.04
616.31	1524.33
616.65	1516.97
617.00	1509.42
617.35	1501.88
617.70	1493.60
618.04	1485.15
618.39	1476.93
618.74	1469.19
619.08	1460.90
619.43	1453.29
619.78	1446.43
620.12	1439.30
620.47	1431.86
620.82	1423.59
621.16	1416.15
621.51	1408.46
621.85	1400.78
622.20	1392.40
622.55	1383.91
622.89	1376.14
623.24	1368.56
623.59	1361.12
623.93	1353.46
624.28	1346.23
624.62	1338.69
624.97	1331.48
625.32	1324.61
625.66	1317.56
626.01	1310.38
626.35	1302.94
626.70	1295.12
627.04	1287.38
627.39	1279.67
627.73	1272.22
628.08	1265.41
628.43	1258.18
628.77	1250.82
629.12	1243.25
629.46	1236.06
629.81	1228.67
630.15	1221.41
630.50	1213.98
630.84	1205.78
631.19	1197.85
631.53	1190.39
631.88	1182.83
632.22	1175.31
632.57	1168.03
632.91	1160.44
633.26	1153.01
633.60	1145.54
633.95	1138.45
634.29	1131.40
634.64	1124.69
634.98	1117.42
635.32	1110.12
635.67	1103.44
636.01	1096.77
636.36	1090.04
636.70	1083.46
637.05	1076.91
637.39	1070.46
637.73	1064.01
638.08	1058.16
638.42	1052.28
638.77	1045.93
639.11	1039.39
639.45	1032.90
639.80	1026.26
640.14	1019.86
640.49	1013.42
640.83	1007.20
641.17	1000.95
641.52	994.62
641.86	988.15
642.20	982.13
642.55	975.90
642.89	969.47
643.23	962.91
643.58	957.22
643.92	951.01
644.26	944.98
644.61	938.80
644.95	932.64
645.29	926.12
645.64	919.37
645.98	912.91
646.32	907.06
646.66	901.03
647.01	895.18
647.35	889.42
647.69	883.46
648.04	877.89
648.38	872.17
648.72	866.17
649.06	860.13
649.41	854.25
649.75	848.31
650.09	842.34
650.43	836.65
650.78	830.39
651.12	824.45
651.46	818.68
651.80	813.05
652.14	807.67
652.49	802.30
652.83	797.14
653.17	791.50
653.51	785.82
653.85	780.46
654.20	774.87
654.54	768.89
654.88	763.18
655.22	757.26
655.56	751.55
655.90	746.07
656.25	740.79
656.59	735.42
656.93	730.36
657.27	725.25
657.61	719.74
657.95	714.61
658.29	709.52
658.64	704.27
658.98	698.90
659.32	693.46
659.66	688.22
660.00	682.83
660.34	677.90
660.68	672.91
661.02	667.82
661.36	663.08
661.70	658.60
662.05	654.23
662.39	649.91
662.73	645.41
663.07	641.10
663.41	636.67
663.75	632.13
664.09	627.50
664.43	623.12
664.77	619.04
665.11	614.90
665.45	610.74
665.79	606.58
666.13	602.47
666.47	598.39
666.81	594.27
667.15	590.17
667.49	586.20
667.83	582.33
668.17	578.44
668.51	574.38
668.85	570.33
669.19	566.50
669.53	562.68
669.87	558.83
670.21	555.08
670.55	551.34
670.89	547.96
671.23	544.57
671.57	541.02
671.91	537.43
672.25	533.84
672.58	530.35
672.92	527.04
673.26	523.88
673.60	520.75
673.94	517.63
674.28	514.75
674.62	511.82
674.96	508.77
675.30	505.79
675.64	502.82
675.97	500.03
676.31	497.15
676.65	494.21
676.99	491.51
677.33	488.67
677.67	485.92
678.01	482.87
678.34	479.86
678.68	476.99
679.02	474.23
679.36	471.49
679.70	468.75
680.04	465.89
680.37	463.04
680.71	460.22
681.05	457.58
681.39	454.79
681.73	452.08
682.06	449.54
682.40	447.02
682.74	444.52
683.08	441.97
683.42	439.36
683.75	436.90
684.09	434.30
684.43	431.80
684.77	429.34
685.10	427.00
685.44	424.63
685.78	422.34
686.12	420.06
686.45	417.73
686.79	415.39
687.13	413.25
687.46	411.03
687.80	408.90
688.14	406.65
688.48	404.61
688.81	402.41
689.15	400.25
689.49	398.03
689.82	395.94
690.16	393.87
690.50	391.91
690.83	389.96
691.17	387.96
691.51	386.04
691.84	384.20
692.18	382.26
692.52	380.29
692.85	378.30
693.19	376.40
693.52	374.56
693.86	372.74
694.20	370.95
694.53	369.15
694.87	367.27
695.21	365.52
695.54	363.65
695.88	361.88
696.21	360.14
696.55	358.52
696.88	356.83
697.22	355.17
697.56	353.55
697.89	351.91
698.23	350.31
698.56	348.69
698.90	347.12
699.23	345.50
699.57	344.00
699.90	342.50
700.24	340.96
700.58	339.47
700.91	337.99
701.25	336.53
701.58	335.17
701.92	333.79
702.25	332.39
702.59	331.06
702.92	329.79
703.26	328.49
703.59	327.18
703.93	325.98
704.26	324.72
704.60	323.41
704.93	322.15
705.26	320.87
705.60	319.71
705.93	318.54
706.27	317.54
706.60	316.45
706.94	315.33
707.27	314.21
707.61	313.12
707.94	312.08
708.27	310.94
708.61	309.88
708.94	308.85
709.28	307.88
709.61	306.92
709.94	305.92
710.28	304.93
710.61	303.97
710.95	302.90
711.28	301.99
711.61	301.04
711.95	300.12
712.28	299.19
712.61	298.19
712.95	297.25
713.28	296.31
713.61	295.41
713.95	294.57
714.28	293.73
714.61	292.84
714.95	292.02
715.28	291.22
715.61	290.32
715.95	289.48
716.28	288.62
716.61	287.76
716.95	286.95
717.28	286.17
717.61	285.34
717.94	284.60
718.28	283.78
718.61	283.06
718.94	282.34
719.27	281.68
719.61	281.04
719.94	280.38
720.27	279.68
720.60	279.02
720.94	278.38
721.27	277.73
721.60	277.18
721.93	276.55
722.27	276.00
722.60	275.48
722.93	274.91
723.26	274.37
723.59	273.83
723.93	273.27
724.26	272.72
724.59	272.17
724.92	271.62
725.25	271.13
725.59	270.58
725.92	270.08
726.25	269.58
726.58	269.11
726.91	268.62
727.24	268.12
727.57	267.66
727.91	267.13
728.24	266.68
728.57	266.18
728.90	265.73
729.23	265.22
729.56	264.78
729.89	264.30
730.22	263.84
730.55	263.36
730.89	262.92
731.22	262.48
731.55	262.07
731.88	261.66
732.21	261.24
732.54	260.83
732.87	260.43
733.20	260.02
733.53	259.59
733.86	259.24
734.19	258.88
734.52	258.49
734.85	258.22
735.18	257.85
735.51	257.52
735.84	257.14
736.17	256.82
736.50	256.46
736.83	256.24
737.16	255.88
737.49	255.56
737.82	255.22
738.15	254.93
738.48	254.61
738.81	254.31
739.14	253.97
739.47	253.67
739.80	253.35
740.13	253.07
740.46	252.78
740.79	252.43
741.12	252.13
741.45	251.82
741.78	251.43
742.11	251.13
742.44	250.79
742.77	250.50
743.10	250.20
743.43	249.86
743.75	249.49
744.08	249.37
744.41	249.14
744.74	248.90
745.07	248.61
745.40	248.41
745.73	248.14
746.06	247.91
746.39	247.62
746.71	247.36
747.04	247.05
747.37	246.79
747.70	246.54
748.03	246.28
748.36	246.06
748.68	245.86
749.01	245.62
749.34	245.39
749.67	245.20
750.00	245.00
750.33	244.85
750.65	244.61
750.98	244.28
751.31	244.05
751.64	243.81
751.97	243.66
752.29	243.38
752.62	243.11
752.95	242.90
753.28	242.70
753.60	242.47
753.93	242.34
754.26	242.14
754.59	241.90
754.91	241.68
755.24	241.46
755.57	241.25
755.90	241.07
756.22	240.89
756.55	240.68
756.88	240.47
757.20	240.24
757.53	240.04
757.86	239.84
758.19	239.65
758.51	239.50
758.84	239.27
759.17	239.10
759.49	238.96
759.82	238.80
760.15	238.65
760.47	238.48
760.80	238.27
761.13	238.15
761.45	238.00
761.78	237.88
762.11	237.71
762.43	237.53
762.76	237.39
763.08	237.26
763.41	237.11
763.74	236.95
764.06	236.79
764.39	236.65
764.71	236.50
765.04	236.35
765.37	236.20
765.69	236.04
766.02	235.94
766.34	235.81
766.67	235.70
767.00	235.58
767.32	235.51
767.65	235.44
767.97	235.30
768.30	235.17
768.62	235.05
768.95	234.93
769.27	234.86
769.60	234.73
769.92	234.62
770.25	234.49
770.57	234.35
770.90	234.25
771.22	234.14
771.55	234.06
771.87	233.96
772.20	233.81
772.52	233.87
772.85	233.85
773.17	233.72
773.50	233.59
773.82	233.52
774.15	233.39
774.47	233.26
774.80	233.18
775.12	233.10
775.45	233.02
775.77	233.00
776.09	232.89
776.42	232.80
776.74	232.74
777.07	232.68
777.39	232.63
777.72	232.57
778.04	232.54
778.36	232.50
778.69	232.44
779.01	232.40
779.33	232.22
779.66	232.08
779.98	232.06
780.31	232.02
780.63	231.98
780.95	231.92
781.28	231.84
781.60	231.77
781.92	231.74
782.25	231.65
782.57	231.58
782.89	231.53
783.22	231.51
783.54	231.44
783.86	231.41
784.19	231.32
784.51	231.26
784.83	231.18
785.16	231.11
785.48	231.08
785.80	231.04
786.12	231.01
786.45	230.97
786.77	230.92
787.09	230.86
