SpectraSuite Data File
++++++++++++++++++++++++++++++++++++
Date: Fri Feb 01 17:46:18 EST 2013
User: group
Dark Spectrum Present: No
Reference Spectrum Present: No
Number of Sampled Component Spectra: 1
Spectrometers: USB2E7196
Integration Time (usec): 35000 (USB2E7196)
Spectra Averaged: 100 (USB2E7196)
Boxcar Smoothing: 10 (USB2E7196)
Correct for Electrical Dark: No (USB2E7196)
Strobe/Lamp Enabled: No (USB2E7196)
Correct for Detector Non-linearity: No (USB2E7196)
Correct for Stray Light: No (USB2E7196)
Number of Pixels in Processed Spectrum: 2048
>>>>>Begin Processed Spectral Data<<<<<
339.09	0.00
339.48	211.78
339.86	213.88
340.24	214.39
340.63	216.24
341.01	219.83
341.39	219.13
341.78	220.81
342.16	222.53
342.54	222.01
342.93	210.79
343.31	221.43
343.69	222.02
344.07	222.52
344.46	223.00
344.84	223.39
345.22	223.60
345.60	223.86
345.99	224.02
346.37	224.09
346.75	224.22
347.13	224.29
347.52	224.33
347.90	224.40
348.28	224.45
348.66	224.52
349.05	224.55
349.43	224.63
349.81	224.68
350.19	224.75
350.57	224.80
350.96	224.86
351.34	224.97
351.72	225.05
352.10	225.13
352.48	225.20
352.87	225.30
353.25	225.37
353.63	225.44
354.01	225.54
354.39	225.68
354.77	225.76
355.15	225.86
355.54	225.95
355.92	226.03
356.30	226.13
356.68	226.25
357.06	226.32
357.44	226.37
357.82	226.45
358.20	226.52
358.58	226.59
358.97	226.68
359.35	226.77
359.73	226.85
360.11	226.89
360.49	226.98
360.87	227.01
361.25	227.09
361.63	227.18
362.01	227.26
362.39	227.29
362.77	227.34
363.15	227.34
363.53	227.39
363.91	227.38
364.29	227.40
364.67	227.34
365.05	227.37
365.43	227.39
365.81	227.40
366.19	227.46
366.57	227.48
366.95	227.46
367.33	227.43
367.71	227.39
368.09	227.42
368.47	227.36
368.85	227.37
369.23	227.36
369.61	227.29
369.99	227.26
370.37	227.21
370.75	227.21
371.13	227.19
371.51	227.12
371.89	227.08
372.27	227.04
372.65	227.03
373.03	226.95
373.41	226.89
373.78	226.81
374.16	226.72
374.54	226.64
374.92	226.56
375.30	226.48
375.68	226.43
376.06	226.35
376.44	226.29
376.82	226.21
377.19	226.13
377.57	226.08
377.95	225.98
378.33	225.92
378.71	225.85
379.09	225.76
379.47	225.76
379.84	225.71
380.22	225.63
380.60	225.53
380.98	225.50
381.36	225.41
381.73	225.37
382.11	225.32
382.49	225.27
382.87	225.21
383.25	225.14
383.62	225.19
384.00	225.13
384.38	225.06
384.76	225.03
385.13	224.98
385.51	224.91
385.89	224.82
386.27	224.80
386.64	224.71
387.02	224.68
387.40	224.61
387.78	224.55
388.15	224.49
388.53	224.46
388.91	224.42
389.29	224.39
389.66	224.38
390.04	224.34
390.42	224.31
390.79	224.31
391.17	224.28
391.55	224.15
391.92	224.14
392.30	224.13
392.68	224.13
393.05	224.16
393.43	224.15
393.81	224.18
394.18	224.13
394.56	224.15
394.94	224.18
395.31	224.18
395.69	224.23
396.06	224.27
396.44	224.30
396.82	224.30
397.19	224.38
397.57	224.38
397.95	224.46
398.32	224.48
398.70	224.53
399.07	224.61
399.45	224.69
399.82	224.75
400.20	224.80
400.58	224.84
400.95	224.86
401.33	224.98
401.70	225.13
402.08	225.25
402.45	225.36
402.83	225.46
403.20	225.60
403.58	225.72
403.95	225.87
404.33	225.99
404.71	226.13
405.08	226.33
405.46	226.51
405.83	226.64
406.21	226.83
406.58	227.03
406.96	227.21
407.33	227.42
407.70	227.64
408.08	227.94
408.45	228.22
408.83	228.50
409.20	228.73
409.58	228.97
409.95	229.27
410.33	229.60
410.70	229.90
411.08	230.22
411.45	230.58
411.82	230.96
412.20	231.39
412.57	231.89
412.95	232.28
413.32	232.77
413.69	233.26
414.07	233.80
414.44	234.37
414.82	234.98
415.19	235.68
415.56	236.36
415.94	237.05
416.31	237.84
416.68	238.62
417.06	239.54
417.43	240.41
417.81	241.38
418.18	242.32
418.55	243.35
418.93	244.50
419.30	245.60
419.67	246.77
420.04	247.96
420.42	249.20
420.79	250.66
421.16	252.14
421.54	253.64
421.91	255.13
422.28	256.69
422.66	258.38
423.03	260.01
423.40	261.72
423.77	263.54
424.15	265.30
424.52	267.19
424.89	269.20
425.26	271.15
425.64	273.03
426.01	275.09
426.38	277.23
426.75	279.34
427.13	281.55
427.50	283.84
427.87	286.24
428.24	288.63
428.61	290.86
428.99	293.28
429.36	295.97
429.73	298.61
430.10	301.19
430.47	303.79
430.85	306.45
431.22	309.29
431.59	312.25
431.96	315.15
432.33	318.34
432.70	321.32
433.08	324.85
433.45	328.14
433.82	331.42
434.19	335.05
434.56	338.59
434.93	341.96
435.30	345.28
435.68	348.94
436.05	352.55
436.42	356.14
436.79	359.35
437.16	362.79
437.53	366.38
437.90	369.89
438.27	373.35
438.64	376.95
439.01	380.21
439.38	383.03
439.75	385.79
440.13	388.90
440.50	391.90
440.87	394.30
441.24	396.78
441.61	399.61
441.98	401.53
442.35	403.87
442.72	406.21
443.09	408.54
443.46	409.80
443.83	410.51
444.20	411.14
444.57	412.25
444.94	412.60
445.31	413.03
445.68	413.49
446.05	413.63
446.42	413.19
446.79	412.70
447.16	412.25
447.53	411.86
447.90	410.42
448.27	408.98
448.64	406.98
449.01	405.61
449.37	403.07
449.74	400.70
450.11	397.83
450.48	394.71
450.85	391.51
451.22	388.79
451.59	386.26
451.96	383.83
452.33	380.49
452.70	377.50
453.07	373.99
453.43	370.39
453.80	366.89
454.17	363.53
454.54	360.32
454.91	356.85
455.28	353.46
455.65	350.29
456.02	347.15
456.38	344.40
456.75	340.97
457.12	338.09
457.49	335.22
457.86	332.49
458.23	330.15
458.59	327.54
458.96	324.89
459.33	322.53
459.70	320.14
460.07	318.23
460.43	316.05
460.80	313.94
461.17	312.11
461.54	310.22
461.91	308.34
462.27	306.48
462.64	304.87
463.01	303.12
463.38	301.45
463.74	299.79
464.11	298.33
464.48	297.03
464.85	295.63
465.21	294.54
465.58	293.37
465.95	291.95
466.32	290.81
466.68	289.70
467.05	288.56
467.42	287.45
467.78	286.27
468.15	285.21
468.52	284.36
468.88	283.26
469.25	282.26
469.62	281.46
469.98	280.58
470.35	279.81
470.72	279.06
471.08	278.23
471.45	277.50
471.82	276.79
472.18	276.01
472.55	275.44
472.92	274.77
473.28	274.15
473.65	273.57
474.02	272.98
474.38	272.47
474.75	272.00
475.11	271.50
475.48	271.12
475.85	270.75
476.21	270.40
476.58	270.10
476.94	269.86
477.31	269.63
477.67	269.39
478.04	269.15
478.41	269.03
478.77	269.04
479.14	268.89
479.50	268.85
479.87	268.87
480.23	268.90
480.60	268.93
480.96	268.90
481.33	269.08
481.69	269.26
482.06	269.39
482.42	269.59
482.79	269.81
483.15	270.10
483.52	270.47
483.88	270.76
484.25	271.15
484.61	271.54
484.98	271.93
485.34	272.44
485.71	273.01
486.07	273.59
486.44	274.11
486.80	274.82
487.17	275.49
487.53	276.27
487.90	277.11
488.26	278.07
488.62	279.08
488.99	280.05
489.35	281.06
489.72	282.17
490.08	283.38
490.44	284.64
490.81	285.98
491.17	287.34
491.54	288.90
491.90	290.46
492.26	292.15
492.63	294.00
492.99	295.87
493.36	297.85
493.72	299.94
494.08	302.13
494.45	304.48
494.81	306.93
495.17	309.45
495.54	312.08
495.90	314.84
496.26	317.78
496.63	320.87
496.99	324.10
497.35	327.54
497.72	331.06
498.08	334.75
498.44	338.61
498.80	342.67
499.17	346.88
499.53	351.26
499.89	355.82
500.26	360.51
500.62	365.35
500.98	370.49
501.34	375.80
501.71	381.31
502.07	386.95
502.43	392.81
502.79	398.91
503.16	405.28
503.52	411.80
503.88	418.45
504.24	425.37
504.60	432.53
504.97	440.02
505.33	447.63
505.69	455.66
506.05	463.81
506.41	472.08
506.78	480.62
507.14	489.47
507.50	498.63
507.86	508.03
508.22	517.69
508.59	527.37
508.95	537.39
509.31	547.77
509.67	558.41
510.03	569.20
510.39	580.29
510.75	591.57
511.12	603.12
511.48	615.07
511.84	627.12
512.20	639.27
512.56	651.81
512.92	664.67
513.28	677.70
513.64	690.80
514.00	704.25
514.37	717.83
514.73	731.55
515.09	745.23
515.45	759.24
515.81	773.53
516.17	788.30
516.53	803.18
516.89	818.10
517.25	833.11
517.61	848.31
517.97	863.64
518.33	878.91
518.69	894.49
519.05	910.29
519.41	926.40
519.77	942.83
520.13	959.16
520.49	975.53
520.85	991.77
521.21	1008.42
521.57	1025.58
521.93	1042.44
522.29	1059.87
522.65	1077.20
523.01	1094.45
523.37	1111.57
523.73	1128.81
524.09	1146.15
524.45	1163.45
524.81	1181.29
525.17	1199.25
525.53	1217.27
525.89	1235.37
526.25	1253.47
526.61	1271.05
526.97	1288.98
527.33	1306.71
527.68	1324.58
528.04	1342.28
528.40	1360.19
528.76	1378.62
529.12	1396.62
529.48	1414.87
529.84	1432.15
530.20	1450.17
530.56	1468.65
530.91	1487.50
531.27	1505.79
531.63	1523.64
531.99	1541.81
532.35	1559.28
532.71	1576.66
533.07	1594.38
533.42	1611.85
533.78	1629.39
534.14	1647.21
534.50	1663.98
534.86	1681.30
535.21	1698.14
535.57	1715.56
535.93	1732.61
536.29	1748.89
536.65	1765.38
537.00	1781.55
537.36	1798.64
537.72	1814.67
538.08	1830.71
538.44	1846.03
538.79	1861.46
539.15	1876.43
539.51	1891.70
539.87	1907.48
540.22	1922.79
540.58	1938.13
540.94	1952.96
541.29	1967.41
541.65	1981.76
542.01	1996.69
542.37	2010.81
542.72	2024.76
543.08	2038.30
543.44	2052.40
543.79	2065.43
544.15	2078.12
544.51	2091.41
544.87	2103.92
545.22	2116.53
545.58	2128.30
545.94	2139.77
546.29	2151.27
546.65	2162.98
547.01	2173.98
547.36	2184.40
547.72	2194.56
548.07	2204.20
548.43	2213.92
548.79	2223.33
549.14	2232.67
549.50	2241.55
549.86	2250.52
550.21	2259.38
550.57	2268.08
550.92	2276.20
551.28	2284.70
551.64	2293.35
551.99	2301.42
552.35	2309.01
552.70	2316.70
553.06	2324.24
553.41	2332.07
553.77	2339.41
554.13	2346.96
554.48	2354.49
554.84	2361.62
555.19	2368.19
555.55	2374.88
555.90	2380.95
556.26	2387.57
556.61	2393.49
556.97	2399.47
557.32	2405.27
557.68	2410.83
558.03	2416.36
558.39	2421.26
558.74	2427.26
559.10	2432.47
559.45	2437.34
559.81	2442.76
560.16	2447.77
560.52	2452.26
560.87	2456.81
561.23	2460.71
561.58	2464.55
561.94	2468.23
562.29	2471.33
562.64	2475.33
563.00	2478.74
563.35	2483.33
563.71	2487.52
564.06	2491.73
564.42	2495.40
564.77	2499.09
565.12	2502.39
565.48	2505.45
565.83	2508.39
566.19	2510.69
566.54	2512.17
566.89	2514.32
567.25	2516.06
567.60	2518.21
567.96	2520.85
568.31	2522.54
568.66	2524.55
569.02	2526.04
569.37	2527.23
569.72	2529.10
570.08	2529.99
570.43	2530.62
570.78	2530.66
571.14	2529.62
571.49	2528.64
571.84	2528.78
572.20	2528.08
572.55	2527.52
572.90	2526.16
573.26	2525.42
573.61	2523.87
573.96	2522.84
574.31	2520.17
574.67	2517.48
575.02	2513.99
575.37	2510.74
575.72	2507.23
576.08	2503.85
576.43	2500.65
576.78	2497.12
577.13	2493.95
577.49	2490.79
577.84	2487.47
578.19	2483.60
578.54	2480.12
578.90	2476.18
579.25	2470.64
579.60	2465.52
579.95	2460.40
580.30	2455.39
580.66	2449.90
581.01	2444.81
581.36	2439.59
581.71	2435.33
582.06	2430.76
582.42	2426.22
582.77	2420.73
583.12	2415.93
583.47	2411.26
583.82	2406.24
584.17	2400.59
584.53	2394.77
584.88	2388.96
585.23	2383.03
585.58	2377.29
585.93	2371.55
586.28	2366.19
586.63	2360.80
586.98	2355.23
587.34	2350.16
587.69	2344.86
588.04	2339.30
588.39	2333.40
588.74	2326.47
589.09	2319.79
589.44	2312.48
589.79	2305.76
590.14	2299.62
590.49	2292.47
590.84	2285.29
591.19	2278.80
591.54	2271.78
591.89	2263.87
592.25	2256.53
592.60	2248.70
592.95	2240.65
593.30	2232.43
593.65	2224.24
594.00	2216.52
594.35	2208.70
594.70	2199.80
595.05	2192.22
595.40	2184.13
595.75	2175.87
596.10	2169.13
596.45	2161.73
596.80	2154.88
597.15	2147.76
597.50	2140.12
597.85	2132.89
598.19	2125.64
598.54	2117.80
598.89	2110.55
599.24	2103.91
599.59	2096.76
599.94	2089.80
600.29	2082.66
600.64	2075.33
600.99	2067.12
601.34	2059.53
601.69	2051.66
602.04	2044.27
602.39	2035.81
602.74	2028.19
603.08	2020.72
603.43	2012.99
603.78	2004.78
604.13	1996.72
604.48	1988.66
604.83	1980.91
605.18	1973.41
605.53	1964.57
605.87	1955.42
606.22	1947.13
606.57	1938.23
606.92	1929.43
607.27	1921.34
607.62	1913.57
607.96	1905.53
608.31	1898.27
608.66	1889.73
609.01	1881.43
609.36	1872.82
609.70	1863.94
610.05	1854.97
610.40	1846.10
610.75	1836.92
611.10	1828.36
611.44	1818.80
611.79	1809.68
612.14	1799.86
612.49	1789.42
612.83	1779.90
613.18	1770.79
613.53	1761.69
613.88	1752.16
614.22	1743.00
614.57	1733.14
614.92	1723.97
615.27	1715.44
615.61	1705.92
615.96	1696.76
616.31	1687.86
616.65	1679.41
617.00	1670.82
617.35	1662.06
617.70	1652.81
618.04	1643.21
618.39	1633.75
618.74	1625.20
619.08	1615.68
619.43	1607.03
619.78	1599.08
620.12	1590.96
620.47	1582.39
620.82	1573.09
621.16	1564.37
621.51	1555.61
621.85	1546.97
622.20	1537.30
622.55	1527.69
622.89	1518.65
623.24	1509.93
623.59	1501.46
623.93	1492.95
624.28	1484.62
624.62	1476.01
624.97	1467.64
625.32	1459.77
625.66	1451.85
626.01	1443.60
626.35	1435.34
626.70	1426.44
627.04	1417.70
627.39	1408.76
627.73	1400.26
628.08	1392.42
628.43	1384.39
628.77	1376.17
629.12	1367.64
629.46	1359.57
629.81	1351.03
630.15	1342.94
630.50	1334.67
630.84	1325.51
631.19	1316.45
631.53	1307.89
631.88	1299.33
632.22	1290.83
632.57	1282.53
632.91	1273.96
633.26	1265.55
633.60	1257.04
633.95	1248.99
634.29	1240.92
634.64	1233.31
634.98	1225.08
635.32	1217.02
635.67	1209.40
636.01	1201.82
636.36	1194.20
636.70	1186.78
637.05	1179.39
637.39	1171.91
637.73	1164.45
638.08	1157.80
638.42	1150.99
638.77	1143.77
639.11	1136.37
639.45	1129.10
639.80	1121.58
640.14	1114.36
640.49	1107.06
640.83	1099.98
641.17	1093.04
641.52	1085.94
641.86	1078.73
642.20	1072.14
642.55	1065.00
642.89	1057.80
643.23	1050.36
643.58	1043.78
643.92	1036.85
644.26	1030.20
644.61	1023.37
644.95	1016.66
645.29	1009.35
645.64	1001.85
645.98	994.62
646.32	987.88
646.66	981.13
647.01	974.61
647.35	968.14
647.69	961.44
648.04	955.19
648.38	948.76
648.72	942.16
649.06	935.40
649.41	928.79
649.75	922.06
650.09	915.36
650.43	908.91
650.78	901.98
651.12	895.27
651.46	888.79
651.80	882.44
652.14	876.33
652.49	870.32
652.83	864.49
653.17	858.31
653.51	852.08
653.85	845.92
654.20	839.63
654.54	832.94
654.88	826.59
655.22	819.98
655.56	813.49
655.90	807.24
656.25	801.37
656.59	795.30
656.93	789.62
657.27	783.84
657.61	777.72
657.95	772.00
658.29	766.31
658.64	760.29
658.98	754.36
659.32	748.25
659.66	742.36
660.00	736.50
660.34	730.92
660.68	725.36
661.02	719.77
661.36	714.57
661.70	709.54
662.05	704.65
662.39	699.92
662.73	694.97
663.07	690.10
663.41	685.14
663.75	680.13
664.09	674.97
664.43	670.04
664.77	665.53
665.11	660.83
665.45	656.16
665.79	651.70
666.13	647.07
666.47	642.48
666.81	637.87
667.15	633.23
667.49	628.76
667.83	624.40
668.17	620.00
668.51	615.42
668.85	610.88
669.19	606.48
669.53	602.11
669.87	597.76
670.21	593.60
670.55	589.50
670.89	585.67
671.23	581.86
671.57	577.88
671.91	573.95
672.25	569.95
672.58	566.08
672.92	562.23
673.26	558.66
673.60	555.05
673.94	551.57
674.28	548.24
674.62	544.96
674.96	541.58
675.30	538.41
675.64	535.11
675.97	532.02
676.31	528.87
676.65	525.57
676.99	522.49
677.33	519.26
677.67	516.12
678.01	512.72
678.34	509.49
678.68	506.24
679.02	503.06
679.36	499.99
679.70	496.85
680.04	493.76
680.37	490.62
680.71	487.56
681.05	484.64
681.39	481.60
681.73	478.61
682.06	475.81
682.40	472.93
682.74	470.11
683.08	467.22
683.42	464.31
683.75	461.53
684.09	458.70
684.43	455.98
684.77	453.20
685.10	450.59
685.44	447.87
685.78	445.37
686.12	442.85
686.45	440.26
686.79	437.71
687.13	435.26
687.46	432.79
687.80	430.34
688.14	427.80
688.48	425.56
688.81	423.12
689.15	420.70
689.49	418.26
689.82	415.96
690.16	413.63
690.50	411.42
690.83	409.25
691.17	407.01
691.51	404.84
691.84	402.81
692.18	400.65
692.52	398.48
692.85	396.23
693.19	394.13
693.52	392.07
693.86	390.04
694.20	388.04
694.53	386.07
694.87	383.94
695.21	381.96
695.54	379.85
695.88	377.87
696.21	375.92
696.55	374.06
696.88	372.13
697.22	370.24
697.56	368.41
697.89	366.55
698.23	364.77
698.56	362.96
698.90	361.13
699.23	359.30
699.57	357.59
699.90	355.87
700.24	354.09
700.58	352.42
700.91	350.77
701.25	349.11
701.58	347.53
701.92	346.06
702.25	344.52
702.59	343.00
702.92	341.54
703.26	340.04
703.59	338.58
703.93	337.25
704.26	335.92
704.60	334.44
704.93	333.00
705.26	331.59
705.60	330.25
705.93	328.94
706.27	327.73
706.60	326.54
706.94	325.30
707.27	324.04
707.61	322.79
707.94	321.58
708.27	320.37
708.61	319.14
708.94	317.99
709.28	316.85
709.61	315.73
709.94	314.62
710.28	313.51
710.61	312.41
710.95	311.15
711.28	310.01
711.61	308.99
711.95	307.95
712.28	306.93
712.61	305.85
712.95	304.82
713.28	303.83
713.61	302.78
713.95	301.85
714.28	300.88
714.61	299.91
714.95	298.98
715.28	297.99
715.61	297.03
715.95	296.04
716.28	295.08
716.61	294.14
716.95	293.19
717.28	292.34
717.61	291.47
717.94	290.64
718.28	289.79
718.61	288.94
718.94	288.17
719.27	287.38
719.61	286.61
719.94	285.84
720.27	285.05
720.60	284.34
720.94	283.61
721.27	282.94
721.60	282.33
721.93	281.67
722.27	281.07
722.60	280.42
722.93	279.79
723.26	279.18
723.59	278.57
723.93	277.93
724.26	277.26
724.59	276.60
724.92	275.97
725.25	275.40
725.59	274.82
725.92	274.24
726.25	273.68
726.58	273.11
726.91	272.54
727.24	271.99
727.57	271.47
727.91	270.88
728.24	270.39
728.57	269.79
728.90	269.28
729.23	268.74
729.56	268.27
729.89	267.78
730.22	267.23
730.55	266.69
730.89	266.21
731.22	265.74
731.55	265.27
731.88	264.85
732.21	264.37
732.54	263.93
732.87	263.45
733.20	262.97
733.53	262.59
733.86	262.17
734.19	261.75
734.52	261.32
734.85	260.98
735.18	260.49
735.51	260.10
735.84	259.67
736.17	259.27
736.50	258.80
736.83	258.54
737.16	258.18
737.49	257.80
737.82	257.40
738.15	257.04
738.48	256.65
738.81	256.29
739.14	255.94
739.47	255.55
739.80	255.24
740.13	254.89
740.46	254.51
740.79	254.14
741.12	253.80
741.45	253.43
741.78	253.03
742.11	252.71
742.44	252.35
742.77	252.03
743.10	251.68
743.43	251.33
743.75	250.88
744.08	250.73
744.41	250.41
744.74	250.17
745.07	249.84
745.40	249.57
745.73	249.30
746.06	248.96
746.39	248.65
746.71	248.31
747.04	248.01
747.37	247.69
747.70	247.40
748.03	247.06
748.36	246.81
748.68	246.54
749.01	246.22
749.34	245.97
749.67	245.71
750.00	245.50
750.33	245.34
750.65	245.11
750.98	244.72
751.31	244.49
751.64	244.22
751.97	244.00
752.29	243.76
752.62	243.45
752.95	243.24
753.28	243.00
753.60	242.77
753.93	242.56
754.26	242.38
754.59	242.11
754.91	241.89
755.24	241.63
755.57	241.43
755.90	241.26
756.22	241.03
756.55	240.76
756.88	240.49
757.20	240.20
757.53	239.95
757.86	239.71
758.19	239.54
758.51	239.34
758.84	239.15
759.17	238.96
759.49	238.82
759.82	238.69
760.15	238.50
760.47	238.33
760.80	238.16
761.13	237.99
761.45	237.82
761.78	237.67
762.11	237.49
762.43	237.28
762.76	237.07
763.08	236.91
763.41	236.82
763.74	236.67
764.06	236.54
764.39	236.39
764.71	236.25
765.04	236.08
765.37	235.91
765.69	235.74
766.02	235.59
766.34	235.42
766.67	235.24
767.00	235.15
767.32	235.07
767.65	235.00
767.97	234.87
768.30	234.76
768.62	234.66
768.95	234.58
769.27	234.50
769.60	234.42
769.92	234.28
770.25	234.13
770.57	234.02
770.90	233.89
771.22	233.85
771.55	233.72
771.87	233.63
772.20	233.53
772.52	233.54
772.85	233.55
773.17	233.43
773.50	233.33
773.82	233.21
774.15	233.06
774.47	232.92
774.80	232.85
775.12	232.80
775.45	232.70
775.77	232.60
776.09	232.51
776.42	232.46
776.74	232.41
777.07	232.33
777.39	232.28
777.72	232.26
778.04	232.19
778.36	232.16
778.69	232.09
779.01	232.03
779.33	231.84
779.66	231.67
779.98	231.60
780.31	231.52
780.63	231.52
780.95	231.47
781.28	231.37
781.60	231.30
781.92	231.21
782.25	231.14
782.57	231.08
782.89	231.01
783.22	230.94
783.54	230.87
783.86	230.82
784.19	230.74
784.51	230.68
784.83	230.58
785.16	230.48
785.48	230.42
785.80	230.40
786.12	230.40
786.45	230.36
786.77	230.32
