SpectraSuite Data File
++++++++++++++++++++++++++++++++++++
Date: Fri Feb 01 15:48:56 EST 2013
User: group
Dark Spectrum Present: No
Reference Spectrum Present: No
Number of Sampled Component Spectra: 1
Spectrometers: USB2E7196
Integration Time (usec): 35000 (USB2E7196)
Spectra Averaged: 100 (USB2E7196)
Boxcar Smoothing: 10 (USB2E7196)
Correct for Electrical Dark: No (USB2E7196)
Strobe/Lamp Enabled: No (USB2E7196)
Correct for Detector Non-linearity: No (USB2E7196)
Correct for Stray Light: No (USB2E7196)
Number of Pixels in Processed Spectrum: 2048
>>>>>Begin Processed Spectral Data<<<<<
339.09	0.00
339.48	214.59
339.86	216.07
340.24	218.08
340.63	219.21
341.01	222.19
341.39	221.53
341.78	222.31
342.16	223.97
342.54	224.66
342.93	213.11
343.31	223.86
343.69	224.41
344.07	224.88
344.46	225.29
344.84	225.62
345.22	225.81
345.60	226.08
345.99	226.30
346.37	226.44
346.75	226.55
347.13	226.62
347.52	226.64
347.90	226.70
348.28	226.70
348.66	226.74
349.05	226.75
349.43	226.78
349.81	226.85
350.19	226.89
350.57	226.96
350.96	227.03
351.34	227.13
351.72	227.23
352.10	227.32
352.48	227.40
352.87	227.49
353.25	227.57
353.63	227.63
354.01	227.72
354.39	227.82
354.77	227.89
355.15	228.02
355.54	228.12
355.92	228.17
356.30	228.25
356.68	228.40
357.06	228.48
357.44	228.54
357.82	228.62
358.20	228.70
358.58	228.77
358.97	228.84
359.35	228.92
359.73	229.00
360.11	229.08
360.49	229.16
360.87	229.21
361.25	229.30
361.63	229.38
362.01	229.46
362.39	229.49
362.77	229.53
363.15	229.54
363.53	229.54
363.91	229.58
364.29	229.60
364.67	229.54
365.05	229.55
365.43	229.58
365.81	229.61
366.19	229.65
366.57	229.67
366.95	229.66
367.33	229.62
367.71	229.60
368.09	229.57
368.47	229.51
368.85	229.47
369.23	229.46
369.61	229.38
369.99	229.36
370.37	229.31
370.75	229.32
371.13	229.28
371.51	229.23
371.89	229.15
372.27	229.09
372.65	229.04
373.03	228.99
373.41	228.91
373.78	228.80
374.16	228.71
374.54	228.60
374.92	228.52
375.30	228.43
375.68	228.38
376.06	228.34
376.44	228.27
376.82	228.23
377.19	228.13
377.57	228.05
377.95	227.92
378.33	227.85
378.71	227.69
379.09	227.63
379.47	227.59
379.84	227.52
380.22	227.45
380.60	227.36
380.98	227.28
381.36	227.22
381.73	227.14
382.11	227.08
382.49	227.03
382.87	226.93
383.25	226.89
383.62	226.91
384.00	226.81
384.38	226.75
384.76	226.71
385.13	226.69
385.51	226.68
385.89	226.62
386.27	226.56
386.64	226.55
387.02	226.47
387.40	226.41
387.78	226.37
388.15	226.34
388.53	226.32
388.91	226.30
389.29	226.29
389.66	226.29
390.04	226.26
390.42	226.25
390.79	226.26
391.17	226.25
391.55	226.16
391.92	226.17
392.30	226.20
392.68	226.18
393.05	226.17
393.43	226.16
393.81	226.17
394.18	226.20
394.56	226.21
394.94	226.25
395.31	226.30
395.69	226.37
396.06	226.41
396.44	226.44
396.82	226.47
397.19	226.56
397.57	226.59
397.95	226.64
398.32	226.67
398.70	226.72
399.07	226.83
399.45	226.87
399.82	226.92
400.20	226.99
400.58	227.06
400.95	227.10
401.33	227.18
401.70	227.35
402.08	227.44
402.45	227.55
402.83	227.68
403.20	227.78
403.58	227.87
403.95	227.99
404.33	228.11
404.71	228.22
405.08	228.40
405.46	228.53
405.83	228.69
406.21	228.84
406.58	229.02
406.96	229.14
407.33	229.36
407.70	229.58
408.08	229.85
408.45	230.08
408.83	230.32
409.20	230.54
409.58	230.68
409.95	230.94
410.33	231.20
410.70	231.45
411.08	231.71
411.45	232.03
411.82	232.35
412.20	232.73
412.57	233.16
412.95	233.46
413.32	233.89
413.69	234.30
414.07	234.77
414.44	235.22
414.82	235.69
415.19	236.22
415.56	236.76
415.94	237.29
416.31	237.92
416.68	238.56
417.06	239.26
417.43	239.99
417.81	240.75
418.18	241.51
418.55	242.33
418.93	243.24
419.30	244.11
419.67	245.05
420.04	245.98
420.42	246.95
420.79	248.12
421.16	249.26
421.54	250.47
421.91	251.68
422.28	252.91
422.66	254.24
423.03	255.51
423.40	256.84
423.77	258.24
424.15	259.67
424.52	261.15
424.89	262.77
425.26	264.31
425.64	265.78
426.01	267.39
426.38	269.09
426.75	270.72
427.13	272.42
427.50	274.24
427.87	276.14
428.24	278.00
428.61	279.74
428.99	281.68
429.36	283.75
429.73	285.81
430.10	287.88
430.47	289.93
430.85	292.11
431.22	294.36
431.59	296.70
431.96	298.93
432.33	301.43
432.70	303.79
433.08	306.62
433.45	309.22
433.82	311.81
434.19	314.68
434.56	317.52
434.93	320.23
435.30	322.87
435.68	325.73
436.05	328.58
436.42	331.36
436.79	333.83
437.16	336.56
437.53	339.38
437.90	342.17
438.27	344.96
438.64	347.76
439.01	350.35
439.38	352.61
439.75	354.75
440.13	357.19
440.50	359.53
440.87	361.36
441.24	363.32
441.61	365.44
441.98	366.87
442.35	368.66
442.72	370.49
443.09	372.22
443.46	373.23
443.83	373.81
444.20	374.34
444.57	375.24
444.94	375.48
445.31	375.81
445.68	376.15
446.05	376.18
446.42	375.77
446.79	375.35
447.16	374.91
447.53	374.60
447.90	373.44
448.27	372.27
448.64	370.67
449.01	369.53
449.37	367.61
449.74	365.72
450.11	363.48
450.48	361.00
450.85	358.53
451.22	356.38
451.59	354.39
451.96	352.44
452.33	349.82
452.70	347.50
453.07	344.68
453.43	341.80
453.80	339.05
454.17	336.39
454.54	333.85
454.91	331.11
455.28	328.47
455.65	326.01
456.02	323.59
456.38	321.47
456.75	318.84
457.12	316.60
457.49	314.42
457.86	312.28
458.23	310.46
458.59	308.40
458.96	306.31
459.33	304.45
459.70	302.60
460.07	301.11
460.43	299.37
460.80	297.76
461.17	296.32
461.54	294.82
461.91	293.40
462.27	292.00
462.64	290.76
463.01	289.40
463.38	288.12
463.74	286.76
464.11	285.56
464.48	284.48
464.85	283.35
465.21	282.47
465.58	281.53
465.95	280.43
466.32	279.54
466.68	278.67
467.05	277.74
467.42	276.83
467.78	275.90
468.15	275.03
468.52	274.37
468.88	273.53
469.25	272.76
469.62	272.12
469.98	271.39
470.35	270.77
470.72	270.17
471.08	269.50
471.45	268.96
471.82	268.45
472.18	267.88
472.55	267.46
472.92	266.92
473.28	266.47
473.65	266.00
474.02	265.55
474.38	265.16
474.75	264.84
475.11	264.51
475.48	264.22
475.85	264.01
476.21	263.79
476.58	263.62
476.94	263.45
477.31	263.30
477.67	263.19
478.04	263.07
478.41	263.02
478.77	263.05
479.14	262.99
479.50	263.01
479.87	263.07
480.23	263.17
480.60	263.26
480.96	263.37
481.33	263.56
481.69	263.79
482.06	263.97
482.42	264.20
482.79	264.48
483.15	264.81
483.52	265.20
483.88	265.54
484.25	265.91
484.61	266.37
484.98	266.81
485.34	267.35
485.71	267.98
486.07	268.57
486.44	269.15
486.80	269.84
487.17	270.57
487.53	271.40
487.90	272.26
488.26	273.22
488.62	274.18
488.99	275.17
489.35	276.23
489.72	277.36
490.08	278.55
490.44	279.82
490.81	281.14
491.17	282.49
491.54	283.92
491.90	285.46
492.26	287.05
492.63	288.80
492.99	290.65
493.36	292.49
493.72	294.51
494.08	296.61
494.45	298.88
494.81	301.21
495.17	303.66
495.54	306.21
495.90	308.86
496.26	311.69
496.63	314.69
496.99	317.76
497.35	321.03
497.72	324.44
498.08	327.95
498.44	331.62
498.80	335.52
499.17	339.61
499.53	343.78
499.89	348.20
500.26	352.67
500.62	357.32
500.98	362.29
501.34	367.41
501.71	372.73
502.07	378.23
502.43	383.89
502.79	389.69
503.16	395.76
503.52	402.03
503.88	408.41
504.24	415.00
504.60	421.92
504.97	429.05
505.33	436.40
505.69	444.10
506.05	451.90
506.41	459.83
506.78	467.97
507.14	476.44
507.50	485.17
507.86	494.20
508.22	503.33
508.59	512.55
508.95	522.11
509.31	531.93
509.67	542.03
510.03	552.35
510.39	562.91
510.75	573.68
511.12	584.62
511.48	595.95
511.84	607.41
512.20	618.90
512.56	630.83
512.92	642.96
513.28	655.27
513.64	667.81
514.00	680.51
514.37	693.45
514.73	706.50
515.09	719.47
515.45	732.84
515.81	746.45
516.17	760.49
516.53	774.63
516.89	788.76
517.25	802.87
517.61	817.29
517.97	831.73
518.33	846.17
518.69	861.00
519.05	876.02
519.41	891.12
519.77	906.64
520.13	922.06
520.49	937.44
520.85	952.92
521.21	968.56
521.57	984.71
521.93	1000.41
522.29	1016.77
522.65	1033.00
523.01	1049.18
523.37	1065.17
523.73	1081.31
524.09	1097.39
524.45	1113.68
524.81	1130.36
525.17	1147.14
525.53	1164.01
525.89	1180.91
526.25	1197.58
526.61	1213.84
526.97	1230.64
527.33	1247.09
527.68	1263.78
528.04	1280.34
528.40	1296.88
528.76	1313.84
529.12	1330.47
529.48	1347.38
529.84	1363.38
530.20	1379.99
530.56	1396.87
530.91	1414.28
531.27	1431.05
531.63	1447.45
531.99	1464.07
532.35	1479.91
532.71	1495.68
533.07	1511.99
533.42	1527.86
533.78	1543.99
534.14	1560.31
534.50	1575.67
534.86	1591.59
535.21	1606.73
535.57	1622.62
535.93	1638.10
536.29	1652.98
536.65	1668.06
537.00	1682.84
537.36	1698.23
537.72	1712.69
538.08	1727.15
538.44	1740.90
538.79	1754.78
539.15	1768.43
539.51	1782.10
539.87	1796.63
540.22	1810.43
540.58	1824.12
540.94	1837.44
541.29	1850.39
541.65	1863.12
542.01	1876.32
542.37	1888.49
542.72	1900.87
543.08	1912.51
543.44	1924.90
543.79	1936.12
544.15	1947.02
544.51	1958.54
544.87	1969.39
545.22	1980.28
545.58	1990.54
545.94	2000.40
546.29	2010.24
546.65	2020.11
547.01	2029.25
547.36	2037.84
547.72	2046.33
548.07	2054.15
548.43	2062.43
548.79	2070.36
549.14	2077.83
549.50	2085.19
549.86	2092.91
550.21	2100.31
550.57	2107.66
550.92	2114.11
551.28	2121.07
551.64	2128.16
551.99	2134.83
552.35	2140.98
552.70	2147.10
553.06	2153.03
553.41	2159.30
553.77	2165.34
554.13	2171.46
554.48	2177.78
554.84	2183.25
555.19	2188.65
555.55	2193.81
555.90	2198.24
556.26	2203.20
556.61	2207.92
556.97	2212.06
557.32	2216.18
557.68	2220.26
558.03	2224.47
558.39	2228.31
558.74	2233.08
559.10	2237.08
559.45	2240.63
559.81	2244.91
560.16	2248.89
560.52	2252.07
560.87	2255.49
561.23	2258.15
561.58	2261.08
561.94	2263.68
562.29	2266.07
562.64	2268.59
563.00	2271.14
563.35	2274.59
563.71	2277.64
564.06	2280.89
564.42	2283.91
564.77	2286.45
565.12	2288.61
565.48	2290.47
565.83	2292.35
566.19	2293.60
566.54	2294.42
566.89	2295.64
567.25	2296.28
567.60	2297.54
567.96	2299.33
568.31	2300.10
568.66	2301.08
569.02	2301.54
569.37	2301.78
569.72	2302.50
570.08	2302.76
570.43	2302.84
570.78	2302.19
571.14	2300.61
571.49	2299.31
571.84	2298.90
572.20	2297.82
572.55	2296.73
572.90	2295.20
573.26	2293.71
573.61	2292.04
573.96	2290.24
574.31	2287.31
574.67	2284.28
575.02	2280.54
575.37	2277.16
575.72	2273.46
576.08	2270.22
576.43	2266.92
576.78	2263.15
577.13	2260.02
577.49	2256.92
577.84	2253.38
578.19	2249.73
578.54	2246.26
578.90	2241.83
579.25	2236.20
579.60	2231.18
579.95	2226.23
580.30	2221.15
580.66	2216.01
581.01	2210.97
581.36	2206.02
581.71	2201.71
582.06	2197.18
582.42	2192.79
582.77	2187.43
583.12	2182.80
583.47	2178.04
583.82	2173.10
584.17	2167.80
584.53	2162.45
584.88	2156.71
585.23	2150.99
585.58	2145.47
585.93	2139.79
586.28	2135.20
586.63	2130.25
586.98	2125.13
587.34	2120.42
587.69	2115.50
588.04	2110.25
588.39	2104.59
588.74	2098.32
589.09	2092.14
589.44	2085.46
589.79	2079.55
590.14	2073.99
590.49	2067.29
590.84	2060.90
591.19	2054.84
591.54	2048.46
591.89	2040.89
592.25	2034.06
592.60	2026.79
592.95	2019.18
593.30	2011.92
593.65	2004.20
594.00	1997.04
594.35	1989.86
594.70	1981.85
595.05	1974.54
595.40	1967.24
595.75	1959.67
596.10	1953.31
596.45	1946.47
596.80	1940.31
597.15	1933.53
597.50	1926.50
597.85	1920.15
598.19	1913.39
598.54	1906.12
598.89	1899.51
599.24	1893.69
599.59	1886.96
599.94	1880.87
600.29	1874.55
600.64	1868.00
600.99	1860.63
601.34	1853.81
601.69	1846.94
602.04	1839.94
602.39	1832.78
602.74	1825.96
603.08	1819.47
603.43	1812.70
603.78	1805.49
604.13	1798.19
604.48	1790.94
604.83	1783.99
605.18	1777.04
605.53	1769.08
605.87	1761.28
606.22	1754.09
606.57	1746.09
606.92	1738.84
607.27	1731.57
607.62	1724.59
607.96	1717.20
608.31	1710.62
608.66	1703.07
609.01	1695.43
609.36	1687.96
609.70	1679.89
610.05	1671.74
610.40	1663.90
610.75	1655.62
611.10	1647.90
611.44	1639.51
611.79	1631.50
612.14	1622.82
612.49	1613.73
612.83	1605.43
613.18	1597.21
613.53	1589.06
613.88	1580.50
614.22	1572.26
614.57	1563.68
614.92	1555.69
615.27	1548.08
615.61	1539.68
615.96	1531.63
616.31	1523.96
616.65	1516.64
617.00	1509.10
617.35	1501.50
617.70	1493.10
618.04	1484.51
618.39	1476.30
618.74	1468.64
619.08	1460.38
619.43	1452.73
619.78	1445.77
620.12	1438.49
620.47	1430.99
620.82	1422.83
621.16	1415.55
621.51	1407.91
621.85	1400.25
622.20	1391.68
622.55	1383.39
622.89	1375.52
623.24	1367.94
623.59	1360.51
623.93	1352.99
624.28	1345.68
624.62	1338.09
624.97	1330.86
625.32	1324.19
625.66	1317.12
626.01	1309.98
626.35	1302.46
626.70	1294.81
627.04	1287.02
627.39	1279.29
627.73	1271.90
628.08	1265.01
628.43	1257.53
628.77	1250.09
629.12	1242.53
629.46	1235.36
629.81	1228.05
630.15	1220.78
630.50	1213.32
630.84	1205.13
631.19	1197.16
631.53	1189.79
631.88	1182.27
632.22	1174.78
632.57	1167.44
632.91	1159.89
633.26	1152.51
633.60	1145.15
633.95	1138.03
634.29	1131.10
634.64	1124.48
634.98	1117.09
635.32	1109.87
635.67	1103.42
636.01	1096.83
636.36	1090.10
636.70	1083.63
637.05	1077.00
637.39	1070.58
637.73	1064.07
638.08	1058.22
638.42	1052.14
638.77	1045.65
639.11	1039.08
639.45	1032.54
639.80	1025.91
640.14	1019.62
640.49	1013.03
640.83	1006.80
641.17	1000.53
641.52	994.13
641.86	987.62
642.20	981.81
642.55	975.53
642.89	968.90
643.23	962.37
643.58	956.55
643.92	950.34
644.26	944.18
644.61	938.17
644.95	932.06
645.29	925.42
645.64	918.74
645.98	912.40
646.32	906.62
646.66	900.75
647.01	894.88
647.35	889.09
647.69	883.31
648.04	877.74
648.38	871.93
648.72	865.89
649.06	859.91
649.41	854.01
649.75	848.00
650.09	842.21
650.43	836.35
650.78	830.14
651.12	824.18
651.46	818.51
651.80	812.76
652.14	807.51
652.49	802.16
652.83	797.02
653.17	791.29
653.51	785.48
653.85	780.02
654.20	774.47
654.54	768.48
654.88	762.80
655.22	756.93
655.56	751.24
655.90	745.84
656.25	740.58
656.59	735.15
656.93	730.12
657.27	724.94
657.61	719.58
657.95	714.58
658.29	709.47
658.64	704.28
658.98	698.99
659.32	693.48
659.66	688.29
660.00	683.03
660.34	678.12
660.68	673.23
661.02	668.17
661.36	663.37
661.70	658.90
662.05	654.48
662.39	650.06
662.73	645.63
663.07	641.24
663.41	636.77
663.75	632.35
664.09	627.79
664.43	623.37
664.77	619.19
665.11	614.88
665.45	610.81
665.79	606.67
666.13	602.51
666.47	598.37
666.81	594.20
667.15	590.04
667.49	586.14
667.83	582.31
668.17	578.40
668.51	574.35
668.85	570.28
669.19	566.47
669.53	562.68
669.87	558.83
670.21	555.11
670.55	551.43
670.89	547.97
671.23	544.51
671.57	541.01
671.91	537.47
672.25	534.06
672.58	530.44
672.92	527.06
673.26	523.91
673.60	520.76
673.94	517.64
674.28	514.71
674.62	511.69
674.96	508.57
675.30	505.63
675.64	502.67
675.97	499.93
676.31	496.99
676.65	494.05
676.99	491.31
677.33	488.41
677.67	485.66
678.01	482.64
678.34	479.65
678.68	476.76
679.02	473.95
679.36	471.09
679.70	468.44
680.04	465.70
680.37	462.80
680.71	460.05
681.05	457.42
681.39	454.72
681.73	452.12
682.06	449.67
682.40	447.17
682.74	444.65
683.08	442.10
683.42	439.53
683.75	437.02
684.09	434.45
684.43	432.02
684.77	429.54
685.10	427.19
685.44	424.94
685.78	422.66
686.12	420.44
686.45	418.16
686.79	415.84
687.13	413.64
687.46	411.53
687.80	409.42
688.14	407.22
688.48	405.19
688.81	402.89
689.15	400.69
689.49	398.52
689.82	396.51
690.16	394.43
690.50	392.54
690.83	390.60
691.17	388.67
691.51	386.82
691.84	384.94
692.18	383.02
692.52	381.01
692.85	379.12
693.19	377.20
693.52	375.44
693.86	373.67
694.20	371.89
694.53	370.08
694.87	368.23
695.21	366.44
695.54	364.59
695.88	362.87
696.21	361.19
696.55	359.50
696.88	357.77
697.22	356.09
697.56	354.42
697.89	352.80
698.23	351.19
698.56	349.55
698.90	347.97
699.23	346.31
699.57	344.77
699.90	343.22
700.24	341.71
700.58	340.13
700.91	338.64
701.25	337.19
701.58	335.86
701.92	334.51
702.25	333.15
702.59	331.81
702.92	330.56
703.26	329.29
703.59	327.99
703.93	326.81
704.26	325.60
704.60	324.29
704.93	322.98
705.26	321.70
705.60	320.53
705.93	319.36
706.27	318.34
706.60	317.33
706.94	316.29
707.27	315.18
707.61	314.15
707.94	313.13
708.27	312.04
708.61	310.92
708.94	309.86
709.28	308.89
709.61	307.92
709.94	306.97
710.28	305.91
710.61	304.99
710.95	303.95
711.28	303.03
711.61	302.13
711.95	301.24
712.28	300.30
712.61	299.30
712.95	298.38
713.28	297.47
713.61	296.56
713.95	295.63
714.28	294.80
714.61	293.93
714.95	293.04
715.28	292.18
715.61	291.34
715.95	290.47
716.28	289.59
716.61	288.74
716.95	287.89
717.28	287.14
717.61	286.37
717.94	285.61
718.28	284.77
718.61	284.01
718.94	283.27
719.27	282.62
719.61	281.98
719.94	281.30
720.27	280.58
720.60	279.90
720.94	279.28
721.27	278.63
721.60	278.03
721.93	277.45
722.27	276.93
722.60	276.34
722.93	275.79
723.26	275.25
723.59	274.66
723.93	274.12
724.26	273.58
724.59	272.99
724.92	272.45
725.25	271.97
725.59	271.42
725.92	270.94
726.25	270.37
726.58	269.90
726.91	269.41
727.24	268.92
727.57	268.44
727.91	267.88
728.24	267.45
728.57	266.93
728.90	266.44
729.23	265.92
729.56	265.47
729.89	264.99
730.22	264.53
730.55	264.08
730.89	263.60
731.22	263.12
731.55	262.69
731.88	262.27
732.21	261.85
732.54	261.45
732.87	261.06
733.20	260.69
733.53	260.33
733.86	259.94
734.19	259.57
734.52	259.20
734.85	258.91
735.18	258.46
735.51	258.11
735.84	257.74
736.17	257.41
736.50	257.00
736.83	256.80
737.16	256.46
737.49	256.14
737.82	255.80
738.15	255.51
738.48	255.17
738.81	254.83
739.14	254.50
739.47	254.18
739.80	253.84
740.13	253.53
740.46	253.18
740.79	252.88
741.12	252.58
741.45	252.26
741.78	251.93
742.11	251.67
742.44	251.39
742.77	251.12
743.10	250.79
743.43	250.48
743.75	250.09
744.08	249.94
744.41	249.66
744.74	249.40
745.07	249.11
745.40	248.88
745.73	248.63
746.06	248.37
746.39	248.11
746.71	247.86
747.04	247.63
747.37	247.35
747.70	247.10
748.03	246.85
748.36	246.63
748.68	246.42
749.01	246.18
749.34	245.92
749.67	245.70
750.00	245.51
750.33	245.39
750.65	245.16
750.98	244.82
751.31	244.61
751.64	244.39
751.97	244.21
752.29	243.96
752.62	243.74
752.95	243.54
753.28	243.34
753.60	243.16
753.93	242.98
754.26	242.79
754.59	242.56
754.91	242.37
755.24	242.16
755.57	241.96
755.90	241.78
756.22	241.62
756.55	241.41
756.88	241.22
757.20	240.99
757.53	240.79
757.86	240.58
758.19	240.44
758.51	240.28
758.84	240.09
759.17	239.95
759.49	239.77
759.82	239.66
760.15	239.49
760.47	239.30
760.80	239.12
761.13	239.03
761.45	238.87
761.78	238.72
762.11	238.56
762.43	238.37
762.76	238.20
763.08	238.04
763.41	237.93
763.74	237.78
764.06	237.63
764.39	237.51
764.71	237.39
765.04	237.23
765.37	237.11
765.69	236.97
766.02	236.81
766.34	236.69
766.67	236.52
767.00	236.40
767.32	236.35
767.65	236.30
767.97	236.14
768.30	236.05
768.62	235.92
768.95	235.79
769.27	235.71
769.60	235.61
769.92	235.50
770.25	235.39
770.57	235.28
770.90	235.15
771.22	235.02
771.55	234.94
771.87	234.85
772.20	234.74
772.52	234.76
772.85	234.80
773.17	234.73
773.50	234.64
773.82	234.54
774.15	234.38
774.47	234.24
774.80	234.17
775.12	234.06
775.45	234.01
775.77	233.99
776.09	233.89
776.42	233.83
776.74	233.78
777.07	233.70
777.39	233.64
777.72	233.61
778.04	233.58
778.36	233.49
778.69	233.46
779.01	233.40
779.33	233.23
779.66	233.04
779.98	232.94
780.31	232.88
780.63	232.86
780.95	232.83
781.28	232.75
781.60	232.70
781.92	232.67
782.25	232.60
782.57	232.53
782.89	232.46
783.22	232.43
783.54	232.38
783.86	232.35
784.19	232.29
784.51	232.27
784.83	232.22
785.16	232.19
785.48	232.14
785.80	232.10
786.12	232.07
786.45	232.03
786.77	232.02
787.09	231.96
