SpectraSuite Data File
++++++++++++++++++++++++++++++++++++
Date: Fri Feb 01 17:10:28 EST 2013
User: group
Dark Spectrum Present: No
Reference Spectrum Present: No
Number of Sampled Component Spectra: 1
Spectrometers: USB2E7196
Integration Time (usec): 35000 (USB2E7196)
Spectra Averaged: 100 (USB2E7196)
Boxcar Smoothing: 10 (USB2E7196)
Correct for Electrical Dark: No (USB2E7196)
Strobe/Lamp Enabled: No (USB2E7196)
Correct for Detector Non-linearity: No (USB2E7196)
Correct for Stray Light: No (USB2E7196)
Number of Pixels in Processed Spectrum: 2048
>>>>>Begin Processed Spectral Data<<<<<
339.09	0.00
339.48	213.62
339.86	214.99
340.24	216.03
340.63	217.93
341.01	220.25
341.39	220.67
341.78	221.73
342.16	222.72
342.54	223.41
342.93	211.72
343.31	222.41
343.69	222.93
344.07	223.38
344.46	223.80
344.84	224.16
345.22	224.39
345.60	224.59
345.99	224.75
346.37	224.88
346.75	224.94
347.13	224.99
347.52	225.03
347.90	225.08
348.28	225.13
348.66	225.21
349.05	225.20
349.43	225.23
349.81	225.25
350.19	225.26
350.57	225.31
350.96	225.37
351.34	225.44
351.72	225.49
352.10	225.57
352.48	225.64
352.87	225.69
353.25	225.74
353.63	225.81
354.01	225.87
354.39	225.97
354.77	226.07
355.15	226.17
355.54	226.21
355.92	226.28
356.30	226.38
356.68	226.51
357.06	226.58
357.44	226.65
357.82	226.74
358.20	226.81
358.58	226.88
358.97	226.97
359.35	227.07
359.73	227.21
360.11	227.27
360.49	227.31
360.87	227.36
361.25	227.45
361.63	227.55
362.01	227.62
362.39	227.62
362.77	227.66
363.15	227.68
363.53	227.73
363.91	227.75
364.29	227.76
364.67	227.66
365.05	227.70
365.43	227.75
365.81	227.80
366.19	227.88
366.57	227.98
366.95	227.98
367.33	227.94
367.71	227.91
368.09	227.93
368.47	227.96
368.85	227.96
369.23	227.94
369.61	227.86
369.99	227.87
370.37	227.87
370.75	227.88
371.13	227.83
371.51	227.81
371.89	227.79
372.27	227.75
372.65	227.74
373.03	227.73
373.41	227.64
373.78	227.53
374.16	227.43
374.54	227.32
374.92	227.26
375.30	227.21
375.68	227.14
376.06	227.09
376.44	227.01
376.82	226.96
377.19	226.91
377.57	226.86
377.95	226.77
378.33	226.71
378.71	226.58
379.09	226.58
379.47	226.51
379.84	226.43
380.22	226.35
380.60	226.29
380.98	226.17
381.36	226.11
381.73	226.05
382.11	226.00
382.49	225.95
382.87	225.88
383.25	225.84
383.62	225.89
384.00	225.78
384.38	225.72
384.76	225.67
385.13	225.65
385.51	225.64
385.89	225.56
386.27	225.54
386.64	225.54
387.02	225.47
387.40	225.44
387.78	225.42
388.15	225.39
388.53	225.33
388.91	225.29
389.29	225.26
389.66	225.27
390.04	225.23
390.42	225.21
390.79	225.19
391.17	225.17
391.55	225.02
391.92	225.05
392.30	225.05
392.68	225.01
393.05	224.97
393.43	224.93
393.81	224.95
394.18	224.91
394.56	224.89
394.94	224.89
395.31	224.86
395.69	224.86
396.06	224.90
396.44	224.95
396.82	225.00
397.19	225.06
397.57	225.05
397.95	225.11
398.32	225.12
398.70	225.17
399.07	225.24
399.45	225.32
399.82	225.35
400.20	225.41
400.58	225.47
400.95	225.51
401.33	225.57
401.70	225.68
402.08	225.78
402.45	225.85
402.83	226.00
403.20	226.12
403.58	226.20
403.95	226.29
404.33	226.40
404.71	226.51
405.08	226.70
405.46	226.81
405.83	226.96
406.21	227.11
406.58	227.23
406.96	227.39
407.33	227.53
407.70	227.74
408.08	228.01
408.45	228.21
408.83	228.48
409.20	228.72
409.58	228.91
409.95	229.16
410.33	229.44
410.70	229.66
411.08	229.95
411.45	230.26
411.82	230.56
412.20	230.93
412.57	231.35
412.95	231.65
413.32	232.06
413.69	232.48
414.07	232.93
414.44	233.41
414.82	233.86
415.19	234.47
415.56	235.00
415.94	235.53
416.31	236.19
416.68	236.79
417.06	237.51
417.43	238.21
417.81	238.97
418.18	239.75
418.55	240.61
418.93	241.50
419.30	242.41
419.67	243.34
420.04	244.29
420.42	245.28
420.79	246.46
421.16	247.62
421.54	248.80
421.91	250.01
422.28	251.28
422.66	252.64
423.03	253.88
423.40	255.23
423.77	256.65
424.15	258.09
424.52	259.56
424.89	261.20
425.26	262.71
425.64	264.15
426.01	265.72
426.38	267.39
426.75	269.06
427.13	270.84
427.50	272.64
427.87	274.52
428.24	276.39
428.61	278.14
428.99	280.10
429.36	282.20
429.73	284.24
430.10	286.27
430.47	288.34
430.85	290.49
431.22	292.73
431.59	295.13
431.96	297.32
432.33	299.82
432.70	302.14
433.08	304.99
433.45	307.62
433.82	310.26
434.19	313.10
434.56	315.90
434.93	318.52
435.30	321.17
435.68	324.06
436.05	326.87
436.42	329.61
436.79	332.12
437.16	334.86
437.53	337.73
437.90	340.51
438.27	343.22
438.64	346.03
439.01	348.66
439.38	350.88
439.75	353.10
440.13	355.63
440.50	357.99
440.87	359.83
441.24	361.80
441.61	363.93
441.98	365.47
442.35	367.26
442.72	369.15
443.09	370.96
443.46	371.98
443.83	372.60
444.20	373.15
444.57	373.98
444.94	374.25
445.31	374.58
445.68	374.99
446.05	375.07
446.42	374.75
446.79	374.29
447.16	373.85
447.53	373.52
447.90	372.34
448.27	371.17
448.64	369.57
449.01	368.41
449.37	366.45
449.74	364.50
450.11	362.28
450.48	359.77
450.85	357.22
451.22	355.02
451.59	352.95
451.96	350.99
452.33	348.37
452.70	345.98
453.07	343.13
453.43	340.22
453.80	337.47
454.17	334.77
454.54	332.25
454.91	329.53
455.28	326.82
455.65	324.35
456.02	321.94
456.38	319.80
456.75	317.17
457.12	314.96
457.49	312.71
457.86	310.48
458.23	308.65
458.59	306.60
458.96	304.54
459.33	302.69
459.70	300.84
460.07	299.36
460.43	297.65
460.80	296.05
461.17	294.60
461.54	293.08
461.91	291.65
462.27	290.19
462.64	288.91
463.01	287.57
463.38	286.26
463.74	284.88
464.11	283.73
464.48	282.71
464.85	281.59
465.21	280.76
465.58	279.87
465.95	278.74
466.32	277.89
466.68	276.97
467.05	276.09
467.42	275.20
467.78	274.29
468.15	273.42
468.52	272.76
468.88	271.92
469.25	271.17
469.62	270.55
469.98	269.88
470.35	269.31
470.72	268.73
471.08	268.10
471.45	267.56
471.82	267.01
472.18	266.41
472.55	265.98
472.92	265.47
473.28	265.05
473.65	264.61
474.02	264.14
474.38	263.80
474.75	263.53
475.11	263.23
475.48	262.95
475.85	262.75
476.21	262.49
476.58	262.33
476.94	262.18
477.31	262.01
477.67	261.91
478.04	261.78
478.41	261.71
478.77	261.74
479.14	261.68
479.50	261.75
479.87	261.85
480.23	261.93
480.60	261.99
480.96	262.08
481.33	262.32
481.69	262.55
482.06	262.72
482.42	262.89
482.79	263.13
483.15	263.45
483.52	263.81
483.88	264.15
484.25	264.55
484.61	264.98
484.98	265.45
485.34	265.96
485.71	266.56
486.07	267.15
486.44	267.73
486.80	268.45
487.17	269.13
487.53	269.94
487.90	270.79
488.26	271.71
488.62	272.69
488.99	273.68
489.35	274.76
489.72	275.90
490.08	277.07
490.44	278.29
490.81	279.65
491.17	280.99
491.54	282.49
491.90	284.02
492.26	285.69
492.63	287.44
492.99	289.23
493.36	291.13
493.72	293.16
494.08	295.23
494.45	297.47
494.81	299.81
495.17	302.23
495.54	304.81
495.90	307.48
496.26	310.31
496.63	313.23
496.99	316.29
497.35	319.51
497.72	322.94
498.08	326.44
498.44	330.09
498.80	334.04
499.17	338.10
499.53	342.25
499.89	346.59
500.26	351.03
500.62	355.69
500.98	360.60
501.34	365.65
501.71	370.98
502.07	376.37
502.43	381.94
502.79	387.73
503.16	393.74
503.52	399.98
503.88	406.32
504.24	412.92
504.60	419.76
504.97	426.86
505.33	434.13
505.69	441.79
506.05	449.53
506.41	457.30
506.78	465.29
507.14	473.62
507.50	482.21
507.86	491.16
508.22	500.22
508.59	509.38
508.95	518.84
509.31	528.53
509.67	538.55
510.03	548.73
510.39	559.23
510.75	569.84
511.12	580.64
511.48	591.76
511.84	603.01
512.20	614.39
512.56	626.19
512.92	638.19
513.28	650.36
513.64	662.63
514.00	675.17
514.37	688.00
514.73	700.87
515.09	713.65
515.45	726.73
515.81	740.11
516.17	753.79
516.53	767.72
516.89	781.65
517.25	795.52
517.61	809.67
517.97	823.78
518.33	838.08
518.69	852.66
519.05	867.48
519.41	882.50
519.77	897.68
520.13	912.81
520.49	928.00
520.85	943.14
521.21	958.52
521.57	974.41
521.93	989.84
522.29	1005.94
522.65	1021.99
523.01	1037.95
523.37	1053.72
523.73	1069.70
524.09	1085.49
524.45	1101.50
524.81	1117.84
525.17	1134.26
525.53	1150.87
525.89	1167.33
526.25	1183.79
526.61	1199.77
526.97	1216.07
527.33	1232.28
527.68	1248.43
528.04	1264.47
528.40	1280.61
528.76	1297.32
529.12	1313.55
529.48	1330.09
529.84	1345.66
530.20	1361.81
530.56	1378.29
530.91	1395.30
531.27	1411.50
531.63	1427.55
531.99	1443.76
532.35	1459.44
532.71	1475.11
533.07	1490.82
533.42	1506.41
533.78	1522.17
534.14	1538.10
534.50	1553.08
534.86	1568.59
535.21	1583.42
535.57	1598.97
535.93	1614.11
536.29	1628.53
536.65	1643.26
537.00	1657.73
537.36	1672.76
537.72	1687.04
538.08	1701.23
538.44	1714.68
538.79	1728.45
539.15	1741.70
539.51	1755.07
539.87	1768.94
540.22	1782.19
540.58	1795.66
540.94	1808.61
541.29	1821.08
541.65	1833.50
542.01	1846.31
542.37	1858.39
542.72	1870.61
543.08	1882.19
543.44	1894.40
543.79	1905.48
544.15	1916.34
544.51	1927.67
544.87	1938.34
545.22	1948.93
545.58	1958.93
545.94	1968.65
546.29	1978.35
546.65	1988.24
547.01	1997.44
547.36	2006.15
547.72	2014.61
548.07	2022.78
548.43	2030.86
548.79	2038.77
549.14	2046.26
549.50	2053.59
549.86	2061.19
550.21	2068.51
550.57	2075.73
550.92	2082.29
551.28	2089.29
551.64	2096.27
551.99	2102.62
552.35	2109.01
552.70	2115.21
553.06	2121.28
553.41	2127.63
553.77	2133.65
554.13	2139.71
554.48	2145.77
554.84	2151.45
555.19	2156.77
555.55	2161.77
555.90	2166.36
556.26	2171.46
556.61	2176.22
556.97	2180.94
557.32	2185.22
557.68	2189.54
558.03	2193.88
558.39	2197.79
558.74	2202.50
559.10	2206.45
559.45	2210.45
559.81	2214.65
560.16	2218.50
560.52	2221.84
560.87	2225.29
561.23	2228.05
561.58	2231.14
561.94	2234.11
562.29	2236.45
562.64	2239.44
563.00	2242.05
563.35	2245.76
563.71	2248.90
564.06	2252.16
564.42	2255.02
564.77	2257.71
565.12	2260.10
565.48	2262.18
565.83	2264.22
566.19	2265.81
566.54	2266.87
566.89	2268.11
567.25	2269.10
567.60	2270.63
567.96	2272.57
568.31	2273.59
568.66	2274.94
569.02	2275.70
569.37	2275.98
569.72	2277.12
570.08	2277.45
570.43	2277.72
570.78	2277.44
571.14	2276.25
571.49	2275.16
571.84	2274.97
572.20	2273.99
572.55	2273.21
572.90	2271.87
573.26	2270.76
573.61	2269.13
573.96	2267.86
574.31	2265.26
574.67	2262.57
575.02	2259.25
575.37	2255.96
575.72	2252.35
576.08	2249.09
576.43	2245.93
576.78	2242.55
577.13	2239.48
577.49	2236.51
577.84	2233.50
578.19	2229.80
578.54	2226.44
578.90	2222.72
579.25	2217.29
579.60	2212.67
579.95	2207.98
580.30	2203.12
580.66	2198.11
581.01	2193.50
581.36	2188.66
581.71	2184.80
582.06	2180.54
582.42	2176.40
582.77	2171.44
583.12	2167.24
583.47	2162.93
583.82	2158.31
584.17	2153.37
584.53	2148.14
584.88	2142.82
585.23	2137.29
585.58	2132.12
585.93	2126.76
586.28	2121.95
586.63	2117.40
586.98	2112.62
587.34	2107.97
587.69	2103.32
588.04	2098.35
588.39	2092.94
588.74	2086.71
589.09	2080.68
589.44	2074.07
589.79	2068.01
590.14	2062.74
590.49	2056.37
590.84	2050.10
591.19	2044.34
591.54	2038.24
591.89	2031.27
592.25	2024.69
592.60	2017.52
592.95	2010.32
593.30	2003.24
593.65	1995.95
594.00	1988.87
594.35	1981.75
594.70	1973.95
595.05	1967.14
595.40	1959.94
595.75	1952.56
596.10	1946.69
596.45	1940.25
596.80	1934.25
597.15	1927.99
597.50	1921.17
597.85	1914.78
598.19	1908.26
598.54	1901.28
598.89	1894.66
599.24	1888.73
599.59	1882.29
599.94	1876.24
600.29	1869.78
600.64	1863.26
600.99	1855.93
601.34	1849.30
601.69	1842.34
602.04	1835.67
602.39	1828.18
602.74	1821.55
603.08	1814.88
603.43	1808.17
603.78	1800.83
604.13	1793.73
604.48	1786.55
604.83	1779.73
605.18	1773.10
605.53	1765.40
605.87	1757.40
606.22	1750.20
606.57	1742.37
606.92	1735.01
607.27	1727.98
607.62	1721.27
607.96	1714.22
608.31	1707.84
608.66	1700.30
609.01	1692.91
609.36	1685.42
609.70	1677.60
610.05	1669.64
610.40	1662.09
610.75	1653.84
611.10	1646.24
611.44	1637.88
611.79	1629.99
612.14	1621.31
612.49	1612.03
612.83	1603.61
613.18	1595.63
613.53	1587.57
613.88	1579.06
614.22	1570.78
614.57	1562.11
614.92	1554.23
615.27	1546.70
615.61	1538.43
615.96	1530.37
616.31	1522.76
616.65	1515.40
617.00	1507.89
617.35	1500.24
617.70	1491.99
618.04	1483.41
618.39	1475.15
618.74	1467.63
619.08	1459.35
619.43	1451.65
619.78	1444.81
620.12	1437.71
620.47	1430.24
620.82	1421.99
621.16	1414.57
621.51	1406.93
621.85	1399.34
622.20	1390.82
622.55	1382.34
622.89	1374.48
623.24	1366.87
623.59	1359.46
623.93	1351.88
624.28	1344.69
624.62	1337.17
624.97	1330.06
625.32	1323.32
625.66	1316.36
626.01	1309.13
626.35	1301.73
626.70	1293.99
627.04	1286.35
627.39	1278.58
627.73	1271.13
628.08	1264.35
628.43	1257.20
628.77	1250.00
629.12	1242.50
629.46	1235.24
629.81	1227.69
630.15	1220.36
630.50	1213.03
630.84	1204.89
631.19	1196.99
631.53	1189.34
631.88	1181.69
632.22	1174.02
632.57	1166.62
632.91	1159.03
633.26	1151.59
633.60	1144.21
633.95	1137.08
634.29	1129.96
634.64	1123.24
634.98	1115.82
635.32	1108.65
635.67	1101.91
636.01	1095.20
636.36	1088.43
636.70	1081.88
637.05	1075.44
637.39	1069.06
637.73	1062.58
638.08	1056.63
638.42	1050.62
638.77	1044.25
639.11	1037.80
639.45	1031.41
639.80	1024.79
640.14	1018.38
640.49	1011.98
640.83	1005.66
641.17	999.56
641.52	993.21
641.86	986.66
642.20	980.82
642.55	974.44
642.89	968.04
643.23	961.41
643.58	955.63
643.92	949.49
644.26	943.47
644.61	937.30
644.95	931.31
645.29	924.79
645.64	918.10
645.98	911.81
646.32	905.85
646.66	899.82
647.01	894.09
647.35	888.40
647.69	882.42
648.04	876.77
648.38	870.91
648.72	864.95
649.06	858.91
649.41	853.01
649.75	847.08
650.09	841.16
650.43	835.44
650.78	829.29
651.12	823.28
651.46	817.57
651.80	811.90
652.14	806.49
652.49	801.14
652.83	795.92
653.17	790.30
653.51	784.69
653.85	779.27
654.20	773.63
654.54	767.63
654.88	761.92
655.22	756.04
655.56	750.38
655.90	744.92
656.25	739.76
656.59	734.44
656.93	729.44
657.27	724.32
657.61	718.92
657.95	713.87
658.29	708.82
658.64	703.50
658.98	698.22
659.32	692.77
659.66	687.57
660.00	682.28
660.34	677.26
660.68	672.30
661.02	667.30
661.36	662.67
661.70	658.21
662.05	653.93
662.39	649.67
662.73	645.19
663.07	640.84
663.41	636.34
663.75	631.88
664.09	627.28
664.43	622.83
664.77	618.69
665.11	614.45
665.45	610.32
665.79	606.40
666.13	602.24
666.47	598.07
666.81	593.90
667.15	589.75
667.49	585.81
667.83	581.90
668.17	577.98
668.51	573.89
668.85	569.85
669.19	565.88
669.53	562.06
669.87	558.25
670.21	554.53
670.55	550.92
670.89	547.51
671.23	544.04
671.57	540.54
671.91	537.07
672.25	533.54
672.58	530.04
672.92	526.55
673.26	523.40
673.60	520.31
673.94	517.18
674.28	514.32
674.62	511.44
674.96	508.39
675.30	505.43
675.64	502.50
675.97	499.74
676.31	496.95
676.65	494.01
676.99	491.33
677.33	488.47
677.67	485.70
678.01	482.64
678.34	479.68
678.68	476.78
679.02	473.90
679.36	471.16
679.70	468.43
680.04	465.67
680.37	462.85
680.71	460.02
681.05	457.35
681.39	454.66
681.73	451.94
682.06	449.42
682.40	446.87
682.74	444.30
683.08	441.70
683.42	439.08
683.75	436.58
684.09	433.98
684.43	431.52
684.77	429.05
685.10	426.69
685.44	424.37
685.78	422.10
686.12	419.86
686.45	417.53
686.79	415.21
687.13	412.97
687.46	410.76
687.80	408.59
688.14	406.39
688.48	404.27
688.81	402.07
689.15	399.91
689.49	397.77
689.82	395.67
690.16	393.55
690.50	391.57
690.83	389.68
691.17	387.65
691.51	385.71
691.84	383.82
692.18	381.87
692.52	379.89
692.85	377.90
693.19	376.00
693.52	374.14
693.86	372.32
694.20	370.55
694.53	368.73
694.87	366.88
695.21	365.04
695.54	363.21
695.88	361.45
696.21	359.71
696.55	358.05
696.88	356.38
697.22	354.73
697.56	353.13
697.89	351.39
698.23	349.82
698.56	348.21
698.90	346.66
699.23	345.06
699.57	343.50
699.90	341.98
700.24	340.46
700.58	338.94
700.91	337.49
701.25	336.07
701.58	334.72
701.92	333.42
702.25	332.13
702.59	330.75
702.92	329.46
703.26	328.18
703.59	326.91
703.93	325.72
704.26	324.52
704.60	323.21
704.93	321.97
705.26	320.74
705.60	319.56
705.93	318.34
706.27	317.26
706.60	316.25
706.94	315.19
707.27	314.07
707.61	313.01
707.94	311.96
708.27	310.84
708.61	309.76
708.94	308.73
709.28	307.73
709.61	306.78
709.94	305.85
710.28	304.82
710.61	303.83
710.95	302.76
711.28	301.83
711.61	300.90
711.95	300.02
712.28	299.05
712.61	298.09
712.95	297.22
713.28	296.33
713.61	295.42
713.95	294.53
714.28	293.72
714.61	292.85
714.95	291.98
715.28	291.16
715.61	290.28
715.95	289.42
716.28	288.54
716.61	287.72
716.95	286.85
717.28	286.12
717.61	285.30
717.94	284.52
718.28	283.69
718.61	282.96
718.94	282.19
719.27	281.51
719.61	280.83
719.94	280.16
720.27	279.40
720.60	278.72
720.94	278.08
721.27	277.43
721.60	276.87
721.93	276.24
722.27	275.66
722.60	275.08
722.93	274.50
723.26	273.95
723.59	273.41
723.93	272.83
724.26	272.26
724.59	271.71
724.92	271.20
725.25	270.72
725.59	270.15
725.92	269.63
726.25	269.09
726.58	268.60
726.91	268.09
727.24	267.62
727.57	267.16
727.91	266.64
728.24	266.16
728.57	265.63
728.90	265.19
729.23	264.70
729.56	264.28
729.89	263.79
730.22	263.30
730.55	262.76
730.89	262.35
731.22	261.92
731.55	261.48
731.88	261.05
732.21	260.63
732.54	260.21
732.87	259.81
733.20	259.44
733.53	259.05
733.86	258.65
734.19	258.26
734.52	257.88
734.85	257.57
735.18	257.16
735.51	256.80
735.84	256.39
736.17	256.05
736.50	255.64
736.83	255.42
737.16	255.10
737.49	254.81
737.82	254.45
738.15	254.09
738.48	253.74
738.81	253.45
739.14	253.13
739.47	252.84
739.80	252.52
740.13	252.22
740.46	251.88
740.79	251.59
741.12	251.30
741.45	250.95
741.78	250.59
742.11	250.33
742.44	250.05
742.77	249.80
743.10	249.47
743.43	249.20
743.75	248.81
744.08	248.66
744.41	248.39
744.74	248.12
745.07	247.88
745.40	247.67
745.73	247.37
746.06	247.07
746.39	246.82
746.71	246.57
747.04	246.26
747.37	246.02
747.70	245.76
748.03	245.50
748.36	245.31
748.68	245.09
749.01	244.84
749.34	244.60
749.67	244.39
750.00	244.22
750.33	244.03
750.65	243.85
750.98	243.52
751.31	243.31
751.64	243.12
751.97	242.95
752.29	242.72
752.62	242.50
752.95	242.29
753.28	242.05
753.60	241.86
753.93	241.71
754.26	241.54
754.59	241.34
754.91	241.11
755.24	240.88
755.57	240.71
755.90	240.52
756.22	240.33
756.55	240.09
756.88	239.87
757.20	239.66
757.53	239.45
757.86	239.30
758.19	239.15
758.51	238.96
758.84	238.74
759.17	238.57
759.49	238.43
759.82	238.32
760.15	238.19
760.47	238.05
760.80	237.86
761.13	237.73
761.45	237.55
761.78	237.40
762.11	237.27
762.43	237.10
762.76	236.95
763.08	236.81
763.41	236.70
763.74	236.55
764.06	236.41
764.39	236.25
764.71	236.10
765.04	235.94
765.37	235.78
765.69	235.66
766.02	235.55
766.34	235.40
766.67	235.24
767.00	235.10
767.32	235.02
767.65	234.96
767.97	234.78
768.30	234.70
768.62	234.60
768.95	234.48
769.27	234.37
769.60	234.28
769.92	234.17
770.25	234.05
770.57	233.92
770.90	233.82
771.22	233.74
771.55	233.61
771.87	233.54
772.20	233.44
772.52	233.43
772.85	233.45
773.17	233.36
773.50	233.23
773.82	233.15
774.15	233.02
774.47	232.89
774.80	232.81
775.12	232.70
775.45	232.59
775.77	232.51
776.09	232.44
776.42	232.35
776.74	232.28
777.07	232.18
777.39	232.15
777.72	232.06
778.04	231.99
778.36	231.93
778.69	231.86
779.01	231.80
779.33	231.63
779.66	231.42
779.98	231.35
780.31	231.25
780.63	231.25
780.95	231.20
781.28	231.09
781.60	231.01
781.92	230.95
782.25	230.94
782.57	230.88
782.89	230.76
783.22	230.71
783.54	230.65
783.86	230.61
784.19	230.53
784.51	230.50
784.83	230.42
785.16	230.35
785.48	230.29
785.80	230.24
786.12	230.23
786.45	230.19
786.77	230.16
787.09	230.18
