SpectraSuite Data File
++++++++++++++++++++++++++++++++++++
Date: Fri Feb 01 15:10:51 EST 2013
User: group
Dark Spectrum Present: No
Reference Spectrum Present: No
Number of Sampled Component Spectra: 1
Spectrometers: USB2E7196
Integration Time (usec): 35000 (USB2E7196)
Spectra Averaged: 100 (USB2E7196)
Boxcar Smoothing: 10 (USB2E7196)
Correct for Electrical Dark: No (USB2E7196)
Strobe/Lamp Enabled: No (USB2E7196)
Correct for Detector Non-linearity: No (USB2E7196)
Correct for Stray Light: No (USB2E7196)
Number of Pixels in Processed Spectrum: 2048
>>>>>Begin Processed Spectral Data<<<<<
339.09	0.00
339.48	215.57
339.86	216.49
340.24	218.26
340.63	219.34
341.01	222.48
341.39	222.41
341.78	223.42
342.16	224.93
342.54	225.56
342.93	213.53
343.31	224.33
343.69	224.87
344.07	225.33
344.46	225.76
344.84	226.16
345.22	226.38
345.60	226.62
345.99	226.81
346.37	226.92
346.75	227.01
347.13	227.09
347.52	227.17
347.90	227.27
348.28	227.28
348.66	227.32
349.05	227.31
349.43	227.37
349.81	227.41
350.19	227.48
350.57	227.53
350.96	227.60
351.34	227.68
351.72	227.74
352.10	227.86
352.48	227.91
352.87	227.96
353.25	228.02
353.63	228.05
354.01	228.11
354.39	228.20
354.77	228.27
355.15	228.35
355.54	228.40
355.92	228.41
356.30	228.48
356.68	228.60
357.06	228.68
357.44	228.73
357.82	228.79
358.20	228.84
358.58	228.86
358.97	228.90
359.35	228.95
359.73	229.02
360.11	229.03
360.49	229.09
360.87	229.11
361.25	229.18
361.63	229.27
362.01	229.30
362.39	229.30
362.77	229.33
363.15	229.33
363.53	229.34
363.91	229.36
364.29	229.33
364.67	229.24
365.05	229.27
365.43	229.27
365.81	229.25
366.19	229.28
366.57	229.34
366.95	229.33
367.33	229.30
367.71	229.28
368.09	229.27
368.47	229.24
368.85	229.22
369.23	229.17
369.61	229.13
369.99	229.12
370.37	229.10
370.75	229.10
371.13	229.04
371.51	228.97
371.89	228.95
372.27	228.94
372.65	228.92
373.03	228.83
373.41	228.77
373.78	228.71
374.16	228.60
374.54	228.51
374.92	228.47
375.30	228.39
375.68	228.32
376.06	228.26
376.44	228.20
376.82	228.11
377.19	228.06
377.57	227.95
377.95	227.84
378.33	227.77
378.71	227.65
379.09	227.59
379.47	227.54
379.84	227.44
380.22	227.37
380.60	227.28
380.98	227.23
381.36	227.16
381.73	227.11
382.11	227.07
382.49	227.02
382.87	226.93
383.25	226.88
383.62	226.90
384.00	226.82
384.38	226.76
384.76	226.75
385.13	226.75
385.51	226.72
385.89	226.67
386.27	226.62
386.64	226.58
387.02	226.56
387.40	226.50
387.78	226.49
388.15	226.46
388.53	226.46
388.91	226.42
389.29	226.40
389.66	226.40
390.04	226.35
390.42	226.37
390.79	226.37
391.17	226.38
391.55	226.29
391.92	226.29
392.30	226.33
392.68	226.32
393.05	226.31
393.43	226.36
393.81	226.41
394.18	226.44
394.56	226.51
394.94	226.57
395.31	226.62
395.69	226.70
396.06	226.75
396.44	226.78
396.82	226.82
397.19	226.90
397.57	226.96
397.95	227.06
398.32	227.06
398.70	227.14
399.07	227.24
399.45	227.33
399.82	227.41
400.20	227.48
400.58	227.57
400.95	227.58
401.33	227.66
401.70	227.80
402.08	227.92
402.45	228.01
402.83	228.13
403.20	228.25
403.58	228.37
403.95	228.53
404.33	228.69
404.71	228.86
405.08	229.04
405.46	229.16
405.83	229.29
406.21	229.47
406.58	229.61
406.96	229.77
407.33	229.94
407.70	230.14
408.08	230.40
408.45	230.60
408.83	230.85
409.20	231.03
409.58	231.22
409.95	231.46
410.33	231.73
410.70	231.96
411.08	232.24
411.45	232.53
411.82	232.82
412.20	233.15
412.57	233.56
412.95	233.84
413.32	234.24
413.69	234.68
414.07	235.12
414.44	235.57
414.82	236.02
415.19	236.59
415.56	237.14
415.94	237.67
416.31	238.31
416.68	238.95
417.06	239.69
417.43	240.39
417.81	241.16
418.18	241.95
418.55	242.80
418.93	243.69
419.30	244.56
419.67	245.49
420.04	246.42
420.42	247.39
420.79	248.56
421.16	249.73
421.54	250.90
421.91	252.14
422.28	253.40
422.66	254.78
423.03	256.03
423.40	257.35
423.77	258.76
424.15	260.20
424.52	261.69
424.89	263.29
425.26	264.82
425.64	266.26
426.01	267.83
426.38	269.48
426.75	271.15
427.13	272.87
427.50	274.64
427.87	276.58
428.24	278.43
428.61	280.20
428.99	282.15
429.36	284.28
429.73	286.32
430.10	288.38
430.47	290.43
430.85	292.64
431.22	294.86
431.59	297.27
431.96	299.52
432.33	301.99
432.70	304.36
433.08	307.20
433.45	309.90
433.82	312.54
434.19	315.44
434.56	318.31
434.93	320.98
435.30	323.63
435.68	326.48
436.05	329.29
436.42	332.09
436.79	334.64
437.16	337.35
437.53	340.25
437.90	343.03
438.27	345.77
438.64	348.58
439.01	351.20
439.38	353.42
439.75	355.63
440.13	358.19
440.50	360.56
440.87	362.40
441.24	364.35
441.61	366.53
441.98	368.00
442.35	369.74
442.72	371.60
443.09	373.44
443.46	374.46
443.83	375.11
444.20	375.64
444.57	376.43
444.94	376.68
445.31	376.96
445.68	377.37
446.05	377.44
446.42	377.00
446.79	376.60
447.16	376.14
447.53	375.82
447.90	374.61
448.27	373.45
448.64	371.83
449.01	370.64
449.37	368.62
449.74	366.72
450.11	364.51
450.48	362.05
450.85	359.49
451.22	357.36
451.59	355.30
451.96	353.31
452.33	350.68
452.70	348.32
453.07	345.48
453.43	342.53
453.80	339.75
454.17	337.08
454.54	334.52
454.91	331.78
455.28	329.12
455.65	326.63
456.02	324.12
456.38	321.99
456.75	319.30
457.12	317.06
457.49	314.84
457.86	312.59
458.23	310.72
458.59	308.68
458.96	306.53
459.33	304.63
459.70	302.78
460.07	301.29
460.43	299.57
460.80	297.93
461.17	296.49
461.54	294.98
461.91	293.56
462.27	292.10
462.64	290.87
463.01	289.48
463.38	288.17
463.74	286.81
464.11	285.62
464.48	284.61
464.85	283.50
465.21	282.62
465.58	281.73
465.95	280.62
466.32	279.73
466.68	278.89
467.05	278.01
467.42	277.12
467.78	276.19
468.15	275.31
468.52	274.63
468.88	273.78
469.25	273.02
469.62	272.38
469.98	271.70
470.35	271.02
470.72	270.42
471.08	269.77
471.45	269.24
471.82	268.66
472.18	268.01
472.55	267.55
472.92	267.01
473.28	266.56
473.65	266.11
474.02	265.64
474.38	265.25
474.75	264.95
475.11	264.60
475.48	264.34
475.85	264.09
476.21	263.86
476.58	263.66
476.94	263.52
477.31	263.32
477.67	263.22
478.04	263.11
478.41	263.03
478.77	263.07
479.14	263.02
479.50	263.07
479.87	263.21
480.23	263.33
480.60	263.40
480.96	263.49
481.33	263.69
481.69	263.90
482.06	264.08
482.42	264.26
482.79	264.52
483.15	264.81
483.52	265.21
483.88	265.55
484.25	265.93
484.61	266.38
484.98	266.85
485.34	267.36
485.71	267.94
486.07	268.53
486.44	269.11
486.80	269.79
487.17	270.47
487.53	271.29
487.90	272.09
488.26	273.05
488.62	274.03
488.99	274.99
489.35	276.00
489.72	277.13
490.08	278.29
490.44	279.49
490.81	280.81
491.17	282.17
491.54	283.67
491.90	285.18
492.26	286.78
492.63	288.51
492.99	290.30
493.36	292.17
493.72	294.19
494.08	296.29
494.45	298.54
494.81	300.97
495.17	303.37
495.54	305.94
495.90	308.57
496.26	311.35
496.63	314.30
496.99	317.43
497.35	320.63
497.72	324.02
498.08	327.51
498.44	331.18
498.80	335.06
499.17	339.07
499.53	343.24
499.89	347.58
500.26	352.07
500.62	356.74
500.98	361.75
501.34	366.81
501.71	372.15
502.07	377.56
502.43	383.13
502.79	388.94
503.16	395.03
503.52	401.32
503.88	407.69
504.24	414.36
504.60	421.20
504.97	428.33
505.33	435.65
505.69	443.39
506.05	451.16
506.41	459.04
506.78	467.25
507.14	475.73
507.50	484.46
507.86	493.53
508.22	502.65
508.59	511.78
508.95	521.40
509.31	531.22
509.67	541.32
510.03	551.59
510.39	562.17
510.75	572.92
511.12	583.83
511.48	595.17
511.84	606.58
512.20	618.14
512.56	630.17
512.92	642.33
513.28	654.63
513.64	667.14
514.00	679.87
514.37	692.77
514.73	705.84
515.09	718.87
515.45	732.17
515.81	745.79
516.17	759.88
516.53	773.98
516.89	788.13
517.25	802.36
517.61	816.81
517.97	831.32
518.33	845.76
518.69	860.50
519.05	875.49
519.41	890.71
519.77	906.25
520.13	921.71
520.49	937.20
520.85	952.70
521.21	968.43
521.57	984.73
521.93	1000.62
522.29	1017.10
522.65	1033.43
523.01	1049.68
523.37	1065.79
523.73	1082.03
524.09	1098.19
524.45	1114.54
524.81	1131.17
525.17	1148.10
525.53	1165.04
525.89	1182.11
526.25	1199.02
526.61	1215.47
526.97	1232.24
527.33	1248.83
527.68	1265.47
528.04	1281.95
528.40	1298.75
528.76	1315.89
529.12	1332.55
529.48	1349.47
529.84	1365.52
530.20	1382.18
530.56	1399.37
530.91	1416.81
531.27	1433.63
531.63	1450.22
531.99	1466.92
532.35	1482.93
532.71	1498.80
533.07	1515.14
533.42	1531.06
533.78	1547.23
534.14	1563.58
534.50	1579.03
534.86	1594.88
535.21	1610.22
535.57	1626.26
535.93	1641.63
536.29	1656.48
536.65	1671.63
537.00	1686.37
537.36	1701.75
537.72	1716.43
538.08	1730.71
538.44	1744.65
538.79	1758.58
539.15	1772.39
539.51	1786.30
539.87	1800.87
540.22	1814.79
540.58	1828.65
540.94	1842.15
541.29	1855.22
541.65	1868.05
542.01	1881.35
542.37	1893.77
542.72	1906.23
543.08	1918.11
543.44	1930.69
543.79	1942.00
544.15	1952.97
544.51	1964.70
544.87	1975.71
545.22	1986.52
545.58	1996.89
545.94	2006.68
546.29	2016.58
546.65	2026.41
547.01	2035.52
547.36	2044.27
547.72	2052.77
548.07	2060.53
548.43	2068.66
548.79	2076.64
549.14	2084.15
549.50	2091.61
549.86	2099.42
550.21	2106.76
550.57	2113.99
550.92	2120.52
551.28	2127.53
551.64	2134.62
551.99	2141.27
552.35	2147.45
552.70	2153.57
553.06	2159.50
553.41	2165.80
553.77	2171.81
554.13	2177.87
554.48	2184.06
554.84	2189.45
555.19	2194.73
555.55	2199.78
555.90	2204.14
556.26	2209.06
556.61	2213.65
556.97	2217.66
557.32	2221.72
557.68	2225.82
558.03	2230.01
558.39	2233.78
558.74	2238.38
559.10	2242.24
559.45	2245.82
559.81	2250.17
560.16	2253.90
560.52	2257.14
560.87	2260.67
561.23	2263.27
561.58	2266.12
561.94	2268.68
562.29	2271.20
562.64	2273.89
563.00	2276.52
563.35	2280.03
563.71	2283.10
564.06	2286.33
564.42	2289.29
564.77	2291.73
565.12	2293.85
565.48	2295.56
565.83	2297.34
566.19	2298.67
566.54	2299.58
566.89	2300.61
567.25	2301.06
567.60	2302.49
567.96	2304.06
568.31	2304.78
568.66	2305.83
569.02	2306.31
569.37	2306.44
569.72	2306.96
570.08	2306.89
570.43	2306.97
570.78	2306.21
571.14	2304.57
571.49	2303.19
571.84	2302.84
572.20	2301.56
572.55	2300.58
572.90	2299.12
573.26	2297.65
573.61	2295.90
573.96	2293.97
574.31	2290.81
574.67	2287.69
575.02	2283.85
575.37	2280.25
575.72	2276.07
576.08	2272.86
576.43	2269.44
576.78	2265.63
577.13	2262.51
577.49	2259.35
577.84	2255.77
578.19	2251.95
578.54	2248.13
578.90	2243.80
579.25	2238.07
579.60	2232.94
579.95	2227.74
580.30	2222.52
580.66	2217.28
581.01	2212.21
581.36	2207.22
581.71	2202.90
582.06	2198.32
582.42	2193.75
582.77	2188.60
583.12	2184.05
583.47	2178.95
583.82	2173.90
584.17	2168.58
584.53	2162.93
584.88	2157.05
585.23	2151.01
585.58	2145.56
585.93	2140.08
586.28	2135.26
586.63	2130.07
586.98	2125.05
587.34	2120.27
587.69	2115.35
588.04	2109.88
588.39	2103.96
588.74	2097.43
589.09	2091.22
589.44	2084.16
589.79	2078.17
590.14	2072.37
590.49	2065.75
590.84	2059.37
591.19	2053.27
591.54	2046.81
591.89	2039.22
592.25	2032.50
592.60	2025.32
592.95	2017.50
593.30	2009.99
593.65	2002.37
594.00	1995.27
594.35	1987.84
594.70	1979.71
595.05	1972.47
595.40	1965.16
595.75	1957.78
596.10	1951.32
596.45	1944.37
596.80	1938.32
597.15	1931.39
597.50	1924.09
597.85	1917.67
598.19	1910.88
598.54	1903.65
598.89	1896.89
599.24	1890.99
599.59	1884.15
599.94	1877.84
600.29	1871.51
600.64	1864.85
600.99	1857.22
601.34	1850.29
601.69	1843.29
602.04	1836.41
602.39	1828.97
602.74	1821.99
603.08	1815.14
603.43	1808.41
603.78	1801.15
604.13	1793.89
604.48	1786.66
604.83	1779.86
605.18	1772.72
605.53	1764.69
605.87	1756.63
606.22	1749.51
606.57	1741.50
606.92	1734.16
607.27	1726.88
607.62	1720.01
607.96	1712.80
608.31	1706.22
608.66	1698.57
609.01	1691.01
609.36	1683.35
609.70	1675.33
610.05	1667.25
610.40	1659.52
610.75	1651.17
611.10	1643.61
611.44	1635.26
611.79	1627.35
612.14	1618.55
612.49	1609.60
612.83	1601.33
613.18	1593.21
613.53	1584.90
613.88	1576.40
614.22	1568.14
614.57	1559.75
614.92	1551.63
615.27	1543.90
615.61	1535.54
615.96	1527.51
616.31	1519.94
616.65	1512.58
617.00	1505.02
617.35	1497.40
617.70	1489.05
618.04	1480.60
618.39	1472.29
618.74	1464.69
619.08	1456.36
619.43	1449.00
619.78	1441.96
620.12	1434.78
620.47	1427.34
620.82	1419.24
621.16	1411.78
621.51	1404.16
621.85	1396.44
622.20	1387.98
622.55	1379.79
622.89	1372.01
623.24	1364.48
623.59	1357.07
623.93	1349.65
624.28	1342.38
624.62	1334.90
624.97	1327.80
625.32	1321.20
625.66	1314.17
626.01	1306.91
626.35	1299.36
626.70	1291.61
627.04	1283.84
627.39	1276.05
627.73	1268.61
628.08	1261.76
628.43	1254.40
628.77	1247.09
629.12	1239.56
629.46	1232.33
629.81	1224.96
630.15	1217.74
630.50	1210.33
630.84	1202.19
631.19	1194.30
631.53	1186.85
631.88	1179.27
632.22	1171.65
632.57	1164.32
632.91	1156.87
633.26	1149.56
633.60	1142.28
633.95	1135.23
634.29	1128.24
634.64	1121.59
634.98	1114.27
635.32	1107.18
635.67	1100.76
636.01	1094.20
636.36	1087.45
636.70	1081.00
637.05	1074.46
637.39	1068.02
637.73	1061.56
638.08	1055.75
638.42	1049.74
638.77	1043.24
639.11	1036.64
639.45	1030.29
639.80	1023.66
640.14	1017.23
640.49	1010.67
640.83	1004.39
641.17	998.07
641.52	991.82
641.86	985.38
642.20	979.55
642.55	973.26
642.89	966.77
643.23	960.23
643.58	954.41
643.92	948.20
644.26	941.98
644.61	935.98
644.95	929.88
645.29	923.21
645.64	916.45
645.98	910.21
646.32	904.46
646.66	898.48
647.01	892.57
647.35	886.96
647.69	881.18
648.04	875.64
648.38	869.96
648.72	863.94
649.06	857.91
649.41	852.01
649.75	846.02
650.09	840.08
650.43	834.29
650.78	828.15
651.12	822.18
651.46	816.56
651.80	810.75
652.14	805.45
652.49	800.09
652.83	794.90
653.17	789.18
653.51	783.39
653.85	777.96
654.20	772.39
654.54	766.33
654.88	760.66
655.22	754.88
655.56	749.19
655.90	743.76
656.25	738.54
656.59	733.18
656.93	728.11
657.27	723.02
657.61	717.55
657.95	712.53
658.29	707.53
658.64	702.36
658.98	697.07
659.32	691.63
659.66	686.43
660.00	681.19
660.34	676.29
660.68	671.47
661.02	666.41
661.36	661.67
661.70	657.21
662.05	652.86
662.39	648.45
662.73	644.01
663.07	639.66
663.41	635.22
663.75	630.76
664.09	626.22
664.43	621.83
664.77	617.76
665.11	613.54
665.45	609.49
665.79	605.41
666.13	601.35
666.47	597.24
666.81	593.14
667.15	588.99
667.49	585.10
667.83	581.33
668.17	577.45
668.51	573.45
668.85	569.45
669.19	565.55
669.53	561.79
669.87	557.92
670.21	554.29
670.55	550.60
670.89	547.22
671.23	543.78
671.57	540.31
671.91	536.74
672.25	533.22
672.58	529.61
672.92	526.22
673.26	523.07
673.60	519.93
673.94	516.83
674.28	514.03
674.62	511.07
674.96	507.94
675.30	505.04
675.64	502.10
675.97	499.40
676.31	496.54
676.65	493.60
676.99	490.91
677.33	488.00
677.67	485.27
678.01	482.24
678.34	479.25
678.68	476.35
679.02	473.56
679.36	470.81
679.70	468.20
680.04	465.38
680.37	462.47
680.71	459.73
681.05	457.12
681.39	454.39
681.73	451.80
682.06	449.31
682.40	446.74
682.74	444.24
683.08	441.67
683.42	439.06
683.75	436.57
684.09	434.05
684.43	431.61
684.77	429.15
685.10	426.82
685.44	424.58
685.78	422.29
686.12	420.14
686.45	417.91
686.79	415.62
687.13	413.51
687.46	411.38
687.80	409.26
688.14	407.08
688.48	404.98
688.81	402.69
689.15	400.51
689.49	398.39
689.82	396.26
690.16	394.18
690.50	392.28
690.83	390.35
691.17	388.38
691.51	386.46
691.84	384.57
692.18	382.62
692.52	380.60
692.85	378.68
693.19	376.75
693.52	374.92
693.86	373.09
694.20	371.27
694.53	369.48
694.87	367.62
695.21	365.83
695.54	364.06
695.88	362.37
696.21	360.67
696.55	359.02
696.88	357.38
697.22	355.76
697.56	354.16
697.89	352.44
698.23	350.83
698.56	349.22
698.90	347.65
699.23	346.02
699.57	344.52
699.90	342.99
700.24	341.47
700.58	339.90
700.91	338.38
701.25	336.95
701.58	335.59
701.92	334.21
702.25	332.84
702.59	331.43
702.92	330.14
703.26	328.88
703.59	327.56
703.93	326.42
704.26	325.19
704.60	323.93
704.93	322.74
705.26	321.46
705.60	320.31
705.93	319.15
706.27	318.13
706.60	317.08
706.94	316.04
707.27	314.89
707.61	313.84
707.94	312.84
708.27	311.76
708.61	310.65
708.94	309.69
709.28	308.70
709.61	307.73
709.94	306.75
710.28	305.70
710.61	304.79
710.95	303.72
711.28	302.78
711.61	301.81
711.95	300.89
712.28	300.00
712.61	299.00
712.95	298.10
713.28	297.26
713.61	296.36
713.95	295.44
714.28	294.59
714.61	293.74
714.95	292.92
715.28	292.08
715.61	291.28
715.95	290.43
716.28	289.59
716.61	288.79
716.95	287.99
717.28	287.27
717.61	286.51
717.94	285.74
718.28	284.94
718.61	284.22
718.94	283.56
719.27	282.91
719.61	282.30
719.94	281.67
720.27	280.95
720.60	280.29
720.94	279.68
721.27	279.06
721.60	278.50
721.93	277.88
722.27	277.33
722.60	276.75
722.93	276.15
723.26	275.61
723.59	275.05
723.93	274.50
724.26	273.96
724.59	273.38
724.92	272.86
725.25	272.36
725.59	271.83
725.92	271.32
726.25	270.78
726.58	270.29
726.91	269.75
727.24	269.26
727.57	268.80
727.91	268.31
728.24	267.87
728.57	267.38
728.90	266.91
729.23	266.43
729.56	265.99
729.89	265.57
730.22	265.12
730.55	264.70
730.89	264.26
731.22	263.80
731.55	263.37
731.88	262.95
732.21	262.57
732.54	262.12
732.87	261.67
733.20	261.26
733.53	260.86
733.86	260.51
734.19	260.10
734.52	259.70
734.85	259.37
735.18	258.96
735.51	258.60
735.84	258.24
736.17	257.86
736.50	257.46
736.83	257.19
737.16	256.82
737.49	256.46
737.82	256.12
738.15	255.79
738.48	255.41
738.81	255.07
739.14	254.69
739.47	254.41
739.80	254.10
740.13	253.81
740.46	253.50
740.79	253.15
741.12	252.85
741.45	252.57
741.78	252.25
742.11	251.96
742.44	251.61
742.77	251.32
743.10	251.00
743.43	250.69
743.75	250.31
744.08	250.14
744.41	249.90
744.74	249.63
745.07	249.35
745.40	249.11
745.73	248.88
746.06	248.65
746.39	248.35
746.71	248.11
747.04	247.84
747.37	247.56
747.70	247.31
748.03	247.05
748.36	246.82
748.68	246.54
749.01	246.29
749.34	246.08
749.67	245.85
750.00	245.68
750.33	245.56
750.65	245.33
750.98	245.01
751.31	244.76
751.64	244.53
751.97	244.37
752.29	244.17
752.62	243.93
752.95	243.74
753.28	243.55
753.60	243.32
753.93	243.14
754.26	242.95
754.59	242.73
754.91	242.52
755.24	242.31
755.57	242.14
755.90	241.98
756.22	241.78
756.55	241.60
756.88	241.37
757.20	241.10
757.53	240.92
757.86	240.75
758.19	240.61
758.51	240.47
758.84	240.27
759.17	240.07
759.49	239.93
759.82	239.76
760.15	239.62
760.47	239.48
760.80	239.30
761.13	239.15
761.45	239.00
761.78	238.86
762.11	238.73
762.43	238.59
762.76	238.44
763.08	238.30
763.41	238.15
763.74	238.06
764.06	237.94
764.39	237.79
764.71	237.64
765.04	237.49
765.37	237.32
765.69	237.19
766.02	237.08
766.34	236.94
766.67	236.81
767.00	236.67
767.32	236.60
767.65	236.57
767.97	236.45
768.30	236.33
768.62	236.23
768.95	236.10
769.27	235.99
769.60	235.90
769.92	235.81
770.25	235.66
770.57	235.54
770.90	235.44
771.22	235.36
771.55	235.26
771.87	235.18
772.20	235.10
772.52	235.08
772.85	235.10
773.17	235.00
773.50	234.88
773.82	234.76
774.15	234.61
774.47	234.45
774.80	234.34
775.12	234.26
775.45	234.15
775.77	234.07
776.09	233.98
776.42	233.91
776.74	233.87
777.07	233.83
777.39	233.77
777.72	233.67
778.04	233.59
778.36	233.49
778.69	233.40
779.01	233.34
779.33	233.19
779.66	233.02
779.98	232.93
780.31	232.89
780.63	232.87
780.95	232.85
781.28	232.82
781.60	232.79
781.92	232.74
782.25	232.69
782.57	232.63
782.89	232.58
783.22	232.51
783.54	232.40
783.86	232.35
784.19	232.28
784.51	232.30
784.83	232.26
785.16	232.21
785.48	232.18
785.80	232.13
786.12	232.12
786.45	232.07
786.77	232.07
787.09	232.03
