SpectraSuite Data File
++++++++++++++++++++++++++++++++++++
Date: Fri Feb 01 18:16:54 EST 2013
User: group
Dark Spectrum Present: No
Reference Spectrum Present: No
Number of Sampled Component Spectra: 1
Spectrometers: USB2E7196
Integration Time (usec): 35000 (USB2E7196)
Spectra Averaged: 100 (USB2E7196)
Boxcar Smoothing: 10 (USB2E7196)
Correct for Electrical Dark: No (USB2E7196)
Strobe/Lamp Enabled: No (USB2E7196)
Correct for Detector Non-linearity: No (USB2E7196)
Correct for Stray Light: No (USB2E7196)
Number of Pixels in Processed Spectrum: 2048
>>>>>Begin Processed Spectral Data<<<<<
339.09	0.00
339.48	213.30
339.86	213.80
340.24	215.97
340.63	217.31
341.01	219.65
341.39	220.11
341.78	221.34
342.16	221.86
342.54	222.98
342.93	211.45
343.31	222.15
343.69	222.68
344.07	223.19
344.46	223.61
344.84	224.02
345.22	224.28
345.60	224.52
345.99	224.70
346.37	224.89
346.75	225.03
347.13	225.12
347.52	225.17
347.90	225.28
348.28	225.28
348.66	225.32
349.05	225.30
349.43	225.39
349.81	225.45
350.19	225.52
350.57	225.60
350.96	225.70
351.34	225.80
351.72	225.88
352.10	225.96
352.48	226.05
352.87	226.08
353.25	226.16
353.63	226.24
354.01	226.34
354.39	226.42
354.77	226.47
355.15	226.54
355.54	226.59
355.92	226.62
356.30	226.71
356.68	226.87
357.06	226.95
357.44	226.97
357.82	227.04
358.20	227.10
358.58	227.15
358.97	227.21
359.35	227.26
359.73	227.33
360.11	227.40
360.49	227.45
360.87	227.50
361.25	227.56
361.63	227.65
362.01	227.68
362.39	227.68
362.77	227.73
363.15	227.75
363.53	227.79
363.91	227.82
364.29	227.85
364.67	227.77
365.05	227.83
365.43	227.89
365.81	227.92
366.19	227.96
366.57	228.00
366.95	227.98
367.33	227.95
367.71	227.96
368.09	227.97
368.47	227.96
368.85	227.99
369.23	228.01
369.61	227.94
369.99	227.92
370.37	227.91
370.75	227.93
371.13	227.91
371.51	227.88
371.89	227.85
372.27	227.78
372.65	227.76
373.03	227.65
373.41	227.59
373.78	227.51
374.16	227.43
374.54	227.36
374.92	227.29
375.30	227.24
375.68	227.16
376.06	227.12
376.44	227.07
376.82	226.96
377.19	226.86
377.57	226.82
377.95	226.75
378.33	226.67
378.71	226.52
379.09	226.44
379.47	226.38
379.84	226.32
380.22	226.27
380.60	226.18
380.98	226.13
381.36	226.07
381.73	226.01
382.11	225.95
382.49	225.88
382.87	225.81
383.25	225.77
383.62	225.83
384.00	225.78
384.38	225.69
384.76	225.69
385.13	225.68
385.51	225.61
385.89	225.57
386.27	225.54
386.64	225.57
387.02	225.52
387.40	225.48
387.78	225.46
388.15	225.43
388.53	225.44
388.91	225.41
389.29	225.38
389.66	225.34
390.04	225.32
390.42	225.30
390.79	225.30
391.17	225.27
391.55	225.14
391.92	225.10
392.30	225.10
392.68	225.08
393.05	225.07
393.43	225.06
393.81	225.09
394.18	225.11
394.56	225.12
394.94	225.16
395.31	225.17
395.69	225.20
396.06	225.22
396.44	225.24
396.82	225.28
397.19	225.35
397.57	225.41
397.95	225.46
398.32	225.47
398.70	225.54
399.07	225.63
399.45	225.67
399.82	225.72
400.20	225.81
400.58	225.87
400.95	225.90
401.33	226.00
401.70	226.12
402.08	226.16
402.45	226.23
402.83	226.34
403.20	226.43
403.58	226.51
403.95	226.61
404.33	226.76
404.71	226.90
405.08	227.09
405.46	227.21
405.83	227.34
406.21	227.53
406.58	227.71
406.96	227.90
407.33	228.12
407.70	228.32
408.08	228.61
408.45	228.87
408.83	229.13
409.20	229.39
409.58	229.60
409.95	229.94
410.33	230.30
410.70	230.62
411.08	231.00
411.45	231.40
411.82	231.83
412.20	232.30
412.57	232.81
412.95	233.22
413.32	233.81
413.69	234.39
414.07	234.99
414.44	235.63
414.82	236.27
415.19	236.99
415.56	237.77
415.94	238.55
416.31	239.45
416.68	240.34
417.06	241.32
417.43	242.31
417.81	243.39
418.18	244.41
418.55	245.59
418.93	246.81
419.30	248.07
419.67	249.39
420.04	250.72
420.42	252.12
420.79	253.73
421.16	255.35
421.54	257.00
421.91	258.72
422.28	260.49
422.66	262.40
423.03	264.24
423.40	266.16
423.77	268.17
424.15	270.19
424.52	272.30
424.89	274.58
425.26	276.75
425.64	278.82
426.01	281.13
426.38	283.45
426.75	285.83
427.13	288.27
427.50	290.82
427.87	293.46
428.24	296.11
428.61	298.61
428.99	301.33
429.36	304.32
429.73	307.22
430.10	310.08
430.47	313.00
430.85	315.99
431.22	319.16
431.59	322.48
431.96	325.63
432.33	329.15
432.70	332.50
433.08	336.48
433.45	340.16
433.82	343.80
434.19	347.91
434.56	351.87
434.93	355.60
435.30	359.29
435.68	363.39
436.05	367.37
436.42	371.33
436.79	374.90
437.16	378.69
437.53	382.71
437.90	386.67
438.27	390.49
438.64	394.50
439.01	398.11
439.38	401.31
439.75	404.36
440.13	407.89
440.50	411.18
440.87	413.80
441.24	416.56
441.61	419.66
441.98	421.76
442.35	424.33
442.72	427.03
443.09	429.59
443.46	430.96
443.83	431.82
444.20	432.57
444.57	433.74
444.94	434.17
445.31	434.63
445.68	435.10
446.05	435.24
446.42	434.76
446.79	434.18
447.16	433.55
447.53	433.07
447.90	431.43
448.27	429.83
448.64	427.60
449.01	426.01
449.37	423.17
449.74	420.53
450.11	417.28
450.48	413.75
450.85	410.20
451.22	407.22
451.59	404.29
451.96	401.52
452.33	397.86
452.70	394.57
453.07	390.56
453.43	386.49
453.80	382.58
454.17	378.76
454.54	375.18
454.91	371.35
455.28	367.60
455.65	364.07
456.02	360.53
456.38	357.48
456.75	353.70
457.12	350.56
457.49	347.38
457.86	344.36
458.23	341.71
458.59	338.79
458.96	335.81
459.33	333.22
459.70	330.55
460.07	328.38
460.43	325.88
460.80	323.50
461.17	321.43
461.54	319.30
461.91	317.23
462.27	315.11
462.64	313.33
463.01	311.41
463.38	309.56
463.74	307.69
464.11	306.02
464.48	304.54
464.85	302.91
465.21	301.68
465.58	300.33
465.95	298.76
466.32	297.40
466.68	296.15
467.05	294.86
467.42	293.59
467.78	292.27
468.15	291.06
468.52	290.17
468.88	289.01
469.25	287.86
469.62	286.97
469.98	286.00
470.35	285.06
470.72	284.18
471.08	283.27
471.45	282.45
471.82	281.63
472.18	280.77
472.55	280.13
472.92	279.35
473.28	278.69
473.65	278.06
474.02	277.42
474.38	276.79
474.75	276.30
475.11	275.79
475.48	275.36
475.85	274.97
476.21	274.60
476.58	274.26
476.94	274.08
477.31	273.81
477.67	273.55
478.04	273.36
478.41	273.18
478.77	273.09
479.14	272.93
479.50	272.90
479.87	272.94
480.23	272.96
480.60	272.97
480.96	272.98
481.33	273.16
481.69	273.37
482.06	273.54
482.42	273.66
482.79	273.87
483.15	274.16
483.52	274.52
483.88	274.82
484.25	275.16
484.61	275.53
484.98	275.90
485.34	276.48
485.71	277.07
486.07	277.69
486.44	278.26
486.80	278.97
487.17	279.70
487.53	280.53
487.90	281.43
488.26	282.42
488.62	283.42
488.99	284.44
489.35	285.49
489.72	286.70
490.08	287.99
490.44	289.30
490.81	290.72
491.17	292.17
491.54	293.75
491.90	295.38
492.26	297.16
492.63	299.04
492.99	300.96
493.36	302.98
493.72	305.22
494.08	307.45
494.45	309.84
494.81	312.38
495.17	314.94
495.54	317.66
495.90	320.48
496.26	323.51
496.63	326.65
496.99	330.03
497.35	333.53
497.72	337.20
498.08	340.97
498.44	344.94
498.80	349.11
499.17	353.42
499.53	357.91
499.89	362.61
500.26	367.41
500.62	372.39
500.98	377.72
501.34	383.12
501.71	388.91
502.07	394.73
502.43	400.79
502.79	407.08
503.16	413.63
503.52	420.39
503.88	427.29
504.24	434.41
504.60	441.77
504.97	449.43
505.33	457.28
505.69	465.60
506.05	473.96
506.41	482.47
506.78	491.29
507.14	500.45
507.50	509.84
507.86	519.66
508.22	529.61
508.59	539.60
508.95	550.00
509.31	560.59
509.67	571.55
510.03	582.69
510.39	594.17
510.75	605.88
511.12	617.80
511.48	630.10
511.84	642.63
512.20	655.19
512.56	668.21
512.92	681.50
513.28	695.07
513.64	708.74
514.00	722.65
514.37	736.77
514.73	751.06
515.09	765.41
515.45	779.94
515.81	794.88
516.17	810.22
516.53	825.68
516.89	841.31
517.25	856.90
517.61	872.77
517.97	888.58
518.33	904.50
518.69	920.72
519.05	937.21
519.41	953.96
519.77	971.02
520.13	988.23
520.49	1005.32
520.85	1022.34
521.21	1039.75
521.57	1057.79
521.93	1075.40
522.29	1093.65
522.65	1111.78
523.01	1129.89
523.37	1147.79
523.73	1165.92
524.09	1183.97
524.45	1202.12
524.81	1220.84
525.17	1239.53
525.53	1258.62
525.89	1277.64
526.25	1296.69
526.61	1315.17
526.97	1334.00
527.33	1352.75
527.68	1371.31
528.04	1390.00
528.40	1408.84
528.76	1428.13
529.12	1446.98
529.48	1466.20
529.84	1484.37
530.20	1503.30
530.56	1522.59
530.91	1542.52
531.27	1561.55
531.63	1580.32
531.99	1599.37
532.35	1617.71
532.71	1636.22
533.07	1654.87
533.42	1673.18
533.78	1691.79
534.14	1710.70
534.50	1728.59
534.86	1746.94
535.21	1764.72
535.57	1783.11
535.93	1801.15
536.29	1818.49
536.65	1836.12
537.00	1853.31
537.36	1871.23
537.72	1888.15
538.08	1905.25
538.44	1921.48
538.79	1938.15
539.15	1954.35
539.51	1970.67
539.87	1987.70
540.22	2004.10
540.58	2020.50
540.94	2036.37
541.29	2051.80
541.65	2067.11
542.01	2082.89
542.37	2097.93
542.72	2112.98
543.08	2127.35
543.44	2142.35
543.79	2156.17
544.15	2169.70
544.51	2184.01
544.87	2197.59
545.22	2211.06
545.58	2223.74
545.94	2236.00
546.29	2248.16
546.65	2260.67
547.01	2272.51
547.36	2283.73
547.72	2294.59
548.07	2305.05
548.43	2315.69
548.79	2326.16
549.14	2336.02
549.50	2345.71
549.86	2355.64
550.21	2365.24
550.57	2374.86
550.92	2383.72
551.28	2393.14
551.64	2402.50
551.99	2411.27
552.35	2419.61
552.70	2427.98
553.06	2436.19
553.41	2444.83
553.77	2453.13
554.13	2461.40
554.48	2469.76
554.84	2477.26
555.19	2484.49
555.55	2491.44
555.90	2497.95
556.26	2504.82
556.61	2511.45
556.97	2517.85
557.32	2523.81
557.68	2529.82
558.03	2535.87
558.39	2541.25
558.74	2547.78
559.10	2553.45
559.45	2558.70
559.81	2564.80
560.16	2570.51
560.52	2575.48
560.87	2580.38
561.23	2584.49
561.58	2588.95
561.94	2592.81
562.29	2596.54
562.64	2600.87
563.00	2604.95
563.35	2609.83
563.71	2614.32
564.06	2619.17
564.42	2623.40
564.77	2627.44
565.12	2631.21
565.48	2634.47
565.83	2637.85
566.19	2640.41
566.54	2642.48
566.89	2645.04
567.25	2646.79
567.60	2649.04
567.96	2651.97
568.31	2653.95
568.66	2656.41
569.02	2657.97
569.37	2659.30
569.72	2661.35
570.08	2662.32
570.43	2663.22
570.78	2663.52
571.14	2662.60
571.49	2661.69
571.84	2662.13
572.20	2661.79
572.55	2661.40
572.90	2660.27
573.26	2659.39
573.61	2658.01
573.96	2656.84
574.31	2653.93
574.67	2651.21
575.02	2647.93
575.37	2644.64
575.72	2640.99
576.08	2637.55
576.43	2634.31
576.78	2630.74
577.13	2627.54
577.49	2624.33
577.84	2621.02
578.19	2617.15
578.54	2613.66
578.90	2609.35
579.25	2603.25
579.60	2597.84
579.95	2592.26
580.30	2587.04
580.66	2581.30
581.01	2575.95
581.36	2570.49
581.71	2566.08
582.06	2561.37
582.42	2556.47
582.77	2550.85
583.12	2546.00
583.47	2540.92
583.82	2535.50
584.17	2529.63
584.53	2523.59
584.88	2517.60
585.23	2511.04
585.58	2504.89
585.93	2498.57
586.28	2493.15
586.63	2487.68
586.98	2482.09
587.34	2477.03
587.69	2471.38
588.04	2465.54
588.39	2459.10
588.74	2451.69
589.09	2444.78
589.44	2436.85
589.79	2429.85
590.14	2423.33
590.49	2415.57
590.84	2408.20
591.19	2401.27
591.54	2393.93
591.89	2385.54
592.25	2377.69
592.60	2369.38
592.95	2360.81
593.30	2352.37
593.65	2343.65
594.00	2335.50
594.35	2326.97
594.70	2317.45
595.05	2309.30
595.40	2300.74
595.75	2291.93
596.10	2284.70
596.45	2276.83
596.80	2269.80
597.15	2262.22
597.50	2253.92
597.85	2246.31
598.19	2238.46
598.54	2230.07
598.89	2222.19
599.24	2215.19
599.59	2207.36
599.94	2200.07
600.29	2192.45
600.64	2184.60
600.99	2175.85
601.34	2167.59
601.69	2159.32
602.04	2151.50
602.39	2142.73
602.74	2134.64
603.08	2126.73
603.43	2118.72
603.78	2110.03
604.13	2101.32
604.48	2092.60
604.83	2084.32
605.18	2076.14
605.53	2066.74
605.87	2057.29
606.22	2048.67
606.57	2039.14
606.92	2030.16
607.27	2021.67
607.62	2013.46
607.96	2004.91
608.31	1997.05
608.66	1988.12
609.01	1979.14
609.36	1969.97
609.70	1960.39
610.05	1950.76
610.40	1941.53
610.75	1931.50
611.10	1922.20
611.44	1912.08
611.79	1902.51
612.14	1892.20
612.49	1881.11
612.83	1871.01
613.18	1861.23
613.53	1851.50
613.88	1841.22
614.22	1831.33
614.57	1820.87
614.92	1811.23
615.27	1802.18
615.61	1792.15
615.96	1782.35
616.31	1773.17
616.65	1764.06
617.00	1754.92
617.35	1745.65
617.70	1735.62
618.04	1725.50
618.39	1715.58
618.74	1706.47
619.08	1696.43
619.43	1687.15
619.78	1678.78
620.12	1670.13
620.47	1661.01
620.82	1651.18
621.16	1642.05
621.51	1632.77
621.85	1623.54
622.20	1613.30
622.55	1603.00
622.89	1593.51
623.24	1584.33
623.59	1575.20
623.93	1566.09
624.28	1557.32
624.62	1548.23
624.97	1539.56
625.32	1531.32
625.66	1522.87
626.01	1514.23
626.35	1505.28
626.70	1496.12
627.04	1486.72
627.39	1477.24
627.73	1468.39
628.08	1460.07
628.43	1451.51
628.77	1442.77
629.12	1433.69
629.46	1425.09
629.81	1416.18
630.15	1407.33
630.50	1398.43
630.84	1388.59
631.19	1379.01
631.53	1369.86
631.88	1360.77
632.22	1351.70
632.57	1342.86
632.91	1333.65
633.26	1324.72
633.60	1315.64
633.95	1306.91
634.29	1298.66
634.64	1290.60
634.98	1281.76
635.32	1273.14
635.67	1265.05
636.01	1257.04
636.36	1248.91
636.70	1240.94
637.05	1233.07
637.39	1225.37
637.73	1217.51
638.08	1210.41
638.42	1203.27
638.77	1195.55
639.11	1187.79
639.45	1180.24
639.80	1172.38
640.14	1164.86
640.49	1156.95
640.83	1149.49
641.17	1142.09
641.52	1134.41
641.86	1126.64
642.20	1119.60
642.55	1111.98
642.89	1104.28
643.23	1096.41
643.58	1089.45
643.92	1082.12
644.26	1074.96
644.61	1067.75
644.95	1060.61
645.29	1052.96
645.64	1044.95
645.98	1037.47
646.32	1030.43
646.66	1023.07
647.01	1016.13
647.35	1009.20
647.69	1002.26
648.04	995.71
648.38	988.81
648.72	981.76
649.06	974.67
649.41	967.63
649.75	960.59
650.09	953.61
650.43	946.70
650.78	939.41
651.12	932.33
651.46	925.50
651.80	918.75
652.14	912.37
652.49	905.97
652.83	899.94
653.17	893.24
653.51	886.43
653.85	880.05
654.20	873.30
654.54	866.26
654.88	859.46
655.22	852.48
655.56	845.78
655.90	839.28
656.25	833.12
656.59	826.76
656.93	820.78
657.27	814.58
657.61	808.20
657.95	802.25
658.29	796.21
658.64	790.01
658.98	783.67
659.32	777.11
659.66	770.94
660.00	764.66
660.34	758.77
660.68	752.92
661.02	746.98
661.36	741.39
661.70	736.03
662.05	730.90
662.39	725.77
662.73	720.43
663.07	715.33
663.41	710.10
663.75	704.84
664.09	699.38
664.43	694.23
664.77	689.43
665.11	684.40
665.45	679.61
665.79	674.75
666.13	669.97
666.47	665.15
666.81	660.21
667.15	655.32
667.49	650.70
667.83	646.21
668.17	641.60
668.51	636.81
668.85	632.11
669.19	627.53
669.53	623.04
669.87	618.46
670.21	614.01
670.55	609.63
670.89	605.59
671.23	601.57
671.57	597.36
671.91	593.14
672.25	588.94
672.58	584.71
672.92	580.67
673.26	576.89
673.60	573.19
673.94	569.61
674.28	566.16
674.62	562.73
674.96	559.06
675.30	555.65
675.64	552.23
675.97	548.93
676.31	545.57
676.65	542.12
676.99	539.00
677.33	535.67
677.67	532.33
678.01	528.74
678.34	525.26
678.68	521.91
679.02	518.60
679.36	515.36
679.70	512.17
680.04	508.97
680.37	505.56
680.71	502.26
681.05	499.12
681.39	495.95
681.73	492.77
682.06	489.84
682.40	486.82
682.74	483.83
683.08	480.86
683.42	477.84
683.75	474.88
684.09	471.80
684.43	468.81
684.77	465.98
685.10	463.21
685.44	460.48
685.78	457.79
686.12	455.13
686.45	452.44
686.79	449.73
687.13	447.12
687.46	444.56
687.80	441.98
688.14	439.36
688.48	436.90
688.81	434.24
689.15	431.68
689.49	429.11
689.82	426.71
690.16	424.23
690.50	421.88
690.83	419.57
691.17	417.23
691.51	415.03
691.84	412.80
692.18	410.50
692.52	408.13
692.85	405.81
693.19	403.60
693.52	401.40
693.86	399.25
694.20	397.14
694.53	395.01
694.87	392.80
695.21	390.68
695.54	388.49
695.88	386.43
696.21	384.40
696.55	382.42
696.88	380.32
697.22	378.37
697.56	376.43
697.89	374.47
698.23	372.62
698.56	370.68
698.90	368.86
699.23	366.90
699.57	365.08
699.90	363.27
700.24	361.42
700.58	359.63
700.91	357.85
701.25	356.17
701.58	354.54
701.92	352.97
702.25	351.32
702.59	349.72
702.92	348.17
703.26	346.64
703.59	345.14
703.93	343.75
704.26	342.29
704.60	340.78
704.93	339.34
705.26	337.84
705.60	336.44
705.93	335.02
706.27	333.84
706.60	332.58
706.94	331.29
707.27	329.94
707.61	328.63
707.94	327.36
708.27	326.02
708.61	324.71
708.94	323.53
709.28	322.36
709.61	321.25
709.94	320.14
710.28	318.88
710.61	317.65
710.95	316.37
711.28	315.29
711.61	314.16
711.95	313.04
712.28	311.90
712.61	310.74
712.95	309.61
713.28	308.51
713.61	307.43
713.95	306.41
714.28	305.41
714.61	304.40
714.95	303.44
715.28	302.44
715.61	301.41
715.95	300.41
716.28	299.36
716.61	298.31
716.95	297.30
717.28	296.38
717.61	295.51
717.94	294.61
718.28	293.62
718.61	292.74
718.94	291.89
719.27	291.11
719.61	290.35
719.94	289.58
720.27	288.76
720.60	287.98
720.94	287.17
721.27	286.46
721.60	285.76
721.93	285.04
722.27	284.36
722.60	283.70
722.93	282.97
723.26	282.36
723.59	281.71
723.93	281.11
724.26	280.46
724.59	279.76
724.92	279.15
725.25	278.58
725.59	277.97
725.92	277.38
726.25	276.76
726.58	276.16
726.91	275.54
727.24	274.98
727.57	274.43
727.91	273.83
728.24	273.30
728.57	272.78
728.90	272.23
729.23	271.66
729.56	271.12
729.89	270.61
730.22	270.02
730.55	269.48
730.89	268.90
731.22	268.43
731.55	267.95
731.88	267.42
732.21	266.90
732.54	266.38
732.87	265.84
733.20	265.37
733.53	264.94
733.86	264.48
734.19	263.96
734.52	263.52
734.85	263.19
735.18	262.70
735.51	262.23
735.84	261.79
736.17	261.40
736.50	260.96
736.83	260.66
737.16	260.29
737.49	259.92
737.82	259.50
738.15	259.10
738.48	258.72
738.81	258.34
739.14	257.93
739.47	257.59
739.80	257.23
740.13	256.85
740.46	256.44
740.79	256.10
741.12	255.72
741.45	255.34
741.78	254.90
742.11	254.55
742.44	254.16
742.77	253.81
743.10	253.46
743.43	253.12
743.75	252.63
744.08	252.41
744.41	252.05
744.74	251.75
745.07	251.35
745.40	251.04
745.73	250.77
746.06	250.47
746.39	250.11
746.71	249.78
747.04	249.45
747.37	249.13
747.70	248.81
748.03	248.54
748.36	248.26
748.68	248.00
749.01	247.67
749.34	247.41
749.67	247.11
750.00	246.81
750.33	246.61
750.65	246.37
750.98	245.98
751.31	245.70
751.64	245.47
751.97	245.28
752.29	245.03
752.62	244.71
752.95	244.41
753.28	244.16
753.60	243.93
753.93	243.74
754.26	243.52
754.59	243.26
754.91	243.01
755.24	242.75
755.57	242.49
755.90	242.32
756.22	242.07
756.55	241.84
756.88	241.62
757.20	241.32
757.53	241.08
757.86	240.86
758.19	240.67
758.51	240.46
758.84	240.23
759.17	239.99
759.49	239.83
759.82	239.72
760.15	239.54
760.47	239.38
760.80	239.14
761.13	238.99
761.45	238.80
761.78	238.62
762.11	238.47
762.43	238.30
762.76	238.13
763.08	238.00
763.41	237.87
763.74	237.71
764.06	237.56
764.39	237.38
764.71	237.24
765.04	237.08
765.37	236.88
765.69	236.73
766.02	236.59
766.34	236.44
766.67	236.24
767.00	236.15
767.32	236.08
767.65	236.06
767.97	235.90
768.30	235.80
768.62	235.70
768.95	235.55
769.27	235.40
769.60	235.26
769.92	235.10
770.25	234.93
770.57	234.80
770.90	234.68
771.22	234.59
771.55	234.48
771.87	234.37
772.20	234.26
772.52	234.24
772.85	234.28
773.17	234.17
773.50	234.04
773.82	233.93
774.15	233.75
774.47	233.55
774.80	233.44
775.12	233.31
775.45	233.20
775.77	233.14
776.09	233.09
776.42	233.02
776.74	232.97
777.07	232.86
777.39	232.77
777.72	232.71
778.04	232.65
778.36	232.56
778.69	232.51
779.01	232.45
779.33	232.31
779.66	232.10
779.98	232.02
780.31	231.99
780.63	231.96
780.95	231.89
781.28	231.82
781.60	231.72
781.92	231.71
782.25	231.62
782.57	231.54
782.89	231.44
783.22	231.35
783.54	231.26
783.86	231.24
784.19	231.18
784.51	231.10
784.83	231.03
785.16	230.97
785.48	230.89
785.80	230.86
786.12	230.79
786.45	230.75
