SpectraSuite Data File
++++++++++++++++++++++++++++++++++++
Date: Fri Feb 01 15:56:38 EST 2013
User: group
Dark Spectrum Present: No
Reference Spectrum Present: No
Number of Sampled Component Spectra: 1
Spectrometers: USB2E7196
Integration Time (usec): 35000 (USB2E7196)
Spectra Averaged: 100 (USB2E7196)
Boxcar Smoothing: 10 (USB2E7196)
Correct for Electrical Dark: No (USB2E7196)
Strobe/Lamp Enabled: No (USB2E7196)
Correct for Detector Non-linearity: No (USB2E7196)
Correct for Stray Light: No (USB2E7196)
Number of Pixels in Processed Spectrum: 2048
>>>>>Begin Processed Spectral Data<<<<<
339.09	0.00
339.48	214.56
339.86	215.97
340.24	217.55
340.63	219.33
341.01	221.96
341.39	222.09
341.78	222.62
342.16	223.22
342.54	223.91
342.93	212.93
343.31	223.70
343.69	224.25
344.07	224.72
344.46	225.14
344.84	225.49
345.22	225.73
345.60	225.96
345.99	226.16
346.37	226.32
346.75	226.47
347.13	226.55
347.52	226.62
347.90	226.69
348.28	226.77
348.66	226.83
349.05	226.81
349.43	226.83
349.81	226.87
350.19	226.92
350.57	227.01
350.96	227.08
351.34	227.18
351.72	227.27
352.10	227.38
352.48	227.49
352.87	227.55
353.25	227.62
353.63	227.69
354.01	227.75
354.39	227.85
354.77	227.91
355.15	228.03
355.54	228.12
355.92	228.17
356.30	228.21
356.68	228.35
357.06	228.41
357.44	228.48
357.82	228.56
358.20	228.63
358.58	228.68
358.97	228.72
359.35	228.78
359.73	228.86
360.11	228.89
360.49	228.93
360.87	228.97
361.25	229.03
361.63	229.06
362.01	229.11
362.39	229.13
362.77	229.17
363.15	229.18
363.53	229.19
363.91	229.23
364.29	229.26
364.67	229.16
365.05	229.20
365.43	229.21
365.81	229.19
366.19	229.22
366.57	229.23
366.95	229.26
367.33	229.22
367.71	229.17
368.09	229.16
368.47	229.13
368.85	229.10
369.23	229.10
369.61	229.04
369.99	229.05
370.37	229.05
370.75	229.08
371.13	229.02
371.51	228.97
371.89	228.89
372.27	228.87
372.65	228.83
373.03	228.77
373.41	228.68
373.78	228.66
374.16	228.54
374.54	228.44
374.92	228.37
375.30	228.33
375.68	228.28
376.06	228.24
376.44	228.17
376.82	228.14
377.19	228.05
377.57	228.01
377.95	227.87
378.33	227.76
378.71	227.63
379.09	227.56
379.47	227.48
379.84	227.42
380.22	227.35
380.60	227.27
380.98	227.20
381.36	227.14
381.73	227.07
382.11	227.03
382.49	226.99
382.87	226.92
383.25	226.81
383.62	226.85
384.00	226.77
384.38	226.72
384.76	226.66
385.13	226.64
385.51	226.57
385.89	226.54
386.27	226.50
386.64	226.47
387.02	226.41
387.40	226.36
387.78	226.35
388.15	226.29
388.53	226.27
388.91	226.24
389.29	226.23
389.66	226.21
390.04	226.19
390.42	226.18
390.79	226.17
391.17	226.20
391.55	226.10
391.92	226.13
392.30	226.14
392.68	226.12
393.05	226.11
393.43	226.12
393.81	226.15
394.18	226.18
394.56	226.20
394.94	226.24
395.31	226.29
395.69	226.31
396.06	226.39
396.44	226.42
396.82	226.45
397.19	226.51
397.57	226.55
397.95	226.63
398.32	226.67
398.70	226.74
399.07	226.80
399.45	226.83
399.82	226.90
400.20	226.98
400.58	227.05
400.95	227.10
401.33	227.21
401.70	227.34
402.08	227.42
402.45	227.52
402.83	227.64
403.20	227.71
403.58	227.81
403.95	227.94
404.33	228.08
404.71	228.21
405.08	228.42
405.46	228.56
405.83	228.69
406.21	228.82
406.58	228.97
406.96	229.10
407.33	229.30
407.70	229.48
408.08	229.76
408.45	229.99
408.83	230.23
409.20	230.45
409.58	230.63
409.95	230.87
410.33	231.16
410.70	231.36
411.08	231.67
411.45	231.99
411.82	232.27
412.20	232.61
412.57	233.04
412.95	233.31
413.32	233.69
413.69	234.11
414.07	234.57
414.44	235.03
414.82	235.56
415.19	236.10
415.56	236.64
415.94	237.16
416.31	237.76
416.68	238.40
417.06	239.06
417.43	239.76
417.81	240.53
418.18	241.29
418.55	242.15
418.93	243.02
419.30	243.91
419.67	244.86
420.04	245.81
420.42	246.78
420.79	247.94
421.16	249.12
421.54	250.29
421.91	251.49
422.28	252.77
422.66	254.07
423.03	255.34
423.40	256.60
423.77	258.01
424.15	259.45
424.52	260.93
424.89	262.59
425.26	264.13
425.64	265.59
426.01	267.19
426.38	268.85
426.75	270.53
427.13	272.27
427.50	274.08
427.87	275.95
428.24	277.83
428.61	279.58
428.99	281.52
429.36	283.64
429.73	285.70
430.10	287.70
430.47	289.74
430.85	291.87
431.22	294.15
431.59	296.54
431.96	298.77
432.33	301.28
432.70	303.62
433.08	306.42
433.45	309.06
433.82	311.68
434.19	314.57
434.56	317.42
434.93	320.03
435.30	322.65
435.68	325.59
436.05	328.40
436.42	331.20
436.79	333.77
437.16	336.43
437.53	339.28
437.90	342.13
438.27	344.91
438.64	347.76
439.01	350.36
439.38	352.59
439.75	354.76
440.13	357.25
440.50	359.58
440.87	361.48
441.24	363.41
441.61	365.55
441.98	367.02
442.35	368.80
442.72	370.67
443.09	372.43
443.46	373.38
443.83	373.95
444.20	374.48
444.57	375.27
444.94	375.57
445.31	375.88
445.68	376.19
446.05	376.27
446.42	375.88
446.79	375.42
447.16	374.97
447.53	374.67
447.90	373.50
448.27	372.36
448.64	370.74
449.01	369.58
449.37	367.65
449.74	365.78
450.11	363.51
450.48	361.05
450.85	358.61
451.22	356.46
451.59	354.46
451.96	352.51
452.33	349.89
452.70	347.53
453.07	344.74
453.43	341.84
453.80	339.03
454.17	336.36
454.54	333.89
454.91	331.18
455.28	328.52
455.65	326.03
456.02	323.59
456.38	321.46
456.75	318.83
457.12	316.55
457.49	314.34
457.86	312.20
458.23	310.34
458.59	308.22
458.96	306.18
459.33	304.34
459.70	302.45
460.07	300.97
460.43	299.24
460.80	297.57
461.17	296.17
461.54	294.67
461.91	293.24
462.27	291.78
462.64	290.52
463.01	289.15
463.38	287.86
463.74	286.46
464.11	285.27
464.48	284.23
464.85	283.10
465.21	282.21
465.58	281.30
465.95	280.18
466.32	279.31
466.68	278.40
467.05	277.50
467.42	276.62
467.78	275.68
468.15	274.84
468.52	274.24
468.88	273.38
469.25	272.63
469.62	272.00
469.98	271.30
470.35	270.70
470.72	270.10
471.08	269.43
471.45	268.94
471.82	268.39
472.18	267.79
472.55	267.37
472.92	266.82
473.28	266.31
473.65	265.86
474.02	265.40
474.38	265.00
474.75	264.71
475.11	264.36
475.48	264.10
475.85	263.85
476.21	263.55
476.58	263.36
476.94	263.20
477.31	263.05
477.67	262.89
478.04	262.75
478.41	262.69
478.77	262.72
479.14	262.65
479.50	262.67
479.87	262.74
480.23	262.81
480.60	262.92
480.96	263.05
481.33	263.28
481.69	263.48
482.06	263.67
482.42	263.86
482.79	264.11
483.15	264.40
483.52	264.79
483.88	265.17
484.25	265.54
484.61	265.99
484.98	266.44
485.34	267.02
485.71	267.59
486.07	268.21
486.44	268.74
486.80	269.46
487.17	270.19
487.53	271.00
487.90	271.87
488.26	272.76
488.62	273.75
488.99	274.73
489.35	275.76
489.72	276.91
490.08	278.10
490.44	279.36
490.81	280.71
491.17	282.06
491.54	283.55
491.90	285.10
492.26	286.68
492.63	288.41
492.99	290.21
493.36	292.11
493.72	294.16
494.08	296.31
494.45	298.57
494.81	300.95
495.17	303.42
495.54	305.99
495.90	308.68
496.26	311.52
496.63	314.47
496.99	317.58
497.35	320.86
497.72	324.26
498.08	327.74
498.44	331.43
498.80	335.36
499.17	339.38
499.53	343.54
499.89	347.97
500.26	352.49
500.62	357.16
500.98	362.16
501.34	367.31
501.71	372.62
502.07	378.07
502.43	383.66
502.79	389.48
503.16	395.53
503.52	401.85
503.88	408.20
504.24	414.90
504.60	421.78
504.97	428.89
505.33	436.21
505.69	443.92
506.05	451.70
506.41	459.60
506.78	467.82
507.14	476.34
507.50	485.07
507.86	494.08
508.22	503.24
508.59	512.45
508.95	521.94
509.31	531.77
509.67	541.88
510.03	552.16
510.39	562.63
510.75	573.46
511.12	584.41
511.48	595.65
511.84	607.07
512.20	618.59
512.56	630.53
512.92	642.71
513.28	655.07
513.64	667.47
514.00	680.16
514.37	693.07
514.73	706.08
515.09	719.12
515.45	732.47
515.81	746.03
516.17	759.99
516.53	774.12
516.89	788.33
517.25	802.44
517.61	816.85
517.97	831.36
518.33	845.75
518.69	860.45
519.05	875.52
519.41	890.72
519.77	906.28
520.13	921.68
520.49	937.05
520.85	952.48
521.21	968.31
521.57	984.37
521.93	1000.06
522.29	1016.40
522.65	1032.64
523.01	1048.79
523.37	1064.85
523.73	1081.01
524.09	1097.09
524.45	1113.31
524.81	1129.93
525.17	1146.76
525.53	1163.77
525.89	1180.60
526.25	1197.45
526.61	1213.82
526.97	1230.44
527.33	1246.87
527.68	1263.37
528.04	1279.86
528.40	1296.38
528.76	1313.29
529.12	1330.04
529.48	1346.80
529.84	1362.86
530.20	1379.46
530.56	1396.42
530.91	1413.87
531.27	1430.57
531.63	1446.97
531.99	1463.55
532.35	1479.49
532.71	1495.46
533.07	1511.58
533.42	1527.44
533.78	1543.50
534.14	1559.71
534.50	1575.01
534.86	1590.84
535.21	1605.99
535.57	1621.85
535.93	1637.42
536.29	1652.28
536.65	1667.19
537.00	1682.12
537.36	1697.29
537.72	1711.78
538.08	1726.16
538.44	1739.78
538.79	1753.66
539.15	1767.31
539.51	1781.01
539.87	1795.42
540.22	1809.12
540.58	1822.78
540.94	1836.20
541.29	1849.10
541.65	1861.83
542.01	1875.00
542.37	1887.35
542.72	1899.83
543.08	1911.55
543.44	1923.81
543.79	1935.02
544.15	1946.05
544.51	1957.49
544.87	1968.44
545.22	1979.21
545.58	1989.50
545.94	1999.37
546.29	2009.19
546.65	2019.08
547.01	2028.34
547.36	2036.97
547.72	2045.26
548.07	2053.13
548.43	2061.23
548.79	2069.26
549.14	2076.73
549.50	2084.09
549.86	2091.73
550.21	2098.99
550.57	2106.27
550.92	2112.86
551.28	2119.78
551.64	2126.87
551.99	2133.38
552.35	2139.64
552.70	2145.68
553.06	2151.55
553.41	2157.92
553.77	2163.91
554.13	2169.96
554.48	2176.15
554.84	2181.56
555.19	2186.96
555.55	2192.09
555.90	2196.47
556.26	2201.22
556.61	2205.99
556.97	2210.32
557.32	2214.50
557.68	2218.77
558.03	2222.92
558.39	2226.61
558.74	2231.26
559.10	2235.24
559.45	2239.00
559.81	2243.29
560.16	2247.18
560.52	2250.40
560.87	2253.69
561.23	2256.44
561.58	2259.37
561.94	2261.75
562.29	2264.23
562.64	2266.82
563.00	2269.50
563.35	2273.02
563.71	2276.13
564.06	2279.26
564.42	2281.94
564.77	2284.36
565.12	2286.46
565.48	2288.27
565.83	2290.05
566.19	2291.32
566.54	2292.01
566.89	2293.04
567.25	2293.69
567.60	2295.02
567.96	2296.70
568.31	2297.78
568.66	2298.89
569.02	2299.51
569.37	2299.85
569.72	2300.54
570.08	2300.73
570.43	2300.72
570.78	2300.20
571.14	2298.85
571.49	2297.53
571.84	2297.42
572.20	2296.36
572.55	2295.45
572.90	2294.13
573.26	2292.83
573.61	2291.21
573.96	2289.64
574.31	2286.71
574.67	2283.69
575.02	2280.15
575.37	2276.85
575.72	2272.87
576.08	2269.51
576.43	2266.13
576.78	2262.43
577.13	2259.41
577.49	2256.28
577.84	2252.63
578.19	2248.84
578.54	2245.11
578.90	2240.87
579.25	2235.37
579.60	2230.36
579.95	2225.39
580.30	2220.29
580.66	2215.18
581.01	2210.29
581.36	2205.33
581.71	2201.17
582.06	2196.67
582.42	2192.15
582.77	2186.85
583.12	2182.26
583.47	2177.52
583.82	2172.46
584.17	2167.34
584.53	2161.75
584.88	2156.15
585.23	2150.65
585.58	2145.27
585.93	2139.80
586.28	2135.14
586.63	2129.96
586.98	2124.98
587.34	2120.14
587.69	2115.38
588.04	2110.13
588.39	2104.50
588.74	2097.96
589.09	2091.82
589.44	2085.11
589.79	2079.12
590.14	2073.46
590.49	2067.00
590.84	2060.61
591.19	2054.68
591.54	2048.14
591.89	2040.75
592.25	2033.90
592.60	2026.55
592.95	2019.08
593.30	2011.81
593.65	2004.07
594.00	1997.09
594.35	1989.71
594.70	1981.72
595.05	1974.50
595.40	1967.27
595.75	1959.69
596.10	1953.53
596.45	1946.80
596.80	1940.52
597.15	1933.79
597.50	1926.69
597.85	1920.16
598.19	1913.47
598.54	1906.29
598.89	1899.75
599.24	1893.88
599.59	1887.25
599.94	1881.20
600.29	1874.70
600.64	1867.92
600.99	1860.50
601.34	1853.60
601.69	1846.72
602.04	1839.85
602.39	1832.39
602.74	1825.61
603.08	1818.86
603.43	1812.10
603.78	1804.77
604.13	1797.54
604.48	1790.19
604.83	1783.42
605.18	1776.44
605.53	1768.44
605.87	1760.44
606.22	1753.19
606.57	1745.33
606.92	1738.07
607.27	1730.67
607.62	1723.79
607.96	1716.68
608.31	1710.07
608.66	1702.40
609.01	1694.98
609.36	1687.43
609.70	1679.51
610.05	1671.32
610.40	1663.60
610.75	1655.27
611.10	1647.53
611.44	1639.20
611.79	1631.42
612.14	1622.79
612.49	1613.63
612.83	1605.28
613.18	1597.20
613.53	1589.05
613.88	1580.47
614.22	1572.09
614.57	1563.62
614.92	1555.50
615.27	1547.88
615.61	1539.62
615.96	1531.67
616.31	1523.99
616.65	1516.70
617.00	1509.04
617.35	1501.42
617.70	1493.12
618.04	1484.66
618.39	1476.50
618.74	1468.86
619.08	1460.40
619.43	1452.71
619.78	1445.76
620.12	1438.58
620.47	1431.11
620.82	1422.94
621.16	1415.55
621.51	1408.07
621.85	1400.41
622.20	1391.95
622.55	1383.64
622.89	1375.84
623.24	1368.26
623.59	1360.78
623.93	1353.15
624.28	1345.95
624.62	1338.39
624.97	1331.25
625.32	1324.41
625.66	1317.40
626.01	1310.26
626.35	1302.87
626.70	1295.25
627.04	1287.64
627.39	1279.89
627.73	1272.41
628.08	1265.51
628.43	1258.16
628.77	1250.63
629.12	1243.11
629.46	1235.94
629.81	1228.45
630.15	1221.17
630.50	1213.69
630.84	1205.47
631.19	1197.63
631.53	1190.13
631.88	1182.64
632.22	1174.98
632.57	1167.72
632.91	1160.14
633.26	1152.66
633.60	1145.29
633.95	1138.14
634.29	1131.10
634.64	1124.45
634.98	1117.14
635.32	1110.02
635.67	1103.44
636.01	1096.86
636.36	1090.04
636.70	1083.62
637.05	1077.00
637.39	1070.53
637.73	1064.01
638.08	1058.21
638.42	1052.22
638.77	1045.70
639.11	1039.08
639.45	1032.69
639.80	1025.97
640.14	1019.59
640.49	1013.10
640.83	1006.74
641.17	1000.48
641.52	994.10
641.86	987.63
642.20	981.79
642.55	975.44
642.89	968.95
643.23	962.40
643.58	956.59
643.92	950.31
644.26	944.26
644.61	938.22
644.95	932.21
645.29	925.54
645.64	918.76
645.98	912.48
646.32	906.65
646.66	900.61
647.01	894.85
647.35	889.02
647.69	883.22
648.04	877.71
648.38	871.88
648.72	865.91
649.06	859.88
649.41	853.94
649.75	848.02
650.09	842.08
650.43	836.32
650.78	830.12
651.12	824.14
651.46	818.45
651.80	812.67
652.14	807.25
652.49	801.91
652.83	796.75
653.17	790.97
653.51	785.16
653.85	779.82
654.20	774.21
654.54	768.26
654.88	762.57
655.22	756.71
655.56	751.02
655.90	745.54
656.25	740.26
656.59	734.97
656.93	729.82
657.27	724.69
657.61	719.13
657.95	714.09
658.29	709.04
658.64	703.84
658.98	698.58
659.32	693.12
659.66	687.94
660.00	682.62
660.34	677.72
660.68	672.81
661.02	667.79
661.36	663.07
661.70	658.65
662.05	654.27
662.39	649.92
662.73	645.47
663.07	641.08
663.41	636.66
663.75	632.12
664.09	627.64
664.43	623.20
664.77	619.19
665.11	614.98
665.45	610.92
665.79	606.79
666.13	602.63
666.47	598.57
666.81	594.39
667.15	590.28
667.49	586.32
667.83	582.53
668.17	578.56
668.51	574.48
668.85	570.37
669.19	566.49
669.53	562.62
669.87	558.74
670.21	555.06
670.55	551.34
670.89	547.93
671.23	544.50
671.57	541.03
671.91	537.48
672.25	533.94
672.58	530.31
672.92	526.94
673.26	523.76
673.60	520.58
673.94	517.49
674.28	514.59
674.62	511.70
674.96	508.59
675.30	505.68
675.64	502.76
675.97	500.05
676.31	497.18
676.65	494.28
676.99	491.66
677.33	488.81
677.67	486.03
678.01	482.95
678.34	479.93
678.68	477.03
679.02	474.20
679.36	471.47
679.70	468.80
680.04	466.06
680.37	463.22
680.71	460.48
681.05	457.86
681.39	455.07
681.73	452.42
682.06	449.88
682.40	447.29
682.74	444.78
683.08	442.24
683.42	439.68
683.75	437.21
684.09	434.56
684.43	432.04
684.77	429.54
685.10	427.21
685.44	424.92
685.78	422.67
686.12	420.42
686.45	418.12
686.79	415.82
687.13	413.67
687.46	411.53
687.80	409.35
688.14	407.18
688.48	405.16
688.81	402.94
689.15	400.81
689.49	398.71
689.82	396.63
690.16	394.57
690.50	392.60
690.83	390.68
691.17	388.72
691.51	386.84
691.84	385.00
692.18	383.03
692.52	381.00
692.85	379.02
693.19	377.18
693.52	375.32
693.86	373.49
694.20	371.63
694.53	369.81
694.87	367.93
695.21	366.09
695.54	364.32
695.88	362.58
696.21	360.86
696.55	359.18
696.88	357.54
697.22	355.79
697.56	354.13
697.89	352.44
698.23	350.84
698.56	349.22
698.90	347.66
699.23	346.04
699.57	344.57
699.90	343.04
700.24	341.47
700.58	339.96
700.91	338.43
701.25	336.99
701.58	335.63
701.92	334.27
702.25	332.84
702.59	331.41
702.92	330.07
703.26	328.71
703.59	327.42
703.93	326.21
704.26	324.96
704.60	323.68
704.93	322.42
705.26	321.12
705.60	319.97
705.93	318.79
706.27	317.76
706.60	316.66
706.94	315.60
707.27	314.45
707.61	313.38
707.94	312.38
708.27	311.28
708.61	310.17
708.94	309.20
709.28	308.30
709.61	307.32
709.94	306.39
710.28	305.41
710.61	304.45
710.95	303.39
711.28	302.52
711.61	301.56
711.95	300.64
712.28	299.78
712.61	298.80
712.95	297.88
713.28	297.02
713.61	296.13
713.95	295.26
714.28	294.45
714.61	293.59
714.95	292.74
715.28	291.93
715.61	291.05
715.95	290.17
716.28	289.33
716.61	288.53
716.95	287.67
717.28	286.94
717.61	286.17
717.94	285.41
718.28	284.56
718.61	283.88
718.94	283.18
719.27	282.49
719.61	281.84
719.94	281.22
720.27	280.49
720.60	279.82
720.94	279.20
721.27	278.61
721.60	278.02
721.93	277.46
722.27	276.91
722.60	276.39
722.93	275.83
723.26	275.30
723.59	274.76
723.93	274.23
724.26	273.69
724.59	273.13
724.92	272.65
725.25	272.19
725.59	271.66
725.92	271.22
726.25	270.72
726.58	270.23
726.91	269.71
727.24	269.29
727.57	268.83
727.91	268.34
728.24	267.87
728.57	267.41
728.90	266.94
729.23	266.42
729.56	265.97
729.89	265.51
730.22	265.00
730.55	264.53
730.89	264.06
731.22	263.62
731.55	263.23
731.88	262.76
732.21	262.34
732.54	261.90
732.87	261.41
733.20	260.99
733.53	260.62
733.86	260.29
734.19	259.84
734.52	259.49
734.85	259.17
735.18	258.75
735.51	258.38
735.84	258.02
736.17	257.69
736.50	257.30
736.83	257.02
737.16	256.71
737.49	256.41
737.82	256.08
738.15	255.75
738.48	255.37
738.81	255.06
739.14	254.71
739.47	254.43
739.80	254.10
740.13	253.78
740.46	253.44
740.79	253.09
741.12	252.79
741.45	252.45
741.78	252.09
742.11	251.80
742.44	251.45
742.77	251.13
743.10	250.81
743.43	250.50
743.75	250.14
744.08	249.96
744.41	249.66
744.74	249.42
745.07	249.15
745.40	248.89
745.73	248.65
746.06	248.38
746.39	248.07
746.71	247.82
747.04	247.53
747.37	247.25
747.70	246.98
748.03	246.70
748.36	246.48
748.68	246.22
749.01	245.97
749.34	245.75
749.67	245.55
750.00	245.31
750.33	245.16
750.65	244.97
750.98	244.62
751.31	244.38
751.64	244.18
751.97	243.98
752.29	243.78
752.62	243.53
752.95	243.30
753.28	243.14
753.60	242.96
753.93	242.81
754.26	242.63
754.59	242.38
754.91	242.19
755.24	241.97
755.57	241.81
755.90	241.64
756.22	241.46
756.55	241.22
756.88	241.05
757.20	240.80
757.53	240.60
757.86	240.43
758.19	240.29
758.51	240.10
758.84	239.88
759.17	239.70
759.49	239.53
759.82	239.47
760.15	239.28
760.47	239.11
760.80	238.94
761.13	238.83
761.45	238.73
761.78	238.59
762.11	238.45
762.43	238.31
762.76	238.16
763.08	238.04
763.41	237.92
763.74	237.80
764.06	237.69
764.39	237.55
764.71	237.42
765.04	237.25
765.37	237.17
765.69	237.04
766.02	236.94
766.34	236.81
766.67	236.62
767.00	236.55
767.32	236.49
767.65	236.41
767.97	236.29
768.30	236.19
768.62	236.09
768.95	235.96
769.27	235.83
769.60	235.74
769.92	235.61
770.25	235.51
770.57	235.41
770.90	235.28
771.22	235.20
771.55	235.09
771.87	235.03
772.20	234.89
772.52	234.92
772.85	234.94
773.17	234.86
773.50	234.79
773.82	234.66
774.15	234.53
774.47	234.40
774.80	234.29
775.12	234.18
775.45	234.09
775.77	234.05
776.09	233.98
776.42	233.89
776.74	233.83
777.07	233.77
777.39	233.70
777.72	233.62
778.04	233.57
778.36	233.50
778.69	233.44
779.01	233.40
779.33	233.22
779.66	233.01
779.98	232.96
780.31	232.84
780.63	232.84
780.95	232.77
781.28	232.69
781.60	232.62
781.92	232.56
782.25	232.51
782.57	232.42
782.89	232.31
783.22	232.24
783.54	232.18
783.86	232.08
784.19	231.99
784.51	231.98
784.83	231.88
785.16	231.82
785.48	231.75
785.80	231.66
786.12	231.64
786.45	231.59
786.77	231.51
787.09	231.47
