SpectraSuite Data File
++++++++++++++++++++++++++++++++++++
Date: Fri Feb 01 14:49:48 EST 2013
User: group
Dark Spectrum Present: No
Reference Spectrum Present: No
Number of Sampled Component Spectra: 1
Spectrometers: USB2E7196
Integration Time (usec): 35000 (USB2E7196)
Spectra Averaged: 100 (USB2E7196)
Boxcar Smoothing: 10 (USB2E7196)
Correct for Electrical Dark: No (USB2E7196)
Strobe/Lamp Enabled: No (USB2E7196)
Correct for Detector Non-linearity: No (USB2E7196)
Correct for Stray Light: No (USB2E7196)
Number of Pixels in Processed Spectrum: 2048
>>>>>Begin Processed Spectral Data<<<<<
339.09	0.00
339.48	215.59
339.86	218.08
340.24	218.78
340.63	220.36
341.01	223.25
341.39	223.41
341.78	224.21
342.16	225.36
342.54	225.71
342.93	214.27
343.31	225.11
343.69	225.68
344.07	226.14
344.46	226.59
344.84	226.96
345.22	227.17
345.60	227.39
345.99	227.59
346.37	227.72
346.75	227.83
347.13	227.93
347.52	228.00
347.90	228.04
348.28	228.07
348.66	228.09
349.05	228.06
349.43	228.10
349.81	228.14
350.19	228.17
350.57	228.21
350.96	228.29
351.34	228.38
351.72	228.43
352.10	228.51
352.48	228.58
352.87	228.64
353.25	228.73
353.63	228.81
354.01	228.85
354.39	228.93
354.77	229.00
355.15	229.09
355.54	229.15
355.92	229.22
356.30	229.27
356.68	229.40
357.06	229.54
357.44	229.59
357.82	229.67
358.20	229.73
358.58	229.78
358.97	229.83
359.35	229.91
359.73	229.96
360.11	230.02
360.49	230.07
360.87	230.09
361.25	230.12
361.63	230.15
362.01	230.19
362.39	230.23
362.77	230.25
363.15	230.27
363.53	230.28
363.91	230.30
364.29	230.29
364.67	230.21
365.05	230.19
365.43	230.19
365.81	230.20
366.19	230.26
366.57	230.29
366.95	230.29
367.33	230.19
367.71	230.21
368.09	230.18
368.47	230.12
368.85	230.07
369.23	230.05
369.61	230.01
369.99	229.98
370.37	229.91
370.75	229.90
371.13	229.82
371.51	229.76
371.89	229.73
372.27	229.68
372.65	229.63
373.03	229.57
373.41	229.52
373.78	229.40
374.16	229.29
374.54	229.19
374.92	229.09
375.30	229.04
375.68	228.95
376.06	228.85
376.44	228.75
376.82	228.69
377.19	228.65
377.57	228.54
377.95	228.43
378.33	228.35
378.71	228.20
379.09	228.14
379.47	228.05
379.84	227.95
380.22	227.87
380.60	227.75
380.98	227.67
381.36	227.56
381.73	227.50
382.11	227.44
382.49	227.35
382.87	227.26
383.25	227.20
383.62	227.23
384.00	227.16
384.38	227.12
384.76	227.10
385.13	227.07
385.51	227.04
385.89	226.99
386.27	226.94
386.64	226.94
387.02	226.87
387.40	226.83
387.78	226.80
388.15	226.79
388.53	226.77
388.91	226.73
389.29	226.73
389.66	226.72
390.04	226.67
390.42	226.70
390.79	226.74
391.17	226.73
391.55	226.62
391.92	226.63
392.30	226.64
392.68	226.64
393.05	226.64
393.43	226.65
393.81	226.70
394.18	226.70
394.56	226.71
394.94	226.81
395.31	226.86
395.69	226.92
396.06	226.99
396.44	227.06
396.82	227.11
397.19	227.18
397.57	227.24
397.95	227.33
398.32	227.35
398.70	227.38
399.07	227.47
399.45	227.57
399.82	227.68
400.20	227.74
400.58	227.82
400.95	227.85
401.33	227.97
401.70	228.13
402.08	228.27
402.45	228.41
402.83	228.53
403.20	228.66
403.58	228.78
403.95	228.94
404.33	229.08
404.71	229.23
405.08	229.42
405.46	229.58
405.83	229.76
406.21	229.94
406.58	230.15
406.96	230.34
407.33	230.50
407.70	230.71
408.08	231.02
408.45	231.24
408.83	231.50
409.20	231.71
409.58	231.88
409.95	232.15
410.33	232.41
410.70	232.67
411.08	232.94
411.45	233.25
411.82	233.53
412.20	233.87
412.57	234.28
412.95	234.58
413.32	234.99
413.69	235.39
414.07	235.83
414.44	236.28
414.82	236.74
415.19	237.29
415.56	237.82
415.94	238.34
416.31	238.98
416.68	239.60
417.06	240.35
417.43	241.03
417.81	241.78
418.18	242.55
418.55	243.37
418.93	244.25
419.30	245.14
419.67	246.05
420.04	247.01
420.42	247.98
420.79	249.14
421.16	250.28
421.54	251.43
421.91	252.62
422.28	253.86
422.66	255.18
423.03	256.50
423.40	257.81
423.77	259.20
424.15	260.62
424.52	262.09
424.89	263.65
425.26	265.17
425.64	266.60
426.01	268.18
426.38	269.82
426.75	271.46
427.13	273.15
427.50	274.94
427.87	276.77
428.24	278.66
428.61	280.40
428.99	282.36
429.36	284.46
429.73	286.53
430.10	288.56
430.47	290.61
430.85	292.72
431.22	294.98
431.59	297.36
431.96	299.59
432.33	302.05
432.70	304.43
433.08	307.19
433.45	309.84
433.82	312.43
434.19	315.32
434.56	318.16
434.93	320.80
435.30	323.43
435.68	326.35
436.05	329.19
436.42	332.00
436.79	334.47
437.16	337.15
437.53	340.02
437.90	342.85
438.27	345.59
438.64	348.42
439.01	351.00
439.38	353.23
439.75	355.34
440.13	357.81
440.50	360.13
440.87	362.05
441.24	363.98
441.61	366.12
441.98	367.59
442.35	369.37
442.72	371.25
443.09	373.03
443.46	374.02
443.83	374.58
444.20	375.09
444.57	375.92
444.94	376.27
445.31	376.52
445.68	376.87
446.05	376.96
446.42	376.53
446.79	376.15
447.16	375.68
447.53	375.42
447.90	374.31
448.27	373.13
448.64	371.54
449.01	370.42
449.37	368.50
449.74	366.67
450.11	364.44
450.48	361.95
450.85	359.46
451.22	357.36
451.59	355.34
451.96	353.36
452.33	350.76
452.70	348.38
453.07	345.57
453.43	342.65
453.80	339.89
454.17	337.27
454.54	334.70
454.91	332.02
455.28	329.34
455.65	326.86
456.02	324.44
456.38	322.27
456.75	319.63
457.12	317.37
457.49	315.12
457.86	312.99
458.23	311.18
458.59	309.14
458.96	307.04
459.33	305.18
459.70	303.35
460.07	301.89
460.43	300.18
460.80	298.59
461.17	297.14
461.54	295.62
461.91	294.18
462.27	292.72
462.64	291.43
463.01	290.06
463.38	288.74
463.74	287.34
464.11	286.23
464.48	285.17
464.85	284.04
465.21	283.14
465.58	282.17
465.95	281.04
466.32	280.09
466.68	279.18
467.05	278.28
467.42	277.37
467.78	276.39
468.15	275.45
468.52	274.77
468.88	273.89
469.25	273.12
469.62	272.50
469.98	271.84
470.35	271.23
470.72	270.64
471.08	270.02
471.45	269.50
471.82	268.91
472.18	268.34
472.55	267.90
472.92	267.38
473.28	266.90
473.65	266.47
474.02	266.07
474.38	265.64
474.75	265.31
475.11	264.93
475.48	264.67
475.85	264.45
476.21	264.21
476.58	264.05
476.94	263.87
477.31	263.65
477.67	263.48
478.04	263.33
478.41	263.27
478.77	263.28
479.14	263.22
479.50	263.21
479.87	263.25
480.23	263.30
480.60	263.38
480.96	263.44
481.33	263.62
481.69	263.80
482.06	264.00
482.42	264.18
482.79	264.46
483.15	264.75
483.52	265.15
483.88	265.50
484.25	265.88
484.61	266.33
484.98	266.83
485.34	267.39
485.71	268.03
486.07	268.61
486.44	269.17
486.80	269.87
487.17	270.59
487.53	271.41
487.90	272.27
488.26	273.18
488.62	274.14
488.99	275.13
489.35	276.15
489.72	277.30
490.08	278.54
490.44	279.76
490.81	281.10
491.17	282.41
491.54	283.87
491.90	285.39
492.26	287.00
492.63	288.67
492.99	290.44
493.36	292.26
493.72	294.29
494.08	296.36
494.45	298.57
494.81	300.92
495.17	303.28
495.54	305.80
495.90	308.46
496.26	311.24
496.63	314.15
496.99	317.18
497.35	320.40
497.72	323.74
498.08	327.20
498.44	330.80
498.80	334.67
499.17	338.66
499.53	342.75
499.89	347.09
500.26	351.60
500.62	356.18
500.98	361.11
501.34	366.11
501.71	371.39
502.07	376.77
502.43	382.34
502.79	388.13
503.16	394.18
503.52	400.38
503.88	406.77
504.24	413.38
504.60	420.24
504.97	427.32
505.33	434.55
505.69	442.21
506.05	449.95
506.41	457.86
506.78	466.01
507.14	474.40
507.50	483.05
507.86	492.00
508.22	501.17
508.59	510.32
508.95	519.86
509.31	529.58
509.67	539.64
510.03	549.92
510.39	560.49
510.75	571.25
511.12	582.17
511.48	593.33
511.84	604.72
512.20	616.21
512.56	628.07
512.92	640.17
513.28	652.48
513.64	664.91
514.00	677.49
514.37	690.34
514.73	703.38
515.09	716.36
515.45	729.60
515.81	743.18
516.17	757.10
516.53	771.29
516.89	785.47
517.25	799.69
517.61	814.07
517.97	828.46
518.33	842.88
518.69	857.60
519.05	872.66
519.41	887.84
519.77	903.50
520.13	918.97
520.49	934.46
520.85	949.82
521.21	965.55
521.57	981.85
521.93	997.69
522.29	1014.12
522.65	1030.46
523.01	1046.62
523.37	1062.80
523.73	1079.10
524.09	1095.16
524.45	1111.62
524.81	1128.34
525.17	1145.22
525.53	1162.18
525.89	1179.07
526.25	1196.01
526.61	1212.52
526.97	1229.23
527.33	1245.65
527.68	1262.30
528.04	1278.85
528.40	1295.55
528.76	1312.61
529.12	1329.28
529.48	1346.25
529.84	1362.32
530.20	1379.05
530.56	1396.22
530.91	1413.56
531.27	1430.28
531.63	1446.85
531.99	1463.49
532.35	1479.39
532.71	1495.22
533.07	1511.64
533.42	1527.60
533.78	1543.66
534.14	1559.97
534.50	1575.30
534.86	1591.18
535.21	1606.34
535.57	1622.27
535.93	1637.77
536.29	1652.73
536.65	1667.84
537.00	1682.66
537.36	1698.00
537.72	1712.63
538.08	1727.12
538.44	1740.84
538.79	1754.86
539.15	1768.52
539.51	1782.25
539.87	1796.77
540.22	1810.71
540.58	1824.30
540.94	1837.64
541.29	1850.65
541.65	1863.48
542.01	1876.94
542.37	1889.37
542.72	1902.01
543.08	1913.83
543.44	1926.30
543.79	1937.49
544.15	1948.48
544.51	1959.87
544.87	1970.92
545.22	1981.66
545.58	1991.84
545.94	2001.83
546.29	2011.85
546.65	2021.70
547.01	2030.84
547.36	2039.61
547.72	2047.95
548.07	2055.87
548.43	2064.08
548.79	2071.95
549.14	2079.34
549.50	2086.55
549.86	2094.27
550.21	2101.43
550.57	2108.66
550.92	2115.24
551.28	2122.38
551.64	2129.39
551.99	2135.98
552.35	2142.00
552.70	2148.14
553.06	2154.12
553.41	2160.23
553.77	2165.90
554.13	2171.82
554.48	2177.93
554.84	2183.02
555.19	2188.30
555.55	2193.34
555.90	2197.64
556.26	2202.65
556.61	2207.13
556.97	2211.26
557.32	2215.15
557.68	2219.20
558.03	2223.27
558.39	2226.73
558.74	2231.07
559.10	2234.81
559.45	2238.19
559.81	2242.39
560.16	2245.90
560.52	2248.72
560.87	2252.02
561.23	2254.62
561.58	2257.55
561.94	2259.98
562.29	2262.35
562.64	2264.88
563.00	2267.40
563.35	2270.88
563.71	2273.59
564.06	2276.64
564.42	2279.45
564.77	2281.81
565.12	2283.90
565.48	2285.60
565.83	2287.26
566.19	2288.21
566.54	2289.05
566.89	2290.16
567.25	2290.46
567.60	2291.58
567.96	2293.28
568.31	2293.80
568.66	2294.63
569.02	2294.94
569.37	2294.97
569.72	2295.52
570.08	2295.36
570.43	2295.09
570.78	2293.95
571.14	2292.18
571.49	2290.67
571.84	2290.02
572.20	2288.37
572.55	2286.96
572.90	2285.19
573.26	2283.55
573.61	2281.89
573.96	2279.72
574.31	2276.46
574.67	2273.19
575.02	2269.36
575.37	2265.62
575.72	2261.63
576.08	2258.16
576.43	2254.45
576.78	2250.54
577.13	2247.17
577.49	2243.92
577.84	2240.31
578.19	2236.56
578.54	2232.64
578.90	2228.19
579.25	2222.64
579.60	2217.73
579.95	2212.51
580.30	2207.28
580.66	2201.85
581.01	2196.64
581.36	2191.67
581.71	2187.25
582.06	2182.69
582.42	2178.04
582.77	2172.61
583.12	2167.81
583.47	2162.82
583.82	2157.79
584.17	2152.39
584.53	2146.62
584.88	2140.70
585.23	2134.71
585.58	2129.04
585.93	2123.45
586.28	2118.54
586.63	2113.10
586.98	2107.85
587.34	2103.08
587.69	2097.91
588.04	2092.57
588.39	2086.74
588.74	2079.94
589.09	2073.70
589.44	2066.87
589.79	2060.49
590.14	2054.67
590.49	2047.98
590.84	2041.32
591.19	2035.03
591.54	2028.34
591.89	2020.85
592.25	2013.90
592.60	2006.75
592.95	1999.18
593.30	1991.83
593.65	1984.05
594.00	1977.00
594.35	1969.56
594.70	1961.32
595.05	1954.13
595.40	1946.98
595.75	1939.48
596.10	1933.25
596.45	1926.35
596.80	1919.89
597.15	1913.35
597.50	1906.34
597.85	1899.82
598.19	1893.25
598.54	1886.23
598.89	1879.71
599.24	1873.74
599.59	1866.98
599.94	1860.53
600.29	1854.00
600.64	1847.30
600.99	1839.85
601.34	1832.87
601.69	1825.94
602.04	1819.12
602.39	1811.59
602.74	1804.70
603.08	1797.82
603.43	1791.15
603.78	1783.94
604.13	1776.83
604.48	1769.72
604.83	1762.75
605.18	1755.88
605.53	1747.88
605.87	1739.88
606.22	1732.61
606.57	1724.77
606.92	1717.52
607.27	1710.35
607.62	1703.51
607.96	1696.24
608.31	1689.71
608.66	1682.16
609.01	1674.73
609.36	1667.28
609.70	1659.55
610.05	1651.63
610.40	1644.19
610.75	1635.72
611.10	1628.17
611.44	1620.01
611.79	1612.05
612.14	1603.55
612.49	1594.48
612.83	1586.31
613.18	1578.37
613.53	1570.32
613.88	1561.90
614.22	1553.83
614.57	1545.36
614.92	1537.56
615.27	1530.22
615.61	1522.03
615.96	1514.16
616.31	1506.62
616.65	1499.44
617.00	1491.89
617.35	1484.10
617.70	1475.78
618.04	1467.56
618.39	1459.45
618.74	1451.82
619.08	1443.55
619.43	1436.11
619.78	1429.38
620.12	1422.30
620.47	1414.75
620.82	1406.66
621.16	1399.29
621.51	1391.67
621.85	1384.21
622.20	1375.63
622.55	1367.39
622.89	1359.68
623.24	1352.27
623.59	1344.94
623.93	1337.38
624.28	1330.30
624.62	1323.07
624.97	1316.08
625.32	1309.39
625.66	1302.46
626.01	1295.45
626.35	1288.18
626.70	1280.51
627.04	1272.92
627.39	1265.21
627.73	1257.97
628.08	1251.19
628.43	1244.03
628.77	1236.80
629.12	1229.27
629.46	1222.34
629.81	1215.03
630.15	1207.85
630.50	1200.47
630.84	1192.39
631.19	1184.56
631.53	1177.14
631.88	1169.58
632.22	1161.96
632.57	1154.82
632.91	1147.35
633.26	1140.02
633.60	1132.74
633.95	1125.80
634.29	1118.81
634.64	1112.22
634.98	1104.95
635.32	1098.04
635.67	1091.59
636.01	1085.05
636.36	1078.42
636.70	1072.00
637.05	1065.55
637.39	1059.25
637.73	1052.85
638.08	1047.15
638.42	1041.32
638.77	1034.94
639.11	1028.49
639.45	1022.30
639.80	1015.70
640.14	1009.43
640.49	1003.04
640.83	996.86
641.17	990.63
641.52	984.47
641.86	978.15
642.20	972.50
642.55	966.27
642.89	959.95
643.23	953.51
643.58	947.80
643.92	941.62
644.26	935.69
644.61	929.71
644.95	923.76
645.29	917.25
645.64	910.58
645.98	904.40
646.32	898.60
646.66	892.59
647.01	886.88
647.35	881.19
647.69	875.38
648.04	869.95
648.38	864.26
648.72	858.37
649.06	852.41
649.41	846.47
649.75	840.49
650.09	834.58
650.43	828.88
650.78	822.81
651.12	816.92
651.46	811.30
651.80	805.60
652.14	800.30
652.49	795.00
652.83	789.92
653.17	784.26
653.51	778.64
653.85	773.28
654.20	767.67
654.54	761.82
654.88	756.19
655.22	750.32
655.56	744.77
655.90	739.27
656.25	734.06
656.59	728.77
656.93	723.81
657.27	718.72
657.61	713.33
657.95	708.27
658.29	703.29
658.64	698.01
658.98	692.78
659.32	687.37
659.66	682.26
660.00	676.97
660.34	672.13
660.68	667.22
661.02	662.24
661.36	657.69
661.70	653.21
662.05	648.91
662.39	644.61
662.73	640.21
663.07	635.94
663.41	631.54
663.75	627.11
664.09	622.54
664.43	618.22
664.77	614.20
665.11	610.06
665.45	606.01
665.79	602.09
666.13	597.99
666.47	593.90
666.81	589.82
667.15	585.83
667.49	581.98
667.83	578.27
668.17	574.33
668.51	570.27
668.85	566.33
669.19	562.45
669.53	558.68
669.87	554.83
670.21	551.15
670.55	547.57
670.89	544.24
671.23	540.87
671.57	537.48
671.91	534.07
672.25	530.59
672.58	527.10
672.92	523.67
673.26	520.63
673.60	517.53
673.94	514.44
674.28	511.53
674.62	508.63
674.96	505.64
675.30	502.88
675.64	500.03
675.97	497.26
676.31	494.53
676.65	491.64
676.99	489.01
677.33	486.21
677.67	483.45
678.01	480.41
678.34	477.42
678.68	474.54
679.02	471.67
679.36	468.92
679.70	466.26
680.04	463.57
680.37	460.73
680.71	458.00
681.05	455.39
681.39	452.75
681.73	450.11
682.06	447.58
682.40	445.01
682.74	442.49
683.08	439.99
683.42	437.38
683.75	434.91
684.09	432.41
684.43	430.00
684.77	427.55
685.10	425.26
685.44	423.03
685.78	420.75
686.12	418.51
686.45	416.27
686.79	413.97
687.13	411.80
687.46	409.65
687.80	407.52
688.14	405.40
688.48	403.33
688.81	401.12
689.15	399.03
689.49	397.01
689.82	394.99
690.16	392.89
690.50	390.97
690.83	389.07
691.17	387.08
691.51	385.21
691.84	383.44
692.18	381.55
692.52	379.61
692.85	377.69
693.19	375.97
693.52	374.20
693.86	372.41
694.20	370.65
694.53	368.89
694.87	367.09
695.21	365.28
695.54	363.54
695.88	361.84
696.21	360.14
696.55	358.42
696.88	356.74
697.22	355.17
697.56	353.59
697.89	351.95
698.23	350.36
698.56	348.75
698.90	347.16
699.23	345.50
699.57	343.97
699.90	342.49
700.24	340.92
700.58	339.39
700.91	337.92
701.25	336.52
701.58	335.18
701.92	333.86
702.25	332.57
702.59	331.20
702.92	329.92
703.26	328.63
703.59	327.37
703.93	326.20
704.26	324.97
704.60	323.69
704.93	322.48
705.26	321.26
705.60	320.14
705.93	319.03
706.27	318.09
706.60	317.08
706.94	316.01
707.27	314.87
707.61	313.88
707.94	312.92
708.27	311.82
708.61	310.75
708.94	309.75
709.28	308.77
709.61	307.83
709.94	306.87
710.28	305.89
710.61	304.93
710.95	303.89
711.28	302.99
711.61	302.08
711.95	301.15
712.28	300.24
712.61	299.24
712.95	298.32
713.28	297.40
713.61	296.48
713.95	295.65
714.28	294.84
714.61	293.97
714.95	293.08
715.28	292.24
715.61	291.35
715.95	290.49
716.28	289.64
716.61	288.80
716.95	288.02
717.28	287.28
717.61	286.55
717.94	285.84
718.28	285.03
718.61	284.30
718.94	283.62
719.27	282.96
719.61	282.30
719.94	281.63
720.27	280.96
720.60	280.30
720.94	279.62
721.27	279.04
721.60	278.48
721.93	277.92
722.27	277.37
722.60	276.85
722.93	276.31
723.26	275.76
723.59	275.23
723.93	274.67
724.26	274.08
724.59	273.51
724.92	272.96
725.25	272.45
725.59	271.92
725.92	271.41
726.25	270.94
726.58	270.47
726.91	269.98
727.24	269.52
727.57	269.07
727.91	268.53
728.24	268.03
728.57	267.56
728.90	267.14
729.23	266.64
729.56	266.21
729.89	265.70
730.22	265.22
730.55	264.73
730.89	264.27
731.22	263.85
731.55	263.41
731.88	262.99
732.21	262.58
732.54	262.14
732.87	261.72
733.20	261.35
733.53	260.96
733.86	260.57
734.19	260.15
734.52	259.76
734.85	259.50
735.18	259.14
735.51	258.73
735.84	258.32
736.17	258.00
736.50	257.58
736.83	257.38
737.16	257.03
737.49	256.72
737.82	256.39
738.15	256.05
738.48	255.72
738.81	255.42
739.14	255.11
739.47	254.84
739.80	254.52
740.13	254.18
740.46	253.88
740.79	253.56
741.12	253.26
741.45	252.96
741.78	252.61
742.11	252.31
742.44	252.00
742.77	251.75
743.10	251.42
743.43	251.15
743.75	250.79
744.08	250.66
744.41	250.37
744.74	250.08
745.07	249.82
745.40	249.60
745.73	249.36
746.06	249.08
746.39	248.79
746.71	248.57
747.04	248.30
747.37	248.02
747.70	247.77
748.03	247.56
748.36	247.34
748.68	247.12
749.01	246.90
749.34	246.68
749.67	246.43
750.00	246.27
750.33	246.14
750.65	245.92
750.98	245.58
751.31	245.39
751.64	245.19
751.97	245.06
752.29	244.85
752.62	244.61
752.95	244.41
753.28	244.21
753.60	243.99
753.93	243.80
754.26	243.62
754.59	243.43
754.91	243.19
755.24	242.97
755.57	242.78
755.90	242.60
756.22	242.42
756.55	242.26
756.88	242.03
757.20	241.82
757.53	241.60
757.86	241.45
758.19	241.32
758.51	241.15
758.84	240.91
759.17	240.72
759.49	240.57
759.82	240.48
760.15	240.34
760.47	240.19
760.80	240.02
761.13	239.89
761.45	239.71
761.78	239.63
762.11	239.50
762.43	239.35
762.76	239.20
763.08	239.04
763.41	238.90
763.74	238.77
764.06	238.59
764.39	238.47
764.71	238.30
765.04	238.13
765.37	238.01
765.69	237.87
766.02	237.73
766.34	237.58
766.67	237.42
767.00	237.29
767.32	237.23
767.65	237.22
767.97	237.11
768.30	237.02
768.62	236.87
768.95	236.73
769.27	236.63
769.60	236.52
769.92	236.40
770.25	236.30
770.57	236.18
770.90	236.06
771.22	235.97
771.55	235.85
771.87	235.76
772.20	235.65
772.52	235.67
772.85	235.71
773.17	235.62
773.50	235.49
773.82	235.39
774.15	235.21
774.47	235.02
774.80	234.89
775.12	234.77
775.45	234.67
775.77	234.61
776.09	234.51
776.42	234.41
776.74	234.37
777.07	234.25
777.39	234.17
777.72	234.15
778.04	234.07
778.36	234.02
778.69	233.98
779.01	233.92
779.33	233.73
779.66	233.56
779.98	233.45
780.31	233.38
780.63	233.37
780.95	233.39
781.28	233.34
781.60	233.28
781.92	233.24
782.25	233.19
782.57	233.11
782.89	233.06
783.22	233.01
783.54	232.94
783.86	232.91
784.19	232.86
784.51	232.81
784.83	232.76
785.16	232.70
785.48	232.60
785.80	232.56
786.12	232.51
786.45	232.49
786.77	232.50
787.09	232.47
