SpectraSuite Data File
++++++++++++++++++++++++++++++++++++
Date: Fri Feb 01 17:19:32 EST 2013
User: group
Dark Spectrum Present: No
Reference Spectrum Present: No
Number of Sampled Component Spectra: 1
Spectrometers: USB2E7196
Integration Time (usec): 35000 (USB2E7196)
Spectra Averaged: 100 (USB2E7196)
Boxcar Smoothing: 10 (USB2E7196)
Correct for Electrical Dark: No (USB2E7196)
Strobe/Lamp Enabled: No (USB2E7196)
Correct for Detector Non-linearity: No (USB2E7196)
Correct for Stray Light: No (USB2E7196)
Number of Pixels in Processed Spectrum: 2048
>>>>>Begin Processed Spectral Data<<<<<
339.09	0.00
339.48	213.33
339.86	214.66
340.24	216.44
340.63	217.70
341.01	220.76
341.39	219.72
341.78	220.91
342.16	222.92
342.54	223.11
342.93	211.75
343.31	222.47
343.69	223.03
344.07	223.49
344.46	223.92
344.84	224.29
345.22	224.51
345.60	224.77
345.99	224.96
346.37	225.10
346.75	225.21
347.13	225.27
347.52	225.33
347.90	225.39
348.28	225.38
348.66	225.43
349.05	225.42
349.43	225.47
349.81	225.53
350.19	225.59
350.57	225.64
350.96	225.68
351.34	225.77
351.72	225.84
352.10	225.96
352.48	226.02
352.87	226.09
353.25	226.13
353.63	226.19
354.01	226.29
354.39	226.34
354.77	226.42
355.15	226.52
355.54	226.57
355.92	226.63
356.30	226.69
356.68	226.81
357.06	226.87
357.44	226.90
357.82	226.94
358.20	227.00
358.58	227.07
358.97	227.15
359.35	227.19
359.73	227.26
360.11	227.29
360.49	227.30
360.87	227.30
361.25	227.39
361.63	227.45
362.01	227.47
362.39	227.48
362.77	227.49
363.15	227.49
363.53	227.52
363.91	227.54
364.29	227.56
364.67	227.45
365.05	227.47
365.43	227.51
365.81	227.52
366.19	227.54
366.57	227.54
366.95	227.51
367.33	227.46
367.71	227.42
368.09	227.43
368.47	227.44
368.85	227.44
369.23	227.39
369.61	227.35
369.99	227.34
370.37	227.32
370.75	227.32
371.13	227.26
371.51	227.21
371.89	227.13
372.27	227.09
372.65	227.06
373.03	227.02
373.41	226.95
373.78	226.90
374.16	226.81
374.54	226.74
374.92	226.67
375.30	226.61
375.68	226.52
376.06	226.45
376.44	226.35
376.82	226.30
377.19	226.23
377.57	226.15
377.95	226.08
378.33	226.01
378.71	225.93
379.09	225.89
379.47	225.84
379.84	225.79
380.22	225.69
380.60	225.63
380.98	225.56
381.36	225.48
381.73	225.41
382.11	225.35
382.49	225.29
382.87	225.22
383.25	225.18
383.62	225.26
384.00	225.20
384.38	225.20
384.76	225.18
385.13	225.18
385.51	225.15
385.89	225.06
386.27	225.01
386.64	224.95
387.02	224.90
387.40	224.85
387.78	224.82
388.15	224.83
388.53	224.81
388.91	224.77
389.29	224.76
389.66	224.74
390.04	224.73
390.42	224.73
390.79	224.75
391.17	224.74
391.55	224.65
391.92	224.65
392.30	224.66
392.68	224.63
393.05	224.62
393.43	224.61
393.81	224.66
394.18	224.70
394.56	224.71
394.94	224.78
395.31	224.79
395.69	224.82
396.06	224.88
396.44	224.91
396.82	224.95
397.19	225.04
397.57	225.10
397.95	225.13
398.32	225.14
398.70	225.17
399.07	225.25
399.45	225.28
399.82	225.33
400.20	225.38
400.58	225.43
400.95	225.47
401.33	225.54
401.70	225.66
402.08	225.76
402.45	225.87
402.83	225.98
403.20	226.08
403.58	226.21
403.95	226.34
404.33	226.47
404.71	226.57
405.08	226.74
405.46	226.87
405.83	227.04
406.21	227.19
406.58	227.35
406.96	227.50
407.33	227.68
407.70	227.91
408.08	228.17
408.45	228.40
408.83	228.61
409.20	228.84
409.58	229.04
409.95	229.28
410.33	229.53
410.70	229.81
411.08	230.09
411.45	230.37
411.82	230.66
412.20	231.00
412.57	231.43
412.95	231.71
413.32	232.12
413.69	232.52
414.07	232.92
414.44	233.37
414.82	233.84
415.19	234.38
415.56	234.93
415.94	235.46
416.31	236.10
416.68	236.78
417.06	237.51
417.43	238.19
417.81	238.98
418.18	239.76
418.55	240.63
418.93	241.54
419.30	242.46
419.67	243.40
420.04	244.38
420.42	245.42
420.79	246.66
421.16	247.83
421.54	249.10
421.91	250.40
422.28	251.71
422.66	253.08
423.03	254.42
423.40	255.79
423.77	257.26
424.15	258.76
424.52	260.26
424.89	261.92
425.26	263.53
425.64	265.05
426.01	266.69
426.38	268.37
426.75	270.12
427.13	271.90
427.50	273.80
427.87	275.76
428.24	277.68
428.61	279.46
428.99	281.50
429.36	283.65
429.73	285.78
430.10	287.87
430.47	290.02
430.85	292.25
431.22	294.55
431.59	297.01
431.96	299.29
432.33	301.87
432.70	304.33
433.08	307.27
433.45	309.96
433.82	312.70
434.19	315.70
434.56	318.55
434.93	321.32
435.30	323.99
435.68	326.94
436.05	329.87
436.42	332.78
436.79	335.35
437.16	338.08
437.53	340.99
437.90	343.91
438.27	346.75
438.64	349.66
439.01	352.33
439.38	354.61
439.75	356.86
440.13	359.42
440.50	361.85
440.87	363.73
441.24	365.78
441.61	367.97
441.98	369.52
442.35	371.44
442.72	373.37
443.09	375.25
443.46	376.32
443.83	376.88
444.20	377.43
444.57	378.35
444.94	378.74
445.31	379.07
445.68	379.41
446.05	379.49
446.42	379.11
446.79	378.70
447.16	378.28
447.53	378.01
447.90	376.86
448.27	375.66
448.64	374.07
449.01	372.85
449.37	370.85
449.74	368.89
450.11	366.61
450.48	364.07
450.85	361.51
451.22	359.31
451.59	357.26
451.96	355.25
452.33	352.53
452.70	350.09
453.07	347.20
453.43	344.20
453.80	341.36
454.17	338.60
454.54	335.98
454.91	333.19
455.28	330.42
455.65	327.83
456.02	325.33
456.38	323.09
456.75	320.39
457.12	318.05
457.49	315.71
457.86	313.43
458.23	311.48
458.59	309.31
458.96	307.13
459.33	305.20
459.70	303.29
460.07	301.76
460.43	299.95
460.80	298.31
461.17	296.82
461.54	295.23
461.91	293.74
462.27	292.28
462.64	290.99
463.01	289.57
463.38	288.23
463.74	286.78
464.11	285.55
464.48	284.43
464.85	283.31
465.21	282.47
465.58	281.49
465.95	280.33
466.32	279.47
466.68	278.49
467.05	277.60
467.42	276.68
467.78	275.67
468.15	274.80
468.52	274.11
468.88	273.23
469.25	272.47
469.62	271.88
469.98	271.12
470.35	270.47
470.72	269.87
471.08	269.19
471.45	268.66
471.82	268.13
472.18	267.52
472.55	267.07
472.92	266.55
473.28	266.11
473.65	265.67
474.02	265.20
474.38	264.89
474.75	264.54
475.11	264.15
475.48	263.90
475.85	263.62
476.21	263.38
476.58	263.22
476.94	263.08
477.31	262.89
477.67	262.77
478.04	262.67
478.41	262.58
478.77	262.64
479.14	262.59
479.50	262.61
479.87	262.70
480.23	262.78
480.60	262.84
480.96	262.92
481.33	263.14
481.69	263.33
482.06	263.54
482.42	263.74
482.79	264.02
483.15	264.34
483.52	264.75
483.88	265.10
484.25	265.50
484.61	265.95
484.98	266.39
485.34	266.95
485.71	267.52
486.07	268.14
486.44	268.68
486.80	269.40
487.17	270.17
487.53	271.00
487.90	271.87
488.26	272.80
488.62	273.78
488.99	274.76
489.35	275.78
489.72	276.92
490.08	278.12
490.44	279.38
490.81	280.74
491.17	282.09
491.54	283.58
491.90	285.11
492.26	286.71
492.63	288.46
492.99	290.24
493.36	292.14
493.72	294.17
494.08	296.30
494.45	298.52
494.81	300.88
495.17	303.26
495.54	305.82
495.90	308.49
496.26	311.28
496.63	314.21
496.99	317.31
497.35	320.51
497.72	323.85
498.08	327.35
498.44	330.97
498.80	334.88
499.17	338.90
499.53	343.03
499.89	347.38
500.26	351.78
500.62	356.37
500.98	361.26
501.34	366.27
501.71	371.49
502.07	376.87
502.43	382.39
502.79	388.17
503.16	394.18
503.52	400.38
503.88	406.71
504.24	413.25
504.60	420.05
504.97	427.12
505.33	434.38
505.69	441.96
506.05	449.66
506.41	457.39
506.78	465.43
507.14	473.77
507.50	482.39
507.86	491.39
508.22	500.53
508.59	509.62
508.95	519.05
509.31	528.77
509.67	538.69
510.03	548.82
510.39	559.30
510.75	569.83
511.12	580.59
511.48	591.66
511.84	602.98
512.20	614.28
512.56	625.98
512.92	637.96
513.28	650.17
513.64	662.37
514.00	674.91
514.37	687.64
514.73	700.47
515.09	713.24
515.45	726.15
515.81	739.48
516.17	753.17
516.53	767.06
516.89	780.93
517.25	794.82
517.61	808.98
517.97	823.05
518.33	837.17
518.69	851.68
519.05	866.27
519.41	881.09
519.77	896.29
520.13	911.41
520.49	926.52
520.85	941.44
521.21	956.77
521.57	972.56
521.93	987.92
522.29	1003.96
522.65	1019.86
523.01	1035.75
523.37	1051.43
523.73	1067.26
524.09	1082.96
524.45	1098.92
524.81	1115.09
525.17	1131.46
525.53	1148.00
525.89	1164.55
526.25	1181.06
526.61	1197.24
526.97	1213.65
527.33	1229.75
527.68	1245.89
528.04	1261.99
528.40	1278.19
528.76	1294.96
529.12	1311.22
529.48	1327.84
529.84	1343.37
530.20	1359.69
530.56	1376.28
530.91	1393.25
531.27	1409.60
531.63	1425.69
531.99	1441.88
532.35	1457.74
532.71	1473.35
533.07	1489.36
533.42	1504.97
533.78	1520.77
534.14	1536.76
534.50	1551.76
534.86	1567.47
535.21	1582.53
535.57	1598.17
535.93	1613.41
536.29	1627.87
536.65	1642.66
537.00	1657.16
537.36	1672.40
537.72	1686.69
538.08	1701.00
538.44	1714.56
538.79	1728.31
539.15	1741.75
539.51	1755.41
539.87	1769.45
540.22	1782.98
540.58	1796.51
540.94	1809.60
541.29	1822.12
541.65	1834.59
542.01	1847.61
542.37	1859.72
542.72	1871.98
543.08	1883.69
543.44	1896.11
543.79	1907.40
544.15	1918.45
544.51	1929.94
544.87	1940.66
545.22	1951.43
545.58	1961.70
545.94	1971.49
546.29	1981.46
546.65	1991.49
547.01	2000.84
547.36	2009.76
547.72	2018.43
548.07	2026.49
548.43	2034.89
548.79	2042.96
549.14	2050.70
549.50	2058.22
549.86	2065.98
550.21	2073.47
550.57	2080.78
550.92	2087.55
551.28	2094.81
551.64	2101.94
551.99	2108.67
552.35	2115.25
552.70	2121.67
553.06	2127.85
553.41	2134.45
553.77	2140.68
554.13	2146.90
554.48	2153.13
554.84	2158.96
555.19	2164.30
555.55	2169.66
555.90	2174.34
556.26	2179.72
556.61	2184.73
556.97	2189.53
557.32	2194.06
557.68	2198.57
558.03	2203.03
558.39	2206.96
558.74	2211.71
559.10	2215.90
559.45	2219.72
559.81	2224.22
560.16	2228.29
560.52	2231.91
560.87	2235.55
561.23	2238.48
561.58	2241.65
561.94	2244.59
562.29	2246.89
562.64	2250.11
563.00	2252.92
563.35	2256.73
563.71	2259.96
564.06	2263.24
564.42	2266.47
564.77	2269.45
565.12	2271.99
565.48	2274.36
565.83	2276.61
566.19	2278.48
566.54	2279.55
566.89	2281.12
567.25	2282.14
567.60	2283.66
567.96	2285.69
568.31	2286.86
568.66	2288.37
569.02	2289.35
569.37	2289.90
569.72	2291.36
570.08	2291.84
570.43	2292.19
570.78	2292.06
571.14	2291.02
571.49	2290.21
571.84	2289.91
572.20	2289.02
572.55	2288.25
572.90	2286.99
573.26	2286.04
573.61	2284.53
573.96	2283.48
574.31	2280.89
574.67	2278.11
575.02	2274.84
575.37	2271.68
575.72	2268.31
576.08	2265.07
576.43	2261.95
576.78	2258.81
577.13	2255.90
577.49	2253.01
577.84	2249.92
578.19	2246.42
578.54	2243.27
578.90	2239.45
579.25	2234.36
579.60	2229.76
579.95	2225.27
580.30	2220.47
580.66	2215.51
581.01	2210.88
581.36	2206.16
581.71	2202.29
582.06	2198.40
582.42	2194.41
582.77	2189.45
583.12	2185.12
583.47	2180.88
583.82	2176.41
584.17	2171.40
584.53	2165.95
584.88	2160.58
585.23	2155.09
585.58	2149.82
585.93	2144.51
586.28	2139.77
586.63	2134.93
586.98	2129.98
587.34	2125.34
587.69	2120.56
588.04	2115.66
588.39	2110.08
588.74	2103.79
589.09	2097.84
589.44	2091.15
589.79	2085.00
590.14	2079.49
590.49	2073.18
590.84	2066.94
591.19	2060.94
591.54	2054.56
591.89	2047.70
592.25	2041.29
592.60	2034.33
592.95	2027.06
593.30	2019.88
593.65	2012.56
594.00	2005.56
594.35	1998.49
594.70	1990.50
595.05	1983.71
595.40	1976.42
595.75	1969.12
596.10	1963.09
596.45	1956.31
596.80	1950.33
597.15	1944.04
597.50	1937.40
597.85	1931.01
598.19	1924.46
598.54	1917.64
598.89	1911.08
599.24	1905.19
599.59	1898.55
599.94	1892.24
600.29	1885.94
600.64	1879.27
600.99	1872.00
601.34	1865.39
601.69	1858.36
602.04	1851.74
602.39	1844.40
602.74	1837.75
603.08	1831.13
603.43	1824.34
603.78	1817.30
604.13	1810.02
604.48	1802.84
604.83	1796.04
605.18	1789.32
605.53	1781.35
605.87	1773.38
606.22	1766.21
606.57	1758.23
606.92	1750.67
607.27	1743.68
607.62	1736.86
607.96	1729.62
608.31	1723.03
608.66	1715.37
609.01	1707.97
609.36	1700.42
609.70	1692.40
610.05	1684.28
610.40	1676.64
610.75	1668.42
611.10	1660.69
611.44	1652.12
611.79	1644.02
612.14	1635.19
612.49	1625.83
612.83	1617.44
613.18	1609.09
613.53	1600.98
613.88	1592.39
614.22	1584.10
614.57	1575.24
614.92	1567.04
615.27	1559.59
615.61	1551.14
615.96	1543.03
616.31	1535.23
616.65	1527.65
617.00	1520.05
617.35	1512.29
617.70	1503.83
618.04	1495.28
618.39	1486.96
618.74	1479.48
619.08	1471.00
619.43	1463.35
619.78	1456.35
620.12	1449.19
620.47	1441.58
620.82	1433.19
621.16	1425.65
621.51	1417.98
621.85	1410.38
622.20	1401.83
622.55	1393.24
622.89	1385.25
623.24	1377.39
623.59	1369.80
623.93	1362.25
624.28	1354.89
624.62	1347.28
624.97	1340.04
625.32	1333.09
625.66	1325.97
626.01	1318.62
626.35	1311.36
626.70	1303.33
627.04	1295.51
627.39	1287.53
627.73	1280.19
628.08	1273.24
628.43	1265.91
628.77	1258.55
629.12	1250.94
629.46	1243.73
629.81	1236.18
630.15	1228.90
630.50	1221.50
630.84	1213.35
631.19	1205.30
631.53	1197.70
631.88	1190.02
632.22	1182.31
632.57	1174.86
632.91	1167.13
633.26	1159.65
633.60	1152.05
633.95	1144.89
634.29	1137.69
634.64	1130.90
634.98	1123.45
635.32	1116.20
635.67	1109.48
636.01	1102.77
636.36	1095.93
636.70	1089.17
637.05	1082.55
637.39	1076.01
637.73	1069.51
638.08	1063.54
638.42	1057.48
638.77	1050.99
639.11	1044.45
639.45	1038.05
639.80	1031.27
640.14	1024.94
640.49	1018.42
640.83	1011.99
641.17	1005.75
641.52	999.49
641.86	992.99
642.20	987.05
642.55	980.67
642.89	974.16
643.23	967.47
643.58	961.68
643.92	955.51
644.26	949.54
644.61	943.49
644.95	937.45
645.29	930.90
645.64	924.17
645.98	917.72
646.32	911.63
646.66	905.48
647.01	899.70
647.35	894.06
647.69	888.13
648.04	882.50
648.38	876.75
648.72	870.74
649.06	864.72
649.41	858.67
649.75	852.68
650.09	846.75
650.43	840.95
650.78	834.65
651.12	828.70
651.46	822.90
651.80	817.23
652.14	811.71
652.49	806.37
652.83	801.12
653.17	795.57
653.51	789.96
653.85	784.58
654.20	778.97
654.54	772.85
654.88	767.05
655.22	761.21
655.56	755.35
655.90	749.75
656.25	744.47
656.59	739.23
656.93	734.15
657.27	728.97
657.61	723.52
657.95	718.42
658.29	713.30
658.64	707.95
658.98	702.52
659.32	697.03
659.66	691.77
660.00	686.50
660.34	681.44
660.68	676.48
661.02	671.34
661.36	666.61
661.70	662.15
662.05	657.76
662.39	653.49
662.73	649.09
663.07	644.68
663.41	640.23
663.75	635.68
664.09	631.11
664.43	626.69
664.77	622.60
665.11	618.39
665.45	614.24
665.79	610.17
666.13	606.00
666.47	601.91
666.81	597.72
667.15	593.55
667.49	589.65
667.83	585.80
668.17	581.85
668.51	577.73
668.85	573.57
669.19	569.69
669.53	565.82
669.87	561.90
670.21	558.23
670.55	554.50
670.89	551.05
671.23	547.54
671.57	543.97
671.91	540.41
672.25	536.78
672.58	533.22
672.92	529.72
673.26	526.55
673.60	523.34
673.94	520.20
674.28	517.29
674.62	514.31
674.96	511.17
675.30	508.31
675.64	505.37
675.97	502.57
676.31	499.74
676.65	496.78
676.99	493.99
677.33	491.07
677.67	488.28
678.01	485.23
678.34	482.34
678.68	479.48
679.02	476.64
679.36	473.87
679.70	471.11
680.04	468.41
680.37	465.52
680.71	462.70
681.05	460.00
681.39	457.16
681.73	454.49
682.06	451.94
682.40	449.32
682.74	446.73
683.08	444.18
683.42	441.49
683.75	438.94
684.09	436.36
684.43	433.92
684.77	431.44
685.10	429.04
685.44	426.62
685.78	424.30
686.12	421.99
686.45	419.68
686.79	417.37
687.13	415.14
687.46	412.96
687.80	410.78
688.14	408.51
688.48	406.48
688.81	404.22
689.15	402.02
689.49	399.83
689.82	397.70
690.16	395.54
690.50	393.56
690.83	391.60
691.17	389.61
691.51	387.62
691.84	385.69
692.18	383.77
692.52	381.80
692.85	379.81
693.19	377.92
693.52	376.07
693.86	374.21
694.20	372.36
694.53	370.48
694.87	368.63
695.21	366.83
695.54	364.96
695.88	363.19
696.21	361.46
696.55	359.79
696.88	358.10
697.22	356.45
697.56	354.79
697.89	353.16
698.23	351.56
698.56	349.98
698.90	348.42
699.23	346.75
699.57	345.21
699.90	343.64
700.24	342.04
700.58	340.50
700.91	339.00
701.25	337.54
701.58	336.21
701.92	334.84
702.25	333.46
702.59	332.10
702.92	330.72
703.26	329.43
703.59	328.16
703.93	326.97
704.26	325.71
704.60	324.43
704.93	323.10
705.26	321.84
705.60	320.56
705.93	319.37
706.27	318.35
706.60	317.27
706.94	316.16
707.27	315.05
707.61	313.97
707.94	312.93
708.27	311.82
708.61	310.70
708.94	309.65
709.28	308.69
709.61	307.73
709.94	306.80
710.28	305.73
710.61	304.73
710.95	303.61
711.28	302.64
711.61	301.65
711.95	300.74
712.28	299.78
712.61	298.83
712.95	297.88
713.28	296.95
713.61	296.04
713.95	295.15
714.28	294.28
714.61	293.37
714.95	292.52
715.28	291.68
715.61	290.77
715.95	289.89
716.28	289.01
716.61	288.14
716.95	287.27
717.28	286.53
717.61	285.72
717.94	285.00
718.28	284.20
718.61	283.48
718.94	282.73
719.27	282.06
719.61	281.41
719.94	280.68
720.27	279.93
720.60	279.24
720.94	278.61
721.27	278.02
721.60	277.46
721.93	276.83
722.27	276.26
722.60	275.71
722.93	275.12
723.26	274.56
723.59	273.99
723.93	273.41
724.26	272.81
724.59	272.25
724.92	271.67
725.25	271.18
725.59	270.63
725.92	270.09
726.25	269.56
726.58	269.02
726.91	268.56
727.24	268.10
727.57	267.59
727.91	267.04
728.24	266.54
728.57	266.01
728.90	265.52
729.23	265.01
729.56	264.54
729.89	264.07
730.22	263.54
730.55	263.06
730.89	262.67
731.22	262.23
731.55	261.78
731.88	261.34
732.21	260.90
732.54	260.45
732.87	260.03
733.20	259.61
733.53	259.22
733.86	258.80
734.19	258.37
734.52	258.00
734.85	257.72
735.18	257.31
735.51	256.92
735.84	256.55
736.17	256.19
736.50	255.81
736.83	255.59
737.16	255.28
737.49	254.94
737.82	254.55
738.15	254.21
738.48	253.89
738.81	253.56
739.14	253.22
739.47	252.90
739.80	252.58
740.13	252.29
740.46	251.93
740.79	251.60
741.12	251.27
741.45	250.98
741.78	250.59
742.11	250.31
742.44	249.99
742.77	249.71
743.10	249.39
743.43	249.09
743.75	248.71
744.08	248.57
744.41	248.28
744.74	248.01
745.07	247.73
745.40	247.48
745.73	247.26
746.06	247.01
746.39	246.76
746.71	246.45
747.04	246.16
747.37	245.94
747.70	245.73
748.03	245.48
748.36	245.27
748.68	245.04
749.01	244.78
749.34	244.58
749.67	244.33
750.00	244.14
750.33	243.98
750.65	243.76
750.98	243.37
751.31	243.15
751.64	242.93
751.97	242.77
752.29	242.53
752.62	242.26
752.95	242.04
753.28	241.85
753.60	241.69
753.93	241.52
754.26	241.32
754.59	241.08
754.91	240.87
755.24	240.63
755.57	240.42
755.90	240.24
756.22	240.02
756.55	239.83
756.88	239.59
757.20	239.34
757.53	239.13
757.86	238.98
758.19	238.85
758.51	238.69
758.84	238.48
759.17	238.33
759.49	238.18
759.82	238.03
760.15	237.85
760.47	237.68
760.80	237.50
761.13	237.37
761.45	237.19
761.78	237.05
762.11	236.90
762.43	236.73
762.76	236.57
763.08	236.44
763.41	236.28
763.74	236.16
764.06	236.01
764.39	235.85
764.71	235.69
765.04	235.53
765.37	235.37
765.69	235.22
766.02	235.07
766.34	234.97
766.67	234.85
767.00	234.74
767.32	234.67
767.65	234.60
767.97	234.50
768.30	234.39
768.62	234.26
768.95	234.14
769.27	234.05
769.60	233.92
769.92	233.81
770.25	233.72
770.57	233.57
770.90	233.48
771.22	233.40
771.55	233.31
771.87	233.23
772.20	233.12
772.52	233.09
772.85	233.14
773.17	232.99
773.50	232.87
773.82	232.75
774.15	232.61
774.47	232.46
774.80	232.33
775.12	232.25
775.45	232.19
775.77	232.09
776.09	232.02
776.42	231.97
776.74	231.91
777.07	231.84
777.39	231.78
777.72	231.71
778.04	231.63
778.36	231.56
778.69	231.51
779.01	231.47
779.33	231.32
779.66	231.12
779.98	231.09
780.31	231.06
780.63	231.04
780.95	231.00
781.28	230.94
781.60	230.90
781.92	230.84
782.25	230.79
782.57	230.76
782.89	230.70
783.22	230.64
783.54	230.59
783.86	230.56
784.19	230.51
784.51	230.50
784.83	230.44
785.16	230.39
785.48	230.29
785.80	230.26
786.12	230.26
786.45	230.22
786.77	230.18
787.09	230.11
