SpectraSuite Data File
++++++++++++++++++++++++++++++++++++
Date: Fri Feb 01 17:43:44 EST 2013
User: group
Dark Spectrum Present: No
Reference Spectrum Present: No
Number of Sampled Component Spectra: 1
Spectrometers: USB2E7196
Integration Time (usec): 35000 (USB2E7196)
Spectra Averaged: 100 (USB2E7196)
Boxcar Smoothing: 10 (USB2E7196)
Correct for Electrical Dark: No (USB2E7196)
Strobe/Lamp Enabled: No (USB2E7196)
Correct for Detector Non-linearity: No (USB2E7196)
Correct for Stray Light: No (USB2E7196)
Number of Pixels in Processed Spectrum: 2048
>>>>>Begin Processed Spectral Data<<<<<
339.09	0.00
339.48	213.28
339.86	214.58
340.24	215.64
340.63	217.79
341.01	219.81
341.39	220.03
341.78	221.28
342.16	222.35
342.54	223.11
342.93	211.32
343.31	221.96
343.69	222.50
344.07	222.93
344.46	223.35
344.84	223.70
345.22	223.93
345.60	224.17
345.99	224.36
346.37	224.45
346.75	224.51
347.13	224.60
347.52	224.62
347.90	224.66
348.28	224.70
348.66	224.72
349.05	224.72
349.43	224.72
349.81	224.72
350.19	224.75
350.57	224.79
350.96	224.86
351.34	224.97
351.72	225.02
352.10	225.13
352.48	225.19
352.87	225.24
353.25	225.27
353.63	225.30
354.01	225.35
354.39	225.41
354.77	225.50
355.15	225.59
355.54	225.66
355.92	225.69
356.30	225.74
356.68	225.86
357.06	225.94
357.44	226.00
357.82	226.07
358.20	226.14
358.58	226.18
358.97	226.24
359.35	226.33
359.73	226.41
360.11	226.42
360.49	226.48
360.87	226.51
361.25	226.57
361.63	226.68
362.01	226.71
362.39	226.76
362.77	226.79
363.15	226.79
363.53	226.77
363.91	226.78
364.29	226.79
364.67	226.74
365.05	226.74
365.43	226.77
365.81	226.80
366.19	226.83
366.57	226.88
366.95	226.92
367.33	226.88
367.71	226.85
368.09	226.89
368.47	226.86
368.85	226.85
369.23	226.86
369.61	226.78
369.99	226.79
370.37	226.76
370.75	226.79
371.13	226.79
371.51	226.79
371.89	226.79
372.27	226.76
372.65	226.74
373.03	226.71
373.41	226.67
373.78	226.60
374.16	226.52
374.54	226.42
374.92	226.33
375.30	226.29
375.68	226.23
376.06	226.18
376.44	226.14
376.82	226.09
377.19	226.04
377.57	225.99
377.95	225.89
378.33	225.86
378.71	225.74
379.09	225.70
379.47	225.65
379.84	225.60
380.22	225.55
380.60	225.47
380.98	225.38
381.36	225.31
381.73	225.24
382.11	225.23
382.49	225.20
382.87	225.14
383.25	225.08
383.62	225.14
384.00	225.08
384.38	225.01
384.76	225.01
385.13	225.02
385.51	224.97
385.89	224.92
386.27	224.88
386.64	224.87
387.02	224.83
387.40	224.81
387.78	224.76
388.15	224.73
388.53	224.69
388.91	224.71
389.29	224.67
389.66	224.64
390.04	224.58
390.42	224.55
390.79	224.58
391.17	224.58
391.55	224.45
391.92	224.43
392.30	224.46
392.68	224.42
393.05	224.43
393.43	224.44
393.81	224.46
394.18	224.45
394.56	224.44
394.94	224.46
395.31	224.46
395.69	224.52
396.06	224.53
396.44	224.59
396.82	224.58
397.19	224.68
397.57	224.71
397.95	224.78
398.32	224.77
398.70	224.81
399.07	224.88
399.45	224.95
399.82	225.00
400.20	225.03
400.58	225.09
400.95	225.10
401.33	225.17
401.70	225.32
402.08	225.43
402.45	225.53
402.83	225.59
403.20	225.69
403.58	225.79
403.95	225.93
404.33	226.04
404.71	226.18
405.08	226.32
405.46	226.50
405.83	226.63
406.21	226.81
406.58	226.97
406.96	227.12
407.33	227.33
407.70	227.54
408.08	227.85
408.45	228.08
408.83	228.34
409.20	228.60
409.58	228.81
409.95	229.09
410.33	229.39
410.70	229.67
411.08	230.00
411.45	230.35
411.82	230.70
412.20	231.12
412.57	231.61
412.95	231.97
413.32	232.42
413.69	232.91
414.07	233.48
414.44	234.01
414.82	234.57
415.19	235.19
415.56	235.87
415.94	236.51
416.31	237.29
416.68	238.02
417.06	238.87
417.43	239.63
417.81	240.58
418.18	241.50
418.55	242.54
418.93	243.63
419.30	244.76
419.67	245.93
420.04	247.08
420.42	248.29
420.79	249.73
421.16	251.15
421.54	252.62
421.91	254.07
422.28	255.60
422.66	257.25
423.03	258.87
423.40	260.47
423.77	262.21
424.15	263.91
424.52	265.74
424.89	267.73
425.26	269.70
425.64	271.46
426.01	273.40
426.38	275.45
426.75	277.46
427.13	279.52
427.50	281.73
427.87	284.04
428.24	286.30
428.61	288.46
428.99	290.82
429.36	293.36
429.73	295.91
430.10	298.40
430.47	300.91
430.85	303.53
431.22	306.25
431.59	309.12
431.96	311.89
432.33	314.96
432.70	317.86
433.08	321.26
433.45	324.42
433.82	327.62
434.19	331.13
434.56	334.59
434.93	337.81
435.30	340.96
435.68	344.45
436.05	347.90
436.42	351.30
436.79	354.37
437.16	357.70
437.53	361.09
437.90	364.52
438.27	367.84
438.64	371.23
439.01	374.36
439.38	377.09
439.75	379.71
440.13	382.73
440.50	385.56
440.87	387.81
441.24	390.21
441.61	392.88
441.98	394.66
442.35	396.86
442.72	399.17
443.09	401.39
443.46	402.63
443.83	403.39
444.20	404.01
444.57	405.08
444.94	405.42
445.31	405.88
445.68	406.29
446.05	406.40
446.42	405.97
446.79	405.52
447.16	404.95
447.53	404.58
447.90	403.19
448.27	401.82
448.64	399.86
449.01	398.54
449.37	396.12
449.74	393.85
450.11	391.10
450.48	388.04
450.85	384.98
451.22	382.34
451.59	379.83
451.96	377.45
452.33	374.23
452.70	371.37
453.07	367.91
453.43	364.36
453.80	360.98
454.17	357.72
454.54	354.62
454.91	351.35
455.28	348.09
455.65	345.04
456.02	342.01
456.38	339.43
456.75	336.12
457.12	333.35
457.49	330.61
457.86	327.95
458.23	325.71
458.59	323.18
458.96	320.65
459.33	318.38
459.70	316.11
460.07	314.29
460.43	312.18
460.80	310.17
461.17	308.42
461.54	306.62
461.91	304.88
462.27	303.09
462.64	301.58
463.01	299.91
463.38	298.32
463.74	296.66
464.11	295.22
464.48	293.99
464.85	292.66
465.21	291.64
465.58	290.53
465.95	289.18
466.32	288.06
466.68	286.97
467.05	285.85
467.42	284.77
467.78	283.62
468.15	282.54
468.52	281.74
468.88	280.67
469.25	279.69
469.62	278.91
469.98	278.09
470.35	277.30
470.72	276.56
471.08	275.78
471.45	275.10
471.82	274.40
472.18	273.65
472.55	273.10
472.92	272.45
473.28	271.82
473.65	271.28
474.02	270.77
474.38	270.34
474.75	269.94
475.11	269.57
475.48	269.21
475.85	268.94
476.21	268.66
476.58	268.44
476.94	268.26
477.31	268.00
477.67	267.79
478.04	267.65
478.41	267.57
478.77	267.54
479.14	267.46
479.50	267.46
479.87	267.52
480.23	267.59
480.60	267.61
480.96	267.73
481.33	267.92
481.69	268.11
482.06	268.24
482.42	268.43
482.79	268.64
483.15	268.97
483.52	269.34
483.88	269.68
484.25	270.08
484.61	270.51
484.98	270.99
485.34	271.53
485.71	272.11
486.07	272.69
486.44	273.28
486.80	273.97
487.17	274.71
487.53	275.54
487.90	276.37
488.26	277.29
488.62	278.29
488.99	279.26
489.35	280.31
489.72	281.46
490.08	282.68
490.44	283.90
490.81	285.22
491.17	286.58
491.54	288.06
491.90	289.61
492.26	291.26
492.63	293.02
492.99	294.84
493.36	296.75
493.72	298.88
494.08	301.02
494.45	303.36
494.81	305.79
495.17	308.24
495.54	310.83
495.90	313.61
496.26	316.45
496.63	319.51
496.99	322.76
497.35	326.08
497.72	329.53
498.08	333.19
498.44	336.97
498.80	341.02
499.17	345.16
499.53	349.47
499.89	354.02
500.26	358.65
500.62	363.41
500.98	368.50
501.34	373.67
501.71	379.11
502.07	384.69
502.43	390.48
502.79	396.44
503.16	402.68
503.52	409.09
503.88	415.66
504.24	422.38
504.60	429.39
504.97	436.75
505.33	444.30
505.69	452.20
506.05	460.19
506.41	468.23
506.78	476.64
507.14	485.32
507.50	494.28
507.86	503.57
508.22	513.04
508.59	522.57
508.95	532.45
509.31	542.56
509.67	552.90
510.03	563.41
510.39	574.35
510.75	585.46
511.12	596.73
511.48	608.44
511.84	620.36
512.20	632.26
512.56	644.59
512.92	657.13
513.28	669.89
513.64	682.88
514.00	696.09
514.37	709.50
514.73	723.03
515.09	736.49
515.45	750.17
515.81	764.22
516.17	778.71
516.53	793.29
516.89	808.04
517.25	822.76
517.61	837.84
517.97	852.83
518.33	867.89
518.69	883.28
519.05	898.88
519.41	914.65
519.77	930.77
520.13	946.75
520.49	962.91
520.85	978.88
521.21	995.10
521.57	1011.96
521.93	1028.40
522.29	1045.43
522.65	1062.53
523.01	1079.49
523.37	1096.37
523.73	1113.21
524.09	1130.13
524.45	1147.13
524.81	1164.61
525.17	1182.09
525.53	1199.78
525.89	1217.42
526.25	1235.12
526.61	1252.37
526.97	1269.98
527.33	1287.43
527.68	1304.95
528.04	1322.31
528.40	1339.81
528.76	1357.81
529.12	1375.37
529.48	1393.33
529.84	1410.36
530.20	1427.85
530.56	1445.72
530.91	1464.07
531.27	1481.89
531.63	1499.28
531.99	1516.91
532.35	1534.08
532.71	1551.10
533.07	1568.40
533.42	1585.44
533.78	1602.56
534.14	1619.85
534.50	1636.29
534.86	1653.22
535.21	1669.61
535.57	1686.46
535.93	1703.21
536.29	1719.20
536.65	1735.34
537.00	1751.10
537.36	1767.56
537.72	1783.25
538.08	1799.05
538.44	1814.03
538.79	1829.02
539.15	1843.85
539.51	1858.78
539.87	1874.19
540.22	1889.02
540.58	1904.07
540.94	1918.48
541.29	1932.60
541.65	1946.46
542.01	1960.88
542.37	1974.48
542.72	1987.96
543.08	2001.24
543.44	2014.84
543.79	2027.40
544.15	2039.64
544.51	2052.53
544.87	2064.81
545.22	2077.03
545.58	2088.55
545.94	2099.57
546.29	2110.93
546.65	2122.23
547.01	2132.79
547.36	2142.92
547.72	2152.69
548.07	2161.95
548.43	2171.48
548.79	2180.57
549.14	2189.52
549.50	2198.16
549.86	2207.03
550.21	2215.76
550.57	2224.20
550.92	2232.16
551.28	2240.56
551.64	2249.03
551.99	2256.85
552.35	2264.28
552.70	2271.56
553.06	2278.78
553.41	2286.45
553.77	2293.46
554.13	2300.66
554.48	2308.15
554.84	2314.94
555.19	2321.49
555.55	2327.97
555.90	2333.70
556.26	2340.03
556.61	2345.84
556.97	2351.36
557.32	2356.72
557.68	2362.03
558.03	2367.28
558.39	2371.97
558.74	2377.53
559.10	2382.50
559.45	2387.15
559.81	2392.34
560.16	2397.19
560.52	2401.56
560.87	2405.91
561.23	2409.72
561.58	2413.57
561.94	2416.92
562.29	2419.93
562.64	2423.92
563.00	2427.21
563.35	2431.52
563.71	2435.41
564.06	2439.52
564.42	2443.39
564.77	2446.85
565.12	2450.20
565.48	2453.16
565.83	2455.97
566.19	2458.30
566.54	2459.92
566.89	2462.10
567.25	2463.63
567.60	2465.47
567.96	2467.93
568.31	2469.55
568.66	2471.39
569.02	2472.71
569.37	2473.65
569.72	2475.26
570.08	2475.79
570.43	2476.33
570.78	2476.54
571.14	2475.53
571.49	2474.72
571.84	2474.68
572.20	2474.03
572.55	2473.29
572.90	2471.88
573.26	2470.93
573.61	2469.40
573.96	2468.21
574.31	2465.32
574.67	2462.63
575.02	2459.56
575.37	2456.25
575.72	2452.73
576.08	2449.46
576.43	2446.35
576.78	2443.09
577.13	2439.99
577.49	2436.75
577.84	2433.68
578.19	2429.94
578.54	2426.65
578.90	2422.64
579.25	2417.08
579.60	2412.31
579.95	2407.39
580.30	2402.46
580.66	2397.24
581.01	2392.42
581.36	2387.20
581.71	2383.20
582.06	2378.84
582.42	2374.21
582.77	2369.06
583.12	2364.41
583.47	2359.80
583.82	2354.92
584.17	2349.43
584.53	2343.93
584.88	2338.35
585.23	2332.45
585.58	2326.69
585.93	2320.87
586.28	2315.78
586.63	2310.82
586.98	2305.40
587.34	2300.35
587.69	2295.24
588.04	2290.00
588.39	2284.06
588.74	2277.32
589.09	2270.78
589.44	2263.77
589.79	2257.33
590.14	2251.15
590.49	2244.23
590.84	2237.43
591.19	2230.79
591.54	2224.04
591.89	2216.43
592.25	2209.37
592.60	2201.53
592.95	2193.63
593.30	2185.95
593.65	2177.75
594.00	2170.02
594.35	2162.20
594.70	2153.54
595.05	2146.07
595.40	2137.92
595.75	2129.83
596.10	2123.39
596.45	2116.18
596.80	2109.33
597.15	2102.43
597.50	2095.17
597.85	2088.18
598.19	2081.09
598.54	2073.80
598.89	2066.65
599.24	2060.07
599.59	2053.11
599.94	2046.31
600.29	2039.42
600.64	2032.13
600.99	2024.24
601.34	2016.84
601.69	2009.22
602.04	2001.86
602.39	1993.74
602.74	1986.53
603.08	1979.28
603.43	1971.81
603.78	1963.82
604.13	1955.94
604.48	1948.02
604.83	1940.53
605.18	1933.18
605.53	1924.45
605.87	1915.61
606.22	1907.60
606.57	1898.95
606.92	1890.42
607.27	1882.74
607.62	1875.30
607.96	1867.40
608.31	1860.33
608.66	1852.04
609.01	1843.96
609.36	1835.77
609.70	1827.07
610.05	1818.17
610.40	1809.76
610.75	1800.56
611.10	1792.12
611.44	1782.95
611.79	1774.05
612.14	1764.38
612.49	1754.06
612.83	1744.70
613.18	1735.62
613.53	1726.76
613.88	1717.47
614.22	1708.50
614.57	1698.71
614.92	1689.82
615.27	1681.64
615.61	1672.43
615.96	1663.60
616.31	1654.99
616.65	1646.79
617.00	1638.40
617.35	1629.83
617.70	1620.62
618.04	1611.25
618.39	1602.15
618.74	1593.76
619.08	1584.58
619.43	1576.05
619.78	1568.37
620.12	1560.56
620.47	1552.25
620.82	1543.07
621.16	1534.67
621.51	1526.11
621.85	1517.70
622.20	1508.29
622.55	1498.86
622.89	1490.12
623.24	1481.58
623.59	1473.28
623.93	1465.01
624.28	1456.79
624.62	1448.46
624.97	1440.49
625.32	1432.75
625.66	1424.85
626.01	1416.86
626.35	1408.75
626.70	1400.16
627.04	1391.61
627.39	1382.88
627.73	1374.56
628.08	1366.97
628.43	1359.03
628.77	1350.95
629.12	1342.72
629.46	1334.73
629.81	1326.38
630.15	1318.32
630.50	1310.11
630.84	1301.16
631.19	1292.24
631.53	1283.97
631.88	1275.59
632.22	1267.08
632.57	1259.06
632.91	1250.74
633.26	1242.63
633.60	1234.39
633.95	1226.43
634.29	1218.54
634.64	1211.16
634.98	1203.07
635.32	1195.13
635.67	1187.63
636.01	1180.35
636.36	1172.92
636.70	1165.62
637.05	1158.48
637.39	1151.32
637.73	1144.16
638.08	1137.58
638.42	1130.92
638.77	1123.85
639.11	1116.74
639.45	1109.73
639.80	1102.52
640.14	1095.55
640.49	1088.20
640.83	1081.22
641.17	1074.53
641.52	1067.68
641.86	1060.51
642.20	1054.12
642.55	1047.02
642.89	1040.02
643.23	1032.69
643.58	1026.30
643.92	1019.55
644.26	1012.98
644.61	1006.23
644.95	999.64
645.29	992.44
645.64	984.99
645.98	978.02
646.32	971.40
646.66	964.82
647.01	958.44
647.35	952.10
647.69	945.63
648.04	939.58
648.38	933.25
648.72	926.74
649.06	920.18
649.41	913.64
649.75	907.28
650.09	900.76
650.43	894.39
650.78	887.56
651.12	880.96
651.46	874.60
651.80	868.47
652.14	862.44
652.49	856.57
652.83	851.02
653.17	844.92
653.51	838.76
653.85	832.70
654.20	826.52
654.54	819.98
654.88	813.64
655.22	807.11
655.56	800.79
655.90	794.72
656.25	788.96
656.59	783.09
656.93	777.41
657.27	771.78
657.61	765.86
657.95	760.30
658.29	754.77
658.64	748.99
658.98	743.02
659.32	737.10
659.66	731.41
660.00	725.59
660.34	720.08
660.68	714.57
661.02	709.11
661.36	703.92
661.70	699.05
662.05	694.27
662.39	689.53
662.73	684.64
663.07	679.84
663.41	675.00
663.75	670.17
664.09	665.18
664.43	660.31
664.77	655.87
665.11	651.25
665.45	646.67
665.79	642.26
666.13	637.81
666.47	633.36
666.81	628.85
667.15	624.36
667.49	620.03
667.83	615.82
668.17	611.54
668.51	607.14
668.85	602.63
669.19	598.42
669.53	594.27
669.87	590.11
670.21	586.02
670.55	581.98
670.89	578.21
671.23	574.50
671.57	570.63
671.91	566.81
672.25	562.97
672.58	559.17
672.92	555.38
673.26	551.89
673.60	548.38
673.94	545.06
674.28	541.82
674.62	538.62
674.96	535.30
675.30	532.04
675.64	528.86
675.97	525.81
676.31	522.71
676.65	519.47
676.99	516.49
677.33	513.39
677.67	510.30
678.01	507.00
678.34	503.75
678.68	500.62
679.02	497.45
679.36	494.43
679.70	491.42
680.04	488.41
680.37	485.27
680.71	482.23
681.05	479.29
681.39	476.39
681.73	473.50
682.06	470.79
682.40	468.10
682.74	465.26
683.08	462.45
683.42	459.64
683.75	456.93
684.09	454.06
684.43	451.34
684.77	448.69
685.10	446.01
685.44	443.42
685.78	440.90
686.12	438.43
686.45	435.84
686.79	433.35
687.13	430.91
687.46	428.54
687.80	426.15
688.14	423.70
688.48	421.37
688.81	418.94
689.15	416.52
689.49	414.05
689.82	411.78
690.16	409.52
690.50	407.36
690.83	405.21
691.17	403.05
691.51	400.94
691.84	398.88
692.18	396.89
692.52	394.78
692.85	392.61
693.19	390.57
693.52	388.55
693.86	386.53
694.20	384.58
694.53	382.64
694.87	380.59
695.21	378.68
695.54	376.65
695.88	374.71
696.21	372.80
696.55	370.99
696.88	369.16
697.22	367.30
697.56	365.46
697.89	363.64
698.23	361.88
698.56	360.16
698.90	358.42
699.23	356.56
699.57	354.82
699.90	353.14
700.24	351.37
700.58	349.73
700.91	348.14
701.25	346.59
701.58	345.07
701.92	343.59
702.25	342.02
702.59	340.56
702.92	339.16
703.26	337.72
703.59	336.29
703.93	334.97
704.26	333.62
704.60	332.22
704.93	330.80
705.26	329.39
705.60	328.03
705.93	326.73
706.27	325.57
706.60	324.43
706.94	323.23
707.27	322.02
707.61	320.83
707.94	319.69
708.27	318.43
708.61	317.20
708.94	316.08
709.28	314.99
709.61	313.90
709.94	312.77
710.28	311.64
710.61	310.58
710.95	309.37
711.28	308.35
711.61	307.30
711.95	306.33
712.28	305.28
712.61	304.26
712.95	303.21
713.28	302.23
713.61	301.22
713.95	300.24
714.28	299.33
714.61	298.35
714.95	297.37
715.28	296.47
715.61	295.52
715.95	294.54
716.28	293.59
716.61	292.67
716.95	291.79
717.28	290.97
717.61	290.11
717.94	289.29
718.28	288.41
718.61	287.60
718.94	286.83
719.27	286.11
719.61	285.36
719.94	284.61
720.27	283.83
720.60	283.13
720.94	282.45
721.27	281.74
721.60	281.10
721.93	280.48
722.27	279.85
722.60	279.24
722.93	278.62
723.26	278.02
723.59	277.36
723.93	276.77
724.26	276.15
724.59	275.54
724.92	274.99
725.25	274.47
725.59	273.91
725.92	273.33
726.25	272.77
726.58	272.21
726.91	271.70
727.24	271.21
727.57	270.68
727.91	270.13
728.24	269.66
728.57	269.16
728.90	268.67
729.23	268.12
729.56	267.67
729.89	267.14
730.22	266.60
730.55	266.12
730.89	265.64
731.22	265.17
731.55	264.68
731.88	264.21
732.21	263.72
732.54	263.19
732.87	262.73
733.20	262.31
733.53	261.88
733.86	261.45
734.19	261.01
734.52	260.57
734.85	260.23
735.18	259.75
735.51	259.36
735.84	258.91
736.17	258.54
736.50	258.08
736.83	257.87
737.16	257.51
737.49	257.15
737.82	256.76
738.15	256.41
738.48	256.04
738.81	255.67
739.14	255.33
739.47	255.02
739.80	254.66
740.13	254.31
740.46	253.96
740.79	253.57
741.12	253.21
741.45	252.86
741.78	252.50
742.11	252.19
742.44	251.77
742.77	251.47
743.10	251.11
743.43	250.79
743.75	250.35
744.08	250.19
744.41	249.86
744.74	249.55
745.07	249.23
745.40	248.98
745.73	248.74
746.06	248.41
746.39	248.08
746.71	247.80
747.04	247.49
747.37	247.18
747.70	246.96
748.03	246.70
748.36	246.45
748.68	246.14
749.01	245.83
749.34	245.60
749.67	245.33
750.00	245.09
750.33	244.90
750.65	244.65
750.98	244.29
751.31	244.06
751.64	243.80
751.97	243.59
752.29	243.30
752.62	242.97
752.95	242.73
753.28	242.53
753.60	242.31
753.93	242.09
754.26	241.92
754.59	241.67
754.91	241.46
755.24	241.21
755.57	241.01
755.90	240.83
756.22	240.60
756.55	240.37
756.88	240.17
757.20	239.92
757.53	239.71
757.86	239.52
758.19	239.34
758.51	239.16
758.84	238.96
759.17	238.79
759.49	238.63
759.82	238.51
760.15	238.33
760.47	238.14
760.80	237.99
761.13	237.83
761.45	237.69
761.78	237.52
762.11	237.40
762.43	237.26
762.76	237.12
763.08	237.01
763.41	236.88
763.74	236.72
764.06	236.56
764.39	236.40
764.71	236.28
765.04	236.15
765.37	236.06
765.69	235.93
766.02	235.79
766.34	235.68
766.67	235.54
767.00	235.46
767.32	235.40
767.65	235.33
767.97	235.20
768.30	235.06
768.62	234.93
768.95	234.81
769.27	234.67
769.60	234.55
769.92	234.41
770.25	234.27
770.57	234.15
770.90	234.06
771.22	233.96
771.55	233.83
771.87	233.70
772.20	233.55
772.52	233.53
772.85	233.58
773.17	233.46
773.50	233.34
773.82	233.21
774.15	233.06
774.47	232.88
774.80	232.77
775.12	232.67
775.45	232.59
775.77	232.49
776.09	232.39
776.42	232.29
776.74	232.23
777.07	232.16
777.39	232.07
777.72	231.98
778.04	231.90
778.36	231.80
778.69	231.77
779.01	231.72
779.33	231.53
779.66	231.32
779.98	231.21
780.31	231.13
780.63	231.09
780.95	231.04
781.28	230.98
781.60	230.90
781.92	230.83
782.25	230.79
782.57	230.73
782.89	230.65
783.22	230.60
783.54	230.52
783.86	230.48
784.19	230.41
784.51	230.35
784.83	230.29
785.16	230.24
785.48	230.14
785.80	230.08
786.12	230.03
786.45	229.99
786.77	229.96
