SpectraSuite Data File
++++++++++++++++++++++++++++++++++++
Date: Fri Feb 01 15:20:16 EST 2013
User: group
Dark Spectrum Present: No
Reference Spectrum Present: No
Number of Sampled Component Spectra: 1
Spectrometers: USB2E7196
Integration Time (usec): 35000 (USB2E7196)
Spectra Averaged: 100 (USB2E7196)
Boxcar Smoothing: 10 (USB2E7196)
Correct for Electrical Dark: No (USB2E7196)
Strobe/Lamp Enabled: No (USB2E7196)
Correct for Detector Non-linearity: No (USB2E7196)
Correct for Stray Light: No (USB2E7196)
Number of Pixels in Processed Spectrum: 2048
>>>>>Begin Processed Spectral Data<<<<<
339.09	0.00
339.48	215.23
339.86	216.44
340.24	218.21
340.63	219.63
341.01	222.17
341.39	222.48
341.78	223.40
342.16	224.99
342.54	225.38
342.93	213.58
343.31	224.38
343.69	224.91
344.07	225.36
344.46	225.79
344.84	226.15
345.22	226.41
345.60	226.65
345.99	226.86
346.37	226.97
346.75	227.09
347.13	227.16
347.52	227.23
347.90	227.31
348.28	227.33
348.66	227.34
349.05	227.36
349.43	227.42
349.81	227.46
350.19	227.50
350.57	227.54
350.96	227.60
351.34	227.68
351.72	227.76
352.10	227.87
352.48	227.90
352.87	227.98
353.25	228.03
353.63	228.07
354.01	228.12
354.39	228.20
354.77	228.26
355.15	228.35
355.54	228.42
355.92	228.43
356.30	228.52
356.68	228.68
357.06	228.73
357.44	228.76
357.82	228.82
358.20	228.91
358.58	228.94
358.97	228.99
359.35	229.05
359.73	229.14
360.11	229.22
360.49	229.29
360.87	229.30
361.25	229.35
361.63	229.43
362.01	229.47
362.39	229.50
362.77	229.53
363.15	229.58
363.53	229.59
363.91	229.63
364.29	229.61
364.67	229.52
365.05	229.53
365.43	229.54
365.81	229.57
366.19	229.59
366.57	229.64
366.95	229.65
367.33	229.62
367.71	229.59
368.09	229.59
368.47	229.57
368.85	229.55
369.23	229.54
369.61	229.46
369.99	229.43
370.37	229.41
370.75	229.41
371.13	229.35
371.51	229.32
371.89	229.26
372.27	229.25
372.65	229.21
373.03	229.18
373.41	229.14
373.78	229.09
374.16	229.00
374.54	228.91
374.92	228.83
375.30	228.75
375.68	228.64
376.06	228.55
376.44	228.47
376.82	228.37
377.19	228.28
377.57	228.22
377.95	228.11
378.33	228.04
378.71	227.87
379.09	227.78
379.47	227.70
379.84	227.60
380.22	227.49
380.60	227.39
380.98	227.31
381.36	227.23
381.73	227.15
382.11	227.10
382.49	227.03
382.87	226.93
383.25	226.87
383.62	226.95
384.00	226.88
384.38	226.83
384.76	226.82
385.13	226.82
385.51	226.76
385.89	226.71
386.27	226.65
386.64	226.62
387.02	226.57
387.40	226.50
387.78	226.47
388.15	226.44
388.53	226.41
388.91	226.35
389.29	226.31
389.66	226.25
390.04	226.22
390.42	226.23
390.79	226.22
391.17	226.22
391.55	226.09
391.92	226.04
392.30	226.04
392.68	226.00
393.05	225.99
393.43	226.01
393.81	226.04
394.18	226.04
394.56	226.07
394.94	226.10
395.31	226.14
395.69	226.20
396.06	226.28
396.44	226.29
396.82	226.36
397.19	226.45
397.57	226.49
397.95	226.55
398.32	226.57
398.70	226.67
399.07	226.75
399.45	226.81
399.82	226.93
400.20	226.99
400.58	227.11
400.95	227.14
401.33	227.25
401.70	227.41
402.08	227.53
402.45	227.68
402.83	227.83
403.20	227.93
403.58	228.02
403.95	228.13
404.33	228.29
404.71	228.42
405.08	228.63
405.46	228.78
405.83	228.97
406.21	229.13
406.58	229.29
406.96	229.43
407.33	229.64
407.70	229.84
408.08	230.16
408.45	230.41
408.83	230.66
409.20	230.91
409.58	231.10
409.95	231.34
410.33	231.58
410.70	231.81
411.08	232.14
411.45	232.46
411.82	232.80
412.20	233.15
412.57	233.58
412.95	233.85
413.32	234.30
413.69	234.67
414.07	235.10
414.44	235.55
414.82	236.03
415.19	236.58
415.56	237.13
415.94	237.64
416.31	238.26
416.68	238.89
417.06	239.59
417.43	240.26
417.81	241.03
418.18	241.84
418.55	242.71
418.93	243.59
419.30	244.52
419.67	245.44
420.04	246.42
420.42	247.42
420.79	248.60
421.16	249.75
421.54	250.97
421.91	252.22
422.28	253.46
422.66	254.80
423.03	256.09
423.40	257.39
423.77	258.81
424.15	260.23
424.52	261.70
424.89	263.31
425.26	264.88
425.64	266.30
426.01	267.89
426.38	269.52
426.75	271.22
427.13	272.92
427.50	274.72
427.87	276.60
428.24	278.43
428.61	280.16
428.99	282.10
429.36	284.20
429.73	286.24
430.10	288.29
430.47	290.33
430.85	292.46
431.22	294.75
431.59	297.16
431.96	299.43
432.33	301.94
432.70	304.36
433.08	307.13
433.45	309.78
433.82	312.39
434.19	315.30
434.56	318.04
434.93	320.69
435.30	323.34
435.68	326.19
436.05	329.05
436.42	331.82
436.79	334.31
437.16	336.97
437.53	339.88
437.90	342.71
438.27	345.51
438.64	348.33
439.01	350.91
439.38	353.09
439.75	355.27
440.13	357.74
440.50	360.03
440.87	361.89
441.24	363.85
441.61	366.01
441.98	367.46
442.35	369.31
442.72	371.17
443.09	372.99
443.46	373.99
443.83	374.58
444.20	375.13
444.57	375.98
444.94	376.28
445.31	376.53
445.68	376.85
446.05	376.89
446.42	376.51
446.79	376.05
447.16	375.59
447.53	375.25
447.90	374.09
448.27	372.93
448.64	371.30
449.01	370.11
449.37	368.14
449.74	366.24
450.11	364.00
450.48	361.52
450.85	358.95
451.22	356.82
451.59	354.79
451.96	352.83
452.33	350.20
452.70	347.84
453.07	345.03
453.43	342.12
453.80	339.43
454.17	336.76
454.54	334.26
454.91	331.57
455.28	328.89
455.65	326.39
456.02	323.93
456.38	321.83
456.75	319.19
457.12	316.90
457.49	314.68
457.86	312.47
458.23	310.62
458.59	308.57
458.96	306.45
459.33	304.56
459.70	302.70
460.07	301.19
460.43	299.49
460.80	297.86
461.17	296.44
461.54	294.92
461.91	293.47
462.27	292.02
462.64	290.76
463.01	289.41
463.38	288.13
463.74	286.79
464.11	285.63
464.48	284.63
464.85	283.53
465.21	282.70
465.58	281.77
465.95	280.66
466.32	279.78
466.68	278.86
467.05	277.99
467.42	277.05
467.78	276.12
468.15	275.26
468.52	274.58
468.88	273.71
469.25	272.88
469.62	272.23
469.98	271.54
470.35	270.90
470.72	270.26
471.08	269.60
471.45	269.05
471.82	268.50
472.18	267.91
472.55	267.47
472.92	266.92
473.28	266.48
473.65	266.05
474.02	265.59
474.38	265.21
474.75	264.87
475.11	264.61
475.48	264.36
475.85	264.10
476.21	263.87
476.58	263.71
476.94	263.58
477.31	263.42
477.67	263.27
478.04	263.17
478.41	263.13
478.77	263.17
479.14	263.07
479.50	263.04
479.87	263.12
480.23	263.20
480.60	263.22
480.96	263.30
481.33	263.50
481.69	263.72
482.06	263.97
482.42	264.18
482.79	264.39
483.15	264.70
483.52	265.09
483.88	265.43
484.25	265.80
484.61	266.19
484.98	266.64
485.34	267.18
485.71	267.72
486.07	268.29
486.44	268.84
486.80	269.57
487.17	270.31
487.53	271.04
487.90	271.90
488.26	272.83
488.62	273.80
488.99	274.78
489.35	275.79
489.72	276.91
490.08	278.15
490.44	279.35
490.81	280.67
491.17	282.02
491.54	283.46
491.90	285.00
492.26	286.69
492.63	288.45
492.99	290.23
493.36	292.17
493.72	294.24
494.08	296.38
494.45	298.60
494.81	300.99
495.17	303.47
495.54	306.00
495.90	308.75
496.26	311.55
496.63	314.50
496.99	317.62
497.35	320.82
497.72	324.16
498.08	327.73
498.44	331.37
498.80	335.27
499.17	339.32
499.53	343.47
499.89	347.82
500.26	352.32
500.62	357.00
500.98	361.94
501.34	367.03
501.71	372.37
502.07	377.80
502.43	383.41
502.79	389.21
503.16	395.29
503.52	401.50
503.88	407.96
504.24	414.60
504.60	421.52
504.97	428.67
505.33	436.03
505.69	443.71
506.05	451.55
506.41	459.47
506.78	467.63
507.14	476.13
507.50	484.81
507.86	493.81
508.22	502.99
508.59	512.18
508.95	521.74
509.31	531.50
509.67	541.64
510.03	551.91
510.39	562.48
510.75	573.33
511.12	584.27
511.48	595.51
511.84	606.97
512.20	618.48
512.56	630.43
512.92	642.55
513.28	654.81
513.64	667.29
514.00	679.99
514.37	692.91
514.73	706.01
515.09	719.12
515.45	732.47
515.81	746.12
516.17	760.09
516.53	774.29
516.89	788.55
517.25	802.75
517.61	817.28
517.97	831.77
518.33	846.17
518.69	861.03
519.05	876.02
519.41	891.26
519.77	906.83
520.13	922.41
520.49	937.97
520.85	953.55
521.21	969.28
521.57	985.59
521.93	1001.55
522.29	1017.95
522.65	1034.19
523.01	1050.40
523.37	1066.42
523.73	1082.71
524.09	1098.77
524.45	1115.19
524.81	1131.89
525.17	1148.71
525.53	1165.61
525.89	1182.56
526.25	1199.37
526.61	1215.88
526.97	1232.60
527.33	1249.15
527.68	1265.68
528.04	1282.11
528.40	1298.82
528.76	1316.02
529.12	1332.60
529.48	1349.35
529.84	1365.42
530.20	1382.22
530.56	1399.29
530.91	1416.74
531.27	1433.55
531.63	1450.16
531.99	1466.71
532.35	1482.69
532.71	1498.60
533.07	1514.99
533.42	1530.87
533.78	1546.90
534.14	1563.17
534.50	1578.62
534.86	1594.44
535.21	1609.67
535.57	1625.70
535.93	1641.17
536.29	1655.89
536.65	1671.11
537.00	1686.13
537.36	1701.44
537.72	1715.96
538.08	1730.55
538.44	1744.45
538.79	1758.43
539.15	1772.24
539.51	1786.18
539.87	1800.71
540.22	1814.61
540.58	1828.50
540.94	1842.01
541.29	1855.13
541.65	1867.99
542.01	1881.32
542.37	1893.78
542.72	1906.33
543.08	1918.15
543.44	1930.67
543.79	1942.06
544.15	1953.08
544.51	1964.76
544.87	1975.85
545.22	1986.63
545.58	1996.81
545.94	2006.62
546.29	2016.53
546.65	2026.27
547.01	2035.32
547.36	2044.08
547.72	2052.51
548.07	2060.23
548.43	2068.42
548.79	2076.56
549.14	2084.07
549.50	2091.46
549.86	2099.28
550.21	2106.66
550.57	2113.74
550.92	2120.35
551.28	2127.38
551.64	2134.35
551.99	2140.94
552.35	2147.12
552.70	2153.33
553.06	2159.19
553.41	2165.58
553.77	2171.66
554.13	2177.83
554.48	2184.09
554.84	2189.46
555.19	2194.82
555.55	2199.99
555.90	2204.46
556.26	2209.13
556.61	2213.99
556.97	2218.10
557.32	2222.21
557.68	2226.38
558.03	2230.85
558.39	2234.49
558.74	2239.08
559.10	2242.97
559.45	2246.47
559.81	2250.77
560.16	2254.58
560.52	2257.92
560.87	2261.37
561.23	2263.95
561.58	2266.85
561.94	2269.32
562.29	2271.83
562.64	2274.47
563.00	2277.19
563.35	2280.63
563.71	2283.82
564.06	2286.85
564.42	2289.65
564.77	2292.01
565.12	2294.03
565.48	2295.80
565.83	2297.65
566.19	2298.85
566.54	2299.81
566.89	2300.93
567.25	2301.45
567.60	2302.69
567.96	2304.29
568.31	2305.02
568.66	2306.08
569.02	2306.62
569.37	2306.81
569.72	2307.45
570.08	2307.43
570.43	2307.24
570.78	2306.58
571.14	2305.02
571.49	2303.72
571.84	2303.44
572.20	2302.11
572.55	2301.28
572.90	2299.70
573.26	2298.17
573.61	2296.49
573.96	2294.53
574.31	2291.38
574.67	2288.37
575.02	2284.74
575.37	2281.33
575.72	2277.27
576.08	2273.86
576.43	2270.36
576.78	2266.76
577.13	2263.51
577.49	2260.50
577.84	2256.90
578.19	2253.11
578.54	2249.30
578.90	2244.90
579.25	2239.21
579.60	2234.31
579.95	2229.16
580.30	2224.06
580.66	2218.92
581.01	2213.94
581.36	2209.00
581.71	2204.90
582.06	2200.30
582.42	2195.73
582.77	2190.29
583.12	2185.82
583.47	2180.84
583.82	2175.78
584.17	2170.29
584.53	2164.65
584.88	2158.83
585.23	2152.97
585.58	2147.47
585.93	2142.08
586.28	2137.26
586.63	2132.14
586.98	2126.78
587.34	2121.87
587.69	2116.91
588.04	2111.42
588.39	2105.50
588.74	2098.96
589.09	2092.57
589.44	2085.63
589.79	2079.60
590.14	2073.97
590.49	2067.33
590.84	2060.94
591.19	2054.89
591.54	2048.42
591.89	2040.96
592.25	2034.03
592.60	2026.83
592.95	2019.05
593.30	2011.45
593.65	2003.73
594.00	1996.63
594.35	1989.48
594.70	1981.48
595.05	1974.16
595.40	1966.89
595.75	1959.46
596.10	1953.17
596.45	1946.33
596.80	1940.20
597.15	1933.30
597.50	1926.05
597.85	1919.45
598.19	1912.72
598.54	1905.49
598.89	1898.84
599.24	1892.89
599.59	1886.12
599.94	1879.86
600.29	1873.58
600.64	1867.13
600.99	1859.61
601.34	1852.68
601.69	1845.67
602.04	1838.63
602.39	1831.27
602.74	1824.46
603.08	1817.79
603.43	1810.97
603.78	1803.71
604.13	1796.49
604.48	1789.29
604.83	1782.62
605.18	1775.66
605.53	1767.73
605.87	1759.76
606.22	1752.57
606.57	1744.56
606.92	1737.33
607.27	1730.13
607.62	1723.27
607.96	1715.83
608.31	1709.25
608.66	1701.59
609.01	1694.06
609.36	1686.63
609.70	1678.56
610.05	1670.31
610.40	1662.51
610.75	1654.28
611.10	1646.50
611.44	1638.10
611.79	1630.17
612.14	1621.37
612.49	1612.28
612.83	1603.89
613.18	1595.75
613.53	1587.55
613.88	1579.18
614.22	1570.81
614.57	1562.24
614.92	1554.22
615.27	1546.79
615.61	1538.45
615.96	1530.56
616.31	1522.94
616.65	1515.46
617.00	1507.83
617.35	1500.36
617.70	1491.99
618.04	1483.36
618.39	1475.19
618.74	1467.56
619.08	1459.14
619.43	1451.54
619.78	1444.65
620.12	1437.50
620.47	1430.11
620.82	1421.97
621.16	1414.43
621.51	1406.87
621.85	1399.24
622.20	1390.60
622.55	1382.14
622.89	1374.29
623.24	1366.70
623.59	1359.23
623.93	1351.78
624.28	1344.52
624.62	1336.91
624.97	1329.75
625.32	1323.17
625.66	1316.17
626.01	1308.73
626.35	1301.24
626.70	1293.54
627.04	1285.72
627.39	1277.92
627.73	1270.41
628.08	1263.41
628.43	1256.16
628.77	1248.73
629.12	1241.10
629.46	1233.89
629.81	1226.43
630.15	1219.16
630.50	1211.73
630.84	1203.56
631.19	1195.61
631.53	1188.15
631.88	1180.57
632.22	1172.95
632.57	1165.55
632.91	1158.06
633.26	1150.89
633.60	1143.68
633.95	1136.58
634.29	1129.55
634.64	1122.81
634.98	1115.42
635.32	1108.32
635.67	1101.85
636.01	1095.31
636.36	1088.62
636.70	1082.19
637.05	1075.64
637.39	1069.28
637.73	1062.75
638.08	1056.94
638.42	1050.93
638.77	1044.57
639.11	1037.93
639.45	1031.55
639.80	1024.88
640.14	1018.51
640.49	1011.91
640.83	1005.62
641.17	999.42
641.52	993.17
641.86	986.77
642.20	980.96
642.55	974.72
642.89	968.13
643.23	961.58
643.58	955.80
643.92	949.52
644.26	943.46
644.61	937.44
644.95	931.38
645.29	924.76
645.64	918.01
645.98	911.67
646.32	905.92
646.66	899.90
647.01	894.12
647.35	888.35
647.69	882.59
648.04	876.99
648.38	871.08
648.72	865.02
649.06	859.04
649.41	853.20
649.75	847.21
650.09	841.31
650.43	835.51
650.78	829.28
651.12	823.34
651.46	817.63
651.80	811.82
652.14	806.40
652.49	801.01
652.83	795.93
653.17	790.13
653.51	784.38
653.85	778.97
654.20	773.33
654.54	767.32
654.88	761.53
655.22	755.73
655.56	750.16
655.90	744.71
656.25	739.44
656.59	734.01
656.93	728.88
657.27	723.68
657.61	718.23
657.95	713.17
658.29	708.19
658.64	702.99
658.98	697.77
659.32	692.33
659.66	687.06
660.00	681.65
660.34	676.79
660.68	671.93
661.02	666.96
661.36	662.20
661.70	657.78
662.05	653.48
662.39	649.12
662.73	644.63
663.07	640.24
663.41	635.79
663.75	631.31
664.09	626.73
664.43	622.31
664.77	618.28
665.11	613.99
665.45	609.87
665.79	605.81
666.13	601.63
666.47	597.56
666.81	593.46
667.15	589.41
667.49	585.56
667.83	581.76
668.17	577.83
668.51	573.80
668.85	569.76
669.19	565.89
669.53	562.00
669.87	558.12
670.21	554.49
670.55	550.89
670.89	547.53
671.23	544.17
671.57	540.71
671.91	537.17
672.25	533.76
672.58	530.21
672.92	526.76
673.26	523.61
673.60	520.54
673.94	517.41
674.28	514.53
674.62	511.55
674.96	508.42
675.30	505.49
675.64	502.57
675.97	499.85
676.31	496.99
676.65	494.11
676.99	491.39
677.33	488.53
677.67	485.63
678.01	482.52
678.34	479.51
678.68	476.68
679.02	473.81
679.36	471.06
679.70	468.40
680.04	465.68
680.37	462.79
680.71	459.99
681.05	457.46
681.39	454.74
681.73	452.14
682.06	449.64
682.40	447.08
682.74	444.57
683.08	441.97
683.42	439.37
683.75	436.93
684.09	434.46
684.43	431.98
684.77	429.54
685.10	427.19
685.44	424.92
685.78	422.65
686.12	420.43
686.45	418.15
686.79	415.80
687.13	413.65
687.46	411.52
687.80	409.38
688.14	407.13
688.48	405.06
688.81	402.79
689.15	400.64
689.49	398.48
689.82	396.41
690.16	394.32
690.50	392.38
690.83	390.40
691.17	388.38
691.51	386.47
691.84	384.64
692.18	382.73
692.52	380.72
692.85	378.74
693.19	376.83
693.52	374.97
693.86	373.20
694.20	371.38
694.53	369.60
694.87	367.73
695.21	365.97
695.54	364.18
695.88	362.42
696.21	360.68
696.55	359.03
696.88	357.29
697.22	355.68
697.56	354.05
697.89	352.38
698.23	350.76
698.56	349.18
698.90	347.60
699.23	345.96
699.57	344.45
699.90	342.95
700.24	341.45
700.58	339.92
700.91	338.38
701.25	336.95
701.58	335.61
701.92	334.26
702.25	332.88
702.59	331.47
702.92	330.17
703.26	328.92
703.59	327.67
703.93	326.54
704.26	325.29
704.60	324.02
704.93	322.72
705.26	321.48
705.60	320.33
705.93	319.19
706.27	318.14
706.60	317.09
706.94	316.01
707.27	314.89
707.61	313.88
707.94	312.87
708.27	311.73
708.61	310.65
708.94	309.64
709.28	308.64
709.61	307.75
709.94	306.81
710.28	305.76
710.61	304.78
710.95	303.71
711.28	302.80
711.61	301.83
711.95	300.97
712.28	300.08
712.61	299.09
712.95	298.11
713.28	297.25
713.61	296.37
713.95	295.49
714.28	294.66
714.61	293.78
714.95	292.93
715.28	292.09
715.61	291.21
715.95	290.38
716.28	289.53
716.61	288.67
716.95	287.87
717.28	287.15
717.61	286.38
717.94	285.63
718.28	284.87
718.61	284.18
718.94	283.51
719.27	282.81
719.61	282.18
719.94	281.55
720.27	280.84
720.60	280.20
720.94	279.57
721.27	278.99
721.60	278.40
721.93	277.85
722.27	277.34
722.60	276.79
722.93	276.24
723.26	275.74
723.59	275.21
723.93	274.65
724.26	274.09
724.59	273.50
724.92	273.02
725.25	272.48
725.59	271.97
725.92	271.42
726.25	270.95
726.58	270.46
726.91	269.97
727.24	269.49
727.57	268.97
727.91	268.47
728.24	267.94
728.57	267.45
728.90	266.96
729.23	266.42
729.56	265.97
729.89	265.50
730.22	264.99
730.55	264.48
730.89	264.06
731.22	263.60
731.55	263.18
731.88	262.72
732.21	262.32
732.54	261.88
732.87	261.45
733.20	261.03
733.53	260.64
733.86	260.27
734.19	259.89
734.52	259.53
734.85	259.19
735.18	258.82
735.51	258.45
735.84	258.06
736.17	257.78
736.50	257.39
736.83	257.16
737.16	256.87
737.49	256.58
737.82	256.21
738.15	255.85
738.48	255.52
738.81	255.22
739.14	254.88
739.47	254.55
739.80	254.26
740.13	253.91
740.46	253.61
740.79	253.31
741.12	252.98
741.45	252.67
741.78	252.33
742.11	252.03
742.44	251.74
742.77	251.45
743.10	251.10
743.43	250.82
743.75	250.39
744.08	250.21
744.41	249.91
744.74	249.66
745.07	249.40
745.40	249.12
745.73	248.84
746.06	248.54
746.39	248.31
746.71	248.02
747.04	247.76
747.37	247.48
747.70	247.24
748.03	246.99
748.36	246.78
748.68	246.53
749.01	246.28
749.34	246.05
749.67	245.86
750.00	245.65
750.33	245.46
750.65	245.29
750.98	244.94
751.31	244.74
751.64	244.53
751.97	244.39
752.29	244.17
752.62	243.94
752.95	243.75
753.28	243.52
753.60	243.33
753.93	243.15
754.26	242.96
754.59	242.72
754.91	242.53
755.24	242.31
755.57	242.13
755.90	241.99
756.22	241.79
756.55	241.57
756.88	241.39
757.20	241.18
757.53	240.96
757.86	240.81
758.19	240.64
758.51	240.42
758.84	240.22
759.17	240.07
759.49	239.95
759.82	239.82
760.15	239.69
760.47	239.51
760.80	239.34
761.13	239.20
761.45	239.04
761.78	238.91
762.11	238.80
762.43	238.68
762.76	238.47
763.08	238.33
763.41	238.20
763.74	238.06
764.06	237.90
764.39	237.73
764.71	237.61
765.04	237.46
765.37	237.35
765.69	237.19
766.02	237.04
766.34	236.88
766.67	236.72
767.00	236.62
767.32	236.59
767.65	236.54
767.97	236.41
768.30	236.27
768.62	236.14
768.95	236.00
769.27	235.89
769.60	235.81
769.92	235.70
770.25	235.59
770.57	235.46
770.90	235.34
771.22	235.28
771.55	235.18
771.87	235.09
772.20	235.02
772.52	235.01
772.85	235.03
773.17	234.94
773.50	234.82
773.82	234.70
774.15	234.57
774.47	234.41
774.80	234.33
775.12	234.28
775.45	234.22
775.77	234.11
776.09	234.02
776.42	233.95
776.74	233.89
777.07	233.79
777.39	233.75
777.72	233.69
778.04	233.59
778.36	233.51
778.69	233.46
779.01	233.38
779.33	233.23
779.66	233.06
779.98	232.98
780.31	232.96
780.63	232.93
780.95	232.87
781.28	232.81
781.60	232.75
781.92	232.68
782.25	232.60
782.57	232.56
782.89	232.50
783.22	232.42
783.54	232.37
783.86	232.32
784.19	232.25
784.51	232.23
784.83	232.16
785.16	232.08
785.48	232.03
785.80	231.98
786.12	231.93
786.45	231.89
786.77	231.89
787.09	231.80
