SpectraSuite Data File
++++++++++++++++++++++++++++++++++++
Date: Fri Feb 01 16:11:45 EST 2013
User: group
Dark Spectrum Present: No
Reference Spectrum Present: No
Number of Sampled Component Spectra: 1
Spectrometers: USB2E7196
Integration Time (usec): 35000 (USB2E7196)
Spectra Averaged: 100 (USB2E7196)
Boxcar Smoothing: 10 (USB2E7196)
Correct for Electrical Dark: No (USB2E7196)
Strobe/Lamp Enabled: No (USB2E7196)
Correct for Detector Non-linearity: No (USB2E7196)
Correct for Stray Light: No (USB2E7196)
Number of Pixels in Processed Spectrum: 2048
>>>>>Begin Processed Spectral Data<<<<<
339.09	0.00
339.48	214.99
339.86	216.17
340.24	217.48
340.63	218.40
341.01	221.61
341.39	221.41
341.78	222.96
342.16	223.08
342.54	224.56
342.93	212.75
343.31	223.53
343.69	224.04
344.07	224.50
344.46	224.89
344.84	225.28
345.22	225.48
345.60	225.70
345.99	225.85
346.37	226.01
346.75	226.09
347.13	226.12
347.52	226.20
347.90	226.25
348.28	226.27
348.66	226.34
349.05	226.33
349.43	226.38
349.81	226.46
350.19	226.50
350.57	226.59
350.96	226.65
351.34	226.68
351.72	226.75
352.10	226.81
352.48	226.89
352.87	226.96
353.25	227.03
353.63	227.09
354.01	227.22
354.39	227.30
354.77	227.38
355.15	227.47
355.54	227.52
355.92	227.56
356.30	227.66
356.68	227.79
357.06	227.85
357.44	227.92
357.82	227.92
358.20	228.01
358.58	228.08
358.97	228.13
359.35	228.24
359.73	228.34
360.11	228.39
360.49	228.47
360.87	228.49
361.25	228.57
361.63	228.68
362.01	228.68
362.39	228.71
362.77	228.76
363.15	228.78
363.53	228.82
363.91	228.86
364.29	228.86
364.67	228.77
365.05	228.81
365.43	228.85
365.81	228.90
366.19	228.92
366.57	228.96
366.95	228.96
367.33	228.93
367.71	228.93
368.09	228.99
368.47	228.97
368.85	228.97
369.23	228.95
369.61	228.90
369.99	228.92
370.37	228.92
370.75	228.96
371.13	228.94
371.51	228.93
371.89	228.90
372.27	228.85
372.65	228.83
373.03	228.77
373.41	228.68
373.78	228.64
374.16	228.56
374.54	228.46
374.92	228.42
375.30	228.35
375.68	228.28
376.06	228.21
376.44	228.12
376.82	228.06
377.19	228.02
377.57	227.93
377.95	227.79
378.33	227.71
378.71	227.56
379.09	227.48
379.47	227.39
379.84	227.32
380.22	227.25
380.60	227.18
380.98	227.13
381.36	227.09
381.73	227.01
382.11	226.95
382.49	226.92
382.87	226.78
383.25	226.71
383.62	226.73
384.00	226.62
384.38	226.58
384.76	226.54
385.13	226.50
385.51	226.45
385.89	226.40
386.27	226.36
386.64	226.34
387.02	226.31
387.40	226.25
387.78	226.21
388.15	226.21
388.53	226.14
388.91	226.12
389.29	226.06
389.66	226.05
390.04	226.02
390.42	225.98
390.79	225.99
391.17	225.97
391.55	225.81
391.92	225.82
392.30	225.79
392.68	225.76
393.05	225.73
393.43	225.73
393.81	225.72
394.18	225.66
394.56	225.66
394.94	225.66
395.31	225.64
395.69	225.66
396.06	225.65
396.44	225.69
396.82	225.66
397.19	225.73
397.57	225.73
397.95	225.79
398.32	225.81
398.70	225.84
399.07	225.95
399.45	226.02
399.82	226.09
400.20	226.13
400.58	226.22
400.95	226.29
401.33	226.38
401.70	226.54
402.08	226.69
402.45	226.78
402.83	226.91
403.20	227.03
403.58	227.13
403.95	227.26
404.33	227.36
404.71	227.52
405.08	227.71
405.46	227.83
405.83	227.98
406.21	228.13
406.58	228.33
406.96	228.47
407.33	228.65
407.70	228.83
408.08	229.12
408.45	229.35
408.83	229.57
409.20	229.79
409.58	229.96
409.95	230.20
410.33	230.49
410.70	230.75
411.08	231.09
411.45	231.38
411.82	231.72
412.20	232.10
412.57	232.55
412.95	232.85
413.32	233.29
413.69	233.69
414.07	234.14
414.44	234.63
414.82	235.11
415.19	235.68
415.56	236.26
415.94	236.82
416.31	237.43
416.68	238.08
417.06	238.82
417.43	239.51
417.81	240.29
418.18	241.05
418.55	241.87
418.93	242.72
419.30	243.64
419.67	244.55
420.04	245.48
420.42	246.45
420.79	247.63
421.16	248.79
421.54	249.97
421.91	251.18
422.28	252.40
422.66	253.72
423.03	255.05
423.40	256.39
423.77	257.79
424.15	259.23
424.52	260.72
424.89	262.31
425.26	263.87
425.64	265.31
426.01	266.89
426.38	268.57
426.75	270.28
427.13	272.02
427.50	273.85
427.87	275.75
428.24	277.59
428.61	279.30
428.99	281.24
429.36	283.35
429.73	285.39
430.10	287.44
430.47	289.53
430.85	291.62
431.22	293.84
431.59	296.21
431.96	298.44
432.33	300.90
432.70	303.27
433.08	306.08
433.45	308.70
433.82	311.32
434.19	314.16
434.56	316.92
434.93	319.54
435.30	322.11
435.68	325.00
436.05	327.82
436.42	330.59
436.79	333.10
437.16	335.74
437.53	338.54
437.90	341.32
438.27	343.99
438.64	346.77
439.01	349.31
439.38	351.52
439.75	353.70
440.13	356.15
440.50	358.48
440.87	360.31
441.24	362.21
441.61	364.35
441.98	365.86
442.35	367.65
442.72	369.53
443.09	371.39
443.46	372.37
443.83	373.01
444.20	373.56
444.57	374.41
444.94	374.70
445.31	375.08
445.68	375.47
446.05	375.58
446.42	375.23
446.79	374.82
447.16	374.41
447.53	374.06
447.90	372.93
448.27	371.74
448.64	370.18
449.01	369.06
449.37	367.11
449.74	365.18
450.11	362.98
450.48	360.49
450.85	357.91
451.22	355.81
451.59	353.76
451.96	351.80
452.33	349.17
452.70	346.85
453.07	344.05
453.43	341.17
453.80	338.42
454.17	335.79
454.54	333.29
454.91	330.59
455.28	327.92
455.65	325.45
456.02	323.04
456.38	320.89
456.75	318.27
457.12	316.03
457.49	313.81
457.86	311.61
458.23	309.80
458.59	307.76
458.96	305.66
459.33	303.82
459.70	301.98
460.07	300.46
460.43	298.74
460.80	297.12
461.17	295.65
461.54	294.14
461.91	292.68
462.27	291.19
462.64	289.96
463.01	288.60
463.38	287.29
463.74	285.93
464.11	284.78
464.48	283.77
464.85	282.63
465.21	281.80
465.58	280.88
465.95	279.75
466.32	278.85
466.68	277.94
467.05	277.00
467.42	276.15
467.78	275.25
468.15	274.36
468.52	273.68
468.88	272.82
469.25	272.04
469.62	271.43
469.98	270.77
470.35	270.13
470.72	269.55
471.08	268.91
471.45	268.39
471.82	267.85
472.18	267.25
472.55	266.81
472.92	266.29
473.28	265.85
473.65	265.41
474.02	264.97
474.38	264.63
474.75	264.33
475.11	263.96
475.48	263.71
475.85	263.49
476.21	263.29
476.58	263.15
476.94	263.00
477.31	262.82
477.67	262.68
478.04	262.54
478.41	262.52
478.77	262.54
479.14	262.48
479.50	262.50
479.87	262.59
480.23	262.66
480.60	262.72
480.96	262.81
481.33	263.04
481.69	263.25
482.06	263.42
482.42	263.63
482.79	263.89
483.15	264.18
483.52	264.58
483.88	264.91
484.25	265.25
484.61	265.69
484.98	266.14
485.34	266.72
485.71	267.29
486.07	267.84
486.44	268.45
486.80	269.16
487.17	269.89
487.53	270.69
487.90	271.54
488.26	272.48
488.62	273.45
488.99	274.41
489.35	275.50
489.72	276.64
490.08	277.83
490.44	279.09
490.81	280.46
491.17	281.82
491.54	283.33
491.90	284.88
492.26	286.56
492.63	288.31
492.99	290.11
493.36	292.03
493.72	294.09
494.08	296.17
494.45	298.40
494.81	300.79
495.17	303.18
495.54	305.76
495.90	308.46
496.26	311.32
496.63	314.32
496.99	317.40
497.35	320.67
497.72	324.14
498.08	327.68
498.44	331.37
498.80	335.26
499.17	339.28
499.53	343.49
499.89	347.87
500.26	352.34
500.62	356.99
500.98	361.97
501.34	367.07
501.71	372.45
502.07	377.90
502.43	383.47
502.79	389.37
503.16	395.49
503.52	401.73
503.88	408.13
504.24	414.76
504.60	421.67
504.97	428.82
505.33	436.07
505.69	443.77
506.05	451.47
506.41	459.44
506.78	467.63
507.14	476.12
507.50	484.82
507.86	493.94
508.22	503.19
508.59	512.44
508.95	522.00
509.31	531.83
509.67	541.96
510.03	552.29
510.39	562.87
510.75	573.61
511.12	584.60
511.48	595.94
511.84	607.39
512.20	618.95
512.56	630.90
512.92	643.10
513.28	655.39
513.64	667.88
514.00	680.54
514.37	693.54
514.73	706.56
515.09	719.66
515.45	732.94
515.81	746.46
516.17	760.45
516.53	774.58
516.89	788.70
517.25	802.84
517.61	817.28
517.97	831.71
518.33	846.15
518.69	860.86
519.05	875.83
519.41	890.99
519.77	906.48
520.13	921.88
520.49	937.23
520.85	952.62
521.21	968.32
521.57	984.53
521.93	1000.13
522.29	1016.52
522.65	1032.76
523.01	1049.01
523.37	1065.09
523.73	1081.24
524.09	1097.25
524.45	1113.42
524.81	1130.01
525.17	1146.72
525.53	1163.58
525.89	1180.32
526.25	1197.18
526.61	1213.42
526.97	1230.13
527.33	1246.44
527.68	1262.94
528.04	1279.44
528.40	1295.99
528.76	1313.02
529.12	1329.46
529.48	1346.34
529.84	1362.20
530.20	1378.55
530.56	1395.37
530.91	1412.68
531.27	1429.28
531.63	1445.67
531.99	1462.27
532.35	1478.19
532.71	1494.00
533.07	1510.22
533.42	1526.24
533.78	1542.20
534.14	1558.53
534.50	1573.72
534.86	1589.61
535.21	1604.87
535.57	1620.57
535.93	1635.94
536.29	1650.64
536.65	1665.57
537.00	1680.31
537.36	1695.59
537.72	1710.17
538.08	1724.59
538.44	1738.29
538.79	1752.11
539.15	1765.76
539.51	1779.47
539.87	1793.74
540.22	1807.44
540.58	1820.98
540.94	1834.07
541.29	1846.81
541.65	1859.42
542.01	1872.66
542.37	1884.88
542.72	1897.25
543.08	1909.22
543.44	1921.62
543.79	1932.85
544.15	1943.92
544.51	1955.31
544.87	1966.22
545.22	1977.00
545.58	1987.27
545.94	1996.99
546.29	2006.80
546.65	2016.73
547.01	2026.00
547.36	2034.71
547.72	2043.26
548.07	2051.17
548.43	2059.48
548.79	2067.48
549.14	2074.96
549.50	2082.22
549.86	2089.96
550.21	2097.09
550.57	2104.09
550.92	2110.65
551.28	2117.66
551.64	2124.69
551.99	2131.28
552.35	2137.50
552.70	2143.70
553.06	2149.64
553.41	2156.03
553.77	2161.98
554.13	2167.90
554.48	2173.89
554.84	2179.39
555.19	2184.60
555.55	2189.84
555.90	2194.26
556.26	2199.09
556.61	2203.87
556.97	2208.25
557.32	2212.28
557.68	2216.43
558.03	2220.84
558.39	2224.49
558.74	2229.09
559.10	2232.96
559.45	2236.51
559.81	2240.75
560.16	2244.58
560.52	2247.82
560.87	2251.13
561.23	2253.95
561.58	2256.82
561.94	2259.40
562.29	2261.62
562.64	2264.30
563.00	2266.79
563.35	2270.18
563.71	2273.42
564.06	2276.47
564.42	2279.37
564.77	2282.01
565.12	2284.48
565.48	2286.33
565.83	2288.37
566.19	2289.69
566.54	2290.67
566.89	2291.92
567.25	2292.58
567.60	2293.73
567.96	2295.35
568.31	2296.19
568.66	2297.31
569.02	2298.06
569.37	2298.38
569.72	2299.46
570.08	2299.58
570.43	2299.57
570.78	2299.02
571.14	2297.52
571.49	2296.30
571.84	2295.86
572.20	2294.75
572.55	2293.72
572.90	2292.01
573.26	2290.50
573.61	2288.83
573.96	2287.10
574.31	2284.27
574.67	2281.29
575.02	2277.87
575.37	2274.44
575.72	2270.79
576.08	2267.34
576.43	2263.86
576.78	2260.33
577.13	2257.00
577.49	2253.92
577.84	2250.58
578.19	2246.84
578.54	2243.23
578.90	2239.06
579.25	2233.60
579.60	2228.64
579.95	2223.68
580.30	2218.88
580.66	2213.74
581.01	2208.69
581.36	2203.67
581.71	2199.53
582.06	2195.05
582.42	2190.51
582.77	2185.42
583.12	2180.90
583.47	2176.36
583.82	2171.57
584.17	2166.32
584.53	2160.99
584.88	2155.39
585.23	2149.70
585.58	2144.23
585.93	2138.66
586.28	2133.85
586.63	2128.80
586.98	2123.87
587.34	2119.05
587.69	2113.99
588.04	2108.69
588.39	2103.21
588.74	2096.80
589.09	2090.61
589.44	2083.99
589.79	2077.83
590.14	2072.05
590.49	2065.40
590.84	2058.93
591.19	2052.80
591.54	2046.33
591.89	2038.98
592.25	2032.31
592.60	2025.08
592.95	2017.70
593.30	2010.42
593.65	2002.85
594.00	1995.85
594.35	1988.47
594.70	1980.41
595.05	1973.43
595.40	1966.40
595.75	1958.92
596.10	1952.98
596.45	1946.22
596.80	1939.98
597.15	1933.62
597.50	1926.81
597.85	1920.52
598.19	1913.90
598.54	1906.93
598.89	1900.36
599.24	1894.49
599.59	1887.94
599.94	1881.78
600.29	1875.42
600.64	1868.83
600.99	1861.46
601.34	1854.72
601.69	1847.75
602.04	1841.00
602.39	1833.62
602.74	1826.76
603.08	1819.99
603.43	1813.05
603.78	1805.78
604.13	1798.53
604.48	1791.25
604.83	1784.17
605.18	1777.29
605.53	1769.36
605.87	1761.34
606.22	1754.10
606.57	1746.11
606.92	1738.57
607.27	1731.52
607.62	1724.70
607.96	1717.61
608.31	1711.10
608.66	1703.42
609.01	1695.94
609.36	1688.42
609.70	1680.38
610.05	1672.38
610.40	1664.69
610.75	1656.43
611.10	1648.81
611.44	1640.42
611.79	1632.42
612.14	1623.87
612.49	1614.56
612.83	1606.20
613.18	1598.12
613.53	1589.98
613.88	1581.51
614.22	1573.34
614.57	1564.69
614.92	1556.59
615.27	1549.11
615.61	1540.75
615.96	1532.77
616.31	1525.05
616.65	1517.55
617.00	1510.00
617.35	1502.17
617.70	1493.93
618.04	1485.38
618.39	1477.07
618.74	1469.55
619.08	1461.22
619.43	1453.59
619.78	1446.67
620.12	1439.48
620.47	1431.91
620.82	1423.72
621.16	1416.24
621.51	1408.52
621.85	1400.79
622.20	1392.27
622.55	1383.83
622.89	1375.95
623.24	1368.28
623.59	1360.88
623.93	1353.40
624.28	1346.13
624.62	1338.75
624.97	1331.55
625.32	1324.79
625.66	1317.72
626.01	1310.59
626.35	1303.19
626.70	1295.41
627.04	1287.68
627.39	1279.85
627.73	1272.53
628.08	1265.71
628.43	1258.49
628.77	1251.23
629.12	1243.64
629.46	1236.53
629.81	1228.97
630.15	1221.71
630.50	1214.32
630.84	1206.19
631.19	1198.27
631.53	1190.79
631.88	1183.14
632.22	1175.53
632.57	1168.31
632.91	1160.89
633.26	1153.39
633.60	1145.91
633.95	1138.74
634.29	1131.73
634.64	1125.14
634.98	1117.82
635.32	1110.57
635.67	1103.92
636.01	1097.14
636.36	1090.37
636.70	1083.86
637.05	1077.39
637.39	1070.97
637.73	1064.46
638.08	1058.59
638.42	1052.59
638.77	1046.20
639.11	1039.62
639.45	1033.27
639.80	1026.58
640.14	1020.16
640.49	1013.68
640.83	1007.47
641.17	1001.28
641.52	994.93
641.86	988.32
642.20	982.39
642.55	976.07
642.89	969.61
643.23	963.16
643.58	957.48
643.92	951.25
644.26	945.22
644.61	939.07
644.95	933.07
645.29	926.55
645.64	919.77
645.98	913.38
646.32	907.49
646.66	901.42
647.01	895.54
647.35	889.81
647.69	883.91
648.04	878.26
648.38	872.44
648.72	866.45
649.06	860.55
649.41	854.64
649.75	848.75
650.09	842.77
650.43	836.92
650.78	830.66
651.12	824.64
651.46	818.82
651.80	813.13
652.14	807.70
652.49	802.30
652.83	797.15
653.17	791.56
653.51	785.88
653.85	780.47
654.20	774.87
654.54	768.90
654.88	763.16
655.22	757.33
655.56	751.67
655.90	746.18
656.25	740.84
656.59	735.41
656.93	730.23
657.27	725.06
657.61	719.64
657.95	714.55
658.29	709.50
658.64	704.20
658.98	698.83
659.32	693.33
659.66	688.06
660.00	682.76
660.34	677.73
660.68	672.76
661.02	667.71
661.36	662.98
661.70	658.46
662.05	654.11
662.39	649.75
662.73	645.30
663.07	640.95
663.41	636.51
663.75	632.10
664.09	627.57
664.43	623.16
664.77	619.07
665.11	614.79
665.45	610.56
665.79	606.57
666.13	602.49
666.47	598.40
666.81	594.22
667.15	590.07
667.49	586.18
667.83	582.39
668.17	578.47
668.51	574.43
668.85	570.38
669.19	566.47
669.53	562.66
669.87	558.81
670.21	555.09
670.55	551.36
670.89	547.88
671.23	544.51
671.57	540.95
671.91	537.42
672.25	533.95
672.58	530.51
672.92	527.08
673.26	523.87
673.60	520.71
673.94	517.68
674.28	514.81
674.62	511.84
674.96	508.75
675.30	505.89
675.64	502.95
675.97	500.17
676.31	497.33
676.65	494.41
676.99	491.67
677.33	488.83
677.67	486.13
678.01	483.07
678.34	480.07
678.68	477.28
679.02	474.48
679.36	471.70
679.70	468.98
680.04	466.22
680.37	463.39
680.71	460.60
681.05	457.96
681.39	455.19
681.73	452.54
682.06	450.05
682.40	447.48
682.74	444.96
683.08	442.43
683.42	439.84
683.75	437.36
684.09	434.77
684.43	432.29
684.77	429.81
685.10	427.46
685.44	425.14
685.78	422.82
686.12	420.53
686.45	418.22
686.79	415.91
687.13	413.69
687.46	411.49
687.80	409.33
688.14	407.08
688.48	405.03
688.81	402.82
689.15	400.63
689.49	398.44
689.82	396.30
690.16	394.13
690.50	392.15
690.83	390.19
691.17	388.21
691.51	386.29
691.84	384.40
692.18	382.48
692.52	380.51
692.85	378.58
693.19	376.72
693.52	374.88
693.86	373.07
694.20	371.29
694.53	369.51
694.87	367.64
695.21	365.87
695.54	364.01
695.88	362.27
696.21	360.52
696.55	358.77
696.88	357.12
697.22	355.49
697.56	353.82
697.89	352.17
698.23	350.58
698.56	348.97
698.90	347.41
699.23	345.81
699.57	344.20
699.90	342.65
700.24	341.10
700.58	339.59
700.91	338.09
701.25	336.67
701.58	335.31
701.92	333.98
702.25	332.58
702.59	331.23
702.92	329.89
703.26	328.61
703.59	327.39
703.93	326.17
704.26	324.94
704.60	323.68
704.93	322.38
705.26	321.15
705.60	319.96
705.93	318.78
706.27	317.72
706.60	316.73
706.94	315.67
707.27	314.54
707.61	313.43
707.94	312.41
708.27	311.32
708.61	310.21
708.94	309.16
709.28	308.18
709.61	307.22
709.94	306.30
710.28	305.24
710.61	304.29
710.95	303.24
711.28	302.35
711.61	301.40
711.95	300.48
712.28	299.56
712.61	298.61
712.95	297.70
713.28	296.84
713.61	295.91
713.95	295.03
714.28	294.18
714.61	293.33
714.95	292.49
715.28	291.62
715.61	290.76
715.95	289.90
716.28	289.04
716.61	288.20
716.95	287.34
717.28	286.60
717.61	285.81
717.94	285.09
718.28	284.28
718.61	283.56
718.94	282.91
719.27	282.26
719.61	281.60
719.94	280.94
720.27	280.20
720.60	279.53
720.94	278.89
721.27	278.26
721.60	277.72
721.93	277.08
722.27	276.52
722.60	275.98
722.93	275.40
723.26	274.90
723.59	274.35
723.93	273.80
724.26	273.30
724.59	272.74
724.92	272.20
725.25	271.67
725.59	271.12
725.92	270.60
726.25	270.04
726.58	269.55
726.91	269.07
727.24	268.60
727.57	268.13
727.91	267.60
728.24	267.18
728.57	266.67
728.90	266.25
729.23	265.77
729.56	265.34
729.89	264.87
730.22	264.39
730.55	263.96
730.89	263.52
731.22	263.05
731.55	262.59
731.88	262.15
732.21	261.76
732.54	261.38
732.87	260.95
733.20	260.56
733.53	260.15
733.86	259.79
734.19	259.39
734.52	259.05
734.85	258.75
735.18	258.36
735.51	257.96
735.84	257.59
736.17	257.21
736.50	256.80
736.83	256.60
737.16	256.25
737.49	255.86
737.82	255.55
738.15	255.20
738.48	254.84
738.81	254.53
739.14	254.17
739.47	253.84
739.80	253.55
740.13	253.28
740.46	252.95
740.79	252.61
741.12	252.29
741.45	251.93
741.78	251.62
742.11	251.29
742.44	250.96
742.77	250.63
743.10	250.34
743.43	250.04
743.75	249.62
744.08	249.48
744.41	249.24
744.74	248.94
745.07	248.62
745.40	248.40
745.73	248.16
746.06	247.89
746.39	247.63
746.71	247.34
747.04	247.01
747.37	246.76
747.70	246.48
748.03	246.23
748.36	246.01
748.68	245.75
749.01	245.50
749.34	245.32
749.67	245.13
750.00	244.92
750.33	244.77
750.65	244.57
750.98	244.25
751.31	244.04
751.64	243.84
751.97	243.71
752.29	243.50
752.62	243.25
752.95	243.06
753.28	242.83
753.60	242.63
753.93	242.47
754.26	242.25
754.59	242.04
754.91	241.86
755.24	241.65
755.57	241.44
755.90	241.28
756.22	241.07
756.55	240.89
756.88	240.67
757.20	240.44
757.53	240.25
757.86	240.08
758.19	239.95
758.51	239.81
758.84	239.63
759.17	239.47
759.49	239.30
759.82	239.21
760.15	239.09
760.47	238.94
760.80	238.80
761.13	238.69
761.45	238.58
761.78	238.41
762.11	238.30
762.43	238.18
762.76	238.02
763.08	237.90
763.41	237.78
763.74	237.69
764.06	237.58
764.39	237.45
764.71	237.31
765.04	237.09
765.37	236.93
765.69	236.79
766.02	236.67
766.34	236.56
766.67	236.38
767.00	236.28
767.32	236.22
767.65	236.15
767.97	236.05
768.30	235.94
768.62	235.85
768.95	235.73
769.27	235.61
769.60	235.52
769.92	235.41
770.25	235.27
770.57	235.14
770.90	235.02
771.22	234.91
771.55	234.81
771.87	234.76
772.20	234.67
772.52	234.67
772.85	234.67
773.17	234.59
773.50	234.52
773.82	234.40
774.15	234.30
774.47	234.16
774.80	234.04
775.12	233.91
775.45	233.82
775.77	233.72
776.09	233.65
776.42	233.56
776.74	233.50
777.07	233.41
777.39	233.34
777.72	233.22
778.04	233.20
778.36	233.08
778.69	233.00
779.01	232.91
779.33	232.74
779.66	232.55
779.98	232.47
780.31	232.39
780.63	232.35
780.95	232.27
781.28	232.18
781.60	232.09
781.92	232.02
782.25	231.98
782.57	231.93
782.89	231.86
783.22	231.80
783.54	231.69
783.86	231.65
784.19	231.53
784.51	231.52
784.83	231.39
785.16	231.35
785.48	231.27
785.80	231.22
786.12	231.14
786.45	231.08
786.77	231.01
787.09	230.93
