SpectraSuite Data File
++++++++++++++++++++++++++++++++++++
Date: Fri Feb 01 15:51:22 EST 2013
User: group
Dark Spectrum Present: No
Reference Spectrum Present: No
Number of Sampled Component Spectra: 1
Spectrometers: USB2E7196
Integration Time (usec): 35000 (USB2E7196)
Spectra Averaged: 100 (USB2E7196)
Boxcar Smoothing: 10 (USB2E7196)
Correct for Electrical Dark: No (USB2E7196)
Strobe/Lamp Enabled: No (USB2E7196)
Correct for Detector Non-linearity: No (USB2E7196)
Correct for Stray Light: No (USB2E7196)
Number of Pixels in Processed Spectrum: 2048
>>>>>Begin Processed Spectral Data<<<<<
339.09	0.00
339.48	215.10
339.86	216.13
340.24	217.73
340.63	218.25
341.01	221.94
341.39	222.33
341.78	223.67
342.16	223.81
342.54	225.17
342.93	213.30
343.31	224.07
343.69	224.59
344.07	225.07
344.46	225.52
344.84	225.91
345.22	226.14
345.60	226.38
345.99	226.53
346.37	226.72
346.75	226.79
347.13	226.88
347.52	226.87
347.90	226.93
348.28	226.94
348.66	226.95
349.05	226.96
349.43	227.01
349.81	227.07
350.19	227.10
350.57	227.19
350.96	227.23
351.34	227.33
351.72	227.40
352.10	227.46
352.48	227.49
352.87	227.56
353.25	227.62
353.63	227.66
354.01	227.73
354.39	227.76
354.77	227.84
355.15	227.89
355.54	227.98
355.92	228.03
356.30	228.14
356.68	228.27
357.06	228.33
357.44	228.35
357.82	228.41
358.20	228.50
358.58	228.57
358.97	228.65
359.35	228.74
359.73	228.85
360.11	228.90
360.49	228.96
360.87	229.01
361.25	229.06
361.63	229.12
362.01	229.16
362.39	229.19
362.77	229.23
363.15	229.29
363.53	229.30
363.91	229.29
364.29	229.26
364.67	229.17
365.05	229.19
365.43	229.20
365.81	229.20
366.19	229.20
366.57	229.17
366.95	229.13
367.33	229.07
367.71	229.01
368.09	229.03
368.47	229.00
368.85	228.98
369.23	228.96
369.61	228.90
369.99	228.89
370.37	228.90
370.75	228.91
371.13	228.82
371.51	228.77
371.89	228.74
372.27	228.68
372.65	228.64
373.03	228.60
373.41	228.55
373.78	228.47
374.16	228.36
374.54	228.30
374.92	228.25
375.30	228.21
375.68	228.13
376.06	228.05
376.44	227.98
376.82	227.89
377.19	227.84
377.57	227.77
377.95	227.68
378.33	227.58
378.71	227.46
379.09	227.41
379.47	227.36
379.84	227.27
380.22	227.20
380.60	227.12
380.98	227.04
381.36	226.99
381.73	226.92
382.11	226.90
382.49	226.83
382.87	226.76
383.25	226.67
383.62	226.76
384.00	226.69
384.38	226.65
384.76	226.62
385.13	226.60
385.51	226.57
385.89	226.51
386.27	226.49
386.64	226.46
387.02	226.42
387.40	226.36
387.78	226.34
388.15	226.33
388.53	226.32
388.91	226.33
389.29	226.30
389.66	226.29
390.04	226.23
390.42	226.24
390.79	226.21
391.17	226.20
391.55	226.08
391.92	226.06
392.30	226.09
392.68	226.06
393.05	226.07
393.43	226.05
393.81	226.08
394.18	226.07
394.56	226.07
394.94	226.10
395.31	226.12
395.69	226.19
396.06	226.25
396.44	226.29
396.82	226.30
397.19	226.36
397.57	226.40
397.95	226.50
398.32	226.53
398.70	226.61
399.07	226.72
399.45	226.75
399.82	226.84
400.20	226.90
400.58	227.00
400.95	227.04
401.33	227.15
401.70	227.31
402.08	227.42
402.45	227.56
402.83	227.67
403.20	227.81
403.58	227.90
403.95	228.01
404.33	228.13
404.71	228.24
405.08	228.47
405.46	228.62
405.83	228.72
406.21	228.87
406.58	229.06
406.96	229.20
407.33	229.41
407.70	229.60
408.08	229.85
408.45	230.04
408.83	230.29
409.20	230.50
409.58	230.63
409.95	230.85
410.33	231.10
410.70	231.35
411.08	231.63
411.45	231.93
411.82	232.23
412.20	232.58
412.57	233.05
412.95	233.33
413.32	233.72
413.69	234.15
414.07	234.56
414.44	235.02
414.82	235.52
415.19	236.05
415.56	236.61
415.94	237.14
416.31	237.75
416.68	238.38
417.06	239.08
417.43	239.78
417.81	240.58
418.18	241.33
418.55	242.16
418.93	243.01
419.30	243.89
419.67	244.81
420.04	245.74
420.42	246.67
420.79	247.86
421.16	249.01
421.54	250.22
421.91	251.43
422.28	252.64
422.66	253.96
423.03	255.26
423.40	256.58
423.77	258.00
424.15	259.46
424.52	260.93
424.89	262.55
425.26	264.11
425.64	265.54
426.01	267.13
426.38	268.81
426.75	270.46
427.13	272.19
427.50	273.99
427.87	275.93
428.24	277.81
428.61	279.54
428.99	281.47
429.36	283.56
429.73	285.64
430.10	287.64
430.47	289.69
430.85	291.81
431.22	294.07
431.59	296.43
431.96	298.68
432.33	301.17
432.70	303.56
433.08	306.36
433.45	308.98
433.82	311.59
434.19	314.50
434.56	317.38
434.93	320.03
435.30	322.69
435.68	325.53
436.05	328.35
436.42	331.15
436.79	333.72
437.16	336.43
437.53	339.26
437.90	342.12
438.27	344.90
438.64	347.75
439.01	350.32
439.38	352.58
439.75	354.79
440.13	357.28
440.50	359.60
440.87	361.49
441.24	363.47
441.61	365.59
441.98	367.07
442.35	368.84
442.72	370.71
443.09	372.53
443.46	373.54
443.83	374.16
444.20	374.67
444.57	375.47
444.94	375.74
445.31	376.05
445.68	376.42
446.05	376.44
446.42	376.10
446.79	375.68
447.16	375.24
447.53	374.85
447.90	373.71
448.27	372.60
448.64	371.01
449.01	369.87
449.37	367.97
449.74	366.07
450.11	363.82
450.48	361.36
450.85	358.81
451.22	356.68
451.59	354.66
451.96	352.71
452.33	350.11
452.70	347.81
453.07	345.02
453.43	342.09
453.80	339.34
454.17	336.61
454.54	334.07
454.91	331.35
455.28	328.71
455.65	326.20
456.02	323.73
456.38	321.54
456.75	318.86
457.12	316.56
457.49	314.31
457.86	312.17
458.23	310.29
458.59	308.21
458.96	306.12
459.33	304.22
459.70	302.36
460.07	300.88
460.43	299.13
460.80	297.53
461.17	296.14
461.54	294.60
461.91	293.18
462.27	291.74
462.64	290.48
463.01	289.13
463.38	287.83
463.74	286.43
464.11	285.27
464.48	284.25
464.85	283.18
465.21	282.33
465.58	281.37
465.95	280.31
466.32	279.40
466.68	278.50
467.05	277.60
467.42	276.69
467.78	275.73
468.15	274.84
468.52	274.15
468.88	273.25
469.25	272.51
469.62	271.91
469.98	271.23
470.35	270.60
470.72	269.99
471.08	269.33
471.45	268.81
471.82	268.29
472.18	267.69
472.55	267.23
472.92	266.70
473.28	266.23
473.65	265.76
474.02	265.34
474.38	264.95
474.75	264.61
475.11	264.26
475.48	264.01
475.85	263.77
476.21	263.54
476.58	263.37
476.94	263.22
477.31	263.04
477.67	262.91
478.04	262.78
478.41	262.71
478.77	262.78
479.14	262.70
479.50	262.69
479.87	262.76
480.23	262.85
480.60	262.98
480.96	263.05
481.33	263.28
481.69	263.47
482.06	263.67
482.42	263.92
482.79	264.18
483.15	264.51
483.52	264.89
483.88	265.22
484.25	265.64
484.61	266.09
484.98	266.55
485.34	267.09
485.71	267.68
486.07	268.36
486.44	268.90
486.80	269.64
487.17	270.38
487.53	271.23
487.90	272.08
488.26	272.97
488.62	273.98
488.99	274.98
489.35	276.05
489.72	277.18
490.08	278.37
490.44	279.63
490.81	280.97
491.17	282.34
491.54	283.88
491.90	285.39
492.26	287.04
492.63	288.77
492.99	290.56
493.36	292.47
493.72	294.50
494.08	296.59
494.45	298.84
494.81	301.24
495.17	303.66
495.54	306.22
495.90	308.94
496.26	311.75
496.63	314.72
496.99	317.84
497.35	321.14
497.72	324.54
498.08	328.01
498.44	331.69
498.80	335.62
499.17	339.67
499.53	343.86
499.89	348.25
500.26	352.75
500.62	357.44
500.98	362.40
501.34	367.46
501.71	372.79
502.07	378.30
502.43	383.88
502.79	389.66
503.16	395.74
503.52	401.97
503.88	408.39
504.24	414.99
504.60	421.92
504.97	428.99
505.33	436.27
505.69	444.02
506.05	451.76
506.41	459.58
506.78	467.70
507.14	476.19
507.50	484.91
507.86	493.94
508.22	503.07
508.59	512.27
508.95	521.85
509.31	531.76
509.67	541.73
510.03	552.03
510.39	562.57
510.75	573.35
511.12	584.31
511.48	595.59
511.84	607.08
512.20	618.52
512.56	630.50
512.92	642.72
513.28	655.03
513.64	667.53
514.00	680.23
514.37	693.19
514.73	706.18
515.09	719.25
515.45	732.51
515.81	746.14
516.17	760.12
516.53	774.20
516.89	788.29
517.25	802.53
517.61	816.96
517.97	831.46
518.33	845.93
518.69	860.71
519.05	875.67
519.41	890.77
519.77	906.28
520.13	921.70
520.49	937.07
520.85	952.54
521.21	968.26
521.57	984.48
521.93	1000.24
522.29	1016.63
522.65	1032.72
523.01	1048.97
523.37	1064.94
523.73	1081.09
524.09	1097.11
524.45	1113.41
524.81	1130.00
525.17	1146.78
525.53	1163.69
525.89	1180.47
526.25	1197.26
526.61	1213.74
526.97	1230.45
527.33	1246.85
527.68	1263.52
528.04	1280.07
528.40	1296.64
528.76	1313.63
529.12	1330.29
529.48	1347.16
529.84	1363.20
530.20	1379.96
530.56	1396.93
530.91	1414.43
531.27	1431.16
531.63	1447.70
531.99	1464.35
532.35	1480.37
532.71	1496.16
533.07	1512.40
533.42	1528.42
533.78	1544.38
534.14	1560.62
534.50	1576.09
534.86	1592.05
535.21	1607.17
535.57	1623.13
535.93	1638.65
536.29	1653.54
536.65	1668.47
537.00	1683.20
537.36	1698.51
537.72	1712.95
538.08	1727.33
538.44	1741.08
538.79	1754.97
539.15	1768.57
539.51	1782.28
539.87	1796.63
540.22	1810.47
540.58	1824.31
540.94	1837.61
541.29	1850.64
541.65	1863.23
542.01	1876.35
542.37	1888.72
542.72	1901.20
543.08	1912.66
543.44	1925.04
543.79	1936.17
544.15	1947.19
544.51	1958.81
544.87	1969.65
545.22	1980.47
545.58	1990.70
545.94	2000.46
546.29	2010.30
546.65	2020.33
547.01	2029.63
547.36	2038.27
547.72	2046.68
548.07	2054.40
548.43	2062.53
548.79	2070.56
549.14	2078.03
549.50	2085.34
549.86	2092.96
550.21	2100.18
550.57	2107.47
550.92	2114.08
551.28	2121.11
551.64	2128.22
551.99	2134.71
552.35	2140.97
552.70	2147.07
553.06	2153.07
553.41	2159.40
553.77	2165.52
554.13	2171.53
554.48	2177.62
554.84	2183.00
555.19	2188.25
555.55	2193.41
555.90	2197.97
556.26	2202.79
556.61	2207.77
556.97	2212.15
557.32	2216.17
557.68	2220.30
558.03	2224.73
558.39	2228.34
558.74	2232.88
559.10	2236.62
559.45	2240.24
559.81	2244.59
560.16	2248.43
560.52	2251.76
560.87	2255.22
561.23	2257.88
561.58	2260.83
561.94	2263.26
562.29	2265.66
562.64	2268.42
563.00	2270.95
563.35	2274.13
563.71	2277.22
564.06	2280.21
564.42	2283.11
564.77	2285.63
565.12	2287.75
565.48	2289.62
565.83	2291.46
566.19	2292.84
566.54	2293.92
566.89	2295.09
567.25	2295.57
567.60	2296.89
567.96	2298.42
568.31	2299.16
568.66	2300.22
569.02	2300.78
569.37	2301.09
569.72	2301.96
570.08	2302.04
570.43	2302.16
570.78	2301.67
571.14	2300.17
571.49	2298.91
571.84	2298.56
572.20	2297.50
572.55	2296.61
572.90	2295.01
573.26	2293.65
573.61	2291.94
573.96	2290.12
574.31	2287.11
574.67	2284.08
575.02	2280.56
575.37	2277.25
575.72	2273.63
576.08	2270.32
576.43	2267.06
576.78	2263.54
577.13	2260.44
577.49	2257.37
577.84	2253.85
578.19	2250.28
578.54	2246.66
578.90	2242.48
579.25	2236.87
579.60	2231.90
579.95	2226.91
580.30	2221.86
580.66	2216.72
581.01	2211.85
581.36	2206.85
581.71	2202.80
582.06	2198.43
582.42	2193.86
582.77	2188.51
583.12	2183.86
583.47	2179.11
583.82	2174.04
584.17	2168.58
584.53	2163.11
584.88	2157.45
585.23	2151.69
585.58	2146.20
585.93	2140.76
586.28	2135.94
586.63	2130.88
586.98	2125.70
587.34	2121.02
587.69	2116.25
588.04	2111.03
588.39	2105.27
588.74	2098.90
589.09	2092.59
589.44	2085.72
589.79	2079.85
590.14	2074.39
590.49	2067.72
590.84	2061.29
591.19	2055.30
591.54	2048.87
591.89	2041.37
592.25	2034.59
592.60	2027.48
592.95	2019.88
593.30	2012.49
593.65	2004.85
594.00	1997.80
594.35	1990.66
594.70	1982.54
595.05	1975.16
595.40	1967.81
595.75	1960.35
596.10	1953.96
596.45	1947.17
596.80	1940.96
597.15	1934.22
597.50	1926.89
597.85	1920.49
598.19	1913.83
598.54	1906.60
598.89	1900.17
599.24	1894.26
599.59	1887.52
599.94	1881.27
600.29	1874.88
600.64	1868.32
600.99	1860.92
601.34	1853.96
601.69	1847.08
602.04	1840.18
602.39	1832.86
602.74	1825.93
603.08	1819.28
603.43	1812.68
603.78	1805.35
604.13	1798.19
604.48	1790.89
604.83	1784.04
605.18	1777.03
605.53	1768.94
605.87	1760.89
606.22	1753.56
606.57	1745.70
606.92	1738.41
607.27	1731.13
607.62	1724.28
607.96	1717.00
608.31	1710.36
608.66	1702.80
609.01	1695.08
609.36	1687.55
609.70	1679.67
610.05	1671.60
610.40	1663.87
610.75	1655.51
611.10	1647.93
611.44	1639.51
611.79	1631.49
612.14	1622.85
612.49	1613.69
612.83	1605.41
613.18	1597.38
613.53	1589.15
613.88	1580.57
614.22	1572.32
614.57	1563.81
614.92	1555.74
615.27	1548.07
615.61	1539.76
615.96	1531.74
616.31	1524.12
616.65	1516.73
617.00	1509.04
617.35	1501.52
617.70	1493.07
618.04	1484.61
618.39	1476.39
618.74	1468.85
619.08	1460.50
619.43	1452.95
619.78	1446.05
620.12	1438.95
620.47	1431.36
620.82	1423.28
621.16	1415.94
621.51	1408.38
621.85	1400.69
622.20	1392.06
622.55	1383.72
622.89	1375.92
623.24	1368.39
623.59	1361.10
623.93	1353.68
624.28	1346.56
624.62	1338.96
624.97	1331.87
625.32	1325.13
625.66	1318.05
626.01	1310.84
626.35	1303.36
626.70	1295.68
627.04	1288.00
627.39	1280.14
627.73	1272.80
628.08	1265.92
628.43	1258.55
628.77	1251.08
629.12	1243.52
629.46	1236.47
629.81	1229.05
630.15	1221.70
630.50	1214.24
630.84	1206.01
631.19	1198.03
631.53	1190.42
631.88	1182.86
632.22	1175.22
632.57	1167.89
632.91	1160.46
633.26	1153.01
633.60	1145.74
633.95	1138.66
634.29	1131.67
634.64	1124.98
634.98	1117.59
635.32	1110.29
635.67	1103.79
636.01	1097.20
636.36	1090.41
636.70	1083.85
637.05	1077.38
637.39	1070.93
637.73	1064.32
638.08	1058.42
638.42	1052.38
638.77	1045.91
639.11	1039.27
639.45	1032.95
639.80	1026.32
640.14	1019.86
640.49	1013.33
640.83	1007.04
641.17	1000.74
641.52	994.35
641.86	987.96
642.20	982.08
642.55	975.90
642.89	969.33
643.23	962.72
643.58	956.91
643.92	950.76
644.26	944.55
644.61	938.54
644.95	932.62
645.29	926.03
645.64	919.23
645.98	912.99
646.32	907.25
646.66	901.16
647.01	895.32
647.35	889.54
647.69	883.72
648.04	878.17
648.38	872.31
648.72	866.18
649.06	860.01
649.41	854.11
649.75	847.97
650.09	842.03
650.43	836.24
650.78	830.09
651.12	824.10
651.46	818.39
651.80	812.61
652.14	807.18
652.49	801.84
652.83	796.72
653.17	790.94
653.51	785.15
653.85	779.80
654.20	774.13
654.54	768.12
654.88	762.38
655.22	756.43
655.56	750.87
655.90	745.55
656.25	740.31
656.59	735.06
656.93	730.15
657.27	724.96
657.61	719.60
657.95	714.53
658.29	709.41
658.64	704.15
658.98	698.87
659.32	693.38
659.66	688.16
660.00	682.83
660.34	677.91
660.68	673.07
661.02	667.95
661.36	663.25
661.70	658.78
662.05	654.42
662.39	650.17
662.73	645.66
663.07	641.29
663.41	636.90
663.75	632.33
664.09	627.70
664.43	623.31
664.77	619.18
665.11	614.97
665.45	610.89
665.79	606.90
666.13	602.75
666.47	598.69
666.81	594.48
667.15	590.45
667.49	586.51
667.83	582.71
668.17	578.80
668.51	574.74
668.85	570.70
669.19	566.86
669.53	562.96
669.87	559.07
670.21	555.33
670.55	551.61
670.89	548.24
671.23	544.84
671.57	541.32
671.91	537.73
672.25	534.17
672.58	530.68
672.92	527.17
673.26	524.02
673.60	520.87
673.94	517.80
674.28	514.86
674.62	511.91
674.96	508.78
675.30	505.88
675.64	502.94
675.97	500.20
676.31	497.30
676.65	494.37
676.99	491.69
677.33	488.93
677.67	486.15
678.01	483.03
678.34	480.01
678.68	477.23
679.02	474.50
679.36	471.72
679.70	468.95
680.04	466.20
680.37	463.30
680.71	460.52
681.05	457.87
681.39	455.14
681.73	452.50
682.06	449.88
682.40	447.32
682.74	444.78
683.08	442.17
683.42	439.59
683.75	437.10
684.09	434.50
684.43	431.97
684.77	429.48
685.10	427.19
685.44	424.96
685.78	422.55
686.12	420.20
686.45	417.91
686.79	415.66
687.13	413.49
687.46	411.31
687.80	409.10
688.14	406.91
688.48	404.83
688.81	402.56
689.15	400.41
689.49	398.28
689.82	396.21
690.16	394.14
690.50	392.16
690.83	390.28
691.17	388.32
691.51	386.36
691.84	384.54
692.18	382.57
692.52	380.54
692.85	378.65
693.19	376.80
693.52	375.01
693.86	373.21
694.20	371.45
694.53	369.67
694.87	367.91
695.21	366.15
695.54	364.35
695.88	362.70
696.21	361.05
696.55	359.36
696.88	357.69
697.22	356.09
697.56	354.51
697.89	352.82
698.23	351.23
698.56	349.67
698.90	348.09
699.23	346.45
699.57	344.87
699.90	343.37
700.24	341.86
700.58	340.35
700.91	338.87
701.25	337.40
701.58	336.02
701.92	334.65
702.25	333.25
702.59	331.87
702.92	330.52
703.26	329.21
703.59	327.95
703.93	326.78
704.26	325.55
704.60	324.24
704.93	322.96
705.26	321.73
705.60	320.52
705.93	319.34
706.27	318.30
706.60	317.28
706.94	316.18
707.27	315.05
707.61	313.94
707.94	312.92
708.27	311.86
708.61	310.81
708.94	309.76
709.28	308.78
709.61	307.83
709.94	306.88
710.28	305.85
710.61	304.86
710.95	303.79
711.28	302.85
711.61	301.90
711.95	301.00
712.28	300.03
712.61	299.06
712.95	298.14
713.28	297.24
713.61	296.33
713.95	295.46
714.28	294.60
714.61	293.75
714.95	292.85
715.28	291.96
715.61	291.09
715.95	290.25
716.28	289.42
716.61	288.57
716.95	287.74
717.28	287.00
717.61	286.22
717.94	285.45
718.28	284.63
718.61	283.90
718.94	283.18
719.27	282.54
719.61	281.88
719.94	281.23
720.27	280.48
720.60	279.83
720.94	279.15
721.27	278.57
721.60	277.99
721.93	277.38
722.27	276.86
722.60	276.26
722.93	275.69
723.26	275.13
723.59	274.58
723.93	274.04
724.26	273.47
724.59	272.91
724.92	272.40
725.25	271.90
725.59	271.40
725.92	270.84
726.25	270.32
726.58	269.85
726.91	269.33
727.24	268.87
727.57	268.39
727.91	267.90
728.24	267.43
728.57	266.92
728.90	266.51
729.23	266.01
729.56	265.62
729.89	265.16
730.22	264.65
730.55	264.14
730.89	263.66
731.22	263.19
731.55	262.76
731.88	262.35
732.21	261.94
732.54	261.49
732.87	261.11
733.20	260.73
733.53	260.34
733.86	259.97
734.19	259.60
734.52	259.23
734.85	258.90
735.18	258.48
735.51	258.15
735.84	257.77
736.17	257.41
736.50	256.99
736.83	256.74
737.16	256.45
737.49	256.16
737.82	255.83
738.15	255.51
738.48	255.16
738.81	254.83
739.14	254.51
739.47	254.15
739.80	253.84
740.13	253.53
740.46	253.17
740.79	252.86
741.12	252.50
741.45	252.16
741.78	251.84
742.11	251.55
742.44	251.25
742.77	250.95
743.10	250.63
743.43	250.30
743.75	249.94
744.08	249.75
744.41	249.48
744.74	249.23
745.07	248.95
745.40	248.71
745.73	248.46
746.06	248.18
746.39	247.95
746.71	247.69
747.04	247.41
747.37	247.15
747.70	246.90
748.03	246.67
748.36	246.49
748.68	246.24
749.01	245.98
749.34	245.71
749.67	245.48
750.00	245.27
750.33	245.13
750.65	244.88
750.98	244.54
751.31	244.31
751.64	244.10
751.97	243.97
752.29	243.75
752.62	243.48
752.95	243.31
753.28	243.12
753.60	242.90
753.93	242.71
754.26	242.54
754.59	242.33
754.91	242.17
755.24	241.95
755.57	241.77
755.90	241.60
756.22	241.45
756.55	241.26
756.88	241.09
757.20	240.87
757.53	240.68
757.86	240.49
758.19	240.35
758.51	240.16
758.84	239.94
759.17	239.79
759.49	239.65
759.82	239.46
760.15	239.28
760.47	239.13
760.80	238.97
761.13	238.83
761.45	238.68
761.78	238.51
762.11	238.36
762.43	238.20
762.76	238.05
763.08	237.91
763.41	237.80
763.74	237.67
764.06	237.52
764.39	237.39
764.71	237.25
765.04	237.11
765.37	237.00
765.69	236.85
766.02	236.72
766.34	236.59
766.67	236.48
767.00	236.41
767.32	236.34
767.65	236.27
767.97	236.15
768.30	236.05
768.62	235.94
768.95	235.82
769.27	235.72
769.60	235.63
769.92	235.53
770.25	235.39
770.57	235.29
770.90	235.21
771.22	235.11
771.55	235.04
771.87	234.94
772.20	234.87
772.52	234.87
772.85	234.89
773.17	234.81
773.50	234.69
773.82	234.60
774.15	234.46
774.47	234.31
774.80	234.19
775.12	234.10
775.45	234.01
775.77	233.97
776.09	233.91
776.42	233.83
776.74	233.76
777.07	233.68
777.39	233.59
777.72	233.50
778.04	233.47
778.36	233.38
778.69	233.32
779.01	233.24
779.33	233.08
779.66	232.89
779.98	232.80
780.31	232.74
780.63	232.69
780.95	232.64
781.28	232.57
781.60	232.51
781.92	232.46
782.25	232.43
782.57	232.35
782.89	232.29
783.22	232.21
783.54	232.14
783.86	232.09
784.19	232.01
784.51	231.99
784.83	231.89
785.16	231.82
785.48	231.80
785.80	231.75
786.12	231.71
786.45	231.64
786.77	231.66
787.09	231.58
