SpectraSuite Data File
++++++++++++++++++++++++++++++++++++
Date: Fri Feb 01 14:49:44 EST 2013
User: group
Dark Spectrum Present: No
Reference Spectrum Present: No
Number of Sampled Component Spectra: 1
Spectrometers: USB2E7196
Integration Time (usec): 35000 (USB2E7196)
Spectra Averaged: 100 (USB2E7196)
Boxcar Smoothing: 10 (USB2E7196)
Correct for Electrical Dark: No (USB2E7196)
Strobe/Lamp Enabled: No (USB2E7196)
Correct for Detector Non-linearity: No (USB2E7196)
Correct for Stray Light: No (USB2E7196)
Number of Pixels in Processed Spectrum: 2048
>>>>>Begin Processed Spectral Data<<<<<
339.09	0.00
339.48	216.13
339.86	217.24
340.24	218.49
340.63	220.00
341.01	223.11
341.39	222.92
341.78	223.96
342.16	225.20
342.54	225.61
342.93	214.16
343.31	224.96
343.69	225.47
344.07	225.96
344.46	226.41
344.84	226.80
345.22	227.01
345.60	227.24
345.99	227.47
346.37	227.59
346.75	227.69
347.13	227.76
347.52	227.81
347.90	227.84
348.28	227.85
348.66	227.90
349.05	227.90
349.43	227.95
349.81	227.99
350.19	228.02
350.57	228.05
350.96	228.16
351.34	228.26
351.72	228.37
352.10	228.48
352.48	228.52
352.87	228.58
353.25	228.64
353.63	228.74
354.01	228.78
354.39	228.86
354.77	228.96
355.15	229.06
355.54	229.11
355.92	229.14
356.30	229.24
356.68	229.37
357.06	229.46
357.44	229.53
357.82	229.60
358.20	229.68
358.58	229.77
358.97	229.82
359.35	229.89
359.73	229.95
360.11	229.97
360.49	230.02
360.87	230.03
361.25	230.11
361.63	230.14
362.01	230.19
362.39	230.23
362.77	230.23
363.15	230.22
363.53	230.25
363.91	230.30
364.29	230.29
364.67	230.18
365.05	230.17
365.43	230.17
365.81	230.16
366.19	230.19
366.57	230.18
366.95	230.15
367.33	230.11
367.71	230.09
368.09	230.09
368.47	230.06
368.85	230.03
369.23	230.05
369.61	229.99
369.99	229.97
370.37	229.95
370.75	229.96
371.13	229.90
371.51	229.83
371.89	229.78
372.27	229.72
372.65	229.71
373.03	229.64
373.41	229.56
373.78	229.48
374.16	229.38
374.54	229.28
374.92	229.19
375.30	229.16
375.68	229.07
376.06	228.99
376.44	228.90
376.82	228.84
377.19	228.73
377.57	228.63
377.95	228.50
378.33	228.41
378.71	228.26
379.09	228.21
379.47	228.14
379.84	228.05
380.22	227.97
380.60	227.86
380.98	227.80
381.36	227.72
381.73	227.66
382.11	227.56
382.49	227.55
382.87	227.46
383.25	227.37
383.62	227.42
384.00	227.34
384.38	227.29
384.76	227.28
385.13	227.27
385.51	227.19
385.89	227.13
386.27	227.07
386.64	227.03
387.02	226.97
387.40	226.95
387.78	226.90
388.15	226.89
388.53	226.87
388.91	226.86
389.29	226.83
389.66	226.82
390.04	226.80
390.42	226.75
390.79	226.77
391.17	226.76
391.55	226.64
391.92	226.64
392.30	226.63
392.68	226.59
393.05	226.57
393.43	226.60
393.81	226.64
394.18	226.65
394.56	226.72
394.94	226.78
395.31	226.79
395.69	226.87
396.06	226.89
396.44	226.91
396.82	226.93
397.19	227.03
397.57	227.10
397.95	227.18
398.32	227.25
398.70	227.32
399.07	227.41
399.45	227.47
399.82	227.57
400.20	227.67
400.58	227.76
400.95	227.80
401.33	227.93
401.70	228.12
402.08	228.23
402.45	228.31
402.83	228.43
403.20	228.56
403.58	228.68
403.95	228.86
404.33	229.03
404.71	229.21
405.08	229.39
405.46	229.55
405.83	229.75
406.21	229.93
406.58	230.16
406.96	230.35
407.33	230.58
407.70	230.78
408.08	231.04
408.45	231.28
408.83	231.57
409.20	231.81
409.58	231.99
409.95	232.30
410.33	232.59
410.70	232.88
411.08	233.21
411.45	233.51
411.82	233.83
412.20	234.18
412.57	234.58
412.95	234.86
413.32	235.26
413.69	235.65
414.07	236.09
414.44	236.54
414.82	237.02
415.19	237.56
415.56	238.08
415.94	238.62
416.31	239.27
416.68	239.88
417.06	240.60
417.43	241.28
417.81	242.02
418.18	242.77
418.55	243.58
418.93	244.44
419.30	245.36
419.67	246.29
420.04	247.27
420.42	248.25
420.79	249.45
421.16	250.60
421.54	251.79
421.91	252.99
422.28	254.22
422.66	255.53
423.03	256.82
423.40	258.16
423.77	259.57
424.15	260.98
424.52	262.46
424.89	264.06
425.26	265.61
425.64	267.04
426.01	268.63
426.38	270.28
426.75	271.93
427.13	273.59
427.50	275.34
427.87	277.17
428.24	279.00
428.61	280.73
428.99	282.64
429.36	284.72
429.73	286.74
430.10	288.76
430.47	290.80
430.85	292.91
431.22	295.14
431.59	297.50
431.96	299.71
432.33	302.15
432.70	304.51
433.08	307.28
433.45	309.89
433.82	312.47
434.19	315.33
434.56	318.13
434.93	320.76
435.30	323.36
435.68	326.26
436.05	329.04
436.42	331.79
436.79	334.30
437.16	336.97
437.53	339.80
437.90	342.55
438.27	345.30
438.64	348.07
439.01	350.63
439.38	352.86
439.75	355.02
440.13	357.55
440.50	359.83
440.87	361.67
441.24	363.60
441.61	365.80
441.98	367.27
442.35	369.05
442.72	370.93
443.09	372.74
443.46	373.71
443.83	374.37
444.20	374.88
444.57	375.74
444.94	376.09
445.31	376.44
445.68	376.83
446.05	376.92
446.42	376.56
446.79	376.18
447.16	375.75
447.53	375.46
447.90	374.29
448.27	373.20
448.64	371.65
449.01	370.57
449.37	368.61
449.74	366.74
450.11	364.53
450.48	362.08
450.85	359.61
451.22	357.48
451.59	355.48
451.96	353.57
452.33	350.98
452.70	348.59
453.07	345.79
453.43	342.92
453.80	340.17
454.17	337.50
454.54	334.98
454.91	332.24
455.28	329.58
455.65	327.07
456.02	324.61
456.38	322.50
456.75	319.86
457.12	317.61
457.49	315.37
457.86	313.20
458.23	311.35
458.59	309.27
458.96	307.18
459.33	305.33
459.70	303.47
460.07	301.95
460.43	300.24
460.80	298.61
461.17	297.19
461.54	295.66
461.91	294.24
462.27	292.83
462.64	291.58
463.01	290.21
463.38	288.95
463.74	287.58
464.11	286.37
464.48	285.31
464.85	284.18
465.21	283.34
465.58	282.42
465.95	281.29
466.32	280.38
466.68	279.49
467.05	278.55
467.42	277.61
467.78	276.67
468.15	275.78
468.52	275.08
468.88	274.20
469.25	273.45
469.62	272.84
469.98	272.08
470.35	271.45
470.72	270.84
471.08	270.18
471.45	269.59
471.82	269.02
472.18	268.38
472.55	267.91
472.92	267.38
473.28	266.88
473.65	266.41
474.02	265.93
474.38	265.55
474.75	265.18
475.11	264.82
475.48	264.53
475.85	264.29
476.21	264.05
476.58	263.84
476.94	263.65
477.31	263.46
477.67	263.31
478.04	263.17
478.41	263.08
478.77	263.07
479.14	263.02
479.50	262.99
479.87	263.08
480.23	263.15
480.60	263.15
480.96	263.23
481.33	263.44
481.69	263.63
482.06	263.80
482.42	264.06
482.79	264.30
483.15	264.59
483.52	264.93
483.88	265.30
484.25	265.68
484.61	266.10
484.98	266.51
485.34	267.04
485.71	267.63
486.07	268.25
486.44	268.78
486.80	269.46
487.17	270.23
487.53	271.03
487.90	271.87
488.26	272.79
488.62	273.77
488.99	274.71
489.35	275.74
489.72	276.88
490.08	278.06
490.44	279.30
490.81	280.66
491.17	281.98
491.54	283.42
491.90	284.96
492.26	286.58
492.63	288.33
492.99	290.13
493.36	292.01
493.72	294.04
494.08	296.15
494.45	298.40
494.81	300.73
495.17	303.11
495.54	305.69
495.90	308.35
496.26	311.09
496.63	314.04
496.99	317.13
497.35	320.35
497.72	323.69
498.08	327.21
498.44	330.81
498.80	334.69
499.17	338.68
499.53	342.83
499.89	347.17
500.26	351.60
500.62	356.22
500.98	361.12
501.34	366.16
501.71	371.47
502.07	376.87
502.43	382.42
502.79	388.24
503.16	394.23
503.52	400.50
503.88	406.93
504.24	413.52
504.60	420.41
504.97	427.48
505.33	434.79
505.69	442.50
506.05	450.25
506.41	458.11
506.78	466.25
507.14	474.63
507.50	483.27
507.86	492.24
508.22	501.45
508.59	510.62
508.95	520.12
509.31	529.90
509.67	539.97
510.03	550.27
510.39	560.79
510.75	571.62
511.12	582.55
511.48	593.77
511.84	605.23
512.20	616.69
512.56	628.62
512.92	640.67
513.28	652.85
513.64	665.32
514.00	678.01
514.37	690.87
514.73	703.91
515.09	716.91
515.45	730.23
515.81	743.75
516.17	757.71
516.53	771.87
516.89	786.06
517.25	800.25
517.61	814.61
517.97	828.97
518.33	843.30
518.69	858.01
519.05	873.01
519.41	888.14
519.77	903.67
520.13	919.09
520.49	934.52
520.85	949.98
521.21	965.68
521.57	981.96
521.93	997.81
522.29	1014.19
522.65	1030.46
523.01	1046.63
523.37	1062.74
523.73	1078.93
524.09	1095.00
524.45	1111.37
524.81	1128.03
525.17	1144.94
525.53	1162.02
525.89	1178.98
526.25	1195.91
526.61	1212.28
526.97	1229.02
527.33	1245.57
527.68	1262.27
528.04	1278.88
528.40	1295.64
528.76	1312.75
529.12	1329.34
529.48	1346.27
529.84	1362.35
530.20	1379.10
530.56	1396.17
530.91	1413.65
531.27	1430.50
531.63	1446.99
531.99	1463.59
532.35	1479.57
532.71	1495.40
533.07	1511.73
533.42	1527.68
533.78	1543.64
534.14	1560.03
534.50	1575.38
534.86	1591.29
535.21	1606.42
535.57	1622.40
535.93	1637.81
536.29	1652.61
536.65	1667.69
537.00	1682.56
537.36	1697.87
537.72	1712.44
538.08	1727.00
538.44	1740.71
538.79	1754.62
539.15	1768.37
539.51	1782.09
539.87	1796.56
540.22	1810.45
540.58	1824.08
540.94	1837.46
541.29	1850.54
541.65	1863.14
542.01	1876.46
542.37	1888.82
542.72	1901.31
543.08	1913.16
543.44	1925.60
543.79	1936.86
544.15	1947.89
544.51	1959.45
544.87	1970.38
545.22	1981.17
545.58	1991.28
545.94	2001.05
546.29	2010.96
546.65	2020.83
547.01	2030.07
547.36	2038.83
547.72	2047.23
548.07	2055.30
548.43	2063.40
548.79	2071.34
549.14	2079.03
549.50	2086.50
549.86	2094.10
550.21	2101.40
550.57	2108.44
550.92	2115.03
551.28	2122.08
551.64	2129.15
551.99	2135.59
552.35	2141.76
552.70	2147.75
553.06	2153.74
553.41	2159.89
553.77	2165.85
554.13	2171.85
554.48	2177.92
554.84	2183.09
555.19	2188.42
555.55	2193.28
555.90	2197.78
556.26	2202.48
556.61	2207.00
556.97	2210.97
557.32	2214.94
557.68	2218.91
558.03	2223.09
558.39	2226.64
558.74	2231.05
559.10	2234.74
559.45	2238.12
559.81	2242.43
560.16	2246.13
560.52	2249.10
560.87	2252.58
561.23	2254.99
561.58	2257.66
561.94	2259.95
562.29	2262.29
562.64	2264.78
563.00	2267.26
563.35	2270.66
563.71	2273.62
564.06	2276.56
564.42	2279.37
564.77	2281.85
565.12	2284.01
565.48	2285.60
565.83	2287.22
566.19	2288.35
566.54	2289.16
566.89	2290.18
567.25	2290.42
567.60	2291.55
567.96	2292.92
568.31	2293.52
568.66	2294.42
569.02	2294.76
569.37	2294.95
569.72	2295.55
570.08	2295.38
570.43	2295.13
570.78	2294.00
571.14	2292.27
571.49	2290.72
571.84	2290.07
572.20	2288.40
572.55	2286.94
572.90	2285.23
573.26	2283.59
573.61	2281.67
573.96	2279.59
574.31	2276.33
574.67	2273.01
575.02	2269.08
575.37	2265.53
575.72	2261.43
576.08	2257.83
576.43	2254.40
576.78	2250.48
577.13	2247.01
577.49	2243.51
577.84	2239.89
578.19	2236.00
578.54	2232.13
578.90	2227.64
579.25	2221.91
579.60	2217.03
579.95	2211.85
580.30	2206.54
580.66	2201.10
581.01	2195.88
581.36	2190.66
581.71	2186.36
582.06	2181.90
582.42	2177.39
582.77	2172.00
583.12	2167.21
583.47	2162.30
583.82	2157.10
584.17	2151.66
584.53	2145.92
584.88	2140.16
585.23	2134.08
585.58	2128.49
585.93	2122.86
586.28	2118.09
586.63	2112.93
586.98	2107.64
587.34	2102.95
587.69	2097.98
588.04	2092.58
588.39	2086.80
588.74	2080.25
589.09	2073.95
589.44	2066.86
589.79	2060.59
590.14	2054.78
590.49	2048.02
590.84	2041.34
591.19	2035.06
591.54	2028.57
591.89	2021.18
592.25	2014.32
592.60	2007.10
592.95	1999.41
593.30	1991.94
593.65	1984.07
594.00	1976.92
594.35	1969.40
594.70	1961.15
595.05	1953.71
595.40	1946.47
595.75	1938.96
596.10	1932.66
596.45	1925.74
596.80	1919.46
597.15	1912.74
597.50	1905.57
597.85	1899.09
598.19	1892.64
598.54	1885.58
598.89	1878.78
599.24	1872.82
599.59	1866.24
599.94	1859.98
600.29	1853.57
600.64	1847.00
600.99	1839.62
601.34	1832.65
601.69	1825.76
602.04	1818.89
602.39	1811.70
602.74	1804.78
603.08	1797.98
603.43	1791.30
603.78	1784.16
604.13	1776.93
604.48	1769.78
604.83	1763.13
605.18	1756.27
605.53	1748.19
605.87	1740.14
606.22	1733.06
606.57	1725.18
606.92	1717.73
607.27	1710.50
607.62	1703.56
607.96	1696.26
608.31	1689.71
608.66	1682.11
609.01	1674.59
609.36	1667.14
609.70	1659.21
610.05	1651.35
610.40	1643.89
610.75	1635.60
611.10	1627.93
611.44	1619.83
611.79	1611.87
612.14	1603.22
612.49	1594.19
612.83	1586.05
613.18	1578.08
613.53	1570.01
613.88	1561.59
614.22	1553.58
614.57	1545.08
614.92	1537.36
615.27	1530.03
615.61	1521.71
615.96	1513.86
616.31	1506.29
616.65	1499.07
617.00	1491.56
617.35	1483.91
617.70	1475.59
618.04	1467.14
618.39	1459.03
618.74	1451.47
619.08	1443.34
619.43	1435.91
619.78	1429.11
620.12	1421.98
620.47	1414.58
620.82	1406.49
621.16	1399.21
621.51	1391.52
621.85	1384.16
622.20	1375.65
622.55	1367.40
622.89	1359.80
623.24	1352.37
623.59	1345.18
623.93	1337.74
624.28	1330.65
624.62	1323.32
624.97	1316.18
625.32	1309.58
625.66	1302.70
626.01	1295.57
626.35	1288.19
626.70	1280.54
627.04	1272.92
627.39	1265.26
627.73	1258.01
628.08	1251.25
628.43	1244.04
628.77	1236.82
629.12	1229.23
629.46	1222.20
629.81	1214.77
630.15	1207.62
630.50	1200.30
630.84	1192.26
631.19	1184.47
631.53	1177.07
631.88	1169.52
632.22	1162.03
632.57	1154.88
632.91	1147.51
633.26	1140.25
633.60	1133.00
633.95	1126.05
634.29	1119.12
634.64	1112.50
634.98	1105.31
635.32	1098.32
635.67	1091.81
636.01	1085.38
636.36	1078.78
636.70	1072.42
637.05	1066.01
637.39	1059.74
637.73	1053.39
638.08	1047.61
638.42	1041.71
638.77	1035.31
639.11	1028.93
639.45	1022.69
639.80	1016.13
640.14	1009.79
640.49	1003.41
640.83	997.21
641.17	990.97
641.52	984.76
641.86	978.46
642.20	972.68
642.55	966.41
642.89	960.00
643.23	953.51
643.58	947.85
643.92	941.76
644.26	935.85
644.61	929.82
644.95	923.80
645.29	917.26
645.64	910.61
645.98	904.40
646.32	898.61
646.66	892.66
647.01	886.95
647.35	881.27
647.69	875.48
648.04	869.96
648.38	864.29
648.72	858.38
649.06	852.39
649.41	846.55
649.75	840.69
650.09	834.81
650.43	829.06
650.78	822.97
651.12	816.99
651.46	811.25
651.80	805.56
652.14	800.28
652.49	794.96
652.83	789.82
653.17	784.21
653.51	778.54
653.85	773.18
654.20	767.58
654.54	761.67
654.88	755.96
655.22	750.21
655.56	744.61
655.90	739.11
656.25	733.92
656.59	728.57
656.93	723.50
657.27	718.41
657.61	713.04
657.95	708.03
658.29	703.01
658.64	697.80
658.98	692.54
659.32	687.09
659.66	682.01
660.00	676.77
660.34	671.93
660.68	667.10
661.02	662.15
661.36	657.46
661.70	652.99
662.05	648.68
662.39	644.40
662.73	639.97
663.07	635.73
663.41	631.34
663.75	626.90
664.09	622.37
664.43	618.05
664.77	613.99
665.11	609.74
665.45	605.68
665.79	601.72
666.13	597.64
666.47	593.65
666.81	589.48
667.15	585.44
667.49	581.51
667.83	577.73
668.17	573.85
668.51	569.85
668.85	565.88
669.19	562.14
669.53	558.40
669.87	554.56
670.21	550.89
670.55	547.29
670.89	543.99
671.23	540.61
671.57	537.12
671.91	533.69
672.25	530.30
672.58	526.88
672.92	523.50
673.26	520.47
673.60	517.36
673.94	514.30
674.28	511.41
674.62	508.57
674.96	505.49
675.30	502.66
675.64	499.86
675.97	497.19
676.31	494.35
676.65	491.44
676.99	488.83
677.33	486.05
677.67	483.32
678.01	480.29
678.34	477.35
678.68	474.57
679.02	471.80
679.36	469.04
679.70	466.35
680.04	463.67
680.37	460.83
680.71	458.12
681.05	455.58
681.39	452.89
681.73	450.29
682.06	447.85
682.40	445.27
682.74	442.74
683.08	440.21
683.42	437.60
683.75	435.13
684.09	432.62
684.43	430.15
684.77	427.72
685.10	425.44
685.44	423.23
685.78	420.92
686.12	418.67
686.45	416.43
686.79	414.18
687.13	412.01
687.46	409.92
687.80	407.77
688.14	405.59
688.48	403.64
688.81	401.44
689.15	399.32
689.49	397.26
689.82	395.27
690.16	393.21
690.50	391.30
690.83	389.40
691.17	387.42
691.51	385.58
691.84	383.74
692.18	381.83
692.52	379.90
692.85	378.05
693.19	376.25
693.52	374.44
693.86	372.67
694.20	370.91
694.53	369.08
694.87	367.29
695.21	365.51
695.54	363.68
695.88	362.01
696.21	360.30
696.55	358.61
696.88	356.92
697.22	355.30
697.56	353.70
697.89	352.02
698.23	350.39
698.56	348.75
698.90	347.15
699.23	345.52
699.57	344.00
699.90	342.47
700.24	340.89
700.58	339.41
700.91	337.92
701.25	336.50
701.58	335.20
701.92	333.80
702.25	332.47
702.59	331.10
702.92	329.71
703.26	328.39
703.59	327.17
703.93	325.98
704.26	324.77
704.60	323.49
704.93	322.28
705.26	321.08
705.60	319.95
705.93	318.84
706.27	317.82
706.60	316.76
706.94	315.70
707.27	314.59
707.61	313.54
707.94	312.51
708.27	311.43
708.61	310.34
708.94	309.37
709.28	308.37
709.61	307.43
709.94	306.52
710.28	305.58
710.61	304.61
710.95	303.57
711.28	302.64
711.61	301.73
711.95	300.80
712.28	299.88
712.61	298.91
712.95	297.99
713.28	297.11
713.61	296.22
713.95	295.36
714.28	294.54
714.61	293.68
714.95	292.82
715.28	292.01
715.61	291.17
715.95	290.35
716.28	289.49
716.61	288.69
716.95	287.88
717.28	287.11
717.61	286.38
717.94	285.67
718.28	284.89
718.61	284.18
718.94	283.55
719.27	282.95
719.61	282.37
719.94	281.71
720.27	281.03
720.60	280.37
720.94	279.78
721.27	279.20
721.60	278.69
721.93	278.08
722.27	277.52
722.60	276.98
722.93	276.42
723.26	275.91
723.59	275.37
723.93	274.83
724.26	274.29
724.59	273.69
724.92	273.18
725.25	272.71
725.59	272.17
725.92	271.66
726.25	271.13
726.58	270.62
726.91	270.14
727.24	269.69
727.57	269.25
727.91	268.71
728.24	268.23
728.57	267.73
728.90	267.32
729.23	266.84
729.56	266.43
729.89	265.94
730.22	265.46
730.55	265.01
730.89	264.57
731.22	264.12
731.55	263.71
731.88	263.26
732.21	262.78
732.54	262.37
732.87	261.98
733.20	261.59
733.53	261.20
733.86	260.82
734.19	260.43
734.52	260.03
734.85	259.71
735.18	259.29
735.51	258.90
735.84	258.53
736.17	258.20
736.50	257.78
736.83	257.58
737.16	257.23
737.49	256.86
737.82	256.51
738.15	256.16
738.48	255.78
738.81	255.47
739.14	255.18
739.47	254.85
739.80	254.50
740.13	254.17
740.46	253.82
740.79	253.48
741.12	253.17
741.45	252.82
741.78	252.48
742.11	252.20
742.44	251.88
742.77	251.59
743.10	251.29
743.43	250.94
743.75	250.55
744.08	250.42
744.41	250.15
744.74	249.91
745.07	249.63
745.40	249.41
745.73	249.14
746.06	248.85
746.39	248.61
746.71	248.37
747.04	248.09
747.37	247.86
747.70	247.61
748.03	247.35
748.36	247.17
748.68	246.93
749.01	246.69
749.34	246.49
749.67	246.25
750.00	246.01
750.33	245.87
750.65	245.66
750.98	245.34
751.31	245.15
751.64	244.90
751.97	244.77
752.29	244.55
752.62	244.32
752.95	244.15
753.28	243.91
753.60	243.68
753.93	243.53
754.26	243.32
754.59	243.14
754.91	242.95
755.24	242.72
755.57	242.58
755.90	242.41
756.22	242.22
756.55	242.04
756.88	241.86
757.20	241.64
757.53	241.49
757.86	241.34
758.19	241.18
758.51	241.08
758.84	240.86
759.17	240.74
759.49	240.63
759.82	240.54
760.15	240.42
760.47	240.31
760.80	240.13
761.13	240.02
761.45	239.87
761.78	239.75
762.11	239.66
762.43	239.48
762.76	239.33
763.08	239.22
763.41	239.10
763.74	239.01
764.06	238.90
764.39	238.73
764.71	238.56
765.04	238.42
765.37	238.27
765.69	238.14
766.02	238.00
766.34	237.88
766.67	237.69
767.00	237.61
767.32	237.56
767.65	237.50
767.97	237.43
768.30	237.30
768.62	237.19
768.95	237.06
769.27	236.96
769.60	236.93
769.92	236.78
770.25	236.67
770.57	236.49
770.90	236.39
771.22	236.31
771.55	236.24
771.87	236.17
772.20	236.06
772.52	236.06
772.85	236.02
773.17	235.91
773.50	235.84
773.82	235.74
774.15	235.59
774.47	235.47
774.80	235.34
775.12	235.27
775.45	235.18
775.77	235.07
776.09	234.99
776.42	234.85
776.74	234.82
777.07	234.71
777.39	234.64
777.72	234.57
778.04	234.48
778.36	234.39
778.69	234.31
779.01	234.24
779.33	234.07
779.66	233.91
779.98	233.83
780.31	233.73
780.63	233.68
780.95	233.61
781.28	233.53
781.60	233.45
781.92	233.37
782.25	233.29
782.57	233.21
782.89	233.14
783.22	233.06
783.54	232.97
783.86	232.92
784.19	232.87
784.51	232.81
784.83	232.73
785.16	232.68
785.48	232.64
785.80	232.58
786.12	232.54
786.45	232.51
786.77	232.45
787.09	232.41
