SpectraSuite Data File
++++++++++++++++++++++++++++++++++++
Date: Fri Feb 01 17:19:40 EST 2013
User: group
Dark Spectrum Present: No
Reference Spectrum Present: No
Number of Sampled Component Spectra: 1
Spectrometers: USB2E7196
Integration Time (usec): 35000 (USB2E7196)
Spectra Averaged: 100 (USB2E7196)
Boxcar Smoothing: 10 (USB2E7196)
Correct for Electrical Dark: No (USB2E7196)
Strobe/Lamp Enabled: No (USB2E7196)
Correct for Detector Non-linearity: No (USB2E7196)
Correct for Stray Light: No (USB2E7196)
Number of Pixels in Processed Spectrum: 2048
>>>>>Begin Processed Spectral Data<<<<<
339.09	0.00
339.48	212.65
339.86	214.84
340.24	215.81
340.63	217.73
341.01	220.38
341.39	219.65
341.78	220.80
342.16	222.45
342.54	222.81
342.93	211.40
343.31	222.08
343.69	222.63
344.07	223.06
344.46	223.47
344.84	223.83
345.22	224.04
345.60	224.29
345.99	224.50
346.37	224.66
346.75	224.76
347.13	224.81
347.52	224.88
347.90	224.95
348.28	224.99
348.66	225.02
349.05	225.05
349.43	225.15
349.81	225.17
350.19	225.20
350.57	225.25
350.96	225.31
351.34	225.38
351.72	225.48
352.10	225.61
352.48	225.69
352.87	225.75
353.25	225.85
353.63	225.93
354.01	225.99
354.39	226.05
354.77	226.14
355.15	226.28
355.54	226.34
355.92	226.39
356.30	226.49
356.68	226.61
357.06	226.68
357.44	226.69
357.82	226.72
358.20	226.80
358.58	226.85
358.97	226.91
359.35	227.00
359.73	227.06
360.11	227.14
360.49	227.20
360.87	227.24
361.25	227.27
361.63	227.34
362.01	227.39
362.39	227.39
362.77	227.41
363.15	227.43
363.53	227.45
363.91	227.46
364.29	227.49
364.67	227.42
365.05	227.45
365.43	227.48
365.81	227.54
366.19	227.57
366.57	227.62
366.95	227.63
367.33	227.60
367.71	227.61
368.09	227.60
368.47	227.59
368.85	227.59
369.23	227.58
369.61	227.53
369.99	227.51
370.37	227.51
370.75	227.54
371.13	227.47
371.51	227.43
371.89	227.42
372.27	227.37
372.65	227.31
373.03	227.26
373.41	227.20
373.78	227.13
374.16	227.03
374.54	226.94
374.92	226.90
375.30	226.83
375.68	226.76
376.06	226.73
376.44	226.68
376.82	226.59
377.19	226.54
377.57	226.51
377.95	226.46
378.33	226.38
378.71	226.25
379.09	226.21
379.47	226.16
379.84	226.02
380.22	225.94
380.60	225.87
380.98	225.80
381.36	225.74
381.73	225.69
382.11	225.67
382.49	225.60
382.87	225.49
383.25	225.46
383.62	225.48
384.00	225.36
384.38	225.29
384.76	225.28
385.13	225.24
385.51	225.21
385.89	225.13
386.27	225.10
386.64	225.08
387.02	224.99
387.40	224.96
387.78	225.00
388.15	224.97
388.53	224.93
388.91	224.89
389.29	224.87
389.66	224.87
390.04	224.85
390.42	224.84
390.79	224.86
391.17	224.81
391.55	224.71
391.92	224.70
392.30	224.70
392.68	224.69
393.05	224.68
393.43	224.63
393.81	224.64
394.18	224.65
394.56	224.65
394.94	224.72
395.31	224.71
395.69	224.76
396.06	224.81
396.44	224.86
396.82	224.88
397.19	224.94
397.57	224.94
397.95	224.97
398.32	224.98
398.70	225.01
399.07	225.09
399.45	225.13
399.82	225.16
400.20	225.21
400.58	225.25
400.95	225.28
401.33	225.39
401.70	225.53
402.08	225.60
402.45	225.71
402.83	225.80
403.20	225.91
403.58	225.95
403.95	226.08
404.33	226.21
404.71	226.33
405.08	226.50
405.46	226.65
405.83	226.77
406.21	226.93
406.58	227.12
406.96	227.27
407.33	227.46
407.70	227.69
408.08	227.95
408.45	228.20
408.83	228.42
409.20	228.64
409.58	228.80
409.95	229.04
410.33	229.33
410.70	229.58
411.08	229.87
411.45	230.18
411.82	230.46
412.20	230.82
412.57	231.26
412.95	231.53
413.32	231.94
413.69	232.36
414.07	232.82
414.44	233.23
414.82	233.73
415.19	234.28
415.56	234.82
415.94	235.38
416.31	235.99
416.68	236.65
417.06	237.35
417.43	238.06
417.81	238.87
418.18	239.64
418.55	240.50
418.93	241.40
419.30	242.38
419.67	243.37
420.04	244.34
420.42	245.33
420.79	246.57
421.16	247.75
421.54	248.99
421.91	250.24
422.28	251.56
422.66	252.94
423.03	254.29
423.40	255.67
423.77	257.17
424.15	258.67
424.52	260.21
424.89	261.86
425.26	263.50
425.64	264.97
426.01	266.62
426.38	268.38
426.75	270.07
427.13	271.84
427.50	273.69
427.87	275.66
428.24	277.58
428.61	279.39
428.99	281.41
429.36	283.57
429.73	285.73
430.10	287.81
430.47	289.91
430.85	292.10
431.22	294.43
431.59	296.85
431.96	299.15
432.33	301.69
432.70	304.17
433.08	307.05
433.45	309.75
433.82	312.41
434.19	315.39
434.56	318.30
434.93	321.01
435.30	323.69
435.68	326.64
436.05	329.56
436.42	332.45
436.79	335.02
437.16	337.81
437.53	340.69
437.90	343.63
438.27	346.47
438.64	349.41
439.01	352.08
439.38	354.35
439.75	356.59
440.13	359.17
440.50	361.58
440.87	363.49
441.24	365.58
441.61	367.86
441.98	369.40
442.35	371.25
442.72	373.20
443.09	375.04
443.46	376.05
443.83	376.70
444.20	377.19
444.57	378.07
444.94	378.36
445.31	378.78
445.68	379.13
446.05	379.20
446.42	378.81
446.79	378.40
447.16	378.07
447.53	377.77
447.90	376.68
448.27	375.48
448.64	373.85
449.01	372.72
449.37	370.69
449.74	368.74
450.11	366.49
450.48	363.95
450.85	361.38
451.22	359.24
451.59	357.15
451.96	355.17
452.33	352.50
452.70	350.09
453.07	347.18
453.43	344.21
453.80	341.38
454.17	338.63
454.54	335.97
454.91	333.10
455.28	330.32
455.65	327.70
456.02	325.20
456.38	323.01
456.75	320.20
457.12	317.89
457.49	315.58
457.86	313.35
458.23	311.41
458.59	309.28
458.96	307.10
459.33	305.18
459.70	303.28
460.07	301.73
460.43	299.96
460.80	298.23
461.17	296.78
461.54	295.27
461.91	293.78
462.27	292.30
462.64	291.03
463.01	289.62
463.38	288.23
463.74	286.80
464.11	285.59
464.48	284.51
464.85	283.30
465.21	282.39
465.58	281.40
465.95	280.26
466.32	279.35
466.68	278.45
467.05	277.53
467.42	276.58
467.78	275.62
468.15	274.71
468.52	274.05
468.88	273.14
469.25	272.32
469.62	271.67
469.98	271.02
470.35	270.33
470.72	269.74
471.08	269.07
471.45	268.51
471.82	267.95
472.18	267.35
472.55	266.95
472.92	266.43
473.28	265.97
473.65	265.56
474.02	265.10
474.38	264.71
474.75	264.37
475.11	264.05
475.48	263.80
475.85	263.56
476.21	263.28
476.58	263.12
476.94	262.98
477.31	262.79
477.67	262.60
478.04	262.51
478.41	262.45
478.77	262.50
479.14	262.46
479.50	262.48
479.87	262.57
480.23	262.67
480.60	262.74
480.96	262.80
481.33	262.96
481.69	263.16
482.06	263.36
482.42	263.58
482.79	263.84
483.15	264.17
483.52	264.57
483.88	264.94
484.25	265.34
484.61	265.76
484.98	266.24
485.34	266.83
485.71	267.40
486.07	268.03
486.44	268.62
486.80	269.32
487.17	270.06
487.53	270.86
487.90	271.67
488.26	272.59
488.62	273.62
488.99	274.62
489.35	275.67
489.72	276.79
490.08	277.96
490.44	279.20
490.81	280.54
491.17	281.87
491.54	283.35
491.90	284.89
492.26	286.55
492.63	288.26
492.99	290.05
493.36	291.94
493.72	293.96
494.08	296.04
494.45	298.30
494.81	300.66
495.17	303.13
495.54	305.67
495.90	308.37
496.26	311.13
496.63	314.07
496.99	317.21
497.35	320.47
497.72	323.90
498.08	327.41
498.44	331.03
498.80	334.95
499.17	338.96
499.53	343.09
499.89	347.46
500.26	351.94
500.62	356.55
500.98	361.47
501.34	366.53
501.71	371.81
502.07	377.19
502.43	382.72
502.79	388.46
503.16	394.46
503.52	400.66
503.88	407.02
504.24	413.57
504.60	420.35
504.97	427.35
505.33	434.64
505.69	442.29
506.05	449.97
506.41	457.73
506.78	465.80
507.14	474.11
507.50	482.71
507.86	491.60
508.22	500.67
508.59	509.76
508.95	519.18
509.31	528.90
509.67	538.84
510.03	549.02
510.39	559.36
510.75	569.97
511.12	580.76
511.48	591.88
511.84	603.18
512.20	614.49
512.56	626.24
512.92	638.13
513.28	650.28
513.64	662.54
514.00	675.07
514.37	687.79
514.73	700.67
515.09	713.41
515.45	726.46
515.81	739.79
516.17	753.50
516.53	767.31
516.89	781.16
517.25	795.07
517.61	809.16
517.97	823.36
518.33	837.53
518.69	851.92
519.05	866.62
519.41	881.42
519.77	896.70
520.13	911.83
520.49	926.92
520.85	941.86
521.21	957.18
521.57	973.03
521.93	988.34
522.29	1004.34
522.65	1020.26
523.01	1036.02
523.37	1051.71
523.73	1067.43
524.09	1083.20
524.45	1099.08
524.81	1115.35
525.17	1131.69
525.53	1148.11
525.89	1164.60
526.25	1181.10
526.61	1197.00
526.97	1213.39
527.33	1229.46
527.68	1245.62
528.04	1261.76
528.40	1277.96
528.76	1294.66
529.12	1310.91
529.48	1327.62
529.84	1343.22
530.20	1359.44
530.56	1376.07
530.91	1393.14
531.27	1409.62
531.63	1425.62
531.99	1441.86
532.35	1457.57
532.71	1473.28
533.07	1489.27
533.42	1504.98
533.78	1520.71
534.14	1536.80
534.50	1551.83
534.86	1567.36
535.21	1582.31
535.57	1597.90
535.93	1613.15
536.29	1627.71
536.65	1642.48
537.00	1656.82
537.36	1672.01
537.72	1686.38
538.08	1700.63
538.44	1714.17
538.79	1727.89
539.15	1741.42
539.51	1754.98
539.87	1769.09
540.22	1782.57
540.58	1796.22
540.94	1809.25
541.29	1821.93
541.65	1834.40
542.01	1847.50
542.37	1859.75
542.72	1872.12
543.08	1883.92
543.44	1896.28
543.79	1907.59
544.15	1918.49
544.51	1930.20
544.87	1941.06
545.22	1951.99
545.58	1962.35
545.94	1972.15
546.29	1982.15
546.65	1992.15
547.01	2001.66
547.36	2010.41
547.72	2019.06
548.07	2026.96
548.43	2035.20
548.79	2043.29
549.14	2051.04
549.50	2058.51
549.86	2066.30
550.21	2073.79
550.57	2081.15
550.92	2087.84
551.28	2095.02
551.64	2102.26
551.99	2108.81
552.35	2115.20
552.70	2121.40
553.06	2127.47
553.41	2134.07
553.77	2140.15
554.13	2146.41
554.48	2152.81
554.84	2158.70
555.19	2163.98
555.55	2169.51
555.90	2174.28
556.26	2179.62
556.61	2184.45
556.97	2189.13
557.32	2193.54
557.68	2197.81
558.03	2202.09
558.39	2206.18
558.74	2211.02
559.10	2215.29
559.45	2219.28
559.81	2223.60
560.16	2227.77
560.52	2231.35
560.87	2235.01
561.23	2237.99
561.58	2241.07
561.94	2243.60
562.29	2245.93
562.64	2249.38
563.00	2252.07
563.35	2255.86
563.71	2259.20
564.06	2262.72
564.42	2265.91
564.77	2268.98
565.12	2271.81
565.48	2274.24
565.83	2276.51
566.19	2278.30
566.54	2279.28
566.89	2280.81
567.25	2282.06
567.60	2283.41
567.96	2285.51
568.31	2286.58
568.66	2288.20
569.02	2289.25
569.37	2289.97
569.72	2291.28
570.08	2291.66
570.43	2292.14
570.78	2292.00
571.14	2290.83
571.49	2289.82
571.84	2289.78
572.20	2288.92
572.55	2288.18
572.90	2286.88
573.26	2285.74
573.61	2284.04
573.96	2282.86
574.31	2280.30
574.67	2277.58
575.02	2274.41
575.37	2271.25
575.72	2267.96
576.08	2264.68
576.43	2261.67
576.78	2258.49
577.13	2255.54
577.49	2252.48
577.84	2249.29
578.19	2245.82
578.54	2242.56
578.90	2238.76
579.25	2233.46
579.60	2228.84
579.95	2224.09
580.30	2219.31
580.66	2214.38
581.01	2209.93
581.36	2205.26
581.71	2201.33
582.06	2197.22
582.42	2193.17
582.77	2188.29
583.12	2184.01
583.47	2179.76
583.82	2175.04
584.17	2170.12
584.53	2164.91
584.88	2159.52
585.23	2154.15
585.58	2149.02
585.93	2143.87
586.28	2139.14
586.63	2134.37
586.98	2129.37
587.34	2124.94
587.69	2120.33
588.04	2115.46
588.39	2109.90
588.74	2103.67
589.09	2097.72
589.44	2091.11
589.79	2085.16
590.14	2079.65
590.49	2073.18
590.84	2066.95
591.19	2060.91
591.54	2054.55
591.89	2047.51
592.25	2041.17
592.60	2034.11
592.95	2026.66
593.30	2019.33
593.65	2011.92
594.00	2004.99
594.35	1997.87
594.70	1989.83
595.05	1982.90
595.40	1975.58
595.75	1968.27
596.10	1962.14
596.45	1955.54
596.80	1949.58
597.15	1943.22
597.50	1936.48
597.85	1930.08
598.19	1923.55
598.54	1916.88
598.89	1910.37
599.24	1904.51
599.59	1898.11
599.94	1891.90
600.29	1885.65
600.64	1879.14
600.99	1872.02
601.34	1865.26
601.69	1858.28
602.04	1851.58
602.39	1844.21
602.74	1837.53
603.08	1830.87
603.43	1824.22
603.78	1816.90
604.13	1809.64
604.48	1802.39
604.83	1795.53
605.18	1788.89
605.53	1780.88
605.87	1772.83
606.22	1765.50
606.57	1757.54
606.92	1749.87
607.27	1742.80
607.62	1736.03
607.96	1728.90
608.31	1722.42
608.66	1714.89
609.01	1707.54
609.36	1700.01
609.70	1692.16
610.05	1684.14
610.40	1676.46
610.75	1668.14
611.10	1660.52
611.44	1652.04
611.79	1643.98
612.14	1635.15
612.49	1625.72
612.83	1617.32
613.18	1609.13
613.53	1601.20
613.88	1592.65
614.22	1584.35
614.57	1575.61
614.92	1567.38
615.27	1559.83
615.61	1551.51
615.96	1543.39
616.31	1535.62
616.65	1528.14
617.00	1520.47
617.35	1512.65
617.70	1504.36
618.04	1495.92
618.39	1487.44
618.74	1479.78
619.08	1471.31
619.43	1463.67
619.78	1456.69
620.12	1449.47
620.47	1441.84
620.82	1433.39
621.16	1425.85
621.51	1418.08
621.85	1410.39
622.20	1401.81
622.55	1393.29
622.89	1385.07
623.24	1377.30
623.59	1369.62
623.93	1362.02
624.28	1354.68
624.62	1347.11
624.97	1339.78
625.32	1332.64
625.66	1325.62
626.01	1318.45
626.35	1311.04
626.70	1303.21
627.04	1295.47
627.39	1287.52
627.73	1280.00
628.08	1273.07
628.43	1265.80
628.77	1258.54
629.12	1250.95
629.46	1243.70
629.81	1236.00
630.15	1228.74
630.50	1221.27
630.84	1213.20
631.19	1205.12
631.53	1197.32
631.88	1189.68
632.22	1181.98
632.57	1174.60
632.91	1166.99
633.26	1159.52
633.60	1151.99
633.95	1144.64
634.29	1137.41
634.64	1130.66
634.98	1123.34
635.32	1116.15
635.67	1109.37
636.01	1102.53
636.36	1095.70
636.70	1089.00
637.05	1082.48
637.39	1075.89
637.73	1069.39
638.08	1063.38
638.42	1057.28
638.77	1050.90
639.11	1044.29
639.45	1037.93
639.80	1031.35
640.14	1024.95
640.49	1018.38
640.83	1012.08
641.17	1005.95
641.52	999.61
641.86	993.09
642.20	987.11
642.55	980.56
642.89	974.08
643.23	967.55
643.58	961.70
643.92	955.55
644.26	949.59
644.61	943.51
644.95	937.44
645.29	930.88
645.64	924.23
645.98	917.92
646.32	911.95
646.66	905.79
647.01	900.01
647.35	894.22
647.69	888.28
648.04	882.66
648.38	876.89
648.72	870.91
649.06	864.93
649.41	859.00
649.75	853.13
650.09	847.16
650.43	841.38
650.78	835.23
651.12	829.22
651.46	823.36
651.80	817.69
652.14	812.21
652.49	806.80
652.83	801.53
653.17	795.90
653.51	790.27
653.85	784.83
654.20	779.14
654.54	773.12
654.88	767.32
655.22	761.48
655.56	755.70
655.90	750.23
656.25	744.94
656.59	739.54
656.93	734.42
657.27	729.29
657.61	723.78
657.95	718.60
658.29	713.49
658.64	708.14
658.98	702.78
659.32	697.29
659.66	692.14
660.00	686.85
660.34	681.79
660.68	676.76
661.02	671.67
661.36	666.86
661.70	662.34
662.05	657.96
662.39	653.54
662.73	648.99
663.07	644.53
663.41	640.07
663.75	635.60
664.09	630.95
664.43	626.47
664.77	622.30
665.11	618.06
665.45	613.80
665.79	609.77
666.13	605.54
666.47	601.43
666.81	597.22
667.15	593.06
667.49	589.07
667.83	585.21
668.17	581.31
668.51	577.31
668.85	573.21
669.19	569.29
669.53	565.49
669.87	561.64
670.21	557.92
670.55	554.20
670.89	550.73
671.23	547.37
671.57	543.78
671.91	540.28
672.25	536.68
672.58	533.23
672.92	529.72
673.26	526.51
673.60	523.32
673.94	520.18
674.28	517.18
674.62	514.25
674.96	511.11
675.30	508.11
675.64	505.13
675.97	502.38
676.31	499.50
676.65	496.54
676.99	493.80
677.33	490.92
677.67	488.07
678.01	485.04
678.34	482.02
678.68	479.12
679.02	476.25
679.36	473.48
679.70	470.72
680.04	467.97
680.37	465.12
680.71	462.29
681.05	459.58
681.39	456.93
681.73	454.20
682.06	451.68
682.40	449.15
682.74	446.50
683.08	443.87
683.42	441.22
683.75	438.67
684.09	436.09
684.43	433.55
684.77	431.08
685.10	428.68
685.44	426.31
685.78	424.05
686.12	421.74
686.45	419.45
686.79	417.14
687.13	414.95
687.46	412.79
687.80	410.61
688.14	408.40
688.48	406.30
688.81	404.09
689.15	401.90
689.49	399.71
689.82	397.63
690.16	395.53
690.50	393.65
690.83	391.70
691.17	389.67
691.51	387.74
691.84	385.88
692.18	383.94
692.52	381.99
692.85	379.98
693.19	378.15
693.52	376.26
693.86	374.35
694.20	372.55
694.53	370.68
694.87	368.76
695.21	366.94
695.54	365.01
695.88	363.22
696.21	361.49
696.55	359.76
696.88	358.04
697.22	356.36
697.56	354.65
697.89	352.98
698.23	351.37
698.56	349.77
698.90	348.19
699.23	346.57
699.57	345.00
699.90	343.43
700.24	341.84
700.58	340.31
700.91	338.86
701.25	337.40
701.58	336.05
701.92	334.72
702.25	333.33
702.59	332.00
702.92	330.63
703.26	329.29
703.59	328.03
703.93	326.82
704.26	325.60
704.60	324.28
704.93	322.97
705.26	321.69
705.60	320.50
705.93	319.24
706.27	318.17
706.60	317.06
706.94	315.96
707.27	314.78
707.61	313.69
707.94	312.62
708.27	311.50
708.61	310.36
708.94	309.32
709.28	308.31
709.61	307.35
709.94	306.40
710.28	305.37
710.61	304.36
710.95	303.30
711.28	302.34
711.61	301.40
711.95	300.52
712.28	299.58
712.61	298.59
712.95	297.65
713.28	296.71
713.61	295.84
713.95	294.97
714.28	294.13
714.61	293.27
714.95	292.41
715.28	291.53
715.61	290.65
715.95	289.79
716.28	288.90
716.61	288.05
716.95	287.16
717.28	286.39
717.61	285.62
717.94	284.82
718.28	283.99
718.61	283.28
718.94	282.52
719.27	281.82
719.61	281.19
719.94	280.54
720.27	279.83
720.60	279.11
720.94	278.44
721.27	277.84
721.60	277.24
721.93	276.62
722.27	276.07
722.60	275.52
722.93	274.92
723.26	274.37
723.59	273.78
723.93	273.30
724.26	272.72
724.59	272.13
724.92	271.63
725.25	271.14
725.59	270.60
725.92	270.06
726.25	269.57
726.58	269.02
726.91	268.48
727.24	268.02
727.57	267.54
727.91	267.03
728.24	266.53
728.57	266.00
728.90	265.55
729.23	265.03
729.56	264.60
729.89	264.12
730.22	263.63
730.55	263.14
730.89	262.60
731.22	262.16
731.55	261.73
731.88	261.26
732.21	260.79
732.54	260.33
732.87	259.93
733.20	259.50
733.53	259.07
733.86	258.72
734.19	258.30
734.52	257.92
734.85	257.62
735.18	257.22
735.51	256.86
735.84	256.46
736.17	256.11
736.50	255.67
736.83	255.43
737.16	255.09
737.49	254.76
737.82	254.42
738.15	254.08
738.48	253.73
738.81	253.42
739.14	253.07
739.47	252.75
739.80	252.44
740.13	252.16
740.46	251.84
740.79	251.49
741.12	251.18
741.45	250.87
741.78	250.50
742.11	250.24
742.44	249.96
742.77	249.68
743.10	249.36
743.43	249.08
743.75	248.74
744.08	248.58
744.41	248.32
744.74	248.07
745.07	247.83
745.40	247.60
745.73	247.41
746.06	247.15
746.39	246.93
746.71	246.61
747.04	246.32
747.37	246.08
747.70	245.86
748.03	245.60
748.36	245.39
748.68	245.14
749.01	244.89
749.34	244.66
749.67	244.41
750.00	244.22
750.33	244.08
750.65	243.82
750.98	243.48
751.31	243.25
751.64	243.08
751.97	242.92
752.29	242.69
752.62	242.40
752.95	242.21
753.28	241.96
753.60	241.78
753.93	241.60
754.26	241.39
754.59	241.16
754.91	240.95
755.24	240.74
755.57	240.55
755.90	240.37
756.22	240.15
756.55	239.95
756.88	239.75
757.20	239.52
757.53	239.39
757.86	239.22
758.19	239.08
758.51	238.88
758.84	238.65
759.17	238.45
759.49	238.31
759.82	238.18
760.15	238.02
760.47	237.86
760.80	237.67
761.13	237.55
761.45	237.38
761.78	237.24
762.11	237.06
762.43	236.93
762.76	236.75
763.08	236.59
763.41	236.45
763.74	236.32
764.06	236.17
764.39	235.98
764.71	235.86
765.04	235.70
765.37	235.56
765.69	235.40
766.02	235.29
766.34	235.12
766.67	234.95
767.00	234.86
767.32	234.77
767.65	234.71
767.97	234.54
768.30	234.45
768.62	234.32
768.95	234.20
769.27	234.05
769.60	233.95
769.92	233.85
770.25	233.75
770.57	233.58
770.90	233.45
771.22	233.34
771.55	233.22
771.87	233.11
772.20	232.99
772.52	233.00
772.85	232.99
773.17	232.89
773.50	232.79
773.82	232.67
774.15	232.59
774.47	232.43
774.80	232.36
775.12	232.24
775.45	232.17
775.77	232.11
776.09	232.03
776.42	231.94
776.74	231.91
777.07	231.84
777.39	231.81
777.72	231.73
778.04	231.67
778.36	231.59
778.69	231.55
779.01	231.51
779.33	231.34
779.66	231.17
779.98	231.10
780.31	231.03
780.63	230.98
780.95	230.90
781.28	230.87
781.60	230.80
781.92	230.75
782.25	230.67
782.57	230.58
782.89	230.52
783.22	230.46
783.54	230.38
783.86	230.30
784.19	230.21
784.51	230.17
784.83	230.09
785.16	230.02
785.48	229.95
785.80	229.89
786.12	229.85
786.45	229.84
786.77	229.81
787.09	229.78
