SpectraSuite Data File
++++++++++++++++++++++++++++++++++++
Date: Fri Feb 01 17:31:59 EST 2013
User: group
Dark Spectrum Present: No
Reference Spectrum Present: No
Number of Sampled Component Spectra: 1
Spectrometers: USB2E7196
Integration Time (usec): 35000 (USB2E7196)
Spectra Averaged: 100 (USB2E7196)
Boxcar Smoothing: 10 (USB2E7196)
Correct for Electrical Dark: No (USB2E7196)
Strobe/Lamp Enabled: No (USB2E7196)
Correct for Detector Non-linearity: No (USB2E7196)
Correct for Stray Light: No (USB2E7196)
Number of Pixels in Processed Spectrum: 2048
>>>>>Begin Processed Spectral Data<<<<<
339.09	0.00
339.48	212.50
339.86	214.06
340.24	215.06
340.63	217.88
341.01	219.80
341.39	219.75
341.78	221.18
342.16	222.31
342.54	222.37
342.93	211.16
343.31	221.82
343.69	222.37
344.07	222.84
344.46	223.30
344.84	223.64
345.22	223.88
345.60	224.11
345.99	224.27
346.37	224.37
346.75	224.49
347.13	224.53
347.52	224.60
347.90	224.63
348.28	224.68
348.66	224.72
349.05	224.72
349.43	224.76
349.81	224.79
350.19	224.77
350.57	224.85
350.96	224.91
351.34	225.00
351.72	225.08
352.10	225.15
352.48	225.21
352.87	225.25
353.25	225.31
353.63	225.38
354.01	225.46
354.39	225.55
354.77	225.61
355.15	225.74
355.54	225.79
355.92	225.85
356.30	225.89
356.68	226.06
357.06	226.12
357.44	226.16
357.82	226.23
358.20	226.32
358.58	226.37
358.97	226.44
359.35	226.54
359.73	226.63
360.11	226.69
360.49	226.75
360.87	226.81
361.25	226.85
361.63	226.95
362.01	227.01
362.39	227.04
362.77	227.10
363.15	227.13
363.53	227.17
363.91	227.24
364.29	227.28
364.67	227.18
365.05	227.23
365.43	227.29
365.81	227.35
366.19	227.41
366.57	227.43
366.95	227.46
367.33	227.43
367.71	227.40
368.09	227.43
368.47	227.41
368.85	227.41
369.23	227.40
369.61	227.35
369.99	227.35
370.37	227.35
370.75	227.38
371.13	227.38
371.51	227.33
371.89	227.31
372.27	227.28
372.65	227.27
373.03	227.23
373.41	227.18
373.78	227.10
374.16	227.02
374.54	226.95
374.92	226.89
375.30	226.82
375.68	226.78
376.06	226.72
376.44	226.66
376.82	226.60
377.19	226.55
377.57	226.47
377.95	226.40
378.33	226.33
378.71	226.21
379.09	226.11
379.47	226.07
379.84	225.97
380.22	225.89
380.60	225.81
380.98	225.76
381.36	225.67
381.73	225.61
382.11	225.54
382.49	225.46
382.87	225.37
383.25	225.35
383.62	225.40
384.00	225.33
384.38	225.28
384.76	225.26
385.13	225.23
385.51	225.18
385.89	225.12
386.27	225.08
386.64	225.04
387.02	224.99
387.40	224.93
387.78	224.92
388.15	224.88
388.53	224.85
388.91	224.79
389.29	224.76
389.66	224.75
390.04	224.72
390.42	224.76
390.79	224.73
391.17	224.69
391.55	224.55
391.92	224.53
392.30	224.55
392.68	224.53
393.05	224.55
393.43	224.56
393.81	224.57
394.18	224.57
394.56	224.59
394.94	224.62
395.31	224.63
395.69	224.65
396.06	224.72
396.44	224.75
396.82	224.78
397.19	224.87
397.57	224.90
397.95	224.96
398.32	224.97
398.70	225.02
399.07	225.09
399.45	225.11
399.82	225.16
400.20	225.21
400.58	225.27
400.95	225.30
401.33	225.39
401.70	225.50
402.08	225.60
402.45	225.70
402.83	225.81
403.20	225.93
403.58	226.00
403.95	226.08
404.33	226.21
404.71	226.34
405.08	226.50
405.46	226.60
405.83	226.73
406.21	226.89
406.58	227.07
406.96	227.21
407.33	227.40
407.70	227.61
408.08	227.91
408.45	228.10
408.83	228.32
409.20	228.51
409.58	228.70
409.95	228.95
410.33	229.18
410.70	229.43
411.08	229.70
411.45	230.02
411.82	230.34
412.20	230.72
412.57	231.14
412.95	231.44
413.32	231.87
413.69	232.29
414.07	232.76
414.44	233.23
414.82	233.72
415.19	234.31
415.56	234.88
415.94	235.40
416.31	236.06
416.68	236.75
417.06	237.51
417.43	238.26
417.81	239.04
418.18	239.86
418.55	240.75
418.93	241.68
419.30	242.61
419.67	243.59
420.04	244.56
420.42	245.59
420.79	246.83
421.16	248.04
421.54	249.30
421.91	250.52
422.28	251.83
422.66	253.19
423.03	254.57
423.40	255.93
423.77	257.40
424.15	258.89
424.52	260.43
424.89	262.10
425.26	263.69
425.64	265.20
426.01	266.88
426.38	268.60
426.75	270.36
427.13	272.15
427.50	274.05
427.87	276.01
428.24	277.94
428.61	279.76
428.99	281.77
429.36	283.95
429.73	286.12
430.10	288.26
430.47	290.44
430.85	292.63
431.22	294.99
431.59	297.45
431.96	299.80
432.33	302.37
432.70	304.82
433.08	307.76
433.45	310.51
433.82	313.22
434.19	316.23
434.56	319.12
434.93	321.94
435.30	324.65
435.68	327.66
436.05	330.60
436.42	333.52
436.79	336.13
437.16	338.95
437.53	341.90
437.90	344.81
438.27	347.64
438.64	350.59
439.01	353.28
439.38	355.63
439.75	357.90
440.13	360.49
440.50	362.95
440.87	364.87
441.24	366.91
441.61	369.17
441.98	370.74
442.35	372.69
442.72	374.62
443.09	376.59
443.46	377.65
443.83	378.32
444.20	378.83
444.57	379.72
444.94	380.04
445.31	380.46
445.68	380.80
446.05	380.93
446.42	380.60
446.79	380.19
447.16	379.74
447.53	379.42
447.90	378.26
448.27	377.10
448.64	375.46
449.01	374.30
449.37	372.26
449.74	370.29
450.11	367.89
450.48	365.32
450.85	362.63
451.22	360.41
451.59	358.30
451.96	356.32
452.33	353.62
452.70	351.12
453.07	348.15
453.43	345.18
453.80	342.30
454.17	339.49
454.54	336.84
454.91	334.00
455.28	331.19
455.65	328.59
456.02	326.03
456.38	323.78
456.75	320.99
457.12	318.66
457.49	316.33
457.86	314.06
458.23	312.10
458.59	309.94
458.96	307.74
459.33	305.78
459.70	303.81
460.07	302.25
460.43	300.50
460.80	298.83
461.17	297.34
461.54	295.79
461.91	294.25
462.27	292.75
462.64	291.46
463.01	290.04
463.38	288.70
463.74	287.26
464.11	286.05
464.48	284.97
464.85	283.81
465.21	282.90
465.58	281.98
465.95	280.83
466.32	279.90
466.68	278.99
467.05	278.08
467.42	277.18
467.78	276.19
468.15	275.25
468.52	274.51
468.88	273.62
469.25	272.78
469.62	272.15
469.98	271.44
470.35	270.81
470.72	270.17
471.08	269.48
471.45	268.93
471.82	268.39
472.18	267.80
472.55	267.34
472.92	266.83
473.28	266.38
473.65	265.95
474.02	265.50
474.38	265.12
474.75	264.77
475.11	264.43
475.48	264.18
475.85	263.92
476.21	263.70
476.58	263.52
476.94	263.38
477.31	263.21
477.67	263.02
478.04	262.87
478.41	262.85
478.77	262.89
479.14	262.82
479.50	262.83
479.87	262.89
480.23	262.95
480.60	262.97
480.96	263.05
481.33	263.25
481.69	263.44
482.06	263.60
482.42	263.79
482.79	264.05
483.15	264.31
483.52	264.71
483.88	265.05
484.25	265.40
484.61	265.86
484.98	266.29
485.34	266.90
485.71	267.50
486.07	268.09
486.44	268.62
486.80	269.32
487.17	270.03
487.53	270.80
487.90	271.66
488.26	272.61
488.62	273.56
488.99	274.51
489.35	275.57
489.72	276.73
490.08	277.93
490.44	279.14
490.81	280.51
491.17	281.82
491.54	283.35
491.90	284.90
492.26	286.52
492.63	288.24
492.99	289.98
493.36	291.84
493.72	293.85
494.08	295.94
494.45	298.14
494.81	300.47
495.17	302.90
495.54	305.45
495.90	308.12
496.26	310.89
496.63	313.82
496.99	316.88
497.35	320.04
497.72	323.41
498.08	326.86
498.44	330.47
498.80	334.41
499.17	338.33
499.53	342.43
499.89	346.74
500.26	351.16
500.62	355.75
500.98	360.68
501.34	365.71
501.71	371.01
502.07	376.41
502.43	381.91
502.79	387.69
503.16	393.63
503.52	399.76
503.88	406.10
504.24	412.62
504.60	419.42
504.97	426.50
505.33	433.65
505.69	441.25
506.05	448.89
506.41	456.59
506.78	464.63
507.14	472.97
507.50	481.55
507.86	490.46
508.22	499.48
508.59	508.53
508.95	517.87
509.31	527.43
509.67	537.30
510.03	547.37
510.39	557.66
510.75	568.21
511.12	578.92
511.48	589.93
511.84	601.16
512.20	612.38
512.56	624.02
512.92	635.99
513.28	648.08
513.64	660.29
514.00	672.74
514.37	685.41
514.73	698.14
515.09	710.84
515.45	723.75
515.81	737.03
516.17	750.63
516.53	764.37
516.89	778.21
517.25	791.99
517.61	806.17
517.97	820.17
518.33	834.17
518.69	848.58
519.05	863.04
519.41	877.75
519.77	892.88
520.13	907.84
520.49	922.71
520.85	937.62
521.21	952.91
521.57	968.55
521.93	983.75
522.29	999.56
522.65	1015.30
523.01	1031.10
523.37	1046.64
523.73	1062.35
524.09	1078.02
524.45	1093.80
524.81	1109.93
525.17	1125.98
525.53	1142.40
525.89	1158.86
526.25	1175.19
526.61	1191.16
526.97	1207.42
527.33	1223.46
527.68	1239.53
528.04	1255.53
528.40	1271.61
528.76	1288.13
529.12	1304.31
529.48	1320.73
529.84	1336.31
530.20	1352.44
530.56	1368.89
530.91	1385.83
531.27	1402.13
531.63	1418.14
531.99	1434.26
532.35	1449.78
532.71	1465.36
533.07	1481.22
533.42	1496.72
533.78	1512.35
534.14	1528.23
534.50	1543.12
534.86	1558.60
535.21	1573.53
535.57	1589.10
535.93	1604.26
536.29	1618.75
536.65	1633.48
537.00	1647.94
537.36	1662.95
537.72	1677.07
538.08	1691.19
538.44	1704.69
538.79	1718.35
539.15	1731.64
539.51	1745.13
539.87	1759.26
540.22	1772.77
540.58	1786.35
540.94	1799.39
541.29	1811.93
541.65	1824.55
542.01	1837.73
542.37	1849.93
542.72	1862.30
543.08	1874.03
543.44	1886.27
543.79	1897.49
544.15	1908.40
544.51	1919.98
544.87	1930.85
545.22	1941.80
545.58	1952.06
545.94	1961.84
546.29	1971.74
546.65	1981.85
547.01	1991.41
547.36	2000.25
547.72	2008.85
548.07	2016.86
548.43	2025.07
548.79	2033.19
549.14	2040.87
549.50	2048.06
549.86	2055.82
550.21	2063.19
550.57	2070.48
550.92	2077.32
551.28	2084.49
551.64	2091.81
551.99	2098.44
552.35	2104.95
552.70	2111.43
553.06	2117.65
553.41	2124.14
553.77	2130.26
554.13	2136.54
554.48	2142.76
554.84	2148.74
555.19	2154.23
555.55	2159.83
555.90	2164.80
556.26	2170.16
556.61	2175.07
556.97	2179.97
557.32	2184.43
557.68	2189.02
558.03	2193.68
558.39	2197.71
558.74	2202.68
559.10	2206.95
559.45	2211.03
559.81	2215.56
560.16	2219.58
560.52	2223.33
560.87	2227.25
561.23	2230.38
561.58	2233.66
561.94	2236.70
562.29	2239.21
562.64	2242.53
563.00	2245.31
563.35	2249.16
563.71	2252.62
564.06	2256.30
564.42	2259.65
564.77	2262.67
565.12	2265.42
565.48	2267.81
565.83	2270.09
566.19	2271.93
566.54	2273.26
566.89	2274.92
567.25	2276.20
567.60	2278.05
567.96	2280.20
568.31	2281.45
568.66	2283.00
569.02	2284.05
569.37	2284.67
569.72	2286.02
570.08	2286.49
570.43	2287.06
570.78	2287.03
571.14	2285.97
571.49	2284.93
571.84	2284.91
572.20	2284.27
572.55	2283.64
572.90	2282.48
573.26	2281.77
573.61	2280.43
573.96	2279.15
574.31	2276.60
574.67	2273.92
575.02	2270.83
575.37	2267.78
575.72	2264.45
576.08	2261.42
576.43	2258.51
576.78	2255.38
577.13	2252.51
577.49	2249.66
577.84	2246.55
578.19	2243.15
578.54	2239.94
578.90	2236.34
579.25	2231.14
579.60	2226.56
579.95	2221.88
580.30	2217.15
580.66	2212.15
581.01	2207.47
581.36	2202.84
581.71	2199.07
582.06	2194.92
582.42	2190.67
582.77	2185.88
583.12	2181.58
583.47	2177.32
583.82	2172.52
584.17	2167.57
584.53	2162.45
584.88	2157.28
585.23	2151.89
585.58	2146.60
585.93	2141.44
586.28	2136.87
586.63	2132.19
586.98	2127.32
587.34	2122.86
587.69	2118.22
588.04	2113.38
588.39	2108.01
588.74	2101.79
589.09	2095.82
589.44	2089.36
589.79	2083.41
590.14	2077.91
590.49	2071.56
590.84	2065.29
591.19	2059.56
591.54	2053.40
591.89	2046.36
592.25	2039.85
592.60	2032.81
592.95	2025.60
593.30	2018.57
593.65	2011.19
594.00	2004.30
594.35	1997.27
594.70	1989.32
595.05	1982.52
595.40	1975.26
595.75	1968.02
596.10	1961.95
596.45	1955.33
596.80	1949.33
597.15	1943.05
597.50	1936.27
597.85	1930.01
598.19	1923.48
598.54	1916.67
598.89	1910.12
599.24	1904.28
599.59	1897.72
599.94	1891.59
600.29	1885.41
600.64	1878.70
600.99	1871.46
601.34	1864.74
601.69	1857.88
602.04	1851.20
602.39	1843.83
602.74	1837.13
603.08	1830.42
603.43	1823.88
603.78	1816.59
604.13	1809.40
604.48	1802.37
604.83	1795.48
605.18	1788.67
605.53	1780.95
605.87	1773.02
606.22	1765.79
606.57	1757.89
606.92	1750.45
607.27	1743.32
607.62	1736.32
607.96	1729.27
608.31	1722.78
608.66	1715.23
609.01	1707.68
609.36	1700.17
609.70	1692.19
610.05	1684.22
610.40	1676.65
610.75	1668.32
611.10	1660.81
611.44	1652.40
611.79	1644.23
612.14	1635.51
612.49	1626.25
612.83	1617.69
613.18	1609.36
613.53	1601.19
613.88	1592.55
614.22	1584.27
614.57	1575.49
614.92	1567.46
615.27	1559.86
615.61	1551.31
615.96	1543.16
616.31	1535.38
616.65	1527.91
617.00	1520.26
617.35	1512.35
617.70	1504.00
618.04	1495.28
618.39	1486.91
618.74	1479.16
619.08	1470.70
619.43	1462.95
619.78	1455.79
620.12	1448.56
620.47	1441.04
620.82	1432.71
621.16	1425.16
621.51	1417.34
621.85	1409.70
622.20	1401.11
622.55	1392.56
622.89	1384.62
623.24	1376.86
623.59	1369.33
623.93	1361.64
624.28	1354.34
624.62	1346.72
624.97	1339.35
625.32	1332.49
625.66	1325.33
626.01	1318.14
626.35	1310.77
626.70	1302.87
627.04	1295.22
627.39	1287.30
627.73	1279.77
628.08	1272.83
628.43	1265.53
628.77	1258.18
629.12	1250.59
629.46	1243.27
629.81	1235.67
630.15	1228.34
630.50	1220.89
630.84	1212.63
631.19	1204.55
631.53	1196.86
631.88	1189.33
632.22	1181.66
632.57	1174.22
632.91	1166.59
633.26	1159.11
633.60	1151.50
633.95	1144.27
634.29	1137.20
634.64	1130.53
634.98	1123.07
635.32	1115.78
635.67	1109.05
636.01	1102.30
636.36	1095.47
636.70	1088.83
637.05	1082.27
637.39	1075.77
637.73	1069.28
638.08	1063.27
638.42	1057.37
638.77	1050.90
639.11	1044.22
639.45	1037.71
639.80	1031.03
640.14	1024.61
640.49	1018.08
640.83	1011.71
641.17	1005.60
641.52	999.05
641.86	992.48
642.20	986.61
642.55	980.16
642.89	973.74
643.23	967.15
643.58	961.33
643.92	955.20
644.26	949.12
644.61	942.93
644.95	936.82
645.29	930.37
645.64	923.53
645.98	917.15
646.32	911.27
646.66	905.28
647.01	899.46
647.35	893.67
647.69	887.70
648.04	882.18
648.38	876.32
648.72	870.45
649.06	864.35
649.41	858.38
649.75	852.52
650.09	846.51
650.43	840.75
650.78	834.53
651.12	828.50
651.46	822.72
651.80	817.09
652.14	811.65
652.49	806.20
652.83	801.08
653.17	795.41
653.51	789.65
653.85	784.14
654.20	778.54
654.54	772.52
654.88	766.79
655.22	760.78
655.56	755.03
655.90	749.44
656.25	744.17
656.59	738.86
656.93	733.74
657.27	728.60
657.61	723.10
657.95	717.98
658.29	712.88
658.64	707.63
658.98	702.19
659.32	696.78
659.66	691.60
660.00	686.17
660.34	681.23
660.68	676.29
661.02	671.22
661.36	666.46
661.70	661.92
662.05	657.49
662.39	653.19
662.73	648.70
663.07	644.35
663.41	639.93
663.75	635.39
664.09	630.76
664.43	626.37
664.77	622.26
665.11	618.02
665.45	613.84
665.79	609.80
666.13	605.66
666.47	601.49
666.81	597.23
667.15	593.12
667.49	589.12
667.83	585.29
668.17	581.34
668.51	577.24
668.85	573.20
669.19	569.28
669.53	565.47
669.87	561.62
670.21	557.90
670.55	554.21
670.89	550.71
671.23	547.24
671.57	543.64
671.91	540.09
672.25	536.54
672.58	533.00
672.92	529.47
673.26	526.27
673.60	523.07
673.94	519.94
674.28	517.04
674.62	514.04
674.96	510.87
675.30	508.02
675.64	505.11
675.97	502.30
676.31	499.50
676.65	496.52
676.99	493.74
677.33	490.87
677.67	488.06
678.01	485.06
678.34	482.15
678.68	479.24
679.02	476.39
679.36	473.57
679.70	470.85
680.04	468.12
680.37	465.31
680.71	462.49
681.05	459.84
681.39	457.10
681.73	454.42
682.06	451.89
682.40	449.24
682.74	446.65
683.08	444.04
683.42	441.36
683.75	438.85
684.09	436.28
684.43	433.73
684.77	431.21
685.10	428.78
685.44	426.38
685.78	424.08
686.12	421.80
686.45	419.49
686.79	417.12
687.13	414.85
687.46	412.63
687.80	410.42
688.14	408.18
688.48	406.07
688.81	403.85
689.15	401.68
689.49	399.51
689.82	397.44
690.16	395.31
690.50	393.38
690.83	391.43
691.17	389.41
691.51	387.51
691.84	385.67
692.18	383.77
692.52	381.80
692.85	379.85
693.19	377.98
693.52	376.12
693.86	374.28
694.20	372.54
694.53	370.74
694.87	368.87
695.21	367.05
695.54	365.21
695.88	363.43
696.21	361.69
696.55	359.99
696.88	358.27
697.22	356.60
697.56	354.94
697.89	353.26
698.23	351.68
698.56	350.05
698.90	348.44
699.23	346.82
699.57	345.29
699.90	343.72
700.24	342.07
700.58	340.57
700.91	339.10
701.25	337.57
701.58	336.21
701.92	334.84
702.25	333.46
702.59	332.08
702.92	330.79
703.26	329.44
703.59	328.17
703.93	326.97
704.26	325.76
704.60	324.44
704.93	323.16
705.26	321.85
705.60	320.65
705.93	319.45
706.27	318.32
706.60	317.25
706.94	316.16
707.27	315.06
707.61	313.96
707.94	312.86
708.27	311.81
708.61	310.68
708.94	309.68
709.28	308.70
709.61	307.73
709.94	306.74
710.28	305.70
710.61	304.72
710.95	303.62
711.28	302.65
711.61	301.69
711.95	300.74
712.28	299.80
712.61	298.84
712.95	297.90
713.28	296.99
713.61	296.07
713.95	295.16
714.28	294.28
714.61	293.40
714.95	292.58
715.28	291.66
715.61	290.74
715.95	289.83
716.28	288.94
716.61	288.05
716.95	287.19
717.28	286.46
717.61	285.67
717.94	284.92
718.28	284.08
718.61	283.32
718.94	282.61
719.27	281.93
719.61	281.23
719.94	280.61
720.27	279.89
720.60	279.21
720.94	278.57
721.27	278.01
721.60	277.43
721.93	276.81
722.27	276.25
722.60	275.74
722.93	275.19
723.26	274.63
723.59	274.08
723.93	273.51
724.26	272.92
724.59	272.30
724.92	271.74
725.25	271.27
725.59	270.75
725.92	270.25
726.25	269.73
726.58	269.23
726.91	268.66
727.24	268.17
727.57	267.66
727.91	267.14
728.24	266.61
728.57	266.09
728.90	265.59
729.23	265.12
729.56	264.66
729.89	264.17
730.22	263.68
730.55	263.22
730.89	262.78
731.22	262.34
731.55	261.93
731.88	261.55
732.21	261.12
732.54	260.65
732.87	260.21
733.20	259.82
733.53	259.41
733.86	259.05
734.19	258.66
734.52	258.26
734.85	257.96
735.18	257.56
735.51	257.20
735.84	256.84
736.17	256.46
736.50	256.05
736.83	255.82
737.16	255.51
737.49	255.15
737.82	254.79
738.15	254.47
738.48	254.14
738.81	253.77
739.14	253.40
739.47	253.10
739.80	252.76
740.13	252.48
740.46	252.14
740.79	251.81
741.12	251.52
741.45	251.22
741.78	250.87
742.11	250.57
742.44	250.22
742.77	249.93
743.10	249.64
743.43	249.34
743.75	248.95
744.08	248.79
744.41	248.52
744.74	248.23
745.07	247.93
745.40	247.66
745.73	247.43
746.06	247.18
746.39	246.93
746.71	246.66
747.04	246.34
747.37	246.08
747.70	245.81
748.03	245.55
748.36	245.33
748.68	245.08
749.01	244.82
749.34	244.66
749.67	244.40
750.00	244.17
750.33	244.00
750.65	243.78
750.98	243.43
751.31	243.19
751.64	242.96
751.97	242.84
752.29	242.62
752.62	242.35
752.95	242.16
753.28	241.94
753.60	241.74
753.93	241.56
754.26	241.35
754.59	241.12
754.91	240.87
755.24	240.64
755.57	240.44
755.90	240.22
756.22	239.97
756.55	239.81
756.88	239.57
757.20	239.31
757.53	239.09
757.86	238.89
758.19	238.73
758.51	238.58
758.84	238.32
759.17	238.12
759.49	237.94
759.82	237.82
760.15	237.66
760.47	237.50
760.80	237.29
761.13	237.19
761.45	237.06
761.78	236.98
762.11	236.80
762.43	236.64
762.76	236.52
763.08	236.41
763.41	236.26
763.74	236.16
764.06	236.05
764.39	235.93
764.71	235.79
765.04	235.63
765.37	235.47
765.69	235.36
766.02	235.23
766.34	235.11
766.67	234.91
767.00	234.79
767.32	234.68
767.65	234.62
767.97	234.45
768.30	234.32
768.62	234.16
768.95	234.06
769.27	233.94
769.60	233.80
769.92	233.64
770.25	233.51
770.57	233.35
770.90	233.25
771.22	233.14
771.55	233.04
771.87	232.97
772.20	232.86
772.52	232.85
772.85	232.90
773.17	232.81
773.50	232.73
773.82	232.60
774.15	232.51
774.47	232.38
774.80	232.29
775.12	232.20
775.45	232.15
775.77	232.08
776.09	231.98
776.42	231.91
776.74	231.85
777.07	231.78
777.39	231.73
777.72	231.63
778.04	231.61
778.36	231.54
778.69	231.46
779.01	231.42
779.33	231.24
779.66	231.05
779.98	230.99
780.31	230.93
780.63	230.92
780.95	230.87
781.28	230.79
781.60	230.75
781.92	230.68
782.25	230.60
782.57	230.57
782.89	230.55
783.22	230.49
783.54	230.45
783.86	230.40
784.19	230.34
784.51	230.32
784.83	230.22
785.16	230.16
785.48	230.12
785.80	230.08
786.12	230.03
786.45	229.95
786.77	229.94
787.09	229.87
