SpectraSuite Data File
++++++++++++++++++++++++++++++++++++
Date: Fri Feb 01 15:42:43 EST 2013
User: group
Dark Spectrum Present: No
Reference Spectrum Present: No
Number of Sampled Component Spectra: 1
Spectrometers: USB2E7196
Integration Time (usec): 35000 (USB2E7196)
Spectra Averaged: 100 (USB2E7196)
Boxcar Smoothing: 10 (USB2E7196)
Correct for Electrical Dark: No (USB2E7196)
Strobe/Lamp Enabled: No (USB2E7196)
Correct for Detector Non-linearity: No (USB2E7196)
Correct for Stray Light: No (USB2E7196)
Number of Pixels in Processed Spectrum: 2048
>>>>>Begin Processed Spectral Data<<<<<
339.09	0.00
339.48	215.02
339.86	216.86
340.24	218.05
340.63	219.56
341.01	222.57
341.39	221.95
341.78	223.36
342.16	224.70
342.54	225.31
342.93	213.47
343.31	224.24
343.69	224.77
344.07	225.23
344.46	225.64
344.84	226.00
345.22	226.19
345.60	226.40
345.99	226.59
346.37	226.68
346.75	226.78
347.13	226.81
347.52	226.87
347.90	226.94
348.28	226.94
348.66	226.98
349.05	226.95
349.43	226.99
349.81	227.00
350.19	227.01
350.57	227.11
350.96	227.21
351.34	227.29
351.72	227.37
352.10	227.45
352.48	227.48
352.87	227.53
353.25	227.61
353.63	227.70
354.01	227.76
354.39	227.86
354.77	227.93
355.15	228.04
355.54	228.10
355.92	228.14
356.30	228.21
356.68	228.27
357.06	228.36
357.44	228.41
357.82	228.48
358.20	228.56
358.58	228.58
358.97	228.63
359.35	228.71
359.73	228.75
360.11	228.77
360.49	228.89
360.87	228.93
361.25	229.01
361.63	229.05
362.01	229.06
362.39	229.09
362.77	229.11
363.15	229.14
363.53	229.16
363.91	229.21
364.29	229.23
364.67	229.19
365.05	229.16
365.43	229.20
365.81	229.26
366.19	229.29
366.57	229.31
366.95	229.28
367.33	229.25
367.71	229.32
368.09	229.33
368.47	229.31
368.85	229.30
369.23	229.31
369.61	229.27
369.99	229.29
370.37	229.26
370.75	229.27
371.13	229.22
371.51	229.18
371.89	229.15
372.27	229.12
372.65	229.08
373.03	229.06
373.41	229.01
373.78	228.95
374.16	228.89
374.54	228.84
374.92	228.79
375.30	228.71
375.68	228.57
376.06	228.54
376.44	228.44
376.82	228.38
377.19	228.31
377.57	228.23
377.95	228.14
378.33	228.08
378.71	227.97
379.09	227.93
379.47	227.87
379.84	227.77
380.22	227.71
380.60	227.63
380.98	227.54
381.36	227.45
381.73	227.34
382.11	227.25
382.49	227.20
382.87	227.13
383.25	227.10
383.62	227.19
384.00	227.11
384.38	227.04
384.76	227.02
385.13	226.98
385.51	226.95
385.89	226.93
386.27	226.90
386.64	226.83
387.02	226.76
387.40	226.71
387.78	226.69
388.15	226.64
388.53	226.61
388.91	226.60
389.29	226.58
389.66	226.57
390.04	226.57
390.42	226.55
390.79	226.54
391.17	226.49
391.55	226.41
391.92	226.40
392.30	226.43
392.68	226.39
393.05	226.35
393.43	226.34
393.81	226.27
394.18	226.23
394.56	226.29
394.94	226.33
395.31	226.34
395.69	226.38
396.06	226.41
396.44	226.46
396.82	226.47
397.19	226.56
397.57	226.60
397.95	226.61
398.32	226.61
398.70	226.68
399.07	226.75
399.45	226.76
399.82	226.81
400.20	226.84
400.58	226.95
400.95	226.98
401.33	227.09
401.70	227.27
402.08	227.36
402.45	227.44
402.83	227.54
403.20	227.66
403.58	227.75
403.95	227.88
404.33	227.99
404.71	228.13
405.08	228.30
405.46	228.42
405.83	228.56
406.21	228.75
406.58	228.91
406.96	229.07
407.33	229.23
407.70	229.42
408.08	229.69
408.45	229.87
408.83	230.13
409.20	230.33
409.58	230.50
409.95	230.77
410.33	231.04
410.70	231.30
411.08	231.56
411.45	231.85
411.82	232.12
412.20	232.46
412.57	232.86
412.95	233.12
413.32	233.55
413.69	233.99
414.07	234.43
414.44	234.89
414.82	235.39
415.19	235.95
415.56	236.46
415.94	237.01
416.31	237.65
416.68	238.30
417.06	239.03
417.43	239.75
417.81	240.52
418.18	241.29
418.55	242.11
418.93	242.99
419.30	243.90
419.67	244.86
420.04	245.81
420.42	246.82
420.79	248.06
421.16	249.21
421.54	250.41
421.91	251.62
422.28	252.86
422.66	254.22
423.03	255.56
423.40	256.94
423.77	258.40
424.15	259.83
424.52	261.29
424.89	262.94
425.26	264.46
425.64	265.93
426.01	267.51
426.38	269.17
426.75	270.85
427.13	272.60
427.50	274.44
427.87	276.34
428.24	278.20
428.61	279.90
428.99	281.89
429.36	284.01
429.73	286.05
430.10	288.12
430.47	290.16
430.85	292.25
431.22	294.49
431.59	296.81
431.96	299.08
432.33	301.62
432.70	303.97
433.08	306.79
433.45	309.43
433.82	312.06
434.19	314.96
434.56	317.82
434.93	320.47
435.30	323.08
435.68	325.96
436.05	328.80
436.42	331.61
436.79	334.10
437.16	336.76
437.53	339.59
437.90	342.36
438.27	345.13
438.64	347.95
439.01	350.57
439.38	352.82
439.75	354.96
440.13	357.40
440.50	359.69
440.87	361.51
441.24	363.48
441.61	365.66
441.98	367.16
442.35	368.92
442.72	370.72
443.09	372.56
443.46	373.57
443.83	374.11
444.20	374.61
444.57	375.43
444.94	375.72
445.31	376.07
445.68	376.46
446.05	376.50
446.42	376.12
446.79	375.66
447.16	375.20
447.53	374.87
447.90	373.74
448.27	372.60
448.64	371.05
449.01	369.87
449.37	367.87
449.74	365.97
450.11	363.75
450.48	361.33
450.85	358.77
451.22	356.60
451.59	354.60
451.96	352.66
452.33	350.07
452.70	347.74
453.07	344.88
453.43	341.95
453.80	339.19
454.17	336.50
454.54	333.94
454.91	331.20
455.28	328.54
455.65	326.07
456.02	323.64
456.38	321.49
456.75	318.85
457.12	316.58
457.49	314.32
457.86	312.16
458.23	310.26
458.59	308.21
458.96	306.16
459.33	304.30
459.70	302.45
460.07	300.94
460.43	299.20
460.80	297.63
461.17	296.20
461.54	294.71
461.91	293.29
462.27	291.85
462.64	290.63
463.01	289.27
463.38	287.95
463.74	286.58
464.11	285.41
464.48	284.39
464.85	283.30
465.21	282.47
465.58	281.55
465.95	280.50
466.32	279.58
466.68	278.68
467.05	277.82
467.42	276.94
467.78	275.99
468.15	275.16
468.52	274.50
468.88	273.60
469.25	272.85
469.62	272.25
469.98	271.61
470.35	271.00
470.72	270.42
471.08	269.76
471.45	269.24
471.82	268.72
472.18	268.08
472.55	267.63
472.92	267.10
473.28	266.61
473.65	266.14
474.02	265.69
474.38	265.31
474.75	264.96
475.11	264.61
475.48	264.40
475.85	264.14
476.21	263.86
476.58	263.72
476.94	263.57
477.31	263.40
477.67	263.26
478.04	263.11
478.41	263.08
478.77	263.12
479.14	263.04
479.50	263.04
479.87	263.13
480.23	263.21
480.60	263.28
480.96	263.41
481.33	263.60
481.69	263.84
482.06	264.04
482.42	264.24
482.79	264.50
483.15	264.75
483.52	265.13
483.88	265.52
484.25	265.91
484.61	266.31
484.98	266.74
485.34	267.26
485.71	267.88
486.07	268.47
486.44	269.02
486.80	269.74
487.17	270.48
487.53	271.30
487.90	272.18
488.26	273.12
488.62	274.08
488.99	275.05
489.35	276.07
489.72	277.19
490.08	278.40
490.44	279.65
490.81	280.99
491.17	282.35
491.54	283.83
491.90	285.34
492.26	287.03
492.63	288.77
492.99	290.54
493.36	292.40
493.72	294.38
494.08	296.49
494.45	298.77
494.81	301.10
495.17	303.50
495.54	306.06
495.90	308.76
496.26	311.55
496.63	314.52
496.99	317.65
497.35	320.90
497.72	324.31
498.08	327.80
498.44	331.45
498.80	335.38
499.17	339.44
499.53	343.64
499.89	347.96
500.26	352.42
500.62	357.14
500.98	362.13
501.34	367.25
501.71	372.56
502.07	377.89
502.43	383.51
502.79	389.30
503.16	395.41
503.52	401.68
503.88	408.11
504.24	414.73
504.60	421.65
504.97	428.84
505.33	436.16
505.69	443.87
506.05	451.68
506.41	459.53
506.78	467.62
507.14	476.08
507.50	484.79
507.86	493.83
508.22	503.00
508.59	512.21
508.95	521.82
509.31	531.66
509.67	541.87
510.03	552.22
510.39	562.81
510.75	573.60
511.12	584.50
511.48	595.78
511.84	607.32
512.20	618.78
512.56	630.69
512.92	642.88
513.28	655.25
513.64	667.74
514.00	680.48
514.37	693.53
514.73	706.67
515.09	719.77
515.45	733.11
515.81	746.70
516.17	760.70
516.53	774.79
516.89	788.96
517.25	803.01
517.61	817.48
517.97	831.87
518.33	846.27
518.69	861.02
519.05	876.00
519.41	891.20
519.77	906.80
520.13	922.22
520.49	937.58
520.85	953.02
521.21	968.74
521.57	984.95
521.93	1000.73
522.29	1017.02
522.65	1033.32
523.01	1049.48
523.37	1065.53
523.73	1081.72
524.09	1097.86
524.45	1114.20
524.81	1130.97
525.17	1147.74
525.53	1164.78
525.89	1181.65
526.25	1198.57
526.61	1215.04
526.97	1231.62
527.33	1248.14
527.68	1264.79
528.04	1281.32
528.40	1297.87
528.76	1315.00
529.12	1331.52
529.48	1348.33
529.84	1364.46
530.20	1381.05
530.56	1398.08
530.91	1415.56
531.27	1432.30
531.63	1448.83
531.99	1465.45
532.35	1481.37
532.71	1497.24
533.07	1513.49
533.42	1529.47
533.78	1545.40
534.14	1561.63
534.50	1577.10
534.86	1592.88
535.21	1608.15
535.57	1624.05
535.93	1639.56
536.29	1654.36
536.65	1669.52
537.00	1684.28
537.36	1699.56
537.72	1714.00
538.08	1728.48
538.44	1742.13
538.79	1755.97
539.15	1769.52
539.51	1783.23
539.87	1797.59
540.22	1811.42
540.58	1825.12
540.94	1838.50
541.29	1851.50
541.65	1864.14
542.01	1877.38
542.37	1889.63
542.72	1901.92
543.08	1913.73
543.44	1926.12
543.79	1937.21
544.15	1948.28
544.51	1959.78
544.87	1970.76
545.22	1981.57
545.58	1991.82
545.94	2001.68
546.29	2011.57
546.65	2021.44
547.01	2030.67
547.36	2039.45
547.72	2047.82
548.07	2055.68
548.43	2063.80
548.79	2071.73
549.14	2079.40
549.50	2086.68
549.86	2094.61
550.21	2101.92
550.57	2109.07
550.92	2115.68
551.28	2122.70
551.64	2129.65
551.99	2136.23
552.35	2142.24
552.70	2148.44
553.06	2154.38
553.41	2160.58
553.77	2166.66
554.13	2172.79
554.48	2178.75
554.84	2184.11
555.19	2189.46
555.55	2194.65
555.90	2199.06
556.26	2204.08
556.61	2208.75
556.97	2213.02
557.32	2217.17
557.68	2221.38
558.03	2225.75
558.39	2229.40
558.74	2234.09
559.10	2238.05
559.45	2241.78
559.81	2246.13
560.16	2250.07
560.52	2253.16
560.87	2256.80
561.23	2259.44
561.58	2262.44
561.94	2265.22
562.29	2267.67
562.64	2270.24
563.00	2272.91
563.35	2276.40
563.71	2279.36
564.06	2282.62
564.42	2285.47
564.77	2287.79
565.12	2290.02
565.48	2291.92
565.83	2293.75
566.19	2295.03
566.54	2295.85
566.89	2296.95
567.25	2297.55
567.60	2298.79
567.96	2300.58
568.31	2301.34
568.66	2302.45
569.02	2302.81
569.37	2302.97
569.72	2303.90
570.08	2304.01
570.43	2304.00
570.78	2303.45
571.14	2301.90
571.49	2300.47
571.84	2300.13
572.20	2298.91
572.55	2297.85
572.90	2296.27
573.26	2294.98
573.61	2293.38
573.96	2291.68
574.31	2288.70
574.67	2285.64
575.02	2281.98
575.37	2278.51
575.72	2274.59
576.08	2271.18
576.43	2268.02
576.78	2264.40
577.13	2261.05
577.49	2257.98
577.84	2254.41
578.19	2250.53
578.54	2246.87
578.90	2242.53
579.25	2236.94
579.60	2232.07
579.95	2227.18
580.30	2222.06
580.66	2216.80
581.01	2211.88
581.36	2206.77
581.71	2202.54
582.06	2198.19
582.42	2193.72
582.77	2188.59
583.12	2183.95
583.47	2179.24
583.82	2174.22
584.17	2168.88
584.53	2163.41
584.88	2157.79
585.23	2152.05
585.58	2146.57
585.93	2141.20
586.28	2136.51
586.63	2131.35
586.98	2126.27
587.34	2121.38
587.69	2116.42
588.04	2111.07
588.39	2105.23
588.74	2098.89
589.09	2092.67
589.44	2085.80
589.79	2079.71
590.14	2074.00
590.49	2067.37
590.84	2061.02
591.19	2054.78
591.54	2048.41
591.89	2040.97
592.25	2034.10
592.60	2026.80
592.95	2019.37
593.30	2011.99
593.65	2004.37
594.00	1997.43
594.35	1990.19
594.70	1982.13
595.05	1974.90
595.40	1967.61
595.75	1960.15
596.10	1953.84
596.45	1947.09
596.80	1940.85
597.15	1934.19
597.50	1926.91
597.85	1920.60
598.19	1913.80
598.54	1906.78
598.89	1900.00
599.24	1894.16
599.59	1887.38
599.94	1881.17
600.29	1874.78
600.64	1868.07
600.99	1860.52
601.34	1853.60
601.69	1846.59
602.04	1839.65
602.39	1832.34
602.74	1825.59
603.08	1818.76
603.43	1811.96
603.78	1804.68
604.13	1797.50
604.48	1790.13
604.83	1783.33
605.18	1776.33
605.53	1768.35
605.87	1760.34
606.22	1753.11
606.57	1745.00
606.92	1737.67
607.27	1730.44
607.62	1723.46
607.96	1716.16
608.31	1709.57
608.66	1702.04
609.01	1694.47
609.36	1686.91
609.70	1678.79
610.05	1670.56
610.40	1662.94
610.75	1654.65
611.10	1646.93
611.44	1638.41
611.79	1630.38
612.14	1621.72
612.49	1612.65
612.83	1604.33
613.18	1596.23
613.53	1588.10
613.88	1579.66
614.22	1571.43
614.57	1562.85
614.92	1554.85
615.27	1547.36
615.61	1539.02
615.96	1530.92
616.31	1523.34
616.65	1516.01
617.00	1508.54
617.35	1501.05
617.70	1492.66
618.04	1484.20
618.39	1476.05
618.74	1468.47
619.08	1460.30
619.43	1452.82
619.78	1445.85
620.12	1438.61
620.47	1431.00
620.82	1422.97
621.16	1415.57
621.51	1407.98
621.85	1400.33
622.20	1391.75
622.55	1383.34
622.89	1375.54
623.24	1367.96
623.59	1360.45
623.93	1352.87
624.28	1345.61
624.62	1338.04
624.97	1330.87
625.32	1324.07
625.66	1317.01
626.01	1309.79
626.35	1302.34
626.70	1294.58
627.04	1286.88
627.39	1279.12
627.73	1271.73
628.08	1264.80
628.43	1257.41
628.77	1250.07
629.12	1242.54
629.46	1235.31
629.81	1227.97
630.15	1220.73
630.50	1213.36
630.84	1205.21
631.19	1197.35
631.53	1189.81
631.88	1182.21
632.22	1174.55
632.57	1167.29
632.91	1159.82
633.26	1152.48
633.60	1145.10
633.95	1137.96
634.29	1130.89
634.64	1124.25
634.98	1116.93
635.32	1109.78
635.67	1103.25
636.01	1096.61
636.36	1089.79
636.70	1083.39
637.05	1076.89
637.39	1070.49
637.73	1063.86
638.08	1057.97
638.42	1051.91
638.77	1045.53
639.11	1038.90
639.45	1032.59
639.80	1025.91
640.14	1019.42
640.49	1012.86
640.83	1006.61
641.17	1000.35
641.52	994.00
641.86	987.48
642.20	981.64
642.55	975.42
642.89	968.89
643.23	962.29
643.58	956.51
643.92	950.31
644.26	944.07
644.61	938.01
644.95	932.07
645.29	925.47
645.64	918.81
645.98	912.49
646.32	906.76
646.66	900.71
647.01	894.90
647.35	889.13
647.69	883.30
648.04	877.75
648.38	872.03
648.72	865.99
649.06	859.98
649.41	854.14
649.75	848.04
650.09	842.21
650.43	836.52
650.78	830.39
651.12	824.41
651.46	818.78
651.80	812.93
652.14	807.54
652.49	802.17
652.83	796.98
653.17	791.24
653.51	785.46
653.85	780.15
654.20	774.47
654.54	768.50
654.88	762.73
655.22	756.82
655.56	751.06
655.90	745.62
656.25	740.34
656.59	734.94
656.93	729.93
657.27	724.67
657.61	719.17
657.95	714.07
658.29	709.02
658.64	703.76
658.98	698.48
659.32	692.96
659.66	687.67
660.00	682.37
660.34	677.47
660.68	672.56
661.02	667.44
661.36	662.78
661.70	658.34
662.05	653.99
662.39	649.67
662.73	645.26
663.07	640.91
663.41	636.51
663.75	631.97
664.09	627.35
664.43	622.99
664.77	618.95
665.11	614.68
665.45	610.57
665.79	606.53
666.13	602.43
666.47	598.36
666.81	594.30
667.15	590.19
667.49	586.31
667.83	582.46
668.17	578.52
668.51	574.44
668.85	570.38
669.19	566.57
669.53	562.72
669.87	558.81
670.21	555.11
670.55	551.46
670.89	548.12
671.23	544.71
671.57	541.16
671.91	537.56
672.25	534.11
672.58	530.57
672.92	527.13
673.26	523.99
673.60	520.80
673.94	517.70
674.28	514.79
674.62	511.81
674.96	508.72
675.30	505.81
675.64	502.94
675.97	500.21
676.31	497.36
676.65	494.40
676.99	491.75
677.33	488.93
677.67	486.12
678.01	483.08
678.34	480.11
678.68	477.27
679.02	474.45
679.36	471.66
679.70	468.88
680.04	466.11
680.37	463.17
680.71	460.47
681.05	457.83
681.39	455.06
681.73	452.41
682.06	449.88
682.40	447.36
682.74	444.79
683.08	442.21
683.42	439.60
683.75	437.16
684.09	434.58
684.43	432.09
684.77	429.63
685.10	427.21
685.44	424.91
685.78	422.64
686.12	420.41
686.45	418.18
686.79	415.96
687.13	413.78
687.46	411.63
687.80	409.41
688.14	407.17
688.48	405.16
688.81	402.93
689.15	400.77
689.49	398.61
689.82	396.53
690.16	394.50
690.50	392.57
690.83	390.56
691.17	388.52
691.51	386.59
691.84	384.72
692.18	382.80
692.52	380.81
692.85	378.84
693.19	376.97
693.52	375.08
693.86	373.26
694.20	371.50
694.53	369.74
694.87	367.91
695.21	366.12
695.54	364.31
695.88	362.55
696.21	360.85
696.55	359.15
696.88	357.46
697.22	355.78
697.56	354.10
697.89	352.46
698.23	350.92
698.56	349.31
698.90	347.75
699.23	346.12
699.57	344.58
699.90	343.09
700.24	341.54
700.58	340.06
700.91	338.56
701.25	337.12
701.58	335.77
701.92	334.45
702.25	333.08
702.59	331.72
702.92	330.44
703.26	329.16
703.59	327.92
703.93	326.78
704.26	325.53
704.60	324.27
704.93	323.00
705.26	321.75
705.60	320.61
705.93	319.47
706.27	318.45
706.60	317.37
706.94	316.27
707.27	315.15
707.61	314.05
707.94	313.06
708.27	311.98
708.61	310.91
708.94	309.89
709.28	308.94
709.61	307.99
709.94	307.04
710.28	306.01
710.61	305.01
710.95	303.89
711.28	302.97
711.61	302.04
711.95	301.14
712.28	300.19
712.61	299.20
712.95	298.28
713.28	297.38
713.61	296.48
713.95	295.62
714.28	294.77
714.61	293.89
714.95	293.03
715.28	292.15
715.61	291.27
715.95	290.41
716.28	289.56
716.61	288.72
716.95	287.90
717.28	287.14
717.61	286.42
717.94	285.69
718.28	284.88
718.61	284.17
718.94	283.46
719.27	282.76
719.61	282.09
719.94	281.39
720.27	280.66
720.60	279.97
720.94	279.33
721.27	278.73
721.60	278.20
721.93	277.59
722.27	277.07
722.60	276.49
722.93	275.90
723.26	275.34
723.59	274.76
723.93	274.17
724.26	273.63
724.59	273.03
724.92	272.48
725.25	272.00
725.59	271.45
725.92	270.95
726.25	270.48
726.58	270.01
726.91	269.50
727.24	269.03
727.57	268.60
727.91	268.09
728.24	267.60
728.57	267.07
728.90	266.61
729.23	266.08
729.56	265.63
729.89	265.13
730.22	264.63
730.55	264.13
730.89	263.68
731.22	263.23
731.55	262.80
731.88	262.39
732.21	261.92
732.54	261.49
732.87	261.06
733.20	260.61
733.53	260.19
733.86	259.81
734.19	259.42
734.52	259.04
734.85	258.71
735.18	258.29
735.51	257.93
735.84	257.51
736.17	257.13
736.50	256.75
736.83	256.54
737.16	256.22
737.49	255.89
737.82	255.56
738.15	255.21
738.48	254.84
738.81	254.52
739.14	254.22
739.47	253.92
739.80	253.61
740.13	253.34
740.46	253.06
740.79	252.72
741.12	252.41
741.45	252.09
741.78	251.78
742.11	251.50
742.44	251.21
742.77	250.96
743.10	250.71
743.43	250.43
743.75	250.08
744.08	249.95
744.41	249.74
744.74	249.49
745.07	249.22
745.40	248.98
745.73	248.76
746.06	248.50
746.39	248.24
746.71	247.98
747.04	247.73
747.37	247.44
747.70	247.21
748.03	246.99
748.36	246.77
748.68	246.55
749.01	246.29
749.34	246.07
749.67	245.84
750.00	245.63
750.33	245.52
750.65	245.29
750.98	244.96
751.31	244.73
751.64	244.56
751.97	244.44
752.29	244.26
752.62	244.02
752.95	243.86
753.28	243.66
753.60	243.48
753.93	243.28
754.26	243.11
754.59	242.90
754.91	242.71
755.24	242.49
755.57	242.29
755.90	242.12
756.22	241.93
756.55	241.71
756.88	241.51
757.20	241.23
757.53	241.05
757.86	240.86
758.19	240.71
758.51	240.50
758.84	240.26
759.17	240.06
759.49	239.93
759.82	239.76
760.15	239.61
760.47	239.43
760.80	239.28
761.13	239.12
761.45	238.98
761.78	238.83
762.11	238.71
762.43	238.56
762.76	238.41
763.08	238.29
763.41	238.19
763.74	238.04
764.06	237.91
764.39	237.78
764.71	237.65
765.04	237.49
765.37	237.36
765.69	237.24
766.02	237.13
766.34	236.97
766.67	236.82
767.00	236.70
767.32	236.64
767.65	236.59
767.97	236.48
768.30	236.38
768.62	236.29
768.95	236.16
769.27	236.00
769.60	235.88
769.92	235.73
770.25	235.60
770.57	235.49
770.90	235.38
771.22	235.25
771.55	235.17
771.87	235.06
772.20	234.97
772.52	234.97
772.85	234.97
773.17	234.90
773.50	234.80
773.82	234.68
774.15	234.54
774.47	234.36
774.80	234.27
775.12	234.15
775.45	234.02
775.77	233.98
776.09	233.94
776.42	233.92
776.74	233.86
777.07	233.77
777.39	233.70
777.72	233.63
778.04	233.54
778.36	233.47
778.69	233.41
779.01	233.36
779.33	233.21
779.66	233.07
779.98	232.96
780.31	232.91
780.63	232.88
780.95	232.87
781.28	232.83
781.60	232.75
781.92	232.71
782.25	232.65
782.57	232.58
782.89	232.52
783.22	232.45
783.54	232.41
783.86	232.37
784.19	232.29
784.51	232.26
784.83	232.26
785.16	232.20
785.48	232.14
785.80	232.07
786.12	232.03
786.45	231.95
786.77	231.95
787.09	231.94
