SpectraSuite Data File
++++++++++++++++++++++++++++++++++++
Date: Fri Feb 01 16:11:41 EST 2013
User: group
Dark Spectrum Present: No
Reference Spectrum Present: No
Number of Sampled Component Spectra: 1
Spectrometers: USB2E7196
Integration Time (usec): 35000 (USB2E7196)
Spectra Averaged: 100 (USB2E7196)
Boxcar Smoothing: 10 (USB2E7196)
Correct for Electrical Dark: No (USB2E7196)
Strobe/Lamp Enabled: No (USB2E7196)
Correct for Detector Non-linearity: No (USB2E7196)
Correct for Stray Light: No (USB2E7196)
Number of Pixels in Processed Spectrum: 2048
>>>>>Begin Processed Spectral Data<<<<<
339.09	0.00
339.48	214.96
339.86	215.44
340.24	217.66
340.63	218.66
341.01	221.29
341.39	221.36
341.78	221.94
342.16	223.60
342.54	224.06
342.93	212.69
343.31	223.44
343.69	223.95
344.07	224.42
344.46	224.83
344.84	225.22
345.22	225.46
345.60	225.70
345.99	225.93
346.37	226.06
346.75	226.19
347.13	226.24
347.52	226.25
347.90	226.33
348.28	226.36
348.66	226.41
349.05	226.39
349.43	226.41
349.81	226.46
350.19	226.49
350.57	226.53
350.96	226.58
351.34	226.65
351.72	226.74
352.10	226.87
352.48	226.95
352.87	226.96
353.25	227.01
353.63	227.06
354.01	227.12
354.39	227.23
354.77	227.30
355.15	227.42
355.54	227.53
355.92	227.56
356.30	227.65
356.68	227.79
357.06	227.90
357.44	227.95
357.82	228.02
358.20	228.13
358.58	228.20
358.97	228.29
359.35	228.37
359.73	228.44
360.11	228.47
360.49	228.49
360.87	228.59
361.25	228.64
361.63	228.72
362.01	228.78
362.39	228.80
362.77	228.84
363.15	228.87
363.53	228.90
363.91	228.93
364.29	228.97
364.67	228.89
365.05	228.89
365.43	228.95
365.81	228.98
366.19	229.00
366.57	229.03
366.95	229.02
367.33	229.00
367.71	228.99
368.09	229.01
368.47	229.01
368.85	228.96
369.23	229.01
369.61	228.95
369.99	228.94
370.37	228.94
370.75	228.95
371.13	228.89
371.51	228.85
371.89	228.82
372.27	228.77
372.65	228.72
373.03	228.69
373.41	228.60
373.78	228.52
374.16	228.40
374.54	228.31
374.92	228.26
375.30	228.20
375.68	228.13
376.06	228.07
376.44	228.01
376.82	227.97
377.19	227.88
377.57	227.85
377.95	227.70
378.33	227.59
378.71	227.47
379.09	227.42
379.47	227.37
379.84	227.27
380.22	227.21
380.60	227.13
380.98	227.06
381.36	227.00
381.73	226.90
382.11	226.83
382.49	226.80
382.87	226.74
383.25	226.66
383.62	226.71
384.00	226.62
384.38	226.57
384.76	226.54
385.13	226.50
385.51	226.43
385.89	226.41
386.27	226.38
386.64	226.35
387.02	226.33
387.40	226.29
387.78	226.25
388.15	226.18
388.53	226.15
388.91	226.08
389.29	226.06
389.66	226.05
390.04	226.04
390.42	226.00
390.79	225.95
391.17	225.94
391.55	225.81
391.92	225.78
392.30	225.78
392.68	225.73
393.05	225.70
393.43	225.70
393.81	225.71
394.18	225.68
394.56	225.66
394.94	225.65
395.31	225.63
395.69	225.72
396.06	225.80
396.44	225.80
396.82	225.84
397.19	225.92
397.57	225.93
397.95	225.97
398.32	226.01
398.70	226.08
399.07	226.13
399.45	226.18
399.82	226.24
400.20	226.26
400.58	226.38
400.95	226.42
401.33	226.52
401.70	226.66
402.08	226.76
402.45	226.83
402.83	226.95
403.20	227.04
403.58	227.12
403.95	227.24
404.33	227.39
404.71	227.53
405.08	227.71
405.46	227.89
405.83	228.05
406.21	228.18
406.58	228.34
406.96	228.49
407.33	228.68
407.70	228.89
408.08	229.17
408.45	229.34
408.83	229.57
409.20	229.78
409.58	229.99
409.95	230.26
410.33	230.55
410.70	230.81
411.08	231.14
411.45	231.44
411.82	231.71
412.20	232.09
412.57	232.50
412.95	232.79
413.32	233.19
413.69	233.61
414.07	234.04
414.44	234.51
414.82	235.03
415.19	235.61
415.56	236.17
415.94	236.70
416.31	237.36
416.68	237.99
417.06	238.73
417.43	239.37
417.81	240.13
418.18	240.92
418.55	241.78
418.93	242.66
419.30	243.56
419.67	244.52
420.04	245.46
420.42	246.47
420.79	247.61
421.16	248.79
421.54	249.95
421.91	251.19
422.28	252.46
422.66	253.80
423.03	255.09
423.40	256.45
423.77	257.87
424.15	259.28
424.52	260.73
424.89	262.35
425.26	263.89
425.64	265.36
426.01	266.98
426.38	268.61
426.75	270.26
427.13	271.94
427.50	273.77
427.87	275.62
428.24	277.45
428.61	279.23
428.99	281.14
429.36	283.24
429.73	285.36
430.10	287.38
430.47	289.41
430.85	291.52
431.22	293.74
431.59	296.13
431.96	298.37
432.33	300.88
432.70	303.26
433.08	306.08
433.45	308.69
433.82	311.28
434.19	314.19
434.56	317.00
434.93	319.69
435.30	322.30
435.68	325.22
436.05	328.05
436.42	330.83
436.79	333.35
437.16	336.04
437.53	338.82
437.90	341.61
438.27	344.33
438.64	347.13
439.01	349.66
439.38	351.89
439.75	354.09
440.13	356.58
440.50	358.84
440.87	360.68
441.24	362.58
441.61	364.71
441.98	366.16
442.35	367.92
442.72	369.77
443.09	371.51
443.46	372.44
443.83	373.00
444.20	373.54
444.57	374.36
444.94	374.59
445.31	374.94
445.68	375.30
446.05	375.34
446.42	374.94
446.79	374.55
447.16	374.07
447.53	373.77
447.90	372.58
448.27	371.40
448.64	369.82
449.01	368.70
449.37	366.75
449.74	364.86
450.11	362.69
450.48	360.25
450.85	357.75
451.22	355.63
451.59	353.63
451.96	351.67
452.33	349.09
452.70	346.78
453.07	343.94
453.43	340.99
453.80	338.24
454.17	335.59
454.54	333.07
454.91	330.36
455.28	327.62
455.65	325.14
456.02	322.71
456.38	320.59
456.75	317.99
457.12	315.73
457.49	313.51
457.86	311.32
458.23	309.41
458.59	307.37
458.96	305.29
459.33	303.42
459.70	301.56
460.07	300.03
460.43	298.32
460.80	296.74
461.17	295.34
461.54	293.89
461.91	292.46
462.27	291.00
462.64	289.77
463.01	288.44
463.38	287.15
463.74	285.83
464.11	284.62
464.48	283.57
464.85	282.49
465.21	281.63
465.58	280.72
465.95	279.66
466.32	278.76
466.68	277.87
467.05	277.01
467.42	276.14
467.78	275.24
468.15	274.38
468.52	273.70
468.88	272.88
469.25	272.14
469.62	271.53
469.98	270.88
470.35	270.26
470.72	269.66
471.08	269.06
471.45	268.52
471.82	268.05
472.18	267.48
472.55	267.02
472.92	266.54
473.28	266.08
473.65	265.67
474.02	265.24
474.38	264.89
474.75	264.60
475.11	264.25
475.48	263.98
475.85	263.75
476.21	263.53
476.58	263.36
476.94	263.21
477.31	263.06
477.67	262.90
478.04	262.78
478.41	262.76
478.77	262.82
479.14	262.73
479.50	262.72
479.87	262.79
480.23	262.87
480.60	262.92
480.96	262.99
481.33	263.16
481.69	263.35
482.06	263.52
482.42	263.71
482.79	263.98
483.15	264.29
483.52	264.67
483.88	265.01
484.25	265.34
484.61	265.76
484.98	266.21
485.34	266.76
485.71	267.36
486.07	267.94
486.44	268.49
486.80	269.23
487.17	269.97
487.53	270.72
487.90	271.55
488.26	272.51
488.62	273.50
488.99	274.50
489.35	275.54
489.72	276.70
490.08	277.88
490.44	279.13
490.81	280.50
491.17	281.84
491.54	283.34
491.90	284.89
492.26	286.50
492.63	288.24
492.99	290.07
493.36	291.98
493.72	294.04
494.08	296.16
494.45	298.38
494.81	300.75
495.17	303.27
495.54	305.89
495.90	308.55
496.26	311.35
496.63	314.34
496.99	317.45
497.35	320.72
497.72	324.12
498.08	327.63
498.44	331.29
498.80	335.21
499.17	339.31
499.53	343.48
499.89	347.88
500.26	352.37
500.62	356.98
500.98	361.91
501.34	366.97
501.71	372.36
502.07	377.80
502.43	383.44
502.79	389.18
503.16	395.23
503.52	401.51
503.88	407.94
504.24	414.56
504.60	421.49
504.97	428.64
505.33	435.99
505.69	443.72
506.05	451.46
506.41	459.39
506.78	467.49
507.14	475.97
507.50	484.67
507.86	493.64
508.22	502.87
508.59	512.15
508.95	521.74
509.31	531.55
509.67	541.69
510.03	551.93
510.39	562.56
510.75	573.41
511.12	584.37
511.48	595.65
511.84	607.10
512.20	618.54
512.56	630.47
512.92	642.64
513.28	654.96
513.64	667.48
514.00	680.20
514.37	693.18
514.73	706.22
515.09	719.40
515.45	732.75
515.81	746.42
516.17	760.39
516.53	774.55
516.89	788.69
517.25	802.87
517.61	817.28
517.97	831.70
518.33	846.13
518.69	860.87
519.05	875.75
519.41	890.90
519.77	906.59
520.13	922.10
520.49	937.44
520.85	952.86
521.21	968.56
521.57	984.78
521.93	1000.47
522.29	1016.85
522.65	1032.84
523.01	1049.03
523.37	1065.00
523.73	1081.14
524.09	1097.28
524.45	1113.54
524.81	1130.15
525.17	1146.87
525.53	1163.70
525.89	1180.48
526.25	1197.40
526.61	1213.76
526.97	1230.46
527.33	1246.78
527.68	1263.26
528.04	1279.75
528.40	1296.29
528.76	1313.24
529.12	1329.75
529.48	1346.56
529.84	1362.59
530.20	1379.23
530.56	1396.26
530.91	1413.46
531.27	1430.18
531.63	1446.52
531.99	1463.01
532.35	1478.94
532.71	1494.85
533.07	1511.09
533.42	1527.03
533.78	1542.84
534.14	1559.07
534.50	1574.30
534.86	1590.14
535.21	1605.31
535.57	1621.16
535.93	1636.50
536.29	1651.31
536.65	1666.27
537.00	1680.96
537.36	1696.16
537.72	1710.74
538.08	1725.03
538.44	1738.82
538.79	1752.57
539.15	1766.12
539.51	1779.86
539.87	1794.10
540.22	1807.69
540.58	1821.31
540.94	1834.38
541.29	1847.17
541.65	1859.84
542.01	1873.01
542.37	1885.30
542.72	1897.65
543.08	1909.42
543.44	1921.78
543.79	1932.99
544.15	1943.92
544.51	1955.49
544.87	1966.35
545.22	1977.11
545.58	1987.23
545.94	1996.95
546.29	2006.75
546.65	2016.55
547.01	2025.82
547.36	2034.44
547.72	2042.96
548.07	2050.91
548.43	2059.07
548.79	2067.00
549.14	2074.67
549.50	2081.92
549.86	2089.40
550.21	2096.57
550.57	2103.63
550.92	2110.20
551.28	2117.15
551.64	2124.21
551.99	2130.76
552.35	2136.83
552.70	2142.84
553.06	2148.93
553.41	2155.38
553.77	2161.39
554.13	2167.53
554.48	2173.63
554.84	2179.34
555.19	2184.64
555.55	2189.77
555.90	2194.30
556.26	2199.33
556.61	2203.94
556.97	2208.44
557.32	2212.60
557.68	2216.69
558.03	2221.02
558.39	2224.67
558.74	2229.18
559.10	2233.03
559.45	2236.49
559.81	2240.84
560.16	2244.72
560.52	2247.88
560.87	2251.18
561.23	2253.86
561.58	2256.81
561.94	2259.23
562.29	2261.20
562.64	2263.90
563.00	2266.50
563.35	2270.08
563.71	2273.24
564.06	2276.47
564.42	2279.29
564.77	2281.89
565.12	2284.32
565.48	2286.24
565.83	2288.20
566.19	2289.64
566.54	2290.51
566.89	2291.91
567.25	2292.62
567.60	2293.99
567.96	2295.83
568.31	2296.72
568.66	2297.91
569.02	2298.45
569.37	2298.90
569.72	2300.11
570.08	2300.22
570.43	2300.28
570.78	2299.64
571.14	2298.15
571.49	2296.75
571.84	2296.27
572.20	2295.30
572.55	2294.06
572.90	2292.35
573.26	2290.99
573.61	2289.31
573.96	2287.63
574.31	2284.65
574.67	2281.54
575.02	2277.91
575.37	2274.36
575.72	2270.60
576.08	2267.10
576.43	2263.74
576.78	2260.04
577.13	2256.65
577.49	2253.56
577.84	2250.08
578.19	2246.32
578.54	2242.58
578.90	2238.38
579.25	2232.94
579.60	2227.93
579.95	2223.13
580.30	2218.25
580.66	2213.08
581.01	2208.07
581.36	2203.17
581.71	2199.11
582.06	2194.82
582.42	2190.35
582.77	2185.17
583.12	2180.74
583.47	2176.38
583.82	2171.48
584.17	2166.32
584.53	2160.97
584.88	2155.34
585.23	2149.53
585.58	2144.12
585.93	2138.71
586.28	2133.94
586.63	2128.92
586.98	2123.92
587.34	2119.25
587.69	2114.39
588.04	2109.23
588.39	2103.71
588.74	2097.24
589.09	2090.94
589.44	2084.22
589.79	2078.18
590.14	2072.47
590.49	2065.67
590.84	2059.11
591.19	2053.18
591.54	2046.69
591.89	2039.39
592.25	2032.71
592.60	2025.64
592.95	2018.12
593.30	2010.82
593.65	2003.11
594.00	1996.00
594.35	1988.75
594.70	1980.57
595.05	1973.48
595.40	1966.20
595.75	1958.77
596.10	1952.69
596.45	1946.09
596.80	1940.02
597.15	1933.61
597.50	1926.72
597.85	1920.46
598.19	1913.83
598.54	1906.75
598.89	1900.13
599.24	1894.36
599.59	1887.76
599.94	1881.43
600.29	1875.08
600.64	1868.49
600.99	1861.32
601.34	1854.52
601.69	1847.53
602.04	1840.80
602.39	1833.39
602.74	1826.65
603.08	1819.90
603.43	1813.16
603.78	1805.76
604.13	1798.46
604.48	1791.14
604.83	1784.34
605.18	1777.49
605.53	1769.54
605.87	1761.49
606.22	1754.25
606.57	1746.23
606.92	1738.87
607.27	1731.92
607.62	1725.17
607.96	1717.96
608.31	1711.39
608.66	1703.96
609.01	1696.47
609.36	1689.03
609.70	1681.16
610.05	1673.15
610.40	1665.53
610.75	1657.20
611.10	1649.63
611.44	1641.17
611.79	1633.15
612.14	1624.41
612.49	1615.15
612.83	1606.77
613.18	1598.65
613.53	1590.56
613.88	1581.95
614.22	1573.67
614.57	1564.89
614.92	1556.75
615.27	1549.32
615.61	1540.88
615.96	1532.78
616.31	1525.03
616.65	1517.73
617.00	1510.04
617.35	1502.22
617.70	1493.88
618.04	1485.38
618.39	1477.12
618.74	1469.54
619.08	1461.20
619.43	1453.56
619.78	1446.67
620.12	1439.52
620.47	1432.04
620.82	1423.91
621.16	1416.55
621.51	1408.85
621.85	1401.31
622.20	1392.87
622.55	1384.45
622.89	1376.58
623.24	1368.98
623.59	1361.56
623.93	1353.87
624.28	1346.70
624.62	1339.25
624.97	1331.97
625.32	1325.19
625.66	1318.07
626.01	1310.85
626.35	1303.44
626.70	1295.66
627.04	1288.06
627.39	1280.15
627.73	1272.70
628.08	1265.69
628.43	1258.39
628.77	1251.09
629.12	1243.48
629.46	1236.28
629.81	1228.72
630.15	1221.49
630.50	1213.91
630.84	1205.78
631.19	1197.76
631.53	1190.23
631.88	1182.68
632.22	1175.11
632.57	1167.75
632.91	1160.27
633.26	1152.99
633.60	1145.49
633.95	1138.38
634.29	1131.10
634.64	1124.43
634.98	1117.08
635.32	1109.93
635.67	1103.26
636.01	1096.68
636.36	1089.99
636.70	1083.35
637.05	1076.87
637.39	1070.43
637.73	1064.11
638.08	1058.21
638.42	1052.32
638.77	1045.80
639.11	1039.18
639.45	1032.80
639.80	1026.09
640.14	1019.63
640.49	1012.96
640.83	1006.73
641.17	1000.57
641.52	994.22
641.86	987.82
642.20	981.91
642.55	975.56
642.89	969.08
643.23	962.42
643.58	956.51
643.92	950.34
644.26	944.33
644.61	938.28
644.95	932.32
645.29	925.78
645.64	918.97
645.98	912.69
646.32	906.82
646.66	900.76
647.01	894.97
647.35	889.31
647.69	883.44
648.04	877.93
648.38	872.16
648.72	866.31
649.06	860.29
649.41	854.45
649.75	848.57
650.09	842.61
650.43	836.86
650.78	830.78
651.12	824.85
651.46	819.04
651.80	813.36
652.14	807.82
652.49	802.45
652.83	797.29
653.17	791.60
653.51	785.89
653.85	780.44
654.20	774.84
654.54	768.85
654.88	763.13
655.22	757.24
655.56	751.46
655.90	745.94
656.25	740.67
656.59	735.30
656.93	730.19
657.27	725.06
657.61	719.55
657.95	714.40
658.29	709.31
658.64	704.04
658.98	698.68
659.32	693.27
659.66	688.06
660.00	682.79
660.34	677.93
660.68	673.01
661.02	668.04
661.36	663.34
661.70	658.82
662.05	654.50
662.39	650.19
662.73	645.75
663.07	641.40
663.41	636.91
663.75	632.39
664.09	627.78
664.43	623.43
664.77	619.37
665.11	615.18
665.45	611.07
665.79	606.98
666.13	602.87
666.47	598.72
666.81	594.60
667.15	590.44
667.49	586.43
667.83	582.55
668.17	578.63
668.51	574.59
668.85	570.51
669.19	566.67
669.53	562.74
669.87	558.92
670.21	555.12
670.55	551.53
670.89	548.05
671.23	544.64
671.57	541.08
671.91	537.55
672.25	533.99
672.58	530.46
672.92	527.06
673.26	523.85
673.60	520.78
673.94	517.58
674.28	514.67
674.62	511.76
674.96	508.71
675.30	505.80
675.64	502.85
675.97	500.09
676.31	497.22
676.65	494.31
676.99	491.59
677.33	488.82
677.67	485.99
678.01	483.00
678.34	480.04
678.68	477.14
679.02	474.31
679.36	471.51
679.70	468.79
680.04	466.05
680.37	463.21
680.71	460.37
681.05	457.79
681.39	455.09
681.73	452.43
682.06	449.92
682.40	447.31
682.74	444.79
683.08	442.22
683.42	439.61
683.75	437.13
684.09	434.53
684.43	431.98
684.77	429.48
685.10	427.11
685.44	424.81
685.78	422.54
686.12	420.23
686.45	417.98
686.79	415.67
687.13	413.45
687.46	411.23
687.80	409.06
688.14	406.83
688.48	404.77
688.81	402.52
689.15	400.37
689.49	398.25
689.82	396.17
690.16	394.14
690.50	392.16
690.83	390.25
691.17	388.26
691.51	386.41
691.84	384.56
692.18	382.66
692.52	380.71
692.85	378.78
693.19	376.97
693.52	375.16
693.86	373.36
694.20	371.59
694.53	369.84
694.87	367.98
695.21	366.18
695.54	364.33
695.88	362.57
696.21	360.83
696.55	359.21
696.88	357.48
697.22	355.79
697.56	354.19
697.89	352.50
698.23	350.90
698.56	349.30
698.90	347.79
699.23	346.21
699.57	344.63
699.90	343.07
700.24	341.50
700.58	339.96
700.91	338.50
701.25	337.06
701.58	335.70
701.92	334.36
702.25	333.04
702.59	331.71
702.92	330.42
703.26	329.13
703.59	327.77
703.93	326.58
704.26	325.33
704.60	324.01
704.93	322.75
705.26	321.54
705.60	320.33
705.93	319.11
706.27	318.01
706.60	316.97
706.94	315.91
707.27	314.78
707.61	313.70
707.94	312.63
708.27	311.54
708.61	310.42
708.94	309.39
709.28	308.38
709.61	307.43
709.94	306.45
710.28	305.40
710.61	304.43
710.95	303.38
711.28	302.48
711.61	301.56
711.95	300.62
712.28	299.68
712.61	298.72
712.95	297.82
713.28	296.93
713.61	296.01
713.95	295.10
714.28	294.30
714.61	293.45
714.95	292.58
715.28	291.72
715.61	290.84
715.95	290.00
716.28	289.18
716.61	288.30
716.95	287.49
717.28	286.77
717.61	286.00
717.94	285.23
718.28	284.42
718.61	283.67
718.94	282.99
719.27	282.33
719.61	281.66
719.94	280.96
720.27	280.24
720.60	279.55
720.94	278.92
721.27	278.27
721.60	277.68
721.93	277.10
722.27	276.53
722.60	275.99
722.93	275.43
723.26	274.87
723.59	274.34
723.93	273.77
724.26	273.18
724.59	272.58
724.92	272.09
725.25	271.61
725.59	271.08
725.92	270.53
726.25	269.97
726.58	269.46
726.91	268.98
727.24	268.49
727.57	268.00
727.91	267.51
728.24	267.03
728.57	266.55
728.90	266.10
729.23	265.60
729.56	265.18
729.89	264.67
730.22	264.15
730.55	263.66
730.89	263.24
731.22	262.82
731.55	262.42
731.88	261.98
732.21	261.55
732.54	261.12
732.87	260.71
733.20	260.34
733.53	259.97
733.86	259.59
734.19	259.21
734.52	258.88
734.85	258.56
735.18	258.12
735.51	257.75
735.84	257.36
736.17	257.05
736.50	256.67
736.83	256.49
737.16	256.17
737.49	255.83
737.82	255.51
738.15	255.19
738.48	254.85
738.81	254.56
739.14	254.23
739.47	253.93
739.80	253.67
740.13	253.39
740.46	253.05
740.79	252.72
741.12	252.41
741.45	252.09
741.78	251.74
742.11	251.51
742.44	251.20
742.77	250.95
743.10	250.65
743.43	250.33
743.75	249.91
744.08	249.75
744.41	249.50
744.74	249.21
745.07	248.92
745.40	248.71
745.73	248.49
746.06	248.22
746.39	247.95
746.71	247.66
747.04	247.35
747.37	247.09
747.70	246.86
748.03	246.63
748.36	246.41
748.68	246.16
749.01	245.91
749.34	245.71
749.67	245.46
750.00	245.24
750.33	245.10
750.65	244.91
750.98	244.58
751.31	244.37
751.64	244.16
751.97	243.96
752.29	243.71
752.62	243.42
752.95	243.21
753.28	243.02
753.60	242.77
753.93	242.61
754.26	242.42
754.59	242.19
754.91	241.97
755.24	241.75
755.57	241.54
755.90	241.36
756.22	241.15
756.55	240.95
756.88	240.71
757.20	240.45
757.53	240.26
757.86	240.05
758.19	239.87
758.51	239.70
758.84	239.51
759.17	239.31
759.49	239.13
759.82	238.97
760.15	238.81
760.47	238.69
760.80	238.48
761.13	238.35
761.45	238.18
761.78	238.06
762.11	237.95
762.43	237.83
762.76	237.67
763.08	237.55
763.41	237.43
763.74	237.33
764.06	237.18
764.39	237.04
764.71	236.95
765.04	236.81
765.37	236.67
765.69	236.56
766.02	236.44
766.34	236.32
766.67	236.19
767.00	236.07
767.32	236.03
767.65	236.01
767.97	235.86
768.30	235.78
768.62	235.64
768.95	235.50
769.27	235.40
769.60	235.33
769.92	235.17
770.25	235.04
770.57	234.88
770.90	234.82
771.22	234.71
771.55	234.61
771.87	234.49
772.20	234.44
772.52	234.42
772.85	234.45
773.17	234.36
773.50	234.25
773.82	234.17
774.15	234.00
774.47	233.85
774.80	233.78
775.12	233.68
775.45	233.61
775.77	233.53
776.09	233.47
776.42	233.41
776.74	233.39
777.07	233.34
777.39	233.30
777.72	233.21
778.04	233.16
778.36	233.06
778.69	233.01
779.01	232.95
779.33	232.82
779.66	232.66
779.98	232.60
780.31	232.55
780.63	232.50
780.95	232.46
781.28	232.38
781.60	232.31
781.92	232.27
782.25	232.21
782.57	232.15
782.89	232.08
783.22	231.98
783.54	231.89
783.86	231.82
784.19	231.76
784.51	231.70
784.83	231.61
785.16	231.57
785.48	231.52
785.80	231.49
786.12	231.42
786.45	231.34
786.77	231.30
787.09	231.29
