SpectraSuite Data File
++++++++++++++++++++++++++++++++++++
Date: Fri Feb 01 17:00:10 EST 2013
User: group
Dark Spectrum Present: No
Reference Spectrum Present: No
Number of Sampled Component Spectra: 1
Spectrometers: USB2E7196
Integration Time (usec): 35000 (USB2E7196)
Spectra Averaged: 100 (USB2E7196)
Boxcar Smoothing: 10 (USB2E7196)
Correct for Electrical Dark: No (USB2E7196)
Strobe/Lamp Enabled: No (USB2E7196)
Correct for Detector Non-linearity: No (USB2E7196)
Correct for Stray Light: No (USB2E7196)
Number of Pixels in Processed Spectrum: 2048
>>>>>Begin Processed Spectral Data<<<<<
339.09	0.00
339.48	214.06
339.86	215.02
340.24	215.81
340.63	217.95
341.01	220.25
341.39	220.17
341.78	221.14
342.16	223.14
342.54	223.24
342.93	211.74
343.31	222.46
343.69	222.98
344.07	223.44
344.46	223.87
344.84	224.23
345.22	224.48
345.60	224.74
345.99	224.94
346.37	225.05
346.75	225.15
347.13	225.25
347.52	225.31
347.90	225.35
348.28	225.39
348.66	225.45
349.05	225.41
349.43	225.48
349.81	225.54
350.19	225.60
350.57	225.62
350.96	225.70
351.34	225.75
351.72	225.80
352.10	225.88
352.48	225.96
352.87	226.03
353.25	226.08
353.63	226.15
354.01	226.22
354.39	226.30
354.77	226.39
355.15	226.51
355.54	226.55
355.92	226.59
356.30	226.64
356.68	226.78
357.06	226.88
357.44	226.94
357.82	227.03
358.20	227.10
358.58	227.15
358.97	227.22
359.35	227.32
359.73	227.39
360.11	227.45
360.49	227.52
360.87	227.56
361.25	227.63
361.63	227.69
362.01	227.75
362.39	227.79
362.77	227.81
363.15	227.78
363.53	227.83
363.91	227.89
364.29	227.91
364.67	227.82
365.05	227.85
365.43	227.84
365.81	227.81
366.19	227.86
366.57	227.88
366.95	227.87
367.33	227.82
367.71	227.82
368.09	227.82
368.47	227.76
368.85	227.73
369.23	227.70
369.61	227.65
369.99	227.63
370.37	227.61
370.75	227.62
371.13	227.58
371.51	227.48
371.89	227.42
372.27	227.37
372.65	227.32
373.03	227.28
373.41	227.23
373.78	227.18
374.16	227.05
374.54	227.02
374.92	226.96
375.30	226.90
375.68	226.81
376.06	226.76
376.44	226.72
376.82	226.67
377.19	226.63
377.57	226.54
377.95	226.43
378.33	226.34
378.71	226.21
379.09	226.20
379.47	226.18
379.84	226.11
380.22	226.06
380.60	225.98
380.98	225.90
381.36	225.84
381.73	225.72
382.11	225.67
382.49	225.56
382.87	225.50
383.25	225.45
383.62	225.54
384.00	225.45
384.38	225.39
384.76	225.35
385.13	225.29
385.51	225.25
385.89	225.23
386.27	225.20
386.64	225.19
387.02	225.11
387.40	225.07
387.78	225.03
388.15	224.98
388.53	224.97
388.91	224.96
389.29	224.93
389.66	224.96
390.04	224.94
390.42	224.93
390.79	224.90
391.17	224.86
391.55	224.72
391.92	224.71
392.30	224.70
392.68	224.67
393.05	224.67
393.43	224.68
393.81	224.66
394.18	224.62
394.56	224.63
394.94	224.67
395.31	224.66
395.69	224.71
396.06	224.77
396.44	224.75
396.82	224.73
397.19	224.81
397.57	224.82
397.95	224.86
398.32	224.89
398.70	224.96
399.07	225.07
399.45	225.15
399.82	225.22
400.20	225.25
400.58	225.32
400.95	225.34
401.33	225.42
401.70	225.57
402.08	225.68
402.45	225.76
402.83	225.87
403.20	226.00
403.58	226.06
403.95	226.16
404.33	226.32
404.71	226.46
405.08	226.63
405.46	226.76
405.83	226.91
406.21	227.06
406.58	227.23
406.96	227.34
407.33	227.48
407.70	227.65
408.08	227.93
408.45	228.17
408.83	228.40
409.20	228.62
409.58	228.79
409.95	229.04
410.33	229.31
410.70	229.53
411.08	229.83
411.45	230.15
411.82	230.45
412.20	230.78
412.57	231.21
412.95	231.50
413.32	231.94
413.69	232.37
414.07	232.82
414.44	233.29
414.82	233.79
415.19	234.34
415.56	234.88
415.94	235.42
416.31	236.05
416.68	236.69
417.06	237.41
417.43	238.12
417.81	238.89
418.18	239.70
418.55	240.55
418.93	241.39
419.30	242.27
419.67	243.24
420.04	244.18
420.42	245.12
420.79	246.27
421.16	247.40
421.54	248.57
421.91	249.75
422.28	251.00
422.66	252.33
423.03	253.66
423.40	255.01
423.77	256.45
424.15	257.86
424.52	259.32
424.89	260.90
425.26	262.43
425.64	263.85
426.01	265.39
426.38	267.05
426.75	268.72
427.13	270.45
427.50	272.25
427.87	274.12
428.24	276.00
428.61	277.71
428.99	279.63
429.36	281.69
429.73	283.74
430.10	285.71
430.47	287.73
430.85	289.78
431.22	292.00
431.59	294.34
431.96	296.55
432.33	299.00
432.70	301.34
433.08	304.09
433.45	306.70
433.82	309.24
434.19	312.10
434.56	314.85
434.93	317.50
435.30	320.10
435.68	322.98
436.05	325.76
436.42	328.57
436.79	331.06
437.16	333.77
437.53	336.59
437.90	339.40
438.27	342.13
438.64	344.98
439.01	347.57
439.38	349.77
439.75	351.97
440.13	354.42
440.50	356.80
440.87	358.66
441.24	360.60
441.61	362.78
441.98	364.23
442.35	366.03
442.72	367.87
443.09	369.65
443.46	370.60
443.83	371.19
444.20	371.69
444.57	372.57
444.94	372.85
445.31	373.18
445.68	373.53
446.05	373.64
446.42	373.25
446.79	372.85
447.16	372.44
447.53	372.07
447.90	370.98
448.27	369.80
448.64	368.25
449.01	367.18
449.37	365.24
449.74	363.39
450.11	361.20
450.48	358.75
450.85	356.25
451.22	354.15
451.59	352.17
451.96	350.29
452.33	347.69
452.70	345.37
453.07	342.60
453.43	339.73
453.80	337.01
454.17	334.37
454.54	331.84
454.91	329.14
455.28	326.51
455.65	324.07
456.02	321.61
456.38	319.49
456.75	316.84
457.12	314.59
457.49	312.42
457.86	310.28
458.23	308.48
458.59	306.46
458.96	304.42
459.33	302.57
459.70	300.74
460.07	299.25
460.43	297.54
460.80	295.93
461.17	294.52
461.54	293.02
461.91	291.60
462.27	290.13
462.64	288.88
463.01	287.58
463.38	286.30
463.74	284.98
464.11	283.80
464.48	282.79
464.85	281.71
465.21	280.86
465.58	279.94
465.95	278.80
466.32	277.89
466.68	276.99
467.05	276.10
467.42	275.22
467.78	274.32
468.15	273.44
468.52	272.73
468.88	271.86
469.25	271.08
469.62	270.49
469.98	269.86
470.35	269.23
470.72	268.65
471.08	267.97
471.45	267.44
471.82	266.88
472.18	266.29
472.55	265.87
472.92	265.33
473.28	264.89
473.65	264.47
474.02	264.08
474.38	263.72
474.75	263.42
475.11	263.08
475.48	262.81
475.85	262.61
476.21	262.43
476.58	262.25
476.94	262.15
477.31	261.97
477.67	261.82
478.04	261.75
478.41	261.68
478.77	261.76
479.14	261.68
479.50	261.71
479.87	261.78
480.23	261.84
480.60	261.93
480.96	261.99
481.33	262.18
481.69	262.36
482.06	262.56
482.42	262.75
482.79	262.99
483.15	263.29
483.52	263.69
483.88	264.03
484.25	264.43
484.61	264.83
484.98	265.24
485.34	265.79
485.71	266.36
486.07	267.00
486.44	267.56
486.80	268.27
487.17	268.99
487.53	269.81
487.90	270.65
488.26	271.60
488.62	272.60
488.99	273.59
489.35	274.60
489.72	275.71
490.08	276.93
490.44	278.17
490.81	279.53
491.17	280.85
491.54	282.33
491.90	283.89
492.26	285.51
492.63	287.28
492.99	289.08
493.36	290.96
493.72	292.99
494.08	295.08
494.45	297.35
494.81	299.74
495.17	302.13
495.54	304.73
495.90	307.39
496.26	310.19
496.63	313.15
496.99	316.30
497.35	319.56
497.72	322.93
498.08	326.45
498.44	330.13
498.80	334.02
499.17	338.00
499.53	342.17
499.89	346.60
500.26	351.06
500.62	355.69
500.98	360.63
501.34	365.70
501.71	371.00
502.07	376.38
502.43	381.98
502.79	387.79
503.16	393.78
503.52	399.98
503.88	406.36
504.24	412.92
504.60	419.72
504.97	426.79
505.33	434.11
505.69	441.78
506.05	449.47
506.41	457.34
506.78	465.51
507.14	473.85
507.50	482.43
507.86	491.38
508.22	500.51
508.59	509.63
508.95	519.04
509.31	528.76
509.67	538.77
510.03	548.91
510.39	559.31
510.75	570.01
511.12	580.79
511.48	591.97
511.84	603.31
512.20	614.67
512.56	626.46
512.92	638.40
513.28	650.55
513.64	662.81
514.00	675.31
514.37	687.97
514.73	700.88
515.09	713.76
515.45	726.79
515.81	740.14
516.17	753.89
516.53	767.86
516.89	781.84
517.25	795.83
517.61	809.99
517.97	824.29
518.33	838.42
518.69	852.95
519.05	867.57
519.41	882.49
519.77	897.74
520.13	912.83
520.49	928.09
520.85	943.22
521.21	958.60
521.57	974.56
521.93	990.17
522.29	1006.15
522.65	1022.10
523.01	1038.03
523.37	1053.81
523.73	1069.64
524.09	1085.42
524.45	1101.36
524.81	1117.63
525.17	1134.10
525.53	1150.69
525.89	1167.24
526.25	1183.69
526.61	1199.87
526.97	1216.31
527.33	1232.48
527.68	1248.79
528.04	1264.81
528.40	1281.08
528.76	1297.87
529.12	1314.12
529.48	1330.58
529.84	1346.36
530.20	1362.59
530.56	1379.13
530.91	1396.22
531.27	1412.67
531.63	1428.77
531.99	1444.97
532.35	1460.73
532.71	1476.32
533.07	1492.20
533.42	1507.78
533.78	1523.65
534.14	1539.60
534.50	1554.64
534.86	1570.12
535.21	1585.10
535.57	1600.71
535.93	1615.79
536.29	1630.33
536.65	1645.09
537.00	1659.54
537.36	1674.54
537.72	1688.78
538.08	1703.16
538.44	1716.64
538.79	1730.27
539.15	1743.52
539.51	1756.95
539.87	1770.76
540.22	1784.18
540.58	1797.73
540.94	1810.77
541.29	1823.25
541.65	1835.56
542.01	1848.39
542.37	1860.62
542.72	1872.79
543.08	1884.32
543.44	1896.57
543.79	1907.56
544.15	1918.41
544.51	1929.73
544.87	1940.45
545.22	1951.12
545.58	1961.19
545.94	1970.80
546.29	1980.47
546.65	1990.35
547.01	1999.54
547.36	2008.31
547.72	2016.58
548.07	2024.27
548.43	2032.25
548.79	2040.17
549.14	2047.63
549.50	2054.74
549.86	2062.23
550.21	2069.43
550.57	2076.57
550.92	2082.97
551.28	2089.82
551.64	2096.64
551.99	2103.14
552.35	2109.22
552.70	2115.27
553.06	2121.08
553.41	2127.26
553.77	2133.29
554.13	2139.28
554.48	2145.29
554.84	2150.74
555.19	2156.14
555.55	2161.38
555.90	2165.93
556.26	2170.92
556.61	2175.70
556.97	2180.27
557.32	2184.41
557.68	2188.52
558.03	2192.72
558.39	2196.44
558.74	2201.28
559.10	2205.25
559.45	2208.83
559.81	2213.08
560.16	2217.00
560.52	2220.35
560.87	2223.78
561.23	2226.57
561.58	2229.56
561.94	2232.28
562.29	2234.66
562.64	2237.50
563.00	2239.98
563.35	2243.66
563.71	2246.81
564.06	2250.02
564.42	2253.02
564.77	2255.80
565.12	2258.28
565.48	2260.45
565.83	2262.51
566.19	2263.99
566.54	2264.84
566.89	2266.15
567.25	2267.03
567.60	2268.40
567.96	2270.20
568.31	2271.32
568.66	2272.57
569.02	2273.33
569.37	2273.84
569.72	2274.91
570.08	2275.26
570.43	2275.53
570.78	2275.05
571.14	2273.76
571.49	2272.60
571.84	2272.30
572.20	2271.25
572.55	2270.26
572.90	2268.76
573.26	2267.72
573.61	2266.11
573.96	2264.74
574.31	2262.15
574.67	2259.44
575.02	2256.00
575.37	2252.75
575.72	2249.12
576.08	2245.93
576.43	2242.76
576.78	2239.37
577.13	2236.35
577.49	2233.27
577.84	2230.10
578.19	2226.58
578.54	2223.20
578.90	2219.40
579.25	2214.09
579.60	2209.44
579.95	2204.85
580.30	2200.18
580.66	2195.16
581.01	2190.34
581.36	2185.70
581.71	2181.64
582.06	2177.40
582.42	2173.21
582.77	2168.25
583.12	2163.93
583.47	2159.44
583.82	2154.59
584.17	2149.44
584.53	2144.16
584.88	2138.70
585.23	2133.06
585.58	2127.89
585.93	2122.53
586.28	2117.77
586.63	2112.84
586.98	2107.93
587.34	2103.23
587.69	2098.40
588.04	2093.24
588.39	2087.86
588.74	2081.45
589.09	2075.46
589.44	2068.91
589.79	2063.08
590.14	2057.57
590.49	2051.12
590.84	2044.83
591.19	2039.18
591.54	2032.85
591.89	2025.93
592.25	2019.53
592.60	2012.52
592.95	2004.99
593.30	1997.91
593.65	1990.53
594.00	1983.75
594.35	1976.66
594.70	1968.73
595.05	1961.91
595.40	1954.73
595.75	1947.40
596.10	1941.47
596.45	1935.03
596.80	1928.91
597.15	1922.41
597.50	1915.68
597.85	1909.39
598.19	1902.97
598.54	1895.84
598.89	1889.41
599.24	1883.51
599.59	1876.93
599.94	1870.89
600.29	1864.82
600.64	1858.22
600.99	1851.00
601.34	1844.27
601.69	1837.30
602.04	1830.71
602.39	1823.34
602.74	1816.79
603.08	1810.13
603.43	1803.48
603.78	1796.24
604.13	1789.18
604.48	1782.10
604.83	1775.27
605.18	1768.51
605.53	1760.75
605.87	1752.97
606.22	1745.84
606.57	1737.87
606.92	1730.60
607.27	1723.54
607.62	1716.73
607.96	1709.77
608.31	1703.35
608.66	1695.82
609.01	1688.41
609.36	1680.97
609.70	1673.03
610.05	1665.11
610.40	1657.45
610.75	1649.30
611.10	1641.77
611.44	1633.35
611.79	1625.39
612.14	1616.81
612.49	1607.74
612.83	1599.33
613.18	1591.29
613.53	1583.25
613.88	1574.84
614.22	1566.64
614.57	1558.01
614.92	1550.06
615.27	1542.53
615.61	1534.18
615.96	1526.25
616.31	1518.72
616.65	1511.39
617.00	1503.94
617.35	1496.27
617.70	1488.11
618.04	1479.65
618.39	1471.31
618.74	1463.91
619.08	1455.67
619.43	1448.11
619.78	1441.21
620.12	1434.08
620.47	1426.57
620.82	1418.46
621.16	1411.11
621.51	1403.54
621.85	1395.93
622.20	1387.40
622.55	1378.98
622.89	1371.22
623.24	1363.62
623.59	1356.15
623.93	1348.66
624.28	1341.51
624.62	1334.04
624.97	1326.87
625.32	1320.06
625.66	1313.13
626.01	1305.99
626.35	1298.66
626.70	1290.95
627.04	1283.14
627.39	1275.36
627.73	1267.99
628.08	1261.17
628.43	1253.85
628.77	1246.47
629.12	1238.99
629.46	1231.87
629.81	1224.44
630.15	1217.15
630.50	1209.83
630.84	1201.76
631.19	1193.75
631.53	1186.18
631.88	1178.62
632.22	1171.07
632.57	1163.74
632.91	1156.24
633.26	1148.76
633.60	1141.24
633.95	1134.07
634.29	1127.08
634.64	1120.41
634.98	1113.03
635.32	1105.81
635.67	1099.22
636.01	1092.53
636.36	1085.79
636.70	1079.22
637.05	1072.73
637.39	1066.22
637.73	1059.73
638.08	1053.85
638.42	1047.91
638.77	1041.56
639.11	1035.04
639.45	1028.59
639.80	1021.96
640.14	1015.70
640.49	1009.18
640.83	1002.85
641.17	996.71
641.52	990.42
641.86	983.91
642.20	978.04
642.55	971.75
642.89	965.30
643.23	958.76
643.58	952.96
643.92	946.80
644.26	940.85
644.61	934.78
644.95	928.75
645.29	922.25
645.64	915.53
645.98	909.17
646.32	903.24
646.66	897.21
647.01	891.42
647.35	885.59
647.69	879.68
648.04	874.18
648.38	868.40
648.72	862.43
649.06	856.46
649.41	850.58
649.75	844.62
650.09	838.69
650.43	833.02
650.78	826.87
651.12	820.98
651.46	815.22
651.80	809.57
652.14	804.24
652.49	798.92
652.83	793.83
653.17	788.23
653.51	782.58
653.85	777.28
654.20	771.73
654.54	765.73
654.88	760.11
655.22	754.28
655.56	748.58
655.90	743.18
656.25	738.02
656.59	732.75
656.93	727.75
657.27	722.67
657.61	717.33
657.95	712.29
658.29	707.25
658.64	701.95
658.98	696.66
659.32	691.17
659.66	685.94
660.00	680.74
660.34	675.77
660.68	670.78
661.02	665.77
661.36	661.09
661.70	656.67
662.05	652.32
662.39	648.09
662.73	643.73
663.07	639.37
663.41	634.98
663.75	630.52
664.09	625.91
664.43	621.45
664.77	617.33
665.11	613.10
665.45	608.89
665.79	604.89
666.13	600.85
666.47	596.76
666.81	592.63
667.15	588.43
667.49	584.54
667.83	580.78
668.17	576.87
668.51	572.83
668.85	568.82
669.19	564.96
669.53	561.09
669.87	557.18
670.21	553.46
670.55	549.75
670.89	546.27
671.23	542.92
671.57	539.49
671.91	535.88
672.25	532.35
672.58	528.90
672.92	525.49
673.26	522.24
673.60	519.13
673.94	516.01
674.28	513.11
674.62	510.12
674.96	507.05
675.30	504.12
675.64	501.16
675.97	498.30
676.31	495.47
676.65	492.56
676.99	489.83
677.33	487.00
677.67	484.23
678.01	481.26
678.34	478.29
678.68	475.35
679.02	472.58
679.36	469.78
679.70	467.03
680.04	464.25
680.37	461.44
680.71	458.61
681.05	456.00
681.39	453.24
681.73	450.62
682.06	448.09
682.40	445.58
682.74	443.09
683.08	440.61
683.42	438.02
683.75	435.49
684.09	432.91
684.43	430.40
684.77	427.92
685.10	425.57
685.44	423.28
685.78	421.02
686.12	418.72
686.45	416.49
686.79	414.24
687.13	412.09
687.46	409.93
687.80	407.79
688.14	405.55
688.48	403.56
688.81	401.34
689.15	399.14
689.49	397.02
689.82	394.93
690.16	392.83
690.50	390.93
690.83	389.04
691.17	387.14
691.51	385.26
691.84	383.48
692.18	381.56
692.52	379.59
692.85	377.67
693.19	375.82
693.52	374.01
693.86	372.18
694.20	370.32
694.53	368.56
694.87	366.70
695.21	364.90
695.54	363.05
695.88	361.32
696.21	359.60
696.55	357.90
696.88	356.21
697.22	354.56
697.56	352.87
697.89	351.21
698.23	349.54
698.56	347.97
698.90	346.37
699.23	344.76
699.57	343.19
699.90	341.67
700.24	340.15
700.58	338.60
700.91	337.14
701.25	335.75
701.58	334.35
701.92	333.02
702.25	331.65
702.59	330.26
702.92	328.94
703.26	327.66
703.59	326.35
703.93	325.15
704.26	323.94
704.60	322.66
704.93	321.38
705.26	320.16
705.60	318.93
705.93	317.72
706.27	316.65
706.60	315.59
706.94	314.49
707.27	313.29
707.61	312.19
707.94	311.11
708.27	310.01
708.61	308.92
708.94	307.88
709.28	306.89
709.61	305.97
709.94	304.99
710.28	303.98
710.61	302.97
710.95	301.92
711.28	300.98
711.61	300.00
711.95	299.06
712.28	298.12
712.61	297.15
712.95	296.23
713.28	295.36
713.61	294.43
713.95	293.57
714.28	292.78
714.61	291.98
714.95	291.17
715.28	290.31
715.61	289.39
715.95	288.55
716.28	287.68
716.61	286.84
716.95	286.02
717.28	285.30
717.61	284.59
717.94	283.85
718.28	283.04
718.61	282.31
718.94	281.61
719.27	280.96
719.61	280.30
719.94	279.65
720.27	278.94
720.60	278.31
720.94	277.68
721.27	277.07
721.60	276.48
721.93	275.90
722.27	275.34
722.60	274.84
722.93	274.24
723.26	273.72
723.59	273.15
723.93	272.61
724.26	272.03
724.59	271.44
724.92	270.92
725.25	270.44
725.59	269.95
725.92	269.46
726.25	268.93
726.58	268.46
726.91	267.97
727.24	267.48
727.57	267.00
727.91	266.48
728.24	266.02
728.57	265.52
728.90	265.00
729.23	264.53
729.56	264.11
729.89	263.68
730.22	263.21
730.55	262.80
730.89	262.36
731.22	261.94
731.55	261.51
731.88	261.09
732.21	260.65
732.54	260.23
732.87	259.79
733.20	259.38
733.53	258.98
733.86	258.58
734.19	258.18
734.52	257.80
734.85	257.52
735.18	257.12
735.51	256.78
735.84	256.46
736.17	256.09
736.50	255.68
736.83	255.43
737.16	255.08
737.49	254.75
737.82	254.42
738.15	254.08
738.48	253.77
738.81	253.44
739.14	253.10
739.47	252.82
739.80	252.54
740.13	252.25
740.46	251.91
740.79	251.59
741.12	251.27
741.45	250.98
741.78	250.60
742.11	250.31
742.44	249.96
742.77	249.66
743.10	249.39
743.43	249.09
743.75	248.74
744.08	248.62
744.41	248.33
744.74	248.03
745.07	247.77
745.40	247.52
745.73	247.27
746.06	247.01
746.39	246.69
746.71	246.41
747.04	246.15
747.37	245.89
747.70	245.65
748.03	245.39
748.36	245.15
748.68	244.91
749.01	244.64
749.34	244.42
749.67	244.20
750.00	243.95
750.33	243.78
750.65	243.56
750.98	243.20
751.31	242.94
751.64	242.77
751.97	242.58
752.29	242.34
752.62	242.10
752.95	241.90
753.28	241.68
753.60	241.45
753.93	241.26
754.26	241.07
754.59	240.85
754.91	240.67
755.24	240.47
755.57	240.27
755.90	240.07
756.22	239.88
756.55	239.67
756.88	239.47
757.20	239.24
757.53	239.02
757.86	238.84
758.19	238.69
758.51	238.51
758.84	238.29
759.17	238.14
759.49	237.97
759.82	237.84
760.15	237.75
760.47	237.64
760.80	237.47
761.13	237.34
761.45	237.21
761.78	237.02
762.11	236.87
762.43	236.71
762.76	236.58
763.08	236.46
763.41	236.31
763.74	236.21
764.06	236.05
764.39	235.90
764.71	235.78
765.04	235.62
765.37	235.48
765.69	235.37
766.02	235.24
766.34	235.13
766.67	235.00
767.00	234.89
767.32	234.81
767.65	234.74
767.97	234.62
768.30	234.51
768.62	234.38
768.95	234.27
769.27	234.19
769.60	234.10
769.92	233.95
770.25	233.84
770.57	233.75
770.90	233.68
771.22	233.61
771.55	233.52
771.87	233.47
772.20	233.36
772.52	233.38
772.85	233.40
773.17	233.28
773.50	233.15
773.82	233.03
774.15	232.90
774.47	232.78
774.80	232.68
775.12	232.59
775.45	232.56
775.77	232.46
776.09	232.37
776.42	232.31
776.74	232.26
777.07	232.20
777.39	232.09
777.72	232.01
778.04	231.92
778.36	231.85
778.69	231.77
779.01	231.74
779.33	231.55
779.66	231.40
779.98	231.34
780.31	231.29
780.63	231.23
780.95	231.18
781.28	231.10
781.60	231.03
781.92	231.00
782.25	230.93
782.57	230.90
782.89	230.82
783.22	230.75
783.54	230.68
783.86	230.62
784.19	230.53
784.51	230.51
784.83	230.47
785.16	230.41
785.48	230.36
785.80	230.29
786.12	230.25
786.45	230.17
786.77	230.12
787.09	230.08
