SpectraSuite Data File
++++++++++++++++++++++++++++++++++++
Date: Fri Feb 01 15:21:07 EST 2013
User: group
Dark Spectrum Present: No
Reference Spectrum Present: No
Number of Sampled Component Spectra: 1
Spectrometers: USB2E7196
Integration Time (usec): 35000 (USB2E7196)
Spectra Averaged: 100 (USB2E7196)
Boxcar Smoothing: 10 (USB2E7196)
Correct for Electrical Dark: No (USB2E7196)
Strobe/Lamp Enabled: No (USB2E7196)
Correct for Detector Non-linearity: No (USB2E7196)
Correct for Stray Light: No (USB2E7196)
Number of Pixels in Processed Spectrum: 2048
>>>>>Begin Processed Spectral Data<<<<<
339.09	0.00
339.48	215.28
339.86	216.38
340.24	217.83
340.63	219.00
341.01	222.65
341.39	222.25
341.78	223.51
342.16	224.57
342.54	225.47
342.93	213.61
343.31	224.43
343.69	224.97
344.07	225.45
344.46	225.90
344.84	226.30
345.22	226.55
345.60	226.78
345.99	226.97
346.37	227.14
346.75	227.24
347.13	227.30
347.52	227.35
347.90	227.40
348.28	227.42
348.66	227.44
349.05	227.48
349.43	227.53
349.81	227.59
350.19	227.62
350.57	227.67
350.96	227.75
351.34	227.83
351.72	227.92
352.10	228.01
352.48	228.07
352.87	228.12
353.25	228.16
353.63	228.22
354.01	228.27
354.39	228.33
354.77	228.40
355.15	228.53
355.54	228.61
355.92	228.63
356.30	228.71
356.68	228.83
357.06	228.89
357.44	228.92
357.82	228.95
358.20	229.04
358.58	229.08
358.97	229.14
359.35	229.19
359.73	229.24
360.11	229.26
360.49	229.32
360.87	229.38
361.25	229.43
361.63	229.50
362.01	229.55
362.39	229.53
362.77	229.52
363.15	229.52
363.53	229.51
363.91	229.54
364.29	229.53
364.67	229.48
365.05	229.47
365.43	229.48
365.81	229.49
366.19	229.47
366.57	229.56
366.95	229.51
367.33	229.46
367.71	229.43
368.09	229.41
368.47	229.36
368.85	229.30
369.23	229.29
369.61	229.21
369.99	229.19
370.37	229.19
370.75	229.20
371.13	229.12
371.51	229.05
371.89	228.99
372.27	228.92
372.65	228.84
373.03	228.77
373.41	228.69
373.78	228.64
374.16	228.55
374.54	228.41
374.92	228.35
375.30	228.28
375.68	228.19
376.06	228.12
376.44	228.03
376.82	227.97
377.19	227.87
377.57	227.77
377.95	227.68
378.33	227.59
378.71	227.46
379.09	227.45
379.47	227.39
379.84	227.30
380.22	227.22
380.60	227.14
380.98	227.09
381.36	227.02
381.73	226.95
382.11	226.86
382.49	226.81
382.87	226.73
383.25	226.67
383.62	226.76
384.00	226.72
384.38	226.69
384.76	226.65
385.13	226.64
385.51	226.63
385.89	226.56
386.27	226.54
386.64	226.54
387.02	226.48
387.40	226.46
387.78	226.44
388.15	226.42
388.53	226.36
388.91	226.31
389.29	226.27
389.66	226.26
390.04	226.28
390.42	226.29
390.79	226.30
391.17	226.33
391.55	226.23
391.92	226.21
392.30	226.22
392.68	226.21
393.05	226.21
393.43	226.21
393.81	226.24
394.18	226.22
394.56	226.21
394.94	226.26
395.31	226.26
395.69	226.33
396.06	226.40
396.44	226.49
396.82	226.55
397.19	226.68
397.57	226.70
397.95	226.76
398.32	226.79
398.70	226.86
399.07	226.93
399.45	226.98
399.82	227.09
400.20	227.17
400.58	227.26
400.95	227.31
401.33	227.44
401.70	227.62
402.08	227.75
402.45	227.89
402.83	228.02
403.20	228.14
403.58	228.25
403.95	228.40
404.33	228.55
404.71	228.69
405.08	228.84
405.46	228.98
405.83	229.16
406.21	229.32
406.58	229.53
406.96	229.67
407.33	229.81
407.70	229.99
408.08	230.26
408.45	230.50
408.83	230.73
409.20	230.93
409.58	231.13
409.95	231.37
410.33	231.62
410.70	231.88
411.08	232.18
411.45	232.46
411.82	232.75
412.20	233.11
412.57	233.53
412.95	233.85
413.32	234.28
413.69	234.67
414.07	235.13
414.44	235.57
414.82	236.08
415.19	236.67
415.56	237.21
415.94	237.74
416.31	238.38
416.68	239.02
417.06	239.74
417.43	240.41
417.81	241.17
418.18	241.94
418.55	242.77
418.93	243.65
419.30	244.57
419.67	245.50
420.04	246.41
420.42	247.37
420.79	248.54
421.16	249.67
421.54	250.83
421.91	252.02
422.28	253.28
422.66	254.58
423.03	255.87
423.40	257.20
423.77	258.65
424.15	260.08
424.52	261.57
424.89	263.16
425.26	264.71
425.64	266.16
426.01	267.74
426.38	269.40
426.75	271.08
427.13	272.79
427.50	274.61
427.87	276.54
428.24	278.41
428.61	280.17
428.99	282.15
429.36	284.26
429.73	286.30
430.10	288.31
430.47	290.38
430.85	292.52
431.22	294.78
431.59	297.12
431.96	299.34
432.33	301.84
432.70	304.26
433.08	307.05
433.45	309.70
433.82	312.29
434.19	315.23
434.56	318.02
434.93	320.70
435.30	323.31
435.68	326.17
436.05	329.00
436.42	331.79
436.79	334.29
437.16	337.01
437.53	339.89
437.90	342.74
438.27	345.55
438.64	348.35
439.01	350.95
439.38	353.18
439.75	355.41
440.13	357.89
440.50	360.17
440.87	362.06
441.24	364.01
441.61	366.23
441.98	367.67
442.35	369.52
442.72	371.39
443.09	373.23
443.46	374.25
443.83	374.85
444.20	375.39
444.57	376.27
444.94	376.61
445.31	376.93
445.68	377.31
446.05	377.34
446.42	377.00
446.79	376.52
447.16	376.08
447.53	375.75
447.90	374.56
448.27	373.43
448.64	371.84
449.01	370.73
449.37	368.74
449.74	366.87
450.11	364.62
450.48	362.14
450.85	359.63
451.22	357.44
451.59	355.44
451.96	353.49
452.33	350.81
452.70	348.46
453.07	345.63
453.43	342.66
453.80	339.89
454.17	337.21
454.54	334.67
454.91	331.94
455.28	329.25
455.65	326.82
456.02	324.35
456.38	322.15
456.75	319.45
457.12	317.22
457.49	314.99
457.86	312.77
458.23	310.88
458.59	308.85
458.96	306.75
459.33	304.86
459.70	302.98
460.07	301.52
460.43	299.76
460.80	298.15
461.17	296.73
461.54	295.20
461.91	293.76
462.27	292.34
462.64	291.08
463.01	289.74
463.38	288.39
463.74	287.01
464.11	285.87
464.48	284.86
464.85	283.72
465.21	282.82
465.58	281.92
465.95	280.81
466.32	279.86
466.68	278.96
467.05	278.06
467.42	277.17
467.78	276.23
468.15	275.33
468.52	274.64
468.88	273.77
469.25	273.00
469.62	272.34
469.98	271.64
470.35	271.00
470.72	270.37
471.08	269.72
471.45	269.21
471.82	268.65
472.18	268.00
472.55	267.58
472.92	267.06
473.28	266.55
473.65	266.10
474.02	265.64
474.38	265.27
474.75	264.91
475.11	264.53
475.48	264.27
475.85	264.00
476.21	263.75
476.58	263.53
476.94	263.35
477.31	263.18
477.67	263.06
478.04	262.95
478.41	262.88
478.77	262.88
479.14	262.80
479.50	262.83
479.87	262.93
480.23	262.95
480.60	262.99
480.96	263.10
481.33	263.30
481.69	263.50
482.06	263.70
482.42	263.93
482.79	264.19
483.15	264.47
483.52	264.88
483.88	265.28
484.25	265.69
484.61	266.17
484.98	266.64
485.34	267.17
485.71	267.80
486.07	268.41
486.44	269.02
486.80	269.72
487.17	270.41
487.53	271.21
487.90	272.09
488.26	273.09
488.62	274.07
488.99	275.06
489.35	276.10
489.72	277.25
490.08	278.46
490.44	279.68
490.81	280.99
491.17	282.30
491.54	283.74
491.90	285.27
492.26	286.87
492.63	288.59
492.99	290.39
493.36	292.25
493.72	294.31
494.08	296.40
494.45	298.70
494.81	301.11
495.17	303.53
495.54	306.07
495.90	308.72
496.26	311.56
496.63	314.52
496.99	317.60
497.35	320.84
497.72	324.20
498.08	327.78
498.44	331.50
498.80	335.46
499.17	339.56
499.53	343.74
499.89	348.10
500.26	352.60
500.62	357.21
500.98	362.21
501.34	367.30
501.71	372.65
502.07	378.03
502.43	383.59
502.79	389.41
503.16	395.48
503.52	401.72
503.88	408.10
504.24	414.74
504.60	421.67
504.97	428.78
505.33	436.13
505.69	443.81
506.05	451.60
506.41	459.49
506.78	467.60
507.14	476.05
507.50	484.83
507.86	493.85
508.22	503.09
508.59	512.27
508.95	521.83
509.31	531.62
509.67	541.71
510.03	552.00
510.39	562.61
510.75	573.45
511.12	584.40
511.48	595.70
511.84	607.08
512.20	618.59
512.56	630.53
512.92	642.70
513.28	654.98
513.64	667.52
514.00	680.26
514.37	693.13
514.73	706.27
515.09	719.26
515.45	732.54
515.81	746.12
516.17	760.11
516.53	774.18
516.89	788.42
517.25	802.64
517.61	817.07
517.97	831.51
518.33	845.99
518.69	860.78
519.05	875.82
519.41	891.11
519.77	906.71
520.13	922.19
520.49	937.55
520.85	953.01
521.21	968.72
521.57	984.96
521.93	1000.90
522.29	1017.24
522.65	1033.52
523.01	1049.69
523.37	1065.74
523.73	1081.97
524.09	1098.13
524.45	1114.40
524.81	1131.04
525.17	1148.00
525.53	1164.94
525.89	1181.81
526.25	1198.69
526.61	1215.15
526.97	1231.86
527.33	1248.41
527.68	1265.13
528.04	1281.79
528.40	1298.61
528.76	1315.76
529.12	1332.31
529.48	1349.09
529.84	1365.30
530.20	1382.02
530.56	1399.27
530.91	1416.82
531.27	1433.60
531.63	1450.19
531.99	1466.79
532.35	1482.79
532.71	1498.55
533.07	1514.80
533.42	1530.69
533.78	1546.81
534.14	1563.14
534.50	1578.61
534.86	1594.51
535.21	1609.67
535.57	1625.68
535.93	1641.14
536.29	1655.95
536.65	1671.22
537.00	1686.22
537.36	1701.54
537.72	1716.23
538.08	1730.64
538.44	1744.40
538.79	1758.47
539.15	1772.30
539.51	1786.25
539.87	1800.72
540.22	1814.71
540.58	1828.73
540.94	1842.16
541.29	1855.09
541.65	1867.77
542.01	1880.99
542.37	1893.28
542.72	1905.85
543.08	1917.60
543.44	1930.07
543.79	1941.39
544.15	1952.42
544.51	1963.96
544.87	1974.93
545.22	1985.70
545.58	1996.08
545.94	2005.92
546.29	2015.83
546.65	2025.55
547.01	2034.71
547.36	2043.42
547.72	2051.98
548.07	2059.69
548.43	2067.96
548.79	2076.06
549.14	2083.78
549.50	2091.36
549.86	2099.21
550.21	2106.44
550.57	2113.65
550.92	2120.22
551.28	2127.27
551.64	2134.33
551.99	2140.97
552.35	2147.19
552.70	2153.38
553.06	2159.15
553.41	2165.57
553.77	2171.53
554.13	2177.71
554.48	2183.83
554.84	2189.30
555.19	2194.54
555.55	2199.69
555.90	2204.12
556.26	2208.98
556.61	2213.64
556.97	2217.60
557.32	2221.68
557.68	2225.91
558.03	2230.20
558.39	2234.03
558.74	2238.57
559.10	2242.33
559.45	2245.94
559.81	2250.24
560.16	2253.98
560.52	2257.41
560.87	2260.78
561.23	2263.44
561.58	2266.38
561.94	2268.96
562.29	2271.34
562.64	2273.84
563.00	2276.56
563.35	2280.15
563.71	2283.26
564.06	2286.43
564.42	2289.45
564.77	2291.90
565.12	2293.94
565.48	2295.84
565.83	2297.43
566.19	2298.78
566.54	2299.92
566.89	2301.02
567.25	2301.43
567.60	2302.80
567.96	2304.48
568.31	2305.32
568.66	2306.43
569.02	2306.94
569.37	2307.17
569.72	2307.95
570.08	2308.10
570.43	2308.03
570.78	2307.20
571.14	2305.55
571.49	2304.12
571.84	2303.54
572.20	2302.16
572.55	2301.25
572.90	2299.60
573.26	2298.19
573.61	2296.44
573.96	2294.37
574.31	2291.16
574.67	2288.14
575.02	2284.50
575.37	2280.97
575.72	2276.94
576.08	2273.49
576.43	2270.00
576.78	2266.27
577.13	2263.14
577.49	2260.02
577.84	2256.34
578.19	2252.63
578.54	2248.91
578.90	2244.56
579.25	2239.04
579.60	2234.20
579.95	2229.06
580.30	2224.02
580.66	2218.88
581.01	2213.83
581.36	2208.87
581.71	2204.69
582.06	2200.18
582.42	2195.53
582.77	2190.15
583.12	2185.48
583.47	2180.53
583.82	2175.54
584.17	2170.15
584.53	2164.50
584.88	2158.79
585.23	2152.91
585.58	2147.37
585.93	2141.77
586.28	2137.01
586.63	2131.97
586.98	2126.75
587.34	2122.03
587.69	2117.00
588.04	2111.59
588.39	2105.79
588.74	2099.22
589.09	2093.01
589.44	2086.21
589.79	2080.13
590.14	2074.37
590.49	2067.87
590.84	2061.41
591.19	2055.18
591.54	2048.64
591.89	2040.96
592.25	2034.05
592.60	2026.86
592.95	2019.10
593.30	2011.78
593.65	2004.08
594.00	1996.97
594.35	1989.72
594.70	1981.68
595.05	1974.33
595.40	1967.04
595.75	1959.44
596.10	1953.15
596.45	1946.31
596.80	1939.98
597.15	1933.19
597.50	1926.04
597.85	1919.56
598.19	1912.91
598.54	1905.81
598.89	1899.32
599.24	1893.62
599.59	1886.99
599.94	1880.71
600.29	1874.43
600.64	1867.83
600.99	1860.31
601.34	1853.36
601.69	1846.38
602.04	1839.29
602.39	1831.93
602.74	1825.02
603.08	1818.27
603.43	1811.58
603.78	1804.28
604.13	1797.00
604.48	1789.67
604.83	1782.77
605.18	1775.80
605.53	1767.77
605.87	1759.81
606.22	1752.46
606.57	1744.44
606.92	1737.00
607.27	1729.84
607.62	1722.95
607.96	1715.58
608.31	1708.95
608.66	1701.20
609.01	1693.56
609.36	1686.04
609.70	1678.14
610.05	1669.99
610.40	1662.19
610.75	1653.74
611.10	1645.99
611.44	1637.75
611.79	1629.67
612.14	1621.03
612.49	1611.79
612.83	1603.36
613.18	1595.19
613.53	1587.11
613.88	1578.63
614.22	1570.32
614.57	1561.68
614.92	1553.61
615.27	1546.00
615.61	1537.64
615.96	1529.77
616.31	1522.16
616.65	1514.68
617.00	1506.97
617.35	1499.42
617.70	1491.13
618.04	1482.68
618.39	1474.37
618.74	1466.56
619.08	1458.34
619.43	1450.72
619.78	1443.75
620.12	1436.67
620.47	1429.09
620.82	1420.93
621.16	1413.45
621.51	1405.83
621.85	1398.16
622.20	1389.56
622.55	1381.33
622.89	1373.48
623.24	1365.91
623.59	1358.60
623.93	1351.16
624.28	1343.95
624.62	1336.32
624.97	1329.25
625.32	1322.57
625.66	1315.60
626.01	1308.46
626.35	1301.00
626.70	1293.20
627.04	1285.46
627.39	1277.67
627.73	1270.28
628.08	1263.32
628.43	1255.97
628.77	1248.62
629.12	1241.09
629.46	1233.90
629.81	1226.55
630.15	1219.28
630.50	1211.83
630.84	1203.59
631.19	1195.69
631.53	1188.23
631.88	1180.68
632.22	1173.01
632.57	1165.65
632.91	1158.17
633.26	1150.81
633.60	1143.51
633.95	1136.49
634.29	1129.55
634.64	1122.89
634.98	1115.59
635.32	1108.45
635.67	1101.91
636.01	1095.22
636.36	1088.47
636.70	1082.10
637.05	1075.47
637.39	1069.13
637.73	1062.65
638.08	1056.76
638.42	1050.74
638.77	1044.34
639.11	1037.78
639.45	1031.44
639.80	1024.80
640.14	1018.33
640.49	1011.79
640.83	1005.52
641.17	999.26
641.52	992.87
641.86	986.34
642.20	980.44
642.55	974.13
642.89	967.54
643.23	961.15
643.58	955.36
643.92	949.10
644.26	943.06
644.61	937.01
644.95	930.91
645.29	924.24
645.64	917.50
645.98	911.08
646.32	905.26
646.66	899.24
647.01	893.43
647.35	887.79
647.69	882.06
648.04	876.54
648.38	870.73
648.72	864.74
649.06	858.77
649.41	852.93
649.75	847.02
650.09	841.18
650.43	835.30
650.78	829.18
651.12	823.19
651.46	817.46
651.80	811.66
652.14	806.25
652.49	800.91
652.83	795.75
653.17	790.05
653.51	784.36
653.85	778.91
654.20	773.26
654.54	767.30
654.88	761.62
655.22	755.66
655.56	750.02
655.90	744.66
656.25	739.41
656.59	734.09
656.93	728.92
657.27	723.80
657.61	718.38
657.95	713.25
658.29	708.22
658.64	702.92
658.98	697.68
659.32	692.24
659.66	687.08
660.00	681.79
660.34	676.93
660.68	672.07
661.02	667.13
661.36	662.43
661.70	657.90
662.05	653.45
662.39	649.21
662.73	644.80
663.07	640.32
663.41	635.85
663.75	631.33
664.09	626.80
664.43	622.35
664.77	618.26
665.11	614.02
665.45	609.88
665.79	605.85
666.13	601.74
666.47	597.67
666.81	593.48
667.15	589.40
667.49	585.48
667.83	581.69
668.17	577.71
668.51	573.64
668.85	569.63
669.19	565.82
669.53	561.94
669.87	558.02
670.21	554.41
670.55	550.85
670.89	547.43
671.23	544.06
671.57	540.57
671.91	537.06
672.25	533.65
672.58	530.17
672.92	526.79
673.26	523.65
673.60	520.56
673.94	517.48
674.28	514.54
674.62	511.55
674.96	508.42
675.30	505.50
675.64	502.54
675.97	499.79
676.31	496.94
676.65	494.07
676.99	491.35
677.33	488.48
677.67	485.58
678.01	482.54
678.34	479.47
678.68	476.61
679.02	473.83
679.36	471.04
679.70	468.37
680.04	465.54
680.37	462.66
680.71	459.86
681.05	457.28
681.39	454.55
681.73	451.92
682.06	449.42
682.40	446.91
682.74	444.41
683.08	441.87
683.42	439.28
683.75	436.73
684.09	434.22
684.43	431.75
684.77	429.36
685.10	427.05
685.44	424.81
685.78	422.56
686.12	420.30
686.45	418.02
686.79	415.64
687.13	413.49
687.46	411.32
687.80	409.16
688.14	406.93
688.48	404.92
688.81	402.67
689.15	400.50
689.49	398.36
689.82	396.33
690.16	394.25
690.50	392.31
690.83	390.41
691.17	388.46
691.51	386.59
691.84	384.76
692.18	382.82
692.52	380.78
692.85	378.85
693.19	376.97
693.52	375.18
693.86	373.43
694.20	371.70
694.53	369.92
694.87	368.06
695.21	366.33
695.54	364.46
695.88	362.80
696.21	361.05
696.55	359.39
696.88	357.70
697.22	356.04
697.56	354.36
697.89	352.72
698.23	351.12
698.56	349.48
698.90	347.85
699.23	346.20
699.57	344.70
699.90	343.20
700.24	341.64
700.58	340.07
700.91	338.57
701.25	337.10
701.58	335.72
701.92	334.36
702.25	332.98
702.59	331.65
702.92	330.33
703.26	329.06
703.59	327.79
703.93	326.58
704.26	325.39
704.60	324.14
704.93	322.86
705.26	321.62
705.60	320.49
705.93	319.37
706.27	318.37
706.60	317.37
706.94	316.29
707.27	315.19
707.61	314.14
707.94	313.12
708.27	312.01
708.61	310.94
708.94	309.92
709.28	308.94
709.61	307.98
709.94	307.02
710.28	306.01
710.61	305.03
710.95	303.96
711.28	303.03
711.61	302.06
711.95	301.14
712.28	300.17
712.61	299.17
712.95	298.22
713.28	297.34
713.61	296.45
713.95	295.59
714.28	294.74
714.61	293.88
714.95	293.05
715.28	292.23
715.61	291.36
715.95	290.54
716.28	289.68
716.61	288.84
716.95	288.04
717.28	287.33
717.61	286.53
717.94	285.84
718.28	285.03
718.61	284.32
718.94	283.65
719.27	283.01
719.61	282.42
719.94	281.75
720.27	281.01
720.60	280.31
720.94	279.64
721.27	279.04
721.60	278.47
721.93	277.86
722.27	277.31
722.60	276.75
722.93	276.16
723.26	275.65
723.59	275.10
723.93	274.52
724.26	273.92
724.59	273.41
724.92	272.87
725.25	272.34
725.59	271.81
725.92	271.30
726.25	270.77
726.58	270.23
726.91	269.76
727.24	269.27
727.57	268.78
727.91	268.25
728.24	267.81
728.57	267.29
728.90	266.81
729.23	266.30
729.56	265.89
729.89	265.43
730.22	264.93
730.55	264.49
730.89	264.04
731.22	263.60
731.55	263.15
731.88	262.68
732.21	262.25
732.54	261.85
732.87	261.41
733.20	261.02
733.53	260.64
733.86	260.28
734.19	259.92
734.52	259.56
734.85	259.29
735.18	258.85
735.51	258.50
735.84	258.15
736.17	257.81
736.50	257.36
736.83	257.15
737.16	256.79
737.49	256.46
737.82	256.13
738.15	255.80
738.48	255.43
738.81	255.13
739.14	254.82
739.47	254.48
739.80	254.15
740.13	253.86
740.46	253.52
740.79	253.16
741.12	252.85
741.45	252.52
741.78	252.16
742.11	251.84
742.44	251.53
742.77	251.22
743.10	250.88
743.43	250.60
743.75	250.20
744.08	250.05
744.41	249.74
744.74	249.44
745.07	249.20
745.40	248.99
745.73	248.77
746.06	248.48
746.39	248.23
746.71	248.00
747.04	247.70
747.37	247.43
747.70	247.21
748.03	246.95
748.36	246.77
748.68	246.54
749.01	246.30
749.34	246.08
749.67	245.86
750.00	245.65
750.33	245.51
750.65	245.31
750.98	244.96
751.31	244.77
751.64	244.56
751.97	244.38
752.29	244.15
752.62	243.87
752.95	243.68
753.28	243.48
753.60	243.28
753.93	243.11
754.26	242.94
754.59	242.73
754.91	242.54
755.24	242.34
755.57	242.14
755.90	241.98
756.22	241.79
756.55	241.61
756.88	241.43
757.20	241.17
757.53	240.96
757.86	240.85
758.19	240.69
758.51	240.54
758.84	240.33
759.17	240.15
759.49	240.02
759.82	239.90
760.15	239.75
760.47	239.57
760.80	239.40
761.13	239.26
761.45	239.09
761.78	238.97
762.11	238.78
762.43	238.66
762.76	238.55
763.08	238.44
763.41	238.31
763.74	238.21
764.06	238.06
764.39	237.96
764.71	237.77
765.04	237.63
765.37	237.50
765.69	237.34
766.02	237.24
766.34	237.09
766.67	236.93
767.00	236.84
767.32	236.78
767.65	236.73
767.97	236.61
768.30	236.50
768.62	236.34
768.95	236.25
769.27	236.11
769.60	235.99
769.92	235.85
770.25	235.70
770.57	235.57
770.90	235.48
771.22	235.36
771.55	235.27
771.87	235.17
772.20	235.05
772.52	235.06
772.85	235.08
773.17	234.99
773.50	234.89
773.82	234.78
774.15	234.65
774.47	234.49
774.80	234.42
775.12	234.31
775.45	234.25
775.77	234.17
776.09	234.09
776.42	234.03
776.74	233.99
777.07	233.93
777.39	233.87
777.72	233.81
778.04	233.77
778.36	233.74
778.69	233.67
779.01	233.61
779.33	233.47
779.66	233.29
779.98	233.22
780.31	233.18
780.63	233.12
780.95	233.09
781.28	233.04
781.60	232.96
781.92	232.93
782.25	232.88
782.57	232.81
782.89	232.76
783.22	232.71
783.54	232.62
783.86	232.56
784.19	232.50
784.51	232.48
784.83	232.41
785.16	232.34
785.48	232.32
785.80	232.28
786.12	232.25
786.45	232.19
786.77	232.16
787.09	232.11
