SpectraSuite Data File
++++++++++++++++++++++++++++++++++++
Date: Fri Feb 01 16:10:45 EST 2013
User: group
Dark Spectrum Present: No
Reference Spectrum Present: No
Number of Sampled Component Spectra: 1
Spectrometers: USB2E7196
Integration Time (usec): 35000 (USB2E7196)
Spectra Averaged: 100 (USB2E7196)
Boxcar Smoothing: 10 (USB2E7196)
Correct for Electrical Dark: No (USB2E7196)
Strobe/Lamp Enabled: No (USB2E7196)
Correct for Detector Non-linearity: No (USB2E7196)
Correct for Stray Light: No (USB2E7196)
Number of Pixels in Processed Spectrum: 2048
>>>>>Begin Processed Spectral Data<<<<<
339.09	0.00
339.48	214.34
339.86	215.68
340.24	217.38
340.63	219.17
341.01	221.81
341.39	221.49
341.78	222.98
342.16	224.18
342.54	224.26
342.93	212.93
343.31	223.69
343.69	224.27
344.07	224.73
344.46	225.16
344.84	225.49
345.22	225.70
345.60	225.94
345.99	226.08
346.37	226.19
346.75	226.32
347.13	226.37
347.52	226.43
347.90	226.47
348.28	226.48
348.66	226.49
349.05	226.41
349.43	226.47
349.81	226.50
350.19	226.57
350.57	226.64
350.96	226.70
351.34	226.77
351.72	226.82
352.10	226.97
352.48	227.03
352.87	227.15
353.25	227.25
353.63	227.32
354.01	227.40
354.39	227.48
354.77	227.55
355.15	227.64
355.54	227.70
355.92	227.75
356.30	227.85
356.68	227.99
357.06	228.08
357.44	228.13
357.82	228.17
358.20	228.22
358.58	228.26
358.97	228.33
359.35	228.40
359.73	228.45
360.11	228.47
360.49	228.51
360.87	228.49
361.25	228.51
361.63	228.54
362.01	228.60
362.39	228.62
362.77	228.63
363.15	228.66
363.53	228.71
363.91	228.78
364.29	228.80
364.67	228.71
365.05	228.75
365.43	228.77
365.81	228.81
366.19	228.88
366.57	228.93
366.95	228.93
367.33	228.93
367.71	228.93
368.09	228.95
368.47	228.94
368.85	228.95
369.23	228.95
369.61	228.92
369.99	228.92
370.37	228.93
370.75	228.98
371.13	228.95
371.51	228.89
371.89	228.85
372.27	228.80
372.65	228.76
373.03	228.71
373.41	228.67
373.78	228.61
374.16	228.50
374.54	228.42
374.92	228.34
375.30	228.28
375.68	228.21
376.06	228.14
376.44	228.08
376.82	228.04
377.19	227.97
377.57	227.90
377.95	227.85
378.33	227.76
378.71	227.62
379.09	227.55
379.47	227.48
379.84	227.37
380.22	227.32
380.60	227.24
380.98	227.14
381.36	227.08
381.73	227.01
382.11	226.98
382.49	226.91
382.87	226.85
383.25	226.79
383.62	226.84
384.00	226.76
384.38	226.70
384.76	226.64
385.13	226.63
385.51	226.63
385.89	226.55
386.27	226.51
386.64	226.50
387.02	226.43
387.40	226.40
387.78	226.40
388.15	226.35
388.53	226.31
388.91	226.32
389.29	226.30
389.66	226.28
390.04	226.25
390.42	226.26
390.79	226.26
391.17	226.22
391.55	226.11
391.92	226.10
392.30	226.11
392.68	226.08
393.05	226.07
393.43	226.06
393.81	226.06
394.18	226.06
394.56	226.05
394.94	226.11
395.31	226.11
395.69	226.16
396.06	226.21
396.44	226.25
396.82	226.27
397.19	226.33
397.57	226.38
397.95	226.44
398.32	226.46
398.70	226.50
399.07	226.58
399.45	226.62
399.82	226.67
400.20	226.69
400.58	226.76
400.95	226.79
401.33	226.87
401.70	227.03
402.08	227.10
402.45	227.19
402.83	227.30
403.20	227.41
403.58	227.49
403.95	227.60
404.33	227.71
404.71	227.81
405.08	227.96
405.46	228.08
405.83	228.16
406.21	228.30
406.58	228.45
406.96	228.61
407.33	228.79
407.70	228.99
408.08	229.27
408.45	229.45
408.83	229.68
409.20	229.90
409.58	230.05
409.95	230.29
410.33	230.55
410.70	230.78
411.08	231.06
411.45	231.33
411.82	231.62
412.20	231.98
412.57	232.41
412.95	232.70
413.32	233.10
413.69	233.54
414.07	233.97
414.44	234.42
414.82	234.89
415.19	235.43
415.56	236.01
415.94	236.53
416.31	237.23
416.68	237.86
417.06	238.56
417.43	239.24
417.81	240.03
418.18	240.81
418.55	241.64
418.93	242.51
419.30	243.43
419.67	244.38
420.04	245.33
420.42	246.31
420.79	247.50
421.16	248.66
421.54	249.89
421.91	251.12
422.28	252.40
422.66	253.75
423.03	255.10
423.40	256.43
423.77	257.88
424.15	259.28
424.52	260.75
424.89	262.38
425.26	263.95
425.64	265.39
426.01	266.98
426.38	268.65
426.75	270.37
427.13	272.10
427.50	273.96
427.87	275.87
428.24	277.72
428.61	279.42
428.99	281.37
429.36	283.41
429.73	285.48
430.10	287.51
430.47	289.57
430.85	291.64
431.22	293.89
431.59	296.28
431.96	298.55
432.33	301.06
432.70	303.42
433.08	306.26
433.45	308.92
433.82	311.53
434.19	314.44
434.56	317.21
434.93	319.85
435.30	322.45
435.68	325.31
436.05	328.19
436.42	331.01
436.79	333.55
437.16	336.24
437.53	339.04
437.90	341.89
438.27	344.61
438.64	347.42
439.01	349.96
439.38	352.15
439.75	354.33
440.13	356.76
440.50	359.08
440.87	360.89
441.24	362.86
441.61	365.03
441.98	366.48
442.35	368.25
442.72	370.09
443.09	371.87
443.46	372.85
443.83	373.43
444.20	373.92
444.57	374.72
444.94	375.02
445.31	375.34
445.68	375.65
446.05	375.73
446.42	375.39
446.79	375.02
447.16	374.56
447.53	374.19
447.90	373.09
448.27	371.93
448.64	370.34
449.01	369.14
449.37	367.16
449.74	365.27
450.11	363.04
450.48	360.57
450.85	358.01
451.22	355.89
451.59	353.84
451.96	351.88
452.33	349.25
452.70	346.86
453.07	344.05
453.43	341.12
453.80	338.33
454.17	335.61
454.54	333.03
454.91	330.27
455.28	327.62
455.65	325.13
456.02	322.66
456.38	320.50
456.75	317.85
457.12	315.57
457.49	313.33
457.86	311.17
458.23	309.33
458.59	307.29
458.96	305.21
459.33	303.35
459.70	301.53
460.07	300.03
460.43	298.33
460.80	296.69
461.17	295.29
461.54	293.83
461.91	292.44
462.27	291.01
462.64	289.81
463.01	288.47
463.38	287.14
463.74	285.79
464.11	284.66
464.48	283.65
464.85	282.58
465.21	281.75
465.58	280.81
465.95	279.69
466.32	278.81
466.68	277.90
467.05	277.03
467.42	276.15
467.78	275.24
468.15	274.38
468.52	273.75
468.88	272.90
469.25	272.14
469.62	271.50
469.98	270.86
470.35	270.25
470.72	269.67
471.08	269.05
471.45	268.53
471.82	268.01
472.18	267.40
472.55	266.98
472.92	266.45
473.28	265.99
473.65	265.58
474.02	265.14
474.38	264.82
474.75	264.51
475.11	264.18
475.48	263.95
475.85	263.74
476.21	263.51
476.58	263.37
476.94	263.24
477.31	263.06
477.67	262.92
478.04	262.81
478.41	262.77
478.77	262.81
479.14	262.74
479.50	262.76
479.87	262.85
480.23	262.95
480.60	263.04
480.96	263.18
481.33	263.40
481.69	263.60
482.06	263.80
482.42	264.01
482.79	264.28
483.15	264.58
483.52	264.96
483.88	265.30
484.25	265.68
484.61	266.09
484.98	266.58
485.34	267.13
485.71	267.69
486.07	268.29
486.44	268.84
486.80	269.55
487.17	270.28
487.53	271.13
487.90	271.93
488.26	272.87
488.62	273.81
488.99	274.78
489.35	275.81
489.72	276.91
490.08	278.11
490.44	279.35
490.81	280.66
491.17	282.01
491.54	283.49
491.90	284.98
492.26	286.63
492.63	288.37
492.99	290.17
493.36	292.09
493.72	294.16
494.08	296.28
494.45	298.51
494.81	300.86
495.17	303.28
495.54	305.90
495.90	308.58
496.26	311.43
496.63	314.41
496.99	317.55
497.35	320.83
497.72	324.27
498.08	327.79
498.44	331.48
498.80	335.37
499.17	339.43
499.53	343.64
499.89	348.08
500.26	352.55
500.62	357.25
500.98	362.23
501.34	367.28
501.71	372.58
502.07	378.07
502.43	383.70
502.79	389.54
503.16	395.60
503.52	401.88
503.88	408.32
504.24	415.00
504.60	421.87
504.97	429.06
505.33	436.39
505.69	444.08
506.05	451.89
506.41	459.82
506.78	468.01
507.14	476.47
507.50	485.14
507.86	494.21
508.22	503.46
508.59	512.67
508.95	522.21
509.31	532.12
509.67	542.22
510.03	552.49
510.39	563.01
510.75	573.82
511.12	584.82
511.48	596.11
511.84	607.55
512.20	619.07
512.56	630.97
512.92	643.14
513.28	655.50
513.64	667.96
514.00	680.68
514.37	693.59
514.73	706.66
515.09	719.70
515.45	733.01
515.81	746.49
516.17	760.45
516.53	774.65
516.89	788.69
517.25	802.87
517.61	817.31
517.97	831.80
518.33	846.20
518.69	860.95
519.05	875.95
519.41	891.09
519.77	906.61
520.13	922.10
520.49	937.42
520.85	952.81
521.21	968.50
521.57	984.66
521.93	1000.43
522.29	1016.80
522.65	1033.07
523.01	1049.14
523.37	1065.20
523.73	1081.27
524.09	1097.31
524.45	1113.64
524.81	1130.21
525.17	1146.94
525.53	1163.80
525.89	1180.72
526.25	1197.48
526.61	1213.71
526.97	1230.42
527.33	1246.87
527.68	1263.31
528.04	1279.75
528.40	1296.37
528.76	1313.42
529.12	1329.98
529.48	1346.80
529.84	1362.68
530.20	1379.13
530.56	1396.10
530.91	1413.47
531.27	1430.20
531.63	1446.54
531.99	1463.04
532.35	1478.88
532.71	1494.81
533.07	1511.03
533.42	1526.94
533.78	1542.94
534.14	1559.23
534.50	1574.57
534.86	1590.35
535.21	1605.49
535.57	1621.29
535.93	1636.58
536.29	1651.38
536.65	1666.45
537.00	1681.18
537.36	1696.34
537.72	1710.90
538.08	1725.34
538.44	1739.01
538.79	1752.81
539.15	1766.42
539.51	1780.07
539.87	1794.43
540.22	1808.09
540.58	1821.72
540.94	1834.83
541.29	1847.60
541.65	1860.16
542.01	1873.15
542.37	1885.44
542.72	1897.89
543.08	1909.62
543.44	1922.02
543.79	1933.12
544.15	1944.02
544.51	1955.48
544.87	1966.54
545.22	1977.24
545.58	1987.28
545.94	1997.00
546.29	2006.88
546.65	2016.76
547.01	2026.10
547.36	2034.71
547.72	2043.14
548.07	2050.98
548.43	2059.07
548.79	2067.17
549.14	2074.71
549.50	2081.97
549.86	2089.56
550.21	2096.78
550.57	2103.97
550.92	2110.52
551.28	2117.64
551.64	2124.64
551.99	2131.19
552.35	2137.34
552.70	2143.47
553.06	2149.64
553.41	2156.01
553.77	2162.01
554.13	2168.13
554.48	2174.32
554.84	2179.93
555.19	2185.15
555.55	2190.39
555.90	2194.90
556.26	2199.73
556.61	2204.48
556.97	2209.03
557.32	2213.23
557.68	2217.37
558.03	2221.63
558.39	2225.40
558.74	2230.07
559.10	2233.92
559.45	2237.58
559.81	2241.80
560.16	2245.73
560.52	2248.88
560.87	2252.36
561.23	2255.06
561.58	2257.98
561.94	2260.39
562.29	2262.66
562.64	2265.40
563.00	2267.97
563.35	2271.34
563.71	2274.46
564.06	2277.67
564.42	2280.39
564.77	2282.86
565.12	2285.23
565.48	2287.17
565.83	2289.01
566.19	2290.26
566.54	2291.17
566.89	2292.32
567.25	2292.97
567.60	2294.29
567.96	2295.99
568.31	2296.71
568.66	2297.87
569.02	2298.38
569.37	2298.66
569.72	2299.69
570.08	2299.84
570.43	2299.95
570.78	2299.45
571.14	2297.82
571.49	2296.56
571.84	2296.39
572.20	2295.44
572.55	2294.28
572.90	2292.74
573.26	2291.38
573.61	2289.56
573.96	2287.95
574.31	2285.01
574.67	2282.07
575.02	2278.48
575.37	2275.19
575.72	2271.44
576.08	2268.09
576.43	2264.73
576.78	2261.11
577.13	2257.80
577.49	2254.76
577.84	2251.24
578.19	2247.68
578.54	2244.15
578.90	2240.05
579.25	2234.26
579.60	2229.32
579.95	2224.52
580.30	2219.51
580.66	2214.43
581.01	2209.50
581.36	2204.62
581.71	2200.52
582.06	2196.25
582.42	2191.73
582.77	2186.41
583.12	2181.94
583.47	2177.16
583.82	2172.37
584.17	2167.23
584.53	2161.79
584.88	2156.16
585.23	2150.53
585.58	2144.96
585.93	2139.68
586.28	2134.85
586.63	2129.98
586.98	2124.85
587.34	2120.06
587.69	2115.23
588.04	2110.04
588.39	2104.46
588.74	2098.01
589.09	2091.86
589.44	2084.91
589.79	2078.93
590.14	2073.41
590.49	2066.90
590.84	2060.61
591.19	2054.56
591.54	2048.17
591.89	2040.77
592.25	2034.02
592.60	2026.70
592.95	2019.16
593.30	2011.78
593.65	2004.11
594.00	1997.07
594.35	1989.83
594.70	1981.87
595.05	1974.69
595.40	1967.33
595.75	1959.92
596.10	1953.66
596.45	1946.85
596.80	1940.78
597.15	1934.20
597.50	1927.19
597.85	1920.77
598.19	1914.05
598.54	1906.94
598.89	1900.26
599.24	1894.49
599.59	1887.85
599.94	1881.69
600.29	1875.35
600.64	1868.69
600.99	1861.34
601.34	1854.41
601.69	1847.44
602.04	1840.58
602.39	1833.31
602.74	1826.52
603.08	1819.73
603.43	1813.01
603.78	1805.74
604.13	1798.54
604.48	1791.23
604.83	1784.33
605.18	1777.39
605.53	1769.54
605.87	1761.52
606.22	1754.31
606.57	1746.35
606.92	1738.98
607.27	1731.75
607.62	1724.93
607.96	1717.73
608.31	1711.13
608.66	1703.70
609.01	1696.11
609.36	1688.53
609.70	1680.52
610.05	1672.51
610.40	1664.81
610.75	1656.50
611.10	1648.82
611.44	1640.29
611.79	1632.31
612.14	1623.56
612.49	1614.28
612.83	1605.85
613.18	1597.77
613.53	1589.61
613.88	1581.02
614.22	1572.80
614.57	1564.19
614.92	1556.20
615.27	1548.56
615.61	1540.23
615.96	1532.14
616.31	1524.50
616.65	1517.14
617.00	1509.53
617.35	1501.81
617.70	1493.46
618.04	1484.95
618.39	1476.84
618.74	1469.30
619.08	1461.03
619.43	1453.45
619.78	1446.69
620.12	1439.52
620.47	1431.94
620.82	1423.85
621.16	1416.45
621.51	1408.79
621.85	1401.20
622.20	1392.62
622.55	1384.33
622.89	1376.45
623.24	1368.84
623.59	1361.46
623.93	1353.88
624.28	1346.65
624.62	1339.17
624.97	1332.15
625.32	1325.41
625.66	1318.38
626.01	1311.26
626.35	1303.84
626.70	1296.08
627.04	1288.17
627.39	1280.41
627.73	1273.04
628.08	1266.05
628.43	1258.73
628.77	1251.34
629.12	1243.85
629.46	1236.70
629.81	1229.19
630.15	1221.98
630.50	1214.51
630.84	1206.36
631.19	1198.43
631.53	1191.04
631.88	1183.43
632.22	1175.71
632.57	1168.39
632.91	1160.82
633.26	1153.47
633.60	1146.08
633.95	1139.03
634.29	1132.03
634.64	1125.35
634.98	1117.96
635.32	1110.77
635.67	1104.23
636.01	1097.57
636.36	1090.68
636.70	1084.09
637.05	1077.62
637.39	1071.12
637.73	1064.68
638.08	1058.74
638.42	1052.77
638.77	1046.19
639.11	1039.62
639.45	1033.25
639.80	1026.59
640.14	1020.17
640.49	1013.59
640.83	1007.21
641.17	1000.97
641.52	994.62
641.86	988.14
642.20	982.31
642.55	976.10
642.89	969.60
643.23	963.15
643.58	957.44
643.92	951.25
644.26	945.16
644.61	939.09
644.95	933.08
645.29	926.52
645.64	919.81
645.98	913.50
646.32	907.56
646.66	901.46
647.01	895.63
647.35	889.89
647.69	883.94
648.04	878.42
648.38	872.63
648.72	866.71
649.06	860.66
649.41	854.74
649.75	848.68
650.09	842.71
650.43	836.75
650.78	830.55
651.12	824.53
651.46	818.78
651.80	813.05
652.14	807.68
652.49	802.30
652.83	797.10
653.17	791.33
653.51	785.64
653.85	780.23
654.20	774.63
654.54	768.59
654.88	762.86
655.22	756.90
655.56	751.19
655.90	745.67
656.25	740.44
656.59	735.02
656.93	729.96
657.27	724.79
657.61	719.40
657.95	714.32
658.29	709.26
658.64	704.02
658.98	698.75
659.32	693.30
659.66	688.10
660.00	682.76
660.34	677.88
660.68	672.98
661.02	667.96
661.36	663.17
661.70	658.70
662.05	654.32
662.39	650.03
662.73	645.54
663.07	641.16
663.41	636.67
663.75	632.29
664.09	627.73
664.43	623.37
664.77	619.28
665.11	614.98
665.45	610.88
665.79	606.81
666.13	602.60
666.47	598.48
666.81	594.38
667.15	590.26
667.49	586.31
667.83	582.45
668.17	578.54
668.51	574.47
668.85	570.42
669.19	566.63
669.53	562.80
669.87	558.89
670.21	555.22
670.55	551.58
670.89	548.16
671.23	544.69
671.57	541.20
671.91	537.65
672.25	534.18
672.58	530.67
672.92	527.26
673.26	524.15
673.60	520.94
673.94	517.79
674.28	514.90
674.62	511.96
674.96	508.83
675.30	505.92
675.64	503.02
675.97	500.27
676.31	497.41
676.65	494.49
676.99	491.83
677.33	488.91
677.67	486.11
678.01	483.05
678.34	480.11
678.68	477.20
679.02	474.40
679.36	471.62
679.70	468.90
680.04	466.14
680.37	463.26
680.71	460.47
681.05	457.84
681.39	455.15
681.73	452.51
682.06	450.07
682.40	447.58
682.74	445.05
683.08	442.47
683.42	439.87
683.75	437.39
684.09	434.83
684.43	432.40
684.77	429.94
685.10	427.57
685.44	425.26
685.78	423.03
686.12	420.75
686.45	418.49
686.79	416.15
687.13	413.97
687.46	411.79
687.80	409.69
688.14	407.48
688.48	405.41
688.81	403.16
689.15	401.00
689.49	398.80
689.82	396.71
690.16	394.62
690.50	392.66
690.83	390.70
691.17	388.71
691.51	386.81
691.84	384.96
692.18	383.01
692.52	381.02
692.85	379.05
693.19	377.16
693.52	375.27
693.86	373.51
694.20	371.68
694.53	369.86
694.87	367.94
695.21	366.12
695.54	364.28
695.88	362.54
696.21	360.77
696.55	359.09
696.88	357.42
697.22	355.75
697.56	354.08
697.89	352.42
698.23	350.79
698.56	349.20
698.90	347.60
699.23	345.95
699.57	344.35
699.90	342.79
700.24	341.27
700.58	339.76
700.91	338.19
701.25	336.79
701.58	335.41
701.92	334.09
702.25	332.70
702.59	331.34
702.92	330.03
703.26	328.73
703.59	327.42
703.93	326.21
704.26	324.96
704.60	323.67
704.93	322.43
705.26	321.20
705.60	319.98
705.93	318.82
706.27	317.77
706.60	316.71
706.94	315.65
707.27	314.49
707.61	313.43
707.94	312.45
708.27	311.34
708.61	310.27
708.94	309.23
709.28	308.26
709.61	307.29
709.94	306.32
710.28	305.31
710.61	304.34
710.95	303.25
711.28	302.35
711.61	301.38
711.95	300.44
712.28	299.46
712.61	298.50
712.95	297.55
713.28	296.68
713.61	295.79
713.95	294.89
714.28	294.11
714.61	293.25
714.95	292.39
715.28	291.52
715.61	290.63
715.95	289.82
716.28	288.98
716.61	288.14
716.95	287.33
717.28	286.56
717.61	285.83
717.94	285.12
718.28	284.29
718.61	283.59
718.94	282.91
719.27	282.29
719.61	281.65
719.94	281.04
720.27	280.34
720.60	279.69
720.94	279.05
721.27	278.42
721.60	277.84
721.93	277.27
722.27	276.73
722.60	276.25
722.93	275.70
723.26	275.14
723.59	274.62
723.93	274.04
724.26	273.53
724.59	273.00
724.92	272.47
725.25	272.04
725.59	271.58
725.92	271.06
726.25	270.54
726.58	270.02
726.91	269.48
727.24	269.01
727.57	268.56
727.91	268.09
728.24	267.64
728.57	267.16
728.90	266.68
729.23	266.19
729.56	265.74
729.89	265.23
730.22	264.76
730.55	264.26
730.89	263.81
731.22	263.35
731.55	262.90
731.88	262.46
732.21	261.99
732.54	261.51
732.87	261.08
733.20	260.66
733.53	260.29
733.86	259.91
734.19	259.51
734.52	259.10
734.85	258.77
735.18	258.36
735.51	257.97
735.84	257.61
736.17	257.22
736.50	256.83
736.83	256.60
737.16	256.28
737.49	255.98
737.82	255.67
738.15	255.36
738.48	255.01
738.81	254.70
739.14	254.39
739.47	254.09
739.80	253.79
740.13	253.49
740.46	253.15
740.79	252.84
741.12	252.52
741.45	252.19
741.78	251.82
742.11	251.52
742.44	251.20
742.77	250.92
743.10	250.62
743.43	250.30
743.75	249.92
744.08	249.74
744.41	249.45
744.74	249.16
745.07	248.87
745.40	248.64
745.73	248.39
746.06	248.09
746.39	247.85
746.71	247.58
747.04	247.31
747.37	247.06
747.70	246.82
748.03	246.61
748.36	246.40
748.68	246.19
749.01	245.94
749.34	245.71
749.67	245.46
750.00	245.23
750.33	245.06
750.65	244.85
750.98	244.51
751.31	244.28
751.64	244.04
751.97	243.84
752.29	243.59
752.62	243.33
752.95	243.14
753.28	242.89
753.60	242.70
753.93	242.52
754.26	242.32
754.59	242.09
754.91	241.85
755.24	241.69
755.57	241.50
755.90	241.34
756.22	241.14
756.55	240.93
756.88	240.78
757.20	240.57
757.53	240.37
757.86	240.20
758.19	240.07
758.51	239.93
758.84	239.74
759.17	239.59
759.49	239.43
759.82	239.31
760.15	239.15
760.47	238.99
760.80	238.84
761.13	238.71
761.45	238.59
761.78	238.46
762.11	238.27
762.43	238.10
762.76	237.96
763.08	237.84
763.41	237.73
763.74	237.56
764.06	237.40
764.39	237.24
764.71	237.12
765.04	236.95
765.37	236.83
765.69	236.70
766.02	236.55
766.34	236.42
766.67	236.26
767.00	236.17
767.32	236.07
767.65	236.00
767.97	235.88
768.30	235.73
768.62	235.62
768.95	235.52
769.27	235.42
769.60	235.32
769.92	235.24
770.25	235.10
770.57	235.02
770.90	234.89
771.22	234.81
771.55	234.72
771.87	234.66
772.20	234.56
772.52	234.52
772.85	234.55
773.17	234.47
773.50	234.36
773.82	234.27
774.15	234.15
774.47	233.99
774.80	233.91
775.12	233.85
775.45	233.74
775.77	233.68
776.09	233.60
776.42	233.49
776.74	233.44
777.07	233.32
777.39	233.20
777.72	233.14
778.04	233.08
778.36	232.99
778.69	232.91
779.01	232.83
779.33	232.70
779.66	232.52
779.98	232.42
780.31	232.37
780.63	232.35
780.95	232.30
781.28	232.22
781.60	232.14
781.92	232.07
782.25	231.99
782.57	231.89
782.89	231.82
783.22	231.79
783.54	231.68
783.86	231.69
784.19	231.63
784.51	231.61
784.83	231.53
785.16	231.48
785.48	231.41
785.80	231.39
786.12	231.38
786.45	231.36
786.77	231.31
787.09	231.27
