SpectraSuite Data File
++++++++++++++++++++++++++++++++++++
Date: Fri Feb 01 17:04:44 EST 2013
User: group
Dark Spectrum Present: No
Reference Spectrum Present: No
Number of Sampled Component Spectra: 1
Spectrometers: USB2E7196
Integration Time (usec): 35000 (USB2E7196)
Spectra Averaged: 100 (USB2E7196)
Boxcar Smoothing: 10 (USB2E7196)
Correct for Electrical Dark: No (USB2E7196)
Strobe/Lamp Enabled: No (USB2E7196)
Correct for Detector Non-linearity: No (USB2E7196)
Correct for Stray Light: No (USB2E7196)
Number of Pixels in Processed Spectrum: 2048
>>>>>Begin Processed Spectral Data<<<<<
339.09	0.00
339.48	213.01
339.86	214.40
340.24	216.27
340.63	217.92
341.01	220.15
341.39	219.86
341.78	221.95
342.16	222.93
342.54	223.31
342.93	211.70
343.31	222.41
343.69	222.94
344.07	223.44
344.46	223.86
344.84	224.22
345.22	224.48
345.60	224.75
345.99	224.92
346.37	225.01
346.75	225.11
347.13	225.17
347.52	225.22
347.90	225.28
348.28	225.29
348.66	225.32
349.05	225.34
349.43	225.38
349.81	225.40
350.19	225.41
350.57	225.42
350.96	225.50
351.34	225.55
351.72	225.64
352.10	225.72
352.48	225.79
352.87	225.83
353.25	225.87
353.63	225.92
354.01	225.97
354.39	226.08
354.77	226.14
355.15	226.22
355.54	226.27
355.92	226.29
356.30	226.32
356.68	226.44
357.06	226.49
357.44	226.54
357.82	226.64
358.20	226.70
358.58	226.77
358.97	226.82
359.35	226.89
359.73	226.98
360.11	227.01
360.49	227.08
360.87	227.13
361.25	227.21
361.63	227.31
362.01	227.35
362.39	227.36
362.77	227.41
363.15	227.47
363.53	227.52
363.91	227.59
364.29	227.63
364.67	227.59
365.05	227.64
365.43	227.70
365.81	227.72
366.19	227.80
366.57	227.84
366.95	227.85
367.33	227.86
367.71	227.83
368.09	227.81
368.47	227.78
368.85	227.77
369.23	227.76
369.61	227.68
369.99	227.71
370.37	227.72
370.75	227.75
371.13	227.66
371.51	227.62
371.89	227.58
372.27	227.60
372.65	227.59
373.03	227.52
373.41	227.46
373.78	227.41
374.16	227.30
374.54	227.22
374.92	227.16
375.30	227.12
375.68	227.06
376.06	227.03
376.44	226.99
376.82	226.93
377.19	226.84
377.57	226.78
377.95	226.67
378.33	226.59
378.71	226.43
379.09	226.41
379.47	226.36
379.84	226.29
380.22	226.21
380.60	226.11
380.98	226.05
381.36	226.03
381.73	225.95
382.11	225.91
382.49	225.84
382.87	225.76
383.25	225.69
383.62	225.76
384.00	225.70
384.38	225.66
384.76	225.63
385.13	225.65
385.51	225.59
385.89	225.55
386.27	225.51
386.64	225.50
387.02	225.43
387.40	225.37
387.78	225.34
388.15	225.28
388.53	225.24
388.91	225.20
389.29	225.15
389.66	225.08
390.04	225.02
390.42	225.04
390.79	225.03
391.17	225.00
391.55	224.85
391.92	224.83
392.30	224.82
392.68	224.78
393.05	224.74
393.43	224.76
393.81	224.74
394.18	224.72
394.56	224.74
394.94	224.79
395.31	224.77
395.69	224.80
396.06	224.84
396.44	224.85
396.82	224.88
397.19	224.96
397.57	225.01
397.95	225.11
398.32	225.13
398.70	225.18
399.07	225.26
399.45	225.33
399.82	225.37
400.20	225.40
400.58	225.48
400.95	225.55
401.33	225.63
401.70	225.78
402.08	225.88
402.45	225.98
402.83	226.07
403.20	226.20
403.58	226.28
403.95	226.39
404.33	226.53
404.71	226.61
405.08	226.77
405.46	226.90
405.83	227.03
406.21	227.13
406.58	227.30
406.96	227.43
407.33	227.57
407.70	227.79
408.08	228.07
408.45	228.25
408.83	228.44
409.20	228.62
409.58	228.79
409.95	229.02
410.33	229.26
410.70	229.52
411.08	229.77
411.45	230.05
411.82	230.35
412.20	230.68
412.57	231.12
412.95	231.41
413.32	231.80
413.69	232.19
414.07	232.63
414.44	233.10
414.82	233.57
415.19	234.14
415.56	234.64
415.94	235.17
416.31	235.83
416.68	236.48
417.06	237.21
417.43	237.91
417.81	238.70
418.18	239.47
418.55	240.31
418.93	241.21
419.30	242.13
419.67	243.07
420.04	244.03
420.42	245.01
420.79	246.19
421.16	247.33
421.54	248.50
421.91	249.72
422.28	250.97
422.66	252.28
423.03	253.58
423.40	254.93
423.77	256.32
424.15	257.70
424.52	259.18
424.89	260.79
425.26	262.31
425.64	263.73
426.01	265.32
426.38	266.92
426.75	268.57
427.13	270.28
427.50	272.08
427.87	273.93
428.24	275.79
428.61	277.51
428.99	279.44
429.36	281.55
429.73	283.64
430.10	285.63
430.47	287.68
430.85	289.81
431.22	292.03
431.59	294.41
431.96	296.61
432.33	299.03
432.70	301.38
433.08	304.16
433.45	306.81
433.82	309.41
434.19	312.29
434.56	315.06
434.93	317.72
435.30	320.34
435.68	323.21
436.05	326.01
436.42	328.77
436.79	331.24
437.16	333.89
437.53	336.67
437.90	339.48
438.27	342.23
438.64	344.98
439.01	347.57
439.38	349.76
439.75	351.91
440.13	354.41
440.50	356.69
440.87	358.48
441.24	360.38
441.61	362.48
441.98	363.94
442.35	365.73
442.72	367.56
443.09	369.30
443.46	370.23
443.83	370.82
444.20	371.33
444.57	372.19
444.94	372.46
445.31	372.78
445.68	373.14
446.05	373.19
446.42	372.83
446.79	372.42
447.16	371.96
447.53	371.70
447.90	370.53
448.27	369.45
448.64	367.94
449.01	366.81
449.37	364.91
449.74	363.06
450.11	360.86
450.48	358.39
450.85	355.92
451.22	353.87
451.59	351.89
451.96	350.00
452.33	347.44
452.70	345.15
453.07	342.31
453.43	339.43
453.80	336.70
454.17	334.06
454.54	331.55
454.91	328.90
455.28	326.23
455.65	323.79
456.02	321.36
456.38	319.22
456.75	316.59
457.12	314.35
457.49	312.17
457.86	310.02
458.23	308.21
458.59	306.18
458.96	304.12
459.33	302.23
459.70	300.35
460.07	298.89
460.43	297.18
460.80	295.61
461.17	294.20
461.54	292.70
461.91	291.31
462.27	289.85
462.64	288.61
463.01	287.28
463.38	286.02
463.74	284.66
464.11	283.55
464.48	282.57
464.85	281.45
465.21	280.58
465.58	279.67
465.95	278.60
466.32	277.73
466.68	276.86
467.05	276.05
467.42	275.18
467.78	274.23
468.15	273.40
468.52	272.79
468.88	271.92
469.25	271.16
469.62	270.53
469.98	269.90
470.35	269.27
470.72	268.69
471.08	268.01
471.45	267.50
471.82	266.96
472.18	266.37
472.55	265.97
472.92	265.49
473.28	265.01
473.65	264.54
474.02	264.10
474.38	263.72
474.75	263.43
475.11	263.11
475.48	262.88
475.85	262.66
476.21	262.42
476.58	262.29
476.94	262.21
477.31	262.04
477.67	261.89
478.04	261.79
478.41	261.73
478.77	261.83
479.14	261.74
479.50	261.77
479.87	261.84
480.23	261.91
480.60	261.99
480.96	262.09
481.33	262.32
481.69	262.55
482.06	262.77
482.42	262.91
482.79	263.15
483.15	263.45
483.52	263.83
483.88	264.17
484.25	264.54
484.61	264.95
484.98	265.47
485.34	266.04
485.71	266.66
486.07	267.32
486.44	267.90
486.80	268.62
487.17	269.38
487.53	270.19
487.90	271.04
488.26	271.98
488.62	273.00
488.99	274.00
489.35	275.02
489.72	276.15
490.08	277.34
490.44	278.61
490.81	279.93
491.17	281.28
491.54	282.76
491.90	284.28
492.26	285.92
492.63	287.57
492.99	289.37
493.36	291.21
493.72	293.23
494.08	295.26
494.45	297.47
494.81	299.79
495.17	302.21
495.54	304.77
495.90	307.44
496.26	310.21
496.63	313.16
496.99	316.25
497.35	319.46
497.72	322.86
498.08	326.36
498.44	330.03
498.80	333.93
499.17	337.95
499.53	342.08
499.89	346.39
500.26	350.91
500.62	355.52
500.98	360.47
501.34	365.49
501.71	370.77
502.07	376.21
502.43	381.77
502.79	387.55
503.16	393.54
503.52	399.77
503.88	406.07
504.24	412.62
504.60	419.38
504.97	426.46
505.33	433.70
505.69	441.35
506.05	449.12
506.41	456.89
506.78	464.99
507.14	473.40
507.50	482.01
507.86	490.93
508.22	500.03
508.59	509.14
508.95	518.63
509.31	528.33
509.67	538.26
510.03	548.45
510.39	558.89
510.75	569.55
511.12	580.30
511.48	591.52
511.84	602.79
512.20	614.19
512.56	625.98
512.92	637.98
513.28	650.15
513.64	662.36
514.00	674.95
514.37	687.65
514.73	700.47
515.09	713.33
515.45	726.43
515.81	739.79
516.17	753.54
516.53	767.42
516.89	781.42
517.25	795.28
517.61	809.46
517.97	823.64
518.33	837.83
518.69	852.32
519.05	866.94
519.41	881.85
519.77	897.07
520.13	912.24
520.49	927.37
520.85	942.43
521.21	957.85
521.57	973.69
521.93	989.18
522.29	1005.16
522.65	1021.13
523.01	1036.93
523.37	1052.59
523.73	1068.40
524.09	1084.11
524.45	1100.04
524.81	1116.34
525.17	1132.66
525.53	1149.09
525.89	1165.65
526.25	1182.14
526.61	1198.18
526.97	1214.47
527.33	1230.62
527.68	1246.81
528.04	1262.86
528.40	1278.98
528.76	1295.61
529.12	1311.72
529.48	1328.24
529.84	1343.92
530.20	1360.11
530.56	1376.63
530.91	1393.66
531.27	1410.11
531.63	1426.13
531.99	1442.32
532.35	1457.96
532.71	1473.59
533.07	1489.58
533.42	1505.13
533.78	1520.79
534.14	1536.79
534.50	1551.81
534.86	1567.27
535.21	1582.04
535.57	1597.59
535.93	1612.79
536.29	1627.13
536.65	1641.90
537.00	1656.24
537.36	1671.24
537.72	1685.29
538.08	1699.49
538.44	1713.05
538.79	1726.57
539.15	1739.99
539.51	1753.45
539.87	1767.42
540.22	1780.85
540.58	1794.10
540.94	1806.86
541.29	1819.39
541.65	1831.75
542.01	1844.60
542.37	1856.71
542.72	1868.86
543.08	1880.31
543.44	1892.49
543.79	1903.53
544.15	1914.31
544.51	1925.54
544.87	1936.21
545.22	1946.88
545.58	1956.82
545.94	1966.37
546.29	1975.98
546.65	1985.66
547.01	1994.81
547.36	2003.42
547.72	2011.56
548.07	2019.53
548.43	2027.63
548.79	2035.46
549.14	2042.88
549.50	2050.10
549.86	2057.48
550.21	2064.75
550.57	2071.85
550.92	2078.19
551.28	2085.16
551.64	2092.23
551.99	2098.76
552.35	2105.01
552.70	2111.11
553.06	2117.17
553.41	2123.39
553.77	2129.33
554.13	2135.34
554.48	2141.34
554.84	2146.89
555.19	2152.14
555.55	2157.29
555.90	2161.85
556.26	2166.96
556.61	2171.68
556.97	2176.22
557.32	2180.47
557.68	2184.60
558.03	2189.00
558.39	2192.65
558.74	2197.31
559.10	2201.13
559.45	2204.90
559.81	2208.99
560.16	2212.85
560.52	2216.18
560.87	2219.74
561.23	2222.50
561.58	2225.49
561.94	2228.14
562.29	2230.43
562.64	2233.43
563.00	2235.98
563.35	2239.52
563.71	2242.65
564.06	2245.78
564.42	2248.67
564.77	2251.45
565.12	2254.08
565.48	2256.13
565.83	2258.47
566.19	2260.08
566.54	2261.11
566.89	2262.40
567.25	2263.28
567.60	2264.63
567.96	2266.39
568.31	2267.29
568.66	2268.70
569.02	2269.34
569.37	2269.86
569.72	2271.05
570.08	2271.36
570.43	2271.57
570.78	2271.33
571.14	2269.90
571.49	2268.97
571.84	2268.87
572.20	2267.88
572.55	2266.69
572.90	2265.21
573.26	2263.85
573.61	2262.09
573.96	2260.56
574.31	2257.75
574.67	2255.04
575.02	2251.85
575.37	2248.61
575.72	2245.04
576.08	2241.76
576.43	2238.72
576.78	2235.29
577.13	2232.08
577.49	2229.02
577.84	2225.80
578.19	2222.07
578.54	2218.83
578.90	2214.86
579.25	2209.40
579.60	2204.82
579.95	2200.20
580.30	2195.36
580.66	2190.44
581.01	2185.88
581.36	2181.17
581.71	2177.45
582.06	2173.32
582.42	2169.12
582.77	2164.25
583.12	2160.04
583.47	2155.69
583.82	2150.93
584.17	2145.81
584.53	2140.60
584.88	2135.25
585.23	2129.80
585.58	2124.67
585.93	2119.36
586.28	2114.58
586.63	2109.82
586.98	2104.84
587.34	2100.45
587.69	2095.85
588.04	2090.98
588.39	2085.57
588.74	2079.30
589.09	2073.10
589.44	2066.53
589.79	2060.52
590.14	2054.90
590.49	2048.40
590.84	2042.07
591.19	2036.27
591.54	2030.09
591.89	2023.15
592.25	2016.66
592.60	2009.69
592.95	2002.38
593.30	1995.15
593.65	1987.88
594.00	1981.00
594.35	1973.82
594.70	1965.71
595.05	1958.87
595.40	1951.64
595.75	1944.37
596.10	1938.57
596.45	1932.16
596.80	1926.10
597.15	1919.74
597.50	1913.10
597.85	1906.78
598.19	1900.43
598.54	1893.61
598.89	1887.23
599.24	1881.45
599.59	1874.88
599.94	1868.58
600.29	1862.31
600.64	1855.87
600.99	1848.63
601.34	1841.94
601.69	1835.21
602.04	1828.65
602.39	1821.35
602.74	1814.65
603.08	1808.03
603.43	1801.30
603.78	1794.10
604.13	1786.95
604.48	1779.90
604.83	1773.04
605.18	1766.35
605.53	1758.45
605.87	1750.52
606.22	1743.26
606.57	1735.33
606.92	1728.11
607.27	1721.36
607.62	1714.62
607.96	1707.62
608.31	1701.26
608.66	1693.85
609.01	1686.40
609.36	1679.00
609.70	1671.05
610.05	1663.13
610.40	1655.48
610.75	1647.32
611.10	1639.86
611.44	1631.54
611.79	1623.52
612.14	1615.00
612.49	1605.82
612.83	1597.43
613.18	1589.33
613.53	1581.38
613.88	1572.94
614.22	1564.79
614.57	1556.15
614.92	1548.17
615.27	1540.73
615.61	1532.46
615.96	1524.48
616.31	1516.86
616.65	1509.51
617.00	1502.06
617.35	1494.46
617.70	1486.29
618.04	1477.79
618.39	1469.40
618.74	1461.89
619.08	1453.59
619.43	1445.96
619.78	1439.06
620.12	1432.04
620.47	1424.57
620.82	1416.32
621.16	1408.94
621.51	1401.22
621.85	1393.63
622.20	1385.20
622.55	1376.67
622.89	1368.78
623.24	1361.08
623.59	1353.69
623.93	1346.20
624.28	1338.88
624.62	1331.39
624.97	1324.15
625.32	1317.33
625.66	1310.38
626.01	1303.26
626.35	1296.10
626.70	1288.44
627.04	1280.86
627.39	1273.03
627.73	1265.69
628.08	1258.86
628.43	1251.70
628.77	1244.57
629.12	1237.07
629.46	1230.01
629.81	1222.70
630.15	1215.45
630.50	1208.16
630.84	1199.97
631.19	1191.97
631.53	1184.60
631.88	1177.01
632.22	1169.54
632.57	1162.26
632.91	1154.80
633.26	1147.46
633.60	1139.93
633.95	1132.75
634.29	1125.69
634.64	1119.08
634.98	1111.76
635.32	1104.63
635.67	1097.89
636.01	1091.18
636.36	1084.35
636.70	1077.78
637.05	1071.19
637.39	1064.75
637.73	1058.25
638.08	1052.48
638.42	1046.63
638.77	1040.22
639.11	1033.84
639.45	1027.41
639.80	1020.83
640.14	1014.49
640.49	1008.02
640.83	1001.83
641.17	995.73
641.52	989.45
641.86	982.95
642.20	977.10
642.55	970.76
642.89	964.48
643.23	957.96
643.58	952.24
643.92	946.17
644.26	940.23
644.61	934.21
644.95	928.30
645.29	921.81
645.64	915.10
645.98	908.86
646.32	902.89
646.66	896.87
647.01	891.14
647.35	885.51
647.69	879.62
648.04	874.08
648.38	868.34
648.72	862.47
649.06	856.50
649.41	850.68
649.75	844.75
650.09	838.83
650.43	833.11
650.78	827.05
651.12	821.05
651.46	815.38
651.80	809.76
652.14	804.27
652.49	798.87
652.83	793.71
653.17	788.08
653.51	782.48
653.85	777.12
654.20	771.48
654.54	765.41
654.88	759.66
655.22	753.75
655.56	748.06
655.90	742.60
656.25	737.50
656.59	732.17
656.93	727.18
657.27	722.04
657.61	716.65
657.95	711.58
658.29	706.51
658.64	701.26
658.98	695.90
659.32	690.55
659.66	685.41
660.00	680.15
660.34	675.21
660.68	670.30
661.02	665.25
661.36	660.62
661.70	656.26
662.05	651.99
662.39	647.75
662.73	643.30
663.07	638.90
663.41	634.47
663.75	629.99
664.09	625.44
664.43	621.02
664.77	616.92
665.11	612.62
665.45	608.45
665.79	604.38
666.13	600.33
666.47	596.25
666.81	592.14
667.15	587.98
667.49	584.07
667.83	580.22
668.17	576.34
668.51	572.25
668.85	568.14
669.19	564.29
669.53	560.43
669.87	556.59
670.21	552.95
670.55	549.25
670.89	545.79
671.23	542.36
671.57	538.92
671.91	535.43
672.25	531.94
672.58	528.49
672.92	525.07
673.26	521.88
673.60	518.74
673.94	515.63
674.28	512.75
674.62	509.75
674.96	506.68
675.30	503.81
675.64	500.89
675.97	498.17
676.31	495.26
676.65	492.36
676.99	489.69
677.33	486.75
677.67	483.95
678.01	481.00
678.34	478.09
678.68	475.21
679.02	472.36
679.36	469.65
679.70	466.92
680.04	464.18
680.37	461.37
680.71	458.59
681.05	455.98
681.39	453.31
681.73	450.70
682.06	448.21
682.40	445.66
682.74	443.15
683.08	440.60
683.42	438.04
683.75	435.59
684.09	432.95
684.43	430.52
684.77	428.08
685.10	425.73
685.44	423.40
685.78	421.15
686.12	418.92
686.45	416.61
686.79	414.37
687.13	412.19
687.46	410.01
687.80	407.83
688.14	405.62
688.48	403.59
688.81	401.35
689.15	399.20
689.49	397.02
689.82	394.89
690.16	392.82
690.50	390.86
690.83	388.91
691.17	387.02
691.51	385.12
691.84	383.31
692.18	381.35
692.52	379.43
692.85	377.45
693.19	375.59
693.52	373.75
693.86	371.97
694.20	370.16
694.53	368.45
694.87	366.59
695.21	364.76
695.54	362.92
695.88	361.23
696.21	359.48
696.55	357.87
696.88	356.27
697.22	354.55
697.56	352.95
697.89	351.31
698.23	349.71
698.56	348.12
698.90	346.50
699.23	344.89
699.57	343.32
699.90	341.77
700.24	340.19
700.58	338.67
700.91	337.15
701.25	335.69
701.58	334.23
701.92	332.92
702.25	331.57
702.59	330.22
702.92	328.87
703.26	327.59
703.59	326.27
703.93	325.08
704.26	323.92
704.60	322.65
704.93	321.40
705.26	320.14
705.60	318.94
705.93	317.79
706.27	316.75
706.60	315.71
706.94	314.65
707.27	313.53
707.61	312.50
707.94	311.46
708.27	310.40
708.61	309.31
708.94	308.27
709.28	307.27
709.61	306.29
709.94	305.33
710.28	304.31
710.61	303.34
710.95	302.23
711.28	301.28
711.61	300.32
711.95	299.37
712.28	298.44
712.61	297.47
712.95	296.55
713.28	295.69
713.61	294.76
713.95	293.88
714.28	293.04
714.61	292.14
714.95	291.32
715.28	290.46
715.61	289.59
715.95	288.73
716.28	287.89
716.61	287.02
716.95	286.21
717.28	285.42
717.61	284.65
717.94	283.88
718.28	283.06
718.61	282.35
718.94	281.64
719.27	280.96
719.61	280.36
719.94	279.67
720.27	278.92
720.60	278.26
720.94	277.62
721.27	277.04
721.60	276.49
721.93	275.85
722.27	275.33
722.60	274.83
722.93	274.28
723.26	273.74
723.59	273.22
723.93	272.66
724.26	272.14
724.59	271.57
724.92	271.06
725.25	270.59
725.59	270.06
725.92	269.60
726.25	269.10
726.58	268.56
726.91	268.06
727.24	267.58
727.57	267.14
727.91	266.64
728.24	266.13
728.57	265.61
728.90	265.19
729.23	264.67
729.56	264.24
729.89	263.75
730.22	263.26
730.55	262.78
730.89	262.37
731.22	261.90
731.55	261.51
731.88	261.12
732.21	260.69
732.54	260.25
732.87	259.80
733.20	259.38
733.53	259.01
733.86	258.69
734.19	258.30
734.52	257.91
734.85	257.65
735.18	257.27
735.51	256.94
735.84	256.53
736.17	256.20
736.50	255.76
736.83	255.56
737.16	255.23
737.49	254.91
737.82	254.57
738.15	254.24
738.48	253.90
738.81	253.57
739.14	253.23
739.47	252.88
739.80	252.59
740.13	252.29
740.46	251.98
740.79	251.64
741.12	251.35
741.45	251.02
741.78	250.65
742.11	250.40
742.44	250.06
742.77	249.78
743.10	249.50
743.43	249.20
743.75	248.81
744.08	248.68
744.41	248.38
744.74	248.11
745.07	247.83
745.40	247.55
745.73	247.31
746.06	247.05
746.39	246.83
746.71	246.55
747.04	246.31
747.37	246.02
747.70	245.76
748.03	245.49
748.36	245.28
748.68	245.00
749.01	244.74
749.34	244.53
749.67	244.29
750.00	244.04
750.33	243.88
750.65	243.66
750.98	243.28
751.31	243.08
751.64	242.85
751.97	242.70
752.29	242.52
752.62	242.24
752.95	241.99
753.28	241.74
753.60	241.51
753.93	241.30
754.26	241.12
754.59	240.90
754.91	240.68
755.24	240.47
755.57	240.27
755.90	240.10
756.22	239.89
756.55	239.70
756.88	239.50
757.20	239.26
757.53	239.05
757.86	238.93
758.19	238.72
758.51	238.55
758.84	238.33
759.17	238.15
759.49	238.02
759.82	237.89
760.15	237.74
760.47	237.61
760.80	237.42
761.13	237.28
761.45	237.13
761.78	236.98
762.11	236.84
762.43	236.69
762.76	236.51
763.08	236.38
763.41	236.24
763.74	236.14
764.06	236.00
764.39	235.84
764.71	235.66
765.04	235.54
765.37	235.40
765.69	235.28
766.02	235.13
766.34	234.99
766.67	234.88
767.00	234.78
767.32	234.66
767.65	234.62
767.97	234.51
768.30	234.37
768.62	234.31
768.95	234.18
769.27	234.07
769.60	233.99
769.92	233.87
770.25	233.75
770.57	233.64
770.90	233.53
771.22	233.44
771.55	233.37
771.87	233.30
772.20	233.20
772.52	233.20
772.85	233.21
773.17	233.09
773.50	232.96
773.82	232.89
774.15	232.77
774.47	232.64
774.80	232.55
775.12	232.49
775.45	232.40
775.77	232.37
776.09	232.30
776.42	232.23
776.74	232.17
777.07	232.07
777.39	231.97
777.72	231.93
778.04	231.86
778.36	231.75
778.69	231.72
779.01	231.66
779.33	231.50
779.66	231.33
779.98	231.27
780.31	231.22
780.63	231.19
780.95	231.16
781.28	231.08
781.60	230.99
781.92	230.92
782.25	230.84
782.57	230.77
782.89	230.71
783.22	230.64
783.54	230.58
783.86	230.59
784.19	230.53
784.51	230.50
784.83	230.46
785.16	230.42
785.48	230.37
785.80	230.31
786.12	230.26
786.45	230.25
786.77	230.19
787.09	230.19
