SpectraSuite Data File
++++++++++++++++++++++++++++++++++++
Date: Fri Feb 01 16:57:53 EST 2013
User: group
Dark Spectrum Present: No
Reference Spectrum Present: No
Number of Sampled Component Spectra: 1
Spectrometers: USB2E7196
Integration Time (usec): 35000 (USB2E7196)
Spectra Averaged: 100 (USB2E7196)
Boxcar Smoothing: 10 (USB2E7196)
Correct for Electrical Dark: No (USB2E7196)
Strobe/Lamp Enabled: No (USB2E7196)
Correct for Detector Non-linearity: No (USB2E7196)
Correct for Stray Light: No (USB2E7196)
Number of Pixels in Processed Spectrum: 2048
>>>>>Begin Processed Spectral Data<<<<<
339.09	0.00
339.48	212.91
339.86	215.28
340.24	215.59
340.63	217.26
341.01	220.25
341.39	220.14
341.78	221.12
342.16	222.71
342.54	223.20
342.93	211.58
343.31	222.27
343.69	222.85
344.07	223.27
344.46	223.71
344.84	224.09
345.22	224.33
345.60	224.60
345.99	224.82
346.37	224.94
346.75	225.06
347.13	225.11
347.52	225.20
347.90	225.25
348.28	225.26
348.66	225.30
349.05	225.34
349.43	225.40
349.81	225.47
350.19	225.53
350.57	225.56
350.96	225.61
351.34	225.69
351.72	225.72
352.10	225.82
352.48	225.92
352.87	225.99
353.25	226.04
353.63	226.10
354.01	226.16
354.39	226.25
354.77	226.32
355.15	226.44
355.54	226.49
355.92	226.56
356.30	226.64
356.68	226.81
357.06	226.83
357.44	226.89
357.82	226.95
358.20	227.00
358.58	227.08
358.97	227.14
359.35	227.26
359.73	227.35
360.11	227.39
360.49	227.45
360.87	227.48
361.25	227.55
361.63	227.59
362.01	227.62
362.39	227.63
362.77	227.68
363.15	227.67
363.53	227.71
363.91	227.72
364.29	227.74
364.67	227.63
365.05	227.67
365.43	227.67
365.81	227.70
366.19	227.77
366.57	227.82
366.95	227.82
367.33	227.75
367.71	227.75
368.09	227.75
368.47	227.73
368.85	227.73
369.23	227.72
369.61	227.71
369.99	227.71
370.37	227.70
370.75	227.72
371.13	227.70
371.51	227.65
371.89	227.62
372.27	227.61
372.65	227.59
373.03	227.53
373.41	227.49
373.78	227.41
374.16	227.29
374.54	227.20
374.92	227.19
375.30	227.13
375.68	227.04
376.06	227.00
376.44	226.94
376.82	226.90
377.19	226.81
377.57	226.71
377.95	226.59
378.33	226.52
378.71	226.37
379.09	226.29
379.47	226.24
379.84	226.16
380.22	226.08
380.60	225.98
380.98	225.92
381.36	225.84
381.73	225.79
382.11	225.77
382.49	225.70
382.87	225.59
383.25	225.54
383.62	225.61
384.00	225.55
384.38	225.45
384.76	225.39
385.13	225.37
385.51	225.33
385.89	225.29
386.27	225.23
386.64	225.21
387.02	225.14
387.40	225.10
387.78	225.05
388.15	225.00
388.53	224.96
388.91	224.91
389.29	224.89
389.66	224.91
390.04	224.86
390.42	224.87
390.79	224.83
391.17	224.80
391.55	224.69
391.92	224.69
392.30	224.74
392.68	224.75
393.05	224.75
393.43	224.77
393.81	224.76
394.18	224.78
394.56	224.82
394.94	224.89
395.31	224.90
395.69	224.98
396.06	225.04
396.44	225.08
396.82	225.15
397.19	225.25
397.57	225.25
397.95	225.30
398.32	225.29
398.70	225.38
399.07	225.46
399.45	225.50
399.82	225.53
400.20	225.57
400.58	225.62
400.95	225.65
401.33	225.75
401.70	225.93
402.08	226.00
402.45	226.08
402.83	226.21
403.20	226.32
403.58	226.43
403.95	226.55
404.33	226.70
404.71	226.78
405.08	226.93
405.46	227.06
405.83	227.22
406.21	227.39
406.58	227.54
406.96	227.69
407.33	227.84
407.70	228.07
408.08	228.37
408.45	228.60
408.83	228.84
409.20	229.07
409.58	229.25
409.95	229.52
410.33	229.77
410.70	229.98
411.08	230.28
411.45	230.53
411.82	230.80
412.20	231.14
412.57	231.54
412.95	231.86
413.32	232.23
413.69	232.64
414.07	233.07
414.44	233.51
414.82	234.00
415.19	234.57
415.56	235.08
415.94	235.57
416.31	236.19
416.68	236.80
417.06	237.47
417.43	238.13
417.81	238.90
418.18	239.65
418.55	240.52
418.93	241.33
419.30	242.23
419.67	243.20
420.04	244.14
420.42	245.13
420.79	246.25
421.16	247.42
421.54	248.58
421.91	249.79
422.28	251.06
422.66	252.36
423.03	253.66
423.40	254.98
423.77	256.37
424.15	257.75
424.52	259.23
424.89	260.85
425.26	262.38
425.64	263.80
426.01	265.38
426.38	266.97
426.75	268.61
427.13	270.33
427.50	272.08
427.87	273.96
428.24	275.82
428.61	277.57
428.99	279.50
429.36	281.57
429.73	283.61
430.10	285.60
430.47	287.64
430.85	289.73
431.22	291.94
431.59	294.31
431.96	296.59
432.33	299.07
432.70	301.42
433.08	304.23
433.45	306.82
433.82	309.37
434.19	312.23
434.56	315.02
434.93	317.66
435.30	320.24
435.68	323.05
436.05	325.86
436.42	328.64
436.79	331.11
437.16	333.79
437.53	336.60
437.90	339.38
438.27	342.12
438.64	344.88
439.01	347.43
439.38	349.67
439.75	351.79
440.13	354.26
440.50	356.56
440.87	358.38
441.24	360.32
441.61	362.51
441.98	364.02
442.35	365.82
442.72	367.64
443.09	369.48
443.46	370.50
443.83	371.01
444.20	371.50
444.57	372.36
444.94	372.63
445.31	372.98
445.68	373.32
446.05	373.37
446.42	373.02
446.79	372.66
447.16	372.22
447.53	371.89
447.90	370.73
448.27	369.60
448.64	368.04
449.01	366.94
449.37	364.99
449.74	363.13
450.11	360.92
450.48	358.46
450.85	355.96
451.22	353.85
451.59	351.94
451.96	350.03
452.33	347.47
452.70	345.19
453.07	342.36
453.43	339.48
453.80	336.78
454.17	334.16
454.54	331.61
454.91	328.93
455.28	326.28
455.65	323.82
456.02	321.40
456.38	319.26
456.75	316.65
457.12	314.42
457.49	312.16
457.86	310.03
458.23	308.21
458.59	306.18
458.96	304.10
459.33	302.22
459.70	300.37
460.07	298.88
460.43	297.12
460.80	295.56
461.17	294.11
461.54	292.65
461.91	291.21
462.27	289.78
462.64	288.53
463.01	287.20
463.38	285.94
463.74	284.58
464.11	283.45
464.48	282.45
464.85	281.33
465.21	280.49
465.58	279.56
465.95	278.48
466.32	277.60
466.68	276.71
467.05	275.83
467.42	274.97
467.78	274.07
468.15	273.24
468.52	272.58
468.88	271.74
469.25	270.94
469.62	270.38
469.98	269.73
470.35	269.09
470.72	268.50
471.08	267.81
471.45	267.30
471.82	266.78
472.18	266.18
472.55	265.74
472.92	265.24
473.28	264.83
473.65	264.41
474.02	263.99
474.38	263.65
474.75	263.35
475.11	262.99
475.48	262.73
475.85	262.52
476.21	262.28
476.58	262.13
476.94	262.05
477.31	261.89
477.67	261.73
478.04	261.68
478.41	261.64
478.77	261.73
479.14	261.68
479.50	261.68
479.87	261.74
480.23	261.87
480.60	261.94
480.96	262.02
481.33	262.25
481.69	262.42
482.06	262.62
482.42	262.82
482.79	263.10
483.15	263.40
483.52	263.81
483.88	264.18
484.25	264.58
484.61	264.98
484.98	265.42
485.34	266.02
485.71	266.58
486.07	267.19
486.44	267.75
486.80	268.43
487.17	269.18
487.53	270.00
487.90	270.85
488.26	271.74
488.62	272.75
488.99	273.73
489.35	274.78
489.72	275.92
490.08	277.15
490.44	278.39
490.81	279.71
491.17	281.05
491.54	282.54
491.90	284.09
492.26	285.74
492.63	287.46
492.99	289.20
493.36	291.09
493.72	293.10
494.08	295.23
494.45	297.50
494.81	299.83
495.17	302.24
495.54	304.80
495.90	307.56
496.26	310.36
496.63	313.28
496.99	316.33
497.35	319.51
497.72	322.88
498.08	326.35
498.44	330.03
498.80	333.90
499.17	337.93
499.53	342.09
499.89	346.43
500.26	350.90
500.62	355.56
500.98	360.49
501.34	365.55
501.71	370.82
502.07	376.22
502.43	381.86
502.79	387.64
503.16	393.67
503.52	399.87
503.88	406.25
504.24	412.89
504.60	419.78
504.97	426.89
505.33	434.16
505.69	441.85
506.05	449.56
506.41	457.38
506.78	465.43
507.14	473.84
507.50	482.46
507.86	491.40
508.22	500.51
508.59	509.65
508.95	519.15
509.31	528.83
509.67	538.82
510.03	548.94
510.39	559.38
510.75	570.09
511.12	580.88
511.48	592.04
511.84	603.41
512.20	614.77
512.56	626.64
512.92	638.63
513.28	650.81
513.64	663.20
514.00	675.82
514.37	688.61
514.73	701.43
515.09	714.33
515.45	727.48
515.81	740.90
516.17	754.71
516.53	768.66
516.89	782.73
517.25	796.74
517.61	811.02
517.97	825.27
518.33	839.47
518.69	854.00
519.05	868.71
519.41	883.59
519.77	898.89
520.13	914.06
520.49	929.30
520.85	944.39
521.21	959.72
521.57	975.72
521.93	991.16
522.29	1007.17
522.65	1023.20
523.01	1039.12
523.37	1054.88
523.73	1070.73
524.09	1086.47
524.45	1102.43
524.81	1118.66
525.17	1135.04
525.53	1151.59
525.89	1168.14
526.25	1184.68
526.61	1200.76
526.97	1217.12
527.33	1233.38
527.68	1249.69
528.04	1265.80
528.40	1282.13
528.76	1298.95
529.12	1315.09
529.48	1331.79
529.84	1347.66
530.20	1363.94
530.56	1380.63
530.91	1397.76
531.27	1414.16
531.63	1430.29
531.99	1446.52
532.35	1462.27
532.71	1478.02
533.07	1493.93
533.42	1509.62
533.78	1525.33
534.14	1541.36
534.50	1556.42
534.86	1571.93
535.21	1586.75
535.57	1602.35
535.93	1617.55
536.29	1631.98
536.65	1646.79
537.00	1661.07
537.36	1676.11
537.72	1690.21
538.08	1704.36
538.44	1717.86
538.79	1731.60
539.15	1745.04
539.51	1758.62
539.87	1772.72
540.22	1786.01
540.58	1799.52
540.94	1812.45
541.29	1825.12
541.65	1837.48
542.01	1850.37
542.37	1862.47
542.72	1874.70
543.08	1886.22
543.44	1898.46
543.79	1909.58
544.15	1920.31
544.51	1931.81
544.87	1942.59
545.22	1953.30
545.58	1963.29
545.94	1972.87
546.29	1982.53
546.65	1992.26
547.01	2001.28
547.36	2009.64
547.72	2017.95
548.07	2025.82
548.43	2033.86
548.79	2041.79
549.14	2049.37
549.50	2056.58
549.86	2064.20
550.21	2071.37
550.57	2078.55
550.92	2084.87
551.28	2091.84
551.64	2098.89
551.99	2105.38
552.35	2111.44
552.70	2117.72
553.06	2123.67
553.41	2129.97
553.77	2135.92
554.13	2141.91
554.48	2148.02
554.84	2153.78
555.19	2159.12
555.55	2164.21
555.90	2168.77
556.26	2173.59
556.61	2178.20
556.97	2182.68
557.32	2186.75
557.68	2190.94
558.03	2195.08
558.39	2198.93
558.74	2203.56
559.10	2207.57
559.45	2211.28
559.81	2215.45
560.16	2219.33
560.52	2222.73
560.87	2226.19
561.23	2228.84
561.58	2231.75
561.94	2234.38
562.29	2236.63
562.64	2239.48
563.00	2242.12
563.35	2245.56
563.71	2248.67
564.06	2252.08
564.42	2254.99
564.77	2257.75
565.12	2260.19
565.48	2262.46
565.83	2264.54
566.19	2266.03
566.54	2266.99
566.89	2268.17
567.25	2269.10
567.60	2270.34
567.96	2272.20
568.31	2273.06
568.66	2274.48
569.02	2275.34
569.37	2275.79
569.72	2276.89
570.08	2277.29
570.43	2277.54
570.78	2277.30
571.14	2276.01
571.49	2274.68
571.84	2274.55
572.20	2273.59
572.55	2272.88
572.90	2271.19
573.26	2269.92
573.61	2268.41
573.96	2266.91
574.31	2264.27
574.67	2261.51
575.02	2258.08
575.37	2254.74
575.72	2251.30
576.08	2247.96
576.43	2244.79
576.78	2241.31
577.13	2238.20
577.49	2235.13
577.84	2231.87
578.19	2228.33
578.54	2225.16
578.90	2221.22
579.25	2215.87
579.60	2211.06
579.95	2206.15
580.30	2201.50
580.66	2196.58
581.01	2191.75
581.36	2186.94
581.71	2183.03
582.06	2178.66
582.42	2174.46
582.77	2169.59
583.12	2165.30
583.47	2160.93
583.82	2156.15
584.17	2151.23
584.53	2146.07
584.88	2140.63
585.23	2135.14
585.58	2129.83
585.93	2124.42
586.28	2119.62
586.63	2114.66
586.98	2109.79
587.34	2105.15
587.69	2100.39
588.04	2095.39
588.39	2089.87
588.74	2083.62
589.09	2077.52
589.44	2070.97
589.79	2064.95
590.14	2059.41
590.49	2052.82
590.84	2046.60
591.19	2040.70
591.54	2034.37
591.89	2027.15
592.25	2020.54
592.60	2013.48
592.95	2006.17
593.30	1998.98
593.65	1991.79
594.00	1985.09
594.35	1977.99
594.70	1970.15
595.05	1963.28
595.40	1955.94
595.75	1948.66
596.10	1942.61
596.45	1936.13
596.80	1930.19
597.15	1923.92
597.50	1917.07
597.85	1910.72
598.19	1904.29
598.54	1897.51
598.89	1891.01
599.24	1885.26
599.59	1878.83
599.94	1872.67
600.29	1866.41
600.64	1859.89
600.99	1852.56
601.34	1845.74
601.69	1838.73
602.04	1832.06
602.39	1824.78
602.74	1818.08
603.08	1811.50
603.43	1804.86
603.78	1797.60
604.13	1790.41
604.48	1783.19
604.83	1776.27
605.18	1769.60
605.53	1761.62
605.87	1753.61
606.22	1746.46
606.57	1738.60
606.92	1731.35
607.27	1724.40
607.62	1717.61
607.96	1710.58
608.31	1704.24
608.66	1696.76
609.01	1689.50
609.36	1682.03
609.70	1674.07
610.05	1666.20
610.40	1658.52
610.75	1650.23
611.10	1642.70
611.44	1634.35
611.79	1626.33
612.14	1617.85
612.49	1608.64
612.83	1600.30
613.18	1592.18
613.53	1584.11
613.88	1575.63
614.22	1567.27
614.57	1558.53
614.92	1550.56
615.27	1542.98
615.61	1534.60
615.96	1526.62
616.31	1518.89
616.65	1511.45
617.00	1503.95
617.35	1496.30
617.70	1488.12
618.04	1479.81
618.39	1471.51
618.74	1463.94
619.08	1455.76
619.43	1448.14
619.78	1441.25
620.12	1434.17
620.47	1426.81
620.82	1418.61
621.16	1411.20
621.51	1403.62
621.85	1396.04
622.20	1387.46
622.55	1379.11
622.89	1371.33
623.24	1363.62
623.59	1356.21
623.93	1348.77
624.28	1341.57
624.62	1334.17
624.97	1326.93
625.32	1320.12
625.66	1313.15
626.01	1306.01
626.35	1298.64
626.70	1290.93
627.04	1283.16
627.39	1275.34
627.73	1267.79
628.08	1260.96
628.43	1253.74
628.77	1246.44
629.12	1239.02
629.46	1231.89
629.81	1224.38
630.15	1217.09
630.50	1209.78
630.84	1201.65
631.19	1193.60
631.53	1186.04
631.88	1178.39
632.22	1170.81
632.57	1163.48
632.91	1155.94
633.26	1148.59
633.60	1141.17
633.95	1134.02
634.29	1127.04
634.64	1120.41
634.98	1113.21
635.32	1106.09
635.67	1099.51
636.01	1092.88
636.36	1086.04
636.70	1079.57
637.05	1073.14
637.39	1066.65
637.73	1060.16
638.08	1054.31
638.42	1048.43
638.77	1042.13
639.11	1035.65
639.45	1029.26
639.80	1022.63
640.14	1016.31
640.49	1009.76
640.83	1003.44
641.17	997.34
641.52	991.08
641.86	984.57
642.20	978.75
642.55	972.40
642.89	965.98
643.23	959.37
643.58	953.67
643.92	947.47
644.26	941.41
644.61	935.35
644.95	929.43
645.29	922.93
645.64	916.22
645.98	909.85
646.32	903.91
646.66	897.89
647.01	892.08
647.35	886.34
647.69	880.49
648.04	874.98
648.38	869.10
648.72	863.22
649.06	857.30
649.41	851.38
649.75	845.45
650.09	839.50
650.43	833.83
650.78	827.65
651.12	821.72
651.46	816.03
651.80	810.35
652.14	804.91
652.49	799.50
652.83	794.41
653.17	788.80
653.51	783.16
653.85	777.79
654.20	772.20
654.54	766.21
654.88	760.52
655.22	754.65
655.56	749.00
655.90	743.43
656.25	738.18
656.59	732.86
656.93	727.80
657.27	722.65
657.61	717.25
657.95	712.23
658.29	707.20
658.64	701.96
658.98	696.69
659.32	691.28
659.66	686.13
660.00	680.83
660.34	675.83
660.68	670.90
661.02	665.89
661.36	661.18
661.70	656.75
662.05	652.36
662.39	648.14
662.73	643.67
663.07	639.36
663.41	634.86
663.75	630.33
664.09	625.79
664.43	621.42
664.77	617.29
665.11	613.00
665.45	608.87
665.79	604.87
666.13	600.81
666.47	596.68
666.81	592.50
667.15	588.36
667.49	584.50
667.83	580.70
668.17	576.79
668.51	572.76
668.85	568.68
669.19	564.83
669.53	560.95
669.87	557.21
670.21	553.55
670.55	549.92
670.89	546.54
671.23	543.10
671.57	539.57
671.91	536.07
672.25	532.58
672.58	529.08
672.92	525.55
673.26	522.33
673.60	519.18
673.94	516.17
674.28	513.26
674.62	510.32
674.96	507.22
675.30	504.33
675.64	501.47
675.97	498.73
676.31	495.89
676.65	492.99
676.99	490.28
677.33	487.39
677.67	484.63
678.01	481.62
678.34	478.70
678.68	475.83
679.02	473.02
679.36	470.26
679.70	467.53
680.04	464.83
680.37	461.98
680.71	459.20
681.05	456.49
681.39	453.82
681.73	451.13
682.06	448.64
682.40	446.12
682.74	443.55
683.08	440.99
683.42	438.43
683.75	435.96
684.09	433.34
684.43	430.88
684.77	428.44
685.10	426.05
685.44	423.71
685.78	421.44
686.12	419.20
686.45	416.92
686.79	414.65
687.13	412.42
687.46	410.23
687.80	408.07
688.14	405.88
688.48	403.80
688.81	401.55
689.15	399.36
689.49	397.14
689.82	395.09
690.16	392.98
690.50	391.01
690.83	389.02
691.17	387.06
691.51	385.19
691.84	383.32
692.18	381.40
692.52	379.38
692.85	377.43
693.19	375.51
693.52	373.64
693.86	371.81
694.20	370.01
694.53	368.22
694.87	366.31
695.21	364.46
695.54	362.64
695.88	360.89
696.21	359.17
696.55	357.46
696.88	355.76
697.22	354.11
697.56	352.45
697.89	350.81
698.23	349.21
698.56	347.57
698.90	346.00
699.23	344.39
699.57	342.89
699.90	341.32
700.24	339.81
700.58	338.32
700.91	336.81
701.25	335.39
701.58	334.08
701.92	332.72
702.25	331.39
702.59	330.03
702.92	328.73
703.26	327.45
703.59	326.23
703.93	325.02
704.26	323.78
704.60	322.49
704.93	321.22
705.26	319.93
705.60	318.75
705.93	317.57
706.27	316.52
706.60	315.46
706.94	314.43
707.27	313.29
707.61	312.21
707.94	311.20
708.27	310.07
708.61	308.99
708.94	308.03
709.28	307.11
709.61	306.16
709.94	305.22
710.28	304.21
710.61	303.21
710.95	302.13
711.28	301.25
711.61	300.31
711.95	299.41
712.28	298.56
712.61	297.59
712.95	296.67
713.28	295.81
713.61	294.93
713.95	294.03
714.28	293.18
714.61	292.33
714.95	291.49
715.28	290.70
715.61	289.81
715.95	288.97
716.28	288.08
716.61	287.21
716.95	286.40
717.28	285.68
717.61	284.91
717.94	284.18
718.28	283.34
718.61	282.66
718.94	281.96
719.27	281.27
719.61	280.64
719.94	279.99
720.27	279.26
720.60	278.59
720.94	278.00
721.27	277.46
721.60	276.91
721.93	276.31
722.27	275.73
722.60	275.18
722.93	274.60
723.26	274.09
723.59	273.55
723.93	273.03
724.26	272.46
724.59	271.89
724.92	271.38
725.25	270.90
725.59	270.35
725.92	269.84
726.25	269.32
726.58	268.81
726.91	268.30
727.24	267.82
727.57	267.36
727.91	266.82
728.24	266.31
728.57	265.77
728.90	265.33
729.23	264.87
729.56	264.46
729.89	263.94
730.22	263.47
730.55	262.96
730.89	262.51
731.22	262.02
731.55	261.62
731.88	261.17
732.21	260.74
732.54	260.30
732.87	259.84
733.20	259.44
733.53	259.04
733.86	258.65
734.19	258.28
734.52	257.87
734.85	257.56
735.18	257.17
735.51	256.82
735.84	256.42
736.17	256.09
736.50	255.65
736.83	255.45
737.16	255.04
737.49	254.75
737.82	254.39
738.15	254.08
738.48	253.68
738.81	253.35
739.14	253.01
739.47	252.67
739.80	252.39
740.13	252.06
740.46	251.73
740.79	251.43
741.12	251.08
741.45	250.75
741.78	250.36
742.11	250.03
742.44	249.72
742.77	249.45
743.10	249.10
743.43	248.81
743.75	248.40
744.08	248.27
744.41	247.98
744.74	247.76
745.07	247.47
745.40	247.29
745.73	247.07
746.06	246.79
746.39	246.56
746.71	246.29
747.04	246.02
747.37	245.74
747.70	245.45
748.03	245.22
748.36	245.02
748.68	244.79
749.01	244.54
749.34	244.29
749.67	244.08
750.00	243.84
750.33	243.67
750.65	243.48
750.98	243.13
751.31	242.93
751.64	242.66
751.97	242.51
752.29	242.25
752.62	241.98
752.95	241.79
753.28	241.56
753.60	241.32
753.93	241.15
754.26	240.98
754.59	240.78
754.91	240.59
755.24	240.39
755.57	240.24
755.90	240.11
756.22	239.93
756.55	239.71
756.88	239.56
757.20	239.35
757.53	239.15
757.86	239.00
758.19	238.82
758.51	238.68
758.84	238.48
759.17	238.32
759.49	238.16
759.82	238.04
760.15	237.93
760.47	237.83
760.80	237.66
761.13	237.55
761.45	237.38
761.78	237.17
762.11	237.02
762.43	236.85
762.76	236.65
763.08	236.55
763.41	236.41
763.74	236.27
764.06	236.10
764.39	235.98
764.71	235.85
765.04	235.71
765.37	235.55
765.69	235.40
766.02	235.28
766.34	235.16
766.67	235.04
767.00	234.91
767.32	234.82
767.65	234.78
767.97	234.65
768.30	234.56
768.62	234.49
768.95	234.35
769.27	234.23
769.60	234.15
769.92	234.02
770.25	233.91
770.57	233.78
770.90	233.70
771.22	233.56
771.55	233.50
771.87	233.41
772.20	233.33
772.52	233.30
772.85	233.32
773.17	233.28
773.50	233.16
773.82	233.04
774.15	232.90
774.47	232.74
774.80	232.61
775.12	232.55
775.45	232.46
775.77	232.42
776.09	232.34
776.42	232.25
776.74	232.23
777.07	232.17
777.39	232.10
777.72	232.05
778.04	232.02
778.36	231.90
778.69	231.84
779.01	231.79
779.33	231.67
779.66	231.47
779.98	231.37
780.31	231.34
780.63	231.32
780.95	231.30
781.28	231.24
781.60	231.20
781.92	231.11
782.25	231.07
782.57	231.02
782.89	230.98
783.22	230.90
783.54	230.79
783.86	230.74
784.19	230.70
784.51	230.64
784.83	230.56
785.16	230.51
785.48	230.46
785.80	230.40
786.12	230.35
786.45	230.35
786.77	230.29
787.09	230.22
