SpectraSuite Data File
++++++++++++++++++++++++++++++++++++
Date: Fri Feb 01 18:03:51 EST 2013
User: group
Dark Spectrum Present: No
Reference Spectrum Present: No
Number of Sampled Component Spectra: 1
Spectrometers: USB2E7196
Integration Time (usec): 35000 (USB2E7196)
Spectra Averaged: 100 (USB2E7196)
Boxcar Smoothing: 10 (USB2E7196)
Correct for Electrical Dark: No (USB2E7196)
Strobe/Lamp Enabled: No (USB2E7196)
Correct for Detector Non-linearity: No (USB2E7196)
Correct for Stray Light: No (USB2E7196)
Number of Pixels in Processed Spectrum: 2048
>>>>>Begin Processed Spectral Data<<<<<
339.09	0.00
339.48	212.45
339.86	213.85
340.24	215.69
340.63	216.78
341.01	219.54
341.39	219.65
341.78	220.82
342.16	222.20
342.54	222.60
342.93	211.12
343.31	221.79
343.69	222.35
344.07	222.85
344.46	223.25
344.84	223.66
345.22	223.92
345.60	224.18
345.99	224.37
346.37	224.51
346.75	224.63
347.13	224.67
347.52	224.72
347.90	224.79
348.28	224.81
348.66	224.91
349.05	224.89
349.43	224.94
349.81	225.01
350.19	225.09
350.57	225.15
350.96	225.25
351.34	225.36
351.72	225.48
352.10	225.61
352.48	225.72
352.87	225.77
353.25	225.88
353.63	225.93
354.01	226.02
354.39	226.10
354.77	226.18
355.15	226.33
355.54	226.43
355.92	226.49
356.30	226.60
356.68	226.75
357.06	226.85
357.44	226.95
357.82	227.04
358.20	227.14
358.58	227.21
358.97	227.28
359.35	227.37
359.73	227.46
360.11	227.50
360.49	227.57
360.87	227.64
361.25	227.71
361.63	227.83
362.01	227.89
362.39	227.94
362.77	228.00
363.15	228.01
363.53	228.07
363.91	228.10
364.29	228.12
364.67	228.03
365.05	228.07
365.43	228.07
365.81	228.08
366.19	228.12
366.57	228.18
366.95	228.17
367.33	228.10
367.71	228.07
368.09	228.06
368.47	228.06
368.85	228.03
369.23	228.00
369.61	227.90
369.99	227.92
370.37	227.90
370.75	227.90
371.13	227.88
371.51	227.82
371.89	227.80
372.27	227.75
372.65	227.72
373.03	227.67
373.41	227.63
373.78	227.54
374.16	227.44
374.54	227.34
374.92	227.28
375.30	227.25
375.68	227.17
376.06	227.11
376.44	227.03
376.82	226.97
377.19	226.91
377.57	226.86
377.95	226.76
378.33	226.68
378.71	226.56
379.09	226.49
379.47	226.45
379.84	226.33
380.22	226.26
380.60	226.20
380.98	226.10
381.36	226.02
381.73	225.96
382.11	225.89
382.49	225.83
382.87	225.72
383.25	225.65
383.62	225.72
384.00	225.61
384.38	225.54
384.76	225.49
385.13	225.48
385.51	225.44
385.89	225.36
386.27	225.33
386.64	225.30
387.02	225.22
387.40	225.15
387.78	225.14
388.15	225.13
388.53	225.07
388.91	225.06
389.29	225.03
389.66	225.02
390.04	224.98
390.42	224.96
390.79	224.99
391.17	224.97
391.55	224.84
391.92	224.87
392.30	224.88
392.68	224.85
393.05	224.85
393.43	224.84
393.81	224.89
394.18	224.87
394.56	224.86
394.94	224.96
395.31	224.95
395.69	225.02
396.06	225.01
396.44	225.07
396.82	225.09
397.19	225.16
397.57	225.18
397.95	225.24
398.32	225.26
398.70	225.31
399.07	225.40
399.45	225.46
399.82	225.53
400.20	225.56
400.58	225.65
400.95	225.64
401.33	225.73
401.70	225.85
402.08	225.96
402.45	226.11
402.83	226.19
403.20	226.34
403.58	226.42
403.95	226.58
404.33	226.69
404.71	226.81
405.08	227.01
405.46	227.16
405.83	227.34
406.21	227.55
406.58	227.75
406.96	227.91
407.33	228.14
407.70	228.37
408.08	228.69
408.45	228.95
408.83	229.27
409.20	229.56
409.58	229.81
409.95	230.15
410.33	230.45
410.70	230.79
411.08	231.18
411.45	231.58
411.82	231.97
412.20	232.45
412.57	232.98
412.95	233.37
413.32	233.92
413.69	234.46
414.07	235.04
414.44	235.64
414.82	236.29
415.19	237.02
415.56	237.77
415.94	238.50
416.31	239.38
416.68	240.20
417.06	241.14
417.43	242.05
417.81	243.07
418.18	244.14
418.55	245.29
418.93	246.43
419.30	247.65
419.67	248.93
420.04	250.21
420.42	251.56
420.79	253.12
421.16	254.66
421.54	256.24
421.91	257.89
422.28	259.57
422.66	261.37
423.03	263.09
423.40	264.85
423.77	266.80
424.15	268.70
424.52	270.76
424.89	272.92
425.26	275.02
425.64	276.94
426.01	279.07
426.38	281.30
426.75	283.57
427.13	285.87
427.50	288.28
427.87	290.84
428.24	293.38
428.61	295.78
428.99	298.41
429.36	301.28
429.73	304.08
430.10	306.80
430.47	309.58
430.85	312.48
431.22	315.53
431.59	318.73
431.96	321.80
432.33	325.18
432.70	328.37
433.08	332.16
433.45	335.78
433.82	339.32
434.19	343.25
434.56	347.05
434.93	350.69
435.30	354.29
435.68	358.21
436.05	362.04
436.42	365.86
436.79	369.27
437.16	372.88
437.53	376.69
437.90	380.54
438.27	384.30
438.64	388.11
439.01	391.64
439.38	394.71
439.75	397.66
440.13	401.02
440.50	404.21
440.87	406.78
441.24	409.45
441.61	412.40
441.98	414.37
442.35	416.88
442.72	419.40
443.09	421.85
443.46	423.20
443.83	424.03
444.20	424.75
444.57	425.93
444.94	426.41
445.31	426.95
445.68	427.38
446.05	427.49
446.42	427.05
446.79	426.52
447.16	425.87
447.53	425.42
447.90	423.83
448.27	422.31
448.64	420.14
449.01	418.62
449.37	415.94
449.74	413.38
450.11	410.27
450.48	406.96
450.85	403.54
451.22	400.67
451.59	397.95
451.96	395.26
452.33	391.73
452.70	388.51
453.07	384.61
453.43	380.73
453.80	376.94
454.17	373.29
454.54	369.81
454.91	366.15
455.28	362.54
455.65	359.25
456.02	355.80
456.38	352.88
456.75	349.23
457.12	346.15
457.49	343.14
457.86	340.21
458.23	337.61
458.59	334.78
458.96	331.92
459.33	329.37
459.70	326.85
460.07	324.75
460.43	322.39
460.80	320.17
461.17	318.19
461.54	316.17
461.91	314.20
462.27	312.21
462.64	310.47
463.01	308.57
463.38	306.70
463.74	304.90
464.11	303.28
464.48	301.86
464.85	300.36
465.21	299.15
465.58	297.84
465.95	296.35
466.32	295.13
466.68	293.85
467.05	292.57
467.42	291.35
467.78	290.08
468.15	288.88
468.52	287.96
468.88	286.75
469.25	285.65
469.62	284.76
469.98	283.81
470.35	282.92
470.72	282.13
471.08	281.26
471.45	280.49
471.82	279.72
472.18	278.89
472.55	278.23
472.92	277.49
473.28	276.88
473.65	276.29
474.02	275.61
474.38	275.10
474.75	274.63
475.11	274.09
475.48	273.69
475.85	273.31
476.21	272.94
476.58	272.66
476.94	272.40
477.31	272.12
477.67	271.87
478.04	271.63
478.41	271.49
478.77	271.44
479.14	271.28
479.50	271.23
479.87	271.23
480.23	271.28
480.60	271.30
480.96	271.28
481.33	271.40
481.69	271.57
482.06	271.74
482.42	271.88
482.79	272.08
483.15	272.36
483.52	272.75
483.88	273.08
484.25	273.43
484.61	273.83
484.98	274.30
485.34	274.88
485.71	275.48
486.07	276.08
486.44	276.64
486.80	277.39
487.17	278.10
487.53	278.94
487.90	279.84
488.26	280.80
488.62	281.87
488.99	282.89
489.35	284.03
489.72	285.18
490.08	286.49
490.44	287.80
490.81	289.17
491.17	290.58
491.54	292.11
491.90	293.76
492.26	295.53
492.63	297.38
492.99	299.25
493.36	301.25
493.72	303.41
494.08	305.66
494.45	308.02
494.81	310.56
495.17	313.11
495.54	315.82
495.90	318.64
496.26	321.59
496.63	324.77
496.99	328.05
497.35	331.49
497.72	335.08
498.08	338.83
498.44	342.76
498.80	346.96
499.17	351.25
499.53	355.70
499.89	360.36
500.26	365.10
500.62	370.07
500.98	375.33
501.34	380.72
501.71	386.40
502.07	392.24
502.43	398.19
502.79	404.38
503.16	410.85
503.52	417.49
503.88	424.26
504.24	431.26
504.60	438.56
504.97	446.15
505.33	453.92
505.69	462.10
506.05	470.40
506.41	478.74
506.78	487.48
507.14	496.45
507.50	505.68
507.86	515.37
508.22	525.13
508.59	535.01
508.95	545.22
509.31	555.64
509.67	566.39
510.03	577.41
510.39	588.71
510.75	600.26
511.12	612.02
511.48	624.18
511.84	636.50
512.20	648.84
512.56	661.79
512.92	674.86
513.28	688.16
513.64	701.55
514.00	715.22
514.37	729.11
514.73	743.24
515.09	757.35
515.45	771.63
515.81	786.37
516.17	801.49
516.53	816.75
516.89	832.15
517.25	847.47
517.61	863.10
517.97	878.71
518.33	894.31
518.69	910.33
519.05	926.61
519.41	943.04
519.77	959.97
520.13	976.74
520.49	993.60
520.85	1010.35
521.21	1027.45
521.57	1045.20
521.93	1062.49
522.29	1080.37
522.65	1098.18
523.01	1115.93
523.37	1133.47
523.73	1151.22
524.09	1169.03
524.45	1186.94
524.81	1205.31
525.17	1223.73
525.53	1242.39
525.89	1260.99
526.25	1279.65
526.61	1297.80
526.97	1316.39
527.33	1334.67
527.68	1353.00
528.04	1371.36
528.40	1389.83
528.76	1408.86
529.12	1427.38
529.48	1446.24
529.84	1464.21
530.20	1482.82
530.56	1501.80
530.91	1521.24
531.27	1540.09
531.63	1558.60
531.99	1577.28
532.35	1595.31
532.71	1613.37
533.07	1631.75
533.42	1649.93
533.78	1668.07
534.14	1686.54
534.50	1703.96
534.86	1722.06
535.21	1739.47
535.57	1757.52
535.93	1775.20
536.29	1792.17
536.65	1809.29
537.00	1826.20
537.36	1843.70
537.72	1860.46
538.08	1877.22
538.44	1893.22
538.79	1909.20
539.15	1924.95
539.51	1940.90
539.87	1957.42
540.22	1973.31
540.58	1989.38
540.94	2004.81
541.29	2019.89
541.65	2034.79
542.01	2050.32
542.37	2064.88
542.72	2079.52
543.08	2093.70
543.44	2108.54
543.79	2122.23
544.15	2135.56
544.51	2149.54
544.87	2162.65
545.22	2175.78
545.58	2188.19
545.94	2200.14
546.29	2212.35
546.65	2224.66
547.01	2236.21
547.36	2247.09
547.72	2257.87
548.07	2267.94
548.43	2278.28
548.79	2288.25
549.14	2297.92
549.50	2307.36
549.86	2317.05
550.21	2326.29
550.57	2335.52
550.92	2344.06
551.28	2353.00
551.64	2362.11
551.99	2370.52
552.35	2378.72
552.70	2386.73
553.06	2394.77
553.41	2403.01
553.77	2410.91
554.13	2418.60
554.48	2426.63
554.84	2434.19
555.19	2441.22
555.55	2448.21
555.90	2454.45
556.26	2461.35
556.61	2467.74
556.97	2473.91
557.32	2479.76
557.68	2485.68
558.03	2491.45
558.39	2496.58
558.74	2502.86
559.10	2508.40
559.45	2513.60
559.81	2519.57
560.16	2524.93
560.52	2529.66
560.87	2534.63
561.23	2538.62
561.58	2543.06
561.94	2546.89
562.29	2550.40
562.64	2554.53
563.00	2558.27
563.35	2563.10
563.71	2567.64
564.06	2572.28
564.42	2576.47
564.77	2580.29
565.12	2583.99
565.48	2587.08
565.83	2590.38
566.19	2592.83
566.54	2594.76
566.89	2597.18
567.25	2598.74
567.60	2601.17
567.96	2603.98
568.31	2605.90
568.66	2608.02
569.02	2609.54
569.37	2610.75
569.72	2612.62
570.08	2613.62
570.43	2614.53
570.78	2614.77
571.14	2613.68
571.49	2612.80
571.84	2613.03
572.20	2612.52
572.55	2611.94
572.90	2610.90
573.26	2609.92
573.61	2608.56
573.96	2607.35
574.31	2604.63
574.67	2601.95
575.02	2598.40
575.37	2594.94
575.72	2591.27
576.08	2587.98
576.43	2584.73
576.78	2581.27
577.13	2578.23
577.49	2575.07
577.84	2571.60
578.19	2567.80
578.54	2564.38
578.90	2560.10
579.25	2554.16
579.60	2548.95
579.95	2543.67
580.30	2538.22
580.66	2532.73
581.01	2527.51
581.36	2522.04
581.71	2517.62
582.06	2513.03
582.42	2508.40
582.77	2502.85
583.12	2497.93
583.47	2492.99
583.82	2487.70
584.17	2481.90
584.53	2475.76
584.88	2469.48
585.23	2463.25
585.58	2457.18
585.93	2451.10
586.28	2445.92
586.63	2440.45
586.98	2434.80
587.34	2429.67
587.69	2424.40
588.04	2418.73
588.39	2412.55
588.74	2405.54
589.09	2398.57
589.44	2390.85
589.79	2383.93
590.14	2377.64
590.49	2370.28
590.84	2363.05
591.19	2356.25
591.54	2349.09
591.89	2341.13
592.25	2333.83
592.60	2325.65
592.95	2317.23
593.30	2308.98
593.65	2300.32
594.00	2292.34
594.35	2284.12
594.70	2274.90
595.05	2266.87
595.40	2258.43
595.75	2249.65
596.10	2242.54
596.45	2234.78
596.80	2227.73
597.15	2220.31
597.50	2212.44
597.85	2205.02
598.19	2197.48
598.54	2189.41
598.89	2181.69
599.24	2174.71
599.59	2166.98
599.94	2159.79
600.29	2152.58
600.64	2144.91
600.99	2136.41
601.34	2128.64
601.69	2120.60
602.04	2112.77
602.39	2104.31
602.74	2096.43
603.08	2088.82
603.43	2080.96
603.78	2072.52
604.13	2064.16
604.48	2055.71
604.83	2047.60
605.18	2039.57
605.53	2030.42
605.87	2021.02
606.22	2012.47
606.57	2003.16
606.92	1994.41
607.27	1986.00
607.62	1977.92
607.96	1969.42
608.31	1961.77
608.66	1952.79
609.01	1943.97
609.36	1935.08
609.70	1925.56
610.05	1916.19
610.40	1907.15
610.75	1897.34
611.10	1888.41
611.44	1878.35
611.79	1868.82
612.14	1858.53
612.49	1847.67
612.83	1837.68
613.18	1828.13
613.53	1818.63
613.88	1808.48
614.22	1798.79
614.57	1788.63
614.92	1779.01
615.27	1770.17
615.61	1760.32
615.96	1750.72
616.31	1741.78
616.65	1732.94
617.00	1724.03
617.35	1714.84
617.70	1704.99
618.04	1695.06
618.39	1685.29
618.74	1676.47
619.08	1666.80
619.43	1657.77
619.78	1649.48
620.12	1641.03
620.47	1632.18
620.82	1622.50
621.16	1613.77
621.51	1604.63
621.85	1595.68
622.20	1585.68
622.55	1575.68
622.89	1566.35
623.24	1557.32
623.59	1548.35
623.93	1539.53
624.28	1530.98
624.62	1522.14
624.97	1513.66
625.32	1505.56
625.66	1497.25
626.01	1488.81
626.35	1480.13
626.70	1471.07
627.04	1462.12
627.39	1452.82
627.73	1443.96
628.08	1435.88
628.43	1427.29
628.77	1418.73
629.12	1409.87
629.46	1401.47
629.81	1392.50
630.15	1384.00
630.50	1375.35
630.84	1365.77
631.19	1356.30
631.53	1347.47
631.88	1338.57
632.22	1329.63
632.57	1320.96
632.91	1311.99
633.26	1303.24
633.60	1294.32
633.95	1285.83
634.29	1277.42
634.64	1269.52
634.98	1260.90
635.32	1252.35
635.67	1244.57
636.01	1236.75
636.36	1228.77
636.70	1220.93
637.05	1213.37
637.39	1205.74
637.73	1198.09
638.08	1191.24
638.42	1184.19
638.77	1176.57
639.11	1168.89
639.45	1161.37
639.80	1153.64
640.14	1146.30
640.49	1138.67
640.83	1131.35
641.17	1124.14
641.52	1116.79
641.86	1109.31
642.20	1102.51
642.55	1095.17
642.89	1087.61
643.23	1079.95
643.58	1073.17
643.92	1066.00
644.26	1059.08
644.61	1051.97
644.95	1044.98
645.29	1037.30
645.64	1029.49
645.98	1022.11
646.32	1015.25
646.66	1008.28
647.01	1001.51
647.35	994.81
647.69	987.99
648.04	981.53
648.38	974.78
648.72	967.83
649.06	960.83
649.41	953.98
649.75	947.09
650.09	940.31
650.43	933.63
650.78	926.44
651.12	919.45
651.46	912.81
651.80	906.22
652.14	899.87
652.49	893.63
652.83	887.64
653.17	881.12
653.51	874.48
653.85	868.09
654.20	861.52
654.54	854.53
654.88	847.76
655.22	840.88
655.56	834.28
655.90	827.92
656.25	821.81
656.59	815.49
656.93	809.62
657.27	803.55
657.61	797.27
657.95	791.29
658.29	785.43
658.64	779.20
658.98	773.00
659.32	766.76
659.66	760.70
660.00	754.59
660.34	748.81
660.68	743.10
661.02	737.27
661.36	731.84
661.70	726.69
662.05	721.68
662.39	716.71
662.73	711.48
663.07	706.39
663.41	701.19
663.75	696.03
664.09	690.71
664.43	685.62
664.77	680.83
665.11	676.00
665.45	671.28
665.79	666.59
666.13	661.83
666.47	657.02
666.81	652.27
667.15	647.54
667.49	642.97
667.83	638.58
668.17	634.11
668.51	629.42
668.85	624.73
669.19	620.24
669.53	615.80
669.87	611.38
670.21	607.09
670.55	602.93
670.89	598.95
671.23	594.95
671.57	590.87
671.91	586.78
672.25	582.65
672.58	578.54
672.92	574.55
673.26	570.80
673.60	567.16
673.94	563.54
674.28	560.15
674.62	556.77
674.96	553.16
675.30	549.76
675.64	546.39
675.97	543.15
676.31	539.88
676.65	536.52
676.99	533.38
677.33	530.08
677.67	526.79
678.01	523.30
678.34	519.86
678.68	516.55
679.02	513.22
679.36	509.98
679.70	506.88
680.04	503.69
680.37	500.43
680.71	497.18
681.05	494.13
681.39	490.94
681.73	487.85
682.06	484.94
682.40	482.00
682.74	479.05
683.08	476.06
683.42	473.04
683.75	470.08
684.09	467.11
684.43	464.22
684.77	461.34
685.10	458.62
685.44	455.93
685.78	453.24
686.12	450.63
686.45	448.01
686.79	445.31
687.13	442.74
687.46	440.22
687.80	437.69
688.14	435.11
688.48	432.76
688.81	430.16
689.15	427.58
689.49	425.01
689.82	422.55
690.16	420.13
690.50	417.83
690.83	415.63
691.17	413.29
691.51	411.15
691.84	408.98
692.18	406.76
692.52	404.53
692.85	402.27
693.19	400.09
693.52	397.98
693.86	395.88
694.20	393.85
694.53	391.75
694.87	389.60
695.21	387.53
695.54	385.39
695.88	383.35
696.21	381.42
696.55	379.53
696.88	377.58
697.22	375.66
697.56	373.79
697.89	371.85
698.23	370.02
698.56	368.07
698.90	366.27
699.23	364.34
699.57	362.48
699.90	360.74
700.24	358.97
700.58	357.20
700.91	355.41
701.25	353.74
701.58	352.15
701.92	350.59
702.25	349.01
702.59	347.42
702.92	345.89
703.26	344.37
703.59	342.85
703.93	341.47
704.26	340.04
704.60	338.50
704.93	337.03
705.26	335.54
705.60	334.20
705.93	332.81
706.27	331.58
706.60	330.38
706.94	329.08
707.27	327.77
707.61	326.55
707.94	325.34
708.27	324.08
708.61	322.81
708.94	321.66
709.28	320.45
709.61	319.31
709.94	318.21
710.28	316.99
710.61	315.85
710.95	314.58
711.28	313.48
711.61	312.37
711.95	311.32
712.28	310.24
712.61	309.10
712.95	308.01
713.28	307.02
713.61	305.96
713.95	304.95
714.28	303.95
714.61	302.92
714.95	301.93
715.28	300.92
715.61	299.92
715.95	298.87
716.28	297.86
716.61	296.89
716.95	295.86
717.28	294.97
717.61	294.09
717.94	293.24
718.28	292.29
718.61	291.45
718.94	290.64
719.27	289.90
719.61	289.08
719.94	288.30
720.27	287.48
720.60	286.67
720.94	285.93
721.27	285.23
721.60	284.56
721.93	283.86
722.27	283.21
722.60	282.56
722.93	281.89
723.26	281.28
723.59	280.67
723.93	280.07
724.26	279.40
724.59	278.70
724.92	278.05
725.25	277.49
725.59	276.88
725.92	276.27
726.25	275.63
726.58	275.07
726.91	274.49
727.24	273.89
727.57	273.35
727.91	272.75
728.24	272.16
728.57	271.55
728.90	271.04
729.23	270.47
729.56	269.98
729.89	269.41
730.22	268.86
730.55	268.26
730.89	267.75
731.22	267.22
731.55	266.74
731.88	266.28
732.21	265.80
732.54	265.30
732.87	264.78
733.20	264.33
733.53	263.88
733.86	263.44
734.19	262.96
734.52	262.52
734.85	262.14
735.18	261.72
735.51	261.30
735.84	260.87
736.17	260.48
736.50	260.00
736.83	259.76
737.16	259.38
737.49	259.05
737.82	258.65
738.15	258.29
738.48	257.89
738.81	257.52
739.14	257.14
739.47	256.76
739.80	256.41
740.13	256.06
740.46	255.69
740.79	255.31
741.12	255.00
741.45	254.65
741.78	254.31
742.11	253.95
742.44	253.58
742.77	253.23
743.10	252.87
743.43	252.52
743.75	252.09
744.08	251.87
744.41	251.54
744.74	251.23
745.07	250.92
745.40	250.63
745.73	250.37
746.06	250.01
746.39	249.72
746.71	249.40
747.04	249.07
747.37	248.80
747.70	248.54
748.03	248.22
748.36	247.95
748.68	247.63
749.01	247.37
749.34	247.12
749.67	246.88
750.00	246.63
750.33	246.44
750.65	246.18
750.98	245.79
751.31	245.52
751.64	245.30
751.97	245.09
752.29	244.83
752.62	244.53
752.95	244.31
753.28	244.05
753.60	243.84
753.93	243.64
754.26	243.39
754.59	243.12
754.91	242.87
755.24	242.62
755.57	242.40
755.90	242.15
756.22	241.92
756.55	241.65
756.88	241.41
757.20	241.14
757.53	240.89
757.86	240.68
758.19	240.47
758.51	240.26
758.84	239.99
759.17	239.79
759.49	239.60
759.82	239.46
760.15	239.30
760.47	239.11
760.80	238.92
761.13	238.78
761.45	238.62
761.78	238.47
762.11	238.34
762.43	238.17
762.76	237.99
763.08	237.85
763.41	237.75
763.74	237.61
764.06	237.45
764.39	237.28
764.71	237.14
765.04	236.99
765.37	236.79
765.69	236.64
766.02	236.53
766.34	236.40
766.67	236.21
767.00	236.09
767.32	235.97
767.65	235.88
767.97	235.73
768.30	235.62
768.62	235.48
768.95	235.35
769.27	235.25
769.60	235.15
769.92	235.02
770.25	234.86
770.57	234.71
770.90	234.60
771.22	234.52
771.55	234.42
771.87	234.30
772.20	234.24
772.52	234.25
772.85	234.25
773.17	234.12
773.50	234.00
773.82	233.86
774.15	233.72
774.47	233.55
774.80	233.41
775.12	233.29
775.45	233.18
775.77	233.06
776.09	232.93
776.42	232.83
776.74	232.76
777.07	232.65
777.39	232.60
777.72	232.50
778.04	232.39
778.36	232.29
778.69	232.24
779.01	232.14
779.33	231.96
779.66	231.73
779.98	231.66
780.31	231.63
780.63	231.62
780.95	231.57
781.28	231.53
781.60	231.50
781.92	231.40
782.25	231.34
782.57	231.25
782.89	231.18
783.22	231.09
783.54	231.00
783.86	230.95
784.19	230.86
784.51	230.82
784.83	230.75
785.16	230.72
785.48	230.62
785.80	230.56
786.12	230.53
786.45	230.49
