SpectraSuite Data File
++++++++++++++++++++++++++++++++++++
Date: Fri Feb 01 16:51:32 EST 2013
User: group
Dark Spectrum Present: No
Reference Spectrum Present: No
Number of Sampled Component Spectra: 1
Spectrometers: USB2E7196
Integration Time (usec): 35000 (USB2E7196)
Spectra Averaged: 100 (USB2E7196)
Boxcar Smoothing: 10 (USB2E7196)
Correct for Electrical Dark: No (USB2E7196)
Strobe/Lamp Enabled: No (USB2E7196)
Correct for Detector Non-linearity: No (USB2E7196)
Correct for Stray Light: No (USB2E7196)
Number of Pixels in Processed Spectrum: 2048
>>>>>Begin Processed Spectral Data<<<<<
339.09	0.00
339.48	213.21
339.86	214.46
340.24	216.54
340.63	217.60
341.01	220.09
341.39	220.72
341.78	221.51
342.16	222.60
342.54	223.29
342.93	211.77
343.31	222.45
343.69	222.98
344.07	223.47
344.46	223.87
344.84	224.26
345.22	224.52
345.60	224.77
345.99	224.95
346.37	225.08
346.75	225.18
347.13	225.24
347.52	225.31
347.90	225.39
348.28	225.42
348.66	225.46
349.05	225.44
349.43	225.44
349.81	225.49
350.19	225.50
350.57	225.55
350.96	225.63
351.34	225.72
351.72	225.83
352.10	225.93
352.48	226.02
352.87	226.07
353.25	226.13
353.63	226.15
354.01	226.24
354.39	226.34
354.77	226.39
355.15	226.49
355.54	226.54
355.92	226.58
356.30	226.67
356.68	226.82
357.06	226.87
357.44	226.94
357.82	226.97
358.20	227.04
358.58	227.07
358.97	227.13
359.35	227.23
359.73	227.27
360.11	227.32
360.49	227.37
360.87	227.37
361.25	227.40
361.63	227.48
362.01	227.51
362.39	227.53
362.77	227.59
363.15	227.59
363.53	227.64
363.91	227.64
364.29	227.65
364.67	227.51
365.05	227.55
365.43	227.54
365.81	227.56
366.19	227.59
366.57	227.63
366.95	227.63
367.33	227.58
367.71	227.61
368.09	227.57
368.47	227.53
368.85	227.54
369.23	227.56
369.61	227.50
369.99	227.49
370.37	227.45
370.75	227.48
371.13	227.42
371.51	227.38
371.89	227.35
372.27	227.33
372.65	227.32
373.03	227.28
373.41	227.25
373.78	227.19
374.16	227.07
374.54	227.02
374.92	226.93
375.30	226.88
375.68	226.78
376.06	226.75
376.44	226.73
376.82	226.66
377.19	226.61
377.57	226.52
377.95	226.45
378.33	226.38
378.71	226.26
379.09	226.20
379.47	226.14
379.84	226.06
380.22	225.98
380.60	225.90
380.98	225.84
381.36	225.79
381.73	225.73
382.11	225.74
382.49	225.67
382.87	225.64
383.25	225.55
383.62	225.63
384.00	225.57
384.38	225.52
384.76	225.52
385.13	225.45
385.51	225.46
385.89	225.39
386.27	225.34
386.64	225.30
387.02	225.26
387.40	225.21
387.78	225.16
388.15	225.13
388.53	225.13
388.91	225.13
389.29	225.09
389.66	225.05
390.04	225.02
390.42	225.00
390.79	224.98
391.17	225.00
391.55	224.84
391.92	224.79
392.30	224.78
392.68	224.74
393.05	224.74
393.43	224.72
393.81	224.73
394.18	224.71
394.56	224.72
394.94	224.78
395.31	224.79
395.69	224.89
396.06	224.90
396.44	224.93
396.82	224.90
397.19	224.96
397.57	225.00
397.95	225.02
398.32	225.03
398.70	225.08
399.07	225.15
399.45	225.22
399.82	225.29
400.20	225.31
400.58	225.37
400.95	225.39
401.33	225.45
401.70	225.59
402.08	225.70
402.45	225.80
402.83	225.88
403.20	225.97
403.58	226.06
403.95	226.20
404.33	226.31
404.71	226.42
405.08	226.60
405.46	226.74
405.83	226.91
406.21	227.06
406.58	227.17
406.96	227.28
407.33	227.47
407.70	227.65
408.08	227.96
408.45	228.16
408.83	228.40
409.20	228.63
409.58	228.81
409.95	229.05
410.33	229.32
410.70	229.53
411.08	229.82
411.45	230.09
411.82	230.36
412.20	230.68
412.57	231.13
412.95	231.42
413.32	231.85
413.69	232.22
414.07	232.66
414.44	233.14
414.82	233.63
415.19	234.16
415.56	234.72
415.94	235.19
416.31	235.84
416.68	236.44
417.06	237.19
417.43	237.86
417.81	238.64
418.18	239.42
418.55	240.28
418.93	241.19
419.30	242.10
419.67	243.04
420.04	244.01
420.42	245.00
420.79	246.18
421.16	247.31
421.54	248.49
421.91	249.72
422.28	250.98
422.66	252.34
423.03	253.65
423.40	254.93
423.77	256.37
424.15	257.75
424.52	259.26
424.89	260.80
425.26	262.36
425.64	263.80
426.01	265.36
426.38	266.99
426.75	268.66
427.13	270.37
427.50	272.16
427.87	274.05
428.24	275.89
428.61	277.62
428.99	279.53
429.36	281.66
429.73	283.67
430.10	285.68
430.47	287.71
430.85	289.79
431.22	292.05
431.59	294.43
431.96	296.67
432.33	299.12
432.70	301.48
433.08	304.24
433.45	306.85
433.82	309.45
434.19	312.32
434.56	315.12
434.93	317.77
435.30	320.40
435.68	323.25
436.05	326.06
436.42	328.81
436.79	331.33
437.16	333.99
437.53	336.82
437.90	339.61
438.27	342.30
438.64	345.14
439.01	347.76
439.38	350.02
439.75	352.18
440.13	354.67
440.50	356.99
440.87	358.85
441.24	360.79
441.61	362.94
441.98	364.40
442.35	366.17
442.72	367.98
443.09	369.71
443.46	370.69
443.83	371.23
444.20	371.77
444.57	372.59
444.94	372.89
445.31	373.21
445.68	373.57
446.05	373.65
446.42	373.26
446.79	372.81
447.16	372.33
447.53	372.01
447.90	370.83
448.27	369.69
448.64	368.14
449.01	366.99
449.37	365.03
449.74	363.15
450.11	360.90
450.48	358.46
450.85	355.95
451.22	353.84
451.59	351.84
451.96	349.90
452.33	347.32
452.70	344.98
453.07	342.15
453.43	339.26
453.80	336.55
454.17	333.87
454.54	331.36
454.91	328.64
455.28	325.98
455.65	323.56
456.02	321.13
456.38	318.99
456.75	316.37
457.12	314.14
457.49	311.96
457.86	309.82
458.23	308.03
458.59	306.02
458.96	303.96
459.33	302.13
459.70	300.29
460.07	298.78
460.43	297.09
460.80	295.51
461.17	294.14
461.54	292.68
461.91	291.30
462.27	289.85
462.64	288.64
463.01	287.30
463.38	286.01
463.74	284.64
464.11	283.48
464.48	282.49
464.85	281.39
465.21	280.54
465.58	279.66
465.95	278.49
466.32	277.62
466.68	276.72
467.05	275.85
467.42	274.95
467.78	274.07
468.15	273.21
468.52	272.56
468.88	271.68
469.25	270.89
469.62	270.24
469.98	269.59
470.35	268.96
470.72	268.38
471.08	267.74
471.45	267.21
471.82	266.68
472.18	266.08
472.55	265.68
472.92	265.15
473.28	264.69
473.65	264.28
474.02	263.87
474.38	263.55
474.75	263.25
475.11	262.93
475.48	262.70
475.85	262.49
476.21	262.27
476.58	262.08
476.94	261.94
477.31	261.79
477.67	261.64
478.04	261.55
478.41	261.54
478.77	261.58
479.14	261.56
479.50	261.60
479.87	261.67
480.23	261.75
480.60	261.84
480.96	261.90
481.33	262.13
481.69	262.32
482.06	262.50
482.42	262.71
482.79	262.99
483.15	263.30
483.52	263.63
483.88	263.95
484.25	264.33
484.61	264.75
484.98	265.24
485.34	265.81
485.71	266.40
486.07	266.95
486.44	267.51
486.80	268.21
487.17	268.92
487.53	269.72
487.90	270.56
488.26	271.53
488.62	272.54
488.99	273.51
489.35	274.54
489.72	275.64
490.08	276.81
490.44	278.06
490.81	279.35
491.17	280.72
491.54	282.23
491.90	283.78
492.26	285.42
492.63	287.13
492.99	288.86
493.36	290.77
493.72	292.84
494.08	294.92
494.45	297.16
494.81	299.49
495.17	301.94
495.54	304.50
495.90	307.13
496.26	309.90
496.63	312.84
496.99	315.91
497.35	319.16
497.72	322.55
498.08	326.01
498.44	329.68
498.80	333.59
499.17	337.65
499.53	341.80
499.89	346.21
500.26	350.68
500.62	355.38
500.98	360.30
501.34	365.37
501.71	370.67
502.07	376.12
502.43	381.73
502.79	387.53
503.16	393.57
503.52	399.83
503.88	406.19
504.24	412.85
504.60	419.74
504.97	426.82
505.33	434.12
505.69	441.81
506.05	449.54
506.41	457.40
506.78	465.44
507.14	473.80
507.50	482.43
507.86	491.41
508.22	500.47
508.59	509.64
508.95	519.17
509.31	528.96
509.67	538.95
510.03	549.15
510.39	559.57
510.75	570.31
511.12	581.13
511.48	592.37
511.84	603.70
512.20	615.10
512.56	626.96
512.92	639.00
513.28	651.21
513.64	663.63
514.00	676.24
514.37	689.11
514.73	702.07
515.09	715.02
515.45	728.24
515.81	741.74
516.17	755.55
516.53	769.54
516.89	783.54
517.25	797.63
517.61	811.95
517.97	826.31
518.33	840.59
518.69	855.24
519.05	870.04
519.41	884.98
519.77	900.24
520.13	915.53
520.49	930.77
520.85	946.04
521.21	961.53
521.57	977.53
521.93	993.14
522.29	1009.39
522.65	1025.38
523.01	1041.30
523.37	1057.15
523.73	1073.14
524.09	1089.05
524.45	1105.23
524.81	1121.56
525.17	1138.13
525.53	1154.72
525.89	1171.27
526.25	1187.85
526.61	1204.03
526.97	1220.67
527.33	1237.02
527.68	1253.32
528.04	1269.55
528.40	1285.84
528.76	1302.66
529.12	1318.99
529.48	1335.58
529.84	1351.27
530.20	1367.80
530.56	1384.52
530.91	1401.70
531.27	1418.26
531.63	1434.55
531.99	1450.81
532.35	1466.66
532.71	1482.33
533.07	1498.36
533.42	1514.20
533.78	1530.06
534.14	1546.16
534.50	1561.18
534.86	1576.81
535.21	1591.84
535.57	1607.53
535.93	1622.92
536.29	1637.58
536.65	1652.35
537.00	1666.92
537.36	1682.00
537.72	1696.10
538.08	1710.47
538.44	1724.08
538.79	1737.73
539.15	1751.00
539.51	1764.59
539.87	1778.68
540.22	1792.12
540.58	1805.63
540.94	1818.63
541.29	1831.33
541.65	1843.66
542.01	1856.65
542.37	1868.78
542.72	1880.92
543.08	1892.61
543.44	1904.86
543.79	1915.75
544.15	1926.59
544.51	1938.05
544.87	1948.77
545.22	1959.54
545.58	1969.54
545.94	1979.09
546.29	1988.88
546.65	1998.71
547.01	2007.80
547.36	2016.35
547.72	2024.83
548.07	2032.71
548.43	2040.74
548.79	2048.53
549.14	2056.06
549.50	2063.19
549.86	2070.70
550.21	2078.01
550.57	2084.96
550.92	2091.37
551.28	2098.25
551.64	2105.32
551.99	2111.78
552.35	2117.95
552.70	2124.01
553.06	2129.93
553.41	2136.26
553.77	2142.15
554.13	2148.20
554.48	2154.30
554.84	2159.86
555.19	2164.98
555.55	2170.04
555.90	2174.57
556.26	2179.56
556.61	2184.32
556.97	2188.79
557.32	2193.05
557.68	2197.16
558.03	2201.53
558.39	2205.19
558.74	2210.10
559.10	2213.97
559.45	2217.64
559.81	2221.93
560.16	2225.78
560.52	2229.10
560.87	2232.50
561.23	2235.17
561.58	2238.08
561.94	2240.63
562.29	2242.94
562.64	2245.88
563.00	2248.67
563.35	2252.26
563.71	2255.33
564.06	2258.48
564.42	2261.37
564.77	2264.04
565.12	2266.41
565.48	2268.41
565.83	2270.50
566.19	2271.85
566.54	2272.73
566.89	2273.97
567.25	2274.77
567.60	2276.17
567.96	2278.01
568.31	2279.05
568.66	2280.42
569.02	2281.16
569.37	2281.54
569.72	2282.67
570.08	2282.81
570.43	2282.91
570.78	2282.56
571.14	2281.28
571.49	2280.12
571.84	2279.97
572.20	2278.97
572.55	2278.09
572.90	2276.61
573.26	2275.35
573.61	2273.77
573.96	2272.42
574.31	2269.65
574.67	2266.86
575.02	2263.36
575.37	2260.06
575.72	2256.45
576.08	2253.16
576.43	2249.99
576.78	2246.53
577.13	2243.26
577.49	2240.31
577.84	2237.02
578.19	2233.31
578.54	2229.87
578.90	2225.94
579.25	2220.61
579.60	2215.78
579.95	2210.94
580.30	2206.09
580.66	2200.97
581.01	2196.15
581.36	2191.29
581.71	2187.16
582.06	2182.92
582.42	2178.71
582.77	2173.66
583.12	2169.15
583.47	2164.75
583.82	2160.02
584.17	2155.11
584.53	2149.84
584.88	2144.37
585.23	2138.73
585.58	2133.46
585.93	2128.08
586.28	2123.25
586.63	2118.32
586.98	2113.39
587.34	2108.99
587.69	2104.25
588.04	2099.27
588.39	2093.82
588.74	2087.49
589.09	2081.49
589.44	2074.80
589.79	2068.72
590.14	2063.25
590.49	2056.81
590.84	2050.30
591.19	2044.30
591.54	2038.00
591.89	2030.93
592.25	2024.31
592.60	2017.20
592.95	2009.79
593.30	2002.53
593.65	1995.23
594.00	1988.27
594.35	1981.06
594.70	1973.04
595.05	1966.08
595.40	1958.80
595.75	1951.32
596.10	1945.36
596.45	1938.89
596.80	1932.78
597.15	1926.42
597.50	1919.53
597.85	1913.18
598.19	1906.76
598.54	1899.79
598.89	1893.12
599.24	1887.18
599.59	1880.72
599.94	1874.56
600.29	1868.33
600.64	1861.94
600.99	1854.54
601.34	1847.88
601.69	1841.10
602.04	1834.33
602.39	1827.01
602.74	1820.31
603.08	1813.73
603.43	1806.96
603.78	1799.51
604.13	1792.50
604.48	1785.39
604.83	1778.52
605.18	1771.85
605.53	1763.96
605.87	1756.08
606.22	1748.93
606.57	1741.11
606.92	1733.70
607.27	1726.77
607.62	1719.86
607.96	1712.65
608.31	1706.27
608.66	1698.76
609.01	1691.31
609.36	1683.82
609.70	1675.87
610.05	1668.02
610.40	1660.34
610.75	1652.00
611.10	1644.69
611.44	1636.13
611.79	1628.23
612.14	1619.64
612.49	1610.37
612.83	1602.09
613.18	1593.94
613.53	1585.87
613.88	1577.29
614.22	1569.02
614.57	1560.35
614.92	1552.45
615.27	1545.08
615.61	1536.66
615.96	1528.54
616.31	1520.88
616.65	1513.53
617.00	1506.06
617.35	1498.35
617.70	1490.09
618.04	1481.66
618.39	1473.42
618.74	1466.07
619.08	1457.70
619.43	1450.14
619.78	1443.23
620.12	1436.10
620.47	1428.66
620.82	1420.41
621.16	1413.04
621.51	1405.58
621.85	1398.05
622.20	1389.55
622.55	1381.08
622.89	1373.31
623.24	1365.66
623.59	1358.29
623.93	1350.78
624.28	1343.58
624.62	1336.05
624.97	1328.82
625.32	1322.05
625.66	1314.90
626.01	1307.59
626.35	1300.15
626.70	1292.33
627.04	1284.67
627.39	1276.86
627.73	1269.49
628.08	1262.71
628.43	1255.55
628.77	1248.18
629.12	1240.59
629.46	1233.44
629.81	1225.94
630.15	1218.72
630.50	1211.43
630.84	1203.30
631.19	1195.41
631.53	1187.78
631.88	1180.20
632.22	1172.71
632.57	1165.48
632.91	1158.03
633.26	1150.71
633.60	1143.34
633.95	1136.19
634.29	1129.13
634.64	1122.31
634.98	1114.90
635.32	1107.70
635.67	1101.08
636.01	1094.40
636.36	1087.63
636.70	1081.09
637.05	1074.56
637.39	1068.13
637.73	1061.65
638.08	1055.67
638.42	1049.59
638.77	1043.17
639.11	1036.73
639.45	1030.30
639.80	1023.67
640.14	1017.31
640.49	1010.77
640.83	1004.55
641.17	998.46
641.52	992.13
641.86	985.76
642.20	979.96
642.55	973.64
642.89	967.23
643.23	960.60
643.58	954.80
643.92	948.62
644.26	942.63
644.61	936.55
644.95	930.55
645.29	923.98
645.64	917.35
645.98	911.10
646.32	905.10
646.66	899.08
647.01	893.29
647.35	887.52
647.69	881.69
648.04	876.08
648.38	870.21
648.72	864.28
649.06	858.28
649.41	852.35
649.75	846.43
650.09	840.42
650.43	834.76
650.78	828.59
651.12	822.59
651.46	816.86
651.80	811.14
652.14	805.81
652.49	800.58
652.83	795.44
653.17	789.80
653.51	784.15
653.85	778.76
654.20	773.20
654.54	767.17
654.88	761.40
655.22	755.53
655.56	749.85
655.90	744.38
656.25	739.18
656.59	733.83
656.93	728.80
657.27	723.68
657.61	718.19
657.95	713.22
658.29	708.21
658.64	702.93
658.98	697.62
659.32	692.18
659.66	686.93
660.00	681.57
660.34	676.59
660.68	671.69
661.02	666.73
661.36	661.95
661.70	657.55
662.05	653.29
662.39	649.05
662.73	644.63
663.07	640.26
663.41	635.81
663.75	631.40
664.09	626.85
664.43	622.49
664.77	618.46
665.11	614.17
665.45	609.97
665.79	605.96
666.13	601.85
666.47	597.66
666.81	593.49
667.15	589.32
667.49	585.45
667.83	581.61
668.17	577.70
668.51	573.65
668.85	569.57
669.19	565.70
669.53	561.82
669.87	557.94
670.21	554.21
670.55	550.56
670.89	547.13
671.23	543.69
671.57	540.14
671.91	536.61
672.25	533.06
672.58	529.53
672.92	526.07
673.26	522.81
673.60	519.72
673.94	516.60
674.28	513.69
674.62	510.72
674.96	507.62
675.30	504.67
675.64	501.73
675.97	498.90
676.31	495.97
676.65	493.07
676.99	490.40
677.33	487.53
677.67	484.70
678.01	481.66
678.34	478.64
678.68	475.74
679.02	472.86
679.36	470.14
679.70	467.45
680.04	464.73
680.37	461.94
680.71	459.07
681.05	456.46
681.39	453.77
681.73	451.08
682.06	448.59
682.40	446.08
682.74	443.54
683.08	441.06
683.42	438.49
683.75	435.98
684.09	433.36
684.43	430.89
684.77	428.35
685.10	425.99
685.44	423.65
685.78	421.38
686.12	419.12
686.45	416.78
686.79	414.47
687.13	412.25
687.46	410.06
687.80	407.94
688.14	405.68
688.48	403.63
688.81	401.40
689.15	399.22
689.49	396.98
689.82	394.94
690.16	392.83
690.50	390.90
690.83	388.93
691.17	386.96
691.51	385.07
691.84	383.28
692.18	381.33
692.52	379.39
692.85	377.45
693.19	375.60
693.52	373.79
693.86	371.96
694.20	370.17
694.53	368.37
694.87	366.52
695.21	364.76
695.54	362.91
695.88	361.18
696.21	359.47
696.55	357.84
696.88	356.10
697.22	354.42
697.56	352.75
697.89	351.12
698.23	349.60
698.56	348.01
698.90	346.44
699.23	344.87
699.57	343.35
699.90	341.82
700.24	340.26
700.58	338.74
700.91	337.24
701.25	335.85
701.58	334.48
701.92	333.10
702.25	331.73
702.59	330.39
702.92	329.09
703.26	327.78
703.59	326.50
703.93	325.37
704.26	324.16
704.60	322.87
704.93	321.59
705.26	320.28
705.60	319.07
705.93	317.89
706.27	316.81
706.60	315.70
706.94	314.63
707.27	313.50
707.61	312.43
707.94	311.46
708.27	310.34
708.61	309.28
708.94	308.34
709.28	307.35
709.61	306.40
709.94	305.42
710.28	304.42
710.61	303.41
710.95	302.30
711.28	301.37
711.61	300.44
711.95	299.57
712.28	298.66
712.61	297.70
712.95	296.79
713.28	295.87
713.61	294.98
713.95	294.06
714.28	293.22
714.61	292.34
714.95	291.45
715.28	290.59
715.61	289.70
715.95	288.82
716.28	288.00
716.61	287.11
716.95	286.28
717.28	285.50
717.61	284.75
717.94	284.04
718.28	283.23
718.61	282.46
718.94	281.72
719.27	280.99
719.61	280.31
719.94	279.63
720.27	278.95
720.60	278.27
720.94	277.63
721.27	277.06
721.60	276.50
721.93	275.89
722.27	275.35
722.60	274.76
722.93	274.20
723.26	273.66
723.59	273.13
723.93	272.55
724.26	272.00
724.59	271.39
724.92	270.85
725.25	270.32
725.59	269.86
725.92	269.35
726.25	268.85
726.58	268.33
726.91	267.84
727.24	267.35
727.57	266.85
727.91	266.36
728.24	265.88
728.57	265.37
728.90	264.93
729.23	264.43
729.56	264.01
729.89	263.50
730.22	262.97
730.55	262.49
730.89	262.09
731.22	261.63
731.55	261.25
731.88	260.81
732.21	260.41
732.54	259.95
732.87	259.54
733.20	259.13
733.53	258.78
733.86	258.39
734.19	257.99
734.52	257.66
734.85	257.35
735.18	256.93
735.51	256.59
735.84	256.22
736.17	255.91
736.50	255.53
736.83	255.36
737.16	255.08
737.49	254.77
737.82	254.41
738.15	254.11
738.48	253.77
738.81	253.50
739.14	253.18
739.47	252.89
739.80	252.59
740.13	252.32
740.46	252.00
740.79	251.71
741.12	251.41
741.45	251.13
741.78	250.78
742.11	250.55
742.44	250.23
742.77	249.93
743.10	249.62
743.43	249.30
743.75	248.90
744.08	248.75
744.41	248.48
744.74	248.24
745.07	247.98
745.40	247.77
745.73	247.52
746.06	247.24
746.39	246.98
746.71	246.69
747.04	246.41
747.37	246.18
747.70	245.90
748.03	245.69
748.36	245.46
748.68	245.23
749.01	244.98
749.34	244.73
749.67	244.53
750.00	244.32
750.33	244.22
750.65	243.97
750.98	243.59
751.31	243.39
751.64	243.17
751.97	242.98
752.29	242.72
752.62	242.42
752.95	242.22
753.28	242.00
753.60	241.78
753.93	241.61
754.26	241.39
754.59	241.18
754.91	240.90
755.24	240.68
755.57	240.46
755.90	240.24
756.22	240.06
756.55	239.82
756.88	239.61
757.20	239.31
757.53	239.10
757.86	238.94
758.19	238.77
758.51	238.57
758.84	238.34
759.17	238.15
759.49	238.00
759.82	237.86
760.15	237.70
760.47	237.56
760.80	237.38
761.13	237.26
761.45	237.07
761.78	236.92
762.11	236.76
762.43	236.60
762.76	236.45
763.08	236.33
763.41	236.23
763.74	236.06
764.06	235.91
764.39	235.80
764.71	235.66
765.04	235.48
765.37	235.33
765.69	235.20
766.02	235.10
766.34	234.98
766.67	234.83
767.00	234.72
767.32	234.63
767.65	234.58
767.97	234.47
768.30	234.40
768.62	234.29
768.95	234.19
769.27	234.07
769.60	234.02
769.92	233.87
770.25	233.73
770.57	233.63
770.90	233.56
771.22	233.45
771.55	233.34
771.87	233.27
772.20	233.18
772.52	233.17
772.85	233.17
773.17	233.08
773.50	232.96
773.82	232.85
774.15	232.72
774.47	232.58
774.80	232.47
775.12	232.38
775.45	232.32
775.77	232.27
776.09	232.20
776.42	232.09
776.74	232.02
777.07	231.93
777.39	231.86
777.72	231.79
778.04	231.74
778.36	231.68
778.69	231.60
779.01	231.53
779.33	231.38
779.66	231.19
779.98	231.15
780.31	231.09
780.63	231.08
780.95	231.04
781.28	230.94
781.60	230.88
781.92	230.80
782.25	230.72
782.57	230.65
782.89	230.56
783.22	230.48
783.54	230.42
783.86	230.40
784.19	230.34
784.51	230.33
784.83	230.24
785.16	230.18
785.48	230.13
785.80	230.08
786.12	230.05
786.45	230.00
786.77	229.89
787.09	229.84
