SpectraSuite Data File
++++++++++++++++++++++++++++++++++++
Date: Fri Feb 01 16:08:41 EST 2013
User: group
Dark Spectrum Present: No
Reference Spectrum Present: No
Number of Sampled Component Spectra: 1
Spectrometers: USB2E7196
Integration Time (usec): 35000 (USB2E7196)
Spectra Averaged: 100 (USB2E7196)
Boxcar Smoothing: 10 (USB2E7196)
Correct for Electrical Dark: No (USB2E7196)
Strobe/Lamp Enabled: No (USB2E7196)
Correct for Detector Non-linearity: No (USB2E7196)
Correct for Stray Light: No (USB2E7196)
Number of Pixels in Processed Spectrum: 2048
>>>>>Begin Processed Spectral Data<<<<<
339.09	0.00
339.48	214.41
339.86	216.17
340.24	217.06
340.63	218.93
341.01	221.74
341.39	221.28
341.78	222.49
342.16	224.14
342.54	224.92
342.93	212.82
343.31	223.56
343.69	224.10
344.07	224.55
344.46	225.00
344.84	225.34
345.22	225.53
345.60	225.79
345.99	225.97
346.37	226.08
346.75	226.16
347.13	226.23
347.52	226.24
347.90	226.31
348.28	226.34
348.66	226.35
349.05	226.34
349.43	226.39
349.81	226.43
350.19	226.48
350.57	226.52
350.96	226.59
351.34	226.69
351.72	226.78
352.10	226.88
352.48	226.91
352.87	227.02
353.25	227.12
353.63	227.18
354.01	227.26
354.39	227.33
354.77	227.40
355.15	227.50
355.54	227.56
355.92	227.61
356.30	227.70
356.68	227.84
357.06	227.91
357.44	227.95
357.82	228.03
358.20	228.10
358.58	228.17
358.97	228.23
359.35	228.31
359.73	228.36
360.11	228.41
360.49	228.50
360.87	228.52
361.25	228.57
361.63	228.64
362.01	228.71
362.39	228.76
362.77	228.80
363.15	228.83
363.53	228.90
363.91	228.94
364.29	228.94
364.67	228.88
365.05	228.90
365.43	228.92
365.81	228.95
366.19	228.99
366.57	229.04
366.95	229.02
367.33	228.97
367.71	228.98
368.09	228.98
368.47	228.94
368.85	228.93
369.23	228.93
369.61	228.88
369.99	228.86
370.37	228.82
370.75	228.81
371.13	228.76
371.51	228.68
371.89	228.64
372.27	228.60
372.65	228.56
373.03	228.55
373.41	228.51
373.78	228.44
374.16	228.36
374.54	228.26
374.92	228.19
375.30	228.16
375.68	228.09
376.06	228.05
376.44	227.99
376.82	227.92
377.19	227.83
377.57	227.77
377.95	227.70
378.33	227.65
378.71	227.53
379.09	227.50
379.47	227.44
379.84	227.38
380.22	227.31
380.60	227.25
380.98	227.13
381.36	227.05
381.73	226.95
382.11	226.90
382.49	226.87
382.87	226.79
383.25	226.72
383.62	226.75
384.00	226.68
384.38	226.64
384.76	226.58
385.13	226.58
385.51	226.52
385.89	226.46
386.27	226.41
386.64	226.38
387.02	226.29
387.40	226.25
387.78	226.20
388.15	226.15
388.53	226.11
388.91	226.09
389.29	226.05
389.66	226.07
390.04	226.03
390.42	226.01
390.79	226.02
391.17	226.02
391.55	225.94
391.92	225.92
392.30	225.93
392.68	225.95
393.05	225.91
393.43	225.94
393.81	225.94
394.18	225.92
394.56	225.95
394.94	226.00
395.31	226.05
395.69	226.09
396.06	226.14
396.44	226.18
396.82	226.22
397.19	226.31
397.57	226.34
397.95	226.39
398.32	226.42
398.70	226.48
399.07	226.54
399.45	226.54
399.82	226.62
400.20	226.62
400.58	226.68
400.95	226.73
401.33	226.83
401.70	227.01
402.08	227.11
402.45	227.17
402.83	227.29
403.20	227.36
403.58	227.47
403.95	227.59
404.33	227.71
404.71	227.84
405.08	228.00
405.46	228.12
405.83	228.26
406.21	228.38
406.58	228.53
406.96	228.67
407.33	228.89
407.70	229.06
408.08	229.38
408.45	229.57
408.83	229.79
409.20	229.98
409.58	230.12
409.95	230.36
410.33	230.64
410.70	230.87
411.08	231.13
411.45	231.40
411.82	231.68
412.20	232.00
412.57	232.40
412.95	232.74
413.32	233.15
413.69	233.56
414.07	234.02
414.44	234.48
414.82	234.98
415.19	235.50
415.56	236.04
415.94	236.56
416.31	237.21
416.68	237.83
417.06	238.53
417.43	239.23
417.81	240.01
418.18	240.79
418.55	241.63
418.93	242.56
419.30	243.46
419.67	244.40
420.04	245.40
420.42	246.39
420.79	247.55
421.16	248.71
421.54	249.92
421.91	251.15
422.28	252.39
422.66	253.70
423.03	255.04
423.40	256.38
423.77	257.79
424.15	259.23
424.52	260.74
424.89	262.37
425.26	263.92
425.64	265.36
426.01	266.96
426.38	268.62
426.75	270.31
427.13	272.06
427.50	273.92
427.87	275.80
428.24	277.64
428.61	279.38
428.99	281.29
429.36	283.39
429.73	285.43
430.10	287.45
430.47	289.54
430.85	291.61
431.22	293.82
431.59	296.19
431.96	298.42
432.33	300.87
432.70	303.20
433.08	306.02
433.45	308.63
433.82	311.22
434.19	314.09
434.56	316.88
434.93	319.52
435.30	322.10
435.68	324.92
436.05	327.72
436.42	330.52
436.79	333.05
437.16	335.72
437.53	338.56
437.90	341.36
438.27	344.07
438.64	346.89
439.01	349.52
439.38	351.74
439.75	353.86
440.13	356.37
440.50	358.75
440.87	360.58
441.24	362.55
441.61	364.67
441.98	366.14
442.35	367.90
442.72	369.77
443.09	371.55
443.46	372.61
443.83	373.22
444.20	373.69
444.57	374.52
444.94	374.78
445.31	375.15
445.68	375.54
446.05	375.59
446.42	375.23
446.79	374.75
447.16	374.31
447.53	374.04
447.90	372.87
448.27	371.67
448.64	370.09
449.01	368.94
449.37	367.00
449.74	365.12
450.11	362.90
450.48	360.40
450.85	357.85
451.22	355.68
451.59	353.70
451.96	351.75
452.33	349.11
452.70	346.82
453.07	343.97
453.43	341.05
453.80	338.28
454.17	335.64
454.54	333.16
454.91	330.48
455.28	327.79
455.65	325.32
456.02	322.89
456.38	320.76
456.75	318.10
457.12	315.86
457.49	313.63
457.86	311.49
458.23	309.66
458.59	307.67
458.96	305.61
459.33	303.76
459.70	301.92
460.07	300.49
460.43	298.74
460.80	297.12
461.17	295.69
461.54	294.23
461.91	292.75
462.27	291.31
462.64	290.02
463.01	288.66
463.38	287.38
463.74	286.05
464.11	284.90
464.48	283.91
464.85	282.80
465.21	281.97
465.58	281.04
465.95	279.97
466.32	279.08
466.68	278.17
467.05	277.25
467.42	276.38
467.78	275.42
468.15	274.54
468.52	273.88
468.88	273.02
469.25	272.26
469.62	271.67
469.98	271.00
470.35	270.37
470.72	269.83
471.08	269.18
471.45	268.63
471.82	268.09
472.18	267.49
472.55	267.09
472.92	266.56
473.28	266.10
473.65	265.66
474.02	265.21
474.38	264.84
474.75	264.54
475.11	264.20
475.48	263.91
475.85	263.71
476.21	263.52
476.58	263.35
476.94	263.22
477.31	263.05
477.67	262.89
478.04	262.78
478.41	262.72
478.77	262.73
479.14	262.63
479.50	262.67
479.87	262.72
480.23	262.81
480.60	262.91
480.96	263.00
481.33	263.21
481.69	263.44
482.06	263.65
482.42	263.85
482.79	264.12
483.15	264.49
483.52	264.89
483.88	265.20
484.25	265.60
484.61	265.99
484.98	266.42
485.34	266.99
485.71	267.61
486.07	268.21
486.44	268.85
486.80	269.59
487.17	270.31
487.53	271.12
487.90	271.96
488.26	272.85
488.62	273.86
488.99	274.82
489.35	275.85
489.72	277.00
490.08	278.19
490.44	279.48
490.81	280.82
491.17	282.17
491.54	283.69
491.90	285.23
492.26	286.88
492.63	288.65
492.99	290.45
493.36	292.35
493.72	294.36
494.08	296.43
494.45	298.69
494.81	301.02
495.17	303.48
495.54	306.04
495.90	308.73
496.26	311.54
496.63	314.52
496.99	317.63
497.35	320.81
497.72	324.23
498.08	327.67
498.44	331.36
498.80	335.30
499.17	339.35
499.53	343.46
499.89	347.89
500.26	352.41
500.62	357.08
500.98	362.05
501.34	367.18
501.71	372.56
502.07	377.95
502.43	383.56
502.79	389.40
503.16	395.46
503.52	401.72
503.88	408.16
504.24	414.81
504.60	421.69
504.97	428.87
505.33	436.24
505.69	443.99
506.05	451.75
506.41	459.59
506.78	467.71
507.14	476.19
507.50	484.88
507.86	493.89
508.22	503.10
508.59	512.26
508.95	521.82
509.31	531.58
509.67	541.72
510.03	552.05
510.39	562.59
510.75	573.41
511.12	584.38
511.48	595.70
511.84	607.05
512.20	618.64
512.56	630.57
512.92	642.68
513.28	655.07
513.64	667.53
514.00	680.25
514.37	693.13
514.73	706.18
515.09	719.19
515.45	732.47
515.81	745.98
516.17	759.99
516.53	774.11
516.89	788.31
517.25	802.47
517.61	816.89
517.97	831.34
518.33	845.72
518.69	860.45
519.05	875.34
519.41	890.46
519.77	905.86
520.13	921.26
520.49	936.62
520.85	951.92
521.21	967.57
521.57	983.80
521.93	999.52
522.29	1015.90
522.65	1032.16
523.01	1048.26
523.37	1064.28
523.73	1080.33
524.09	1096.33
524.45	1112.48
524.81	1129.02
525.17	1145.71
525.53	1162.55
525.89	1179.34
526.25	1196.12
526.61	1212.37
526.97	1229.15
527.33	1245.64
527.68	1262.17
528.04	1278.62
528.40	1295.19
528.76	1312.22
529.12	1328.76
529.48	1345.76
529.84	1361.67
530.20	1378.19
530.56	1395.24
530.91	1412.60
531.27	1429.29
531.63	1445.67
531.99	1462.22
532.35	1478.20
532.71	1494.07
533.07	1510.32
533.42	1526.25
533.78	1542.30
534.14	1558.55
534.50	1573.94
534.86	1589.69
535.21	1604.89
535.57	1620.77
535.93	1636.20
536.29	1650.95
536.65	1665.90
537.00	1680.57
537.36	1695.89
537.72	1710.36
538.08	1724.61
538.44	1738.42
538.79	1752.24
539.15	1765.91
539.51	1779.61
539.87	1793.89
540.22	1807.43
540.58	1820.94
540.94	1834.12
541.29	1846.73
541.65	1859.39
542.01	1872.42
542.37	1884.78
542.72	1897.13
543.08	1908.84
543.44	1921.13
543.79	1932.29
544.15	1943.24
544.51	1954.67
544.87	1965.53
545.22	1976.27
545.58	1986.49
545.94	1996.17
546.29	2006.09
546.65	2015.86
547.01	2025.06
547.36	2033.75
547.72	2042.38
548.07	2050.40
548.43	2058.59
548.79	2066.66
549.14	2074.18
549.50	2081.49
549.86	2088.99
550.21	2096.23
550.57	2103.41
550.92	2109.98
551.28	2117.07
551.64	2124.07
551.99	2130.64
552.35	2136.85
552.70	2143.05
553.06	2149.09
553.41	2155.46
553.77	2161.44
554.13	2167.56
554.48	2173.74
554.84	2179.20
555.19	2184.46
555.55	2189.47
555.90	2193.93
556.26	2198.81
556.61	2203.60
556.97	2208.02
557.32	2212.22
557.68	2216.35
558.03	2220.64
558.39	2224.48
558.74	2229.00
559.10	2232.95
559.45	2236.45
559.81	2240.82
560.16	2244.63
560.52	2247.90
560.87	2251.27
561.23	2253.98
561.58	2256.67
561.94	2259.19
562.29	2261.48
562.64	2264.10
563.00	2266.75
563.35	2270.21
563.71	2273.36
564.06	2276.58
564.42	2279.40
564.77	2282.00
565.12	2284.46
565.48	2286.28
565.83	2288.09
566.19	2289.48
566.54	2290.30
566.89	2291.51
567.25	2292.00
567.60	2293.33
567.96	2295.00
568.31	2295.79
568.66	2297.01
569.02	2297.81
569.37	2298.10
569.72	2299.07
570.08	2299.33
570.43	2299.31
570.78	2298.67
571.14	2297.29
571.49	2295.88
571.84	2295.46
572.20	2294.28
572.55	2293.13
572.90	2291.58
573.26	2290.18
573.61	2288.44
573.96	2286.80
574.31	2284.02
574.67	2281.00
575.02	2277.29
575.37	2273.91
575.72	2270.16
576.08	2266.61
576.43	2263.37
576.78	2259.78
577.13	2256.50
577.49	2253.39
577.84	2249.99
578.19	2246.38
578.54	2242.63
578.90	2238.47
579.25	2233.11
579.60	2228.28
579.95	2223.36
580.30	2218.45
580.66	2213.25
581.01	2208.48
581.36	2203.54
581.71	2199.33
582.06	2195.02
582.42	2190.70
582.77	2185.63
583.12	2181.11
583.47	2176.58
583.82	2171.56
584.17	2166.34
584.53	2161.00
584.88	2155.44
585.23	2149.67
585.58	2144.45
585.93	2139.05
586.28	2134.29
586.63	2129.19
586.98	2124.23
587.34	2119.54
587.69	2114.64
588.04	2109.40
588.39	2103.63
588.74	2097.23
589.09	2091.12
589.44	2084.27
589.79	2078.19
590.14	2072.53
590.49	2066.07
590.84	2059.46
591.19	2053.50
591.54	2047.08
591.89	2039.82
592.25	2033.08
592.60	2025.92
592.95	2018.11
593.30	2010.77
593.65	2003.18
594.00	1995.99
594.35	1988.57
594.70	1980.48
595.05	1973.32
595.40	1966.24
595.75	1958.82
596.10	1952.62
596.45	1945.91
596.80	1939.73
597.15	1933.10
597.50	1926.00
597.85	1919.47
598.19	1913.17
598.54	1905.95
598.89	1899.31
599.24	1893.21
599.59	1886.45
599.94	1880.33
600.29	1874.10
600.64	1867.58
600.99	1860.15
601.34	1853.42
601.69	1846.46
602.04	1839.65
602.39	1832.22
602.74	1825.20
603.08	1818.44
603.43	1811.80
603.78	1804.39
604.13	1797.18
604.48	1790.02
604.83	1783.06
605.18	1776.11
605.53	1767.91
605.87	1760.01
606.22	1752.76
606.57	1744.89
606.92	1737.58
607.27	1730.46
607.62	1723.62
607.96	1716.26
608.31	1709.80
608.66	1702.17
609.01	1694.68
609.36	1687.06
609.70	1679.11
610.05	1671.17
610.40	1663.32
610.75	1654.96
611.10	1647.38
611.44	1639.02
611.79	1631.13
612.14	1622.51
612.49	1613.37
612.83	1605.02
613.18	1596.97
613.53	1588.88
613.88	1580.32
614.22	1572.08
614.57	1563.32
614.92	1555.26
615.27	1547.73
615.61	1539.36
615.96	1531.42
616.31	1523.75
616.65	1516.49
617.00	1508.87
617.35	1501.17
617.70	1493.06
618.04	1484.51
618.39	1476.25
618.74	1468.62
619.08	1460.19
619.43	1452.64
619.78	1445.72
620.12	1438.58
620.47	1430.97
620.82	1422.86
621.16	1415.40
621.51	1407.78
621.85	1400.34
622.20	1391.73
622.55	1383.43
622.89	1375.61
623.24	1367.86
623.59	1360.41
623.93	1352.80
624.28	1345.79
624.62	1338.37
624.97	1331.13
625.32	1324.36
625.66	1317.42
626.01	1310.28
626.35	1302.78
626.70	1295.08
627.04	1287.35
627.39	1279.51
627.73	1272.15
628.08	1265.28
628.43	1258.13
628.77	1250.71
629.12	1243.11
629.46	1236.03
629.81	1228.51
630.15	1221.20
630.50	1213.85
630.84	1205.70
631.19	1197.73
631.53	1190.06
631.88	1182.33
632.22	1174.67
632.57	1167.42
632.91	1159.79
633.26	1152.43
633.60	1145.12
633.95	1137.89
634.29	1130.85
634.64	1124.24
634.98	1116.85
635.32	1109.62
635.67	1102.99
636.01	1096.35
636.36	1089.57
636.70	1082.97
637.05	1076.48
637.39	1070.05
637.73	1063.58
638.08	1057.73
638.42	1051.83
638.77	1045.48
639.11	1038.95
639.45	1032.68
639.80	1025.96
640.14	1019.60
640.49	1013.02
640.83	1006.70
641.17	1000.58
641.52	994.25
641.86	987.67
642.20	981.76
642.55	975.44
642.89	968.97
643.23	962.44
643.58	956.54
643.92	950.39
644.26	944.43
644.61	938.38
644.95	932.35
645.29	925.76
645.64	918.97
645.98	912.58
646.32	906.77
646.66	900.64
647.01	894.88
647.35	889.17
647.69	883.30
648.04	877.82
648.38	871.92
648.72	866.00
649.06	860.12
649.41	854.30
649.75	848.27
650.09	842.31
650.43	836.60
650.78	830.47
651.12	824.46
651.46	818.61
651.80	812.87
652.14	807.45
652.49	802.11
652.83	796.90
653.17	791.21
653.51	785.52
653.85	780.02
654.20	774.37
654.54	768.40
654.88	762.70
655.22	756.71
655.56	751.04
655.90	745.52
656.25	740.19
656.59	734.86
656.93	729.86
657.27	724.69
657.61	719.15
657.95	714.08
658.29	708.98
658.64	703.79
658.98	698.43
659.32	693.02
659.66	687.87
660.00	682.60
660.34	677.69
660.68	672.78
661.02	667.87
661.36	663.12
661.70	658.53
662.05	654.10
662.39	649.79
662.73	645.37
663.07	641.01
663.41	636.58
663.75	632.06
664.09	627.54
664.43	623.11
664.77	619.01
665.11	614.75
665.45	610.67
665.79	606.55
666.13	602.43
666.47	598.32
666.81	594.07
667.15	589.94
667.49	586.02
667.83	582.16
668.17	578.19
668.51	574.16
668.85	570.19
669.19	566.43
669.53	562.59
669.87	558.69
670.21	554.99
670.55	551.35
670.89	547.92
671.23	544.46
671.57	540.98
671.91	537.42
672.25	533.93
672.58	530.38
672.92	527.00
673.26	523.82
673.60	520.70
673.94	517.62
674.28	514.70
674.62	511.74
674.96	508.63
675.30	505.70
675.64	502.75
675.97	499.94
676.31	497.06
676.65	494.16
676.99	491.45
677.33	488.58
677.67	485.77
678.01	482.74
678.34	479.73
678.68	476.87
679.02	474.10
679.36	471.33
679.70	468.70
680.04	465.98
680.37	463.14
680.71	460.33
681.05	457.70
681.39	455.06
681.73	452.40
682.06	449.90
682.40	447.41
682.74	444.91
683.08	442.33
683.42	439.68
683.75	437.20
684.09	434.61
684.43	432.14
684.77	429.67
685.10	427.33
685.44	425.04
685.78	422.74
686.12	420.43
686.45	418.10
686.79	415.74
687.13	413.48
687.46	411.32
687.80	409.15
688.14	406.91
688.48	404.81
688.81	402.55
689.15	400.37
689.49	398.18
689.82	396.09
690.16	394.02
690.50	392.12
690.83	390.16
691.17	388.23
691.51	386.31
691.84	384.48
692.18	382.54
692.52	380.54
692.85	378.61
693.19	376.75
693.52	374.93
693.86	373.08
694.20	371.32
694.53	369.50
694.87	367.66
695.21	365.86
695.54	364.06
695.88	362.29
696.21	360.58
696.55	358.91
696.88	357.18
697.22	355.55
697.56	353.87
697.89	352.20
698.23	350.60
698.56	349.00
698.90	347.38
699.23	345.77
699.57	344.24
699.90	342.70
700.24	341.20
700.58	339.73
700.91	338.32
701.25	336.88
701.58	335.54
701.92	334.19
702.25	332.86
702.59	331.49
702.92	330.20
703.26	328.94
703.59	327.67
703.93	326.55
704.26	325.34
704.60	324.09
704.93	322.84
705.26	321.62
705.60	320.42
705.93	319.30
706.27	318.23
706.60	317.17
706.94	316.12
707.27	315.02
707.61	313.95
707.94	312.88
708.27	311.75
708.61	310.68
708.94	309.67
709.28	308.67
709.61	307.70
709.94	306.74
710.28	305.67
710.61	304.68
710.95	303.57
711.28	302.64
711.61	301.70
711.95	300.83
712.28	299.84
712.61	298.89
712.95	297.93
713.28	297.07
713.61	296.16
713.95	295.29
714.28	294.44
714.61	293.60
714.95	292.74
715.28	291.90
715.61	291.02
715.95	290.17
716.28	289.33
716.61	288.52
716.95	287.70
717.28	286.98
717.61	286.22
717.94	285.49
718.28	284.68
718.61	283.92
718.94	283.18
719.27	282.49
719.61	281.83
719.94	281.18
720.27	280.49
720.60	279.87
720.94	279.22
721.27	278.61
721.60	277.98
721.93	277.40
722.27	276.89
722.60	276.32
722.93	275.75
723.26	275.21
723.59	274.61
723.93	274.07
724.26	273.52
724.59	272.98
724.92	272.42
725.25	271.89
725.59	271.39
725.92	270.90
726.25	270.41
726.58	269.93
726.91	269.38
727.24	268.87
727.57	268.37
727.91	267.85
728.24	267.38
728.57	266.91
728.90	266.41
729.23	265.89
729.56	265.45
729.89	265.01
730.22	264.48
730.55	264.05
730.89	263.61
731.22	263.11
731.55	262.65
731.88	262.25
732.21	261.80
732.54	261.35
732.87	260.89
733.20	260.47
733.53	260.08
733.86	259.73
734.19	259.34
734.52	258.95
734.85	258.63
735.18	258.20
735.51	257.84
735.84	257.46
736.17	257.13
736.50	256.74
736.83	256.45
737.16	256.15
737.49	255.82
737.82	255.49
738.15	255.17
738.48	254.82
738.81	254.47
739.14	254.16
739.47	253.86
739.80	253.57
740.13	253.28
740.46	252.96
740.79	252.64
741.12	252.32
741.45	252.01
741.78	251.68
742.11	251.40
742.44	251.07
742.77	250.80
743.10	250.48
743.43	250.20
743.75	249.84
744.08	249.69
744.41	249.39
744.74	249.10
745.07	248.84
745.40	248.61
745.73	248.42
746.06	248.17
746.39	247.93
746.71	247.68
747.04	247.40
747.37	247.14
747.70	246.91
748.03	246.64
748.36	246.41
748.68	246.18
749.01	245.92
749.34	245.73
749.67	245.51
750.00	245.30
750.33	245.12
750.65	244.91
750.98	244.58
751.31	244.36
751.64	244.12
751.97	243.96
752.29	243.76
752.62	243.46
752.95	243.26
753.28	243.01
753.60	242.77
753.93	242.61
754.26	242.40
754.59	242.17
754.91	241.98
755.24	241.80
755.57	241.58
755.90	241.39
756.22	241.16
756.55	240.95
756.88	240.75
757.20	240.53
757.53	240.31
757.86	240.12
758.19	239.96
758.51	239.81
758.84	239.61
759.17	239.43
759.49	239.28
759.82	239.13
760.15	238.98
760.47	238.82
760.80	238.64
761.13	238.49
761.45	238.31
761.78	238.18
762.11	238.01
762.43	237.89
762.76	237.76
763.08	237.65
763.41	237.51
763.74	237.39
764.06	237.24
764.39	237.10
764.71	236.99
765.04	236.84
765.37	236.67
765.69	236.51
766.02	236.37
766.34	236.24
766.67	236.10
767.00	235.99
767.32	235.97
767.65	235.95
767.97	235.84
768.30	235.78
768.62	235.66
768.95	235.52
769.27	235.38
769.60	235.29
769.92	235.17
770.25	235.08
770.57	234.95
770.90	234.85
771.22	234.73
771.55	234.64
771.87	234.55
772.20	234.49
772.52	234.49
772.85	234.52
773.17	234.44
773.50	234.36
773.82	234.24
774.15	234.07
774.47	233.86
774.80	233.76
775.12	233.66
775.45	233.56
775.77	233.50
776.09	233.44
776.42	233.35
776.74	233.30
777.07	233.21
777.39	233.15
777.72	233.06
778.04	233.03
778.36	232.94
778.69	232.88
779.01	232.80
779.33	232.68
779.66	232.49
779.98	232.42
780.31	232.35
780.63	232.34
780.95	232.30
781.28	232.24
781.60	232.18
781.92	232.11
782.25	232.07
782.57	232.03
782.89	231.94
783.22	231.86
783.54	231.78
783.86	231.74
784.19	231.69
784.51	231.69
784.83	231.63
785.16	231.53
785.48	231.50
785.80	231.50
786.12	231.42
786.45	231.38
786.77	231.32
787.09	231.26
