SpectraSuite Data File
++++++++++++++++++++++++++++++++++++
Date: Fri Feb 01 15:03:49 EST 2013
User: group
Dark Spectrum Present: No
Reference Spectrum Present: No
Number of Sampled Component Spectra: 1
Spectrometers: USB2E7196
Integration Time (usec): 35000 (USB2E7196)
Spectra Averaged: 100 (USB2E7196)
Boxcar Smoothing: 10 (USB2E7196)
Correct for Electrical Dark: No (USB2E7196)
Strobe/Lamp Enabled: No (USB2E7196)
Correct for Detector Non-linearity: No (USB2E7196)
Correct for Stray Light: No (USB2E7196)
Number of Pixels in Processed Spectrum: 2048
>>>>>Begin Processed Spectral Data<<<<<
339.09	0.00
339.48	214.69
339.86	216.66
340.24	218.09
340.63	219.61
341.01	222.15
341.39	222.03
341.78	224.33
342.16	224.44
342.54	225.27
342.93	213.54
343.31	224.32
343.69	224.87
344.07	225.34
344.46	225.76
344.84	226.15
345.22	226.40
345.60	226.63
345.99	226.79
346.37	226.94
346.75	227.03
347.13	227.10
347.52	227.12
347.90	227.25
348.28	227.27
348.66	227.33
349.05	227.34
349.43	227.36
349.81	227.35
350.19	227.38
350.57	227.45
350.96	227.53
351.34	227.61
351.72	227.72
352.10	227.82
352.48	227.90
352.87	227.95
353.25	228.00
353.63	228.07
354.01	228.15
354.39	228.21
354.77	228.31
355.15	228.42
355.54	228.48
355.92	228.51
356.30	228.61
356.68	228.74
357.06	228.78
357.44	228.84
357.82	228.93
358.20	229.05
358.58	229.07
358.97	229.12
359.35	229.20
359.73	229.25
360.11	229.27
360.49	229.32
360.87	229.35
361.25	229.40
361.63	229.48
362.01	229.52
362.39	229.54
362.77	229.58
363.15	229.58
363.53	229.62
363.91	229.67
364.29	229.68
364.67	229.60
365.05	229.63
365.43	229.63
365.81	229.65
366.19	229.63
366.57	229.66
366.95	229.62
367.33	229.57
367.71	229.53
368.09	229.50
368.47	229.49
368.85	229.46
369.23	229.46
369.61	229.37
369.99	229.34
370.37	229.29
370.75	229.29
371.13	229.24
371.51	229.16
371.89	229.12
372.27	229.06
372.65	229.00
373.03	228.92
373.41	228.87
373.78	228.81
374.16	228.73
374.54	228.63
374.92	228.59
375.30	228.55
375.68	228.46
376.06	228.44
376.44	228.37
376.82	228.30
377.19	228.20
377.57	228.15
377.95	228.05
378.33	227.96
378.71	227.82
379.09	227.73
379.47	227.70
379.84	227.59
380.22	227.50
380.60	227.42
380.98	227.37
381.36	227.28
381.73	227.19
382.11	227.15
382.49	227.11
382.87	227.03
383.25	226.94
383.62	227.00
384.00	226.90
384.38	226.83
384.76	226.79
385.13	226.77
385.51	226.72
385.89	226.68
386.27	226.65
386.64	226.61
387.02	226.55
387.40	226.50
387.78	226.46
388.15	226.44
388.53	226.39
388.91	226.37
389.29	226.35
389.66	226.34
390.04	226.28
390.42	226.26
390.79	226.26
391.17	226.28
391.55	226.15
391.92	226.19
392.30	226.17
392.68	226.15
393.05	226.14
393.43	226.14
393.81	226.18
394.18	226.16
394.56	226.18
394.94	226.24
395.31	226.27
395.69	226.34
396.06	226.38
396.44	226.43
396.82	226.44
397.19	226.51
397.57	226.56
397.95	226.65
398.32	226.69
398.70	226.76
399.07	226.83
399.45	226.94
399.82	226.96
400.20	227.02
400.58	227.12
400.95	227.18
401.33	227.29
401.70	227.42
402.08	227.57
402.45	227.66
402.83	227.79
403.20	227.88
403.58	227.99
403.95	228.12
404.33	228.24
404.71	228.39
405.08	228.57
405.46	228.68
405.83	228.86
406.21	229.01
406.58	229.19
406.96	229.33
407.33	229.51
407.70	229.76
408.08	230.03
408.45	230.23
408.83	230.48
409.20	230.67
409.58	230.85
409.95	231.11
410.33	231.39
410.70	231.64
411.08	231.98
411.45	232.27
411.82	232.58
412.20	232.95
412.57	233.38
412.95	233.70
413.32	234.11
413.69	234.48
414.07	234.93
414.44	235.38
414.82	235.89
415.19	236.47
415.56	236.99
415.94	237.54
416.31	238.21
416.68	238.85
417.06	239.63
417.43	240.34
417.81	241.11
418.18	241.90
418.55	242.77
418.93	243.62
419.30	244.53
419.67	245.47
420.04	246.43
420.42	247.40
420.79	248.59
421.16	249.73
421.54	250.93
421.91	252.12
422.28	253.38
422.66	254.70
423.03	255.97
423.40	257.30
423.77	258.72
424.15	260.14
424.52	261.62
424.89	263.20
425.26	264.74
425.64	266.17
426.01	267.77
426.38	269.40
426.75	271.08
427.13	272.79
427.50	274.61
427.87	276.46
428.24	278.32
428.61	280.05
428.99	282.02
429.36	284.14
429.73	286.24
430.10	288.26
430.47	290.38
430.85	292.51
431.22	294.78
431.59	297.14
431.96	299.39
432.33	301.87
432.70	304.26
433.08	307.09
433.45	309.78
433.82	312.38
434.19	315.30
434.56	318.12
434.93	320.81
435.30	323.43
435.68	326.34
436.05	329.18
436.42	332.05
436.79	334.58
437.16	337.31
437.53	340.15
437.90	343.01
438.27	345.76
438.64	348.58
439.01	351.17
439.38	353.48
439.75	355.68
440.13	358.18
440.50	360.48
440.87	362.32
441.24	364.24
441.61	366.40
441.98	367.86
442.35	369.68
442.72	371.55
443.09	373.39
443.46	374.42
443.83	375.03
444.20	375.52
444.57	376.35
444.94	376.61
445.31	376.91
445.68	377.21
446.05	377.25
446.42	376.84
446.79	376.43
447.16	375.95
447.53	375.64
447.90	374.46
448.27	373.32
448.64	371.71
449.01	370.57
449.37	368.60
449.74	366.75
450.11	364.52
450.48	362.00
450.85	359.45
451.22	357.29
451.59	355.26
451.96	353.31
452.33	350.69
452.70	348.31
453.07	345.51
453.43	342.65
453.80	339.86
454.17	337.21
454.54	334.63
454.91	331.92
455.28	329.21
455.65	326.76
456.02	324.33
456.38	322.24
456.75	319.55
457.12	317.28
457.49	315.02
457.86	312.83
458.23	310.99
458.59	308.94
458.96	306.85
459.33	305.00
459.70	303.11
460.07	301.65
460.43	299.94
460.80	298.33
461.17	296.87
461.54	295.39
461.91	293.98
462.27	292.56
462.64	291.27
463.01	289.90
463.38	288.57
463.74	287.16
464.11	285.99
464.48	284.97
464.85	283.86
465.21	282.96
465.58	281.99
465.95	280.84
466.32	279.92
466.68	278.99
467.05	278.05
467.42	277.17
467.78	276.21
468.15	275.31
468.52	274.65
468.88	273.78
469.25	273.00
469.62	272.36
469.98	271.70
470.35	271.05
470.72	270.44
471.08	269.78
471.45	269.28
471.82	268.69
472.18	268.08
472.55	267.62
472.92	267.14
473.28	266.68
473.65	266.27
474.02	265.79
474.38	265.40
474.75	265.06
475.11	264.70
475.48	264.38
475.85	264.13
476.21	263.83
476.58	263.63
476.94	263.45
477.31	263.23
477.67	263.06
478.04	262.97
478.41	262.88
478.77	262.90
479.14	262.78
479.50	262.79
479.87	262.87
480.23	262.94
480.60	262.99
480.96	263.08
481.33	263.30
481.69	263.50
482.06	263.70
482.42	263.92
482.79	264.16
483.15	264.46
483.52	264.84
483.88	265.20
484.25	265.56
484.61	266.04
484.98	266.50
485.34	267.07
485.71	267.64
486.07	268.22
486.44	268.79
486.80	269.51
487.17	270.23
487.53	271.02
487.90	271.89
488.26	272.80
488.62	273.79
488.99	274.69
489.35	275.74
489.72	276.86
490.08	278.04
490.44	279.25
490.81	280.62
491.17	281.97
491.54	283.42
491.90	284.97
492.26	286.54
492.63	288.29
492.99	290.03
493.36	291.95
493.72	294.01
494.08	296.10
494.45	298.33
494.81	300.68
495.17	303.13
495.54	305.70
495.90	308.36
496.26	311.12
496.63	314.08
496.99	317.17
497.35	320.38
497.72	323.78
498.08	327.29
498.44	330.94
498.80	334.90
499.17	338.93
499.53	343.08
499.89	347.51
500.26	352.00
500.62	356.64
500.98	361.46
501.34	366.50
501.71	371.79
502.07	377.18
502.43	382.74
502.79	388.50
503.16	394.52
503.52	400.82
503.88	407.21
504.24	413.83
504.60	420.70
504.97	427.80
505.33	435.12
505.69	442.79
506.05	450.53
506.41	458.37
506.78	466.50
507.14	474.93
507.50	483.57
507.86	492.55
508.22	501.72
508.59	510.90
508.95	520.47
509.31	530.24
509.67	540.39
510.03	550.70
510.39	561.27
510.75	572.05
511.12	582.93
511.48	594.14
511.84	605.57
512.20	617.10
512.56	629.04
512.92	641.27
513.28	653.48
513.64	665.99
514.00	678.67
514.37	691.62
514.73	704.65
515.09	717.73
515.45	731.03
515.81	744.61
516.17	758.70
516.53	772.80
516.89	787.04
517.25	801.07
517.61	815.52
517.97	829.94
518.33	844.40
518.69	859.25
519.05	874.35
519.41	889.60
519.77	905.15
520.13	920.69
520.49	936.06
520.85	951.71
521.21	967.40
521.57	983.61
521.93	999.47
522.29	1016.02
522.65	1032.39
523.01	1048.70
523.37	1064.83
523.73	1081.02
524.09	1097.21
524.45	1113.52
524.81	1130.36
525.17	1147.33
525.53	1164.32
525.89	1181.27
526.25	1198.10
526.61	1214.61
526.97	1231.47
527.33	1248.03
527.68	1264.73
528.04	1281.27
528.40	1298.08
528.76	1315.36
529.12	1332.21
529.48	1349.11
529.84	1365.15
530.20	1381.79
530.56	1398.89
530.91	1416.34
531.27	1433.32
531.63	1449.93
531.99	1466.54
532.35	1482.57
532.71	1498.53
533.07	1514.84
533.42	1530.81
533.78	1546.95
534.14	1563.28
534.50	1578.57
534.86	1594.56
535.21	1609.83
535.57	1625.91
535.93	1641.37
536.29	1656.13
536.65	1671.28
537.00	1686.24
537.36	1701.64
537.72	1716.22
538.08	1730.62
538.44	1744.50
538.79	1758.29
539.15	1772.01
539.51	1785.82
539.87	1800.22
540.22	1813.97
540.58	1827.90
540.94	1841.29
541.29	1854.39
541.65	1867.20
542.01	1880.72
542.37	1893.04
542.72	1905.48
543.08	1917.31
543.44	1929.61
543.79	1940.88
544.15	1951.89
544.51	1963.37
544.87	1974.29
545.22	1985.27
545.58	1995.54
545.94	2005.34
546.29	2015.34
546.65	2025.23
547.01	2034.66
547.36	2043.41
547.72	2051.84
548.07	2059.81
548.43	2068.15
548.79	2076.06
549.14	2083.63
549.50	2090.92
549.86	2098.84
550.21	2106.18
550.57	2113.32
550.92	2120.08
551.28	2127.31
551.64	2134.36
551.99	2140.86
552.35	2147.09
552.70	2153.25
553.06	2159.24
553.41	2165.60
553.77	2171.66
554.13	2177.66
554.48	2183.74
554.84	2189.12
555.19	2194.46
555.55	2199.31
555.90	2203.68
556.26	2208.51
556.61	2213.15
556.97	2217.32
557.32	2221.24
557.68	2225.29
558.03	2229.52
558.39	2233.08
558.74	2237.60
559.10	2241.37
559.45	2244.97
559.81	2249.15
560.16	2252.76
560.52	2256.00
560.87	2259.28
561.23	2261.71
561.58	2264.71
561.94	2267.26
562.29	2269.76
562.64	2272.36
563.00	2275.13
563.35	2278.50
563.71	2281.50
564.06	2284.63
564.42	2287.43
564.77	2289.92
565.12	2292.03
565.48	2293.85
565.83	2295.67
566.19	2296.79
566.54	2297.76
566.89	2298.94
567.25	2299.45
567.60	2300.84
567.96	2302.27
568.31	2303.14
568.66	2304.22
569.02	2304.56
569.37	2304.61
569.72	2305.19
570.08	2305.08
570.43	2304.82
570.78	2304.07
571.14	2302.64
571.49	2301.20
571.84	2300.67
572.20	2299.32
572.55	2298.24
572.90	2296.65
573.26	2295.12
573.61	2293.37
573.96	2291.41
574.31	2288.19
574.67	2285.00
575.02	2281.15
575.37	2277.71
575.72	2273.72
576.08	2270.39
576.43	2267.00
576.78	2263.31
577.13	2260.14
577.49	2257.03
577.84	2253.50
578.19	2249.71
578.54	2245.82
578.90	2241.31
579.25	2235.64
579.60	2230.61
579.95	2225.49
580.30	2220.34
580.66	2214.99
581.01	2209.79
581.36	2204.60
581.71	2200.28
582.06	2195.84
582.42	2191.17
582.77	2185.82
583.12	2180.99
583.47	2175.88
583.82	2170.67
584.17	2165.44
584.53	2159.84
584.88	2154.08
585.23	2148.18
585.58	2142.45
585.93	2136.95
586.28	2132.11
586.63	2126.91
586.98	2121.65
587.34	2116.79
587.69	2111.78
588.04	2106.38
588.39	2100.77
588.74	2094.33
589.09	2088.14
589.44	2081.15
589.79	2075.03
590.14	2069.30
590.49	2062.70
590.84	2056.30
591.19	2050.13
591.54	2043.34
591.89	2035.60
592.25	2028.69
592.60	2021.39
592.95	2013.75
593.30	2006.19
593.65	1998.48
594.00	1991.47
594.35	1984.17
594.70	1976.06
595.05	1968.64
595.40	1961.39
595.75	1953.70
596.10	1947.32
596.45	1940.41
596.80	1934.24
597.15	1927.59
597.50	1920.39
597.85	1914.02
598.19	1907.28
598.54	1900.17
598.89	1893.59
599.24	1887.72
599.59	1880.98
599.94	1874.74
600.29	1868.37
600.64	1861.78
600.99	1854.40
601.34	1847.33
601.69	1840.26
602.04	1833.32
602.39	1825.92
602.74	1819.10
603.08	1812.50
603.43	1805.67
603.78	1798.48
604.13	1791.18
604.48	1783.77
604.83	1776.79
605.18	1769.73
605.53	1761.72
605.87	1753.68
606.22	1746.35
606.57	1738.42
606.92	1731.13
607.27	1723.90
607.62	1716.97
607.96	1709.63
608.31	1703.05
608.66	1695.49
609.01	1687.93
609.36	1680.44
609.70	1672.46
610.05	1664.34
610.40	1656.50
610.75	1648.27
611.10	1640.48
611.44	1632.23
611.79	1624.31
612.14	1615.78
612.49	1606.78
612.83	1598.48
613.18	1590.47
613.53	1582.43
613.88	1574.00
614.22	1565.78
614.57	1557.26
614.92	1549.26
615.27	1541.76
615.61	1533.37
615.96	1525.48
616.31	1517.90
616.65	1510.60
617.00	1503.09
617.35	1495.42
617.70	1487.06
618.04	1478.46
618.39	1470.43
618.74	1462.79
619.08	1454.53
619.43	1446.96
619.78	1439.94
620.12	1432.70
620.47	1425.14
620.82	1417.04
621.16	1409.70
621.51	1402.07
621.85	1394.47
622.20	1386.05
622.55	1377.82
622.89	1369.95
623.24	1362.37
623.59	1355.13
623.93	1347.63
624.28	1340.44
624.62	1332.94
624.97	1325.81
625.32	1319.24
625.66	1312.13
626.01	1304.96
626.35	1297.50
626.70	1289.82
627.04	1282.07
627.39	1274.49
627.73	1267.07
628.08	1260.19
628.43	1252.82
628.77	1245.46
629.12	1237.95
629.46	1230.72
629.81	1223.35
630.15	1216.21
630.50	1208.83
630.84	1200.59
631.19	1192.69
631.53	1185.20
631.88	1177.76
632.22	1170.18
632.57	1162.85
632.91	1155.40
633.26	1147.94
633.60	1140.74
633.95	1133.74
634.29	1126.77
634.64	1120.10
634.98	1112.87
635.32	1105.74
635.67	1099.27
636.01	1092.70
636.36	1085.91
636.70	1079.46
637.05	1072.80
637.39	1066.39
637.73	1059.94
638.08	1054.18
638.42	1048.24
638.77	1041.85
639.11	1035.20
639.45	1028.92
639.80	1022.24
640.14	1015.79
640.49	1009.35
640.83	1003.07
641.17	996.83
641.52	990.59
641.86	984.22
642.20	978.41
642.55	972.20
642.89	965.70
643.23	959.25
643.58	953.49
643.92	947.33
644.26	941.31
644.61	935.26
644.95	929.15
645.29	922.49
645.64	915.71
645.98	909.40
646.32	903.65
646.66	897.67
647.01	891.94
647.35	886.32
647.69	880.49
648.04	874.90
648.38	869.00
648.72	862.99
649.06	856.88
649.41	850.99
649.75	844.96
650.09	838.99
650.43	833.13
650.78	826.92
651.12	821.02
651.46	815.29
651.80	809.53
652.14	804.21
652.49	798.89
652.83	793.73
653.17	788.00
653.51	782.26
653.85	776.89
654.20	771.24
654.54	765.20
654.88	759.59
655.22	753.75
655.56	748.18
655.90	742.75
656.25	737.45
656.59	732.14
656.93	727.08
657.27	721.96
657.61	716.53
657.95	711.49
658.29	706.46
658.64	701.21
658.98	696.02
659.32	690.50
659.66	685.24
660.00	679.95
660.34	675.08
660.68	670.22
661.02	665.14
661.36	660.49
661.70	655.97
662.05	651.56
662.39	647.28
662.73	642.80
663.07	638.40
663.41	634.03
663.75	629.53
664.09	624.94
664.43	620.59
664.77	616.51
665.11	612.31
665.45	608.22
665.79	604.20
666.13	599.99
666.47	595.99
666.81	591.87
667.15	587.76
667.49	583.94
667.83	580.15
668.17	576.30
668.51	572.20
668.85	568.32
669.19	564.48
669.53	560.59
669.87	556.75
670.21	553.06
670.55	549.49
670.89	546.08
671.23	542.67
671.57	539.18
671.91	535.66
672.25	532.18
672.58	528.74
672.92	525.40
673.26	522.36
673.60	519.31
673.94	516.23
674.28	513.37
674.62	510.42
674.96	507.34
675.30	504.40
675.64	501.53
675.97	498.76
676.31	495.97
676.65	493.08
676.99	490.41
677.33	487.59
677.67	484.79
678.01	481.73
678.34	478.80
678.68	475.95
679.02	473.19
679.36	470.41
679.70	467.69
680.04	464.87
680.37	462.01
680.71	459.14
681.05	456.56
681.39	453.87
681.73	451.22
682.06	448.71
682.40	446.17
682.74	443.65
683.08	441.07
683.42	438.44
683.75	435.98
684.09	433.47
684.43	431.05
684.77	428.59
685.10	426.33
685.44	424.06
685.78	421.79
686.12	419.57
686.45	417.34
686.79	415.05
687.13	412.91
687.46	410.78
687.80	408.65
688.14	406.48
688.48	404.46
688.81	402.23
689.15	400.09
689.49	397.97
689.82	395.88
690.16	393.85
690.50	391.92
690.83	389.97
691.17	388.00
691.51	386.11
691.84	384.27
692.18	382.36
692.52	380.42
692.85	378.50
693.19	376.64
693.52	374.87
693.86	373.05
694.20	371.28
694.53	369.48
694.87	367.67
695.21	365.87
695.54	364.03
695.88	362.29
696.21	360.53
696.55	358.87
696.88	357.19
697.22	355.50
697.56	353.88
697.89	352.23
698.23	350.61
698.56	349.00
698.90	347.41
699.23	345.74
699.57	344.18
699.90	342.68
700.24	341.13
700.58	339.57
700.91	338.07
701.25	336.64
701.58	335.24
701.92	333.92
702.25	332.58
702.59	331.22
702.92	329.92
703.26	328.66
703.59	327.37
703.93	326.21
704.26	325.04
704.60	323.78
704.93	322.56
705.26	321.37
705.60	320.19
705.93	319.03
706.27	318.04
706.60	317.01
706.94	315.93
707.27	314.81
707.61	313.75
707.94	312.73
708.27	311.67
708.61	310.62
708.94	309.60
709.28	308.63
709.61	307.70
709.94	306.78
710.28	305.73
710.61	304.77
710.95	303.73
711.28	302.81
711.61	301.85
711.95	300.95
712.28	299.96
712.61	299.02
712.95	298.07
713.28	297.17
713.61	296.24
713.95	295.34
714.28	294.52
714.61	293.63
714.95	292.78
715.28	291.93
715.61	291.08
715.95	290.20
716.28	289.34
716.61	288.49
716.95	287.70
717.28	287.01
717.61	286.25
717.94	285.53
718.28	284.72
718.61	283.98
718.94	283.27
719.27	282.61
719.61	281.96
719.94	281.31
720.27	280.59
720.60	279.96
720.94	279.33
721.27	278.73
721.60	278.17
721.93	277.59
722.27	277.01
722.60	276.46
722.93	275.93
723.26	275.43
723.59	274.89
723.93	274.33
724.26	273.75
724.59	273.18
724.92	272.67
725.25	272.18
725.59	271.68
725.92	271.19
726.25	270.70
726.58	270.20
726.91	269.72
727.24	269.30
727.57	268.84
727.91	268.32
728.24	267.87
728.57	267.37
728.90	266.93
729.23	266.46
729.56	266.01
729.89	265.51
730.22	265.00
730.55	264.53
730.89	264.06
731.22	263.61
731.55	263.18
731.88	262.72
732.21	262.29
732.54	261.82
732.87	261.41
733.20	260.99
733.53	260.62
733.86	260.25
734.19	259.83
734.52	259.48
734.85	259.18
735.18	258.78
735.51	258.43
735.84	258.04
736.17	257.67
736.50	257.29
736.83	257.06
737.16	256.68
737.49	256.34
737.82	256.02
738.15	255.69
738.48	255.38
738.81	255.05
739.14	254.72
739.47	254.45
739.80	254.13
740.13	253.87
740.46	253.54
740.79	253.21
741.12	252.86
741.45	252.53
741.78	252.19
742.11	251.89
742.44	251.56
742.77	251.27
743.10	251.02
743.43	250.73
743.75	250.35
744.08	250.22
744.41	249.96
744.74	249.67
745.07	249.39
745.40	249.13
745.73	248.89
746.06	248.65
746.39	248.38
746.71	248.10
747.04	247.81
747.37	247.53
747.70	247.26
748.03	247.04
748.36	246.83
748.68	246.60
749.01	246.36
749.34	246.16
749.67	245.95
750.00	245.68
750.33	245.51
750.65	245.29
750.98	244.98
751.31	244.74
751.64	244.53
751.97	244.37
752.29	244.14
752.62	243.91
752.95	243.67
753.28	243.49
753.60	243.29
753.93	243.13
754.26	242.94
754.59	242.71
754.91	242.51
755.24	242.28
755.57	242.08
755.90	241.89
756.22	241.70
756.55	241.50
756.88	241.34
757.20	241.13
757.53	240.92
757.86	240.74
758.19	240.59
758.51	240.47
758.84	240.27
759.17	240.13
759.49	239.96
759.82	239.86
760.15	239.66
760.47	239.52
760.80	239.32
761.13	239.20
761.45	239.07
761.78	238.91
762.11	238.76
762.43	238.60
762.76	238.45
763.08	238.31
763.41	238.17
763.74	238.02
764.06	237.87
764.39	237.77
764.71	237.65
765.04	237.52
765.37	237.38
765.69	237.25
766.02	237.12
766.34	236.99
766.67	236.84
767.00	236.78
767.32	236.70
767.65	236.68
767.97	236.57
768.30	236.46
768.62	236.37
768.95	236.24
769.27	236.14
769.60	236.05
769.92	235.95
770.25	235.83
770.57	235.72
770.90	235.60
771.22	235.48
771.55	235.39
771.87	235.29
772.20	235.19
772.52	235.15
772.85	235.17
773.17	235.08
773.50	234.97
773.82	234.87
774.15	234.74
774.47	234.56
774.80	234.46
775.12	234.38
775.45	234.30
775.77	234.23
776.09	234.16
776.42	234.11
776.74	234.03
777.07	233.95
777.39	233.88
777.72	233.82
778.04	233.76
778.36	233.71
778.69	233.63
779.01	233.53
779.33	233.39
779.66	233.19
779.98	233.11
780.31	233.06
780.63	233.01
780.95	232.96
781.28	232.89
781.60	232.83
781.92	232.78
782.25	232.68
782.57	232.67
782.89	232.58
783.22	232.50
783.54	232.42
783.86	232.36
784.19	232.28
784.51	232.28
784.83	232.23
785.16	232.16
785.48	232.11
785.80	232.08
786.12	232.04
786.45	232.02
786.77	232.00
787.09	231.94
