SpectraSuite Data File
++++++++++++++++++++++++++++++++++++
Date: Fri Feb 01 16:49:23 EST 2013
User: group
Dark Spectrum Present: No
Reference Spectrum Present: No
Number of Sampled Component Spectra: 1
Spectrometers: USB2E7196
Integration Time (usec): 35000 (USB2E7196)
Spectra Averaged: 100 (USB2E7196)
Boxcar Smoothing: 10 (USB2E7196)
Correct for Electrical Dark: No (USB2E7196)
Strobe/Lamp Enabled: No (USB2E7196)
Correct for Detector Non-linearity: No (USB2E7196)
Correct for Stray Light: No (USB2E7196)
Number of Pixels in Processed Spectrum: 2048
>>>>>Begin Processed Spectral Data<<<<<
339.09	0.00
339.48	213.53
339.86	215.13
340.24	215.93
340.63	218.36
341.01	220.77
341.39	220.18
341.78	221.96
342.16	222.28
342.54	223.56
342.93	211.83
343.31	222.55
343.69	223.07
344.07	223.55
344.46	223.96
344.84	224.28
345.22	224.49
345.60	224.75
345.99	224.92
346.37	225.06
346.75	225.12
347.13	225.18
347.52	225.22
347.90	225.29
348.28	225.35
348.66	225.36
349.05	225.32
349.43	225.35
349.81	225.40
350.19	225.45
350.57	225.48
350.96	225.53
351.34	225.60
351.72	225.66
352.10	225.72
352.48	225.79
352.87	225.84
353.25	225.92
353.63	225.94
354.01	225.99
354.39	226.06
354.77	226.18
355.15	226.25
355.54	226.32
355.92	226.33
356.30	226.39
356.68	226.55
357.06	226.63
357.44	226.65
357.82	226.69
358.20	226.76
358.58	226.86
358.97	226.92
359.35	226.98
359.73	227.09
360.11	227.15
360.49	227.23
360.87	227.28
361.25	227.33
361.63	227.43
362.01	227.50
362.39	227.56
362.77	227.60
363.15	227.59
363.53	227.64
363.91	227.70
364.29	227.70
364.67	227.63
365.05	227.66
365.43	227.72
365.81	227.76
366.19	227.79
366.57	227.83
366.95	227.84
367.33	227.85
367.71	227.83
368.09	227.85
368.47	227.85
368.85	227.84
369.23	227.84
369.61	227.79
369.99	227.78
370.37	227.77
370.75	227.77
371.13	227.78
371.51	227.72
371.89	227.68
372.27	227.67
372.65	227.62
373.03	227.56
373.41	227.51
373.78	227.45
374.16	227.34
374.54	227.24
374.92	227.18
375.30	227.14
375.68	227.05
376.06	227.00
376.44	226.89
376.82	226.86
377.19	226.80
377.57	226.74
377.95	226.66
378.33	226.61
378.71	226.51
379.09	226.48
379.47	226.42
379.84	226.36
380.22	226.31
380.60	226.22
380.98	226.16
381.36	226.07
381.73	226.02
382.11	225.99
382.49	225.94
382.87	225.86
383.25	225.77
383.62	225.81
384.00	225.75
384.38	225.74
384.76	225.72
385.13	225.67
385.51	225.63
385.89	225.57
386.27	225.49
386.64	225.46
387.02	225.37
387.40	225.33
387.78	225.33
388.15	225.29
388.53	225.24
388.91	225.24
389.29	225.22
389.66	225.19
390.04	225.14
390.42	225.13
390.79	225.12
391.17	225.08
391.55	224.97
391.92	224.91
392.30	224.91
392.68	224.86
393.05	224.87
393.43	224.83
393.81	224.83
394.18	224.84
394.56	224.82
394.94	224.86
395.31	224.87
395.69	224.87
396.06	224.88
396.44	224.93
396.82	224.92
397.19	224.99
397.57	225.00
397.95	225.05
398.32	225.05
398.70	225.12
399.07	225.17
399.45	225.23
399.82	225.32
400.20	225.30
400.58	225.38
400.95	225.39
401.33	225.49
401.70	225.60
402.08	225.69
402.45	225.77
402.83	225.86
403.20	225.94
403.58	226.05
403.95	226.13
404.33	226.25
404.71	226.37
405.08	226.53
405.46	226.66
405.83	226.80
406.21	226.98
406.58	227.12
406.96	227.28
407.33	227.44
407.70	227.59
408.08	227.88
408.45	228.05
408.83	228.32
409.20	228.51
409.58	228.68
409.95	228.92
410.33	229.19
410.70	229.42
411.08	229.72
411.45	230.02
411.82	230.32
412.20	230.68
412.57	231.09
412.95	231.37
413.32	231.79
413.69	232.20
414.07	232.64
414.44	233.09
414.82	233.59
415.19	234.11
415.56	234.68
415.94	235.21
416.31	235.88
416.68	236.49
417.06	237.22
417.43	237.89
417.81	238.66
418.18	239.44
418.55	240.30
418.93	241.13
419.30	242.04
419.67	243.01
420.04	243.95
420.42	244.95
420.79	246.11
421.16	247.23
421.54	248.43
421.91	249.61
422.28	250.89
422.66	252.23
423.03	253.54
423.40	254.86
423.77	256.32
424.15	257.70
424.52	259.16
424.89	260.75
425.26	262.31
425.64	263.75
426.01	265.33
426.38	266.98
426.75	268.67
427.13	270.40
427.50	272.21
427.87	274.11
428.24	275.96
428.61	277.70
428.99	279.66
429.36	281.74
429.73	283.84
430.10	285.82
430.47	287.85
430.85	289.98
431.22	292.20
431.59	294.53
431.96	296.77
432.33	299.28
432.70	301.62
433.08	304.47
433.45	307.10
433.82	309.71
434.19	312.56
434.56	315.36
434.93	317.92
435.30	320.52
435.68	323.32
436.05	326.07
436.42	328.87
436.79	331.33
437.16	333.98
437.53	336.75
437.90	339.55
438.27	342.24
438.64	345.00
439.01	347.57
439.38	349.77
439.75	351.93
440.13	354.34
440.50	356.68
440.87	358.48
441.24	360.39
441.61	362.55
441.98	364.03
442.35	365.77
442.72	367.66
443.09	369.46
443.46	370.46
443.83	371.10
444.20	371.61
444.57	372.46
444.94	372.76
445.31	373.11
445.68	373.48
446.05	373.61
446.42	373.29
446.79	372.93
447.16	372.51
447.53	372.20
447.90	371.05
448.27	369.92
448.64	368.36
449.01	367.22
449.37	365.30
449.74	363.43
450.11	361.26
450.48	358.82
450.85	356.34
451.22	354.24
451.59	352.23
451.96	350.34
452.33	347.75
452.70	345.37
453.07	342.55
453.43	339.65
453.80	336.91
454.17	334.25
454.54	331.71
454.91	329.03
455.28	326.35
455.65	323.87
456.02	321.45
456.38	319.28
456.75	316.66
457.12	314.42
457.49	312.20
457.86	310.06
458.23	308.24
458.59	306.20
458.96	304.16
459.33	302.33
459.70	300.43
460.07	298.95
460.43	297.31
460.80	295.71
461.17	294.33
461.54	292.82
461.91	291.42
462.27	289.97
462.64	288.73
463.01	287.40
463.38	286.15
463.74	284.80
464.11	283.68
464.48	282.65
464.85	281.49
465.21	280.60
465.58	279.63
465.95	278.50
466.32	277.60
466.68	276.70
467.05	275.81
467.42	274.97
467.78	274.04
468.15	273.17
468.52	272.52
468.88	271.67
469.25	270.93
469.62	270.31
469.98	269.65
470.35	269.06
470.72	268.50
471.08	267.86
471.45	267.32
471.82	266.81
472.18	266.22
472.55	265.85
472.92	265.35
473.28	264.94
473.65	264.52
474.02	264.05
474.38	263.65
474.75	263.34
475.11	262.98
475.48	262.74
475.85	262.51
476.21	262.27
476.58	262.10
476.94	261.96
477.31	261.78
477.67	261.63
478.04	261.51
478.41	261.43
478.77	261.51
479.14	261.51
479.50	261.50
479.87	261.60
480.23	261.65
480.60	261.76
480.96	261.84
481.33	262.09
481.69	262.34
482.06	262.56
482.42	262.74
482.79	263.04
483.15	263.35
483.52	263.73
483.88	264.13
484.25	264.51
484.61	264.97
484.98	265.42
485.34	265.98
485.71	266.55
486.07	267.19
486.44	267.73
486.80	268.38
487.17	269.12
487.53	269.96
487.90	270.85
488.26	271.77
488.62	272.78
488.99	273.75
489.35	274.78
489.72	275.90
490.08	277.14
490.44	278.34
490.81	279.66
491.17	281.03
491.54	282.51
491.90	284.06
492.26	285.63
492.63	287.34
492.99	289.11
493.36	291.02
493.72	293.07
494.08	295.13
494.45	297.37
494.81	299.72
495.17	302.14
495.54	304.69
495.90	307.41
496.26	310.21
496.63	313.16
496.99	316.24
497.35	319.52
497.72	322.92
498.08	326.44
498.44	330.10
498.80	333.98
499.17	337.99
499.53	342.15
499.89	346.55
500.26	351.06
500.62	355.72
500.98	360.64
501.34	365.71
501.71	371.10
502.07	376.55
502.43	382.13
502.79	387.88
503.16	393.88
503.52	400.03
503.88	406.33
504.24	412.95
504.60	419.82
504.97	426.92
505.33	434.20
505.69	441.92
506.05	449.71
506.41	457.63
506.78	465.75
507.14	474.14
507.50	482.81
507.86	491.80
508.22	500.96
508.59	510.11
508.95	519.62
509.31	529.29
509.67	539.35
510.03	549.59
510.39	560.12
510.75	570.89
511.12	581.83
511.48	593.11
511.84	604.47
512.20	615.94
512.56	627.75
512.92	639.81
513.28	652.05
513.64	664.41
514.00	677.03
514.37	689.84
514.73	702.90
515.09	715.87
515.45	729.09
515.81	742.44
516.17	756.35
516.53	770.29
516.89	784.48
517.25	798.55
517.61	812.94
517.97	827.28
518.33	841.56
518.69	856.09
519.05	870.87
519.41	885.95
519.77	901.34
520.13	916.68
520.49	932.05
520.85	947.29
521.21	962.84
521.57	978.81
521.93	994.41
522.29	1010.50
522.65	1026.58
523.01	1042.51
523.37	1058.51
523.73	1074.55
524.09	1090.47
524.45	1106.50
524.81	1122.92
525.17	1139.34
525.53	1156.04
525.89	1172.73
526.25	1189.57
526.61	1205.91
526.97	1222.41
527.33	1238.73
527.68	1255.07
528.04	1271.34
528.40	1287.62
528.76	1304.30
529.12	1320.74
529.48	1337.44
529.84	1353.25
530.20	1369.60
530.56	1386.36
530.91	1403.56
531.27	1420.08
531.63	1436.37
531.99	1452.77
532.35	1468.48
532.71	1484.19
533.07	1500.26
533.42	1516.05
533.78	1531.85
534.14	1547.82
534.50	1562.85
534.86	1578.36
535.21	1593.30
535.57	1608.88
535.93	1624.24
536.29	1639.03
536.65	1653.88
537.00	1668.32
537.36	1683.49
537.72	1697.88
538.08	1712.24
538.44	1725.82
538.79	1739.52
539.15	1752.91
539.51	1766.37
539.87	1780.61
540.22	1794.23
540.58	1807.62
540.94	1820.67
541.29	1833.27
541.65	1845.79
542.01	1858.93
542.37	1871.20
542.72	1883.49
543.08	1895.11
543.44	1907.33
543.79	1918.42
544.15	1929.23
544.51	1940.79
544.87	1951.49
545.22	1962.21
545.58	1972.19
545.94	1981.91
546.29	1991.67
546.65	2001.52
547.01	2010.68
547.36	2019.25
547.72	2027.58
548.07	2035.56
548.43	2043.69
548.79	2051.49
549.14	2059.08
549.50	2066.29
549.86	2073.81
550.21	2081.08
550.57	2088.28
550.92	2094.74
551.28	2101.67
551.64	2108.73
551.99	2115.18
552.35	2121.35
552.70	2127.45
553.06	2133.48
553.41	2139.76
553.77	2145.61
554.13	2151.45
554.48	2157.51
554.84	2163.17
555.19	2168.37
555.55	2173.44
555.90	2177.87
556.26	2182.88
556.61	2187.45
556.97	2191.85
557.32	2196.10
557.68	2200.13
558.03	2204.44
558.39	2208.23
558.74	2212.85
559.10	2216.66
559.45	2220.31
559.81	2224.62
560.16	2228.39
560.52	2231.59
560.87	2234.96
561.23	2237.76
561.58	2240.76
561.94	2243.35
562.29	2245.49
562.64	2248.44
563.00	2251.09
563.35	2254.64
563.71	2257.87
564.06	2261.02
564.42	2263.98
564.77	2266.62
565.12	2269.21
565.48	2271.24
565.83	2273.29
566.19	2274.81
566.54	2275.84
566.89	2277.08
567.25	2277.89
567.60	2279.12
567.96	2281.03
568.31	2282.03
568.66	2283.16
569.02	2283.92
569.37	2284.57
569.72	2285.67
570.08	2285.96
570.43	2286.02
570.78	2285.64
571.14	2284.18
571.49	2282.86
571.84	2282.51
572.20	2281.34
572.55	2280.34
572.90	2278.83
573.26	2277.56
573.61	2275.89
573.96	2274.39
574.31	2271.56
574.67	2268.62
575.02	2265.17
575.37	2261.69
575.72	2257.98
576.08	2254.70
576.43	2251.42
576.78	2247.91
577.13	2244.81
577.49	2241.61
577.84	2238.31
578.19	2234.59
578.54	2231.09
578.90	2227.35
579.25	2221.97
579.60	2217.38
579.95	2212.66
580.30	2207.71
580.66	2202.46
581.01	2197.57
581.36	2192.67
581.71	2188.76
582.06	2184.55
582.42	2180.39
582.77	2175.46
583.12	2171.25
583.47	2166.92
583.82	2162.31
584.17	2157.10
584.53	2151.56
584.88	2146.12
585.23	2140.57
585.58	2135.22
585.93	2129.84
586.28	2124.95
586.63	2120.11
586.98	2114.94
587.34	2110.01
587.69	2105.32
588.04	2100.32
588.39	2094.74
588.74	2088.33
589.09	2082.18
589.44	2075.40
589.79	2069.19
590.14	2063.60
590.49	2056.96
590.84	2050.56
591.19	2044.47
591.54	2038.06
591.89	2031.11
592.25	2024.49
592.60	2017.32
592.95	2009.94
593.30	2002.73
593.65	1995.27
594.00	1988.29
594.35	1981.20
594.70	1973.32
595.05	1966.26
595.40	1959.10
595.75	1951.74
596.10	1945.76
596.45	1939.25
596.80	1933.23
597.15	1926.91
597.50	1920.15
597.85	1913.77
598.19	1907.21
598.54	1900.40
598.89	1893.92
599.24	1888.01
599.59	1881.45
599.94	1875.27
600.29	1868.94
600.64	1862.39
600.99	1855.06
601.34	1848.21
601.69	1841.20
602.04	1834.57
602.39	1827.18
602.74	1820.49
603.08	1813.91
603.43	1807.15
603.78	1799.91
604.13	1792.73
604.48	1785.63
604.83	1778.67
605.18	1771.94
605.53	1764.06
605.87	1755.90
606.22	1748.68
606.57	1740.75
606.92	1733.41
607.27	1726.49
607.62	1719.71
607.96	1712.70
608.31	1706.45
608.66	1699.00
609.01	1691.72
609.36	1684.19
609.70	1676.34
610.05	1668.35
610.40	1660.70
610.75	1652.51
611.10	1644.83
611.44	1636.49
611.79	1628.49
612.14	1620.02
612.49	1610.73
612.83	1602.40
613.18	1594.36
613.53	1586.29
613.88	1577.84
614.22	1569.52
614.57	1560.88
614.92	1552.96
615.27	1545.55
615.61	1537.14
615.96	1529.20
616.31	1521.39
616.65	1514.09
617.00	1506.51
617.35	1498.84
617.70	1490.55
618.04	1482.22
618.39	1473.97
618.74	1466.38
619.08	1458.09
619.43	1450.34
619.78	1443.54
620.12	1436.49
620.47	1429.20
620.82	1421.11
621.16	1413.64
621.51	1406.13
621.85	1398.39
622.20	1389.81
622.55	1381.38
622.89	1373.40
623.24	1365.69
623.59	1358.33
623.93	1350.77
624.28	1343.49
624.62	1335.94
624.97	1328.82
625.32	1321.90
625.66	1314.87
626.01	1307.76
626.35	1300.49
626.70	1292.79
627.04	1285.02
627.39	1277.09
627.73	1269.55
628.08	1262.60
628.43	1255.43
628.77	1248.14
629.12	1240.80
629.46	1233.68
629.81	1226.13
630.15	1218.98
630.50	1211.70
630.84	1203.65
631.19	1195.75
631.53	1188.23
631.88	1180.79
632.22	1173.17
632.57	1165.80
632.91	1158.28
633.26	1150.91
633.60	1143.39
633.95	1136.18
634.29	1129.11
634.64	1122.45
634.98	1115.13
635.32	1107.97
635.67	1101.33
636.01	1094.67
636.36	1087.78
636.70	1081.25
637.05	1074.64
637.39	1068.17
637.73	1061.66
638.08	1055.74
638.42	1049.74
638.77	1043.33
639.11	1036.78
639.45	1030.38
639.80	1023.78
640.14	1017.41
640.49	1010.83
640.83	1004.58
641.17	998.47
641.52	992.16
641.86	985.72
642.20	979.83
642.55	973.50
642.89	967.08
643.23	960.37
643.58	954.62
643.92	948.45
644.26	942.57
644.61	936.43
644.95	930.46
645.29	923.94
645.64	917.23
645.98	910.93
646.32	904.95
646.66	898.96
647.01	893.16
647.35	887.50
647.69	881.54
648.04	875.93
648.38	870.11
648.72	864.24
649.06	858.15
649.41	852.23
649.75	846.32
650.09	840.34
650.43	834.64
650.78	828.49
651.12	822.54
651.46	816.79
651.80	811.16
652.14	805.75
652.49	800.38
652.83	795.18
653.17	789.62
653.51	783.99
653.85	778.56
654.20	773.00
654.54	767.04
654.88	761.50
655.22	755.70
655.56	749.99
655.90	744.46
656.25	739.33
656.59	734.06
656.93	728.97
657.27	723.90
657.61	718.54
657.95	713.48
658.29	708.44
658.64	703.13
658.98	697.80
659.32	692.30
659.66	687.11
660.00	681.88
660.34	676.91
660.68	672.01
661.02	667.00
661.36	662.33
661.70	657.85
662.05	653.47
662.39	649.16
662.73	644.77
663.07	640.44
663.41	635.98
663.75	631.50
664.09	626.95
664.43	622.51
664.77	618.44
665.11	614.22
665.45	610.03
665.79	605.99
666.13	601.96
666.47	597.83
666.81	593.70
667.15	589.53
667.49	585.57
667.83	581.71
668.17	577.80
668.51	573.74
668.85	569.66
669.19	565.71
669.53	561.87
669.87	558.05
670.21	554.33
670.55	550.63
670.89	547.17
671.23	543.74
671.57	540.20
671.91	536.67
672.25	533.14
672.58	529.65
672.92	526.17
673.26	522.94
673.60	519.78
673.94	516.69
674.28	513.72
674.62	510.75
674.96	507.61
675.30	504.73
675.64	501.77
675.97	498.98
676.31	496.13
676.65	493.22
676.99	490.46
677.33	487.53
677.67	484.77
678.01	481.79
678.34	478.81
678.68	475.93
679.02	473.12
679.36	470.36
679.70	467.61
680.04	464.88
680.37	462.04
680.71	459.26
681.05	456.58
681.39	453.87
681.73	451.24
682.06	448.70
682.40	446.14
682.74	443.59
683.08	440.99
683.42	438.45
683.75	435.92
684.09	433.31
684.43	430.89
684.77	428.43
685.10	426.02
685.44	423.69
685.78	421.38
686.12	419.04
686.45	416.77
686.79	414.48
687.13	412.26
687.46	410.08
687.80	407.89
688.14	405.62
688.48	403.62
688.81	401.40
689.15	399.31
689.49	397.09
689.82	394.98
690.16	392.94
690.50	390.96
690.83	389.08
691.17	387.11
691.51	385.20
691.84	383.33
692.18	381.44
692.52	379.52
692.85	377.59
693.19	375.76
693.52	373.91
693.86	372.09
694.20	370.34
694.53	368.58
694.87	366.75
695.21	364.98
695.54	363.12
695.88	361.40
696.21	359.67
696.55	358.02
696.88	356.37
697.22	354.64
697.56	353.00
697.89	351.33
698.23	349.76
698.56	348.15
698.90	346.57
699.23	344.92
699.57	343.39
699.90	341.84
700.24	340.24
700.58	338.68
700.91	337.19
701.25	335.74
701.58	334.32
701.92	332.98
702.25	331.63
702.59	330.32
702.92	328.99
703.26	327.65
703.59	326.40
703.93	325.24
704.26	324.06
704.60	322.81
704.93	321.52
705.26	320.30
705.60	319.14
705.93	317.97
706.27	316.97
706.60	315.93
706.94	314.86
707.27	313.77
707.61	312.74
707.94	311.74
708.27	310.68
708.61	309.65
708.94	308.65
709.28	307.68
709.61	306.70
709.94	305.76
710.28	304.78
710.61	303.76
710.95	302.70
711.28	301.79
711.61	300.88
711.95	299.98
712.28	299.04
712.61	298.06
712.95	297.18
713.28	296.26
713.61	295.33
713.95	294.50
714.28	293.65
714.61	292.80
714.95	291.93
715.28	291.08
715.61	290.21
715.95	289.35
716.28	288.47
716.61	287.62
716.95	286.77
717.28	286.01
717.61	285.26
717.94	284.49
718.28	283.66
718.61	282.86
718.94	282.17
719.27	281.52
719.61	280.87
719.94	280.21
720.27	279.51
720.60	278.89
720.94	278.20
721.27	277.61
721.60	277.01
721.93	276.41
722.27	275.79
722.60	275.22
722.93	274.64
723.26	274.11
723.59	273.57
723.93	273.01
724.26	272.47
724.59	271.90
724.92	271.35
725.25	270.87
725.59	270.35
725.92	269.79
726.25	269.21
726.58	268.71
726.91	268.19
727.24	267.71
727.57	267.20
727.91	266.66
728.24	266.19
728.57	265.70
728.90	265.24
729.23	264.78
729.56	264.35
729.89	263.88
730.22	263.37
730.55	262.88
730.89	262.44
731.22	261.99
731.55	261.55
731.88	261.13
732.21	260.66
732.54	260.25
732.87	259.83
733.20	259.44
733.53	259.02
733.86	258.60
734.19	258.19
734.52	257.80
734.85	257.52
735.18	257.12
735.51	256.73
735.84	256.37
736.17	255.98
736.50	255.53
736.83	255.30
737.16	255.00
737.49	254.64
737.82	254.28
738.15	253.95
738.48	253.63
738.81	253.30
739.14	253.01
739.47	252.67
739.80	252.36
740.13	252.05
740.46	251.76
740.79	251.44
741.12	251.12
741.45	250.83
741.78	250.50
742.11	250.23
742.44	249.92
742.77	249.66
743.10	249.36
743.43	249.09
743.75	248.70
744.08	248.56
744.41	248.31
744.74	248.10
745.07	247.79
745.40	247.53
745.73	247.29
746.06	247.02
746.39	246.78
746.71	246.54
747.04	246.27
747.37	246.00
747.70	245.78
748.03	245.59
748.36	245.34
748.68	245.11
749.01	244.83
749.34	244.64
749.67	244.40
750.00	244.20
750.33	244.09
750.65	243.89
750.98	243.55
751.31	243.35
751.64	243.10
751.97	242.99
752.29	242.76
752.62	242.54
752.95	242.34
753.28	242.14
753.60	241.93
753.93	241.77
754.26	241.60
754.59	241.39
754.91	241.16
755.24	240.97
755.57	240.78
755.90	240.61
756.22	240.40
756.55	240.18
756.88	239.99
757.20	239.73
757.53	239.56
757.86	239.39
758.19	239.22
758.51	239.07
758.84	238.86
759.17	238.72
759.49	238.55
759.82	238.43
760.15	238.26
760.47	238.12
760.80	237.95
761.13	237.79
761.45	237.60
761.78	237.45
762.11	237.30
762.43	237.14
762.76	236.99
763.08	236.87
763.41	236.73
763.74	236.61
764.06	236.46
764.39	236.28
764.71	236.09
765.04	235.96
765.37	235.79
765.69	235.62
766.02	235.49
766.34	235.36
766.67	235.18
767.00	235.09
767.32	235.03
767.65	234.95
767.97	234.82
768.30	234.74
768.62	234.62
768.95	234.50
769.27	234.34
769.60	234.25
769.92	234.13
770.25	234.02
770.57	233.89
770.90	233.79
771.22	233.70
771.55	233.62
771.87	233.48
772.20	233.39
772.52	233.39
772.85	233.40
773.17	233.28
773.50	233.20
773.82	233.09
774.15	232.92
774.47	232.74
774.80	232.62
775.12	232.53
775.45	232.47
775.77	232.40
776.09	232.37
776.42	232.27
776.74	232.22
777.07	232.13
777.39	232.03
777.72	231.93
778.04	231.85
778.36	231.78
778.69	231.73
779.01	231.66
779.33	231.51
779.66	231.34
779.98	231.30
780.31	231.25
780.63	231.20
780.95	231.15
781.28	231.11
781.60	231.06
781.92	230.99
782.25	230.92
782.57	230.85
782.89	230.77
783.22	230.68
783.54	230.60
783.86	230.54
784.19	230.49
784.51	230.47
784.83	230.39
785.16	230.31
785.48	230.26
785.80	230.23
786.12	230.21
786.45	230.17
786.77	230.11
787.09	230.01
