SpectraSuite Data File
++++++++++++++++++++++++++++++++++++
Date: Fri Feb 01 15:18:41 EST 2013
User: group
Dark Spectrum Present: No
Reference Spectrum Present: No
Number of Sampled Component Spectra: 1
Spectrometers: USB2E7196
Integration Time (usec): 35000 (USB2E7196)
Spectra Averaged: 100 (USB2E7196)
Boxcar Smoothing: 10 (USB2E7196)
Correct for Electrical Dark: No (USB2E7196)
Strobe/Lamp Enabled: No (USB2E7196)
Correct for Detector Non-linearity: No (USB2E7196)
Correct for Stray Light: No (USB2E7196)
Number of Pixels in Processed Spectrum: 2048
>>>>>Begin Processed Spectral Data<<<<<
339.09	0.00
339.48	215.20
339.86	216.56
340.24	218.15
340.63	219.42
341.01	221.52
341.39	221.82
341.78	223.32
342.16	225.16
342.54	224.74
342.93	213.46
343.31	224.24
343.69	224.77
344.07	225.21
344.46	225.64
344.84	226.02
345.22	226.29
345.60	226.53
345.99	226.72
346.37	226.81
346.75	226.94
347.13	227.00
347.52	227.09
347.90	227.16
348.28	227.16
348.66	227.20
349.05	227.19
349.43	227.23
349.81	227.26
350.19	227.27
350.57	227.31
350.96	227.39
351.34	227.48
351.72	227.53
352.10	227.64
352.48	227.69
352.87	227.72
353.25	227.80
353.63	227.85
354.01	227.89
354.39	227.96
354.77	228.03
355.15	228.13
355.54	228.15
355.92	228.21
356.30	228.29
356.68	228.41
357.06	228.50
357.44	228.50
357.82	228.56
358.20	228.66
358.58	228.73
358.97	228.76
359.35	228.86
359.73	228.96
360.11	228.99
360.49	229.03
360.87	229.08
361.25	229.14
361.63	229.22
362.01	229.29
362.39	229.32
362.77	229.34
363.15	229.36
363.53	229.39
363.91	229.38
364.29	229.39
364.67	229.30
365.05	229.32
365.43	229.36
365.81	229.38
366.19	229.42
366.57	229.43
366.95	229.42
367.33	229.35
367.71	229.33
368.09	229.34
368.47	229.33
368.85	229.29
369.23	229.23
369.61	229.15
369.99	229.14
370.37	229.12
370.75	229.13
371.13	229.05
371.51	228.99
371.89	228.96
372.27	228.91
372.65	228.85
373.03	228.78
373.41	228.72
373.78	228.65
374.16	228.55
374.54	228.44
374.92	228.38
375.30	228.32
375.68	228.24
376.06	228.14
376.44	228.08
376.82	228.03
377.19	227.96
377.57	227.92
377.95	227.80
378.33	227.70
378.71	227.57
379.09	227.54
379.47	227.48
379.84	227.38
380.22	227.29
380.60	227.23
380.98	227.16
381.36	227.07
381.73	227.00
382.11	226.94
382.49	226.91
382.87	226.83
383.25	226.80
383.62	226.84
384.00	226.77
384.38	226.72
384.76	226.72
385.13	226.69
385.51	226.62
385.89	226.54
386.27	226.51
386.64	226.48
387.02	226.44
387.40	226.36
387.78	226.37
388.15	226.36
388.53	226.33
388.91	226.27
389.29	226.25
389.66	226.23
390.04	226.18
390.42	226.20
390.79	226.17
391.17	226.15
391.55	226.07
391.92	226.09
392.30	226.07
392.68	226.05
393.05	226.04
393.43	226.08
393.81	226.11
394.18	226.11
394.56	226.12
394.94	226.18
395.31	226.20
395.69	226.23
396.06	226.24
396.44	226.27
396.82	226.31
397.19	226.42
397.57	226.44
397.95	226.51
398.32	226.51
398.70	226.59
399.07	226.69
399.45	226.75
399.82	226.82
400.20	226.88
400.58	226.96
400.95	227.04
401.33	227.15
401.70	227.31
402.08	227.41
402.45	227.52
402.83	227.62
403.20	227.77
403.58	227.88
403.95	228.06
404.33	228.20
404.71	228.34
405.08	228.53
405.46	228.69
405.83	228.85
406.21	229.04
406.58	229.19
406.96	229.34
407.33	229.51
407.70	229.72
408.08	230.01
408.45	230.24
408.83	230.45
409.20	230.66
409.58	230.85
409.95	231.15
410.33	231.45
410.70	231.71
411.08	232.03
411.45	232.36
411.82	232.67
412.20	233.03
412.57	233.43
412.95	233.70
413.32	234.14
413.69	234.59
414.07	235.03
414.44	235.49
414.82	235.98
415.19	236.54
415.56	237.11
415.94	237.65
416.31	238.26
416.68	238.90
417.06	239.62
417.43	240.31
417.81	241.07
418.18	241.86
418.55	242.69
418.93	243.52
419.30	244.40
419.67	245.33
420.04	246.30
420.42	247.31
420.79	248.54
421.16	249.67
421.54	250.85
421.91	252.07
422.28	253.31
422.66	254.64
423.03	255.94
423.40	257.22
423.77	258.63
424.15	260.08
424.52	261.57
424.89	263.17
425.26	264.70
425.64	266.13
426.01	267.71
426.38	269.35
426.75	271.03
427.13	272.73
427.50	274.53
427.87	276.42
428.24	278.29
428.61	280.06
428.99	282.03
429.36	284.07
429.73	286.12
430.10	288.17
430.47	290.21
430.85	292.35
431.22	294.62
431.59	297.00
431.96	299.25
432.33	301.74
432.70	304.14
433.08	306.93
433.45	309.59
433.82	312.22
434.19	315.15
434.56	317.97
434.93	320.64
435.30	323.29
435.68	326.16
436.05	329.01
436.42	331.79
436.79	334.29
437.16	337.01
437.53	339.89
437.90	342.70
438.27	345.50
438.64	348.34
439.01	350.91
439.38	353.18
439.75	355.35
440.13	357.87
440.50	360.20
440.87	362.10
441.24	364.05
441.61	366.20
441.98	367.67
442.35	369.49
442.72	371.36
443.09	373.16
443.46	374.17
443.83	374.78
444.20	375.26
444.57	376.10
444.94	376.38
445.31	376.66
445.68	377.02
446.05	377.02
446.42	376.61
446.79	376.24
447.16	375.75
447.53	375.42
447.90	374.26
448.27	373.07
448.64	371.50
449.01	370.36
449.37	368.39
449.74	366.49
450.11	364.23
450.48	361.75
450.85	359.22
451.22	357.06
451.59	355.00
451.96	353.08
452.33	350.47
452.70	348.11
453.07	345.31
453.43	342.41
453.80	339.71
454.17	337.01
454.54	334.44
454.91	331.74
455.28	329.08
455.65	326.58
456.02	324.16
456.38	322.01
456.75	319.34
457.12	317.11
457.49	314.87
457.86	312.68
458.23	310.85
458.59	308.81
458.96	306.75
459.33	304.91
459.70	303.07
460.07	301.58
460.43	299.85
460.80	298.22
461.17	296.79
461.54	295.24
461.91	293.85
462.27	292.43
462.64	291.17
463.01	289.81
463.38	288.49
463.74	287.08
464.11	285.92
464.48	284.88
464.85	283.73
465.21	282.85
465.58	281.97
465.95	280.85
466.32	279.92
466.68	278.99
467.05	278.05
467.42	277.12
467.78	276.20
468.15	275.36
468.52	274.71
468.88	273.83
469.25	273.09
469.62	272.43
469.98	271.72
470.35	271.10
470.72	270.47
471.08	269.82
471.45	269.30
471.82	268.70
472.18	268.06
472.55	267.64
472.92	267.13
473.28	266.62
473.65	266.16
474.02	265.72
474.38	265.34
474.75	264.99
475.11	264.62
475.48	264.28
475.85	264.04
476.21	263.77
476.58	263.60
476.94	263.45
477.31	263.28
477.67	263.15
478.04	263.02
478.41	262.95
478.77	262.96
479.14	262.86
479.50	262.87
479.87	262.94
480.23	262.99
480.60	263.09
480.96	263.17
481.33	263.37
481.69	263.54
482.06	263.71
482.42	263.94
482.79	264.17
483.15	264.51
483.52	264.86
483.88	265.23
484.25	265.56
484.61	265.97
484.98	266.38
485.34	266.89
485.71	267.43
486.07	268.02
486.44	268.57
486.80	269.28
487.17	270.00
487.53	270.85
487.90	271.69
488.26	272.62
488.62	273.60
488.99	274.56
489.35	275.58
489.72	276.75
490.08	277.95
490.44	279.20
490.81	280.54
491.17	281.90
491.54	283.36
491.90	284.92
492.26	286.56
492.63	288.30
492.99	290.08
493.36	291.96
493.72	294.00
494.08	296.09
494.45	298.33
494.81	300.68
495.17	303.07
495.54	305.62
495.90	308.27
496.26	311.09
496.63	314.05
496.99	317.17
497.35	320.37
497.72	323.76
498.08	327.26
498.44	330.88
498.80	334.76
499.17	338.80
499.53	342.93
499.89	347.28
500.26	351.80
500.62	356.52
500.98	361.55
501.34	366.63
501.71	372.02
502.07	377.46
502.43	383.13
502.79	388.93
503.16	394.95
503.52	401.18
503.88	407.54
504.24	414.18
504.60	421.07
504.97	428.25
505.33	435.57
505.69	443.33
506.05	451.15
506.41	459.13
506.78	467.28
507.14	475.76
507.50	484.52
507.86	493.52
508.22	502.68
508.59	511.89
508.95	521.48
509.31	531.21
509.67	541.38
510.03	551.63
510.39	562.22
510.75	573.08
511.12	584.06
511.48	595.42
511.84	606.86
512.20	618.44
512.56	630.34
512.92	642.44
513.28	654.67
513.64	667.14
514.00	679.82
514.37	692.73
514.73	705.83
515.09	718.79
515.45	732.10
515.81	745.68
516.17	759.65
516.53	773.81
516.89	788.06
517.25	802.16
517.61	816.64
517.97	830.99
518.33	845.56
518.69	860.36
519.05	875.43
519.41	890.64
519.77	906.16
520.13	921.76
520.49	937.25
520.85	952.87
521.21	968.58
521.57	984.85
521.93	1000.68
522.29	1017.06
522.65	1033.34
523.01	1049.60
523.37	1065.68
523.73	1081.91
524.09	1098.13
524.45	1114.58
524.81	1131.32
525.17	1148.27
525.53	1165.42
525.89	1182.23
526.25	1198.99
526.61	1215.27
526.97	1232.12
527.33	1248.67
527.68	1265.30
528.04	1281.82
528.40	1298.46
528.76	1315.69
529.12	1332.32
529.48	1349.18
529.84	1365.37
530.20	1382.22
530.56	1399.40
530.91	1416.88
531.27	1433.80
531.63	1450.29
531.99	1466.84
532.35	1482.88
532.71	1498.73
533.07	1515.03
533.42	1531.04
533.78	1547.18
534.14	1563.59
534.50	1579.03
534.86	1595.00
535.21	1610.13
535.57	1626.18
535.93	1641.72
536.29	1656.52
536.65	1671.76
537.00	1686.77
537.36	1702.07
537.72	1716.62
538.08	1730.96
538.44	1744.98
538.79	1758.83
539.15	1772.73
539.51	1786.50
539.87	1800.96
540.22	1814.72
540.58	1828.50
540.94	1842.03
541.29	1855.19
541.65	1868.12
542.01	1881.24
542.37	1893.59
542.72	1906.13
543.08	1917.94
543.44	1930.43
543.79	1941.73
544.15	1952.70
544.51	1964.22
544.87	1975.31
545.22	1986.23
545.58	1996.65
545.94	2006.27
546.29	2016.18
546.65	2025.87
547.01	2035.18
547.36	2043.89
547.72	2052.40
548.07	2060.30
548.43	2068.50
548.79	2076.59
549.14	2084.01
549.50	2091.61
549.86	2099.27
550.21	2106.65
550.57	2113.88
550.92	2120.41
551.28	2127.60
551.64	2134.62
551.99	2141.15
552.35	2147.35
552.70	2153.49
553.06	2159.44
553.41	2165.87
553.77	2171.86
554.13	2178.01
554.48	2184.19
554.84	2189.46
555.19	2194.88
555.55	2200.05
555.90	2204.46
556.26	2209.35
556.61	2213.98
556.97	2218.19
557.32	2222.36
557.68	2226.47
558.03	2230.70
558.39	2234.43
558.74	2238.94
559.10	2242.81
559.45	2246.49
559.81	2250.76
560.16	2254.52
560.52	2257.71
560.87	2261.20
561.23	2263.79
561.58	2266.74
561.94	2269.24
562.29	2271.72
562.64	2274.30
563.00	2276.95
563.35	2280.46
563.71	2283.45
564.06	2286.73
564.42	2289.55
564.77	2292.07
565.12	2294.27
565.48	2296.12
565.83	2297.98
566.19	2299.26
566.54	2300.20
566.89	2301.38
567.25	2301.75
567.60	2302.99
567.96	2304.60
568.31	2305.32
568.66	2306.37
569.02	2306.86
569.37	2307.09
569.72	2307.97
570.08	2308.08
570.43	2307.98
570.78	2307.11
571.14	2305.35
571.49	2304.02
571.84	2303.55
572.20	2302.14
572.55	2301.06
572.90	2299.50
573.26	2298.03
573.61	2296.22
573.96	2294.22
574.31	2291.12
574.67	2288.01
575.02	2284.20
575.37	2280.71
575.72	2276.77
576.08	2273.57
576.43	2270.15
576.78	2266.40
577.13	2263.12
577.49	2260.00
577.84	2256.22
578.19	2252.59
578.54	2248.94
578.90	2244.58
579.25	2239.05
579.60	2234.10
579.95	2228.95
580.30	2223.91
580.66	2218.53
581.01	2213.52
581.36	2208.55
581.71	2204.21
582.06	2199.75
582.42	2195.30
582.77	2190.08
583.12	2185.41
583.47	2180.48
583.82	2175.34
584.17	2169.99
584.53	2164.34
584.88	2158.49
585.23	2152.86
585.58	2147.26
585.93	2141.76
586.28	2136.87
586.63	2131.62
586.98	2126.35
587.34	2121.67
587.69	2116.72
588.04	2111.52
588.39	2105.72
588.74	2099.26
589.09	2093.06
589.44	2086.24
589.79	2080.16
590.14	2074.44
590.49	2067.78
590.84	2061.27
591.19	2055.15
591.54	2048.70
591.89	2041.23
592.25	2034.44
592.60	2027.13
592.95	2019.38
593.30	2011.95
593.65	2004.28
594.00	1997.13
594.35	1990.04
594.70	1981.97
595.05	1974.58
595.40	1967.10
595.75	1959.58
596.10	1953.24
596.45	1946.42
596.80	1940.15
597.15	1933.33
597.50	1926.05
597.85	1919.69
598.19	1912.89
598.54	1905.83
598.89	1899.09
599.24	1893.20
599.59	1886.35
599.94	1880.04
600.29	1873.77
600.64	1867.08
600.99	1859.57
601.34	1852.74
601.69	1845.56
602.04	1838.51
602.39	1831.10
602.74	1824.23
603.08	1817.40
603.43	1810.60
603.78	1803.28
604.13	1795.99
604.48	1788.83
604.83	1782.07
605.18	1774.75
605.53	1766.80
605.87	1758.72
606.22	1751.54
606.57	1743.59
606.92	1736.33
607.27	1729.09
607.62	1722.04
607.96	1714.89
608.31	1708.10
608.66	1700.32
609.01	1692.81
609.36	1685.24
609.70	1677.19
610.05	1669.22
610.40	1661.48
610.75	1653.21
611.10	1645.49
611.44	1637.20
611.79	1629.13
612.14	1620.33
612.49	1611.44
612.83	1603.00
613.18	1594.87
613.53	1586.64
613.88	1578.10
614.22	1569.75
614.57	1561.20
614.92	1553.14
615.27	1545.47
615.61	1537.26
615.96	1529.36
616.31	1521.79
616.65	1514.47
617.00	1506.94
617.35	1499.20
617.70	1490.88
618.04	1482.36
618.39	1474.23
618.74	1466.49
619.08	1458.21
619.43	1450.74
619.78	1443.69
620.12	1436.59
620.47	1429.08
620.82	1420.94
621.16	1413.59
621.51	1405.99
621.85	1398.24
622.20	1389.80
622.55	1381.53
622.89	1373.69
623.24	1366.05
623.59	1358.66
623.93	1351.08
624.28	1343.82
624.62	1336.26
624.97	1329.21
625.32	1322.55
625.66	1315.41
626.01	1308.23
626.35	1300.73
626.70	1292.90
627.04	1285.17
627.39	1277.35
627.73	1269.92
628.08	1262.97
628.43	1255.53
628.77	1248.15
629.12	1240.71
629.46	1233.53
629.81	1226.07
630.15	1218.88
630.50	1211.48
630.84	1203.25
631.19	1195.35
631.53	1187.85
631.88	1180.31
632.22	1172.63
632.57	1165.33
632.91	1157.86
633.26	1150.46
633.60	1143.25
633.95	1136.24
634.29	1129.28
634.64	1122.69
634.98	1115.34
635.32	1108.24
635.67	1101.71
636.01	1095.14
636.36	1088.27
636.70	1081.88
637.05	1075.35
637.39	1068.96
637.73	1062.51
638.08	1056.73
638.42	1050.76
638.77	1044.41
639.11	1037.84
639.45	1031.50
639.80	1024.81
640.14	1018.40
640.49	1011.94
640.83	1005.59
641.17	999.29
641.52	992.96
641.86	986.50
642.20	980.71
642.55	974.46
642.89	967.97
643.23	961.51
643.58	955.81
643.92	949.48
644.26	943.30
644.61	937.25
644.95	931.25
645.29	924.55
645.64	917.81
645.98	911.45
646.32	905.71
646.66	899.67
647.01	893.90
647.35	888.27
647.69	882.50
648.04	877.00
648.38	871.23
648.72	865.24
649.06	859.17
649.41	853.29
649.75	847.31
650.09	841.36
650.43	835.55
650.78	829.36
651.12	823.41
651.46	817.68
651.80	811.86
652.14	806.47
652.49	801.16
652.83	796.08
653.17	790.33
653.51	784.55
653.85	779.12
654.20	773.40
654.54	767.37
654.88	761.61
655.22	755.68
655.56	750.05
655.90	744.62
656.25	739.39
656.59	733.97
656.93	728.92
657.27	723.79
657.61	718.31
657.95	713.30
658.29	708.22
658.64	703.09
658.98	697.85
659.32	692.37
659.66	687.15
660.00	681.72
660.34	676.78
660.68	671.90
661.02	666.88
661.36	662.18
661.70	657.68
662.05	653.26
662.39	648.93
662.73	644.43
663.07	640.03
663.41	635.58
663.75	631.13
664.09	626.47
664.43	622.10
664.77	617.99
665.11	613.71
665.45	609.64
665.79	605.53
666.13	601.37
666.47	597.29
666.81	593.16
667.15	589.08
667.49	585.18
667.83	581.35
668.17	577.43
668.51	573.36
668.85	569.34
669.19	565.57
669.53	561.70
669.87	557.81
670.21	554.10
670.55	550.50
670.89	547.09
671.23	543.75
671.57	540.26
671.91	536.73
672.25	533.28
672.58	529.79
672.92	526.41
673.26	523.25
673.60	520.10
673.94	517.01
674.28	514.17
674.62	511.28
674.96	508.17
675.30	505.31
675.64	502.40
675.97	499.64
676.31	496.71
676.65	493.76
676.99	491.06
677.33	488.25
677.67	485.42
678.01	482.36
678.34	479.39
678.68	476.49
679.02	473.65
679.36	470.85
679.70	468.14
680.04	465.34
680.37	462.47
680.71	459.68
681.05	457.06
681.39	454.31
681.73	451.72
682.06	449.27
682.40	446.72
682.74	444.26
683.08	441.76
683.42	439.21
683.75	436.79
684.09	434.31
684.43	431.85
684.77	429.34
685.10	427.09
685.44	424.78
685.78	422.58
686.12	420.39
686.45	418.17
686.79	415.88
687.13	413.69
687.46	411.57
687.80	409.47
688.14	407.26
688.48	405.21
688.81	402.92
689.15	400.78
689.49	398.65
689.82	396.56
690.16	394.46
690.50	392.52
690.83	390.59
691.17	388.60
691.51	386.73
691.84	384.95
692.18	382.97
692.52	380.97
692.85	379.01
693.19	377.12
693.52	375.27
693.86	373.45
694.20	371.71
694.53	369.92
694.87	368.03
695.21	366.25
695.54	364.46
695.88	362.75
696.21	361.01
696.55	359.31
696.88	357.61
697.22	356.00
697.56	354.37
697.89	352.71
698.23	351.08
698.56	349.44
698.90	347.83
699.23	346.13
699.57	344.58
699.90	343.04
700.24	341.47
700.58	339.91
700.91	338.40
701.25	336.94
701.58	335.60
701.92	334.25
702.25	332.85
702.59	331.44
702.92	330.11
703.26	328.80
703.59	327.48
703.93	326.30
704.26	325.01
704.60	323.71
704.93	322.45
705.26	321.18
705.60	320.02
705.93	318.89
706.27	317.88
706.60	316.85
706.94	315.76
707.27	314.65
707.61	313.64
707.94	312.61
708.27	311.53
708.61	310.42
708.94	309.40
709.28	308.44
709.61	307.54
709.94	306.63
710.28	305.59
710.61	304.62
710.95	303.54
711.28	302.58
711.61	301.67
711.95	300.74
712.28	299.83
712.61	298.83
712.95	297.88
713.28	296.98
713.61	296.09
713.95	295.19
714.28	294.36
714.61	293.46
714.95	292.63
715.28	291.78
715.61	290.90
715.95	290.07
716.28	289.20
716.61	288.36
716.95	287.50
717.28	286.78
717.61	286.02
717.94	285.29
718.28	284.53
718.61	283.79
718.94	283.09
719.27	282.44
719.61	281.80
719.94	281.13
720.27	280.43
720.60	279.76
720.94	279.16
721.27	278.59
721.60	278.07
721.93	277.48
722.27	276.93
722.60	276.42
722.93	275.84
723.26	275.34
723.59	274.74
723.93	274.22
724.26	273.66
724.59	273.13
724.92	272.63
725.25	272.14
725.59	271.61
725.92	271.12
726.25	270.59
726.58	270.14
726.91	269.67
727.24	269.22
727.57	268.76
727.91	268.25
728.24	267.77
728.57	267.29
728.90	266.86
729.23	266.38
729.56	265.96
729.89	265.49
730.22	264.99
730.55	264.54
730.89	264.10
731.22	263.67
731.55	263.22
731.88	262.77
732.21	262.34
732.54	261.90
732.87	261.46
733.20	261.10
733.53	260.67
733.86	260.29
734.19	259.88
734.52	259.49
734.85	259.20
735.18	258.80
735.51	258.41
735.84	258.01
736.17	257.66
736.50	257.22
736.83	257.00
737.16	256.68
737.49	256.36
737.82	256.00
738.15	255.72
738.48	255.39
738.81	255.07
739.14	254.73
739.47	254.42
739.80	254.11
740.13	253.78
740.46	253.48
740.79	253.15
741.12	252.89
741.45	252.56
741.78	252.20
742.11	251.92
742.44	251.59
742.77	251.28
743.10	250.99
743.43	250.71
743.75	250.31
744.08	250.15
744.41	249.88
744.74	249.61
745.07	249.26
745.40	249.01
745.73	248.77
746.06	248.50
746.39	248.27
746.71	247.99
747.04	247.69
747.37	247.42
747.70	247.19
748.03	246.90
748.36	246.68
748.68	246.44
749.01	246.17
749.34	245.95
749.67	245.75
750.00	245.53
750.33	245.36
750.65	245.14
750.98	244.80
751.31	244.57
751.64	244.34
751.97	244.21
752.29	243.96
752.62	243.72
752.95	243.52
753.28	243.27
753.60	243.07
753.93	242.94
754.26	242.73
754.59	242.47
754.91	242.27
755.24	242.08
755.57	241.93
755.90	241.77
756.22	241.57
756.55	241.34
756.88	241.12
757.20	240.90
757.53	240.75
757.86	240.62
758.19	240.46
758.51	240.34
758.84	240.15
759.17	240.01
759.49	239.86
759.82	239.77
760.15	239.67
760.47	239.54
760.80	239.38
761.13	239.29
761.45	239.15
761.78	239.04
762.11	238.91
762.43	238.74
762.76	238.58
763.08	238.49
763.41	238.38
763.74	238.26
764.06	238.14
764.39	237.98
764.71	237.82
765.04	237.67
765.37	237.54
765.69	237.41
766.02	237.29
766.34	237.17
766.67	237.02
767.00	236.89
767.32	236.81
767.65	236.72
767.97	236.60
768.30	236.50
768.62	236.37
768.95	236.19
769.27	236.08
769.60	235.98
769.92	235.82
770.25	235.70
770.57	235.60
770.90	235.49
771.22	235.38
771.55	235.26
771.87	235.19
772.20	235.09
772.52	235.06
772.85	235.06
773.17	234.93
773.50	234.79
773.82	234.70
774.15	234.57
774.47	234.42
774.80	234.29
775.12	234.23
775.45	234.16
775.77	234.13
776.09	234.08
776.42	234.00
776.74	233.94
777.07	233.90
777.39	233.80
777.72	233.72
778.04	233.67
778.36	233.59
778.69	233.50
779.01	233.41
779.33	233.23
779.66	233.06
779.98	232.99
780.31	232.92
780.63	232.86
780.95	232.80
781.28	232.75
781.60	232.71
781.92	232.62
782.25	232.54
782.57	232.45
782.89	232.38
783.22	232.31
783.54	232.22
783.86	232.14
784.19	232.11
784.51	232.06
784.83	232.01
785.16	231.95
785.48	231.93
785.80	231.92
786.12	231.90
786.45	231.84
786.77	231.81
787.09	231.75
