SpectraSuite Data File
++++++++++++++++++++++++++++++++++++
Date: Fri Feb 01 18:10:54 EST 2013
User: group
Dark Spectrum Present: No
Reference Spectrum Present: No
Number of Sampled Component Spectra: 1
Spectrometers: USB2E7196
Integration Time (usec): 35000 (USB2E7196)
Spectra Averaged: 100 (USB2E7196)
Boxcar Smoothing: 10 (USB2E7196)
Correct for Electrical Dark: No (USB2E7196)
Strobe/Lamp Enabled: No (USB2E7196)
Correct for Detector Non-linearity: No (USB2E7196)
Correct for Stray Light: No (USB2E7196)
Number of Pixels in Processed Spectrum: 2048
>>>>>Begin Processed Spectral Data<<<<<
339.09	0.00
339.48	213.15
339.86	214.31
340.24	216.38
340.63	217.46
341.01	219.73
341.39	220.41
341.78	221.19
342.16	222.94
342.54	223.44
342.93	211.63
343.31	222.32
343.69	222.86
344.07	223.33
344.46	223.74
344.84	224.13
345.22	224.39
345.60	224.64
345.99	224.85
346.37	224.97
346.75	225.08
347.13	225.13
347.52	225.22
347.90	225.33
348.28	225.37
348.66	225.42
349.05	225.45
349.43	225.49
349.81	225.55
350.19	225.62
350.57	225.68
350.96	225.73
351.34	225.84
351.72	225.97
352.10	226.07
352.48	226.16
352.87	226.21
353.25	226.32
353.63	226.36
354.01	226.41
354.39	226.45
354.77	226.49
355.15	226.59
355.54	226.60
355.92	226.61
356.30	226.69
356.68	226.82
357.06	226.90
357.44	226.98
357.82	227.04
358.20	227.08
358.58	227.13
358.97	227.21
359.35	227.25
359.73	227.27
360.11	227.33
360.49	227.37
360.87	227.39
361.25	227.42
361.63	227.49
362.01	227.57
362.39	227.62
362.77	227.69
363.15	227.70
363.53	227.78
363.91	227.79
364.29	227.78
364.67	227.69
365.05	227.72
365.43	227.77
365.81	227.77
366.19	227.82
366.57	227.86
366.95	227.87
367.33	227.87
367.71	227.88
368.09	227.90
368.47	227.88
368.85	227.88
369.23	227.88
369.61	227.84
369.99	227.81
370.37	227.82
370.75	227.83
371.13	227.81
371.51	227.73
371.89	227.72
372.27	227.68
372.65	227.64
373.03	227.57
373.41	227.49
373.78	227.45
374.16	227.36
374.54	227.29
374.92	227.21
375.30	227.14
375.68	227.05
376.06	227.00
376.44	226.94
376.82	226.86
377.19	226.76
377.57	226.67
377.95	226.59
378.33	226.50
378.71	226.38
379.09	226.32
379.47	226.28
379.84	226.19
380.22	226.15
380.60	226.03
380.98	225.97
381.36	225.88
381.73	225.80
382.11	225.76
382.49	225.70
382.87	225.62
383.25	225.57
383.62	225.59
384.00	225.51
384.38	225.48
384.76	225.48
385.13	225.51
385.51	225.45
385.89	225.42
386.27	225.40
386.64	225.38
387.02	225.34
387.40	225.28
387.78	225.25
388.15	225.20
388.53	225.20
388.91	225.18
389.29	225.17
389.66	225.14
390.04	225.13
390.42	225.13
390.79	225.13
391.17	225.12
391.55	225.04
391.92	225.03
392.30	225.04
392.68	225.02
393.05	225.01
393.43	225.05
393.81	225.02
394.18	225.00
394.56	225.01
394.94	225.07
395.31	225.11
395.69	225.15
396.06	225.18
396.44	225.23
396.82	225.24
397.19	225.30
397.57	225.34
397.95	225.39
398.32	225.44
398.70	225.52
399.07	225.60
399.45	225.65
399.82	225.70
400.20	225.73
400.58	225.80
400.95	225.84
401.33	225.93
401.70	226.11
402.08	226.17
402.45	226.28
402.83	226.39
403.20	226.52
403.58	226.67
403.95	226.82
404.33	226.94
404.71	227.10
405.08	227.32
405.46	227.49
405.83	227.66
406.21	227.82
406.58	227.99
406.96	228.19
407.33	228.44
407.70	228.70
408.08	229.04
408.45	229.30
408.83	229.55
409.20	229.83
409.58	230.07
409.95	230.41
410.33	230.74
410.70	231.04
411.08	231.41
411.45	231.77
411.82	232.18
412.20	232.65
412.57	233.23
412.95	233.67
413.32	234.20
413.69	234.74
414.07	235.29
414.44	235.93
414.82	236.55
415.19	237.28
415.56	238.03
415.94	238.77
416.31	239.64
416.68	240.52
417.06	241.49
417.43	242.47
417.81	243.57
418.18	244.68
418.55	245.84
418.93	247.08
419.30	248.30
419.67	249.58
420.04	250.89
420.42	252.24
420.79	253.87
421.16	255.52
421.54	257.18
421.91	258.91
422.28	260.65
422.66	262.49
423.03	264.29
423.40	266.10
423.77	268.12
424.15	270.15
424.52	272.23
424.89	274.48
425.26	276.65
425.64	278.62
426.01	280.86
426.38	283.18
426.75	285.51
427.13	287.95
427.50	290.51
427.87	293.18
428.24	295.79
428.61	298.24
428.99	300.91
429.36	303.87
429.73	306.79
430.10	309.64
430.47	312.58
430.85	315.58
431.22	318.80
431.59	322.08
431.96	325.24
432.33	328.75
432.70	332.09
433.08	335.99
433.45	339.72
433.82	343.39
434.19	347.46
434.56	351.36
434.93	355.12
435.30	358.78
435.68	362.85
436.05	366.86
436.42	370.79
436.79	374.34
437.16	378.17
437.53	382.12
437.90	386.06
438.27	389.92
438.64	393.90
439.01	397.50
439.38	400.72
439.75	403.75
440.13	407.25
440.50	410.55
440.87	413.20
441.24	415.96
441.61	419.01
441.98	421.12
442.35	423.70
442.72	426.29
443.09	428.86
443.46	430.25
443.83	431.07
444.20	431.81
444.57	433.03
444.94	433.43
445.31	433.92
445.68	434.38
446.05	434.48
446.42	433.92
446.79	433.37
447.16	432.73
447.53	432.29
447.90	430.66
448.27	429.03
448.64	426.80
449.01	425.19
449.37	422.38
449.74	419.73
450.11	416.55
450.48	413.08
450.85	409.54
451.22	406.49
451.59	403.64
451.96	400.90
452.33	397.19
452.70	393.83
453.07	389.83
453.43	385.77
453.80	381.90
454.17	378.20
454.54	374.61
454.91	370.75
455.28	366.95
455.65	363.46
456.02	359.94
456.38	356.96
456.75	353.19
457.12	350.01
457.49	346.86
457.86	343.84
458.23	341.21
458.59	338.32
458.96	335.37
459.33	332.81
459.70	330.16
460.07	328.01
460.43	325.60
460.80	323.34
461.17	321.32
461.54	319.15
461.91	317.06
462.27	314.95
462.64	313.18
463.01	311.30
463.38	309.46
463.74	307.58
464.11	305.85
464.48	304.44
464.85	302.84
465.21	301.56
465.58	300.23
465.95	298.69
466.32	297.41
466.68	296.15
467.05	294.81
467.42	293.53
467.78	292.26
468.15	291.02
468.52	290.06
468.88	288.83
469.25	287.77
469.62	286.88
469.98	286.01
470.35	285.12
470.72	284.26
471.08	283.32
471.45	282.54
471.82	281.75
472.18	280.85
472.55	280.25
472.92	279.52
473.28	278.83
473.65	278.16
474.02	277.50
474.38	276.95
474.75	276.48
475.11	275.96
475.48	275.53
475.85	275.15
476.21	274.78
476.58	274.49
476.94	274.18
477.31	273.87
477.67	273.56
478.04	273.32
478.41	273.15
478.77	273.09
479.14	272.94
479.50	272.88
479.87	272.91
480.23	272.95
480.60	272.96
480.96	272.96
481.33	273.11
481.69	273.23
482.06	273.35
482.42	273.45
482.79	273.68
483.15	273.96
483.52	274.32
483.88	274.61
484.25	274.95
484.61	275.39
484.98	275.82
485.34	276.38
485.71	276.95
486.07	277.59
486.44	278.14
486.80	278.86
487.17	279.60
487.53	280.43
487.90	281.27
488.26	282.22
488.62	283.28
488.99	284.27
489.35	285.33
489.72	286.51
490.08	287.78
490.44	289.08
490.81	290.50
491.17	291.89
491.54	293.50
491.90	295.13
492.26	296.85
492.63	298.71
492.99	300.59
493.36	302.65
493.72	304.83
494.08	307.10
494.45	309.50
494.81	312.04
495.17	314.64
495.54	317.37
495.90	320.25
496.26	323.20
496.63	326.40
496.99	329.77
497.35	333.28
497.72	336.97
498.08	340.74
498.44	344.64
498.80	348.88
499.17	353.17
499.53	357.71
499.89	362.41
500.26	367.20
500.62	372.23
500.98	377.59
501.34	382.99
501.71	388.68
502.07	394.49
502.43	400.51
502.79	406.80
503.16	413.31
503.52	420.04
503.88	426.93
504.24	434.06
504.60	441.49
504.97	449.14
505.33	456.97
505.69	465.35
506.05	473.77
506.41	482.26
506.78	491.01
507.14	500.11
507.50	509.53
507.86	519.30
508.22	529.26
508.59	539.14
508.95	549.45
509.31	560.15
509.67	571.14
510.03	582.30
510.39	593.71
510.75	605.44
511.12	617.31
511.48	629.60
511.84	642.10
512.20	654.63
512.56	667.66
512.92	680.91
513.28	694.34
513.64	708.00
514.00	721.88
514.37	736.09
514.73	750.47
515.09	764.73
515.45	779.30
515.81	794.16
516.17	809.53
516.53	825.14
516.89	840.70
517.25	856.24
517.61	872.12
517.97	888.04
518.33	903.98
518.69	920.33
519.05	936.86
519.41	953.58
519.77	970.73
520.13	987.83
520.49	1004.87
520.85	1021.83
521.21	1039.14
521.57	1057.15
521.93	1074.68
522.29	1092.76
522.65	1110.88
523.01	1128.87
523.37	1146.73
523.73	1164.70
524.09	1182.64
524.45	1200.86
524.81	1219.42
525.17	1238.26
525.53	1257.06
525.89	1275.91
526.25	1294.78
526.61	1313.09
526.97	1331.95
527.33	1350.59
527.68	1369.15
528.04	1387.76
528.40	1406.54
528.76	1425.87
529.12	1444.66
529.48	1463.80
529.84	1481.97
530.20	1500.77
530.56	1520.13
530.91	1539.97
531.27	1559.19
531.63	1577.93
531.99	1596.91
532.35	1615.51
532.71	1633.69
533.07	1652.50
533.42	1670.92
533.78	1689.45
534.14	1708.33
534.50	1725.98
534.86	1744.33
535.21	1762.08
535.57	1780.48
535.93	1798.51
536.29	1815.68
536.65	1833.38
537.00	1850.61
537.36	1868.53
537.72	1885.62
538.08	1902.67
538.44	1918.87
538.79	1935.11
539.15	1951.17
539.51	1967.39
539.87	1984.17
540.22	2000.59
540.58	2016.88
540.94	2032.75
541.29	2048.01
541.65	2063.34
542.01	2079.40
542.37	2094.27
542.72	2109.26
543.08	2123.76
543.44	2138.77
543.79	2152.63
544.15	2166.02
544.51	2180.15
544.87	2193.67
545.22	2207.03
545.58	2219.71
545.94	2232.03
546.29	2244.56
546.65	2257.16
547.01	2268.92
547.36	2280.08
547.72	2290.87
548.07	2301.23
548.43	2311.70
548.79	2322.13
549.14	2331.97
549.50	2341.39
549.86	2351.31
550.21	2360.92
550.57	2370.31
550.92	2379.30
551.28	2388.57
551.64	2397.85
551.99	2406.65
552.35	2415.01
552.70	2423.41
553.06	2431.58
553.41	2440.05
553.77	2447.94
554.13	2456.09
554.48	2464.41
554.84	2472.00
555.19	2479.19
555.55	2486.27
555.90	2492.79
556.26	2499.84
556.61	2506.31
556.97	2512.69
557.32	2518.69
557.68	2524.56
558.03	2530.72
558.39	2536.05
558.74	2542.58
559.10	2548.19
559.45	2553.60
559.81	2559.54
560.16	2564.88
560.52	2569.64
560.87	2574.75
561.23	2578.97
561.58	2583.37
561.94	2587.24
562.29	2590.78
562.64	2595.05
563.00	2599.14
563.35	2604.07
563.71	2608.59
564.06	2613.19
564.42	2617.63
564.77	2621.65
565.12	2625.46
565.48	2628.74
565.83	2631.85
566.19	2634.48
566.54	2636.52
566.89	2638.75
567.25	2640.51
567.60	2642.96
567.96	2645.93
568.31	2647.88
568.66	2650.21
569.02	2651.92
569.37	2653.26
569.72	2655.36
570.08	2656.45
570.43	2657.24
570.78	2657.53
571.14	2656.58
571.49	2655.72
571.84	2655.85
572.20	2655.40
572.55	2654.95
572.90	2653.57
573.26	2652.76
573.61	2651.28
573.96	2650.06
574.31	2647.35
574.67	2644.64
575.02	2641.10
575.37	2637.74
575.72	2633.95
576.08	2630.50
576.43	2626.96
576.78	2623.38
577.13	2620.06
577.49	2616.70
577.84	2613.38
578.19	2609.37
578.54	2605.63
578.90	2601.65
579.25	2595.64
579.60	2590.28
579.95	2584.88
580.30	2579.68
580.66	2574.04
581.01	2568.67
581.36	2563.33
581.71	2558.88
582.06	2554.21
582.42	2549.64
582.77	2543.96
583.12	2539.02
583.47	2534.29
583.82	2529.05
584.17	2523.21
584.53	2517.14
584.88	2511.07
585.23	2504.62
585.58	2498.62
585.93	2492.56
586.28	2487.04
586.63	2481.60
586.98	2475.76
587.34	2470.55
587.69	2464.84
588.04	2459.00
588.39	2452.74
588.74	2445.34
589.09	2438.36
589.44	2430.45
589.79	2423.22
590.14	2416.78
590.49	2409.12
590.84	2401.38
591.19	2394.41
591.54	2386.97
591.89	2378.64
592.25	2370.94
592.60	2362.65
592.95	2354.08
593.30	2345.67
593.65	2336.82
594.00	2328.43
594.35	2320.10
594.70	2310.68
595.05	2302.62
595.40	2294.09
595.75	2285.29
596.10	2278.06
596.45	2270.17
596.80	2263.02
597.15	2255.56
597.50	2247.52
597.85	2240.00
598.19	2232.51
598.54	2224.45
598.89	2216.67
599.24	2209.71
599.59	2202.05
599.94	2194.40
600.29	2186.79
600.64	2178.86
600.99	2170.38
601.34	2162.45
601.69	2154.21
602.04	2146.30
602.39	2137.60
602.74	2129.52
603.08	2121.56
603.43	2113.55
603.78	2105.03
604.13	2096.44
604.48	2087.91
604.83	2079.64
605.18	2071.57
605.53	2062.07
605.87	2052.33
606.22	2043.61
606.57	2034.04
606.92	2025.08
607.27	2016.76
607.62	2008.55
607.96	1999.99
608.31	1992.20
608.66	1983.14
609.01	1974.20
609.36	1965.14
609.70	1955.61
610.05	1946.09
610.40	1936.95
610.75	1927.13
611.10	1917.84
611.44	1907.68
611.79	1897.89
612.14	1887.44
612.49	1876.30
612.83	1866.30
613.18	1856.51
613.53	1846.90
613.88	1836.70
614.22	1826.77
614.57	1816.36
614.92	1806.77
615.27	1797.91
615.61	1787.91
615.96	1778.21
616.31	1768.99
616.65	1760.00
617.00	1750.86
617.35	1741.50
617.70	1731.50
618.04	1721.28
618.39	1711.36
618.74	1702.37
619.08	1692.37
619.43	1683.25
619.78	1674.93
620.12	1666.40
620.47	1657.38
620.82	1647.47
621.16	1638.59
621.51	1629.37
621.85	1620.23
622.20	1609.90
622.55	1599.58
622.89	1589.99
623.24	1580.75
623.59	1571.80
623.93	1562.70
624.28	1553.98
624.62	1545.10
624.97	1536.40
625.32	1528.06
625.66	1519.57
626.01	1510.99
626.35	1502.24
626.70	1492.87
627.04	1483.60
627.39	1474.01
627.73	1465.10
628.08	1456.86
628.43	1448.14
628.77	1439.40
629.12	1430.27
629.46	1421.58
629.81	1412.66
630.15	1403.91
630.50	1395.11
630.84	1385.39
631.19	1375.75
631.53	1366.64
631.88	1357.39
632.22	1348.34
632.57	1339.51
632.91	1330.54
633.26	1321.62
633.60	1312.64
633.95	1304.01
634.29	1295.45
634.64	1287.41
634.98	1278.63
635.32	1270.04
635.67	1262.15
636.01	1254.12
636.36	1245.96
636.70	1238.26
637.05	1230.44
637.39	1222.74
637.73	1214.86
638.08	1207.71
638.42	1200.64
638.77	1193.06
639.11	1185.42
639.45	1177.70
639.80	1169.88
640.14	1162.32
640.49	1154.61
640.83	1147.16
641.17	1139.98
641.52	1132.59
641.86	1124.90
642.20	1118.07
642.55	1110.44
642.89	1102.67
643.23	1094.90
643.58	1088.16
643.92	1080.83
644.26	1073.73
644.61	1066.49
644.95	1059.49
645.29	1051.84
645.64	1043.93
645.98	1036.31
646.32	1029.14
646.66	1022.05
647.01	1015.22
647.35	1008.35
647.69	1001.29
648.04	994.69
648.38	987.76
648.72	980.64
649.06	973.54
649.41	966.42
649.75	959.53
650.09	952.57
650.43	945.68
650.78	938.38
651.12	931.26
651.46	924.39
651.80	917.71
652.14	911.25
652.49	904.85
652.83	898.68
653.17	892.08
653.51	885.48
653.85	879.08
654.20	872.41
654.54	865.36
654.88	858.54
655.22	851.58
655.56	844.79
655.90	838.36
656.25	832.17
656.59	825.81
656.93	819.81
657.27	813.75
657.61	807.32
657.95	801.35
658.29	795.36
658.64	789.13
658.98	782.79
659.32	776.32
659.66	770.15
660.00	763.92
660.34	758.03
660.68	752.20
661.02	746.31
661.36	740.76
661.70	735.45
662.05	730.35
662.39	725.21
662.73	719.88
663.07	714.66
663.41	709.32
663.75	704.08
664.09	698.62
664.43	693.36
664.77	688.56
665.11	683.50
665.45	678.60
665.79	673.86
666.13	669.08
666.47	664.27
666.81	659.41
667.15	654.47
667.49	649.83
667.83	645.24
668.17	640.60
668.51	635.90
668.85	631.11
669.19	626.53
669.53	622.05
669.87	617.64
670.21	613.34
670.55	609.13
670.89	605.07
671.23	601.05
671.57	596.93
671.91	592.81
672.25	588.65
672.58	584.56
672.92	580.43
673.26	576.60
673.60	572.80
673.94	569.10
674.28	565.67
674.62	562.21
674.96	558.61
675.30	555.15
675.64	551.63
675.97	548.32
676.31	544.94
676.65	541.48
676.99	538.26
677.33	534.85
677.67	531.55
678.01	528.05
678.34	524.55
678.68	521.13
679.02	517.77
679.36	514.55
679.70	511.38
680.04	508.21
680.37	504.91
680.71	501.72
681.05	498.62
681.39	495.48
681.73	492.37
682.06	489.44
682.40	486.48
682.74	483.51
683.08	480.51
683.42	477.45
683.75	474.47
684.09	471.42
684.43	468.52
684.77	465.62
685.10	462.81
685.44	460.09
685.78	457.42
686.12	454.76
686.45	452.07
686.79	449.37
687.13	446.77
687.46	444.17
687.80	441.58
688.14	438.92
688.48	436.48
688.81	433.88
689.15	431.26
689.49	428.66
689.82	426.15
690.16	423.70
690.50	421.41
690.83	419.16
691.17	416.82
691.51	414.56
691.84	412.35
692.18	410.07
692.52	407.74
692.85	405.44
693.19	403.20
693.52	400.96
693.86	398.72
694.20	396.59
694.53	394.49
694.87	392.27
695.21	390.16
695.54	387.98
695.88	385.89
696.21	383.86
696.55	381.90
696.88	379.92
697.22	377.92
697.56	375.96
697.89	374.03
698.23	372.12
698.56	370.20
698.90	368.30
699.23	366.37
699.57	364.51
699.90	362.67
700.24	360.85
700.58	359.10
700.91	357.35
701.25	355.65
701.58	353.99
701.92	352.43
702.25	350.82
702.59	349.23
702.92	347.68
703.26	346.14
703.59	344.63
703.93	343.23
704.26	341.81
704.60	340.30
704.93	338.79
705.26	337.30
705.60	335.89
705.93	334.54
706.27	333.28
706.60	332.09
706.94	330.80
707.27	329.43
707.61	328.12
707.94	326.96
708.27	325.61
708.61	324.32
708.94	323.11
709.28	321.97
709.61	320.81
709.94	319.67
710.28	318.48
710.61	317.32
710.95	316.01
711.28	314.89
711.61	313.79
711.95	312.73
712.28	311.66
712.61	310.50
712.95	309.38
713.28	308.32
713.61	307.25
713.95	306.23
714.28	305.25
714.61	304.24
714.95	303.20
715.28	302.28
715.61	301.30
715.95	300.28
716.28	299.24
716.61	298.25
716.95	297.29
717.28	296.40
717.61	295.52
717.94	294.67
718.28	293.77
718.61	292.90
718.94	292.01
719.27	291.22
719.61	290.48
719.94	289.72
720.27	288.89
720.60	288.08
720.94	287.33
721.27	286.61
721.60	285.92
721.93	285.21
722.27	284.55
722.60	283.88
722.93	283.25
723.26	282.64
723.59	281.99
723.93	281.34
724.26	280.67
724.59	279.95
724.92	279.36
725.25	278.73
725.59	278.10
725.92	277.53
726.25	276.92
726.58	276.30
726.91	275.74
727.24	275.14
727.57	274.61
727.91	274.00
728.24	273.44
728.57	272.88
728.90	272.34
729.23	271.75
729.56	271.22
729.89	270.62
730.22	270.02
730.55	269.45
730.89	268.96
731.22	268.45
731.55	267.98
731.88	267.42
732.21	266.91
732.54	266.44
732.87	265.91
733.20	265.41
733.53	264.97
733.86	264.48
734.19	264.04
734.52	263.58
734.85	263.19
735.18	262.71
735.51	262.30
735.84	261.82
736.17	261.38
736.50	260.93
736.83	260.67
737.16	260.28
737.49	259.85
737.82	259.39
738.15	258.99
738.48	258.56
738.81	258.21
739.14	257.79
739.47	257.38
739.80	257.00
740.13	256.65
740.46	256.27
740.79	255.87
741.12	255.47
741.45	255.08
741.78	254.67
742.11	254.36
742.44	253.93
742.77	253.61
743.10	253.25
743.43	252.90
743.75	252.44
744.08	252.21
744.41	251.91
744.74	251.58
745.07	251.26
745.40	250.96
745.73	250.67
746.06	250.35
746.39	250.06
746.71	249.79
747.04	249.48
747.37	249.14
747.70	248.88
748.03	248.61
748.36	248.37
748.68	248.07
749.01	247.78
749.34	247.56
749.67	247.33
750.00	247.08
750.33	246.87
750.65	246.62
750.98	246.27
751.31	246.03
751.64	245.82
751.97	245.59
752.29	245.33
752.62	245.03
752.95	244.81
753.28	244.55
753.60	244.31
753.93	244.07
754.26	243.86
754.59	243.60
754.91	243.35
755.24	243.11
755.57	242.91
755.90	242.67
756.22	242.45
756.55	242.19
756.88	241.96
757.20	241.70
757.53	241.47
757.86	241.26
758.19	241.07
758.51	240.88
758.84	240.64
759.17	240.46
759.49	240.27
759.82	240.13
760.15	239.97
760.47	239.76
760.80	239.54
761.13	239.40
761.45	239.17
761.78	239.03
762.11	238.85
762.43	238.66
762.76	238.49
763.08	238.30
763.41	238.16
763.74	237.98
764.06	237.76
764.39	237.61
764.71	237.48
765.04	237.30
765.37	237.11
765.69	236.94
766.02	236.79
766.34	236.63
766.67	236.44
767.00	236.32
767.32	236.24
767.65	236.17
767.97	236.04
768.30	235.98
768.62	235.82
768.95	235.69
769.27	235.55
769.60	235.43
769.92	235.31
770.25	235.15
770.57	235.03
770.90	234.95
771.22	234.82
771.55	234.69
771.87	234.57
772.20	234.45
772.52	234.43
772.85	234.45
773.17	234.34
773.50	234.24
773.82	234.13
774.15	233.98
774.47	233.86
774.80	233.75
775.12	233.65
775.45	233.59
775.77	233.48
776.09	233.38
776.42	233.30
776.74	233.26
777.07	233.18
777.39	233.10
777.72	233.01
778.04	232.93
778.36	232.84
778.69	232.80
779.01	232.74
779.33	232.62
779.66	232.43
779.98	232.33
780.31	232.28
780.63	232.19
780.95	232.12
781.28	232.04
781.60	231.94
781.92	231.80
782.25	231.73
782.57	231.66
782.89	231.60
783.22	231.50
783.54	231.39
783.86	231.32
784.19	231.21
784.51	231.18
784.83	231.13
785.16	231.04
785.48	230.96
785.80	230.90
786.12	230.83
786.45	230.75
