SpectraSuite Data File
++++++++++++++++++++++++++++++++++++
Date: Fri Feb 01 16:56:06 EST 2013
User: group
Dark Spectrum Present: No
Reference Spectrum Present: No
Number of Sampled Component Spectra: 1
Spectrometers: USB2E7196
Integration Time (usec): 35000 (USB2E7196)
Spectra Averaged: 100 (USB2E7196)
Boxcar Smoothing: 10 (USB2E7196)
Correct for Electrical Dark: No (USB2E7196)
Strobe/Lamp Enabled: No (USB2E7196)
Correct for Detector Non-linearity: No (USB2E7196)
Correct for Stray Light: No (USB2E7196)
Number of Pixels in Processed Spectrum: 2048
>>>>>Begin Processed Spectral Data<<<<<
339.09	0.00
339.48	212.85
339.86	215.09
340.24	215.98
340.63	217.08
341.01	220.68
341.39	220.43
341.78	220.93
342.16	222.58
342.54	223.32
342.93	211.64
343.31	222.35
343.69	222.92
344.07	223.37
344.46	223.80
344.84	224.20
345.22	224.41
345.60	224.63
345.99	224.84
346.37	224.98
346.75	225.05
347.13	225.10
347.52	225.13
347.90	225.18
348.28	225.16
348.66	225.21
349.05	225.20
349.43	225.21
349.81	225.28
350.19	225.29
350.57	225.32
350.96	225.43
351.34	225.46
351.72	225.51
352.10	225.58
352.48	225.66
352.87	225.71
353.25	225.78
353.63	225.85
354.01	225.91
354.39	225.97
354.77	226.06
355.15	226.17
355.54	226.23
355.92	226.26
356.30	226.38
356.68	226.48
357.06	226.55
357.44	226.61
357.82	226.68
358.20	226.78
358.58	226.87
358.97	226.91
359.35	227.01
359.73	227.11
360.11	227.16
360.49	227.20
360.87	227.24
361.25	227.28
361.63	227.38
362.01	227.43
362.39	227.46
362.77	227.52
363.15	227.52
363.53	227.56
363.91	227.59
364.29	227.60
364.67	227.57
365.05	227.61
365.43	227.61
365.81	227.64
366.19	227.67
366.57	227.68
366.95	227.68
367.33	227.64
367.71	227.62
368.09	227.63
368.47	227.62
368.85	227.64
369.23	227.65
369.61	227.57
369.99	227.56
370.37	227.58
370.75	227.62
371.13	227.56
371.51	227.54
371.89	227.51
372.27	227.49
372.65	227.44
373.03	227.40
373.41	227.37
373.78	227.32
374.16	227.25
374.54	227.19
374.92	227.13
375.30	227.12
375.68	227.04
376.06	226.98
376.44	226.94
376.82	226.86
377.19	226.79
377.57	226.71
377.95	226.66
378.33	226.57
378.71	226.44
379.09	226.39
379.47	226.36
379.84	226.30
380.22	226.19
380.60	226.11
380.98	226.05
381.36	225.99
381.73	225.91
382.11	225.86
382.49	225.79
382.87	225.76
383.25	225.66
383.62	225.74
384.00	225.70
384.38	225.62
384.76	225.58
385.13	225.55
385.51	225.55
385.89	225.49
386.27	225.41
386.64	225.39
387.02	225.35
387.40	225.29
387.78	225.28
388.15	225.27
388.53	225.22
388.91	225.19
389.29	225.18
389.66	225.18
390.04	225.12
390.42	225.12
390.79	225.08
391.17	225.06
391.55	224.92
391.92	224.87
392.30	224.86
392.68	224.86
393.05	224.83
393.43	224.80
393.81	224.77
394.18	224.78
394.56	224.77
394.94	224.79
395.31	224.79
395.69	224.81
396.06	224.83
396.44	224.84
396.82	224.84
397.19	224.90
397.57	224.94
397.95	224.97
398.32	224.97
398.70	225.01
399.07	225.09
399.45	225.14
399.82	225.21
400.20	225.23
400.58	225.27
400.95	225.28
401.33	225.38
401.70	225.49
402.08	225.57
402.45	225.65
402.83	225.75
403.20	225.82
403.58	225.87
403.95	226.00
404.33	226.12
404.71	226.24
405.08	226.38
405.46	226.45
405.83	226.60
406.21	226.75
406.58	226.94
406.96	227.09
407.33	227.26
407.70	227.42
408.08	227.72
408.45	227.94
408.83	228.20
409.20	228.38
409.58	228.58
409.95	228.87
410.33	229.13
410.70	229.34
411.08	229.67
411.45	230.00
411.82	230.26
412.20	230.62
412.57	231.04
412.95	231.34
413.32	231.77
413.69	232.18
414.07	232.62
414.44	233.06
414.82	233.52
415.19	234.06
415.56	234.62
415.94	235.16
416.31	235.82
416.68	236.43
417.06	237.19
417.43	237.89
417.81	238.64
418.18	239.41
418.55	240.29
418.93	241.19
419.30	242.10
419.67	243.09
420.04	244.05
420.42	245.04
420.79	246.21
421.16	247.35
421.54	248.56
421.91	249.79
422.28	251.05
422.66	252.38
423.03	253.70
423.40	255.04
423.77	256.42
424.15	257.83
424.52	259.33
424.89	260.90
425.26	262.48
425.64	263.90
426.01	265.51
426.38	267.14
426.75	268.78
427.13	270.51
427.50	272.30
427.87	274.21
428.24	276.06
428.61	277.83
428.99	279.77
429.36	281.87
429.73	283.92
430.10	285.95
430.47	288.04
430.85	290.12
431.22	292.32
431.59	294.70
431.96	296.92
432.33	299.38
432.70	301.77
433.08	304.50
433.45	307.15
433.82	309.73
434.19	312.57
434.56	315.35
434.93	317.99
435.30	320.58
435.68	323.41
436.05	326.22
436.42	328.97
436.79	331.44
437.16	334.11
437.53	336.92
437.90	339.70
438.27	342.41
438.64	345.22
439.01	347.83
439.38	350.05
439.75	352.22
440.13	354.68
440.50	356.98
440.87	358.80
441.24	360.74
441.61	362.92
441.98	364.39
442.35	366.19
442.72	368.00
443.09	369.78
443.46	370.78
443.83	371.35
444.20	371.85
444.57	372.69
444.94	372.95
445.31	373.29
445.68	373.65
446.05	373.73
446.42	373.37
446.79	372.96
447.16	372.52
447.53	372.22
447.90	371.09
448.27	369.93
448.64	368.40
449.01	367.31
449.37	365.37
449.74	363.51
450.11	361.29
450.48	358.83
450.85	356.32
451.22	354.20
451.59	352.23
451.96	350.31
452.33	347.76
452.70	345.40
453.07	342.59
453.43	339.69
453.80	336.97
454.17	334.27
454.54	331.73
454.91	329.05
455.28	326.36
455.65	323.93
456.02	321.53
456.38	319.39
456.75	316.69
457.12	314.39
457.49	312.18
457.86	310.04
458.23	308.20
458.59	306.21
458.96	304.14
459.33	302.28
459.70	300.42
460.07	298.91
460.43	297.23
460.80	295.63
461.17	294.22
461.54	292.75
461.91	291.35
462.27	289.93
462.64	288.66
463.01	287.37
463.38	286.09
463.74	284.73
464.11	283.60
464.48	282.57
464.85	281.52
465.21	280.69
465.58	279.77
465.95	278.71
466.32	277.83
466.68	276.92
467.05	276.04
467.42	275.19
467.78	274.27
468.15	273.42
468.52	272.78
468.88	271.95
469.25	271.17
469.62	270.60
469.98	269.97
470.35	269.39
470.72	268.78
471.08	268.11
471.45	267.57
471.82	267.06
472.18	266.50
472.55	266.04
472.92	265.54
473.28	265.09
473.65	264.65
474.02	264.20
474.38	263.86
474.75	263.53
475.11	263.20
475.48	262.99
475.85	262.76
476.21	262.53
476.58	262.33
476.94	262.20
477.31	262.04
477.67	261.89
478.04	261.79
478.41	261.73
478.77	261.78
479.14	261.71
479.50	261.73
479.87	261.81
480.23	261.91
480.60	261.97
480.96	262.05
481.33	262.30
481.69	262.52
482.06	262.72
482.42	262.92
482.79	263.17
483.15	263.46
483.52	263.86
483.88	264.22
484.25	264.61
484.61	265.03
484.98	265.48
485.34	266.05
485.71	266.63
486.07	267.20
486.44	267.78
486.80	268.52
487.17	269.22
487.53	270.05
487.90	270.89
488.26	271.87
488.62	272.87
488.99	273.83
489.35	274.82
489.72	275.93
490.08	277.15
490.44	278.37
490.81	279.70
491.17	281.01
491.54	282.48
491.90	284.03
492.26	285.67
492.63	287.35
492.99	289.11
493.36	291.02
493.72	293.09
494.08	295.21
494.45	297.44
494.81	299.80
495.17	302.21
495.54	304.78
495.90	307.41
496.26	310.23
496.63	313.18
496.99	316.33
497.35	319.59
497.72	322.98
498.08	326.48
498.44	330.20
498.80	334.14
499.17	338.16
499.53	342.30
499.89	346.63
500.26	351.15
500.62	355.77
500.98	360.70
501.34	365.75
501.71	371.07
502.07	376.46
502.43	382.00
502.79	387.78
503.16	393.81
503.52	400.04
503.88	406.39
504.24	412.99
504.60	419.78
504.97	426.87
505.33	434.18
505.69	441.87
506.05	449.54
506.41	457.31
506.78	465.36
507.14	473.72
507.50	482.38
507.86	491.34
508.22	500.44
508.59	509.56
508.95	519.03
509.31	528.72
509.67	538.77
510.03	548.99
510.39	559.50
510.75	570.19
511.12	580.98
511.48	592.18
511.84	603.59
512.20	615.05
512.56	626.83
512.92	638.85
513.28	651.10
513.64	663.40
514.00	675.91
514.37	688.73
514.73	701.64
515.09	714.56
515.45	727.66
515.81	741.09
516.17	754.92
516.53	768.87
516.89	782.90
517.25	796.90
517.61	811.10
517.97	825.25
518.33	839.52
518.69	854.16
519.05	868.94
519.41	883.81
519.77	899.15
520.13	914.41
520.49	929.56
520.85	944.65
521.21	960.14
521.57	976.20
521.93	991.77
522.29	1007.82
522.65	1023.71
523.01	1039.72
523.37	1055.44
523.73	1071.31
524.09	1087.23
524.45	1103.28
524.81	1119.64
525.17	1136.11
525.53	1152.83
525.89	1169.38
526.25	1185.95
526.61	1202.08
526.97	1218.57
527.33	1234.66
527.68	1250.82
528.04	1267.03
528.40	1283.34
528.76	1300.08
529.12	1316.34
529.48	1332.86
529.84	1348.65
530.20	1365.05
530.56	1381.78
530.91	1398.98
531.27	1415.45
531.63	1431.46
531.99	1447.66
532.35	1463.35
532.71	1479.00
533.07	1494.87
533.42	1510.52
533.78	1526.34
534.14	1542.24
534.50	1557.31
534.86	1572.89
535.21	1588.02
535.57	1603.61
535.93	1618.75
536.29	1633.36
536.65	1648.10
537.00	1662.43
537.36	1677.54
537.72	1691.74
538.08	1705.88
538.44	1719.46
538.79	1733.12
539.15	1746.59
539.51	1760.09
539.87	1774.17
540.22	1787.58
540.58	1800.97
540.94	1813.89
541.29	1826.26
541.65	1838.64
542.01	1851.47
542.37	1863.47
542.72	1875.49
543.08	1887.02
543.44	1899.28
543.79	1910.31
544.15	1921.17
544.51	1932.77
544.87	1943.49
545.22	1954.15
545.58	1963.99
545.94	1973.50
546.29	1983.25
546.65	1993.03
547.01	2002.19
547.36	2010.79
547.72	2019.10
548.07	2026.98
548.43	2035.04
548.79	2043.00
549.14	2050.60
549.50	2057.84
549.86	2065.52
550.21	2072.79
550.57	2080.08
550.92	2086.51
551.28	2093.30
551.64	2100.34
551.99	2106.66
552.35	2112.79
552.70	2118.90
553.06	2124.90
553.41	2131.21
553.77	2137.05
554.13	2142.97
554.48	2148.99
554.84	2154.67
555.19	2160.07
555.55	2165.28
555.90	2169.87
556.26	2174.95
556.61	2179.50
556.97	2184.05
557.32	2188.19
557.68	2192.37
558.03	2196.62
558.39	2200.48
558.74	2205.33
559.10	2209.31
559.45	2213.23
559.81	2217.52
560.16	2221.35
560.52	2224.75
560.87	2228.25
561.23	2231.03
561.58	2233.93
561.94	2236.61
562.29	2238.71
562.64	2241.44
563.00	2244.01
563.35	2247.60
563.71	2250.64
564.06	2254.00
564.42	2256.81
564.77	2259.50
565.12	2261.99
565.48	2263.90
565.83	2265.94
566.19	2267.41
566.54	2268.21
566.89	2269.33
567.25	2270.15
567.60	2271.60
567.96	2273.63
568.31	2274.61
568.66	2275.85
569.02	2276.73
569.37	2277.27
569.72	2278.51
570.08	2278.92
570.43	2279.16
570.78	2278.84
571.14	2277.63
571.49	2276.37
571.84	2276.17
572.20	2275.37
572.55	2274.41
572.90	2272.95
573.26	2271.71
573.61	2270.07
573.96	2268.75
574.31	2266.06
574.67	2263.32
575.02	2259.95
575.37	2256.37
575.72	2252.88
576.08	2249.73
576.43	2246.47
576.78	2243.13
577.13	2239.97
577.49	2236.93
577.84	2233.73
578.19	2230.07
578.54	2226.58
578.90	2222.67
579.25	2217.33
579.60	2212.40
579.95	2207.75
580.30	2203.05
580.66	2198.07
581.01	2193.32
581.36	2188.42
581.71	2184.45
582.06	2180.15
582.42	2175.87
582.77	2171.02
583.12	2166.50
583.47	2162.14
583.82	2157.50
584.17	2152.20
584.53	2146.84
584.88	2141.49
585.23	2135.92
585.58	2130.66
585.93	2125.31
586.28	2120.60
586.63	2115.73
586.98	2110.84
587.34	2106.13
587.69	2101.40
588.04	2096.33
588.39	2090.82
588.74	2084.48
589.09	2078.36
589.44	2071.70
589.79	2065.80
590.14	2060.24
590.49	2053.76
590.84	2047.30
591.19	2041.39
591.54	2034.90
591.89	2027.95
592.25	2021.32
592.60	2014.21
592.95	2006.78
593.30	1999.60
593.65	1992.20
594.00	1985.37
594.35	1978.30
594.70	1970.40
595.05	1963.43
595.40	1956.31
595.75	1948.96
596.10	1942.94
596.45	1936.54
596.80	1930.57
597.15	1924.11
597.50	1917.41
597.85	1911.17
598.19	1904.72
598.54	1897.74
598.89	1891.46
599.24	1885.44
599.59	1878.89
599.94	1872.70
600.29	1866.53
600.64	1860.08
600.99	1852.94
601.34	1846.21
601.69	1839.25
602.04	1832.59
602.39	1825.30
602.74	1818.50
603.08	1811.89
603.43	1805.24
603.78	1797.86
604.13	1790.73
604.48	1783.64
604.83	1776.73
605.18	1770.00
605.53	1762.13
605.87	1754.31
606.22	1747.26
606.57	1739.38
606.92	1732.05
607.27	1725.11
607.62	1718.31
607.96	1711.24
608.31	1704.71
608.66	1697.21
609.01	1689.85
609.36	1682.40
609.70	1674.51
610.05	1666.54
610.40	1658.96
610.75	1650.77
611.10	1643.30
611.44	1634.92
611.79	1626.87
612.14	1618.23
612.49	1609.03
612.83	1600.64
613.18	1592.45
613.53	1584.31
613.88	1575.90
614.22	1567.74
614.57	1559.03
614.92	1551.04
615.27	1543.42
615.61	1535.19
615.96	1527.11
616.31	1519.45
616.65	1512.04
617.00	1504.42
617.35	1496.75
617.70	1488.44
618.04	1479.97
618.39	1471.75
618.74	1464.12
619.08	1455.93
619.43	1448.35
619.78	1441.49
620.12	1434.47
620.47	1427.00
620.82	1418.87
621.16	1411.48
621.51	1403.80
621.85	1396.32
622.20	1387.87
622.55	1379.60
622.89	1371.70
623.24	1364.15
623.59	1356.71
623.93	1349.15
624.28	1341.94
624.62	1334.51
624.97	1327.32
625.32	1320.53
625.66	1313.56
626.01	1306.49
626.35	1299.10
626.70	1291.31
627.04	1283.55
627.39	1275.76
627.73	1268.39
628.08	1261.41
628.43	1254.24
628.77	1247.07
629.12	1239.50
629.46	1232.39
629.81	1224.86
630.15	1217.59
630.50	1210.18
630.84	1201.99
631.19	1194.09
631.53	1186.71
631.88	1179.12
632.22	1171.56
632.57	1164.32
632.91	1156.77
633.26	1149.35
633.60	1141.90
633.95	1134.87
634.29	1127.83
634.64	1121.19
634.98	1113.85
635.32	1106.76
635.67	1100.10
636.01	1093.40
636.36	1086.63
636.70	1079.99
637.05	1073.41
637.39	1067.02
637.73	1060.54
638.08	1054.70
638.42	1048.78
638.77	1042.26
639.11	1035.73
639.45	1029.28
639.80	1022.64
640.14	1016.25
640.49	1009.86
640.83	1003.62
641.17	997.43
641.52	991.12
641.86	984.56
642.20	978.69
642.55	972.39
642.89	965.90
643.23	959.36
643.58	953.66
643.92	947.62
644.26	941.67
644.61	935.49
644.95	929.58
645.29	923.12
645.64	916.31
645.98	910.06
646.32	904.14
646.66	898.27
647.01	892.52
647.35	886.87
647.69	880.92
648.04	875.36
648.38	869.62
648.72	863.72
649.06	857.74
649.41	851.90
649.75	846.03
650.09	840.14
650.43	834.40
650.78	828.24
651.12	822.22
651.46	816.52
651.80	810.98
652.14	805.48
652.49	800.11
652.83	795.04
653.17	789.44
653.51	783.87
653.85	778.37
654.20	772.70
654.54	766.71
654.88	760.98
655.22	755.11
655.56	749.42
655.90	744.00
656.25	738.82
656.59	733.43
656.93	728.33
657.27	723.16
657.61	717.70
657.95	712.59
658.29	707.56
658.64	702.30
658.98	696.95
659.32	691.61
659.66	686.48
660.00	681.23
660.34	676.26
660.68	671.31
661.02	666.42
661.36	661.82
661.70	657.30
662.05	652.98
662.39	648.70
662.73	644.24
663.07	639.85
663.41	635.39
663.75	630.96
664.09	626.32
664.43	622.00
664.77	617.98
665.11	613.75
665.45	609.58
665.79	605.54
666.13	601.42
666.47	597.25
666.81	593.02
667.15	588.87
667.49	584.91
667.83	581.09
668.17	577.08
668.51	572.96
668.85	568.86
669.19	564.98
669.53	561.15
669.87	557.34
670.21	553.59
670.55	549.91
670.89	546.52
671.23	543.16
671.57	539.58
671.91	536.01
672.25	532.48
672.58	529.00
672.92	525.55
673.26	522.38
673.60	519.19
673.94	516.06
674.28	513.16
674.62	510.19
674.96	507.12
675.30	504.23
675.64	501.31
675.97	498.54
676.31	495.71
676.65	492.79
676.99	490.03
677.33	487.12
677.67	484.37
678.01	481.34
678.34	478.40
678.68	475.53
679.02	472.72
679.36	470.00
679.70	467.27
680.04	464.54
680.37	461.71
680.71	459.01
681.05	456.44
681.39	453.69
681.73	451.11
682.06	448.61
682.40	446.09
682.74	443.56
683.08	441.04
683.42	438.45
683.75	435.94
684.09	433.42
684.43	431.03
684.77	428.54
685.10	426.17
685.44	423.88
685.78	421.62
686.12	419.35
686.45	417.04
686.79	414.75
687.13	412.56
687.46	410.38
687.80	408.19
688.14	406.00
688.48	403.94
688.81	401.67
689.15	399.48
689.49	397.28
689.82	395.27
690.16	393.18
690.50	391.21
690.83	389.28
691.17	387.27
691.51	385.37
691.84	383.52
692.18	381.57
692.52	379.60
692.85	377.66
693.19	375.77
693.52	373.98
693.86	372.16
694.20	370.38
694.53	368.58
694.87	366.74
695.21	364.93
695.54	363.10
695.88	361.42
696.21	359.72
696.55	358.04
696.88	356.33
697.22	354.61
697.56	353.01
697.89	351.40
698.23	349.84
698.56	348.27
698.90	346.72
699.23	345.09
699.57	343.56
699.90	342.02
700.24	340.49
700.58	338.94
700.91	337.46
701.25	336.00
701.58	334.64
701.92	333.32
702.25	331.94
702.59	330.63
702.92	329.28
703.26	327.98
703.59	326.71
703.93	325.49
704.26	324.35
704.60	323.05
704.93	321.74
705.26	320.47
705.60	319.23
705.93	318.06
706.27	317.09
706.60	315.99
706.94	314.93
707.27	313.74
707.61	312.72
707.94	311.70
708.27	310.62
708.61	309.49
708.94	308.45
709.28	307.46
709.61	306.49
709.94	305.51
710.28	304.49
710.61	303.52
710.95	302.45
711.28	301.49
711.61	300.51
711.95	299.63
712.28	298.67
712.61	297.71
712.95	296.76
713.28	295.82
713.61	294.92
713.95	294.04
714.28	293.24
714.61	292.33
714.95	291.45
715.28	290.55
715.61	289.67
715.95	288.79
716.28	287.89
716.61	287.00
716.95	286.16
717.28	285.41
717.61	284.63
717.94	283.89
718.28	283.09
718.61	282.36
718.94	281.64
719.27	280.95
719.61	280.30
719.94	279.63
720.27	278.92
720.60	278.26
720.94	277.62
721.27	276.99
721.60	276.42
721.93	275.85
722.27	275.36
722.60	274.84
722.93	274.25
723.26	273.75
723.59	273.26
723.93	272.74
724.26	272.16
724.59	271.58
724.92	271.03
725.25	270.56
725.59	270.04
725.92	269.57
726.25	269.10
726.58	268.59
726.91	268.12
727.24	267.62
727.57	267.17
727.91	266.62
728.24	266.18
728.57	265.69
728.90	265.19
729.23	264.66
729.56	264.26
729.89	263.82
730.22	263.36
730.55	262.87
730.89	262.42
731.22	261.98
731.55	261.57
731.88	261.15
732.21	260.69
732.54	260.27
732.87	259.86
733.20	259.42
733.53	259.02
733.86	258.64
734.19	258.25
734.52	257.87
734.85	257.56
735.18	257.13
735.51	256.80
735.84	256.49
736.17	256.16
736.50	255.73
736.83	255.51
737.16	255.17
737.49	254.86
737.82	254.53
738.15	254.20
738.48	253.87
738.81	253.53
739.14	253.18
739.47	252.85
739.80	252.50
740.13	252.21
740.46	251.93
740.79	251.61
741.12	251.29
741.45	250.95
741.78	250.62
742.11	250.38
742.44	250.01
742.77	249.71
743.10	249.42
743.43	249.11
743.75	248.70
744.08	248.54
744.41	248.25
744.74	247.95
745.07	247.66
745.40	247.41
745.73	247.21
746.06	246.96
746.39	246.70
746.71	246.42
747.04	246.16
747.37	245.90
747.70	245.63
748.03	245.40
748.36	245.23
748.68	244.98
749.01	244.67
749.34	244.45
749.67	244.23
750.00	244.00
750.33	243.86
750.65	243.66
750.98	243.33
751.31	243.08
751.64	242.86
751.97	242.68
752.29	242.47
752.62	242.21
752.95	242.01
753.28	241.82
753.60	241.61
753.93	241.44
754.26	241.22
754.59	241.01
754.91	240.79
755.24	240.52
755.57	240.33
755.90	240.18
756.22	240.00
756.55	239.76
756.88	239.56
757.20	239.35
757.53	239.12
757.86	238.95
758.19	238.83
758.51	238.68
758.84	238.45
759.17	238.27
759.49	238.09
759.82	237.97
760.15	237.80
760.47	237.66
760.80	237.46
761.13	237.34
761.45	237.16
761.78	237.05
762.11	236.97
762.43	236.84
762.76	236.69
763.08	236.53
763.41	236.43
763.74	236.29
764.06	236.11
764.39	236.00
764.71	235.86
765.04	235.68
765.37	235.54
765.69	235.42
766.02	235.31
766.34	235.22
766.67	235.08
767.00	234.99
767.32	234.92
767.65	234.89
767.97	234.75
768.30	234.68
768.62	234.57
768.95	234.47
769.27	234.36
769.60	234.27
769.92	234.17
770.25	234.06
770.57	233.94
770.90	233.88
771.22	233.81
771.55	233.71
771.87	233.65
772.20	233.57
772.52	233.58
772.85	233.57
773.17	233.45
773.50	233.33
773.82	233.20
774.15	233.04
774.47	232.85
774.80	232.78
775.12	232.69
775.45	232.58
775.77	232.45
776.09	232.36
776.42	232.30
776.74	232.24
777.07	232.13
777.39	232.06
777.72	231.95
778.04	231.86
778.36	231.80
778.69	231.71
779.01	231.65
779.33	231.49
779.66	231.33
779.98	231.28
780.31	231.21
780.63	231.22
780.95	231.18
781.28	231.15
781.60	231.07
781.92	230.96
782.25	230.90
782.57	230.84
782.89	230.75
783.22	230.68
783.54	230.59
783.86	230.56
784.19	230.50
784.51	230.47
784.83	230.40
785.16	230.33
785.48	230.29
785.80	230.21
786.12	230.18
786.45	230.14
786.77	230.10
787.09	230.04
