SpectraSuite Data File
++++++++++++++++++++++++++++++++++++
Date: Fri Feb 01 15:39:23 EST 2013
User: group
Dark Spectrum Present: No
Reference Spectrum Present: No
Number of Sampled Component Spectra: 1
Spectrometers: USB2E7196
Integration Time (usec): 35000 (USB2E7196)
Spectra Averaged: 100 (USB2E7196)
Boxcar Smoothing: 10 (USB2E7196)
Correct for Electrical Dark: No (USB2E7196)
Strobe/Lamp Enabled: No (USB2E7196)
Correct for Detector Non-linearity: No (USB2E7196)
Correct for Stray Light: No (USB2E7196)
Number of Pixels in Processed Spectrum: 2048
>>>>>Begin Processed Spectral Data<<<<<
339.09	0.00
339.48	214.58
339.86	216.26
340.24	217.89
340.63	219.25
341.01	222.41
341.39	221.35
341.78	223.69
342.16	224.63
342.54	224.50
342.93	213.30
343.31	224.07
343.69	224.64
344.07	225.11
344.46	225.53
344.84	225.92
345.22	226.14
345.60	226.43
345.99	226.58
346.37	226.71
346.75	226.82
347.13	226.91
347.52	226.96
347.90	227.03
348.28	227.07
348.66	227.14
349.05	227.13
349.43	227.16
349.81	227.20
350.19	227.22
350.57	227.27
350.96	227.34
351.34	227.43
351.72	227.51
352.10	227.61
352.48	227.71
352.87	227.72
353.25	227.78
353.63	227.82
354.01	227.89
354.39	227.96
354.77	228.05
355.15	228.11
355.54	228.19
355.92	228.21
356.30	228.26
356.68	228.39
357.06	228.45
357.44	228.52
357.82	228.59
358.20	228.66
358.58	228.71
358.97	228.76
359.35	228.83
359.73	228.89
360.11	228.93
360.49	228.94
360.87	228.98
361.25	229.04
361.63	229.10
362.01	229.13
362.39	229.14
362.77	229.15
363.15	229.16
363.53	229.13
363.91	229.15
364.29	229.17
364.67	229.08
365.05	229.11
365.43	229.09
365.81	229.12
366.19	229.14
366.57	229.15
366.95	229.12
367.33	229.10
367.71	229.10
368.09	229.10
368.47	229.05
368.85	229.03
369.23	229.01
369.61	228.94
369.99	228.94
370.37	228.92
370.75	228.94
371.13	228.89
371.51	228.88
371.89	228.84
372.27	228.82
372.65	228.81
373.03	228.73
373.41	228.69
373.78	228.60
374.16	228.51
374.54	228.48
374.92	228.42
375.30	228.35
375.68	228.26
376.06	228.17
376.44	228.13
376.82	228.09
377.19	228.04
377.57	228.01
377.95	227.91
378.33	227.83
378.71	227.70
379.09	227.65
379.47	227.58
379.84	227.49
380.22	227.39
380.60	227.29
380.98	227.23
381.36	227.16
381.73	227.06
382.11	227.03
382.49	226.98
382.87	226.92
383.25	226.86
383.62	226.92
384.00	226.85
384.38	226.81
384.76	226.78
385.13	226.76
385.51	226.67
385.89	226.64
386.27	226.62
386.64	226.59
387.02	226.53
387.40	226.46
387.78	226.46
388.15	226.47
388.53	226.47
388.91	226.45
389.29	226.43
389.66	226.49
390.04	226.44
390.42	226.42
390.79	226.40
391.17	226.42
391.55	226.28
391.92	226.31
392.30	226.32
392.68	226.30
393.05	226.31
393.43	226.36
393.81	226.39
394.18	226.36
394.56	226.42
394.94	226.50
395.31	226.56
395.69	226.62
396.06	226.65
396.44	226.68
396.82	226.72
397.19	226.83
397.57	226.85
397.95	226.93
398.32	226.98
398.70	227.03
399.07	227.11
399.45	227.23
399.82	227.31
400.20	227.40
400.58	227.48
400.95	227.50
401.33	227.61
401.70	227.78
402.08	227.89
402.45	228.00
402.83	228.13
403.20	228.26
403.58	228.36
403.95	228.52
404.33	228.66
404.71	228.79
405.08	228.96
405.46	229.12
405.83	229.25
406.21	229.43
406.58	229.61
406.96	229.78
407.33	229.93
407.70	230.12
408.08	230.39
408.45	230.62
408.83	230.84
409.20	231.05
409.58	231.21
409.95	231.48
410.33	231.74
410.70	231.94
411.08	232.21
411.45	232.51
411.82	232.77
412.20	233.13
412.57	233.53
412.95	233.81
413.32	234.21
413.69	234.63
414.07	235.01
414.44	235.52
414.82	235.97
415.19	236.52
415.56	237.06
415.94	237.59
416.31	238.19
416.68	238.81
417.06	239.52
417.43	240.18
417.81	240.94
418.18	241.69
418.55	242.53
418.93	243.37
419.30	244.27
419.67	245.18
420.04	246.12
420.42	247.06
420.79	248.23
421.16	249.35
421.54	250.51
421.91	251.75
422.28	252.94
422.66	254.27
423.03	255.54
423.40	256.84
423.77	258.21
424.15	259.65
424.52	261.17
424.89	262.77
425.26	264.33
425.64	265.77
426.01	267.36
426.38	269.00
426.75	270.69
427.13	272.37
427.50	274.18
427.87	276.06
428.24	277.92
428.61	279.64
428.99	281.64
429.36	283.81
429.73	285.86
430.10	287.90
430.47	289.97
430.85	292.11
431.22	294.34
431.59	296.73
431.96	298.98
432.33	301.44
432.70	303.83
433.08	306.61
433.45	309.25
433.82	311.88
434.19	314.80
434.56	317.62
434.93	320.32
435.30	322.96
435.68	325.85
436.05	328.72
436.42	331.54
436.79	334.00
437.16	336.68
437.53	339.52
437.90	342.38
438.27	345.14
438.64	348.00
439.01	350.60
439.38	352.85
439.75	355.01
440.13	357.52
440.50	359.87
440.87	361.75
441.24	363.74
441.61	365.91
441.98	367.38
442.35	369.19
442.72	370.99
443.09	372.78
443.46	373.79
443.83	374.39
444.20	374.91
444.57	375.75
444.94	376.03
445.31	376.34
445.68	376.64
446.05	376.73
446.42	376.33
446.79	375.95
447.16	375.49
447.53	375.20
447.90	374.03
448.27	372.87
448.64	371.26
449.01	370.11
449.37	368.14
449.74	366.25
450.11	364.01
450.48	361.59
450.85	359.08
451.22	356.95
451.59	354.94
451.96	352.99
452.33	350.41
452.70	348.04
453.07	345.23
453.43	342.36
453.80	339.59
454.17	336.94
454.54	334.36
454.91	331.66
455.28	328.97
455.65	326.50
456.02	324.02
456.38	321.87
456.75	319.20
457.12	316.91
457.49	314.69
457.86	312.48
458.23	310.62
458.59	308.58
458.96	306.45
459.33	304.61
459.70	302.77
460.07	301.26
460.43	299.50
460.80	297.87
461.17	296.40
461.54	294.87
461.91	293.40
462.27	291.91
462.64	290.64
463.01	289.28
463.38	287.99
463.74	286.63
464.11	285.48
464.48	284.43
464.85	283.32
465.21	282.48
465.58	281.53
465.95	280.43
466.32	279.49
466.68	278.60
467.05	277.65
467.42	276.74
467.78	275.79
468.15	274.92
468.52	274.26
468.88	273.41
469.25	272.65
469.62	272.03
469.98	271.41
470.35	270.78
470.72	270.18
471.08	269.50
471.45	268.92
471.82	268.38
472.18	267.78
472.55	267.40
472.92	266.85
473.28	266.43
473.65	265.98
474.02	265.59
474.38	265.19
474.75	264.88
475.11	264.54
475.48	264.27
475.85	264.07
476.21	263.81
476.58	263.65
476.94	263.53
477.31	263.36
477.67	263.21
478.04	263.11
478.41	263.02
478.77	263.04
479.14	262.97
479.50	262.98
479.87	263.06
480.23	263.07
480.60	263.13
480.96	263.22
481.33	263.39
481.69	263.56
482.06	263.77
482.42	264.00
482.79	264.28
483.15	264.62
483.52	264.99
483.88	265.38
484.25	265.79
484.61	266.15
484.98	266.59
485.34	267.12
485.71	267.73
486.07	268.38
486.44	268.96
486.80	269.67
487.17	270.41
487.53	271.23
487.90	272.11
488.26	273.07
488.62	274.06
488.99	275.03
489.35	276.09
489.72	277.23
490.08	278.45
490.44	279.65
490.81	281.01
491.17	282.36
491.54	283.82
491.90	285.34
492.26	287.05
492.63	288.79
492.99	290.57
493.36	292.44
493.72	294.51
494.08	296.63
494.45	298.88
494.81	301.27
495.17	303.68
495.54	306.24
495.90	308.93
496.26	311.71
496.63	314.67
496.99	317.77
497.35	321.00
497.72	324.38
498.08	327.87
498.44	331.52
498.80	335.43
499.17	339.47
499.53	343.64
499.89	347.98
500.26	352.46
500.62	357.17
500.98	362.12
501.34	367.18
501.71	372.51
502.07	377.98
502.43	383.62
502.79	389.44
503.16	395.52
503.52	401.78
503.88	408.23
504.24	414.87
504.60	421.78
504.97	428.96
505.33	436.28
505.69	443.96
506.05	451.75
506.41	459.66
506.78	467.78
507.14	476.25
507.50	485.01
507.86	494.05
508.22	503.23
508.59	512.46
508.95	522.04
509.31	531.82
509.67	541.95
510.03	552.20
510.39	562.75
510.75	573.50
511.12	584.42
511.48	595.78
511.84	607.25
512.20	618.78
512.56	630.72
512.92	642.86
513.28	655.20
513.64	667.66
514.00	680.41
514.37	693.40
514.73	706.43
515.09	719.44
515.45	732.75
515.81	746.30
516.17	760.33
516.53	774.45
516.89	788.70
517.25	802.78
517.61	817.22
517.97	831.74
518.33	846.22
518.69	861.04
519.05	876.01
519.41	891.20
519.77	906.73
520.13	922.11
520.49	937.53
520.85	953.04
521.21	968.85
521.57	985.03
521.93	1000.82
522.29	1017.31
522.65	1033.61
523.01	1049.87
523.37	1065.92
523.73	1082.12
524.09	1098.19
524.45	1114.51
524.81	1131.26
525.17	1148.10
525.53	1164.97
525.89	1181.84
526.25	1198.67
526.61	1214.99
526.97	1231.75
527.33	1248.22
527.68	1265.01
528.04	1281.59
528.40	1298.18
528.76	1315.11
529.12	1331.74
529.48	1348.65
529.84	1364.66
530.20	1381.22
530.56	1398.26
530.91	1415.63
531.27	1432.32
531.63	1448.84
531.99	1465.37
532.35	1481.26
532.71	1497.07
533.07	1513.38
533.42	1529.29
533.78	1545.29
534.14	1561.63
534.50	1577.06
534.86	1593.08
535.21	1608.13
535.57	1624.15
535.93	1639.64
536.29	1654.49
536.65	1669.60
537.00	1684.38
537.36	1699.77
537.72	1714.33
538.08	1728.78
538.44	1742.76
538.79	1756.65
539.15	1770.49
539.51	1784.31
539.87	1798.71
540.22	1812.48
540.58	1826.31
540.94	1839.84
541.29	1852.85
541.65	1865.56
542.01	1878.82
542.37	1890.98
542.72	1903.43
543.08	1915.16
543.44	1927.62
543.79	1938.93
544.15	1949.78
544.51	1961.33
544.87	1972.23
545.22	1983.12
545.58	1993.29
545.94	2002.96
546.29	2012.93
546.65	2022.72
547.01	2031.91
547.36	2040.59
547.72	2049.11
548.07	2056.93
548.43	2064.99
548.79	2073.03
549.14	2080.39
549.50	2087.65
549.86	2095.35
550.21	2102.67
550.57	2109.85
550.92	2116.42
551.28	2123.42
551.64	2130.64
551.99	2137.29
552.35	2143.41
552.70	2149.55
553.06	2155.51
553.41	2161.97
553.77	2167.97
554.13	2173.95
554.48	2180.04
554.84	2185.54
555.19	2190.88
555.55	2196.00
555.90	2200.37
556.26	2205.09
556.61	2210.00
556.97	2214.26
557.32	2218.30
557.68	2222.47
558.03	2226.65
558.39	2230.31
558.74	2235.05
559.10	2238.86
559.45	2242.34
559.81	2246.69
560.16	2250.63
560.52	2253.90
560.87	2257.21
561.23	2259.84
561.58	2262.92
561.94	2265.52
562.29	2267.94
562.64	2270.57
563.00	2273.23
563.35	2276.87
563.71	2279.98
564.06	2283.26
564.42	2286.12
564.77	2288.62
565.12	2290.92
565.48	2292.88
565.83	2294.72
566.19	2295.89
566.54	2296.84
566.89	2298.08
567.25	2298.49
567.60	2299.67
567.96	2301.30
568.31	2302.11
568.66	2303.19
569.02	2303.67
569.37	2304.01
569.72	2304.75
570.08	2304.94
570.43	2305.02
570.78	2304.45
571.14	2302.96
571.49	2301.64
571.84	2301.25
572.20	2300.15
572.55	2299.02
572.90	2297.42
573.26	2296.05
573.61	2294.34
573.96	2292.55
574.31	2289.57
574.67	2286.70
575.02	2283.17
575.37	2279.75
575.72	2275.84
576.08	2272.58
576.43	2269.28
576.78	2265.43
577.13	2262.42
577.49	2259.23
577.84	2255.53
578.19	2251.59
578.54	2247.97
578.90	2243.58
579.25	2238.06
579.60	2233.11
579.95	2228.15
580.30	2223.09
580.66	2218.03
581.01	2213.20
581.36	2208.15
581.71	2203.95
582.06	2199.34
582.42	2194.71
582.77	2189.55
583.12	2185.00
583.47	2180.09
583.82	2174.91
584.17	2169.71
584.53	2164.08
584.88	2158.45
585.23	2152.65
585.58	2147.31
585.93	2141.84
586.28	2137.06
586.63	2131.89
586.98	2126.79
587.34	2122.05
587.69	2117.09
588.04	2111.58
588.39	2105.72
588.74	2099.35
589.09	2093.10
589.44	2086.34
589.79	2080.31
590.14	2074.56
590.49	2068.03
590.84	2061.66
591.19	2055.64
591.54	2049.07
591.89	2041.59
592.25	2034.54
592.60	2027.37
592.95	2019.63
593.30	2012.27
593.65	2004.69
594.00	1997.66
594.35	1990.48
594.70	1982.34
595.05	1975.07
595.40	1967.98
595.75	1960.40
596.10	1954.04
596.45	1947.23
596.80	1940.97
597.15	1934.35
597.50	1927.11
597.85	1920.65
598.19	1913.87
598.54	1906.74
598.89	1900.12
599.24	1894.21
599.59	1887.58
599.94	1881.36
600.29	1875.05
600.64	1868.48
600.99	1860.98
601.34	1854.19
601.69	1847.11
602.04	1840.16
602.39	1832.77
602.74	1825.75
603.08	1819.03
603.43	1812.34
603.78	1805.06
604.13	1797.91
604.48	1790.46
604.83	1783.74
605.18	1776.70
605.53	1768.75
605.87	1760.72
606.22	1753.51
606.57	1745.55
606.92	1738.35
607.27	1731.02
607.62	1724.03
607.96	1716.66
608.31	1709.91
608.66	1702.22
609.01	1694.65
609.36	1687.14
609.70	1679.12
610.05	1671.07
610.40	1663.37
610.75	1654.96
611.10	1647.21
611.44	1638.84
611.79	1630.93
612.14	1622.17
612.49	1613.08
612.83	1604.78
613.18	1596.76
613.53	1588.64
613.88	1580.05
614.22	1571.65
614.57	1563.11
614.92	1555.04
615.27	1547.42
615.61	1539.11
615.96	1531.05
616.31	1523.56
616.65	1516.17
617.00	1508.61
617.35	1500.97
617.70	1492.53
618.04	1484.03
618.39	1475.82
618.74	1468.09
619.08	1459.81
619.43	1452.32
619.78	1445.31
620.12	1438.10
620.47	1430.51
620.82	1422.36
621.16	1415.06
621.51	1407.56
621.85	1399.95
622.20	1391.50
622.55	1383.23
622.89	1375.40
623.24	1367.76
623.59	1360.27
623.93	1352.75
624.28	1345.58
624.62	1338.08
624.97	1331.13
625.32	1324.41
625.66	1317.42
626.01	1310.26
626.35	1302.64
626.70	1294.80
627.04	1287.11
627.39	1279.37
627.73	1271.96
628.08	1264.95
628.43	1257.60
628.77	1250.15
629.12	1242.61
629.46	1235.47
629.81	1228.08
630.15	1220.84
630.50	1213.50
630.84	1205.30
631.19	1197.42
631.53	1189.88
631.88	1182.35
632.22	1174.65
632.57	1167.35
632.91	1159.79
633.26	1152.29
633.60	1145.05
633.95	1137.98
634.29	1130.99
634.64	1124.27
634.98	1116.94
635.32	1109.81
635.67	1103.21
636.01	1096.53
636.36	1089.68
636.70	1083.10
637.05	1076.54
637.39	1070.13
637.73	1063.57
638.08	1057.71
638.42	1051.65
638.77	1045.16
639.11	1038.42
639.45	1031.98
639.80	1025.37
640.14	1018.95
640.49	1012.47
640.83	1006.16
641.17	999.97
641.52	993.61
641.86	987.12
642.20	981.27
642.55	975.07
642.89	968.62
643.23	962.20
643.58	956.41
643.92	950.19
644.26	944.04
644.61	938.06
644.95	932.03
645.29	925.41
645.64	918.70
645.98	912.43
646.32	906.73
646.66	900.77
647.01	894.92
647.35	889.25
647.69	883.41
648.04	877.95
648.38	872.15
648.72	866.14
649.06	860.07
649.41	854.16
649.75	848.15
650.09	842.23
650.43	836.46
650.78	830.34
651.12	824.49
651.46	818.81
651.80	813.05
652.14	807.67
652.49	802.34
652.83	797.23
653.17	791.51
653.51	785.65
653.85	780.28
654.20	774.65
654.54	768.63
654.88	763.00
655.22	757.11
655.56	751.39
655.90	745.92
656.25	740.74
656.59	735.36
656.93	730.28
657.27	725.10
657.61	719.64
657.95	714.51
658.29	709.37
658.64	704.08
658.98	698.75
659.32	693.29
659.66	688.04
660.00	682.63
660.34	677.81
660.68	672.99
661.02	667.92
661.36	663.15
661.70	658.59
662.05	654.20
662.39	649.86
662.73	645.44
663.07	641.04
663.41	636.53
663.75	632.09
664.09	627.50
664.43	623.13
664.77	619.01
665.11	614.79
665.45	610.63
665.79	606.58
666.13	602.45
666.47	598.41
666.81	594.21
667.15	590.17
667.49	586.17
667.83	582.42
668.17	578.47
668.51	574.44
668.85	570.50
669.19	566.66
669.53	562.78
669.87	558.89
670.21	555.24
670.55	551.60
670.89	548.13
671.23	544.76
671.57	541.23
671.91	537.68
672.25	534.26
672.58	530.80
672.92	527.38
673.26	524.16
673.60	520.97
673.94	517.91
674.28	515.04
674.62	512.11
674.96	508.96
675.30	506.05
675.64	503.13
675.97	500.33
676.31	497.49
676.65	494.64
676.99	491.95
677.33	489.09
677.67	486.27
678.01	483.25
678.34	480.22
678.68	477.37
679.02	474.54
679.36	471.77
679.70	469.05
680.04	466.32
680.37	463.43
680.71	460.66
681.05	458.01
681.39	455.26
681.73	452.58
682.06	450.04
682.40	447.47
682.74	444.92
683.08	442.40
683.42	439.77
683.75	437.22
684.09	434.68
684.43	432.20
684.77	429.76
685.10	427.40
685.44	425.11
685.78	422.83
686.12	420.62
686.45	418.29
686.79	416.01
687.13	413.85
687.46	411.76
687.80	409.57
688.14	407.32
688.48	405.28
688.81	403.06
689.15	400.92
689.49	398.79
689.82	396.74
690.16	394.67
690.50	392.75
690.83	390.75
691.17	388.76
691.51	386.88
691.84	385.09
692.18	383.20
692.52	381.24
692.85	379.26
693.19	377.37
693.52	375.56
693.86	373.72
694.20	371.90
694.53	370.08
694.87	368.26
695.21	366.55
695.54	364.70
695.88	362.99
696.21	361.26
696.55	359.57
696.88	357.83
697.22	356.16
697.56	354.50
697.89	352.89
698.23	351.27
698.56	349.61
698.90	347.95
699.23	346.31
699.57	344.77
699.90	343.27
700.24	341.75
700.58	340.19
700.91	338.68
701.25	337.23
701.58	335.86
701.92	334.45
702.25	333.03
702.59	331.68
702.92	330.31
703.26	328.99
703.59	327.75
703.93	326.61
704.26	325.34
704.60	324.02
704.93	322.75
705.26	321.49
705.60	320.36
705.93	319.23
706.27	318.14
706.60	317.07
706.94	315.95
707.27	314.77
707.61	313.73
707.94	312.71
708.27	311.62
708.61	310.49
708.94	309.51
709.28	308.56
709.61	307.56
709.94	306.64
710.28	305.65
710.61	304.68
710.95	303.64
711.28	302.77
711.61	301.87
711.95	300.95
712.28	299.99
712.61	298.98
712.95	298.03
713.28	297.20
713.61	296.28
713.95	295.40
714.28	294.60
714.61	293.73
714.95	292.89
715.28	292.02
715.61	291.18
715.95	290.36
716.28	289.47
716.61	288.63
716.95	287.81
717.28	287.08
717.61	286.28
717.94	285.51
718.28	284.68
718.61	283.94
718.94	283.29
719.27	282.65
719.61	282.04
719.94	281.36
720.27	280.61
720.60	279.95
720.94	279.33
721.27	278.69
721.60	278.11
721.93	277.50
722.27	276.94
722.60	276.38
722.93	275.77
723.26	275.25
723.59	274.69
723.93	274.14
724.26	273.56
724.59	272.98
724.92	272.43
725.25	271.92
725.59	271.41
725.92	270.86
726.25	270.29
726.58	269.73
726.91	269.26
727.24	268.79
727.57	268.33
727.91	267.77
728.24	267.30
728.57	266.76
728.90	266.30
729.23	265.83
729.56	265.43
729.89	264.98
730.22	264.47
730.55	264.02
730.89	263.58
731.22	263.14
731.55	262.73
731.88	262.34
732.21	261.90
732.54	261.45
732.87	261.04
733.20	260.68
733.53	260.31
733.86	259.91
734.19	259.50
734.52	259.10
734.85	258.84
735.18	258.42
735.51	258.11
735.84	257.73
736.17	257.35
736.50	256.96
736.83	256.72
737.16	256.38
737.49	256.05
737.82	255.68
738.15	255.35
738.48	255.02
738.81	254.69
739.14	254.38
739.47	254.05
739.80	253.75
740.13	253.45
740.46	253.15
740.79	252.84
741.12	252.54
741.45	252.26
741.78	251.87
742.11	251.62
742.44	251.28
742.77	251.03
743.10	250.79
743.43	250.49
743.75	250.10
744.08	249.97
744.41	249.71
744.74	249.49
745.07	249.21
745.40	248.97
745.73	248.75
746.06	248.50
746.39	248.25
746.71	247.98
747.04	247.74
747.37	247.45
747.70	247.25
748.03	247.02
748.36	246.77
748.68	246.58
749.01	246.32
749.34	246.11
749.67	245.86
750.00	245.64
750.33	245.53
750.65	245.36
750.98	245.05
751.31	244.84
751.64	244.59
751.97	244.44
752.29	244.19
752.62	243.98
752.95	243.74
753.28	243.54
753.60	243.37
753.93	243.19
754.26	243.03
754.59	242.77
754.91	242.57
755.24	242.39
755.57	242.19
755.90	242.02
756.22	241.85
756.55	241.69
756.88	241.48
757.20	241.24
757.53	241.01
757.86	240.84
758.19	240.69
758.51	240.56
758.84	240.33
759.17	240.21
759.49	240.02
759.82	239.90
760.15	239.77
760.47	239.60
760.80	239.42
761.13	239.30
761.45	239.17
761.78	239.03
762.11	238.87
762.43	238.71
762.76	238.59
763.08	238.45
763.41	238.26
763.74	238.14
764.06	237.94
764.39	237.81
764.71	237.68
765.04	237.51
765.37	237.34
765.69	237.21
766.02	237.03
766.34	236.88
766.67	236.73
767.00	236.60
767.32	236.52
767.65	236.45
767.97	236.33
768.30	236.21
768.62	236.08
768.95	235.94
769.27	235.80
769.60	235.69
769.92	235.57
770.25	235.46
770.57	235.34
770.90	235.26
771.22	235.17
771.55	235.02
771.87	234.92
772.20	234.84
772.52	234.82
772.85	234.82
773.17	234.71
773.50	234.59
773.82	234.48
774.15	234.36
774.47	234.19
774.80	234.05
775.12	233.93
775.45	233.84
775.77	233.80
776.09	233.71
776.42	233.63
776.74	233.57
777.07	233.51
777.39	233.46
777.72	233.39
778.04	233.29
778.36	233.26
778.69	233.19
779.01	233.14
779.33	233.02
779.66	232.89
779.98	232.82
780.31	232.78
780.63	232.76
780.95	232.69
781.28	232.65
781.60	232.62
781.92	232.58
782.25	232.52
782.57	232.43
782.89	232.39
783.22	232.32
783.54	232.23
783.86	232.20
784.19	232.13
784.51	232.11
784.83	232.04
785.16	231.98
785.48	231.89
785.80	231.83
786.12	231.78
786.45	231.71
786.77	231.67
787.09	231.61
