SpectraSuite Data File
++++++++++++++++++++++++++++++++++++
Date: Fri Feb 01 15:06:36 EST 2013
User: group
Dark Spectrum Present: No
Reference Spectrum Present: No
Number of Sampled Component Spectra: 1
Spectrometers: USB2E7196
Integration Time (usec): 35000 (USB2E7196)
Spectra Averaged: 100 (USB2E7196)
Boxcar Smoothing: 10 (USB2E7196)
Correct for Electrical Dark: No (USB2E7196)
Strobe/Lamp Enabled: No (USB2E7196)
Correct for Detector Non-linearity: No (USB2E7196)
Correct for Stray Light: No (USB2E7196)
Number of Pixels in Processed Spectrum: 2048
>>>>>Begin Processed Spectral Data<<<<<
339.09	0.00
339.48	214.57
339.86	216.65
340.24	218.54
340.63	219.80
341.01	222.93
341.39	222.05
341.78	223.67
342.16	225.03
342.54	225.84
342.93	213.79
343.31	224.59
343.69	225.18
344.07	225.66
344.46	226.04
344.84	226.44
345.22	226.63
345.60	226.89
345.99	227.08
346.37	227.19
346.75	227.28
347.13	227.35
347.52	227.42
347.90	227.50
348.28	227.54
348.66	227.54
349.05	227.51
349.43	227.52
349.81	227.54
350.19	227.59
350.57	227.63
350.96	227.68
351.34	227.76
351.72	227.86
352.10	227.94
352.48	228.04
352.87	228.07
353.25	228.14
353.63	228.20
354.01	228.24
354.39	228.31
354.77	228.36
355.15	228.46
355.54	228.51
355.92	228.52
356.30	228.57
356.68	228.74
357.06	228.80
357.44	228.85
357.82	228.90
358.20	228.96
358.58	229.00
358.97	229.04
359.35	229.08
359.73	229.10
360.11	229.13
360.49	229.20
360.87	229.22
361.25	229.27
361.63	229.32
362.01	229.38
362.39	229.38
362.77	229.38
363.15	229.35
363.53	229.34
363.91	229.37
364.29	229.38
364.67	229.25
365.05	229.28
365.43	229.28
365.81	229.27
366.19	229.22
366.57	229.22
366.95	229.20
367.33	229.17
367.71	229.19
368.09	229.15
368.47	229.08
368.85	229.04
369.23	229.01
369.61	228.95
369.99	228.89
370.37	228.87
370.75	228.87
371.13	228.83
371.51	228.79
371.89	228.73
372.27	228.69
372.65	228.66
373.03	228.59
373.41	228.50
373.78	228.44
374.16	228.35
374.54	228.24
374.92	228.18
375.30	228.11
375.68	227.98
376.06	227.95
376.44	227.88
376.82	227.82
377.19	227.73
377.57	227.65
377.95	227.59
378.33	227.52
378.71	227.39
379.09	227.33
379.47	227.24
379.84	227.14
380.22	227.05
380.60	226.96
380.98	226.87
381.36	226.84
381.73	226.79
382.11	226.76
382.49	226.75
382.87	226.69
383.25	226.62
383.62	226.70
384.00	226.61
384.38	226.58
384.76	226.56
385.13	226.59
385.51	226.54
385.89	226.45
386.27	226.41
386.64	226.40
387.02	226.38
387.40	226.36
387.78	226.35
388.15	226.32
388.53	226.31
388.91	226.31
389.29	226.26
389.66	226.23
390.04	226.21
390.42	226.21
390.79	226.20
391.17	226.23
391.55	226.12
391.92	226.12
392.30	226.13
392.68	226.12
393.05	226.10
393.43	226.13
393.81	226.17
394.18	226.19
394.56	226.24
394.94	226.29
395.31	226.31
395.69	226.40
396.06	226.46
396.44	226.49
396.82	226.54
397.19	226.63
397.57	226.69
397.95	226.73
398.32	226.78
398.70	226.88
399.07	226.93
399.45	226.99
399.82	227.07
400.20	227.12
400.58	227.19
400.95	227.22
401.33	227.34
401.70	227.51
402.08	227.60
402.45	227.68
402.83	227.79
403.20	227.92
403.58	228.02
403.95	228.18
404.33	228.32
404.71	228.45
405.08	228.67
405.46	228.82
405.83	228.98
406.21	229.13
406.58	229.27
406.96	229.43
407.33	229.64
407.70	229.86
408.08	230.13
408.45	230.38
408.83	230.65
409.20	230.86
409.58	231.05
409.95	231.32
410.33	231.63
410.70	231.85
411.08	232.18
411.45	232.49
411.82	232.77
412.20	233.13
412.57	233.56
412.95	233.83
413.32	234.22
413.69	234.66
414.07	235.10
414.44	235.55
414.82	236.07
415.19	236.57
415.56	237.14
415.94	237.69
416.31	238.31
416.68	238.93
417.06	239.66
417.43	240.34
417.81	241.11
418.18	241.87
418.55	242.71
418.93	243.55
419.30	244.45
419.67	245.37
420.04	246.32
420.42	247.30
420.79	248.51
421.16	249.66
421.54	250.83
421.91	252.05
422.28	253.33
422.66	254.62
423.03	255.97
423.40	257.29
423.77	258.70
424.15	260.14
424.52	261.63
424.89	263.20
425.26	264.72
425.64	266.15
426.01	267.74
426.38	269.39
426.75	271.06
427.13	272.77
427.50	274.63
427.87	276.47
428.24	278.33
428.61	280.04
428.99	282.00
429.36	284.11
429.73	286.18
430.10	288.20
430.47	290.25
430.85	292.39
431.22	294.63
431.59	297.03
431.96	299.31
432.33	301.80
432.70	304.18
433.08	307.05
433.45	309.73
433.82	312.34
434.19	315.28
434.56	318.08
434.93	320.77
435.30	323.41
435.68	326.33
436.05	329.17
436.42	332.00
436.79	334.51
437.16	337.20
437.53	339.99
437.90	342.81
438.27	345.61
438.64	348.41
439.01	351.04
439.38	353.26
439.75	355.40
440.13	357.90
440.50	360.25
440.87	362.09
441.24	364.04
441.61	366.23
441.98	367.73
442.35	369.54
442.72	371.39
443.09	373.13
443.46	374.13
443.83	374.71
444.20	375.23
444.57	376.07
444.94	376.37
445.31	376.78
445.68	377.13
446.05	377.19
446.42	376.86
446.79	376.42
447.16	375.95
447.53	375.64
447.90	374.51
448.27	373.35
448.64	371.74
449.01	370.56
449.37	368.56
449.74	366.60
450.11	364.36
450.48	361.85
450.85	359.39
451.22	357.23
451.59	355.20
451.96	353.23
452.33	350.64
452.70	348.30
453.07	345.39
453.43	342.50
453.80	339.73
454.17	337.02
454.54	334.46
454.91	331.79
455.28	329.08
455.65	326.61
456.02	324.16
456.38	321.99
456.75	319.33
457.12	317.11
457.49	314.93
457.86	312.77
458.23	310.94
458.59	308.86
458.96	306.81
459.33	304.98
459.70	303.10
460.07	301.60
460.43	299.88
460.80	298.29
461.17	296.86
461.54	295.39
461.91	293.98
462.27	292.52
462.64	291.24
463.01	289.92
463.38	288.63
463.74	287.23
464.11	286.11
464.48	285.12
464.85	284.02
465.21	283.15
465.58	282.20
465.95	281.11
466.32	280.20
466.68	279.29
467.05	278.39
467.42	277.50
467.78	276.55
468.15	275.67
468.52	274.99
468.88	274.11
469.25	273.31
469.62	272.64
469.98	271.93
470.35	271.27
470.72	270.63
471.08	269.93
471.45	269.42
471.82	268.83
472.18	268.22
472.55	267.73
472.92	267.20
473.28	266.76
473.65	266.30
474.02	265.87
474.38	265.47
474.75	265.12
475.11	264.78
475.48	264.52
475.85	264.29
476.21	264.07
476.58	263.89
476.94	263.73
477.31	263.56
477.67	263.43
478.04	263.33
478.41	263.28
478.77	263.29
479.14	263.21
479.50	263.22
479.87	263.25
480.23	263.32
480.60	263.36
480.96	263.43
481.33	263.64
481.69	263.83
482.06	264.01
482.42	264.21
482.79	264.42
483.15	264.71
483.52	265.06
483.88	265.38
484.25	265.73
484.61	266.12
484.98	266.58
485.34	267.15
485.71	267.71
486.07	268.29
486.44	268.82
486.80	269.49
487.17	270.25
487.53	271.04
487.90	271.88
488.26	272.80
488.62	273.75
488.99	274.67
489.35	275.67
489.72	276.79
490.08	277.97
490.44	279.22
490.81	280.54
491.17	281.86
491.54	283.31
491.90	284.85
492.26	286.50
492.63	288.19
492.99	289.93
493.36	291.80
493.72	293.84
494.08	295.92
494.45	298.15
494.81	300.46
495.17	302.94
495.54	305.44
495.90	308.09
496.26	310.90
496.63	313.86
496.99	316.97
497.35	320.23
497.72	323.64
498.08	327.10
498.44	330.76
498.80	334.62
499.17	338.64
499.53	342.82
499.89	347.18
500.26	351.69
500.62	356.35
500.98	361.31
501.34	366.36
501.71	371.70
502.07	377.14
502.43	382.72
502.79	388.48
503.16	394.55
503.52	400.85
503.88	407.21
504.24	413.84
504.60	420.72
504.97	427.79
505.33	435.09
505.69	442.86
506.05	450.62
506.41	458.54
506.78	466.65
507.14	475.10
507.50	483.79
507.86	492.81
508.22	501.94
508.59	511.12
508.95	520.71
509.31	530.53
509.67	540.67
510.03	550.95
510.39	561.49
510.75	572.32
511.12	583.24
511.48	594.57
511.84	606.05
512.20	617.59
512.56	629.61
512.92	641.74
513.28	653.99
513.64	666.49
514.00	679.20
514.37	692.16
514.73	705.20
515.09	718.23
515.45	731.50
515.81	745.22
516.17	759.26
516.53	773.36
516.89	787.52
517.25	801.65
517.61	816.19
517.97	830.72
518.33	845.21
518.69	860.00
519.05	875.00
519.41	890.15
519.77	905.64
520.13	921.06
520.49	936.60
520.85	952.06
521.21	967.91
521.57	984.24
521.93	1000.08
522.29	1016.53
522.65	1032.88
523.01	1049.24
523.37	1065.26
523.73	1081.48
524.09	1097.64
524.45	1114.03
524.81	1130.69
525.17	1147.50
525.53	1164.45
525.89	1181.33
526.25	1198.23
526.61	1214.74
526.97	1231.64
527.33	1248.08
527.68	1264.85
528.04	1281.34
528.40	1298.10
528.76	1315.10
529.12	1331.73
529.48	1348.65
529.84	1364.70
530.20	1381.40
530.56	1398.49
530.91	1415.91
531.27	1432.72
531.63	1449.34
531.99	1466.00
532.35	1482.06
532.71	1498.00
533.07	1514.28
533.42	1530.23
533.78	1546.27
534.14	1562.58
534.50	1577.87
534.86	1593.95
535.21	1609.01
535.57	1624.99
535.93	1640.50
536.29	1655.45
536.65	1670.66
537.00	1685.63
537.36	1701.11
537.72	1715.65
538.08	1730.01
538.44	1744.01
538.79	1757.99
539.15	1771.76
539.51	1785.65
539.87	1800.15
540.22	1813.90
540.58	1827.76
540.94	1841.17
541.29	1854.39
541.65	1867.15
542.01	1880.61
542.37	1893.02
542.72	1905.70
543.08	1917.58
543.44	1930.08
543.79	1941.21
544.15	1952.15
544.51	1963.65
544.87	1974.63
545.22	1985.57
545.58	1995.84
545.94	2005.66
546.29	2015.67
546.65	2025.44
547.01	2034.81
547.36	2043.54
547.72	2052.09
548.07	2059.96
548.43	2068.17
548.79	2076.20
549.14	2083.74
549.50	2091.08
549.86	2098.83
550.21	2106.06
550.57	2113.23
550.92	2119.76
551.28	2126.90
551.64	2133.95
551.99	2140.55
552.35	2146.67
552.70	2152.81
553.06	2158.74
553.41	2164.96
553.77	2170.84
554.13	2176.99
554.48	2183.01
554.84	2188.37
555.19	2193.75
555.55	2198.84
555.90	2203.38
556.26	2207.98
556.61	2212.73
556.97	2216.85
557.32	2220.95
557.68	2225.14
558.03	2229.47
558.39	2233.21
558.74	2237.84
559.10	2241.62
559.45	2245.22
559.81	2249.61
560.16	2253.28
560.52	2256.52
560.87	2260.03
561.23	2262.64
561.58	2265.44
561.94	2267.77
562.29	2270.30
562.64	2272.87
563.00	2275.52
563.35	2278.85
563.71	2281.98
564.06	2285.09
564.42	2287.84
564.77	2290.19
565.12	2292.32
565.48	2293.90
565.83	2295.67
566.19	2296.69
566.54	2297.64
566.89	2298.56
567.25	2298.96
567.60	2300.39
567.96	2301.93
568.31	2302.69
568.66	2303.53
569.02	2304.15
569.37	2304.50
569.72	2304.99
570.08	2304.99
570.43	2304.79
570.78	2304.01
571.14	2302.44
571.49	2300.98
571.84	2300.53
572.20	2299.27
572.55	2298.06
572.90	2296.57
573.26	2294.95
573.61	2293.24
573.96	2291.33
574.31	2288.31
574.67	2285.19
575.02	2281.35
575.37	2278.00
575.72	2273.92
576.08	2270.66
576.43	2267.17
576.78	2263.22
577.13	2260.05
577.49	2256.90
577.84	2253.31
578.19	2249.58
578.54	2245.72
578.90	2241.31
579.25	2235.74
579.60	2230.71
579.95	2225.68
580.30	2220.46
580.66	2215.20
581.01	2210.28
581.36	2205.24
581.71	2200.88
582.06	2196.28
582.42	2191.58
582.77	2186.06
583.12	2181.33
583.47	2176.41
583.82	2171.18
584.17	2165.87
584.53	2160.19
584.88	2154.49
585.23	2148.69
585.58	2143.10
585.93	2137.72
586.28	2132.91
586.63	2127.74
586.98	2122.57
587.34	2117.82
587.69	2112.81
588.04	2107.49
588.39	2101.60
588.74	2095.13
589.09	2088.93
589.44	2082.10
589.79	2076.11
590.14	2070.56
590.49	2064.02
590.84	2057.43
591.19	2051.43
591.54	2044.83
591.89	2037.31
592.25	2030.31
592.60	2022.93
592.95	2015.33
593.30	2007.79
593.65	2000.04
594.00	1993.00
594.35	1985.68
594.70	1977.38
595.05	1970.02
595.40	1962.69
595.75	1955.23
596.10	1948.80
596.45	1941.87
596.80	1935.55
597.15	1928.82
597.50	1921.50
597.85	1915.15
598.19	1908.51
598.54	1901.26
598.89	1894.72
599.24	1888.78
599.59	1881.98
599.94	1875.77
600.29	1869.38
600.64	1862.76
600.99	1855.31
601.34	1848.21
601.69	1841.19
602.04	1834.29
602.39	1827.06
602.74	1820.20
603.08	1813.43
603.43	1806.69
603.78	1799.62
604.13	1792.42
604.48	1785.07
604.83	1778.35
605.18	1771.06
605.53	1763.10
605.87	1755.23
606.22	1747.85
606.57	1739.94
606.92	1732.74
607.27	1725.45
607.62	1718.43
607.96	1711.12
608.31	1704.48
608.66	1696.96
609.01	1689.34
609.36	1681.79
609.70	1673.74
610.05	1665.71
610.40	1657.98
610.75	1649.72
611.10	1641.89
611.44	1633.62
611.79	1625.64
612.14	1616.81
612.49	1607.79
612.83	1599.54
613.18	1591.36
613.53	1583.31
613.88	1574.89
614.22	1566.60
614.57	1558.23
614.92	1550.21
615.27	1542.63
615.61	1534.32
615.96	1526.37
616.31	1518.91
616.65	1511.55
617.00	1504.06
617.35	1496.35
617.70	1487.94
618.04	1479.39
618.39	1471.17
618.74	1463.53
619.08	1455.10
619.43	1447.60
619.78	1440.64
620.12	1433.38
620.47	1425.88
620.82	1417.74
621.16	1410.34
621.51	1402.75
621.85	1395.11
622.20	1386.75
622.55	1378.39
622.89	1370.73
623.24	1363.15
623.59	1355.63
623.93	1348.17
624.28	1340.89
624.62	1333.33
624.97	1326.29
625.32	1319.57
625.66	1312.58
626.01	1305.38
626.35	1298.12
626.70	1290.33
627.04	1282.70
627.39	1274.98
627.73	1267.57
628.08	1260.64
628.43	1253.23
628.77	1245.89
629.12	1238.33
629.46	1231.01
629.81	1223.68
630.15	1216.37
630.50	1208.91
630.84	1200.80
631.19	1192.86
631.53	1185.37
631.88	1177.92
632.22	1170.34
632.57	1163.11
632.91	1155.67
633.26	1148.16
633.60	1140.89
633.95	1133.94
634.29	1126.92
634.64	1120.23
634.98	1112.89
635.32	1105.87
635.67	1099.47
636.01	1092.86
636.36	1086.00
636.70	1079.57
637.05	1073.07
637.39	1066.73
637.73	1060.26
638.08	1054.45
638.42	1048.62
638.77	1042.22
639.11	1035.58
639.45	1029.21
639.80	1022.54
640.14	1016.09
640.49	1009.66
640.83	1003.33
641.17	997.05
641.52	990.75
641.86	984.41
642.20	978.59
642.55	972.41
642.89	965.82
643.23	959.29
643.58	953.60
643.92	947.40
644.26	941.24
644.61	935.17
644.95	929.15
645.29	922.50
645.64	915.68
645.98	909.40
646.32	903.69
646.66	897.68
647.01	891.93
647.35	886.31
647.69	880.53
648.04	875.02
648.38	869.20
648.72	863.19
649.06	857.12
649.41	851.24
649.75	845.17
650.09	839.18
650.43	833.38
650.78	827.25
651.12	821.32
651.46	815.68
651.80	809.85
652.14	804.45
652.49	799.13
652.83	794.02
653.17	788.29
653.51	782.53
653.85	777.18
654.20	771.47
654.54	765.52
654.88	759.80
655.22	753.93
655.56	748.39
655.90	742.97
656.25	737.69
656.59	732.39
656.93	727.33
657.27	722.23
657.61	716.86
657.95	711.82
658.29	706.79
658.64	701.61
658.98	696.31
659.32	690.90
659.66	685.69
660.00	680.30
660.34	675.43
660.68	670.53
661.02	665.49
661.36	660.80
661.70	656.31
662.05	651.92
662.39	647.63
662.73	643.17
663.07	638.80
663.41	634.40
663.75	629.89
664.09	625.33
664.43	620.99
664.77	616.82
665.11	612.53
665.45	608.43
665.79	604.33
666.13	600.32
666.47	596.27
666.81	592.16
667.15	588.18
667.49	584.28
667.83	580.53
668.17	576.58
668.51	572.57
668.85	568.56
669.19	564.77
669.53	560.91
669.87	557.05
670.21	553.38
670.55	549.74
670.89	546.34
671.23	542.93
671.57	539.46
671.91	535.99
672.25	532.59
672.58	529.08
672.92	525.73
673.26	522.60
673.60	519.52
673.94	516.41
674.28	513.50
674.62	510.58
674.96	507.48
675.30	504.58
675.64	501.70
675.97	498.94
676.31	496.08
676.65	493.17
676.99	490.50
677.33	487.68
677.67	484.91
678.01	481.90
678.34	478.99
678.68	476.13
679.02	473.34
679.36	470.54
679.70	467.86
680.04	465.08
680.37	462.18
680.71	459.41
681.05	456.86
681.39	454.13
681.73	451.51
682.06	448.99
682.40	446.49
682.74	443.98
683.08	441.41
683.42	438.87
683.75	436.42
684.09	433.89
684.43	431.42
684.77	428.95
685.10	426.67
685.44	424.33
685.78	422.06
686.12	419.85
686.45	417.58
686.79	415.30
687.13	413.15
687.46	411.07
687.80	408.90
688.14	406.67
688.48	404.62
688.81	402.38
689.15	400.23
689.49	398.07
689.82	396.04
690.16	393.99
690.50	392.00
690.83	390.05
691.17	388.05
691.51	386.20
691.84	384.36
692.18	382.38
692.52	380.42
692.85	378.48
693.19	376.61
693.52	374.81
693.86	373.01
694.20	371.23
694.53	369.40
694.87	367.59
695.21	365.82
695.54	364.01
695.88	362.33
696.21	360.62
696.55	358.91
696.88	357.17
697.22	355.50
697.56	353.94
697.89	352.29
698.23	350.66
698.56	349.01
698.90	347.43
699.23	345.79
699.57	344.23
699.90	342.70
700.24	341.11
700.58	339.52
700.91	338.01
701.25	336.54
701.58	335.15
701.92	333.76
702.25	332.38
702.59	331.06
702.92	329.71
703.26	328.47
703.59	327.23
703.93	326.11
704.26	324.87
704.60	323.57
704.93	322.30
705.26	321.07
705.60	319.91
705.93	318.74
706.27	317.77
706.60	316.76
706.94	315.71
707.27	314.60
707.61	313.57
707.94	312.54
708.27	311.44
708.61	310.39
708.94	309.44
709.28	308.44
709.61	307.43
709.94	306.51
710.28	305.45
710.61	304.50
710.95	303.38
711.28	302.48
711.61	301.55
711.95	300.64
712.28	299.69
712.61	298.72
712.95	297.81
713.28	296.91
713.61	296.00
713.95	295.11
714.28	294.28
714.61	293.43
714.95	292.61
715.28	291.79
715.61	290.91
715.95	290.04
716.28	289.22
716.61	288.44
716.95	287.65
717.28	286.95
717.61	286.20
717.94	285.47
718.28	284.68
718.61	283.99
718.94	283.36
719.27	282.75
719.61	282.12
719.94	281.48
720.27	280.76
720.60	280.15
720.94	279.59
721.27	279.01
721.60	278.44
721.93	277.88
722.27	277.36
722.60	276.83
722.93	276.25
723.26	275.76
723.59	275.19
723.93	274.65
724.26	274.08
724.59	273.51
724.92	273.01
725.25	272.50
725.59	271.94
725.92	271.41
726.25	270.91
726.58	270.41
726.91	269.93
727.24	269.51
727.57	268.99
727.91	268.46
728.24	268.05
728.57	267.58
728.90	267.08
729.23	266.58
729.56	266.15
729.89	265.71
730.22	265.18
730.55	264.73
730.89	264.26
731.22	263.83
731.55	263.37
731.88	262.96
732.21	262.55
732.54	262.09
732.87	261.66
733.20	261.26
733.53	260.87
733.86	260.48
734.19	260.04
734.52	259.70
734.85	259.36
735.18	258.87
735.51	258.52
735.84	258.14
736.17	257.75
736.50	257.35
736.83	257.10
737.16	256.78
737.49	256.44
737.82	256.10
738.15	255.79
738.48	255.46
738.81	255.08
739.14	254.76
739.47	254.47
739.80	254.11
740.13	253.77
740.46	253.42
740.79	253.08
741.12	252.80
741.45	252.45
741.78	252.16
742.11	251.89
742.44	251.54
742.77	251.25
743.10	250.97
743.43	250.63
743.75	250.24
744.08	250.10
744.41	249.82
744.74	249.56
745.07	249.23
745.40	249.04
745.73	248.83
746.06	248.53
746.39	248.27
746.71	248.05
747.04	247.79
747.37	247.56
747.70	247.32
748.03	247.11
748.36	246.88
748.68	246.61
749.01	246.35
749.34	246.16
749.67	245.92
750.00	245.71
750.33	245.58
750.65	245.40
750.98	245.06
751.31	244.82
751.64	244.62
751.97	244.49
752.29	244.24
752.62	244.02
752.95	243.83
753.28	243.61
753.60	243.37
753.93	243.23
754.26	243.03
754.59	242.82
754.91	242.59
755.24	242.40
755.57	242.21
755.90	242.06
756.22	241.83
756.55	241.66
756.88	241.46
757.20	241.23
757.53	240.98
757.86	240.80
758.19	240.66
758.51	240.46
758.84	240.24
759.17	240.09
759.49	239.94
759.82	239.82
760.15	239.69
760.47	239.55
760.80	239.35
761.13	239.23
761.45	239.09
761.78	238.94
762.11	238.80
762.43	238.65
762.76	238.51
763.08	238.39
763.41	238.24
763.74	238.11
764.06	237.96
764.39	237.85
764.71	237.72
765.04	237.59
765.37	237.45
765.69	237.31
766.02	237.19
766.34	237.00
766.67	236.83
767.00	236.76
767.32	236.69
767.65	236.63
767.97	236.48
768.30	236.37
768.62	236.27
768.95	236.14
769.27	236.02
769.60	235.90
769.92	235.76
770.25	235.65
770.57	235.54
770.90	235.44
771.22	235.33
771.55	235.21
771.87	235.09
772.20	235.02
772.52	234.99
772.85	234.96
773.17	234.91
773.50	234.82
773.82	234.67
774.15	234.56
774.47	234.42
774.80	234.34
775.12	234.24
775.45	234.13
775.77	234.04
776.09	233.99
776.42	233.89
776.74	233.85
777.07	233.79
777.39	233.73
777.72	233.66
778.04	233.63
778.36	233.58
778.69	233.52
779.01	233.43
779.33	233.27
779.66	233.12
779.98	233.01
780.31	232.97
780.63	232.94
780.95	232.86
781.28	232.79
781.60	232.72
781.92	232.65
782.25	232.59
782.57	232.55
782.89	232.47
783.22	232.41
783.54	232.34
783.86	232.26
784.19	232.18
784.51	232.15
784.83	232.06
785.16	232.02
785.48	232.00
785.80	231.95
786.12	231.91
786.45	231.86
786.77	231.83
787.09	231.77
