SpectraSuite Data File
++++++++++++++++++++++++++++++++++++
Date: Fri Feb 01 17:09:49 EST 2013
User: group
Dark Spectrum Present: No
Reference Spectrum Present: No
Number of Sampled Component Spectra: 1
Spectrometers: USB2E7196
Integration Time (usec): 35000 (USB2E7196)
Spectra Averaged: 100 (USB2E7196)
Boxcar Smoothing: 10 (USB2E7196)
Correct for Electrical Dark: No (USB2E7196)
Strobe/Lamp Enabled: No (USB2E7196)
Correct for Detector Non-linearity: No (USB2E7196)
Correct for Stray Light: No (USB2E7196)
Number of Pixels in Processed Spectrum: 2048
>>>>>Begin Processed Spectral Data<<<<<
339.09	0.00
339.48	213.81
339.86	215.07
340.24	216.24
340.63	217.36
341.01	220.46
341.39	220.45
341.78	221.74
342.16	223.61
342.54	223.62
342.93	212.05
343.31	222.77
343.69	223.32
344.07	223.77
344.46	224.17
344.84	224.57
345.22	224.83
345.60	225.08
345.99	225.29
346.37	225.39
346.75	225.51
347.13	225.55
347.52	225.57
347.90	225.63
348.28	225.58
348.66	225.62
349.05	225.58
349.43	225.57
349.81	225.63
350.19	225.69
350.57	225.70
350.96	225.75
351.34	225.81
351.72	225.89
352.10	225.97
352.48	226.08
352.87	226.11
353.25	226.14
353.63	226.19
354.01	226.22
354.39	226.29
354.77	226.33
355.15	226.45
355.54	226.51
355.92	226.55
356.30	226.65
356.68	226.75
357.06	226.80
357.44	226.87
357.82	226.90
358.20	226.94
358.58	227.00
358.97	227.10
359.35	227.19
359.73	227.24
360.11	227.28
360.49	227.30
360.87	227.36
361.25	227.40
361.63	227.44
362.01	227.49
362.39	227.48
362.77	227.49
363.15	227.51
363.53	227.56
363.91	227.58
364.29	227.61
364.67	227.53
365.05	227.55
365.43	227.58
365.81	227.61
366.19	227.64
366.57	227.72
366.95	227.68
367.33	227.63
367.71	227.61
368.09	227.61
368.47	227.58
368.85	227.57
369.23	227.58
369.61	227.54
369.99	227.55
370.37	227.56
370.75	227.58
371.13	227.52
371.51	227.44
371.89	227.44
372.27	227.39
372.65	227.36
373.03	227.33
373.41	227.28
373.78	227.22
374.16	227.16
374.54	227.06
374.92	227.00
375.30	226.96
375.68	226.91
376.06	226.88
376.44	226.85
376.82	226.79
377.19	226.73
377.57	226.66
377.95	226.58
378.33	226.54
378.71	226.40
379.09	226.36
379.47	226.31
379.84	226.21
380.22	226.16
380.60	226.10
380.98	226.05
381.36	225.98
381.73	225.93
382.11	225.90
382.49	225.87
382.87	225.83
383.25	225.74
383.62	225.81
384.00	225.74
384.38	225.69
384.76	225.67
385.13	225.65
385.51	225.63
385.89	225.59
386.27	225.57
386.64	225.55
387.02	225.51
387.40	225.49
387.78	225.48
388.15	225.45
388.53	225.43
388.91	225.39
389.29	225.34
389.66	225.31
390.04	225.24
390.42	225.19
390.79	225.17
391.17	225.14
391.55	225.01
391.92	225.01
392.30	225.02
392.68	224.97
393.05	224.95
393.43	224.94
393.81	224.94
394.18	224.89
394.56	224.92
394.94	224.95
395.31	224.91
395.69	224.99
396.06	225.00
396.44	224.99
396.82	225.01
397.19	225.08
397.57	225.12
397.95	225.19
398.32	225.24
398.70	225.28
399.07	225.35
399.45	225.39
399.82	225.42
400.20	225.47
400.58	225.55
400.95	225.56
401.33	225.63
401.70	225.75
402.08	225.83
402.45	225.89
402.83	225.99
403.20	226.07
403.58	226.12
403.95	226.22
404.33	226.36
404.71	226.47
405.08	226.66
405.46	226.76
405.83	226.87
406.21	226.97
406.58	227.12
406.96	227.29
407.33	227.45
407.70	227.62
408.08	227.87
408.45	228.09
408.83	228.33
409.20	228.51
409.58	228.66
409.95	228.91
410.33	229.13
410.70	229.38
411.08	229.68
411.45	229.98
411.82	230.27
412.20	230.62
412.57	231.01
412.95	231.28
413.32	231.68
413.69	232.06
414.07	232.51
414.44	233.00
414.82	233.45
415.19	233.99
415.56	234.56
415.94	235.06
416.31	235.69
416.68	236.27
417.06	237.00
417.43	237.69
417.81	238.45
418.18	239.26
418.55	240.09
418.93	240.96
419.30	241.87
419.67	242.81
420.04	243.75
420.42	244.76
420.79	245.93
421.16	247.08
421.54	248.33
421.91	249.52
422.28	250.76
422.66	252.11
423.03	253.44
423.40	254.76
423.77	256.23
424.15	257.64
424.52	259.17
424.89	260.76
425.26	262.34
425.64	263.79
426.01	265.39
426.38	267.04
426.75	268.69
427.13	270.42
427.50	272.20
427.87	274.07
428.24	275.95
428.61	277.68
428.99	279.62
429.36	281.68
429.73	283.74
430.10	285.74
430.47	287.83
430.85	289.90
431.22	292.15
431.59	294.50
431.96	296.72
432.33	299.20
432.70	301.58
433.08	304.40
433.45	307.07
433.82	309.65
434.19	312.52
434.56	315.35
434.93	317.96
435.30	320.61
435.68	323.51
436.05	326.30
436.42	329.12
436.79	331.61
437.16	334.31
437.53	337.16
437.90	339.97
438.27	342.70
438.64	345.53
439.01	348.13
439.38	350.32
439.75	352.51
440.13	354.99
440.50	357.32
440.87	359.11
441.24	361.04
441.61	363.20
441.98	364.69
442.35	366.46
442.72	368.32
443.09	370.10
443.46	371.10
443.83	371.67
444.20	372.18
444.57	373.05
444.94	373.36
445.31	373.68
445.68	374.09
446.05	374.16
446.42	373.79
446.79	373.39
447.16	372.94
447.53	372.62
447.90	371.46
448.27	370.34
448.64	368.79
449.01	367.64
449.37	365.67
449.74	363.83
450.11	361.64
450.48	359.21
450.85	356.70
451.22	354.61
451.59	352.64
451.96	350.74
452.33	348.11
452.70	345.74
453.07	342.93
453.43	339.99
453.80	337.22
454.17	334.53
454.54	332.01
454.91	329.34
455.28	326.67
455.65	324.15
456.02	321.69
456.38	319.55
456.75	316.91
457.12	314.67
457.49	312.43
457.86	310.27
458.23	308.42
458.59	306.43
458.96	304.30
459.33	302.43
459.70	300.53
460.07	299.06
460.43	297.34
460.80	295.73
461.17	294.30
461.54	292.81
461.91	291.42
462.27	289.93
462.64	288.68
463.01	287.34
463.38	286.13
463.74	284.76
464.11	283.63
464.48	282.62
464.85	281.52
465.21	280.66
465.58	279.74
465.95	278.64
466.32	277.71
466.68	276.86
467.05	275.97
467.42	275.10
467.78	274.19
468.15	273.31
468.52	272.65
468.88	271.79
469.25	271.02
469.62	270.43
469.98	269.75
470.35	269.14
470.72	268.56
471.08	267.90
471.45	267.40
471.82	266.83
472.18	266.21
472.55	265.80
472.92	265.28
473.28	264.84
473.65	264.40
474.02	263.98
474.38	263.58
474.75	263.28
475.11	262.95
475.48	262.68
475.85	262.49
476.21	262.29
476.58	262.15
476.94	262.02
477.31	261.85
477.67	261.72
478.04	261.61
478.41	261.55
478.77	261.61
479.14	261.54
479.50	261.59
479.87	261.67
480.23	261.74
480.60	261.83
480.96	261.92
481.33	262.15
481.69	262.36
482.06	262.61
482.42	262.79
482.79	263.05
483.15	263.38
483.52	263.75
483.88	264.10
484.25	264.49
484.61	264.94
484.98	265.41
485.34	265.95
485.71	266.57
486.07	267.15
486.44	267.72
486.80	268.45
487.17	269.17
487.53	270.00
487.90	270.86
488.26	271.78
488.62	272.76
488.99	273.73
489.35	274.78
489.72	275.85
490.08	277.08
490.44	278.32
490.81	279.65
491.17	281.02
491.54	282.51
491.90	284.06
492.26	285.68
492.63	287.40
492.99	289.22
493.36	291.09
493.72	293.12
494.08	295.20
494.45	297.45
494.81	299.84
495.17	302.27
495.54	304.80
495.90	307.45
496.26	310.27
496.63	313.22
496.99	316.31
497.35	319.57
497.72	322.96
498.08	326.47
498.44	330.16
498.80	334.10
499.17	338.12
499.53	342.25
499.89	346.59
500.26	351.07
500.62	355.72
500.98	360.70
501.34	365.78
501.71	371.09
502.07	376.42
502.43	381.96
502.79	387.77
503.16	393.82
503.52	400.12
503.88	406.46
504.24	413.07
504.60	419.91
504.97	427.02
505.33	434.31
505.69	441.96
506.05	449.60
506.41	457.39
506.78	465.44
507.14	473.75
507.50	482.43
507.86	491.35
508.22	500.40
508.59	509.47
508.95	518.94
509.31	528.59
509.67	538.62
510.03	548.80
510.39	559.22
510.75	569.87
511.12	580.67
511.48	591.75
511.84	603.03
512.20	614.32
512.56	625.99
512.92	637.93
513.28	650.11
513.64	662.48
514.00	674.97
514.37	687.76
514.73	700.56
515.09	713.29
515.45	726.35
515.81	739.69
516.17	753.41
516.53	767.23
516.89	781.18
517.25	795.06
517.61	809.21
517.97	823.44
518.33	837.56
518.69	851.98
519.05	866.71
519.41	881.56
519.77	896.79
520.13	911.97
520.49	927.08
520.85	942.07
521.21	957.47
521.57	973.35
521.93	988.78
522.29	1004.93
522.65	1020.86
523.01	1036.71
523.37	1052.39
523.73	1068.23
524.09	1083.99
524.45	1099.86
524.81	1116.16
525.17	1132.50
525.53	1148.94
525.89	1165.48
526.25	1182.02
526.61	1197.96
526.97	1214.29
527.33	1230.46
527.68	1246.70
528.04	1262.73
528.40	1278.97
528.76	1295.44
529.12	1311.73
529.48	1328.27
529.84	1343.85
530.20	1360.12
530.56	1376.65
530.91	1393.64
531.27	1410.04
531.63	1426.20
531.99	1442.41
532.35	1457.92
532.71	1473.55
533.07	1489.44
533.42	1504.90
533.78	1520.56
534.14	1536.45
534.50	1551.47
534.86	1566.86
535.21	1581.71
535.57	1597.27
535.93	1612.34
536.29	1626.88
536.65	1641.58
537.00	1655.87
537.36	1670.82
537.72	1685.03
538.08	1699.21
538.44	1712.78
538.79	1726.23
539.15	1739.41
539.51	1752.83
539.87	1766.97
540.22	1780.28
540.58	1793.58
540.94	1806.57
541.29	1818.97
541.65	1831.37
542.01	1844.16
542.37	1856.26
542.72	1868.28
543.08	1879.77
543.44	1891.88
543.79	1902.84
544.15	1913.47
544.51	1924.78
544.87	1935.42
545.22	1946.05
545.58	1956.05
545.94	1965.63
546.29	1975.37
546.65	1985.22
547.01	1994.37
547.36	2002.82
547.72	2011.14
548.07	2019.03
548.43	2026.96
548.79	2034.82
549.14	2042.35
549.50	2049.55
549.86	2056.90
550.21	2064.14
550.57	2071.29
550.92	2077.89
551.28	2084.88
551.64	2091.96
551.99	2098.45
552.35	2104.69
552.70	2110.75
553.06	2116.60
553.41	2122.90
553.77	2128.83
554.13	2134.64
554.48	2140.76
554.84	2146.33
555.19	2151.49
555.55	2156.67
555.90	2161.34
556.26	2166.39
556.61	2171.04
556.97	2175.47
557.32	2179.74
557.68	2184.00
558.03	2188.28
558.39	2191.97
558.74	2196.63
559.10	2200.64
559.45	2204.33
559.81	2208.56
560.16	2212.40
560.52	2215.81
560.87	2219.15
561.23	2221.96
561.58	2224.97
561.94	2227.45
562.29	2229.80
562.64	2232.82
563.00	2235.42
563.35	2239.07
563.71	2242.08
564.06	2245.36
564.42	2248.33
564.77	2251.06
565.12	2253.57
565.48	2255.67
565.83	2257.67
566.19	2259.24
566.54	2259.92
566.89	2261.26
567.25	2262.09
567.60	2263.52
567.96	2265.32
568.31	2266.43
568.66	2267.76
569.02	2268.56
569.37	2269.20
569.72	2270.40
570.08	2270.56
570.43	2270.71
570.78	2270.42
571.14	2269.25
571.49	2268.06
571.84	2267.97
572.20	2267.14
572.55	2266.25
572.90	2264.74
573.26	2263.70
573.61	2262.07
573.96	2260.80
574.31	2258.16
574.67	2255.61
575.02	2252.24
575.37	2249.03
575.72	2245.52
576.08	2242.16
576.43	2239.13
576.78	2235.78
577.13	2232.66
577.49	2229.97
577.84	2226.87
578.19	2223.29
578.54	2220.19
578.90	2216.39
579.25	2211.05
579.60	2206.45
579.95	2201.67
580.30	2197.10
580.66	2192.20
581.01	2187.48
581.36	2182.86
581.71	2178.88
582.06	2174.55
582.42	2170.42
582.77	2165.61
583.12	2161.23
583.47	2157.01
583.82	2152.43
584.17	2147.42
584.53	2142.35
584.88	2136.73
585.23	2131.26
585.58	2125.97
585.93	2120.42
586.28	2115.78
586.63	2110.97
586.98	2105.97
587.34	2101.42
587.69	2096.64
588.04	2091.52
588.39	2086.24
588.74	2079.91
589.09	2073.90
589.44	2067.43
589.79	2061.42
590.14	2055.90
590.49	2049.58
590.84	2043.33
591.19	2037.36
591.54	2031.07
591.89	2024.06
592.25	2017.72
592.60	2010.60
592.95	2003.27
593.30	1996.17
593.65	1988.76
594.00	1981.93
594.35	1974.84
594.70	1966.99
595.05	1960.12
595.40	1952.99
595.75	1945.67
596.10	1939.72
596.45	1933.27
596.80	1927.24
597.15	1920.91
597.50	1914.22
597.85	1907.80
598.19	1901.30
598.54	1894.40
598.89	1887.88
599.24	1882.00
599.59	1875.48
599.94	1869.48
600.29	1863.30
600.64	1856.92
600.99	1849.76
601.34	1843.14
601.69	1836.30
602.04	1829.73
602.39	1822.47
602.74	1815.88
603.08	1809.28
603.43	1802.65
603.78	1795.36
604.13	1788.27
604.48	1781.16
604.83	1774.23
605.18	1767.61
605.53	1759.85
605.87	1751.97
606.22	1744.80
606.57	1736.79
606.92	1729.55
607.27	1722.59
607.62	1715.75
607.96	1708.68
608.31	1702.29
608.66	1694.75
609.01	1687.28
609.36	1679.76
609.70	1671.89
610.05	1663.94
610.40	1656.34
610.75	1648.18
611.10	1640.65
611.44	1632.21
611.79	1624.15
612.14	1615.68
612.49	1606.51
612.83	1598.10
613.18	1590.03
613.53	1581.98
613.88	1573.75
614.22	1565.48
614.57	1556.79
614.92	1548.81
615.27	1541.33
615.61	1533.06
615.96	1525.09
616.31	1517.56
616.65	1510.12
617.00	1502.55
617.35	1494.83
617.70	1486.51
618.04	1477.94
618.39	1469.79
618.74	1462.35
619.08	1454.20
619.43	1446.64
619.78	1439.85
620.12	1432.83
620.47	1425.40
620.82	1417.35
621.16	1409.75
621.51	1402.09
621.85	1394.54
622.20	1386.21
622.55	1377.79
622.89	1369.92
623.24	1362.34
623.59	1354.88
623.93	1347.49
624.28	1340.29
624.62	1332.88
624.97	1325.73
625.32	1318.92
625.66	1311.89
626.01	1304.77
626.35	1297.43
626.70	1289.58
627.04	1281.83
627.39	1274.04
627.73	1266.72
628.08	1259.88
628.43	1252.78
628.77	1245.54
629.12	1238.06
629.46	1230.85
629.81	1223.45
630.15	1216.15
630.50	1208.78
630.84	1200.74
631.19	1192.78
631.53	1185.31
631.88	1177.74
632.22	1170.20
632.57	1163.02
632.91	1155.56
633.26	1148.12
633.60	1140.70
633.95	1133.65
634.29	1126.62
634.64	1119.84
634.98	1112.47
635.32	1105.28
635.67	1098.60
636.01	1092.06
636.36	1085.27
636.70	1078.73
637.05	1072.20
637.39	1065.86
637.73	1059.42
638.08	1053.44
638.42	1047.50
638.77	1041.05
639.11	1034.58
639.45	1028.26
639.80	1021.61
640.14	1015.26
640.49	1008.74
640.83	1002.49
641.17	996.30
641.52	989.90
641.86	983.45
642.20	977.59
642.55	971.26
642.89	964.87
643.23	958.27
643.58	952.47
643.92	946.36
644.26	940.33
644.61	934.21
644.95	928.18
645.29	921.72
645.64	914.93
645.98	908.64
646.32	902.70
646.66	896.70
647.01	891.02
647.35	885.24
647.69	879.38
648.04	873.86
648.38	868.10
648.72	862.27
649.06	856.42
649.41	850.51
649.75	844.64
650.09	838.76
650.43	833.13
650.78	826.96
651.12	821.04
651.46	815.39
651.80	809.78
652.14	804.49
652.49	799.17
652.83	794.09
653.17	788.46
653.51	782.88
653.85	777.42
654.20	771.78
654.54	765.88
654.88	760.16
655.22	754.28
655.56	748.64
655.90	743.15
656.25	737.93
656.59	732.58
656.93	727.57
657.27	722.47
657.61	716.93
657.95	711.92
658.29	706.84
658.64	701.57
658.98	696.27
659.32	690.74
659.66	685.61
660.00	680.46
660.34	675.56
660.68	670.60
661.02	665.64
661.36	661.01
661.70	656.47
662.05	652.21
662.39	647.95
662.73	643.58
663.07	639.26
663.41	634.78
663.75	630.43
664.09	625.86
664.43	621.41
664.77	617.37
665.11	613.16
665.45	609.05
665.79	605.03
666.13	600.93
666.47	596.88
666.81	592.71
667.15	588.52
667.49	584.60
667.83	580.80
668.17	576.92
668.51	572.80
668.85	568.85
669.19	564.98
669.53	561.15
669.87	557.24
670.21	553.55
670.55	549.92
670.89	546.50
671.23	543.02
671.57	539.54
671.91	536.01
672.25	532.51
672.58	528.99
672.92	525.61
673.26	522.41
673.60	519.26
673.94	516.16
674.28	513.26
674.62	510.33
674.96	507.26
675.30	504.33
675.64	501.48
675.97	498.65
676.31	495.78
676.65	492.87
676.99	490.22
677.33	487.40
677.67	484.66
678.01	481.62
678.34	478.73
678.68	475.88
679.02	473.10
679.36	470.32
679.70	467.58
680.04	464.79
680.37	461.95
680.71	459.14
681.05	456.48
681.39	453.80
681.73	451.12
682.06	448.57
682.40	446.00
682.74	443.38
683.08	440.81
683.42	438.25
683.75	435.74
684.09	433.12
684.43	430.62
684.77	428.10
685.10	425.70
685.44	423.32
685.78	420.98
686.12	418.74
686.45	416.50
686.79	414.20
687.13	411.98
687.46	409.79
687.80	407.62
688.14	405.45
688.48	403.36
688.81	401.14
689.15	399.00
689.49	396.86
689.82	394.80
690.16	392.76
690.50	390.79
690.83	388.86
691.17	386.85
691.51	384.96
691.84	383.10
692.18	381.23
692.52	379.32
692.85	377.41
693.19	375.55
693.52	373.67
693.86	371.89
694.20	370.14
694.53	368.37
694.87	366.55
695.21	364.71
695.54	362.88
695.88	361.15
696.21	359.44
696.55	357.76
696.88	356.07
697.22	354.40
697.56	352.75
697.89	351.13
698.23	349.59
698.56	347.98
698.90	346.46
699.23	344.81
699.57	343.27
699.90	341.73
700.24	340.15
700.58	338.69
700.91	337.24
701.25	335.77
701.58	334.39
701.92	333.05
702.25	331.73
702.59	330.38
702.92	329.09
703.26	327.77
703.59	326.49
703.93	325.34
704.26	324.13
704.60	322.83
704.93	321.52
705.26	320.26
705.60	319.06
705.93	317.88
706.27	316.82
706.60	315.74
706.94	314.66
707.27	313.55
707.61	312.46
707.94	311.35
708.27	310.28
708.61	309.22
708.94	308.18
709.28	307.21
709.61	306.22
709.94	305.29
710.28	304.26
710.61	303.31
710.95	302.23
711.28	301.33
711.61	300.40
711.95	299.49
712.28	298.56
712.61	297.57
712.95	296.63
713.28	295.77
713.61	294.91
713.95	294.02
714.28	293.17
714.61	292.31
714.95	291.50
715.28	290.65
715.61	289.77
715.95	288.96
716.28	288.09
716.61	287.27
716.95	286.40
717.28	285.65
717.61	284.84
717.94	284.10
718.28	283.28
718.61	282.57
718.94	281.92
719.27	281.27
719.61	280.65
719.94	279.99
720.27	279.24
720.60	278.53
720.94	277.88
721.27	277.25
721.60	276.66
721.93	276.02
722.27	275.45
722.60	274.90
722.93	274.29
723.26	273.71
723.59	273.13
723.93	272.60
724.26	272.04
724.59	271.50
724.92	270.97
725.25	270.48
725.59	269.95
725.92	269.41
726.25	268.86
726.58	268.35
726.91	267.84
727.24	267.39
727.57	266.92
727.91	266.42
728.24	265.96
728.57	265.46
728.90	264.99
729.23	264.46
729.56	264.03
729.89	263.56
730.22	263.08
730.55	262.61
730.89	262.17
731.22	261.74
731.55	261.30
731.88	260.86
732.21	260.45
732.54	260.00
732.87	259.57
733.20	259.22
733.53	258.81
733.86	258.42
734.19	258.05
734.52	257.68
734.85	257.39
735.18	256.98
735.51	256.62
735.84	256.31
736.17	256.02
736.50	255.62
736.83	255.41
737.16	255.12
737.49	254.79
737.82	254.43
738.15	254.12
738.48	253.81
738.81	253.52
739.14	253.15
739.47	252.85
739.80	252.53
740.13	252.22
740.46	251.91
740.79	251.60
741.12	251.28
741.45	250.96
741.78	250.63
742.11	250.34
742.44	250.02
742.77	249.73
743.10	249.39
743.43	249.11
743.75	248.74
744.08	248.60
744.41	248.38
744.74	248.12
745.07	247.85
745.40	247.60
745.73	247.31
746.06	247.07
746.39	246.81
746.71	246.55
747.04	246.26
747.37	245.98
747.70	245.76
748.03	245.49
748.36	245.31
748.68	245.04
749.01	244.81
749.34	244.57
749.67	244.33
750.00	244.13
750.33	243.94
750.65	243.70
750.98	243.33
751.31	243.10
751.64	242.88
751.97	242.69
752.29	242.46
752.62	242.23
752.95	242.04
753.28	241.84
753.60	241.66
753.93	241.48
754.26	241.28
754.59	241.06
754.91	240.83
755.24	240.59
755.57	240.44
755.90	240.26
756.22	240.08
756.55	239.87
756.88	239.68
757.20	239.44
757.53	239.26
757.86	239.05
758.19	238.88
758.51	238.70
758.84	238.48
759.17	238.33
759.49	238.18
759.82	238.03
760.15	237.89
760.47	237.71
760.80	237.50
761.13	237.39
761.45	237.22
761.78	237.09
762.11	236.96
762.43	236.83
762.76	236.65
763.08	236.52
763.41	236.39
763.74	236.28
764.06	236.13
764.39	236.00
764.71	235.91
765.04	235.76
765.37	235.65
765.69	235.53
766.02	235.40
766.34	235.24
766.67	235.11
767.00	235.01
767.32	234.92
767.65	234.92
767.97	234.82
768.30	234.72
768.62	234.59
768.95	234.46
769.27	234.30
769.60	234.22
769.92	234.12
770.25	233.99
770.57	233.84
770.90	233.78
771.22	233.63
771.55	233.50
771.87	233.42
772.20	233.33
772.52	233.32
772.85	233.36
773.17	233.28
773.50	233.21
773.82	233.09
774.15	232.97
774.47	232.81
774.80	232.70
775.12	232.62
775.45	232.57
775.77	232.49
776.09	232.44
776.42	232.34
776.74	232.32
777.07	232.23
777.39	232.17
777.72	232.06
778.04	232.04
778.36	231.97
778.69	231.87
779.01	231.80
779.33	231.65
779.66	231.47
779.98	231.40
780.31	231.32
780.63	231.32
780.95	231.29
781.28	231.21
781.60	231.16
781.92	231.08
782.25	231.05
782.57	231.00
782.89	230.94
783.22	230.88
783.54	230.81
783.86	230.79
784.19	230.74
784.51	230.74
784.83	230.70
785.16	230.63
785.48	230.60
785.80	230.56
786.12	230.54
786.45	230.47
786.77	230.44
787.09	230.36
