SpectraSuite Data File
++++++++++++++++++++++++++++++++++++
Date: Fri Feb 01 17:23:07 EST 2013
User: group
Dark Spectrum Present: No
Reference Spectrum Present: No
Number of Sampled Component Spectra: 1
Spectrometers: USB2E7196
Integration Time (usec): 35000 (USB2E7196)
Spectra Averaged: 100 (USB2E7196)
Boxcar Smoothing: 10 (USB2E7196)
Correct for Electrical Dark: No (USB2E7196)
Strobe/Lamp Enabled: No (USB2E7196)
Correct for Detector Non-linearity: No (USB2E7196)
Correct for Stray Light: No (USB2E7196)
Number of Pixels in Processed Spectrum: 2048
>>>>>Begin Processed Spectral Data<<<<<
339.09	0.00
339.48	213.42
339.86	214.79
340.24	215.51
340.63	217.17
341.01	219.34
341.39	220.12
341.78	221.32
342.16	222.50
342.54	223.08
342.93	211.40
343.31	222.11
343.69	222.64
344.07	223.08
344.46	223.49
344.84	223.88
345.22	224.14
345.60	224.40
345.99	224.57
346.37	224.71
346.75	224.79
347.13	224.86
347.52	224.90
347.90	224.99
348.28	224.96
348.66	225.00
349.05	224.98
349.43	225.01
349.81	225.04
350.19	225.08
350.57	225.15
350.96	225.22
351.34	225.28
351.72	225.33
352.10	225.40
352.48	225.47
352.87	225.53
353.25	225.55
353.63	225.60
354.01	225.66
354.39	225.72
354.77	225.80
355.15	225.87
355.54	225.95
355.92	226.02
356.30	226.11
356.68	226.27
357.06	226.34
357.44	226.38
357.82	226.46
358.20	226.55
358.58	226.56
358.97	226.63
359.35	226.68
359.73	226.77
360.11	226.83
360.49	226.89
360.87	226.93
361.25	227.01
361.63	227.05
362.01	227.09
362.39	227.14
362.77	227.17
363.15	227.24
363.53	227.22
363.91	227.21
364.29	227.29
364.67	227.20
365.05	227.26
365.43	227.30
365.81	227.31
366.19	227.37
366.57	227.43
366.95	227.41
367.33	227.39
367.71	227.38
368.09	227.39
368.47	227.41
368.85	227.39
369.23	227.41
369.61	227.38
369.99	227.39
370.37	227.35
370.75	227.38
371.13	227.30
371.51	227.26
371.89	227.24
372.27	227.16
372.65	227.11
373.03	227.02
373.41	226.98
373.78	226.92
374.16	226.84
374.54	226.75
374.92	226.70
375.30	226.66
375.68	226.58
376.06	226.53
376.44	226.48
376.82	226.45
377.19	226.38
377.57	226.32
377.95	226.22
378.33	226.16
378.71	226.04
379.09	226.02
379.47	226.00
379.84	225.93
380.22	225.86
380.60	225.79
380.98	225.71
381.36	225.65
381.73	225.60
382.11	225.57
382.49	225.53
382.87	225.45
383.25	225.37
383.62	225.44
384.00	225.37
384.38	225.32
384.76	225.28
385.13	225.27
385.51	225.22
385.89	225.18
386.27	225.13
386.64	225.08
387.02	225.02
387.40	224.95
387.78	224.91
388.15	224.91
388.53	224.83
388.91	224.81
389.29	224.79
389.66	224.74
390.04	224.70
390.42	224.67
390.79	224.66
391.17	224.63
391.55	224.52
391.92	224.48
392.30	224.46
392.68	224.41
393.05	224.37
393.43	224.37
393.81	224.37
394.18	224.34
394.56	224.38
394.94	224.41
395.31	224.42
395.69	224.47
396.06	224.48
396.44	224.54
396.82	224.56
397.19	224.61
397.57	224.62
397.95	224.65
398.32	224.66
398.70	224.70
399.07	224.80
399.45	224.86
399.82	224.95
400.20	224.99
400.58	225.05
400.95	225.11
401.33	225.21
401.70	225.31
402.08	225.46
402.45	225.53
402.83	225.59
403.20	225.68
403.58	225.77
403.95	225.93
404.33	226.03
404.71	226.17
405.08	226.35
405.46	226.53
405.83	226.68
406.21	226.82
406.58	227.01
406.96	227.19
407.33	227.33
407.70	227.53
408.08	227.78
408.45	228.01
408.83	228.23
409.20	228.43
409.58	228.64
409.95	228.88
410.33	229.18
410.70	229.46
411.08	229.79
411.45	230.09
411.82	230.36
412.20	230.75
412.57	231.15
412.95	231.45
413.32	231.86
413.69	232.30
414.07	232.78
414.44	233.24
414.82	233.72
415.19	234.29
415.56	234.86
415.94	235.45
416.31	236.09
416.68	236.76
417.06	237.51
417.43	238.26
417.81	239.03
418.18	239.86
418.55	240.75
418.93	241.68
419.30	242.65
419.67	243.66
420.04	244.62
420.42	245.64
420.79	246.90
421.16	248.08
421.54	249.29
421.91	250.52
422.28	251.86
422.66	253.24
423.03	254.63
423.40	255.97
423.77	257.45
424.15	258.90
424.52	260.44
424.89	262.10
425.26	263.68
425.64	265.19
426.01	266.81
426.38	268.57
426.75	270.28
427.13	272.03
427.50	273.89
427.87	275.83
428.24	277.77
428.61	279.56
428.99	281.59
429.36	283.77
429.73	285.93
430.10	287.99
430.47	290.09
430.85	292.26
431.22	294.63
431.59	297.05
431.96	299.42
432.33	301.96
432.70	304.44
433.08	307.35
433.45	310.06
433.82	312.74
434.19	315.66
434.56	318.54
434.93	321.29
435.30	323.96
435.68	327.00
436.05	329.97
436.42	332.85
436.79	335.43
437.16	338.24
437.53	341.15
437.90	344.09
438.27	346.96
438.64	349.89
439.01	352.54
439.38	354.87
439.75	357.07
440.13	359.65
440.50	362.04
440.87	363.97
441.24	366.05
441.61	368.30
441.98	369.83
442.35	371.71
442.72	373.66
443.09	375.58
443.46	376.58
443.83	377.16
444.20	377.71
444.57	378.63
444.94	378.90
445.31	379.28
445.68	379.64
446.05	379.73
446.42	379.37
446.79	378.98
447.16	378.57
447.53	378.35
447.90	377.25
448.27	376.15
448.64	374.52
449.01	373.33
449.37	371.34
449.74	369.43
450.11	367.18
450.48	364.65
450.85	362.02
451.22	359.85
451.59	357.81
451.96	355.82
452.33	353.09
452.70	350.68
453.07	347.80
453.43	344.81
453.80	341.98
454.17	339.20
454.54	336.58
454.91	333.73
455.28	330.95
455.65	328.30
456.02	325.70
456.38	323.47
456.75	320.72
457.12	318.40
457.49	316.11
457.86	313.79
458.23	311.84
458.59	309.71
458.96	307.56
459.33	305.62
459.70	303.68
460.07	302.17
460.43	300.44
460.80	298.73
461.17	297.26
461.54	295.69
461.91	294.24
462.27	292.75
462.64	291.48
463.01	290.07
463.38	288.74
463.74	287.33
464.11	286.16
464.48	285.08
464.85	283.91
465.21	283.02
465.58	282.08
465.95	280.93
466.32	279.99
466.68	279.03
467.05	278.08
467.42	277.20
467.78	276.19
468.15	275.25
468.52	274.60
468.88	273.70
469.25	272.88
469.62	272.19
469.98	271.48
470.35	270.83
470.72	270.22
471.08	269.53
471.45	268.97
471.82	268.39
472.18	267.77
472.55	267.31
472.92	266.75
473.28	266.24
473.65	265.80
474.02	265.37
474.38	264.97
474.75	264.63
475.11	264.23
475.48	263.92
475.85	263.71
476.21	263.41
476.58	263.26
476.94	263.10
477.31	262.93
477.67	262.75
478.04	262.60
478.41	262.50
478.77	262.54
479.14	262.48
479.50	262.46
479.87	262.58
480.23	262.69
480.60	262.75
480.96	262.86
481.33	263.06
481.69	263.28
482.06	263.49
482.42	263.70
482.79	263.96
483.15	264.28
483.52	264.63
483.88	264.99
484.25	265.35
484.61	265.80
484.98	266.22
485.34	266.78
485.71	267.39
486.07	268.00
486.44	268.56
486.80	269.24
487.17	269.96
487.53	270.72
487.90	271.52
488.26	272.46
488.62	273.44
488.99	274.43
489.35	275.47
489.72	276.63
490.08	277.82
490.44	279.08
490.81	280.45
491.17	281.79
491.54	283.30
491.90	284.79
492.26	286.38
492.63	288.13
492.99	289.90
493.36	291.81
493.72	293.83
494.08	295.96
494.45	298.22
494.81	300.62
495.17	303.06
495.54	305.61
495.90	308.27
496.26	311.03
496.63	313.98
496.99	317.08
497.35	320.32
497.72	323.72
498.08	327.14
498.44	330.77
498.80	334.64
499.17	338.61
499.53	342.78
499.89	347.13
500.26	351.59
500.62	356.20
500.98	361.09
501.34	366.14
501.71	371.38
502.07	376.72
502.43	382.32
502.79	388.04
503.16	394.04
503.52	400.27
503.88	406.62
504.24	413.13
504.60	419.90
504.97	426.93
505.33	434.11
505.69	441.73
506.05	449.41
506.41	457.18
506.78	465.26
507.14	473.61
507.50	482.16
507.86	491.05
508.22	500.10
508.59	509.16
508.95	518.58
509.31	528.23
509.67	538.21
510.03	548.18
510.39	558.57
510.75	569.09
511.12	579.77
511.48	590.84
511.84	602.13
512.20	613.44
512.56	625.06
512.92	637.02
513.28	649.19
513.64	661.43
514.00	673.93
514.37	686.52
514.73	699.33
515.09	712.09
515.45	725.13
515.81	738.44
516.17	752.13
516.53	765.97
516.89	779.91
517.25	793.79
517.61	807.97
517.97	822.06
518.33	836.25
518.69	850.78
519.05	865.40
519.41	880.23
519.77	895.35
520.13	910.44
520.49	925.52
520.85	940.45
521.21	955.63
521.57	971.36
521.93	986.82
522.29	1002.66
522.65	1018.66
523.01	1034.32
523.37	1049.95
523.73	1065.68
524.09	1081.35
524.45	1097.09
524.81	1113.25
525.17	1129.54
525.53	1146.06
525.89	1162.49
526.25	1178.86
526.61	1194.83
526.97	1211.23
527.33	1227.37
527.68	1243.53
528.04	1259.52
528.40	1275.70
528.76	1292.46
529.12	1308.64
529.48	1325.10
529.84	1340.85
530.20	1357.03
530.56	1373.66
530.91	1390.70
531.27	1407.24
531.63	1423.27
531.99	1439.57
532.35	1455.27
532.71	1470.96
533.07	1486.81
533.42	1502.39
533.78	1518.21
534.14	1534.13
534.50	1549.04
534.86	1564.58
535.21	1579.50
535.57	1595.17
535.93	1610.36
536.29	1624.92
536.65	1639.67
537.00	1654.10
537.36	1669.15
537.72	1683.32
538.08	1697.62
538.44	1711.23
538.79	1724.91
539.15	1738.31
539.51	1751.86
539.87	1765.93
540.22	1779.30
540.58	1792.85
540.94	1805.93
541.29	1818.50
541.65	1831.05
542.01	1844.09
542.37	1856.30
542.72	1868.51
543.08	1880.18
543.44	1892.56
543.79	1903.71
544.15	1914.78
544.51	1926.31
544.87	1937.20
545.22	1948.20
545.58	1958.40
545.94	1968.10
546.29	1977.92
546.65	1987.85
547.01	1997.20
547.36	2005.99
547.72	2014.71
548.07	2022.82
548.43	2031.18
548.79	2039.27
549.14	2047.07
549.50	2054.60
549.86	2062.25
550.21	2069.81
550.57	2077.19
550.92	2083.91
551.28	2091.20
551.64	2098.41
551.99	2105.19
552.35	2111.65
552.70	2117.92
553.06	2124.26
553.41	2130.86
553.77	2136.95
554.13	2143.26
554.48	2149.46
554.84	2155.42
555.19	2160.81
555.55	2166.35
555.90	2171.06
556.26	2176.39
556.61	2181.30
556.97	2186.06
557.32	2190.60
557.68	2195.03
558.03	2199.59
558.39	2203.56
558.74	2208.44
559.10	2212.53
559.45	2216.55
559.81	2221.10
560.16	2225.20
560.52	2228.70
560.87	2232.38
561.23	2235.49
561.58	2238.61
561.94	2241.57
562.29	2244.05
562.64	2247.28
563.00	2249.92
563.35	2253.77
563.71	2257.20
564.06	2260.70
564.42	2263.94
564.77	2266.98
565.12	2269.93
565.48	2272.35
565.83	2274.71
566.19	2276.48
566.54	2277.77
566.89	2279.33
567.25	2280.37
567.60	2281.92
567.96	2283.99
568.31	2285.17
568.66	2286.62
569.02	2287.78
569.37	2288.49
569.72	2289.84
570.08	2290.41
570.43	2290.90
570.78	2290.75
571.14	2289.55
571.49	2288.56
571.84	2288.46
572.20	2287.64
572.55	2286.72
572.90	2285.22
573.26	2284.29
573.61	2282.75
573.96	2281.64
574.31	2278.97
574.67	2276.35
575.02	2273.19
575.37	2270.18
575.72	2266.91
576.08	2263.87
576.43	2260.76
576.78	2257.59
577.13	2254.60
577.49	2251.61
577.84	2248.53
578.19	2245.08
578.54	2241.90
578.90	2238.12
579.25	2232.83
579.60	2228.24
579.95	2223.65
580.30	2219.06
580.66	2214.12
581.01	2209.42
581.36	2204.62
581.71	2200.79
582.06	2196.66
582.42	2192.52
582.77	2187.54
583.12	2183.21
583.47	2178.98
583.82	2174.44
584.17	2169.49
584.53	2164.29
584.88	2158.95
585.23	2153.56
585.58	2148.42
585.93	2143.09
586.28	2138.46
586.63	2133.78
586.98	2128.82
587.34	2124.30
587.69	2119.65
588.04	2114.78
588.39	2109.61
588.74	2103.29
589.09	2097.32
589.44	2090.81
589.79	2084.77
590.14	2079.28
590.49	2072.90
590.84	2066.52
591.19	2060.64
591.54	2054.23
591.89	2047.30
592.25	2040.89
592.60	2033.84
592.95	2026.52
593.30	2019.42
593.65	2011.97
594.00	2004.88
594.35	1997.69
594.70	1989.65
595.05	1982.73
595.40	1975.51
595.75	1967.95
596.10	1962.15
596.45	1955.61
596.80	1949.55
597.15	1943.27
597.50	1936.54
597.85	1930.18
598.19	1923.73
598.54	1916.94
598.89	1910.55
599.24	1904.57
599.59	1898.07
599.94	1891.88
600.29	1885.63
600.64	1879.07
600.99	1871.80
601.34	1865.20
601.69	1858.42
602.04	1851.83
602.39	1844.56
602.74	1837.82
603.08	1831.35
603.43	1824.54
603.78	1817.37
604.13	1810.20
604.48	1803.06
604.83	1796.23
605.18	1789.55
605.53	1781.77
605.87	1773.63
606.22	1766.29
606.57	1758.34
606.92	1750.75
607.27	1743.64
607.62	1736.78
607.96	1729.66
608.31	1723.23
608.66	1715.66
609.01	1708.22
609.36	1700.72
609.70	1692.72
610.05	1684.77
610.40	1677.03
610.75	1668.76
611.10	1661.11
611.44	1652.56
611.79	1644.42
612.14	1635.63
612.49	1626.31
612.83	1617.69
613.18	1609.57
613.53	1601.40
613.88	1592.85
614.22	1584.60
614.57	1575.77
614.92	1567.51
615.27	1559.94
615.61	1551.53
615.96	1543.36
616.31	1535.59
616.65	1528.06
617.00	1520.34
617.35	1512.36
617.70	1504.05
618.04	1495.42
618.39	1486.89
618.74	1479.38
619.08	1471.06
619.43	1463.34
619.78	1456.25
620.12	1449.14
620.47	1441.43
620.82	1433.24
621.16	1425.61
621.51	1417.80
621.85	1410.12
622.20	1401.54
622.55	1392.97
622.89	1385.05
623.24	1377.29
623.59	1369.66
623.93	1362.12
624.28	1354.80
624.62	1347.33
624.97	1339.98
625.32	1333.08
625.66	1326.01
626.01	1318.70
626.35	1311.29
626.70	1303.48
627.04	1295.72
627.39	1287.80
627.73	1280.40
628.08	1273.43
628.43	1266.18
628.77	1258.95
629.12	1251.37
629.46	1244.27
629.81	1236.71
630.15	1229.21
630.50	1221.83
630.84	1213.72
631.19	1205.61
631.53	1197.92
631.88	1190.11
632.22	1182.42
632.57	1175.03
632.91	1167.42
633.26	1159.77
633.60	1152.16
633.95	1144.81
634.29	1137.59
634.64	1130.75
634.98	1123.23
635.32	1115.97
635.67	1109.24
636.01	1102.48
636.36	1095.70
636.70	1088.99
637.05	1082.41
637.39	1075.96
637.73	1069.41
638.08	1063.43
638.42	1057.33
638.77	1050.89
639.11	1044.40
639.45	1037.96
639.80	1031.29
640.14	1024.83
640.49	1018.42
640.83	1012.06
641.17	1005.89
641.52	999.69
641.86	993.20
642.20	987.39
642.55	980.91
642.89	974.48
643.23	967.73
643.58	961.84
643.92	955.64
644.26	949.66
644.61	943.48
644.95	937.36
645.29	930.74
645.64	924.07
645.98	917.67
646.32	911.56
646.66	905.44
647.01	899.57
647.35	893.87
647.69	887.86
648.04	882.30
648.38	876.51
648.72	870.43
649.06	864.42
649.41	858.39
649.75	852.47
650.09	846.42
650.43	840.66
650.78	834.55
651.12	828.56
651.46	822.67
651.80	817.03
652.14	811.63
652.49	806.26
652.83	801.00
653.17	795.38
653.51	789.85
653.85	784.47
654.20	778.84
654.54	772.82
654.88	767.09
655.22	761.11
655.56	755.35
655.90	749.77
656.25	744.43
656.59	739.11
656.93	733.96
657.27	728.85
657.61	723.39
657.95	718.24
658.29	713.03
658.64	707.75
658.98	702.35
659.32	696.82
659.66	691.59
660.00	686.26
660.34	681.29
660.68	676.26
661.02	671.18
661.36	666.40
661.70	661.86
662.05	657.44
662.39	653.19
662.73	648.70
663.07	644.34
663.41	639.92
663.75	635.42
664.09	630.84
664.43	626.40
664.77	622.28
665.11	617.96
665.45	613.82
665.79	609.74
666.13	605.61
666.47	601.47
666.81	597.29
667.15	593.14
667.49	589.17
667.83	585.27
668.17	581.22
668.51	577.12
668.85	573.06
669.19	569.10
669.53	565.20
669.87	561.33
670.21	557.56
670.55	553.85
670.89	550.35
671.23	546.93
671.57	543.36
671.91	539.80
672.25	536.24
672.58	532.69
672.92	529.29
673.26	526.05
673.60	522.86
673.94	519.79
674.28	516.80
674.62	513.85
674.96	510.76
675.30	507.89
675.64	504.99
675.97	502.12
676.31	499.33
676.65	496.41
676.99	493.68
677.33	490.76
677.67	487.93
678.01	484.94
678.34	481.98
678.68	479.05
679.02	476.22
679.36	473.46
679.70	470.74
680.04	467.91
680.37	465.09
680.71	462.31
681.05	459.62
681.39	456.90
681.73	454.18
682.06	451.67
682.40	449.15
682.74	446.56
683.08	444.01
683.42	441.30
683.75	438.74
684.09	436.11
684.43	433.67
684.77	431.19
685.10	428.79
685.44	426.39
685.78	424.12
686.12	421.85
686.45	419.53
686.79	417.24
687.13	415.00
687.46	412.82
687.80	410.64
688.14	408.34
688.48	406.23
688.81	404.02
689.15	401.77
689.49	399.55
689.82	397.49
690.16	395.36
690.50	393.44
690.83	391.53
691.17	389.51
691.51	387.57
691.84	385.70
692.18	383.75
692.52	381.86
692.85	379.86
693.19	377.96
693.52	376.11
693.86	374.26
694.20	372.47
694.53	370.64
694.87	368.75
695.21	366.91
695.54	365.08
695.88	363.28
696.21	361.58
696.55	359.87
696.88	358.11
697.22	356.45
697.56	354.78
697.89	353.10
698.23	351.49
698.56	349.86
698.90	348.25
699.23	346.60
699.57	345.01
699.90	343.43
700.24	341.85
700.58	340.29
700.91	338.78
701.25	337.31
701.58	335.91
701.92	334.54
702.25	333.19
702.59	331.84
702.92	330.52
703.26	329.18
703.59	327.89
703.93	326.63
704.26	325.39
704.60	324.14
704.93	322.84
705.26	321.59
705.60	320.38
705.93	319.17
706.27	318.07
706.60	316.97
706.94	315.91
707.27	314.75
707.61	313.68
707.94	312.64
708.27	311.55
708.61	310.40
708.94	309.34
709.28	308.34
709.61	307.32
709.94	306.34
710.28	305.30
710.61	304.30
710.95	303.27
711.28	302.33
711.61	301.35
711.95	300.44
712.28	299.52
712.61	298.53
712.95	297.62
713.28	296.72
713.61	295.81
713.95	294.91
714.28	294.09
714.61	293.23
714.95	292.36
715.28	291.50
715.61	290.63
715.95	289.81
716.28	288.94
716.61	288.11
716.95	287.26
717.28	286.48
717.61	285.68
717.94	284.92
718.28	284.06
718.61	283.30
718.94	282.56
719.27	281.86
719.61	281.23
719.94	280.55
720.27	279.85
720.60	279.19
720.94	278.57
721.27	277.96
721.60	277.38
721.93	276.75
722.27	276.20
722.60	275.66
722.93	275.05
723.26	274.48
723.59	273.87
723.93	273.32
724.26	272.80
724.59	272.21
724.92	271.67
725.25	271.18
725.59	270.65
725.92	270.13
726.25	269.60
726.58	269.08
726.91	268.59
727.24	268.07
727.57	267.57
727.91	267.03
728.24	266.51
728.57	266.02
728.90	265.56
729.23	265.03
729.56	264.55
729.89	264.08
730.22	263.60
730.55	263.14
730.89	262.70
731.22	262.20
731.55	261.79
731.88	261.34
732.21	260.89
732.54	260.46
732.87	260.04
733.20	259.62
733.53	259.17
733.86	258.79
734.19	258.40
734.52	258.03
734.85	257.69
735.18	257.27
735.51	256.85
735.84	256.47
736.17	256.12
736.50	255.74
736.83	255.53
737.16	255.18
737.49	254.87
737.82	254.52
738.15	254.19
738.48	253.85
738.81	253.53
739.14	253.19
739.47	252.90
739.80	252.55
740.13	252.24
740.46	251.94
740.79	251.57
741.12	251.27
741.45	250.90
741.78	250.55
742.11	250.30
742.44	250.00
742.77	249.72
743.10	249.41
743.43	249.12
743.75	248.71
744.08	248.57
744.41	248.29
744.74	248.00
745.07	247.71
745.40	247.48
745.73	247.26
746.06	246.99
746.39	246.69
746.71	246.42
747.04	246.16
747.37	245.89
747.70	245.65
748.03	245.37
748.36	245.16
748.68	244.94
749.01	244.66
749.34	244.39
749.67	244.16
750.00	243.93
750.33	243.77
750.65	243.54
750.98	243.18
751.31	242.94
751.64	242.75
751.97	242.61
752.29	242.37
752.62	242.11
752.95	241.93
753.28	241.70
753.60	241.51
753.93	241.36
754.26	241.16
754.59	240.96
754.91	240.80
755.24	240.58
755.57	240.37
755.90	240.21
756.22	240.05
756.55	239.86
756.88	239.67
757.20	239.42
757.53	239.25
757.86	239.09
758.19	238.94
758.51	238.77
758.84	238.52
759.17	238.34
759.49	238.21
759.82	238.09
760.15	237.99
760.47	237.84
760.80	237.68
761.13	237.55
761.45	237.38
761.78	237.20
762.11	237.11
762.43	236.95
762.76	236.79
763.08	236.66
763.41	236.53
763.74	236.40
764.06	236.25
764.39	236.10
764.71	235.96
765.04	235.87
765.37	235.73
765.69	235.61
766.02	235.48
766.34	235.32
766.67	235.16
767.00	235.05
767.32	234.99
767.65	234.90
767.97	234.76
768.30	234.69
768.62	234.61
768.95	234.45
769.27	234.39
769.60	234.32
769.92	234.20
770.25	234.08
770.57	233.91
770.90	233.82
771.22	233.72
771.55	233.62
771.87	233.52
772.20	233.39
772.52	233.40
772.85	233.43
773.17	233.35
773.50	233.24
773.82	233.11
774.15	232.95
774.47	232.80
774.80	232.73
775.12	232.61
775.45	232.51
775.77	232.43
776.09	232.34
776.42	232.24
776.74	232.19
777.07	232.09
777.39	232.08
777.72	231.97
778.04	231.90
778.36	231.81
778.69	231.71
779.01	231.66
779.33	231.51
779.66	231.33
779.98	231.26
780.31	231.18
780.63	231.12
780.95	231.06
781.28	230.98
781.60	230.87
781.92	230.83
782.25	230.74
782.57	230.63
782.89	230.51
783.22	230.44
783.54	230.36
783.86	230.32
784.19	230.27
784.51	230.24
784.83	230.18
785.16	230.10
785.48	230.04
785.80	230.00
786.12	229.95
786.45	229.88
786.77	229.82
787.09	229.77
