SpectraSuite Data File
++++++++++++++++++++++++++++++++++++
Date: Fri Feb 01 15:04:40 EST 2013
User: group
Dark Spectrum Present: No
Reference Spectrum Present: No
Number of Sampled Component Spectra: 1
Spectrometers: USB2E7196
Integration Time (usec): 35000 (USB2E7196)
Spectra Averaged: 100 (USB2E7196)
Boxcar Smoothing: 10 (USB2E7196)
Correct for Electrical Dark: No (USB2E7196)
Strobe/Lamp Enabled: No (USB2E7196)
Correct for Detector Non-linearity: No (USB2E7196)
Correct for Stray Light: No (USB2E7196)
Number of Pixels in Processed Spectrum: 2048
>>>>>Begin Processed Spectral Data<<<<<
339.09	0.00
339.48	215.41
339.86	216.38
340.24	218.05
340.63	220.00
341.01	222.74
341.39	222.85
341.78	223.72
342.16	224.41
342.54	225.00
342.93	213.66
343.31	224.46
343.69	224.99
344.07	225.45
344.46	225.85
344.84	226.21
345.22	226.43
345.60	226.65
345.99	226.82
346.37	226.96
346.75	227.07
347.13	227.15
347.52	227.21
347.90	227.29
348.28	227.30
348.66	227.38
349.05	227.35
349.43	227.39
349.81	227.45
350.19	227.49
350.57	227.53
350.96	227.63
351.34	227.71
351.72	227.78
352.10	227.88
352.48	227.98
352.87	228.02
353.25	228.09
353.63	228.12
354.01	228.20
354.39	228.29
354.77	228.35
355.15	228.48
355.54	228.54
355.92	228.57
356.30	228.67
356.68	228.75
357.06	228.81
357.44	228.82
357.82	228.85
358.20	228.90
358.58	228.98
358.97	229.02
359.35	229.10
359.73	229.17
360.11	229.22
360.49	229.27
360.87	229.36
361.25	229.38
361.63	229.45
362.01	229.47
362.39	229.46
362.77	229.50
363.15	229.47
363.53	229.49
363.91	229.52
364.29	229.54
364.67	229.47
365.05	229.47
365.43	229.47
365.81	229.49
366.19	229.54
366.57	229.56
366.95	229.58
367.33	229.52
367.71	229.50
368.09	229.52
368.47	229.48
368.85	229.41
369.23	229.42
369.61	229.38
369.99	229.40
370.37	229.40
370.75	229.39
371.13	229.35
371.51	229.26
371.89	229.23
372.27	229.15
372.65	229.14
373.03	229.06
373.41	229.05
373.78	228.96
374.16	228.85
374.54	228.76
374.92	228.65
375.30	228.61
375.68	228.53
376.06	228.45
376.44	228.38
376.82	228.35
377.19	228.30
377.57	228.19
377.95	228.06
378.33	227.96
378.71	227.84
379.09	227.80
379.47	227.77
379.84	227.65
380.22	227.57
380.60	227.45
380.98	227.41
381.36	227.31
381.73	227.23
382.11	227.15
382.49	227.12
382.87	227.04
383.25	226.96
383.62	227.01
384.00	226.92
384.38	226.86
384.76	226.78
385.13	226.71
385.51	226.67
385.89	226.61
386.27	226.58
386.64	226.51
387.02	226.41
387.40	226.32
387.78	226.33
388.15	226.28
388.53	226.26
388.91	226.22
389.29	226.21
389.66	226.23
390.04	226.21
390.42	226.18
390.79	226.17
391.17	226.18
391.55	226.06
391.92	226.05
392.30	226.04
392.68	226.04
393.05	226.06
393.43	226.09
393.81	226.12
394.18	226.13
394.56	226.21
394.94	226.27
395.31	226.32
395.69	226.38
396.06	226.41
396.44	226.47
396.82	226.52
397.19	226.61
397.57	226.62
397.95	226.68
398.32	226.68
398.70	226.73
399.07	226.80
399.45	226.87
399.82	226.96
400.20	227.04
400.58	227.14
400.95	227.16
401.33	227.26
401.70	227.42
402.08	227.53
402.45	227.62
402.83	227.75
403.20	227.87
403.58	228.01
403.95	228.16
404.33	228.27
404.71	228.39
405.08	228.58
405.46	228.73
405.83	228.91
406.21	229.08
406.58	229.28
406.96	229.45
407.33	229.69
407.70	229.88
408.08	230.18
408.45	230.39
408.83	230.63
409.20	230.83
409.58	231.02
409.95	231.28
410.33	231.54
410.70	231.80
411.08	232.12
411.45	232.42
411.82	232.73
412.20	233.13
412.57	233.57
412.95	233.85
413.32	234.28
413.69	234.68
414.07	235.15
414.44	235.64
414.82	236.10
415.19	236.63
415.56	237.21
415.94	237.74
416.31	238.40
416.68	239.04
417.06	239.77
417.43	240.44
417.81	241.21
418.18	242.02
418.55	242.84
418.93	243.70
419.30	244.61
419.67	245.58
420.04	246.54
420.42	247.50
420.79	248.71
421.16	249.86
421.54	251.07
421.91	252.25
422.28	253.49
422.66	254.83
423.03	256.14
423.40	257.43
423.77	258.87
424.15	260.27
424.52	261.75
424.89	263.36
425.26	264.91
425.64	266.34
426.01	267.95
426.38	269.61
426.75	271.27
427.13	272.98
427.50	274.76
427.87	276.65
428.24	278.52
428.61	280.26
428.99	282.21
429.36	284.34
429.73	286.38
430.10	288.39
430.47	290.47
430.85	292.60
431.22	294.86
431.59	297.20
431.96	299.50
432.33	301.99
432.70	304.39
433.08	307.27
433.45	309.93
433.82	312.56
434.19	315.49
434.56	318.29
434.93	320.94
435.30	323.55
435.68	326.43
436.05	329.28
436.42	332.06
436.79	334.57
437.16	337.24
437.53	340.14
437.90	342.98
438.27	345.76
438.64	348.58
439.01	351.20
439.38	353.44
439.75	355.61
440.13	358.15
440.50	360.48
440.87	362.28
441.24	364.25
441.61	366.37
441.98	367.88
442.35	369.71
442.72	371.57
443.09	373.41
443.46	374.43
443.83	375.01
444.20	375.52
444.57	376.38
444.94	376.70
445.31	377.04
445.68	377.41
446.05	377.47
446.42	377.11
446.79	376.68
447.16	376.23
447.53	375.92
447.90	374.71
448.27	373.52
448.64	371.90
449.01	370.76
449.37	368.77
449.74	366.82
450.11	364.56
450.48	362.09
450.85	359.53
451.22	357.35
451.59	355.33
451.96	353.37
452.33	350.76
452.70	348.36
453.07	345.51
453.43	342.59
453.80	339.78
454.17	337.08
454.54	334.51
454.91	331.81
455.28	329.10
455.65	326.61
456.02	324.15
456.38	322.01
456.75	319.32
457.12	317.08
457.49	314.85
457.86	312.69
458.23	310.83
458.59	308.77
458.96	306.69
459.33	304.81
459.70	302.97
460.07	301.44
460.43	299.70
460.80	298.04
461.17	296.59
461.54	295.10
461.91	293.68
462.27	292.22
462.64	290.96
463.01	289.58
463.38	288.31
463.74	286.96
464.11	285.80
464.48	284.75
464.85	283.64
465.21	282.78
465.58	281.86
465.95	280.76
466.32	279.82
466.68	278.90
467.05	278.02
467.42	277.10
467.78	276.20
468.15	275.34
468.52	274.72
468.88	273.85
469.25	273.06
469.62	272.43
469.98	271.76
470.35	271.07
470.72	270.51
471.08	269.84
471.45	269.28
471.82	268.74
472.18	268.17
472.55	267.70
472.92	267.17
473.28	266.68
473.65	266.21
474.02	265.79
474.38	265.43
474.75	265.07
475.11	264.72
475.48	264.43
475.85	264.17
476.21	263.91
476.58	263.73
476.94	263.58
477.31	263.42
477.67	263.25
478.04	263.12
478.41	263.02
478.77	263.07
479.14	262.97
479.50	263.00
479.87	263.04
480.23	263.11
480.60	263.15
480.96	263.24
481.33	263.47
481.69	263.68
482.06	263.85
482.42	264.03
482.79	264.29
483.15	264.57
483.52	264.97
483.88	265.30
484.25	265.67
484.61	266.09
484.98	266.50
485.34	267.07
485.71	267.69
486.07	268.30
486.44	268.86
486.80	269.58
487.17	270.27
487.53	271.12
487.90	271.99
488.26	272.92
488.62	273.88
488.99	274.82
489.35	275.84
489.72	276.95
490.08	278.16
490.44	279.37
490.81	280.68
491.17	282.02
491.54	283.49
491.90	285.01
492.26	286.62
492.63	288.36
492.99	290.12
493.36	291.98
493.72	293.98
494.08	296.08
494.45	298.31
494.81	300.66
495.17	303.05
495.54	305.57
495.90	308.25
496.26	311.03
496.63	314.03
496.99	317.12
497.35	320.33
497.72	323.73
498.08	327.24
498.44	330.90
498.80	334.76
499.17	338.81
499.53	342.95
499.89	347.33
500.26	351.80
500.62	356.45
500.98	361.37
501.34	366.40
501.71	371.69
502.07	377.03
502.43	382.68
502.79	388.46
503.16	394.50
503.52	400.74
503.88	407.12
504.24	413.69
504.60	420.56
504.97	427.74
505.33	435.02
505.69	442.71
506.05	450.44
506.41	458.34
506.78	466.50
507.14	475.00
507.50	483.70
507.86	492.73
508.22	501.94
508.59	511.13
508.95	520.71
509.31	530.49
509.67	540.66
510.03	550.89
510.39	561.50
510.75	572.31
511.12	583.23
511.48	594.61
511.84	606.08
512.20	617.62
512.56	629.52
512.92	641.72
513.28	654.04
513.64	666.51
514.00	679.17
514.37	692.05
514.73	705.09
515.09	718.11
515.45	731.45
515.81	745.03
516.17	759.12
516.53	773.31
516.89	787.55
517.25	801.84
517.61	816.30
517.97	830.73
518.33	845.20
518.69	860.00
519.05	874.95
519.41	890.06
519.77	905.69
520.13	921.20
520.49	936.68
520.85	952.21
521.21	968.02
521.57	984.36
521.93	1000.22
522.29	1016.64
522.65	1033.00
523.01	1049.24
523.37	1065.34
523.73	1081.53
524.09	1097.64
524.45	1113.98
524.81	1130.52
525.17	1147.41
525.53	1164.43
525.89	1181.28
526.25	1198.21
526.61	1214.71
526.97	1231.56
527.33	1248.04
527.68	1264.66
528.04	1281.24
528.40	1297.96
528.76	1315.09
529.12	1331.63
529.48	1348.66
529.84	1364.75
530.20	1381.42
530.56	1398.43
530.91	1415.95
531.27	1432.70
531.63	1449.30
531.99	1466.04
532.35	1482.11
532.71	1498.14
533.07	1514.43
533.42	1530.45
533.78	1546.56
534.14	1562.77
534.50	1578.17
534.86	1594.10
535.21	1609.40
535.57	1625.40
535.93	1640.91
536.29	1655.78
536.65	1671.02
537.00	1685.81
537.36	1701.15
537.72	1715.80
538.08	1730.39
538.44	1744.26
538.79	1758.41
539.15	1772.21
539.51	1785.90
539.87	1800.37
540.22	1814.18
540.58	1827.96
540.94	1841.40
541.29	1854.41
541.65	1867.29
542.01	1880.64
542.37	1892.99
542.72	1905.55
543.08	1917.35
543.44	1929.74
543.79	1941.03
544.15	1952.05
544.51	1963.60
544.87	1974.70
545.22	1985.43
545.58	1995.68
545.94	2005.51
546.29	2015.29
546.65	2025.03
547.01	2034.35
547.36	2043.10
547.72	2051.53
548.07	2059.38
548.43	2067.57
548.79	2075.72
549.14	2083.38
549.50	2090.77
549.86	2098.65
550.21	2105.87
550.57	2113.13
550.92	2119.76
551.28	2126.81
551.64	2134.02
551.99	2140.62
552.35	2146.70
552.70	2152.98
553.06	2158.84
553.41	2165.10
553.77	2171.12
554.13	2177.23
554.48	2183.30
554.84	2188.61
555.19	2193.93
555.55	2199.14
555.90	2203.64
556.26	2208.35
556.61	2212.98
556.97	2217.08
557.32	2221.07
557.68	2225.07
558.03	2229.35
558.39	2232.95
558.74	2237.46
559.10	2241.09
559.45	2244.68
559.81	2249.01
560.16	2252.64
560.52	2256.01
560.87	2259.39
561.23	2262.03
561.58	2265.04
561.94	2267.51
562.29	2270.06
562.64	2272.69
563.00	2275.29
563.35	2278.77
563.71	2281.81
564.06	2284.92
564.42	2287.83
564.77	2290.27
565.12	2292.48
565.48	2294.15
565.83	2296.01
566.19	2297.24
566.54	2298.34
566.89	2299.40
567.25	2299.80
567.60	2301.17
567.96	2302.64
568.31	2303.36
568.66	2304.24
569.02	2304.60
569.37	2304.81
569.72	2305.28
570.08	2305.18
570.43	2305.06
570.78	2304.27
571.14	2302.59
571.49	2301.07
571.84	2300.55
572.20	2299.21
572.55	2298.05
572.90	2296.39
573.26	2294.79
573.61	2293.05
573.96	2291.00
574.31	2287.87
574.67	2284.90
575.02	2281.05
575.37	2277.52
575.72	2273.52
576.08	2270.10
576.43	2266.61
576.78	2262.83
577.13	2259.69
577.49	2256.57
577.84	2252.93
578.19	2249.17
578.54	2245.46
578.90	2241.01
579.25	2235.34
579.60	2230.25
579.95	2225.24
580.30	2220.06
580.66	2214.77
581.01	2209.81
581.36	2204.74
581.71	2200.42
582.06	2195.79
582.42	2191.22
582.77	2185.90
583.12	2181.25
583.47	2176.43
583.82	2171.26
584.17	2166.01
584.53	2160.32
584.88	2154.51
585.23	2148.39
585.58	2142.64
585.93	2137.03
586.28	2132.27
586.63	2127.01
586.98	2121.93
587.34	2117.03
587.69	2112.16
588.04	2106.77
588.39	2100.79
588.74	2094.19
589.09	2088.02
589.44	2080.97
589.79	2074.88
590.14	2069.22
590.49	2062.55
590.84	2056.03
591.19	2049.80
591.54	2043.18
591.89	2035.63
592.25	2028.75
592.60	2021.59
592.95	2013.97
593.30	2006.51
593.65	1998.67
594.00	1991.67
594.35	1984.23
594.70	1976.20
595.05	1968.77
595.40	1961.49
595.75	1953.95
596.10	1947.72
596.45	1940.77
596.80	1934.65
597.15	1927.88
597.50	1920.51
597.85	1914.03
598.19	1907.29
598.54	1900.36
598.89	1893.62
599.24	1887.86
599.59	1881.03
599.94	1874.88
600.29	1868.46
600.64	1861.89
600.99	1854.48
601.34	1847.58
601.69	1840.54
602.04	1833.55
602.39	1826.23
602.74	1819.37
603.08	1812.60
603.43	1805.91
603.78	1798.68
604.13	1791.33
604.48	1783.99
604.83	1777.22
605.18	1770.20
605.53	1762.32
605.87	1754.29
606.22	1747.07
606.57	1739.07
606.92	1731.79
607.27	1724.47
607.62	1717.54
607.96	1710.23
608.31	1703.61
608.66	1695.98
609.01	1688.34
609.36	1680.84
609.70	1672.80
610.05	1664.64
610.40	1656.99
610.75	1648.49
611.10	1640.92
611.44	1632.71
611.79	1624.74
612.14	1616.12
612.49	1606.99
612.83	1598.56
613.18	1590.37
613.53	1582.40
613.88	1573.86
614.22	1565.57
614.57	1557.04
614.92	1548.99
615.27	1541.39
615.61	1533.21
615.96	1525.34
616.31	1517.83
616.65	1510.44
617.00	1502.89
617.35	1495.24
617.70	1486.92
618.04	1478.51
618.39	1470.26
618.74	1462.56
619.08	1454.35
619.43	1446.75
619.78	1439.81
620.12	1432.59
620.47	1425.13
620.82	1416.94
621.16	1409.61
621.51	1402.11
621.85	1394.66
622.20	1386.23
622.55	1377.92
622.89	1370.01
623.24	1362.41
623.59	1355.24
623.93	1347.79
624.28	1340.49
624.62	1332.98
624.97	1325.83
625.32	1319.03
625.66	1311.91
626.01	1304.68
626.35	1297.12
626.70	1289.39
627.04	1281.70
627.39	1274.05
627.73	1266.70
628.08	1259.66
628.43	1252.31
628.77	1244.86
629.12	1237.20
629.46	1230.04
629.81	1222.67
630.15	1215.58
630.50	1208.06
630.84	1199.75
631.19	1191.78
631.53	1184.44
631.88	1176.99
632.22	1169.46
632.57	1162.29
632.91	1154.83
633.26	1147.57
633.60	1140.40
633.95	1133.36
634.29	1126.42
634.64	1119.80
634.98	1112.44
635.32	1105.49
635.67	1098.97
636.01	1092.38
636.36	1085.69
636.70	1079.31
637.05	1072.78
637.39	1066.35
637.73	1059.90
638.08	1054.14
638.42	1048.24
638.77	1041.80
639.11	1035.21
639.45	1028.90
639.80	1022.25
640.14	1015.93
640.49	1009.38
640.83	1003.10
641.17	996.89
641.52	990.64
641.86	984.24
642.20	978.44
642.55	972.22
642.89	965.76
643.23	959.34
643.58	953.58
643.92	947.28
644.26	941.27
644.61	935.30
644.95	929.30
645.29	922.70
645.64	915.96
645.98	909.69
646.32	903.94
646.66	897.87
647.01	892.14
647.35	886.40
647.69	880.68
648.04	875.20
648.38	869.50
648.72	863.42
649.06	857.35
649.41	851.45
649.75	845.41
650.09	839.50
650.43	833.75
650.78	827.59
651.12	821.71
651.46	815.95
651.80	810.03
652.14	804.65
652.49	799.26
652.83	794.06
653.17	788.36
653.51	782.63
653.85	777.31
654.20	771.60
654.54	765.59
654.88	759.80
655.22	753.85
655.56	748.11
655.90	742.85
656.25	737.52
656.59	732.23
656.93	727.22
657.27	722.12
657.61	716.63
657.95	711.56
658.29	706.54
658.64	701.35
658.98	696.18
659.32	690.76
659.66	685.55
660.00	680.35
660.34	675.44
660.68	670.58
661.02	665.57
661.36	660.89
661.70	656.48
662.05	652.19
662.39	647.90
662.73	643.52
663.07	639.12
663.41	634.79
663.75	630.28
664.09	625.68
664.43	621.34
664.77	617.28
665.11	613.08
665.45	608.90
665.79	604.82
666.13	600.70
666.47	596.64
666.81	592.56
667.15	588.41
667.49	584.50
667.83	580.75
668.17	576.81
668.51	572.78
668.85	568.76
669.19	564.91
669.53	561.08
669.87	557.21
670.21	553.50
670.55	549.84
670.89	546.43
671.23	542.96
671.57	539.44
671.91	535.97
672.25	532.50
672.58	529.04
672.92	525.68
673.26	522.54
673.60	519.46
673.94	516.36
674.28	513.51
674.62	510.58
674.96	507.41
675.30	504.51
675.64	501.67
675.97	498.93
676.31	496.06
676.65	493.15
676.99	490.48
677.33	487.61
677.67	484.85
678.01	481.84
678.34	478.87
678.68	476.01
679.02	473.12
679.36	470.33
679.70	467.63
680.04	464.89
680.37	462.02
680.71	459.18
681.05	456.60
681.39	453.89
681.73	451.28
682.06	448.82
682.40	446.25
682.74	443.73
683.08	441.21
683.42	438.68
683.75	436.23
684.09	433.66
684.43	431.17
684.77	428.72
685.10	426.39
685.44	424.15
685.78	421.83
686.12	419.67
686.45	417.45
686.79	415.19
687.13	413.01
687.46	410.85
687.80	408.75
688.14	406.54
688.48	404.49
688.81	402.26
689.15	400.08
689.49	397.95
689.82	395.86
690.16	393.76
690.50	391.81
690.83	389.85
691.17	387.92
691.51	386.06
691.84	384.22
692.18	382.28
692.52	380.31
692.85	378.44
693.19	376.58
693.52	374.77
693.86	372.98
694.20	371.25
694.53	369.49
694.87	367.65
695.21	365.87
695.54	364.09
695.88	362.38
696.21	360.66
696.55	359.03
696.88	357.33
697.22	355.66
697.56	354.01
697.89	352.36
698.23	350.75
698.56	349.16
698.90	347.52
699.23	345.88
699.57	344.33
699.90	342.78
700.24	341.23
700.58	339.63
700.91	338.10
701.25	336.60
701.58	335.25
701.92	333.88
702.25	332.52
702.59	331.11
702.92	329.76
703.26	328.48
703.59	327.19
703.93	326.01
704.26	324.80
704.60	323.53
704.93	322.24
705.26	321.01
705.60	319.81
705.93	318.68
706.27	317.67
706.60	316.63
706.94	315.56
707.27	314.43
707.61	313.42
707.94	312.44
708.27	311.37
708.61	310.29
708.94	309.33
709.28	308.35
709.61	307.43
709.94	306.49
710.28	305.47
710.61	304.51
710.95	303.45
711.28	302.56
711.61	301.62
711.95	300.73
712.28	299.76
712.61	298.80
712.95	297.91
713.28	297.02
713.61	296.14
713.95	295.28
714.28	294.44
714.61	293.55
714.95	292.68
715.28	291.81
715.61	290.95
715.95	290.10
716.28	289.26
716.61	288.46
716.95	287.64
717.28	286.92
717.61	286.14
717.94	285.43
718.28	284.62
718.61	283.94
718.94	283.24
719.27	282.63
719.61	282.04
719.94	281.39
720.27	280.71
720.60	280.03
720.94	279.38
721.27	278.83
721.60	278.28
721.93	277.68
722.27	277.14
722.60	276.59
722.93	276.02
723.26	275.47
723.59	274.91
723.93	274.41
724.26	273.86
724.59	273.34
724.92	272.83
725.25	272.32
725.59	271.82
725.92	271.35
726.25	270.82
726.58	270.32
726.91	269.81
727.24	269.32
727.57	268.90
727.91	268.42
728.24	267.90
728.57	267.40
728.90	266.97
729.23	266.51
729.56	266.04
729.89	265.59
730.22	265.08
730.55	264.61
730.89	264.15
731.22	263.67
731.55	263.23
731.88	262.80
732.21	262.43
732.54	261.98
732.87	261.57
733.20	261.17
733.53	260.76
733.86	260.42
734.19	260.03
734.52	259.66
734.85	259.34
735.18	258.94
735.51	258.62
735.84	258.20
736.17	257.86
736.50	257.46
736.83	257.19
737.16	256.88
737.49	256.56
737.82	256.22
738.15	255.96
738.48	255.60
738.81	255.25
739.14	254.84
739.47	254.56
739.80	254.21
740.13	253.90
740.46	253.58
740.79	253.24
741.12	252.94
741.45	252.60
741.78	252.26
742.11	251.99
742.44	251.65
742.77	251.39
743.10	251.10
743.43	250.85
743.75	250.45
744.08	250.27
744.41	250.01
744.74	249.70
745.07	249.39
745.40	249.18
745.73	248.97
746.06	248.73
746.39	248.41
746.71	248.15
747.04	247.88
747.37	247.61
747.70	247.34
748.03	247.12
748.36	246.88
748.68	246.63
749.01	246.37
749.34	246.17
749.67	245.95
750.00	245.68
750.33	245.52
750.65	245.34
750.98	245.00
751.31	244.79
751.64	244.60
751.97	244.44
752.29	244.21
752.62	243.96
752.95	243.77
753.28	243.58
753.60	243.38
753.93	243.24
754.26	243.06
754.59	242.85
754.91	242.61
755.24	242.44
755.57	242.24
755.90	242.06
756.22	241.83
756.55	241.64
756.88	241.46
757.20	241.21
757.53	241.03
757.86	240.87
758.19	240.71
758.51	240.54
758.84	240.30
759.17	240.12
759.49	239.96
759.82	239.81
760.15	239.66
760.47	239.49
760.80	239.29
761.13	239.16
761.45	239.01
761.78	238.89
762.11	238.72
762.43	238.59
762.76	238.48
763.08	238.36
763.41	238.21
763.74	238.10
764.06	237.94
764.39	237.81
764.71	237.69
765.04	237.53
765.37	237.40
765.69	237.30
766.02	237.18
766.34	237.07
766.67	236.91
767.00	236.83
767.32	236.77
767.65	236.75
767.97	236.66
768.30	236.56
768.62	236.48
768.95	236.35
769.27	236.26
769.60	236.14
769.92	236.04
770.25	235.96
770.57	235.85
770.90	235.73
771.22	235.62
771.55	235.53
771.87	235.47
772.20	235.38
772.52	235.38
772.85	235.42
773.17	235.31
773.50	235.24
773.82	235.08
774.15	234.93
774.47	234.77
774.80	234.67
775.12	234.57
775.45	234.43
775.77	234.36
776.09	234.26
776.42	234.18
776.74	234.09
777.07	234.01
777.39	233.91
777.72	233.88
778.04	233.84
778.36	233.75
778.69	233.68
779.01	233.60
779.33	233.46
779.66	233.26
779.98	233.20
780.31	233.15
780.63	233.13
780.95	233.11
781.28	233.05
781.60	232.96
781.92	232.89
782.25	232.87
782.57	232.82
782.89	232.74
783.22	232.67
783.54	232.59
783.86	232.51
784.19	232.44
784.51	232.41
784.83	232.32
785.16	232.26
785.48	232.19
785.80	232.16
786.12	232.10
786.45	232.11
786.77	232.07
787.09	232.02
