SpectraSuite Data File
++++++++++++++++++++++++++++++++++++
Date: Fri Feb 01 16:49:15 EST 2013
User: group
Dark Spectrum Present: No
Reference Spectrum Present: No
Number of Sampled Component Spectra: 1
Spectrometers: USB2E7196
Integration Time (usec): 35000 (USB2E7196)
Spectra Averaged: 100 (USB2E7196)
Boxcar Smoothing: 10 (USB2E7196)
Correct for Electrical Dark: No (USB2E7196)
Strobe/Lamp Enabled: No (USB2E7196)
Correct for Detector Non-linearity: No (USB2E7196)
Correct for Stray Light: No (USB2E7196)
Number of Pixels in Processed Spectrum: 2048
>>>>>Begin Processed Spectral Data<<<<<
339.09	0.00
339.48	213.14
339.86	214.49
340.24	216.06
340.63	216.73
341.01	220.37
341.39	219.87
341.78	221.49
342.16	222.28
342.54	222.84
342.93	211.53
343.31	222.24
343.69	222.79
344.07	223.25
344.46	223.69
344.84	224.07
345.22	224.33
345.60	224.57
345.99	224.76
346.37	224.92
346.75	225.05
347.13	225.13
347.52	225.22
347.90	225.31
348.28	225.34
348.66	225.41
349.05	225.41
349.43	225.46
349.81	225.51
350.19	225.59
350.57	225.69
350.96	225.70
351.34	225.78
351.72	225.89
352.10	225.99
352.48	226.07
352.87	226.17
353.25	226.25
353.63	226.37
354.01	226.45
354.39	226.51
354.77	226.60
355.15	226.70
355.54	226.79
355.92	226.85
356.30	226.92
356.68	227.06
357.06	227.15
357.44	227.21
357.82	227.27
358.20	227.29
358.58	227.34
358.97	227.44
359.35	227.51
359.73	227.58
360.11	227.63
360.49	227.69
360.87	227.74
361.25	227.78
361.63	227.82
362.01	227.89
362.39	227.94
362.77	227.97
363.15	227.98
363.53	228.00
363.91	228.02
364.29	228.04
364.67	227.92
365.05	227.93
365.43	227.94
365.81	227.97
366.19	228.05
366.57	228.11
366.95	228.10
367.33	228.09
367.71	228.06
368.09	228.06
368.47	228.04
368.85	227.99
369.23	227.98
369.61	227.94
369.99	227.93
370.37	227.91
370.75	227.92
371.13	227.85
371.51	227.81
371.89	227.77
372.27	227.72
372.65	227.72
373.03	227.67
373.41	227.60
373.78	227.50
374.16	227.39
374.54	227.27
374.92	227.18
375.30	227.12
375.68	227.04
376.06	226.98
376.44	226.90
376.82	226.85
377.19	226.78
377.57	226.69
377.95	226.59
378.33	226.47
378.71	226.35
379.09	226.31
379.47	226.22
379.84	226.16
380.22	226.09
380.60	226.01
380.98	225.96
381.36	225.89
381.73	225.83
382.11	225.80
382.49	225.75
382.87	225.71
383.25	225.66
383.62	225.74
384.00	225.65
384.38	225.62
384.76	225.60
385.13	225.56
385.51	225.50
385.89	225.41
386.27	225.39
386.64	225.34
387.02	225.27
387.40	225.26
387.78	225.20
388.15	225.15
388.53	225.09
388.91	225.02
389.29	224.98
389.66	224.96
390.04	224.90
390.42	224.90
390.79	224.84
391.17	224.82
391.55	224.68
391.92	224.71
392.30	224.73
392.68	224.72
393.05	224.69
393.43	224.73
393.81	224.77
394.18	224.74
394.56	224.76
394.94	224.80
395.31	224.79
395.69	224.84
396.06	224.90
396.44	224.95
396.82	224.95
397.19	225.03
397.57	225.06
397.95	225.15
398.32	225.18
398.70	225.23
399.07	225.29
399.45	225.30
399.82	225.33
400.20	225.34
400.58	225.38
400.95	225.43
401.33	225.49
401.70	225.62
402.08	225.76
402.45	225.85
402.83	225.96
403.20	226.08
403.58	226.17
403.95	226.28
404.33	226.42
404.71	226.55
405.08	226.72
405.46	226.85
405.83	226.98
406.21	227.14
406.58	227.31
406.96	227.46
407.33	227.67
407.70	227.87
408.08	228.16
408.45	228.38
408.83	228.61
409.20	228.83
409.58	228.98
409.95	229.22
410.33	229.45
410.70	229.69
411.08	230.00
411.45	230.30
411.82	230.60
412.20	230.93
412.57	231.37
412.95	231.63
413.32	232.05
413.69	232.39
414.07	232.80
414.44	233.26
414.82	233.72
415.19	234.25
415.56	234.77
415.94	235.26
416.31	235.89
416.68	236.51
417.06	237.23
417.43	237.93
417.81	238.68
418.18	239.49
418.55	240.33
418.93	241.18
419.30	242.07
419.67	242.99
420.04	243.98
420.42	244.97
420.79	246.13
421.16	247.28
421.54	248.52
421.91	249.75
422.28	250.98
422.66	252.30
423.03	253.59
423.40	254.92
423.77	256.35
424.15	257.72
424.52	259.19
424.89	260.74
425.26	262.27
425.64	263.71
426.01	265.25
426.38	266.91
426.75	268.58
427.13	270.26
427.50	272.05
427.87	273.85
428.24	275.68
428.61	277.40
428.99	279.31
429.36	281.38
429.73	283.38
430.10	285.43
430.47	287.48
430.85	289.58
431.22	291.77
431.59	294.12
431.96	296.37
432.33	298.82
432.70	301.18
433.08	303.99
433.45	306.57
433.82	309.15
434.19	311.97
434.56	314.74
434.93	317.40
435.30	319.97
435.68	322.85
436.05	325.68
436.42	328.47
436.79	330.97
437.16	333.65
437.53	336.46
437.90	339.20
438.27	341.90
438.64	344.71
439.01	347.32
439.38	349.54
439.75	351.71
440.13	354.17
440.50	356.51
440.87	358.31
441.24	360.26
441.61	362.43
441.98	363.95
442.35	365.71
442.72	367.57
443.09	369.40
443.46	370.40
443.83	370.96
444.20	371.46
444.57	372.29
444.94	372.56
445.31	372.94
445.68	373.34
446.05	373.46
446.42	373.10
446.79	372.67
447.16	372.24
447.53	371.93
447.90	370.82
448.27	369.69
448.64	368.15
449.01	367.04
449.37	365.13
449.74	363.28
450.11	361.10
450.48	358.62
450.85	356.09
451.22	353.97
451.59	351.98
451.96	350.07
452.33	347.46
452.70	345.13
453.07	342.33
453.43	339.43
453.80	336.62
454.17	333.96
454.54	331.46
454.91	328.77
455.28	326.11
455.65	323.63
456.02	321.20
456.38	319.08
456.75	316.44
457.12	314.17
457.49	311.94
457.86	309.77
458.23	307.94
458.59	305.92
458.96	303.86
459.33	302.01
459.70	300.14
460.07	298.72
460.43	297.03
460.80	295.41
461.17	293.99
461.54	292.56
461.91	291.16
462.27	289.73
462.64	288.48
463.01	287.16
463.38	285.91
463.74	284.52
464.11	283.37
464.48	282.34
464.85	281.25
465.21	280.35
465.58	279.44
465.95	278.39
466.32	277.53
466.68	276.63
467.05	275.77
467.42	274.92
467.78	273.98
468.15	273.14
468.52	272.49
468.88	271.65
469.25	270.90
469.62	270.29
469.98	269.63
470.35	269.02
470.72	268.43
471.08	267.76
471.45	267.27
471.82	266.73
472.18	266.16
472.55	265.77
472.92	265.31
473.28	264.88
473.65	264.44
474.02	263.99
474.38	263.63
474.75	263.33
475.11	263.01
475.48	262.73
475.85	262.51
476.21	262.28
476.58	262.12
476.94	262.02
477.31	261.88
477.67	261.73
478.04	261.66
478.41	261.66
478.77	261.72
479.14	261.70
479.50	261.72
479.87	261.82
480.23	261.90
480.60	262.00
480.96	262.11
481.33	262.31
481.69	262.53
482.06	262.78
482.42	262.99
482.79	263.24
483.15	263.63
483.52	263.99
483.88	264.33
484.25	264.76
484.61	265.15
484.98	265.60
485.34	266.18
485.71	266.73
486.07	267.30
486.44	267.85
486.80	268.51
487.17	269.24
487.53	270.07
487.90	270.89
488.26	271.83
488.62	272.79
488.99	273.78
489.35	274.83
489.72	275.91
490.08	277.12
490.44	278.38
490.81	279.65
491.17	281.05
491.54	282.58
491.90	284.06
492.26	285.70
492.63	287.40
492.99	289.17
493.36	291.12
493.72	293.17
494.08	295.30
494.45	297.56
494.81	299.93
495.17	302.36
495.54	304.96
495.90	307.59
496.26	310.40
496.63	313.38
496.99	316.47
497.35	319.73
497.72	323.14
498.08	326.64
498.44	330.33
498.80	334.24
499.17	338.24
499.53	342.44
499.89	346.80
500.26	351.31
500.62	355.99
500.98	360.85
501.34	365.91
501.71	371.22
502.07	376.64
502.43	382.19
502.79	387.94
503.16	393.97
503.52	400.20
503.88	406.58
504.24	413.15
504.60	420.00
504.97	427.12
505.33	434.33
505.69	442.02
506.05	449.79
506.41	457.63
506.78	465.71
507.14	474.12
507.50	482.83
507.86	491.80
508.22	500.97
508.59	510.18
508.95	519.68
509.31	529.44
509.67	539.54
510.03	549.79
510.39	560.36
510.75	571.07
511.12	581.97
511.48	593.18
511.84	604.58
512.20	616.05
512.56	627.89
512.92	640.01
513.28	652.23
513.64	664.58
514.00	677.18
514.37	690.01
514.73	703.02
515.09	715.87
515.45	729.01
515.81	742.46
516.17	756.31
516.53	770.36
516.89	784.51
517.25	798.46
517.61	812.80
517.97	827.12
518.33	841.47
518.69	856.07
519.05	870.88
519.41	885.92
519.77	901.30
520.13	916.57
520.49	931.92
520.85	947.18
521.21	962.63
521.57	978.69
521.93	994.31
522.29	1010.45
522.65	1026.68
523.01	1042.75
523.37	1058.65
523.73	1074.66
524.09	1090.55
524.45	1106.54
524.81	1123.11
525.17	1139.60
525.53	1156.30
525.89	1172.97
526.25	1189.62
526.61	1205.86
526.97	1222.42
527.33	1238.75
527.68	1255.13
528.04	1271.44
528.40	1287.80
528.76	1304.75
529.12	1321.21
529.48	1337.99
529.84	1353.66
530.20	1370.05
530.56	1386.84
530.91	1403.93
531.27	1420.55
531.63	1436.80
531.99	1453.15
532.35	1468.93
532.71	1484.69
533.07	1500.74
533.42	1516.47
533.78	1532.44
534.14	1548.48
534.50	1563.62
534.86	1579.19
535.21	1594.26
535.57	1609.77
535.93	1625.02
536.29	1639.58
536.65	1654.25
537.00	1668.74
537.36	1683.96
537.72	1698.20
538.08	1712.41
538.44	1726.12
538.79	1739.84
539.15	1753.25
539.51	1766.71
539.87	1780.80
540.22	1794.27
540.58	1807.71
540.94	1820.66
541.29	1833.08
541.65	1845.57
542.01	1858.51
542.37	1870.62
542.72	1882.84
543.08	1894.57
543.44	1906.84
543.79	1917.95
544.15	1928.86
544.51	1940.31
544.87	1951.04
545.22	1961.77
545.58	1971.95
545.94	1981.55
546.29	1991.29
546.65	2001.10
547.01	2010.48
547.36	2019.11
547.72	2027.53
548.07	2035.49
548.43	2043.55
548.79	2051.54
549.14	2059.04
549.50	2066.20
549.86	2073.73
550.21	2080.97
550.57	2088.03
550.92	2094.50
551.28	2101.53
551.64	2108.35
551.99	2114.66
552.35	2120.75
552.70	2126.89
553.06	2132.76
553.41	2138.99
553.77	2144.77
554.13	2150.75
554.48	2156.71
554.84	2162.26
555.19	2167.35
555.55	2172.38
555.90	2176.95
556.26	2181.99
556.61	2186.67
556.97	2191.25
557.32	2195.52
557.68	2199.63
558.03	2203.86
558.39	2207.53
558.74	2212.11
559.10	2216.23
559.45	2219.92
559.81	2224.31
560.16	2228.01
560.52	2231.41
560.87	2234.92
561.23	2237.74
561.58	2240.59
561.94	2243.13
562.29	2245.35
562.64	2248.38
563.00	2250.97
563.35	2254.50
563.71	2257.73
564.06	2260.92
564.42	2263.78
564.77	2266.39
565.12	2268.97
565.48	2271.17
565.83	2273.31
566.19	2274.89
566.54	2275.72
566.89	2277.06
567.25	2277.89
567.60	2279.23
567.96	2280.99
568.31	2281.88
568.66	2282.95
569.02	2283.63
569.37	2284.14
569.72	2285.26
570.08	2285.62
570.43	2285.79
570.78	2285.42
571.14	2283.89
571.49	2282.65
571.84	2282.29
572.20	2281.23
572.55	2280.20
572.90	2278.46
573.26	2277.06
573.61	2275.21
573.96	2273.85
574.31	2270.98
574.67	2268.04
575.02	2264.56
575.37	2261.17
575.72	2257.55
576.08	2254.26
576.43	2251.02
576.78	2247.66
577.13	2244.29
577.49	2240.91
577.84	2237.71
578.19	2233.97
578.54	2230.55
578.90	2226.54
579.25	2221.09
579.60	2216.46
579.95	2211.59
580.30	2206.87
580.66	2201.96
581.01	2197.17
581.36	2192.19
581.71	2188.32
582.06	2184.09
582.42	2179.88
582.77	2174.87
583.12	2170.55
583.47	2166.25
583.82	2161.69
584.17	2156.43
584.53	2151.12
584.88	2145.81
585.23	2140.14
585.58	2134.82
585.93	2129.36
586.28	2124.55
586.63	2119.70
586.98	2114.51
587.34	2109.83
587.69	2104.93
588.04	2099.78
588.39	2094.34
588.74	2088.00
589.09	2081.80
589.44	2075.12
589.79	2069.09
590.14	2063.40
590.49	2056.73
590.84	2050.23
591.19	2044.17
591.54	2037.77
591.89	2030.83
592.25	2024.28
592.60	2017.12
592.95	2009.82
593.30	2002.73
593.65	1995.28
594.00	1988.26
594.35	1981.17
594.70	1973.10
595.05	1966.18
595.40	1958.96
595.75	1951.61
596.10	1945.67
596.45	1939.18
596.80	1933.08
597.15	1926.66
597.50	1919.93
597.85	1913.62
598.19	1907.20
598.54	1900.46
598.89	1893.84
599.24	1887.79
599.59	1881.31
599.94	1875.14
600.29	1868.88
600.64	1862.24
600.99	1854.90
601.34	1848.23
601.69	1841.27
602.04	1834.61
602.39	1827.28
602.74	1820.55
603.08	1813.93
603.43	1807.10
603.78	1799.81
604.13	1792.63
604.48	1785.51
604.83	1778.71
605.18	1772.08
605.53	1764.22
605.87	1756.16
606.22	1749.03
606.57	1741.14
606.92	1733.73
607.27	1726.64
607.62	1719.84
607.96	1712.74
608.31	1706.58
608.66	1699.10
609.01	1691.68
609.36	1684.35
609.70	1676.40
610.05	1668.49
610.40	1660.88
610.75	1652.76
611.10	1645.21
611.44	1636.83
611.79	1628.69
612.14	1620.08
612.49	1610.90
612.83	1602.50
613.18	1594.48
613.53	1586.42
613.88	1578.06
614.22	1569.77
614.57	1561.19
614.92	1553.01
615.27	1545.68
615.61	1537.26
615.96	1529.23
616.31	1521.58
616.65	1514.06
617.00	1506.58
617.35	1498.88
617.70	1490.62
618.04	1482.23
618.39	1473.85
618.74	1466.29
619.08	1458.04
619.43	1450.38
619.78	1443.31
620.12	1436.22
620.47	1428.60
620.82	1420.47
621.16	1412.94
621.51	1405.35
621.85	1397.74
622.20	1389.42
622.55	1380.83
622.89	1372.93
623.24	1365.27
623.59	1357.86
623.93	1350.33
624.28	1343.04
624.62	1335.55
624.97	1328.38
625.32	1321.36
625.66	1314.38
626.01	1307.38
626.35	1300.11
626.70	1292.42
627.04	1284.88
627.39	1277.05
627.73	1269.66
628.08	1262.80
628.43	1255.74
628.77	1248.49
629.12	1241.00
629.46	1233.77
629.81	1226.29
630.15	1219.02
630.50	1211.78
630.84	1203.72
631.19	1195.86
631.53	1188.33
631.88	1180.70
632.22	1173.03
632.57	1165.81
632.91	1158.33
633.26	1150.83
633.60	1143.27
633.95	1136.07
634.29	1128.82
634.64	1122.16
634.98	1114.87
635.32	1107.67
635.67	1100.94
636.01	1094.24
636.36	1087.50
636.70	1080.85
637.05	1074.35
637.39	1067.91
637.73	1061.34
638.08	1055.44
638.42	1049.42
638.77	1043.10
639.11	1036.72
639.45	1030.26
639.80	1023.67
640.14	1017.26
640.49	1010.80
640.83	1004.62
641.17	998.48
641.52	992.24
641.86	985.75
642.20	979.84
642.55	973.51
642.89	967.07
643.23	960.45
643.58	954.71
643.92	948.67
644.26	942.76
644.61	936.64
644.95	930.73
645.29	924.19
645.64	917.54
645.98	911.18
646.32	905.11
646.66	899.16
647.01	893.36
647.35	887.76
647.69	881.82
648.04	876.20
648.38	870.43
648.72	864.51
649.06	858.58
649.41	852.70
649.75	846.87
650.09	840.94
650.43	835.24
650.78	829.05
651.12	823.11
651.46	817.41
651.80	811.89
652.14	806.45
652.49	801.10
652.83	795.88
653.17	790.30
653.51	784.69
653.85	779.19
654.20	773.62
654.54	767.49
654.88	761.85
655.22	756.06
655.56	750.32
655.90	744.85
656.25	739.51
656.59	734.19
656.93	728.98
657.27	723.86
657.61	718.43
657.95	713.27
658.29	708.14
658.64	702.77
658.98	697.31
659.32	691.78
659.66	686.59
660.00	681.30
660.34	676.31
660.68	671.41
661.02	666.43
661.36	661.67
661.70	657.29
662.05	652.95
662.39	648.65
662.73	644.18
663.07	639.84
663.41	635.43
663.75	630.97
664.09	626.48
664.43	622.09
664.77	618.02
665.11	613.81
665.45	609.65
665.79	605.70
666.13	601.64
666.47	597.58
666.81	593.44
667.15	589.33
667.49	585.37
667.83	581.46
668.17	577.58
668.51	573.58
668.85	569.46
669.19	565.55
669.53	561.70
669.87	557.90
670.21	554.16
670.55	550.48
670.89	547.00
671.23	543.57
671.57	540.01
671.91	536.50
672.25	533.02
672.58	529.57
672.92	526.05
673.26	522.85
673.60	519.71
673.94	516.62
674.28	513.65
674.62	510.72
674.96	507.67
675.30	504.76
675.64	501.86
675.97	499.10
676.31	496.22
676.65	493.29
676.99	490.53
677.33	487.63
677.67	484.82
678.01	481.82
678.34	478.91
678.68	476.07
679.02	473.23
679.36	470.45
679.70	467.69
680.04	464.97
680.37	462.17
680.71	459.34
681.05	456.68
681.39	454.02
681.73	451.34
682.06	448.75
682.40	446.22
682.74	443.60
683.08	441.06
683.42	438.45
683.75	435.93
684.09	433.33
684.43	430.83
684.77	428.37
685.10	426.02
685.44	423.68
685.78	421.36
686.12	419.04
686.45	416.70
686.79	414.41
687.13	412.17
687.46	409.96
687.80	407.82
688.14	405.58
688.48	403.52
688.81	401.30
689.15	399.20
689.49	397.03
689.82	394.95
690.16	392.85
690.50	390.89
690.83	388.98
691.17	386.98
691.51	385.17
691.84	383.34
692.18	381.41
692.52	379.45
692.85	377.46
693.19	375.61
693.52	373.74
693.86	371.88
694.20	370.12
694.53	368.32
694.87	366.45
695.21	364.65
695.54	362.81
695.88	361.10
696.21	359.39
696.55	357.69
696.88	356.04
697.22	354.35
697.56	352.73
697.89	351.04
698.23	349.51
698.56	347.80
698.90	346.23
699.23	344.61
699.57	343.06
699.90	341.55
700.24	340.00
700.58	338.48
700.91	337.07
701.25	335.65
701.58	334.30
701.92	332.93
702.25	331.62
702.59	330.27
702.92	328.95
703.26	327.61
703.59	326.30
703.93	325.12
704.26	323.94
704.60	322.63
704.93	321.40
705.26	320.14
705.60	319.02
705.93	317.84
706.27	316.82
706.60	315.76
706.94	314.68
707.27	313.60
707.61	312.58
707.94	311.53
708.27	310.39
708.61	309.32
708.94	308.33
709.28	307.34
709.61	306.35
709.94	305.41
710.28	304.39
710.61	303.44
710.95	302.36
711.28	301.44
711.61	300.55
711.95	299.62
712.28	298.67
712.61	297.70
712.95	296.76
713.28	295.86
713.61	294.98
713.95	294.11
714.28	293.26
714.61	292.38
714.95	291.56
715.28	290.74
715.61	289.84
715.95	288.97
716.28	288.10
716.61	287.27
716.95	286.41
717.28	285.68
717.61	284.93
717.94	284.19
718.28	283.32
718.61	282.57
718.94	281.87
719.27	281.22
719.61	280.56
719.94	279.88
720.27	279.16
720.60	278.46
720.94	277.85
721.27	277.25
721.60	276.69
721.93	276.02
722.27	275.44
722.60	274.89
722.93	274.34
723.26	273.78
723.59	273.18
723.93	272.64
724.26	272.05
724.59	271.46
724.92	270.88
725.25	270.43
725.59	269.88
725.92	269.34
726.25	268.81
726.58	268.34
726.91	267.82
727.24	267.34
727.57	266.87
727.91	266.32
728.24	265.85
728.57	265.34
728.90	264.92
729.23	264.43
729.56	264.01
729.89	263.51
730.22	263.05
730.55	262.61
730.89	262.17
731.22	261.71
731.55	261.30
731.88	260.89
732.21	260.44
732.54	260.04
732.87	259.63
733.20	259.19
733.53	258.76
733.86	258.42
734.19	257.99
734.52	257.63
734.85	257.30
735.18	256.85
735.51	256.48
735.84	256.11
736.17	255.77
736.50	255.32
736.83	255.11
737.16	254.78
737.49	254.44
737.82	254.06
738.15	253.76
738.48	253.42
738.81	253.11
739.14	252.75
739.47	252.44
739.80	252.12
740.13	251.84
740.46	251.52
740.79	251.17
741.12	250.90
741.45	250.55
741.78	250.24
742.11	249.98
742.44	249.65
742.77	249.34
743.10	249.05
743.43	248.80
743.75	248.44
744.08	248.28
744.41	248.02
744.74	247.79
745.07	247.51
745.40	247.24
745.73	246.98
746.06	246.74
746.39	246.48
746.71	246.26
747.04	246.01
747.37	245.75
747.70	245.54
748.03	245.26
748.36	245.08
748.68	244.83
749.01	244.58
749.34	244.38
749.67	244.19
750.00	243.95
750.33	243.79
750.65	243.57
750.98	243.21
751.31	243.01
751.64	242.82
751.97	242.67
752.29	242.50
752.62	242.27
752.95	242.09
753.28	241.87
753.60	241.63
753.93	241.46
754.26	241.31
754.59	241.04
754.91	240.87
755.24	240.65
755.57	240.44
755.90	240.27
756.22	240.11
756.55	239.90
756.88	239.69
757.20	239.45
757.53	239.25
757.86	239.11
758.19	238.96
758.51	238.79
758.84	238.55
759.17	238.38
759.49	238.22
759.82	238.10
760.15	237.96
760.47	237.79
760.80	237.63
761.13	237.48
761.45	237.38
761.78	237.26
762.11	237.13
762.43	237.03
762.76	236.89
763.08	236.75
763.41	236.60
763.74	236.50
764.06	236.36
764.39	236.24
764.71	236.08
765.04	235.90
765.37	235.73
765.69	235.62
766.02	235.48
766.34	235.36
766.67	235.20
767.00	235.10
767.32	235.03
767.65	234.96
767.97	234.84
768.30	234.71
768.62	234.57
768.95	234.43
769.27	234.33
769.60	234.21
769.92	234.08
770.25	234.01
770.57	233.90
770.90	233.79
771.22	233.69
771.55	233.63
771.87	233.59
772.20	233.52
772.52	233.49
772.85	233.54
773.17	233.40
773.50	233.31
773.82	233.22
774.15	233.10
774.47	232.95
774.80	232.86
775.12	232.81
775.45	232.75
775.77	232.64
776.09	232.53
776.42	232.45
776.74	232.39
777.07	232.27
777.39	232.19
777.72	232.10
778.04	232.01
778.36	231.90
778.69	231.82
779.01	231.75
779.33	231.62
779.66	231.43
779.98	231.40
780.31	231.32
780.63	231.30
780.95	231.28
781.28	231.23
781.60	231.13
781.92	231.07
782.25	231.00
782.57	230.99
782.89	230.94
783.22	230.87
783.54	230.80
783.86	230.74
784.19	230.71
784.51	230.72
784.83	230.68
785.16	230.63
785.48	230.58
785.80	230.55
786.12	230.49
786.45	230.42
786.77	230.38
787.09	230.32
