SpectraSuite Data File
++++++++++++++++++++++++++++++++++++
Date: Fri Feb 01 16:38:35 EST 2013
User: group
Dark Spectrum Present: No
Reference Spectrum Present: No
Number of Sampled Component Spectra: 1
Spectrometers: USB2E7196
Integration Time (usec): 35000 (USB2E7196)
Spectra Averaged: 100 (USB2E7196)
Boxcar Smoothing: 10 (USB2E7196)
Correct for Electrical Dark: No (USB2E7196)
Strobe/Lamp Enabled: No (USB2E7196)
Correct for Detector Non-linearity: No (USB2E7196)
Correct for Stray Light: No (USB2E7196)
Number of Pixels in Processed Spectrum: 2048
>>>>>Begin Processed Spectral Data<<<<<
339.09	0.00
339.48	213.36
339.86	214.91
340.24	215.79
340.63	217.52
341.01	220.55
341.39	220.79
341.78	222.17
342.16	222.92
342.54	223.70
342.93	212.05
343.31	222.77
343.69	223.30
344.07	223.79
344.46	224.27
344.84	224.69
345.22	224.94
345.60	225.18
345.99	225.38
346.37	225.50
346.75	225.61
347.13	225.69
347.52	225.75
347.90	225.81
348.28	225.82
348.66	225.88
349.05	225.85
349.43	225.90
349.81	225.98
350.19	226.07
350.57	226.08
350.96	226.17
351.34	226.27
351.72	226.37
352.10	226.45
352.48	226.51
352.87	226.58
353.25	226.64
353.63	226.71
354.01	226.74
354.39	226.84
354.77	226.91
355.15	227.05
355.54	227.12
355.92	227.18
356.30	227.28
356.68	227.41
357.06	227.49
357.44	227.56
357.82	227.61
358.20	227.72
358.58	227.82
358.97	227.89
359.35	227.94
359.73	228.02
360.11	228.05
360.49	228.14
360.87	228.18
361.25	228.27
361.63	228.35
362.01	228.43
362.39	228.46
362.77	228.51
363.15	228.52
363.53	228.51
363.91	228.53
364.29	228.55
364.67	228.48
365.05	228.51
365.43	228.53
365.81	228.56
366.19	228.55
366.57	228.56
366.95	228.54
367.33	228.52
367.71	228.54
368.09	228.57
368.47	228.54
368.85	228.52
369.23	228.53
369.61	228.46
369.99	228.45
370.37	228.43
370.75	228.45
371.13	228.36
371.51	228.34
371.89	228.32
372.27	228.25
372.65	228.22
373.03	228.17
373.41	228.09
373.78	228.03
374.16	227.94
374.54	227.85
374.92	227.77
375.30	227.71
375.68	227.62
376.06	227.57
376.44	227.50
376.82	227.41
377.19	227.28
377.57	227.23
377.95	227.11
378.33	227.02
378.71	226.86
379.09	226.83
379.47	226.77
379.84	226.69
380.22	226.62
380.60	226.53
380.98	226.44
381.36	226.37
381.73	226.30
382.11	226.23
382.49	226.19
382.87	226.14
383.25	226.10
383.62	226.14
384.00	226.06
384.38	226.00
384.76	225.98
385.13	226.00
385.51	225.90
385.89	225.88
386.27	225.83
386.64	225.82
387.02	225.76
387.40	225.68
387.78	225.65
388.15	225.63
388.53	225.62
388.91	225.60
389.29	225.57
389.66	225.54
390.04	225.53
390.42	225.51
390.79	225.50
391.17	225.47
391.55	225.36
391.92	225.37
392.30	225.37
392.68	225.33
393.05	225.29
393.43	225.31
393.81	225.30
394.18	225.30
394.56	225.31
394.94	225.36
395.31	225.40
395.69	225.44
396.06	225.46
396.44	225.47
396.82	225.51
397.19	225.60
397.57	225.64
397.95	225.66
398.32	225.66
398.70	225.68
399.07	225.74
399.45	225.78
399.82	225.82
400.20	225.88
400.58	225.96
400.95	226.00
401.33	226.10
401.70	226.24
402.08	226.37
402.45	226.47
402.83	226.59
403.20	226.69
403.58	226.77
403.95	226.91
404.33	227.06
404.71	227.13
405.08	227.31
405.46	227.44
405.83	227.57
406.21	227.75
406.58	227.91
406.96	228.07
407.33	228.25
407.70	228.41
408.08	228.72
408.45	228.91
408.83	229.15
409.20	229.36
409.58	229.55
409.95	229.81
410.33	230.02
410.70	230.28
411.08	230.57
411.45	230.85
411.82	231.14
412.20	231.49
412.57	231.93
412.95	232.20
413.32	232.58
413.69	233.01
414.07	233.44
414.44	233.90
414.82	234.39
415.19	234.94
415.56	235.51
415.94	236.01
416.31	236.68
416.68	237.31
417.06	238.00
417.43	238.68
417.81	239.45
418.18	240.24
418.55	241.04
418.93	241.91
419.30	242.85
419.67	243.73
420.04	244.65
420.42	245.63
420.79	246.85
421.16	247.97
421.54	249.17
421.91	250.41
422.28	251.67
422.66	253.00
423.03	254.31
423.40	255.64
423.77	257.03
424.15	258.45
424.52	259.91
424.89	261.50
425.26	263.05
425.64	264.47
426.01	266.08
426.38	267.79
426.75	269.41
427.13	271.11
427.50	272.97
427.87	274.85
428.24	276.67
428.61	278.38
428.99	280.34
429.36	282.41
429.73	284.40
430.10	286.42
430.47	288.44
430.85	290.52
431.22	292.72
431.59	295.07
431.96	297.30
432.33	299.82
432.70	302.19
433.08	304.99
433.45	307.59
433.82	310.17
434.19	313.00
434.56	315.82
434.93	318.40
435.30	321.00
435.68	323.86
436.05	326.68
436.42	329.43
436.79	331.90
437.16	334.55
437.53	337.39
437.90	340.19
438.27	342.93
438.64	345.76
439.01	348.35
439.38	350.56
439.75	352.73
440.13	355.13
440.50	357.43
440.87	359.23
441.24	361.19
441.61	363.35
441.98	364.79
442.35	366.55
442.72	368.40
443.09	370.18
443.46	371.13
443.83	371.70
444.20	372.19
444.57	373.03
444.94	373.34
445.31	373.66
445.68	374.05
446.05	374.12
446.42	373.69
446.79	373.24
447.16	372.84
447.53	372.49
447.90	371.39
448.27	370.24
448.64	368.67
449.01	367.54
449.37	365.57
449.74	363.71
450.11	361.53
450.48	359.14
450.85	356.65
451.22	354.54
451.59	352.57
451.96	350.65
452.33	348.11
452.70	345.76
453.07	342.92
453.43	339.98
453.80	337.25
454.17	334.65
454.54	332.14
454.91	329.40
455.28	326.77
455.65	324.29
456.02	321.89
456.38	319.79
456.75	317.14
457.12	314.88
457.49	312.71
457.86	310.56
458.23	308.73
458.59	306.69
458.96	304.61
459.33	302.79
459.70	300.98
460.07	299.48
460.43	297.78
460.80	296.20
461.17	294.79
461.54	293.29
461.91	291.86
462.27	290.45
462.64	289.25
463.01	287.88
463.38	286.61
463.74	285.24
464.11	284.09
464.48	283.06
464.85	282.01
465.21	281.10
465.58	280.24
465.95	279.10
466.32	278.19
466.68	277.35
467.05	276.43
467.42	275.56
467.78	274.62
468.15	273.76
468.52	273.12
468.88	272.28
469.25	271.53
469.62	270.95
469.98	270.27
470.35	269.63
470.72	269.06
471.08	268.39
471.45	267.88
471.82	267.35
472.18	266.78
472.55	266.32
472.92	265.80
473.28	265.30
473.65	264.89
474.02	264.49
474.38	264.08
474.75	263.79
475.11	263.42
475.48	263.19
475.85	262.98
476.21	262.75
476.58	262.57
476.94	262.44
477.31	262.23
477.67	262.08
478.04	261.97
478.41	261.90
478.77	261.97
479.14	261.88
479.50	261.87
479.87	261.94
480.23	262.07
480.60	262.12
480.96	262.19
481.33	262.39
481.69	262.56
482.06	262.77
482.42	262.93
482.79	263.21
483.15	263.49
483.52	263.86
483.88	264.21
484.25	264.62
484.61	265.02
484.98	265.49
485.34	266.05
485.71	266.65
486.07	267.28
486.44	267.83
486.80	268.51
487.17	269.22
487.53	270.03
487.90	270.86
488.26	271.83
488.62	272.86
488.99	273.83
489.35	274.90
489.72	276.06
490.08	277.29
490.44	278.54
490.81	279.89
491.17	281.26
491.54	282.77
491.90	284.27
492.26	285.95
492.63	287.72
492.99	289.52
493.36	291.44
493.72	293.45
494.08	295.54
494.45	297.86
494.81	300.27
495.17	302.72
495.54	305.26
495.90	307.95
496.26	310.72
496.63	313.70
496.99	316.85
497.35	320.08
497.72	323.52
498.08	327.03
498.44	330.71
498.80	334.66
499.17	338.69
499.53	342.89
499.89	347.28
500.26	351.78
500.62	356.44
500.98	361.42
501.34	366.56
501.71	371.96
502.07	377.37
502.43	383.03
502.79	388.88
503.16	395.00
503.52	401.33
503.88	407.80
504.24	414.44
504.60	421.29
504.97	428.48
505.33	435.78
505.69	443.51
506.05	451.38
506.41	459.27
506.78	467.42
507.14	475.91
507.50	484.57
507.86	493.60
508.22	502.79
508.59	511.98
508.95	521.53
509.31	531.27
509.67	541.38
510.03	551.59
510.39	562.17
510.75	572.95
511.12	583.83
511.48	595.08
511.84	606.53
512.20	617.99
512.56	629.87
512.92	641.99
513.28	654.29
513.64	666.55
514.00	679.14
514.37	692.10
514.73	705.13
515.09	718.09
515.45	731.39
515.81	744.94
516.17	758.87
516.53	772.93
516.89	787.20
517.25	801.30
517.61	815.67
517.97	830.06
518.33	844.42
518.69	859.15
519.05	874.08
519.41	889.16
519.77	904.62
520.13	920.00
520.49	935.35
520.85	950.62
521.21	966.34
521.57	982.51
521.93	998.16
522.29	1014.39
522.65	1030.59
523.01	1046.64
523.37	1062.56
523.73	1078.56
524.09	1094.61
524.45	1110.73
524.81	1127.23
525.17	1143.92
525.53	1160.57
525.89	1177.30
526.25	1194.03
526.61	1210.21
526.97	1226.79
527.33	1243.18
527.68	1259.65
528.04	1276.02
528.40	1292.52
528.76	1309.46
529.12	1325.91
529.48	1342.75
529.84	1358.60
530.20	1375.00
530.56	1391.70
530.91	1408.91
531.27	1425.63
531.63	1441.98
531.99	1458.44
532.35	1474.33
532.71	1490.06
533.07	1506.22
533.42	1522.04
533.78	1538.10
534.14	1554.38
534.50	1569.50
534.86	1585.27
535.21	1600.34
535.57	1616.08
535.93	1631.39
536.29	1645.97
536.65	1660.96
537.00	1675.40
537.36	1690.68
537.72	1705.15
538.08	1719.57
538.44	1733.30
538.79	1747.00
539.15	1760.20
539.51	1773.73
539.87	1787.92
540.22	1801.50
540.58	1814.94
540.94	1827.89
541.29	1840.35
541.65	1852.72
542.01	1865.95
542.37	1878.14
542.72	1890.36
543.08	1902.01
543.44	1914.21
543.79	1925.33
544.15	1936.15
544.51	1947.62
544.87	1958.37
545.22	1969.21
545.58	1979.43
545.94	1989.06
546.29	1998.95
546.65	2009.06
547.01	2018.32
547.36	2027.00
547.72	2035.42
548.07	2043.51
548.43	2051.83
548.79	2059.71
549.14	2067.43
549.50	2074.57
549.86	2082.09
550.21	2089.37
550.57	2096.71
550.92	2103.38
551.28	2110.60
551.64	2117.70
551.99	2124.19
552.35	2130.48
552.70	2136.41
553.06	2142.31
553.41	2148.67
553.77	2154.43
554.13	2160.36
554.48	2166.28
554.84	2171.83
555.19	2176.98
555.55	2182.09
555.90	2186.61
556.26	2191.76
556.61	2196.33
556.97	2200.99
557.32	2205.24
557.68	2209.31
558.03	2213.32
558.39	2216.93
558.74	2221.35
559.10	2225.16
559.45	2228.95
559.81	2233.08
560.16	2237.02
560.52	2240.33
560.87	2243.71
561.23	2246.61
561.58	2249.37
561.94	2252.00
562.29	2254.25
562.64	2257.23
563.00	2259.73
563.35	2263.18
563.71	2266.30
564.06	2269.41
564.42	2272.09
564.77	2274.75
565.12	2277.27
565.48	2279.36
565.83	2281.22
566.19	2282.71
566.54	2283.54
566.89	2284.75
567.25	2285.39
567.60	2286.62
567.96	2288.37
568.31	2289.27
568.66	2290.31
569.02	2291.09
569.37	2291.53
569.72	2292.59
570.08	2292.79
570.43	2292.92
570.78	2292.42
571.14	2290.91
571.49	2289.61
571.84	2289.22
572.20	2287.96
572.55	2286.86
572.90	2285.30
573.26	2284.09
573.61	2282.38
573.96	2280.86
574.31	2277.91
574.67	2275.01
575.02	2271.49
575.37	2268.13
575.72	2264.48
576.08	2260.99
576.43	2257.66
576.78	2254.23
577.13	2250.85
577.49	2247.60
577.84	2244.19
578.19	2240.41
578.54	2236.86
578.90	2232.90
579.25	2227.58
579.60	2222.89
579.95	2217.99
580.30	2212.99
580.66	2207.92
581.01	2202.84
581.36	2197.99
581.71	2193.95
582.06	2189.69
582.42	2185.31
582.77	2180.13
583.12	2175.65
583.47	2171.30
583.82	2166.50
584.17	2161.27
584.53	2155.89
584.88	2150.29
585.23	2144.75
585.58	2139.30
585.93	2133.84
586.28	2128.98
586.63	2123.92
586.98	2118.82
587.34	2114.14
587.69	2109.30
588.04	2104.26
588.39	2098.73
588.74	2092.23
589.09	2085.96
589.44	2079.27
589.79	2073.25
590.14	2067.62
590.49	2060.96
590.84	2054.58
591.19	2048.49
591.54	2042.12
591.89	2034.94
592.25	2028.45
592.60	2021.18
592.95	2013.83
593.30	2006.63
593.65	1998.98
594.00	1992.03
594.35	1984.76
594.70	1976.62
595.05	1969.71
595.40	1962.34
595.75	1955.11
596.10	1949.19
596.45	1942.77
596.80	1936.71
597.15	1930.21
597.50	1923.35
597.85	1917.04
598.19	1910.51
598.54	1903.72
598.89	1897.04
599.24	1891.18
599.59	1884.75
599.94	1878.53
600.29	1872.16
600.64	1865.54
600.99	1858.43
601.34	1851.62
601.69	1844.67
602.04	1838.07
602.39	1830.65
602.74	1823.90
603.08	1817.23
603.43	1810.29
603.78	1802.84
604.13	1795.49
604.48	1788.29
604.83	1781.36
605.18	1774.51
605.53	1766.50
605.87	1758.46
606.22	1751.10
606.57	1743.07
606.92	1735.39
607.27	1728.40
607.62	1721.62
607.96	1714.43
608.31	1707.99
608.66	1700.40
609.01	1692.86
609.36	1685.36
609.70	1677.36
610.05	1669.37
610.40	1661.72
610.75	1653.45
611.10	1645.78
611.44	1637.42
611.79	1629.38
612.14	1620.81
612.49	1611.77
612.83	1603.37
613.18	1595.26
613.53	1587.27
613.88	1578.88
614.22	1570.70
614.57	1562.04
614.92	1554.05
615.27	1546.69
615.61	1538.20
615.96	1530.24
616.31	1522.60
616.65	1515.20
617.00	1507.68
617.35	1499.94
617.70	1491.68
618.04	1483.36
618.39	1475.21
618.74	1467.70
619.08	1459.40
619.43	1451.78
619.78	1444.77
620.12	1437.76
620.47	1430.24
620.82	1422.12
621.16	1414.55
621.51	1406.98
621.85	1399.31
622.20	1390.75
622.55	1382.35
622.89	1374.51
623.24	1366.84
623.59	1359.52
623.93	1351.92
624.28	1344.57
624.62	1337.14
624.97	1329.97
625.32	1323.10
625.66	1316.07
626.01	1308.90
626.35	1301.65
626.70	1293.94
627.04	1286.21
627.39	1278.34
627.73	1270.92
628.08	1264.05
628.43	1256.90
628.77	1249.64
629.12	1242.17
629.46	1235.08
629.81	1227.52
630.15	1220.30
630.50	1212.98
630.84	1204.75
631.19	1196.84
631.53	1189.36
631.88	1181.76
632.22	1174.12
632.57	1166.81
632.91	1159.29
633.26	1151.84
633.60	1144.33
633.95	1137.04
634.29	1130.00
634.64	1123.23
634.98	1115.93
635.32	1108.71
635.67	1102.07
636.01	1095.29
636.36	1088.51
636.70	1081.82
637.05	1075.34
637.39	1068.86
637.73	1062.35
638.08	1056.55
638.42	1050.59
638.77	1044.23
639.11	1037.81
639.45	1031.35
639.80	1024.74
640.14	1018.42
640.49	1011.98
640.83	1005.67
641.17	999.69
641.52	993.41
641.86	986.97
642.20	981.13
642.55	974.68
642.89	968.33
643.23	961.73
643.58	956.03
643.92	950.04
644.26	944.07
644.61	938.10
644.95	932.08
645.29	925.63
645.64	918.98
645.98	912.54
646.32	906.49
646.66	900.45
647.01	894.64
647.35	888.98
647.69	883.10
648.04	877.59
648.38	871.68
648.72	865.68
649.06	859.73
649.41	853.73
649.75	847.96
650.09	841.98
650.43	836.29
650.78	830.11
651.12	824.05
651.46	818.24
651.80	812.56
652.14	807.13
652.49	801.70
652.83	796.47
653.17	790.98
653.51	785.39
653.85	780.03
654.20	774.46
654.54	768.38
654.88	762.60
655.22	756.67
655.56	751.03
655.90	745.52
656.25	740.27
656.59	735.02
656.93	729.90
657.27	724.77
657.61	719.35
657.95	714.23
658.29	709.14
658.64	703.87
658.98	698.48
659.32	693.08
659.66	687.83
660.00	682.59
660.34	677.61
660.68	672.72
661.02	667.64
661.36	662.95
661.70	658.49
662.05	654.17
662.39	649.89
662.73	645.41
663.07	641.11
663.41	636.65
663.75	632.11
664.09	627.57
664.43	623.20
664.77	619.09
665.11	614.81
665.45	610.70
665.79	606.65
666.13	602.55
666.47	598.41
666.81	594.32
667.15	590.12
667.49	586.14
667.83	582.25
668.17	578.32
668.51	574.21
668.85	570.15
669.19	566.22
669.53	562.41
669.87	558.57
670.21	554.79
670.55	551.13
670.89	547.72
671.23	544.26
671.57	540.70
671.91	537.17
672.25	533.68
672.58	530.20
672.92	526.73
673.26	523.49
673.60	520.30
673.94	517.16
674.28	514.22
674.62	511.24
674.96	508.18
675.30	505.29
675.64	502.43
675.97	499.58
676.31	496.78
676.65	493.80
676.99	491.03
677.33	488.16
677.67	485.33
678.01	482.35
678.34	479.37
678.68	476.48
679.02	473.66
679.36	470.83
679.70	468.05
680.04	465.33
680.37	462.49
680.71	459.72
681.05	457.10
681.39	454.39
681.73	451.73
682.06	449.11
682.40	446.57
682.74	443.96
683.08	441.41
683.42	438.77
683.75	436.27
684.09	433.72
684.43	431.31
684.77	428.83
685.10	426.43
685.44	424.10
685.78	421.80
686.12	419.48
686.45	417.21
686.79	414.91
687.13	412.67
687.46	410.53
687.80	408.38
688.14	406.12
688.48	404.10
688.81	401.93
689.15	399.84
689.49	397.66
689.82	395.58
690.16	393.50
690.50	391.60
690.83	389.68
691.17	387.74
691.51	385.82
691.84	383.97
692.18	382.08
692.52	380.15
692.85	378.20
693.19	376.36
693.52	374.52
693.86	372.74
694.20	370.97
694.53	369.15
694.87	367.25
695.21	365.45
695.54	363.63
695.88	361.85
696.21	360.12
696.55	358.45
696.88	356.79
697.22	355.11
697.56	353.44
697.89	351.82
698.23	350.20
698.56	348.60
698.90	347.07
699.23	345.47
699.57	343.93
699.90	342.41
700.24	340.88
700.58	339.38
700.91	337.90
701.25	336.48
701.58	335.11
701.92	333.77
702.25	332.45
702.59	331.05
702.92	329.78
703.26	328.45
703.59	327.17
703.93	325.99
704.26	324.79
704.60	323.52
704.93	322.19
705.26	320.92
705.60	319.72
705.93	318.52
706.27	317.45
706.60	316.38
706.94	315.30
707.27	314.18
707.61	313.09
707.94	312.06
708.27	310.94
708.61	309.84
708.94	308.82
709.28	307.81
709.61	306.87
709.94	305.90
710.28	304.86
710.61	303.87
710.95	302.74
711.28	301.79
711.61	300.82
711.95	299.93
712.28	299.02
712.61	298.03
712.95	297.11
713.28	296.21
713.61	295.32
713.95	294.46
714.28	293.61
714.61	292.77
714.95	291.89
715.28	291.07
715.61	290.20
715.95	289.36
716.28	288.54
716.61	287.68
716.95	286.80
717.28	286.09
717.61	285.36
717.94	284.61
718.28	283.81
718.61	283.08
718.94	282.35
719.27	281.68
719.61	281.04
719.94	280.36
720.27	279.62
720.60	278.96
720.94	278.32
721.27	277.71
721.60	277.15
721.93	276.57
722.27	276.00
722.60	275.46
722.93	274.87
723.26	274.31
723.59	273.78
723.93	273.28
724.26	272.72
724.59	272.12
724.92	271.62
725.25	271.14
725.59	270.64
725.92	270.14
726.25	269.59
726.58	269.09
726.91	268.59
727.24	268.17
727.57	267.66
727.91	267.13
728.24	266.65
728.57	266.13
728.90	265.65
729.23	265.19
729.56	264.73
729.89	264.29
730.22	263.78
730.55	263.28
730.89	262.84
731.22	262.39
731.55	261.99
731.88	261.57
732.21	261.12
732.54	260.67
732.87	260.29
733.20	259.93
733.53	259.51
733.86	259.14
734.19	258.75
734.52	258.40
734.85	258.07
735.18	257.69
735.51	257.32
735.84	256.97
736.17	256.58
736.50	256.19
736.83	255.99
737.16	255.70
737.49	255.41
737.82	255.02
738.15	254.70
738.48	254.38
738.81	254.05
739.14	253.73
739.47	253.43
739.80	253.11
740.13	252.83
740.46	252.50
740.79	252.18
741.12	251.85
741.45	251.53
741.78	251.24
742.11	250.92
742.44	250.66
742.77	250.39
743.10	250.11
743.43	249.85
743.75	249.45
744.08	249.31
744.41	248.98
744.74	248.77
745.07	248.49
745.40	248.24
745.73	248.00
746.06	247.77
746.39	247.49
746.71	247.24
747.04	246.95
747.37	246.73
747.70	246.48
748.03	246.26
748.36	246.02
748.68	245.77
749.01	245.57
749.34	245.30
749.67	245.05
750.00	244.82
750.33	244.64
750.65	244.45
750.98	244.11
751.31	243.91
751.64	243.70
751.97	243.54
752.29	243.30
752.62	243.06
752.95	242.81
753.28	242.60
753.60	242.38
753.93	242.19
754.26	241.96
754.59	241.73
754.91	241.50
755.24	241.28
755.57	241.09
755.90	240.88
756.22	240.69
756.55	240.47
756.88	240.27
757.20	240.00
757.53	239.77
757.86	239.58
758.19	239.45
758.51	239.24
758.84	239.00
759.17	238.85
759.49	238.68
759.82	238.56
760.15	238.41
760.47	238.24
760.80	238.09
761.13	237.97
761.45	237.82
761.78	237.65
762.11	237.52
762.43	237.37
762.76	237.18
763.08	237.06
763.41	236.95
763.74	236.81
764.06	236.70
764.39	236.54
764.71	236.41
765.04	236.24
765.37	236.13
765.69	235.99
766.02	235.84
766.34	235.72
766.67	235.59
767.00	235.46
767.32	235.42
767.65	235.33
767.97	235.21
768.30	235.10
768.62	234.99
768.95	234.88
769.27	234.75
769.60	234.68
769.92	234.56
770.25	234.42
770.57	234.28
770.90	234.15
771.22	234.06
771.55	233.96
771.87	233.86
772.20	233.76
772.52	233.76
772.85	233.80
773.17	233.68
773.50	233.56
773.82	233.48
774.15	233.33
774.47	233.21
774.80	233.15
775.12	233.07
775.45	232.97
775.77	232.88
776.09	232.81
776.42	232.73
776.74	232.70
777.07	232.62
777.39	232.62
777.72	232.54
778.04	232.49
778.36	232.40
778.69	232.32
779.01	232.27
779.33	232.12
779.66	231.93
779.98	231.89
780.31	231.82
780.63	231.78
780.95	231.74
781.28	231.66
781.60	231.58
781.92	231.53
782.25	231.47
782.57	231.40
782.89	231.36
783.22	231.27
783.54	231.17
783.86	231.12
784.19	231.03
784.51	231.02
784.83	230.96
785.16	230.92
785.48	230.89
785.80	230.82
786.12	230.76
786.45	230.71
786.77	230.66
787.09	230.63
