SpectraSuite Data File
++++++++++++++++++++++++++++++++++++
Date: Fri Feb 01 15:36:03 EST 2013
User: group
Dark Spectrum Present: No
Reference Spectrum Present: No
Number of Sampled Component Spectra: 1
Spectrometers: USB2E7196
Integration Time (usec): 35000 (USB2E7196)
Spectra Averaged: 100 (USB2E7196)
Boxcar Smoothing: 10 (USB2E7196)
Correct for Electrical Dark: No (USB2E7196)
Strobe/Lamp Enabled: No (USB2E7196)
Correct for Detector Non-linearity: No (USB2E7196)
Correct for Stray Light: No (USB2E7196)
Number of Pixels in Processed Spectrum: 2048
>>>>>Begin Processed Spectral Data<<<<<
339.09	0.00
339.48	215.05
339.86	216.31
340.24	217.96
340.63	218.81
341.01	222.08
341.39	222.19
341.78	222.69
342.16	224.44
342.54	224.34
342.93	213.19
343.31	223.95
343.69	224.48
344.07	224.97
344.46	225.42
344.84	225.82
345.22	226.06
345.60	226.32
345.99	226.51
346.37	226.66
346.75	226.79
347.13	226.91
347.52	226.97
347.90	227.05
348.28	227.07
348.66	227.15
349.05	227.15
349.43	227.21
349.81	227.23
350.19	227.29
350.57	227.38
350.96	227.46
351.34	227.56
351.72	227.64
352.10	227.74
352.48	227.80
352.87	227.83
353.25	227.92
353.63	227.97
354.01	228.09
354.39	228.17
354.77	228.24
355.15	228.33
355.54	228.43
355.92	228.48
356.30	228.56
356.68	228.67
357.06	228.76
357.44	228.83
357.82	228.93
358.20	228.99
358.58	229.03
358.97	229.08
359.35	229.17
359.73	229.25
360.11	229.29
360.49	229.33
360.87	229.40
361.25	229.46
361.63	229.51
362.01	229.54
362.39	229.55
362.77	229.58
363.15	229.58
363.53	229.57
363.91	229.59
364.29	229.61
364.67	229.53
365.05	229.53
365.43	229.49
365.81	229.51
366.19	229.54
366.57	229.55
366.95	229.54
367.33	229.49
367.71	229.50
368.09	229.47
368.47	229.47
368.85	229.41
369.23	229.39
369.61	229.35
369.99	229.30
370.37	229.29
370.75	229.30
371.13	229.25
371.51	229.20
371.89	229.16
372.27	229.09
372.65	229.04
373.03	228.98
373.41	228.93
373.78	228.86
374.16	228.75
374.54	228.67
374.92	228.56
375.30	228.48
375.68	228.40
376.06	228.36
376.44	228.25
376.82	228.22
377.19	228.11
377.57	228.02
377.95	227.96
378.33	227.86
378.71	227.72
379.09	227.69
379.47	227.65
379.84	227.55
380.22	227.50
380.60	227.43
380.98	227.36
381.36	227.29
381.73	227.19
382.11	227.16
382.49	227.12
382.87	227.06
383.25	227.04
383.62	227.08
384.00	226.99
384.38	226.97
384.76	226.93
385.13	226.92
385.51	226.87
385.89	226.79
386.27	226.74
386.64	226.72
387.02	226.63
387.40	226.55
387.78	226.53
388.15	226.49
388.53	226.46
388.91	226.42
389.29	226.40
389.66	226.39
390.04	226.37
390.42	226.32
390.79	226.34
391.17	226.31
391.55	226.17
391.92	226.15
392.30	226.15
392.68	226.12
393.05	226.14
393.43	226.15
393.81	226.16
394.18	226.16
394.56	226.14
394.94	226.19
395.31	226.23
395.69	226.26
396.06	226.28
396.44	226.31
396.82	226.32
397.19	226.42
397.57	226.47
397.95	226.52
398.32	226.57
398.70	226.60
399.07	226.67
399.45	226.75
399.82	226.86
400.20	226.90
400.58	226.98
400.95	227.02
401.33	227.14
401.70	227.30
402.08	227.42
402.45	227.59
402.83	227.73
403.20	227.82
403.58	227.93
403.95	228.07
404.33	228.20
404.71	228.37
405.08	228.53
405.46	228.66
405.83	228.79
406.21	228.92
406.58	229.14
406.96	229.29
407.33	229.46
407.70	229.67
408.08	229.97
408.45	230.18
408.83	230.42
409.20	230.62
409.58	230.78
409.95	231.02
410.33	231.27
410.70	231.53
411.08	231.79
411.45	232.11
411.82	232.42
412.20	232.79
412.57	233.19
412.95	233.48
413.32	233.89
413.69	234.32
414.07	234.79
414.44	235.24
414.82	235.73
415.19	236.29
415.56	236.80
415.94	237.34
416.31	237.99
416.68	238.60
417.06	239.32
417.43	240.05
417.81	240.82
418.18	241.60
418.55	242.39
418.93	243.27
419.30	244.16
419.67	245.10
420.04	246.05
420.42	247.01
420.79	248.17
421.16	249.32
421.54	250.49
421.91	251.68
422.28	252.93
422.66	254.26
423.03	255.54
423.40	256.90
423.77	258.31
424.15	259.73
424.52	261.23
424.89	262.83
425.26	264.35
425.64	265.77
426.01	267.39
426.38	269.10
426.75	270.81
427.13	272.52
427.50	274.34
427.87	276.27
428.24	278.16
428.61	279.92
428.99	281.89
429.36	283.99
429.73	286.10
430.10	288.13
430.47	290.24
430.85	292.36
431.22	294.55
431.59	296.91
431.96	299.17
432.33	301.63
432.70	304.01
433.08	306.85
433.45	309.52
433.82	312.11
434.19	314.94
434.56	317.71
434.93	320.38
435.30	323.02
435.68	325.88
436.05	328.70
436.42	331.52
436.79	334.03
437.16	336.73
437.53	339.55
437.90	342.37
438.27	345.13
438.64	347.97
439.01	350.60
439.38	352.84
439.75	354.99
440.13	357.47
440.50	359.81
440.87	361.68
441.24	363.62
441.61	365.78
441.98	367.31
442.35	369.12
442.72	370.99
443.09	372.74
443.46	373.74
443.83	374.34
444.20	374.82
444.57	375.65
444.94	375.95
445.31	376.28
445.68	376.66
446.05	376.70
446.42	376.31
446.79	375.88
447.16	375.42
447.53	375.10
447.90	373.95
448.27	372.77
448.64	371.16
449.01	370.02
449.37	368.07
449.74	366.18
450.11	363.96
450.48	361.43
450.85	358.95
451.22	356.83
451.59	354.84
451.96	352.91
452.33	350.27
452.70	347.93
453.07	345.07
453.43	342.14
453.80	339.36
454.17	336.69
454.54	334.16
454.91	331.48
455.28	328.81
455.65	326.39
456.02	323.95
456.38	321.80
456.75	319.15
457.12	316.90
457.49	314.63
457.86	312.42
458.23	310.61
458.59	308.55
458.96	306.41
459.33	304.54
459.70	302.67
460.07	301.21
460.43	299.48
460.80	297.88
461.17	296.42
461.54	294.94
461.91	293.51
462.27	292.04
462.64	290.77
463.01	289.40
463.38	288.10
463.74	286.74
464.11	285.56
464.48	284.50
464.85	283.40
465.21	282.53
465.58	281.65
465.95	280.56
466.32	279.65
466.68	278.74
467.05	277.84
467.42	276.96
467.78	276.00
468.15	275.14
468.52	274.47
468.88	273.60
469.25	272.81
469.62	272.19
469.98	271.56
470.35	270.93
470.72	270.33
471.08	269.62
471.45	269.06
471.82	268.54
472.18	267.97
472.55	267.53
472.92	267.00
473.28	266.53
473.65	266.07
474.02	265.64
474.38	265.26
474.75	264.94
475.11	264.60
475.48	264.38
475.85	264.15
476.21	263.89
476.58	263.76
476.94	263.63
477.31	263.46
477.67	263.31
478.04	263.19
478.41	263.13
478.77	263.20
479.14	263.15
479.50	263.15
479.87	263.16
480.23	263.23
480.60	263.33
480.96	263.45
481.33	263.69
481.69	263.88
482.06	264.09
482.42	264.33
482.79	264.58
483.15	264.87
483.52	265.25
483.88	265.65
484.25	266.01
484.61	266.46
484.98	266.89
485.34	267.43
485.71	268.02
486.07	268.62
486.44	269.19
486.80	269.94
487.17	270.67
487.53	271.52
487.90	272.32
488.26	273.26
488.62	274.23
488.99	275.18
489.35	276.21
489.72	277.35
490.08	278.53
490.44	279.78
490.81	281.09
491.17	282.44
491.54	283.89
491.90	285.42
492.26	287.04
492.63	288.78
492.99	290.54
493.36	292.46
493.72	294.54
494.08	296.64
494.45	298.87
494.81	301.24
495.17	303.64
495.54	306.25
495.90	308.91
496.26	311.70
496.63	314.70
496.99	317.81
497.35	321.08
497.72	324.47
498.08	327.96
498.44	331.61
498.80	335.53
499.17	339.56
499.53	343.72
499.89	348.11
500.26	352.60
500.62	357.29
500.98	362.24
501.34	367.30
501.71	372.65
502.07	378.10
502.43	383.68
502.79	389.51
503.16	395.61
503.52	401.90
503.88	408.28
504.24	414.90
504.60	421.79
504.97	428.89
505.33	436.22
505.69	443.96
506.05	451.74
506.41	459.57
506.78	467.68
507.14	476.13
507.50	484.87
507.86	493.94
508.22	503.14
508.59	512.34
508.95	521.95
509.31	531.75
509.67	541.82
510.03	552.10
510.39	562.66
510.75	573.44
511.12	584.33
511.48	595.69
511.84	607.09
512.20	618.62
512.56	630.59
512.92	642.82
513.28	655.08
513.64	667.63
514.00	680.37
514.37	693.41
514.73	706.43
515.09	719.44
515.45	732.73
515.81	746.37
516.17	760.36
516.53	774.39
516.89	788.52
517.25	802.73
517.61	817.19
517.97	831.64
518.33	846.04
518.69	860.92
519.05	875.91
519.41	891.13
519.77	906.67
520.13	922.01
520.49	937.41
520.85	952.92
521.21	968.57
521.57	984.80
521.93	1000.59
522.29	1017.12
522.65	1033.41
523.01	1049.60
523.37	1065.59
523.73	1081.78
524.09	1097.90
524.45	1114.30
524.81	1130.92
525.17	1147.81
525.53	1164.75
525.89	1181.59
526.25	1198.34
526.61	1214.76
526.97	1231.49
527.33	1247.99
527.68	1264.85
528.04	1281.31
528.40	1297.94
528.76	1315.05
529.12	1331.56
529.48	1348.39
529.84	1364.41
530.20	1381.07
530.56	1398.16
530.91	1415.59
531.27	1432.44
531.63	1449.00
531.99	1465.60
532.35	1481.66
532.71	1497.49
533.07	1513.75
533.42	1529.79
533.78	1546.00
534.14	1562.32
534.50	1577.74
534.86	1593.59
535.21	1608.65
535.57	1624.77
535.93	1640.38
536.29	1655.23
536.65	1670.48
537.00	1685.41
537.36	1700.73
537.72	1715.34
538.08	1729.72
538.44	1743.52
538.79	1757.42
539.15	1771.19
539.51	1784.92
539.87	1799.23
540.22	1813.02
540.58	1826.87
540.94	1840.26
541.29	1853.18
541.65	1865.80
542.01	1879.07
542.37	1891.49
542.72	1904.02
543.08	1915.68
543.44	1928.00
543.79	1939.32
544.15	1950.39
544.51	1961.87
544.87	1972.88
545.22	1983.57
545.58	1993.82
545.94	2003.79
546.29	2013.74
546.65	2023.55
547.01	2032.77
547.36	2041.41
547.72	2049.78
548.07	2057.58
548.43	2065.78
548.79	2073.74
549.14	2081.30
549.50	2088.78
549.86	2096.56
550.21	2103.86
550.57	2111.05
550.92	2117.55
551.28	2124.63
551.64	2131.59
551.99	2138.12
552.35	2144.23
552.70	2150.58
553.06	2156.55
553.41	2162.84
553.77	2168.73
554.13	2174.89
554.48	2181.00
554.84	2186.49
555.19	2191.95
555.55	2197.23
555.90	2201.63
556.26	2206.34
556.61	2211.16
556.97	2215.14
557.32	2219.08
557.68	2223.28
558.03	2227.62
558.39	2231.37
558.74	2235.97
559.10	2239.92
559.45	2243.67
559.81	2248.00
560.16	2251.76
560.52	2255.14
560.87	2258.53
561.23	2261.14
561.58	2264.05
561.94	2266.71
562.29	2269.15
562.64	2271.87
563.00	2274.42
563.35	2277.98
563.71	2281.29
564.06	2284.47
564.42	2287.48
564.77	2290.07
565.12	2292.27
565.48	2294.09
565.83	2296.02
566.19	2297.19
566.54	2298.10
566.89	2299.19
567.25	2299.77
567.60	2301.10
567.96	2302.66
568.31	2303.47
568.66	2304.64
569.02	2305.10
569.37	2305.35
569.72	2306.28
570.08	2306.37
570.43	2306.37
570.78	2305.75
571.14	2304.08
571.49	2302.66
571.84	2302.33
572.20	2301.26
572.55	2300.17
572.90	2298.61
573.26	2297.19
573.61	2295.34
573.96	2293.51
574.31	2290.39
574.67	2287.31
575.02	2283.62
575.37	2280.16
575.72	2276.31
576.08	2272.92
576.43	2269.53
576.78	2265.81
577.13	2262.59
577.49	2259.40
577.84	2255.76
578.19	2252.05
578.54	2248.41
578.90	2244.10
579.25	2238.44
579.60	2233.34
579.95	2228.15
580.30	2223.09
580.66	2217.97
581.01	2213.18
581.36	2208.22
581.71	2204.12
582.06	2199.63
582.42	2194.89
582.77	2189.56
583.12	2184.93
583.47	2180.14
583.82	2175.08
584.17	2169.80
584.53	2164.13
584.88	2158.47
585.23	2152.74
585.58	2147.23
585.93	2141.76
586.28	2137.02
586.63	2131.90
586.98	2126.75
587.34	2122.19
587.69	2117.30
588.04	2111.80
588.39	2106.11
588.74	2099.56
589.09	2093.32
589.44	2086.48
589.79	2080.60
590.14	2075.11
590.49	2068.51
590.84	2062.20
591.19	2056.19
591.54	2049.84
591.89	2042.45
592.25	2035.65
592.60	2028.44
592.95	2020.54
593.30	2013.19
593.65	2005.52
594.00	1998.54
594.35	1991.23
594.70	1983.20
595.05	1975.83
595.40	1968.52
595.75	1960.81
596.10	1954.51
596.45	1947.73
596.80	1941.63
597.15	1934.89
597.50	1927.65
597.85	1921.23
598.19	1914.49
598.54	1907.37
598.89	1900.56
599.24	1894.70
599.59	1887.83
599.94	1881.63
600.29	1875.41
600.64	1868.80
600.99	1861.32
601.34	1854.46
601.69	1847.52
602.04	1840.47
602.39	1833.08
602.74	1826.21
603.08	1819.58
603.43	1812.86
603.78	1805.56
604.13	1798.18
604.48	1790.92
604.83	1784.10
605.18	1777.04
605.53	1768.97
605.87	1760.95
606.22	1753.67
606.57	1745.61
606.92	1738.32
607.27	1730.92
607.62	1724.01
607.96	1716.52
608.31	1709.89
608.66	1702.16
609.01	1694.55
609.36	1686.97
609.70	1678.94
610.05	1670.82
610.40	1663.05
610.75	1654.78
611.10	1647.10
611.44	1638.76
611.79	1630.84
612.14	1622.02
612.49	1612.87
612.83	1604.49
613.18	1596.28
613.53	1588.17
613.88	1579.58
614.22	1571.31
614.57	1562.77
614.92	1554.70
615.27	1547.29
615.61	1539.00
615.96	1531.01
616.31	1523.41
616.65	1516.10
617.00	1508.60
617.35	1501.02
617.70	1492.72
618.04	1484.15
618.39	1475.94
618.74	1468.43
619.08	1459.98
619.43	1452.47
619.78	1445.55
620.12	1438.38
620.47	1430.92
620.82	1422.72
621.16	1415.50
621.51	1407.89
621.85	1400.28
622.20	1391.72
622.55	1383.30
622.89	1375.39
623.24	1367.78
623.59	1360.37
623.93	1352.85
624.28	1345.59
624.62	1338.06
624.97	1330.82
625.32	1324.12
625.66	1316.99
626.01	1309.70
626.35	1302.27
626.70	1294.64
627.04	1286.77
627.39	1279.01
627.73	1271.54
628.08	1264.69
628.43	1257.19
628.77	1249.83
629.12	1242.34
629.46	1235.17
629.81	1227.83
630.15	1220.72
630.50	1213.30
630.84	1205.18
631.19	1197.17
631.53	1189.65
631.88	1182.03
632.22	1174.41
632.57	1167.06
632.91	1159.58
633.26	1152.07
633.60	1144.80
633.95	1137.63
634.29	1130.71
634.64	1124.00
634.98	1116.65
635.32	1109.37
635.67	1102.92
636.01	1096.22
636.36	1089.40
636.70	1082.87
637.05	1076.20
637.39	1069.66
637.73	1063.06
638.08	1057.15
638.42	1051.13
638.77	1044.80
639.11	1038.24
639.45	1031.94
639.80	1025.26
640.14	1018.81
640.49	1012.31
640.83	1005.94
641.17	999.69
641.52	993.34
641.86	986.92
642.20	981.05
642.55	974.83
642.89	968.29
643.23	961.82
643.58	956.05
643.92	949.95
644.26	943.92
644.61	937.87
644.95	931.89
645.29	925.14
645.64	918.44
645.98	912.02
646.32	906.22
646.66	900.09
647.01	894.26
647.35	888.60
647.69	882.85
648.04	877.34
648.38	871.56
648.72	865.56
649.06	859.49
649.41	853.67
649.75	847.68
650.09	841.84
650.43	836.07
650.78	829.88
651.12	823.85
651.46	818.21
651.80	812.53
652.14	807.23
652.49	801.97
652.83	796.76
653.17	791.04
653.51	785.27
653.85	779.91
654.20	774.31
654.54	768.30
654.88	762.54
655.22	756.64
655.56	750.93
655.90	745.46
656.25	740.28
656.59	734.93
656.93	729.88
657.27	724.63
657.61	719.16
657.95	714.13
658.29	709.11
658.64	703.84
658.98	698.48
659.32	693.02
659.66	687.87
660.00	682.54
660.34	677.63
660.68	672.82
661.02	667.82
661.36	663.10
661.70	658.60
662.05	654.26
662.39	649.88
662.73	645.42
663.07	641.07
663.41	636.51
663.75	632.02
664.09	627.47
664.43	623.05
664.77	618.90
665.11	614.64
665.45	610.45
665.79	606.29
666.13	602.18
666.47	598.03
666.81	593.77
667.15	589.74
667.49	585.90
667.83	582.04
668.17	578.13
668.51	574.04
668.85	570.08
669.19	566.17
669.53	562.41
669.87	558.49
670.21	554.81
670.55	551.29
670.89	547.86
671.23	544.45
671.57	540.98
671.91	537.51
672.25	534.00
672.58	530.58
672.92	527.26
673.26	524.15
673.60	521.03
673.94	518.01
674.28	515.14
674.62	512.16
674.96	509.04
675.30	506.09
675.64	503.20
675.97	500.40
676.31	497.53
676.65	494.58
676.99	491.91
677.33	489.01
677.67	486.13
678.01	483.06
678.34	480.07
678.68	477.19
679.02	474.34
679.36	471.57
679.70	468.78
680.04	465.97
680.37	463.06
680.71	460.26
681.05	457.57
681.39	454.85
681.73	452.18
682.06	449.66
682.40	447.13
682.74	444.61
683.08	442.04
683.42	439.48
683.75	437.01
684.09	434.48
684.43	432.07
684.77	429.57
685.10	427.23
685.44	424.93
685.78	422.65
686.12	420.41
686.45	418.15
686.79	415.86
687.13	413.72
687.46	411.60
687.80	409.47
688.14	407.30
688.48	405.21
688.81	402.95
689.15	400.77
689.49	398.68
689.82	396.64
690.16	394.57
690.50	392.61
690.83	390.62
691.17	388.66
691.51	386.73
691.84	384.92
692.18	382.99
692.52	380.97
692.85	379.07
693.19	377.16
693.52	375.31
693.86	373.55
694.20	371.74
694.53	369.89
694.87	368.05
695.21	366.28
695.54	364.44
695.88	362.74
696.21	361.06
696.55	359.39
696.88	357.65
697.22	356.03
697.56	354.41
697.89	352.76
698.23	351.09
698.56	349.46
698.90	347.83
699.23	346.20
699.57	344.69
699.90	343.13
700.24	341.64
700.58	340.11
700.91	338.58
701.25	337.08
701.58	335.72
701.92	334.32
702.25	332.96
702.59	331.62
702.92	330.33
703.26	328.96
703.59	327.65
703.93	326.45
704.26	325.19
704.60	323.88
704.93	322.57
705.26	321.38
705.60	320.25
705.93	319.13
706.27	318.08
706.60	317.04
706.94	316.00
707.27	314.85
707.61	313.81
707.94	312.80
708.27	311.72
708.61	310.65
708.94	309.67
709.28	308.66
709.61	307.69
709.94	306.73
710.28	305.76
710.61	304.79
710.95	303.78
711.28	302.85
711.61	301.88
711.95	301.00
712.28	300.00
712.61	298.96
712.95	298.04
713.28	297.20
713.61	296.28
713.95	295.37
714.28	294.55
714.61	293.70
714.95	292.85
715.28	292.03
715.61	291.20
715.95	290.35
716.28	289.51
716.61	288.70
716.95	287.85
717.28	287.12
717.61	286.34
717.94	285.61
718.28	284.84
718.61	284.17
718.94	283.50
719.27	282.87
719.61	282.27
719.94	281.62
720.27	280.92
720.60	280.28
720.94	279.65
721.27	279.06
721.60	278.45
721.93	277.85
722.27	277.30
722.60	276.71
722.93	276.15
723.26	275.61
723.59	275.04
723.93	274.51
724.26	273.95
724.59	273.43
724.92	272.87
725.25	272.37
725.59	271.83
725.92	271.27
726.25	270.77
726.58	270.28
726.91	269.75
727.24	269.29
727.57	268.82
727.91	268.31
728.24	267.87
728.57	267.41
728.90	266.97
729.23	266.47
729.56	266.03
729.89	265.59
730.22	265.13
730.55	264.65
730.89	264.20
731.22	263.75
731.55	263.29
731.88	262.85
732.21	262.38
732.54	261.92
732.87	261.54
733.20	261.13
733.53	260.72
733.86	260.37
734.19	259.94
734.52	259.54
734.85	259.20
735.18	258.74
735.51	258.37
735.84	257.97
736.17	257.63
736.50	257.25
736.83	256.99
737.16	256.63
737.49	256.30
737.82	255.95
738.15	255.62
738.48	255.26
738.81	254.96
739.14	254.65
739.47	254.34
739.80	254.05
740.13	253.72
740.46	253.40
740.79	253.05
741.12	252.74
741.45	252.42
741.78	252.10
742.11	251.84
742.44	251.53
742.77	251.23
743.10	250.94
743.43	250.63
743.75	250.21
744.08	250.08
744.41	249.78
744.74	249.50
745.07	249.24
745.40	249.02
745.73	248.82
746.06	248.53
746.39	248.27
746.71	248.01
747.04	247.72
747.37	247.47
747.70	247.24
748.03	246.99
748.36	246.77
748.68	246.51
749.01	246.26
749.34	246.01
749.67	245.80
750.00	245.57
750.33	245.43
750.65	245.24
750.98	244.90
751.31	244.67
751.64	244.46
751.97	244.31
752.29	244.08
752.62	243.76
752.95	243.58
753.28	243.40
753.60	243.18
753.93	243.06
754.26	242.87
754.59	242.64
754.91	242.46
755.24	242.28
755.57	242.11
755.90	241.92
756.22	241.76
756.55	241.58
756.88	241.36
757.20	241.11
757.53	240.94
757.86	240.76
758.19	240.65
758.51	240.51
758.84	240.29
759.17	240.14
759.49	240.02
759.82	239.89
760.15	239.72
760.47	239.55
760.80	239.38
761.13	239.25
761.45	239.08
761.78	238.94
762.11	238.79
762.43	238.66
762.76	238.50
763.08	238.38
763.41	238.25
763.74	238.16
764.06	238.05
764.39	237.93
764.71	237.79
765.04	237.62
765.37	237.49
765.69	237.37
766.02	237.20
766.34	237.07
766.67	236.91
767.00	236.81
767.32	236.73
767.65	236.68
767.97	236.54
768.30	236.45
768.62	236.31
768.95	236.17
769.27	236.06
769.60	235.98
769.92	235.82
770.25	235.68
770.57	235.55
770.90	235.44
771.22	235.29
771.55	235.22
771.87	235.13
772.20	235.04
772.52	235.02
772.85	235.08
773.17	235.00
773.50	234.91
773.82	234.81
774.15	234.69
774.47	234.54
774.80	234.44
775.12	234.33
775.45	234.28
775.77	234.21
776.09	234.11
776.42	234.03
776.74	233.98
777.07	233.90
777.39	233.80
777.72	233.70
778.04	233.67
778.36	233.56
778.69	233.47
779.01	233.41
779.33	233.20
779.66	233.05
779.98	232.95
780.31	232.88
780.63	232.82
780.95	232.77
781.28	232.71
781.60	232.65
781.92	232.61
782.25	232.54
782.57	232.47
782.89	232.40
783.22	232.35
783.54	232.29
783.86	232.25
784.19	232.20
784.51	232.16
784.83	232.10
785.16	232.05
785.48	232.00
785.80	231.91
786.12	231.88
786.45	231.84
786.77	231.81
787.09	231.76
