SpectraSuite Data File
++++++++++++++++++++++++++++++++++++
Date: Fri Feb 01 17:12:53 EST 2013
User: group
Dark Spectrum Present: No
Reference Spectrum Present: No
Number of Sampled Component Spectra: 1
Spectrometers: USB2E7196
Integration Time (usec): 35000 (USB2E7196)
Spectra Averaged: 100 (USB2E7196)
Boxcar Smoothing: 10 (USB2E7196)
Correct for Electrical Dark: No (USB2E7196)
Strobe/Lamp Enabled: No (USB2E7196)
Correct for Detector Non-linearity: No (USB2E7196)
Correct for Stray Light: No (USB2E7196)
Number of Pixels in Processed Spectrum: 2048
>>>>>Begin Processed Spectral Data<<<<<
339.09	0.00
339.48	212.96
339.86	214.69
340.24	215.50
340.63	217.41
341.01	220.37
341.39	220.04
341.78	221.30
342.16	222.31
342.54	223.06
342.93	211.50
343.31	222.18
343.69	222.72
344.07	223.18
344.46	223.60
344.84	223.98
345.22	224.20
345.60	224.45
345.99	224.64
346.37	224.77
346.75	224.89
347.13	224.90
347.52	224.95
347.90	225.05
348.28	225.08
348.66	225.15
349.05	225.12
349.43	225.14
349.81	225.21
350.19	225.27
350.57	225.33
350.96	225.39
351.34	225.51
351.72	225.59
352.10	225.72
352.48	225.82
352.87	225.87
353.25	225.95
353.63	226.06
354.01	226.12
354.39	226.22
354.77	226.29
355.15	226.43
355.54	226.47
355.92	226.49
356.30	226.54
356.68	226.65
357.06	226.75
357.44	226.81
357.82	226.89
358.20	226.98
358.58	227.08
358.97	227.17
359.35	227.23
359.73	227.33
360.11	227.38
360.49	227.44
360.87	227.50
361.25	227.57
361.63	227.60
362.01	227.68
362.39	227.72
362.77	227.79
363.15	227.81
363.53	227.85
363.91	227.89
364.29	227.97
364.67	227.94
365.05	227.98
365.43	228.02
365.81	228.03
366.19	228.06
366.57	228.07
366.95	228.08
367.33	228.09
367.71	228.07
368.09	228.08
368.47	228.08
368.85	228.08
369.23	228.09
369.61	228.06
369.99	228.07
370.37	228.06
370.75	228.06
371.13	228.04
371.51	227.99
371.89	227.95
372.27	227.92
372.65	227.84
373.03	227.78
373.41	227.72
373.78	227.67
374.16	227.58
374.54	227.51
374.92	227.44
375.30	227.37
375.68	227.30
376.06	227.24
376.44	227.18
376.82	227.11
377.19	227.02
377.57	226.97
377.95	226.87
378.33	226.78
378.71	226.66
379.09	226.61
379.47	226.59
379.84	226.53
380.22	226.45
380.60	226.40
380.98	226.32
381.36	226.23
381.73	226.17
382.11	226.13
382.49	226.05
382.87	225.99
383.25	225.93
383.62	225.95
384.00	225.92
384.38	225.84
384.76	225.76
385.13	225.74
385.51	225.66
385.89	225.57
386.27	225.52
386.64	225.48
387.02	225.41
387.40	225.36
387.78	225.31
388.15	225.26
388.53	225.20
388.91	225.20
389.29	225.17
389.66	225.10
390.04	225.04
390.42	225.04
390.79	224.97
391.17	224.95
391.55	224.85
391.92	224.78
392.30	224.76
392.68	224.76
393.05	224.73
393.43	224.73
393.81	224.75
394.18	224.74
394.56	224.72
394.94	224.72
395.31	224.68
395.69	224.75
396.06	224.81
396.44	224.83
396.82	224.82
397.19	224.91
397.57	224.95
397.95	225.01
398.32	225.01
398.70	225.08
399.07	225.15
399.45	225.20
399.82	225.24
400.20	225.32
400.58	225.40
400.95	225.45
401.33	225.53
401.70	225.67
402.08	225.74
402.45	225.86
402.83	225.97
403.20	226.08
403.58	226.14
403.95	226.22
404.33	226.36
404.71	226.51
405.08	226.71
405.46	226.86
405.83	226.99
406.21	227.13
406.58	227.33
406.96	227.48
407.33	227.64
407.70	227.87
408.08	228.17
408.45	228.37
408.83	228.63
409.20	228.85
409.58	229.01
409.95	229.29
410.33	229.55
410.70	229.81
411.08	230.09
411.45	230.42
411.82	230.76
412.20	231.12
412.57	231.51
412.95	231.80
413.32	232.20
413.69	232.62
414.07	233.08
414.44	233.53
414.82	234.05
415.19	234.63
415.56	235.18
415.94	235.72
416.31	236.41
416.68	236.99
417.06	237.77
417.43	238.44
417.81	239.22
418.18	240.01
418.55	240.89
418.93	241.82
419.30	242.74
419.67	243.68
420.04	244.66
420.42	245.67
420.79	246.90
421.16	248.08
421.54	249.27
421.91	250.50
422.28	251.77
422.66	253.06
423.03	254.36
423.40	255.72
423.77	257.12
424.15	258.52
424.52	260.04
424.89	261.61
425.26	263.21
425.64	264.70
426.01	266.36
426.38	268.03
426.75	269.71
427.13	271.48
427.50	273.33
427.87	275.22
428.24	277.09
428.61	278.81
428.99	280.79
429.36	282.89
429.73	284.95
430.10	287.00
430.47	289.06
430.85	291.20
431.22	293.42
431.59	295.84
431.96	298.12
432.33	300.65
432.70	303.04
433.08	305.85
433.45	308.51
433.82	311.13
434.19	314.05
434.56	316.86
434.93	319.49
435.30	322.12
435.68	325.08
436.05	327.95
436.42	330.77
436.79	333.33
437.16	336.12
437.53	339.04
437.90	341.91
438.27	344.71
438.64	347.62
439.01	350.31
439.38	352.55
439.75	354.76
440.13	357.30
440.50	359.67
440.87	361.57
441.24	363.51
441.61	365.68
441.98	367.18
442.35	369.00
442.72	370.88
443.09	372.71
443.46	373.72
443.83	374.35
444.20	374.87
444.57	375.71
444.94	376.00
445.31	376.35
445.68	376.72
446.05	376.83
446.42	376.44
446.79	376.02
447.16	375.58
447.53	375.25
447.90	374.08
448.27	372.94
448.64	371.35
449.01	370.23
449.37	368.25
449.74	366.34
450.11	364.11
450.48	361.62
450.85	359.09
451.22	356.88
451.59	354.82
451.96	352.85
452.33	350.22
452.70	347.84
453.07	344.95
453.43	342.01
453.80	339.18
454.17	336.44
454.54	333.82
454.91	331.13
455.28	328.42
455.65	325.92
456.02	323.45
456.38	321.26
456.75	318.59
457.12	316.31
457.49	314.06
457.86	311.83
458.23	309.96
458.59	307.90
458.96	305.81
459.33	303.94
459.70	302.03
460.07	300.55
460.43	298.78
460.80	297.14
461.17	295.69
461.54	294.17
461.91	292.76
462.27	291.30
462.64	290.00
463.01	288.60
463.38	287.29
463.74	285.89
464.11	284.71
464.48	283.66
464.85	282.53
465.21	281.65
465.58	280.74
465.95	279.62
466.32	278.68
466.68	277.74
467.05	276.83
467.42	275.93
467.78	274.97
468.15	274.12
468.52	273.47
468.88	272.58
469.25	271.81
469.62	271.20
469.98	270.51
470.35	269.89
470.72	269.32
471.08	268.62
471.45	268.06
471.82	267.55
472.18	266.91
472.55	266.47
472.92	265.93
473.28	265.47
473.65	265.05
474.02	264.59
474.38	264.22
474.75	263.90
475.11	263.60
475.48	263.33
475.85	263.05
476.21	262.81
476.58	262.64
476.94	262.52
477.31	262.34
477.67	262.21
478.04	262.06
478.41	261.97
478.77	262.05
479.14	262.01
479.50	262.02
479.87	262.16
480.23	262.22
480.60	262.30
480.96	262.38
481.33	262.56
481.69	262.78
482.06	263.00
482.42	263.19
482.79	263.42
483.15	263.74
483.52	264.15
483.88	264.48
484.25	264.86
484.61	265.26
484.98	265.67
485.34	266.22
485.71	266.80
486.07	267.39
486.44	267.91
486.80	268.59
487.17	269.29
487.53	270.03
487.90	270.88
488.26	271.85
488.62	272.88
488.99	273.83
489.35	274.85
489.72	275.94
490.08	277.14
490.44	278.36
490.81	279.65
491.17	281.01
491.54	282.50
491.90	284.01
492.26	285.66
492.63	287.43
492.99	289.22
493.36	291.12
493.72	293.21
494.08	295.37
494.45	297.62
494.81	299.97
495.17	302.44
495.54	305.04
495.90	307.71
496.26	310.47
496.63	313.44
496.99	316.55
497.35	319.82
497.72	323.20
498.08	326.68
498.44	330.38
498.80	334.28
499.17	338.33
499.53	342.52
499.89	346.84
500.26	351.28
500.62	355.93
500.98	360.89
501.34	365.92
501.71	371.24
502.07	376.63
502.43	382.26
502.79	388.05
503.16	394.05
503.52	400.28
503.88	406.62
504.24	413.21
504.60	420.07
504.97	427.17
505.33	434.50
505.69	442.24
506.05	450.00
506.41	457.83
506.78	465.91
507.14	474.26
507.50	482.91
507.86	491.85
508.22	500.98
508.59	510.03
508.95	519.44
509.31	529.15
509.67	539.16
510.03	549.27
510.39	559.66
510.75	570.32
511.12	581.14
511.48	592.31
511.84	603.64
512.20	615.01
512.56	626.80
512.92	638.69
513.28	650.92
513.64	663.14
514.00	675.58
514.37	688.36
514.73	701.22
515.09	714.13
515.45	727.28
515.81	740.66
516.17	754.53
516.53	768.57
516.89	782.53
517.25	796.49
517.61	810.70
517.97	824.96
518.33	839.09
518.69	853.60
519.05	868.26
519.41	883.24
519.77	898.39
520.13	913.51
520.49	928.79
520.85	943.74
521.21	959.14
521.57	975.13
521.93	990.64
522.29	1006.71
522.65	1022.63
523.01	1038.48
523.37	1054.27
523.73	1070.04
524.09	1085.67
524.45	1101.65
524.81	1118.08
525.17	1134.58
525.53	1151.13
525.89	1167.80
526.25	1184.40
526.61	1200.54
526.97	1216.96
527.33	1233.31
527.68	1249.72
528.04	1265.81
528.40	1282.09
528.76	1298.88
529.12	1315.19
529.48	1331.77
529.84	1347.45
530.20	1363.78
530.56	1380.45
530.91	1397.46
531.27	1414.01
531.63	1430.21
531.99	1446.49
532.35	1462.11
532.71	1477.65
533.07	1493.67
533.42	1509.33
533.78	1524.99
534.14	1540.98
534.50	1556.06
534.86	1571.58
535.21	1586.44
535.57	1602.12
535.93	1617.29
536.29	1631.70
536.65	1646.38
537.00	1660.79
537.36	1675.89
537.72	1690.24
538.08	1704.39
538.44	1717.86
538.79	1731.43
539.15	1744.76
539.51	1758.18
539.87	1772.24
540.22	1785.65
540.58	1798.89
540.94	1811.76
541.29	1824.18
541.65	1836.52
542.01	1849.35
542.37	1861.42
542.72	1873.66
543.08	1885.21
543.44	1897.40
543.79	1908.64
544.15	1919.54
544.51	1931.01
544.87	1941.74
545.22	1952.37
545.58	1962.63
545.94	1972.36
546.29	1982.20
546.65	1992.23
547.01	2001.64
547.36	2010.41
547.72	2019.11
548.07	2027.37
548.43	2035.54
548.79	2043.65
549.14	2051.57
549.50	2058.84
549.86	2066.49
550.21	2073.91
550.57	2081.28
550.92	2088.10
551.28	2095.34
551.64	2102.56
551.99	2109.19
552.35	2115.59
552.70	2121.92
553.06	2127.90
553.41	2134.53
553.77	2140.75
554.13	2146.74
554.48	2152.96
554.84	2158.72
555.19	2164.02
555.55	2169.44
555.90	2174.33
556.26	2179.55
556.61	2184.33
556.97	2189.14
557.32	2193.65
557.68	2197.84
558.03	2202.16
558.39	2205.93
558.74	2210.49
559.10	2214.50
559.45	2218.41
559.81	2222.87
560.16	2226.75
560.52	2230.36
560.87	2233.83
561.23	2236.56
561.58	2239.63
561.94	2242.32
562.29	2244.69
562.64	2247.76
563.00	2250.29
563.35	2253.92
563.71	2257.28
564.06	2260.48
564.42	2263.58
564.77	2266.38
565.12	2269.23
565.48	2271.55
565.83	2273.78
566.19	2275.60
566.54	2276.61
566.89	2278.04
567.25	2278.98
567.60	2280.68
567.96	2282.59
568.31	2283.69
568.66	2285.22
569.02	2286.36
569.37	2286.97
569.72	2288.13
570.08	2288.50
570.43	2288.84
570.78	2288.51
571.14	2287.19
571.49	2286.18
571.84	2286.05
572.20	2285.19
572.55	2284.26
572.90	2282.73
573.26	2281.70
573.61	2279.98
573.96	2278.71
574.31	2275.98
574.67	2273.24
575.02	2269.79
575.37	2266.61
575.72	2263.24
576.08	2259.98
576.43	2256.69
576.78	2253.41
577.13	2250.24
577.49	2247.28
577.84	2244.12
578.19	2240.55
578.54	2237.34
578.90	2233.57
579.25	2228.23
579.60	2223.69
579.95	2219.03
580.30	2214.31
580.66	2209.44
581.01	2204.85
581.36	2200.06
581.71	2196.17
582.06	2192.05
582.42	2187.92
582.77	2182.96
583.12	2178.50
583.47	2174.29
583.82	2169.62
584.17	2164.65
584.53	2159.58
584.88	2154.22
585.23	2148.81
585.58	2143.56
585.93	2138.16
586.28	2133.36
586.63	2128.60
586.98	2123.40
587.34	2118.74
587.69	2114.01
588.04	2108.87
588.39	2103.40
588.74	2097.10
589.09	2091.15
589.44	2084.52
589.79	2078.41
590.14	2072.88
590.49	2066.54
590.84	2060.10
591.19	2054.27
591.54	2047.80
591.89	2040.86
592.25	2034.28
592.60	2027.20
592.95	2019.89
593.30	2012.78
593.65	2005.39
594.00	1998.37
594.35	1991.38
594.70	1983.32
595.05	1976.47
595.40	1969.32
595.75	1961.83
596.10	1956.01
596.45	1949.39
596.80	1943.36
597.15	1937.06
597.50	1930.35
597.85	1924.01
598.19	1917.64
598.54	1910.87
598.89	1904.41
599.24	1898.40
599.59	1892.05
599.94	1885.80
600.29	1879.51
600.64	1872.86
600.99	1865.53
601.34	1858.73
601.69	1851.70
602.04	1845.07
602.39	1837.62
602.74	1830.92
603.08	1824.48
603.43	1817.54
603.78	1810.29
604.13	1803.07
604.48	1795.87
604.83	1788.94
605.18	1782.07
605.53	1773.98
605.87	1765.77
606.22	1758.38
606.57	1750.31
606.92	1742.70
607.27	1735.60
607.62	1728.78
607.96	1721.71
608.31	1715.25
608.66	1707.84
609.01	1700.41
609.36	1692.87
609.70	1684.99
610.05	1676.96
610.40	1669.25
610.75	1661.10
611.10	1653.45
611.44	1645.01
611.79	1636.88
612.14	1628.20
612.49	1618.97
612.83	1610.69
613.18	1602.67
613.53	1594.64
613.88	1586.22
614.22	1577.94
614.57	1569.25
614.92	1561.26
615.27	1553.86
615.61	1545.64
615.96	1537.48
616.31	1529.77
616.65	1522.42
617.00	1514.79
617.35	1507.00
617.70	1498.70
618.04	1490.33
618.39	1481.95
618.74	1474.33
619.08	1466.05
619.43	1458.44
619.78	1451.53
620.12	1444.32
620.47	1436.71
620.82	1428.47
621.16	1420.99
621.51	1413.25
621.85	1405.49
622.20	1396.88
622.55	1388.30
622.89	1380.29
623.24	1372.62
623.59	1365.13
623.93	1357.51
624.28	1350.19
624.62	1342.80
624.97	1335.55
625.32	1328.50
625.66	1321.34
626.01	1314.03
626.35	1306.71
626.70	1298.91
627.04	1291.10
627.39	1283.26
627.73	1275.75
628.08	1268.80
628.43	1261.62
628.77	1254.36
629.12	1246.87
629.46	1239.70
629.81	1232.14
630.15	1224.81
630.50	1217.40
630.84	1209.28
631.19	1201.21
631.53	1193.70
631.88	1185.94
632.22	1178.17
632.57	1170.80
632.91	1163.38
633.26	1156.13
633.60	1148.54
633.95	1141.19
634.29	1134.05
634.64	1127.21
634.98	1119.83
635.32	1112.70
635.67	1105.86
636.01	1099.13
636.36	1092.33
636.70	1085.78
637.05	1079.19
637.39	1072.77
637.73	1066.24
638.08	1060.24
638.42	1054.23
638.77	1047.80
639.11	1041.29
639.45	1034.96
639.80	1028.33
640.14	1021.82
640.49	1015.19
640.83	1008.97
641.17	1002.90
641.52	996.69
641.86	990.18
642.20	984.29
642.55	977.77
642.89	971.41
643.23	964.77
643.58	959.04
643.92	952.85
644.26	946.94
644.61	940.73
644.95	934.63
645.29	928.20
645.64	921.47
645.98	915.01
646.32	908.92
646.66	902.82
647.01	896.95
647.35	891.27
647.69	885.45
648.04	879.79
648.38	873.96
648.72	867.94
649.06	861.94
649.41	856.06
649.75	850.18
650.09	844.17
650.43	838.46
650.78	832.27
651.12	826.27
651.46	820.39
651.80	814.86
652.14	809.45
652.49	804.01
652.83	798.84
653.17	793.24
653.51	787.75
653.85	782.33
654.20	776.83
654.54	770.77
654.88	764.94
655.22	758.98
655.56	753.18
655.90	747.64
656.25	742.43
656.59	737.09
656.93	732.04
657.27	726.88
657.61	721.44
657.95	716.32
658.29	711.17
658.64	705.89
658.98	700.39
659.32	694.91
659.66	689.71
660.00	684.42
660.34	679.50
660.68	674.46
661.02	669.42
661.36	664.66
661.70	660.24
662.05	655.92
662.39	651.72
662.73	647.24
663.07	642.85
663.41	638.41
663.75	633.94
664.09	629.38
664.43	624.98
664.77	620.86
665.11	616.54
665.45	612.44
665.79	608.40
666.13	604.37
666.47	600.29
666.81	596.13
667.15	592.05
667.49	588.05
667.83	584.22
668.17	580.24
668.51	576.11
668.85	572.05
669.19	568.12
669.53	564.29
669.87	560.50
670.21	556.81
670.55	553.09
670.89	549.64
671.23	546.18
671.57	542.61
671.91	539.09
672.25	535.53
672.58	531.94
672.92	528.45
673.26	525.19
673.60	522.01
673.94	518.97
674.28	515.98
674.62	513.03
674.96	509.92
675.30	507.02
675.64	504.13
675.97	501.30
676.31	498.42
676.65	495.45
676.99	492.69
677.33	489.78
677.67	486.96
678.01	483.90
678.34	480.96
678.68	478.09
679.02	475.24
679.36	472.48
679.70	469.72
680.04	467.01
680.37	464.14
680.71	461.30
681.05	458.55
681.39	455.81
681.73	453.13
682.06	450.57
682.40	448.06
682.74	445.48
683.08	442.92
683.42	440.30
683.75	437.77
684.09	435.19
684.43	432.71
684.77	430.23
685.10	427.85
685.44	425.45
685.78	423.15
686.12	420.82
686.45	418.52
686.79	416.20
687.13	413.95
687.46	411.82
687.80	409.62
688.14	407.43
688.48	405.34
688.81	403.10
689.15	400.94
689.49	398.72
689.82	396.63
690.16	394.52
690.50	392.54
690.83	390.56
691.17	388.50
691.51	386.56
691.84	384.70
692.18	382.79
692.52	380.85
692.85	378.91
693.19	377.07
693.52	375.23
693.86	373.47
694.20	371.68
694.53	369.86
694.87	368.02
695.21	366.20
695.54	364.36
695.88	362.62
696.21	360.89
696.55	359.22
696.88	357.55
697.22	355.88
697.56	354.25
697.89	352.63
698.23	351.08
698.56	349.50
698.90	347.93
699.23	346.28
699.57	344.74
699.90	343.17
700.24	341.64
700.58	340.06
700.91	338.57
701.25	337.11
701.58	335.69
701.92	334.30
702.25	332.92
702.59	331.59
702.92	330.26
703.26	328.95
703.59	327.64
703.93	326.38
704.26	325.18
704.60	323.82
704.93	322.51
705.26	321.26
705.60	320.01
705.93	318.82
706.27	317.75
706.60	316.64
706.94	315.56
707.27	314.40
707.61	313.31
707.94	312.25
708.27	311.17
708.61	310.09
708.94	309.07
709.28	308.02
709.61	307.00
709.94	306.05
710.28	305.05
710.61	304.08
710.95	303.04
711.28	302.05
711.61	301.12
711.95	300.22
712.28	299.24
712.61	298.31
712.95	297.36
713.28	296.47
713.61	295.58
713.95	294.67
714.28	293.80
714.61	293.00
714.95	292.16
715.28	291.27
715.61	290.38
715.95	289.55
716.28	288.68
716.61	287.84
716.95	286.97
717.28	286.21
717.61	285.42
717.94	284.69
718.28	283.85
718.61	283.16
718.94	282.43
719.27	281.77
719.61	281.07
719.94	280.38
720.27	279.68
720.60	278.97
720.94	278.36
721.27	277.78
721.60	277.20
721.93	276.60
722.27	276.08
722.60	275.53
722.93	274.93
723.26	274.44
723.59	273.89
723.93	273.37
724.26	272.78
724.59	272.21
724.92	271.63
725.25	271.17
725.59	270.64
725.92	270.17
726.25	269.64
726.58	269.17
726.91	268.72
727.24	268.21
727.57	267.78
727.91	267.27
728.24	266.78
728.57	266.25
728.90	265.75
729.23	265.24
729.56	264.85
729.89	264.36
730.22	263.87
730.55	263.40
730.89	262.95
731.22	262.51
731.55	262.10
731.88	261.68
732.21	261.22
732.54	260.77
732.87	260.32
733.20	259.94
733.53	259.54
733.86	259.10
734.19	258.75
734.52	258.35
734.85	258.03
735.18	257.59
735.51	257.25
735.84	256.87
736.17	256.51
736.50	256.10
736.83	255.90
737.16	255.56
737.49	255.22
737.82	254.84
738.15	254.51
738.48	254.15
738.81	253.84
739.14	253.55
739.47	253.23
739.80	252.92
740.13	252.62
740.46	252.30
740.79	251.98
741.12	251.67
741.45	251.33
741.78	250.96
742.11	250.72
742.44	250.38
742.77	250.12
743.10	249.85
743.43	249.49
743.75	249.08
744.08	248.91
744.41	248.64
744.74	248.39
745.07	248.08
745.40	247.85
745.73	247.65
746.06	247.38
746.39	247.14
746.71	246.88
747.04	246.56
747.37	246.32
747.70	246.07
748.03	245.77
748.36	245.58
748.68	245.33
749.01	245.08
749.34	244.88
749.67	244.59
750.00	244.32
750.33	244.18
750.65	243.95
750.98	243.60
751.31	243.37
751.64	243.14
751.97	242.97
752.29	242.72
752.62	242.43
752.95	242.20
753.28	241.96
753.60	241.71
753.93	241.55
754.26	241.31
754.59	241.09
754.91	240.90
755.24	240.65
755.57	240.46
755.90	240.25
756.22	240.02
756.55	239.81
756.88	239.63
757.20	239.36
757.53	239.15
757.86	238.98
758.19	238.83
758.51	238.66
758.84	238.41
759.17	238.25
759.49	238.08
759.82	237.97
760.15	237.80
760.47	237.67
760.80	237.46
761.13	237.33
761.45	237.19
761.78	237.02
762.11	236.88
762.43	236.72
762.76	236.56
763.08	236.44
763.41	236.35
763.74	236.18
764.06	236.05
764.39	235.91
764.71	235.80
765.04	235.60
765.37	235.47
765.69	235.35
766.02	235.21
766.34	235.05
766.67	234.89
767.00	234.80
767.32	234.73
767.65	234.68
767.97	234.58
768.30	234.46
768.62	234.36
768.95	234.23
769.27	234.12
769.60	234.02
769.92	233.85
770.25	233.71
770.57	233.63
770.90	233.55
771.22	233.44
771.55	233.34
771.87	233.27
772.20	233.18
772.52	233.19
772.85	233.21
773.17	233.15
773.50	233.03
773.82	232.92
774.15	232.79
774.47	232.66
774.80	232.55
775.12	232.50
775.45	232.44
775.77	232.40
776.09	232.32
776.42	232.27
776.74	232.28
777.07	232.23
777.39	232.20
777.72	232.10
778.04	232.06
778.36	231.96
778.69	231.87
779.01	231.83
779.33	231.66
779.66	231.47
779.98	231.40
780.31	231.37
780.63	231.35
780.95	231.33
781.28	231.25
781.60	231.19
781.92	231.11
782.25	231.02
782.57	230.93
782.89	230.86
783.22	230.79
783.54	230.73
783.86	230.68
784.19	230.57
784.51	230.57
784.83	230.52
785.16	230.50
785.48	230.50
785.80	230.41
786.12	230.42
786.45	230.42
786.77	230.39
787.09	230.35
