SpectraSuite Data File
++++++++++++++++++++++++++++++++++++
Date: Fri Feb 01 15:36:00 EST 2013
User: group
Dark Spectrum Present: No
Reference Spectrum Present: No
Number of Sampled Component Spectra: 1
Spectrometers: USB2E7196
Integration Time (usec): 35000 (USB2E7196)
Spectra Averaged: 100 (USB2E7196)
Boxcar Smoothing: 10 (USB2E7196)
Correct for Electrical Dark: No (USB2E7196)
Strobe/Lamp Enabled: No (USB2E7196)
Correct for Detector Non-linearity: No (USB2E7196)
Correct for Stray Light: No (USB2E7196)
Number of Pixels in Processed Spectrum: 2048
>>>>>Begin Processed Spectral Data<<<<<
339.09	0.00
339.48	214.62
339.86	216.02
340.24	217.56
340.63	219.02
341.01	221.47
341.39	221.56
341.78	223.11
342.16	224.51
342.54	224.61
342.93	213.05
343.31	223.82
343.69	224.38
344.07	224.86
344.46	225.27
344.84	225.66
345.22	225.92
345.60	226.18
345.99	226.38
346.37	226.50
346.75	226.63
347.13	226.71
347.52	226.79
347.90	226.88
348.28	226.95
348.66	227.01
349.05	227.01
349.43	227.07
349.81	227.15
350.19	227.18
350.57	227.25
350.96	227.33
351.34	227.46
351.72	227.55
352.10	227.67
352.48	227.76
352.87	227.80
353.25	227.91
353.63	227.96
354.01	228.03
354.39	228.16
354.77	228.18
355.15	228.31
355.54	228.37
355.92	228.41
356.30	228.45
356.68	228.60
357.06	228.68
357.44	228.74
357.82	228.81
358.20	228.90
358.58	228.97
358.97	229.02
359.35	229.07
359.73	229.13
360.11	229.16
360.49	229.21
360.87	229.30
361.25	229.34
361.63	229.43
362.01	229.48
362.39	229.47
362.77	229.56
363.15	229.58
363.53	229.62
363.91	229.63
364.29	229.64
364.67	229.57
365.05	229.59
365.43	229.60
365.81	229.56
366.19	229.58
366.57	229.60
366.95	229.64
367.33	229.62
367.71	229.62
368.09	229.60
368.47	229.58
368.85	229.49
369.23	229.50
369.61	229.42
369.99	229.37
370.37	229.32
370.75	229.31
371.13	229.25
371.51	229.16
371.89	229.12
372.27	229.08
372.65	229.02
373.03	228.96
373.41	228.92
373.78	228.89
374.16	228.80
374.54	228.72
374.92	228.59
375.30	228.50
375.68	228.44
376.06	228.38
376.44	228.33
376.82	228.29
377.19	228.18
377.57	228.11
377.95	228.01
378.33	227.95
378.71	227.79
379.09	227.73
379.47	227.65
379.84	227.55
380.22	227.47
380.60	227.38
380.98	227.33
381.36	227.21
381.73	227.12
382.11	227.05
382.49	226.99
382.87	226.92
383.25	226.88
383.62	226.90
384.00	226.80
384.38	226.74
384.76	226.71
385.13	226.70
385.51	226.64
385.89	226.61
386.27	226.55
386.64	226.55
387.02	226.47
387.40	226.47
387.78	226.46
388.15	226.44
388.53	226.43
388.91	226.41
389.29	226.39
389.66	226.43
390.04	226.43
390.42	226.42
390.79	226.41
391.17	226.37
391.55	226.25
391.92	226.23
392.30	226.23
392.68	226.19
393.05	226.17
393.43	226.18
393.81	226.19
394.18	226.22
394.56	226.20
394.94	226.27
395.31	226.28
395.69	226.32
396.06	226.35
396.44	226.39
396.82	226.39
397.19	226.46
397.57	226.49
397.95	226.52
398.32	226.51
398.70	226.55
399.07	226.64
399.45	226.68
399.82	226.77
400.20	226.87
400.58	226.97
400.95	227.03
401.33	227.15
401.70	227.28
402.08	227.34
402.45	227.50
402.83	227.60
403.20	227.67
403.58	227.79
403.95	227.90
404.33	228.03
404.71	228.15
405.08	228.33
405.46	228.45
405.83	228.59
406.21	228.76
406.58	228.97
406.96	229.13
407.33	229.30
407.70	229.47
408.08	229.71
408.45	229.91
408.83	230.14
409.20	230.34
409.58	230.55
409.95	230.83
410.33	231.10
410.70	231.34
411.08	231.66
411.45	231.95
411.82	232.27
412.20	232.63
412.57	233.06
412.95	233.35
413.32	233.73
413.69	234.13
414.07	234.58
414.44	235.05
414.82	235.55
415.19	236.12
415.56	236.69
415.94	237.22
416.31	237.89
416.68	238.52
417.06	239.25
417.43	239.91
417.81	240.67
418.18	241.44
418.55	242.28
418.93	243.19
419.30	244.13
419.67	245.08
420.04	246.02
420.42	247.01
420.79	248.20
421.16	249.36
421.54	250.56
421.91	251.79
422.28	253.02
422.66	254.36
423.03	255.67
423.40	257.06
423.77	258.47
424.15	259.87
424.52	261.37
424.89	262.98
425.26	264.52
425.64	265.99
426.01	267.58
426.38	269.23
426.75	270.88
427.13	272.58
427.50	274.38
427.87	276.30
428.24	278.19
428.61	279.97
428.99	281.96
429.36	284.07
429.73	286.11
430.10	288.13
430.47	290.19
430.85	292.31
431.22	294.52
431.59	296.94
431.96	299.22
432.33	301.73
432.70	304.14
433.08	306.97
433.45	309.60
433.82	312.24
434.19	315.15
434.56	317.95
434.93	320.63
435.30	323.23
435.68	326.11
436.05	328.95
436.42	331.69
436.79	334.20
437.16	336.93
437.53	339.76
437.90	342.61
438.27	345.33
438.64	348.18
439.01	350.72
439.38	352.93
439.75	355.08
440.13	357.58
440.50	359.95
440.87	361.81
441.24	363.75
441.61	365.90
441.98	367.38
442.35	369.18
442.72	371.06
443.09	372.88
443.46	373.87
443.83	374.46
444.20	375.02
444.57	375.84
444.94	376.09
445.31	376.43
445.68	376.75
446.05	376.83
446.42	376.42
446.79	376.05
447.16	375.60
447.53	375.27
447.90	374.09
448.27	372.88
448.64	371.25
449.01	370.12
449.37	368.14
449.74	366.23
450.11	363.99
450.48	361.50
450.85	358.99
451.22	356.82
451.59	354.76
451.96	352.77
452.33	350.16
452.70	347.79
453.07	344.98
453.43	342.08
453.80	339.31
454.17	336.63
454.54	334.06
454.91	331.33
455.28	328.64
455.65	326.13
456.02	323.70
456.38	321.57
456.75	318.90
457.12	316.62
457.49	314.40
457.86	312.23
458.23	310.35
458.59	308.26
458.96	306.19
459.33	304.34
459.70	302.49
460.07	300.97
460.43	299.26
460.80	297.60
461.17	296.15
461.54	294.68
461.91	293.24
462.27	291.79
462.64	290.52
463.01	289.18
463.38	287.91
463.74	286.51
464.11	285.37
464.48	284.33
464.85	283.27
465.21	282.39
465.58	281.45
465.95	280.34
466.32	279.42
466.68	278.51
467.05	277.63
467.42	276.73
467.78	275.80
468.15	274.95
468.52	274.34
468.88	273.49
469.25	272.72
469.62	272.11
469.98	271.45
470.35	270.81
470.72	270.20
471.08	269.49
471.45	268.96
471.82	268.43
472.18	267.84
472.55	267.38
472.92	266.90
473.28	266.43
473.65	266.03
474.02	265.59
474.38	265.23
474.75	264.88
475.11	264.55
475.48	264.28
475.85	264.06
476.21	263.81
476.58	263.62
476.94	263.48
477.31	263.30
477.67	263.13
478.04	263.06
478.41	263.02
478.77	263.10
479.14	263.05
479.50	263.05
479.87	263.12
480.23	263.22
480.60	263.27
480.96	263.39
481.33	263.58
481.69	263.81
482.06	264.04
482.42	264.24
482.79	264.49
483.15	264.87
483.52	265.24
483.88	265.59
484.25	266.01
484.61	266.45
484.98	266.92
485.34	267.49
485.71	268.08
486.07	268.71
486.44	269.25
486.80	269.96
487.17	270.66
487.53	271.48
487.90	272.30
488.26	273.26
488.62	274.25
488.99	275.22
489.35	276.28
489.72	277.39
490.08	278.62
490.44	279.89
490.81	281.18
491.17	282.48
491.54	283.92
491.90	285.42
492.26	287.03
492.63	288.78
492.99	290.55
493.36	292.40
493.72	294.41
494.08	296.50
494.45	298.72
494.81	301.14
495.17	303.54
495.54	306.11
495.90	308.76
496.26	311.53
496.63	314.42
496.99	317.51
497.35	320.76
497.72	324.14
498.08	327.57
498.44	331.26
498.80	335.18
499.17	339.24
499.53	343.42
499.89	347.81
500.26	352.24
500.62	356.94
500.98	361.91
501.34	366.96
501.71	372.33
502.07	377.73
502.43	383.35
502.79	389.16
503.16	395.23
503.52	401.56
503.88	407.97
504.24	414.70
504.60	421.58
504.97	428.72
505.33	436.03
505.69	443.76
506.05	451.50
506.41	459.41
506.78	467.59
507.14	476.03
507.50	484.79
507.86	493.85
508.22	503.00
508.59	512.18
508.95	521.78
509.31	531.56
509.67	541.71
510.03	551.99
510.39	562.53
510.75	573.33
511.12	584.21
511.48	595.51
511.84	606.91
512.20	618.49
512.56	630.38
512.92	642.53
513.28	654.99
513.64	667.56
514.00	680.27
514.37	693.14
514.73	706.24
515.09	719.28
515.45	732.51
515.81	746.22
516.17	760.26
516.53	774.36
516.89	788.56
517.25	802.74
517.61	817.16
517.97	831.76
518.33	846.20
518.69	861.04
519.05	876.05
519.41	891.21
519.77	906.81
520.13	922.33
520.49	937.81
520.85	953.20
521.21	968.93
521.57	985.25
521.93	1001.04
522.29	1017.43
522.65	1033.75
523.01	1050.06
523.37	1066.05
523.73	1082.22
524.09	1098.38
524.45	1114.71
524.81	1131.37
525.17	1148.16
525.53	1164.94
525.89	1181.85
526.25	1198.62
526.61	1215.06
526.97	1231.93
527.33	1248.32
527.68	1265.00
528.04	1281.40
528.40	1298.03
528.76	1315.14
529.12	1331.68
529.48	1348.68
529.84	1364.76
530.20	1381.37
530.56	1398.44
530.91	1415.79
531.27	1432.58
531.63	1449.25
531.99	1465.96
532.35	1481.91
532.71	1497.91
533.07	1514.30
533.42	1530.21
533.78	1546.28
534.14	1562.63
534.50	1577.99
534.86	1593.84
535.21	1608.97
535.57	1625.00
535.93	1640.59
536.29	1655.36
536.65	1670.42
537.00	1685.27
537.36	1700.53
537.72	1715.15
538.08	1729.51
538.44	1743.43
538.79	1757.25
539.15	1770.86
539.51	1784.52
539.87	1798.89
540.22	1812.60
540.58	1826.40
540.94	1839.82
541.29	1852.85
541.65	1865.45
542.01	1878.74
542.37	1891.11
542.72	1903.69
543.08	1915.48
543.44	1927.87
543.79	1939.12
544.15	1950.23
544.51	1961.71
544.87	1972.69
545.22	1983.35
545.58	1993.60
545.94	2003.37
546.29	2013.42
546.65	2023.20
547.01	2032.62
547.36	2041.34
547.72	2049.79
548.07	2057.58
548.43	2065.63
548.79	2073.72
549.14	2081.31
549.50	2088.67
549.86	2096.46
550.21	2103.61
550.57	2110.80
550.92	2117.28
551.28	2124.33
551.64	2131.47
551.99	2138.00
552.35	2144.24
552.70	2150.52
553.06	2156.47
553.41	2162.89
553.77	2168.92
554.13	2175.11
554.48	2181.13
554.84	2186.57
555.19	2191.98
555.55	2196.99
555.90	2201.65
556.26	2206.42
556.61	2211.19
556.97	2215.34
557.32	2219.47
557.68	2223.70
558.03	2227.88
558.39	2231.67
558.74	2236.31
559.10	2239.99
559.45	2243.79
559.81	2248.13
560.16	2251.94
560.52	2255.33
560.87	2258.74
561.23	2261.33
561.58	2264.17
561.94	2266.71
562.29	2269.15
562.64	2271.77
563.00	2274.61
563.35	2278.11
563.71	2281.14
564.06	2284.32
564.42	2287.19
564.77	2289.67
565.12	2291.92
565.48	2293.86
565.83	2295.62
566.19	2296.98
566.54	2298.08
566.89	2299.02
567.25	2299.49
567.60	2300.74
567.96	2302.31
568.31	2303.17
568.66	2304.26
569.02	2304.79
569.37	2305.12
569.72	2305.94
570.08	2306.01
570.43	2306.00
570.78	2305.35
571.14	2303.90
571.49	2302.58
571.84	2302.18
572.20	2300.95
572.55	2300.00
572.90	2298.40
573.26	2296.94
573.61	2295.23
573.96	2293.35
574.31	2290.26
574.67	2287.13
575.02	2283.49
575.37	2280.03
575.72	2276.01
576.08	2272.64
576.43	2269.30
576.78	2265.56
577.13	2262.51
577.49	2259.48
577.84	2255.85
578.19	2251.98
578.54	2248.23
578.90	2243.78
579.25	2238.22
579.60	2233.15
579.95	2227.94
580.30	2222.99
580.66	2217.84
581.01	2212.91
581.36	2207.87
581.71	2203.76
582.06	2199.31
582.42	2194.78
582.77	2189.42
583.12	2184.80
583.47	2180.13
583.82	2175.06
584.17	2169.69
584.53	2164.07
584.88	2158.32
585.23	2152.46
585.58	2147.04
585.93	2141.70
586.28	2137.02
586.63	2132.03
586.98	2126.89
587.34	2122.27
587.69	2117.32
588.04	2112.07
588.39	2106.15
588.74	2099.70
589.09	2093.52
589.44	2086.64
589.79	2080.59
590.14	2075.11
590.49	2068.56
590.84	2062.01
591.19	2055.96
591.54	2049.33
591.89	2041.87
592.25	2035.01
592.60	2027.71
592.95	2020.15
593.30	2012.64
593.65	2004.91
594.00	1997.79
594.35	1990.65
594.70	1982.51
595.05	1975.16
595.40	1967.78
595.75	1960.37
596.10	1954.11
596.45	1947.31
596.80	1941.26
597.15	1934.58
597.50	1927.38
597.85	1920.97
598.19	1914.34
598.54	1907.16
598.89	1900.58
599.24	1894.78
599.59	1888.01
599.94	1881.88
600.29	1875.41
600.64	1868.88
600.99	1861.54
601.34	1854.55
601.69	1847.54
602.04	1840.50
602.39	1833.15
602.74	1826.31
603.08	1819.44
603.43	1812.64
603.78	1805.33
604.13	1798.11
604.48	1790.78
604.83	1783.88
605.18	1776.69
605.53	1768.61
605.87	1760.66
606.22	1753.44
606.57	1745.29
606.92	1737.95
607.27	1730.73
607.62	1723.79
607.96	1716.41
608.31	1709.51
608.66	1701.90
609.01	1694.22
609.36	1686.75
609.70	1678.83
610.05	1670.67
610.40	1662.92
610.75	1654.61
611.10	1646.95
611.44	1638.44
611.79	1630.48
612.14	1621.82
612.49	1612.86
612.83	1604.46
613.18	1596.34
613.53	1588.30
613.88	1579.80
614.22	1571.51
614.57	1563.08
614.92	1554.92
615.27	1547.32
615.61	1539.16
615.96	1531.16
616.31	1523.59
616.65	1516.18
617.00	1508.65
617.35	1501.08
617.70	1492.78
618.04	1484.31
618.39	1476.08
618.74	1468.50
619.08	1460.04
619.43	1452.47
619.78	1445.53
620.12	1438.30
620.47	1430.65
620.82	1422.50
621.16	1415.08
621.51	1407.60
621.85	1399.87
622.20	1391.38
622.55	1383.04
622.89	1375.19
623.24	1367.58
623.59	1360.27
623.93	1352.80
624.28	1345.44
624.62	1337.90
624.97	1330.70
625.32	1323.95
625.66	1316.95
626.01	1309.69
626.35	1302.31
626.70	1294.47
627.04	1286.65
627.39	1278.97
627.73	1271.70
628.08	1264.70
628.43	1257.31
628.77	1249.78
629.12	1242.18
629.46	1235.04
629.81	1227.62
630.15	1220.34
630.50	1212.89
630.84	1204.66
631.19	1196.77
631.53	1189.30
631.88	1181.74
632.22	1174.17
632.57	1166.76
632.91	1159.10
633.26	1151.72
633.60	1144.40
633.95	1137.38
634.29	1130.33
634.64	1123.56
634.98	1116.12
635.32	1108.93
635.67	1102.49
636.01	1095.84
636.36	1089.06
636.70	1082.61
637.05	1076.10
637.39	1069.71
637.73	1063.33
638.08	1057.44
638.42	1051.38
638.77	1044.94
639.11	1038.28
639.45	1031.95
639.80	1025.32
640.14	1018.97
640.49	1012.46
640.83	1006.18
641.17	999.92
641.52	993.61
641.86	987.27
642.20	981.42
642.55	975.18
642.89	968.62
643.23	962.18
643.58	956.41
643.92	950.15
644.26	943.93
644.61	937.91
644.95	931.78
645.29	925.27
645.64	918.56
645.98	912.22
646.32	906.43
646.66	900.34
647.01	894.52
647.35	888.79
647.69	882.93
648.04	877.44
648.38	871.63
648.72	865.71
649.06	859.58
649.41	853.71
649.75	847.69
650.09	841.80
650.43	836.01
650.78	829.85
651.12	823.93
651.46	818.37
651.80	812.61
652.14	807.20
652.49	801.69
652.83	796.50
653.17	790.73
653.51	784.96
653.85	779.50
654.20	773.87
654.54	767.93
654.88	762.25
655.22	756.33
655.56	750.68
655.90	745.18
656.25	740.00
656.59	734.69
656.93	729.63
657.27	724.49
657.61	718.97
657.95	713.89
658.29	708.84
658.64	703.55
658.98	698.23
659.32	692.81
659.66	687.66
660.00	682.36
660.34	677.42
660.68	672.54
661.02	667.55
661.36	662.83
661.70	658.32
662.05	653.92
662.39	649.54
662.73	645.10
663.07	640.75
663.41	636.26
663.75	631.70
664.09	627.17
664.43	622.77
664.77	618.69
665.11	614.37
665.45	610.24
665.79	606.08
666.13	601.93
666.47	597.90
666.81	593.71
667.15	589.62
667.49	585.80
667.83	581.99
668.17	578.03
668.51	573.98
668.85	569.94
669.19	566.13
669.53	562.33
669.87	558.43
670.21	554.72
670.55	551.04
670.89	547.66
671.23	544.19
671.57	540.70
671.91	537.23
672.25	533.82
672.58	530.28
672.92	526.96
673.26	523.88
673.60	520.62
673.94	517.55
674.28	514.68
674.62	511.76
674.96	508.69
675.30	505.78
675.64	502.88
675.97	500.12
676.31	497.27
676.65	494.32
676.99	491.65
677.33	488.83
677.67	486.05
678.01	482.99
678.34	479.99
678.68	477.08
679.02	474.23
679.36	471.48
679.70	468.83
680.04	466.01
680.37	463.10
680.71	460.41
681.05	457.82
681.39	455.03
681.73	452.34
682.06	449.83
682.40	447.31
682.74	444.71
683.08	442.18
683.42	439.59
683.75	437.12
684.09	434.54
684.43	432.09
684.77	429.69
685.10	427.40
685.44	425.14
685.78	422.85
686.12	420.63
686.45	418.33
686.79	415.96
687.13	413.80
687.46	411.68
687.80	409.48
688.14	407.24
688.48	405.23
688.81	402.96
689.15	400.79
689.49	398.70
689.82	396.70
690.16	394.62
690.50	392.65
690.83	390.73
691.17	388.79
691.51	386.84
691.84	384.93
692.18	382.99
692.52	381.01
692.85	379.09
693.19	377.23
693.52	375.44
693.86	373.59
694.20	371.80
694.53	369.98
694.87	368.15
695.21	366.37
695.54	364.56
695.88	362.86
696.21	361.16
696.55	359.47
696.88	357.79
697.22	356.16
697.56	354.54
697.89	352.87
698.23	351.23
698.56	349.66
698.90	348.07
699.23	346.35
699.57	344.80
699.90	343.26
700.24	341.67
700.58	340.13
700.91	338.64
701.25	337.17
701.58	335.76
701.92	334.40
702.25	333.01
702.59	331.64
702.92	330.28
703.26	328.98
703.59	327.68
703.93	326.48
704.26	325.22
704.60	323.95
704.93	322.67
705.26	321.44
705.60	320.21
705.93	319.04
706.27	318.06
706.60	317.04
706.94	315.96
707.27	314.83
707.61	313.76
707.94	312.76
708.27	311.70
708.61	310.62
708.94	309.60
709.28	308.60
709.61	307.63
709.94	306.72
710.28	305.66
710.61	304.70
710.95	303.64
711.28	302.72
711.61	301.75
711.95	300.82
712.28	299.88
712.61	298.94
712.95	298.00
713.28	297.13
713.61	296.20
713.95	295.35
714.28	294.52
714.61	293.62
714.95	292.74
715.28	291.90
715.61	291.04
715.95	290.21
716.28	289.37
716.61	288.55
716.95	287.69
717.28	287.00
717.61	286.22
717.94	285.48
718.28	284.68
718.61	283.93
718.94	283.24
719.27	282.60
719.61	281.95
719.94	281.29
720.27	280.57
720.60	279.90
720.94	279.25
721.27	278.70
721.60	278.14
721.93	277.58
722.27	277.04
722.60	276.48
722.93	275.87
723.26	275.33
723.59	274.76
723.93	274.24
724.26	273.67
724.59	273.13
724.92	272.59
725.25	272.11
725.59	271.62
725.92	271.13
726.25	270.63
726.58	270.12
726.91	269.64
727.24	269.16
727.57	268.71
727.91	268.20
728.24	267.71
728.57	267.26
728.90	266.81
729.23	266.32
729.56	265.93
729.89	265.50
730.22	265.04
730.55	264.59
730.89	264.16
731.22	263.70
731.55	263.29
731.88	262.90
732.21	262.45
732.54	261.99
732.87	261.55
733.20	261.16
733.53	260.78
733.86	260.42
734.19	260.02
734.52	259.63
734.85	259.31
735.18	258.89
735.51	258.52
735.84	258.14
736.17	257.77
736.50	257.33
736.83	257.09
737.16	256.72
737.49	256.39
737.82	256.07
738.15	255.74
738.48	255.38
738.81	255.05
739.14	254.71
739.47	254.40
739.80	254.11
740.13	253.79
740.46	253.47
740.79	253.15
741.12	252.88
741.45	252.61
741.78	252.27
742.11	251.97
742.44	251.62
742.77	251.35
743.10	251.05
743.43	250.78
743.75	250.40
744.08	250.30
744.41	250.02
744.74	249.71
745.07	249.44
745.40	249.20
745.73	248.99
746.06	248.75
746.39	248.53
746.71	248.23
747.04	247.95
747.37	247.71
747.70	247.46
748.03	247.15
748.36	246.89
748.68	246.63
749.01	246.39
749.34	246.17
749.67	245.92
750.00	245.71
750.33	245.53
750.65	245.31
750.98	244.92
751.31	244.69
751.64	244.46
751.97	244.28
752.29	244.07
752.62	243.81
752.95	243.56
753.28	243.30
753.60	243.08
753.93	242.89
754.26	242.71
754.59	242.48
754.91	242.30
755.24	242.11
755.57	241.95
755.90	241.78
756.22	241.55
756.55	241.36
756.88	241.14
757.20	240.90
757.53	240.72
757.86	240.59
758.19	240.40
758.51	240.24
758.84	240.02
759.17	239.87
759.49	239.69
759.82	239.59
760.15	239.47
760.47	239.37
760.80	239.18
761.13	239.04
761.45	238.87
761.78	238.74
762.11	238.60
762.43	238.43
762.76	238.28
763.08	238.21
763.41	238.08
763.74	237.99
764.06	237.87
764.39	237.72
764.71	237.59
765.04	237.46
765.37	237.35
765.69	237.24
766.02	237.07
766.34	236.93
766.67	236.75
767.00	236.65
767.32	236.55
767.65	236.53
767.97	236.38
768.30	236.28
768.62	236.16
768.95	236.04
769.27	235.93
769.60	235.80
769.92	235.66
770.25	235.54
770.57	235.42
770.90	235.33
771.22	235.23
771.55	235.12
771.87	235.05
772.20	234.97
772.52	234.95
772.85	234.99
773.17	234.91
773.50	234.82
773.82	234.73
774.15	234.60
774.47	234.41
774.80	234.35
775.12	234.29
775.45	234.23
775.77	234.15
776.09	234.07
776.42	234.01
776.74	233.97
777.07	233.88
777.39	233.80
777.72	233.71
778.04	233.64
778.36	233.59
778.69	233.50
779.01	233.41
779.33	233.24
779.66	233.09
779.98	233.02
780.31	232.95
780.63	232.91
780.95	232.88
781.28	232.85
781.60	232.76
781.92	232.64
782.25	232.56
782.57	232.49
782.89	232.45
783.22	232.40
783.54	232.35
783.86	232.31
784.19	232.26
784.51	232.23
784.83	232.13
785.16	232.06
785.48	232.01
785.80	231.98
786.12	231.94
786.45	231.84
786.77	231.76
787.09	231.73
