SpectraSuite Data File
++++++++++++++++++++++++++++++++++++
Date: Fri Feb 01 15:53:07 EST 2013
User: group
Dark Spectrum Present: No
Reference Spectrum Present: No
Number of Sampled Component Spectra: 1
Spectrometers: USB2E7196
Integration Time (usec): 35000 (USB2E7196)
Spectra Averaged: 100 (USB2E7196)
Boxcar Smoothing: 10 (USB2E7196)
Correct for Electrical Dark: No (USB2E7196)
Strobe/Lamp Enabled: No (USB2E7196)
Correct for Detector Non-linearity: No (USB2E7196)
Correct for Stray Light: No (USB2E7196)
Number of Pixels in Processed Spectrum: 2048
>>>>>Begin Processed Spectral Data<<<<<
339.09	0.00
339.48	215.49
339.86	217.02
340.24	217.83
340.63	219.61
341.01	222.68
341.39	221.68
341.78	223.79
342.16	224.07
342.54	225.14
342.93	213.44
343.31	224.23
343.69	224.77
344.07	225.24
344.46	225.66
344.84	226.02
345.22	226.25
345.60	226.51
345.99	226.66
346.37	226.83
346.75	226.93
347.13	227.03
347.52	227.07
347.90	227.15
348.28	227.15
348.66	227.20
349.05	227.21
349.43	227.24
349.81	227.33
350.19	227.35
350.57	227.38
350.96	227.48
351.34	227.57
351.72	227.63
352.10	227.70
352.48	227.76
352.87	227.82
353.25	227.89
353.63	227.93
354.01	228.02
354.39	228.09
354.77	228.18
355.15	228.27
355.54	228.34
355.92	228.40
356.30	228.52
356.68	228.65
357.06	228.70
357.44	228.74
357.82	228.76
358.20	228.84
358.58	228.91
358.97	228.99
359.35	229.04
359.73	229.15
360.11	229.20
360.49	229.26
360.87	229.30
361.25	229.33
361.63	229.42
362.01	229.44
362.39	229.48
362.77	229.50
363.15	229.51
363.53	229.54
363.91	229.52
364.29	229.54
364.67	229.48
365.05	229.51
365.43	229.57
365.81	229.60
366.19	229.62
366.57	229.66
366.95	229.62
367.33	229.59
367.71	229.52
368.09	229.51
368.47	229.50
368.85	229.45
369.23	229.44
369.61	229.36
369.99	229.36
370.37	229.31
370.75	229.28
371.13	229.23
371.51	229.14
371.89	229.12
372.27	229.08
372.65	229.02
373.03	228.96
373.41	228.86
373.78	228.77
374.16	228.64
374.54	228.53
374.92	228.43
375.30	228.35
375.68	228.28
376.06	228.22
376.44	228.14
376.82	228.10
377.19	227.97
377.57	227.89
377.95	227.79
378.33	227.69
378.71	227.58
379.09	227.51
379.47	227.48
379.84	227.39
380.22	227.27
380.60	227.17
380.98	227.11
381.36	227.04
381.73	226.96
382.11	226.93
382.49	226.82
382.87	226.78
383.25	226.72
383.62	226.76
384.00	226.69
384.38	226.61
384.76	226.58
385.13	226.60
385.51	226.55
385.89	226.48
386.27	226.45
386.64	226.39
387.02	226.35
387.40	226.28
387.78	226.25
388.15	226.22
388.53	226.19
388.91	226.13
389.29	226.13
389.66	226.11
390.04	226.07
390.42	226.13
390.79	226.09
391.17	226.09
391.55	225.99
391.92	225.97
392.30	225.97
392.68	225.94
393.05	225.95
393.43	225.97
393.81	226.01
394.18	226.01
394.56	226.05
394.94	226.06
395.31	226.08
395.69	226.12
396.06	226.17
396.44	226.20
396.82	226.23
397.19	226.31
397.57	226.35
397.95	226.42
398.32	226.41
398.70	226.49
399.07	226.58
399.45	226.62
399.82	226.68
400.20	226.77
400.58	226.85
400.95	226.88
401.33	227.00
401.70	227.12
402.08	227.24
402.45	227.32
402.83	227.46
403.20	227.60
403.58	227.72
403.95	227.86
404.33	228.01
404.71	228.15
405.08	228.34
405.46	228.49
405.83	228.67
406.21	228.83
406.58	228.99
406.96	229.16
407.33	229.36
407.70	229.58
408.08	229.85
408.45	230.10
408.83	230.35
409.20	230.53
409.58	230.71
409.95	230.96
410.33	231.26
410.70	231.52
411.08	231.79
411.45	232.12
411.82	232.42
412.20	232.79
412.57	233.22
412.95	233.49
413.32	233.86
413.69	234.24
414.07	234.69
414.44	235.18
414.82	235.63
415.19	236.20
415.56	236.73
415.94	237.26
416.31	237.89
416.68	238.49
417.06	239.21
417.43	239.89
417.81	240.67
418.18	241.45
418.55	242.26
418.93	243.15
419.30	244.01
419.67	244.98
420.04	245.92
420.42	246.87
420.79	248.04
421.16	249.21
421.54	250.41
421.91	251.62
422.28	252.86
422.66	254.17
423.03	255.47
423.40	256.79
423.77	258.21
424.15	259.63
424.52	261.13
424.89	262.75
425.26	264.31
425.64	265.74
426.01	267.30
426.38	268.96
426.75	270.62
427.13	272.37
427.50	274.15
427.87	276.04
428.24	277.93
428.61	279.70
428.99	281.63
429.36	283.67
429.73	285.74
430.10	287.74
430.47	289.80
430.85	291.92
431.22	294.17
431.59	296.52
431.96	298.74
432.33	301.19
432.70	303.55
433.08	306.37
433.45	309.00
433.82	311.65
434.19	314.53
434.56	317.32
434.93	319.97
435.30	322.58
435.68	325.48
436.05	328.33
436.42	331.14
436.79	333.66
437.16	336.40
437.53	339.25
437.90	342.11
438.27	344.88
438.64	347.67
439.01	350.25
439.38	352.55
439.75	354.74
440.13	357.24
440.50	359.57
440.87	361.41
441.24	363.36
441.61	365.51
441.98	366.99
442.35	368.78
442.72	370.63
443.09	372.41
443.46	373.37
443.83	373.91
444.20	374.42
444.57	375.26
444.94	375.55
445.31	375.86
445.68	376.21
446.05	376.27
446.42	375.92
446.79	375.48
447.16	374.99
447.53	374.64
447.90	373.46
448.27	372.32
448.64	370.77
449.01	369.66
449.37	367.68
449.74	365.77
450.11	363.52
450.48	361.06
450.85	358.55
451.22	356.44
451.59	354.42
451.96	352.43
452.33	349.82
452.70	347.46
453.07	344.63
453.43	341.70
453.80	338.94
454.17	336.24
454.54	333.72
454.91	331.01
455.28	328.34
455.65	325.89
456.02	323.42
456.38	321.21
456.75	318.53
457.12	316.26
457.49	314.08
457.86	311.96
458.23	310.09
458.59	308.05
458.96	305.99
459.33	304.16
459.70	302.31
460.07	300.79
460.43	299.07
460.80	297.47
461.17	296.07
461.54	294.58
461.91	293.17
462.27	291.74
462.64	290.51
463.01	289.17
463.38	287.85
463.74	286.49
464.11	285.36
464.48	284.36
464.85	283.29
465.21	282.41
465.58	281.47
465.95	280.39
466.32	279.45
466.68	278.55
467.05	277.61
467.42	276.77
467.78	275.87
468.15	275.01
468.52	274.33
468.88	273.46
469.25	272.67
469.62	272.04
469.98	271.37
470.35	270.71
470.72	270.14
471.08	269.49
471.45	268.98
471.82	268.46
472.18	267.84
472.55	267.39
472.92	266.88
473.28	266.41
473.65	265.95
474.02	265.53
474.38	265.14
474.75	264.87
475.11	264.50
475.48	264.25
475.85	264.02
476.21	263.80
476.58	263.63
476.94	263.51
477.31	263.34
477.67	263.19
478.04	263.10
478.41	263.01
478.77	263.04
479.14	262.95
479.50	262.94
479.87	263.01
480.23	263.07
480.60	263.13
480.96	263.23
481.33	263.44
481.69	263.64
482.06	263.85
482.42	264.00
482.79	264.25
483.15	264.59
483.52	264.96
483.88	265.34
484.25	265.71
484.61	266.11
484.98	266.56
485.34	267.12
485.71	267.66
486.07	268.28
486.44	268.85
486.80	269.59
487.17	270.29
487.53	271.11
487.90	271.94
488.26	272.86
488.62	273.80
488.99	274.78
489.35	275.83
489.72	276.92
490.08	278.12
490.44	279.37
490.81	280.65
491.17	281.98
491.54	283.43
491.90	284.94
492.26	286.59
492.63	288.34
492.99	290.08
493.36	292.01
493.72	294.05
494.08	296.17
494.45	298.36
494.81	300.75
495.17	303.15
495.54	305.75
495.90	308.47
496.26	311.29
496.63	314.27
496.99	317.38
497.35	320.69
497.72	324.10
498.08	327.59
498.44	331.30
498.80	335.28
499.17	339.35
499.53	343.56
499.89	347.93
500.26	352.44
500.62	357.11
500.98	362.06
501.34	367.17
501.71	372.47
502.07	377.94
502.43	383.54
502.79	389.42
503.16	395.51
503.52	401.75
503.88	408.18
504.24	414.79
504.60	421.63
504.97	428.68
505.33	435.98
505.69	443.72
506.05	451.54
506.41	459.40
506.78	467.54
507.14	475.98
507.50	484.71
507.86	493.79
508.22	502.99
508.59	512.23
508.95	521.77
509.31	531.62
509.67	541.81
510.03	552.18
510.39	562.70
510.75	573.48
511.12	584.44
511.48	595.74
511.84	607.21
512.20	618.80
512.56	630.79
512.92	643.05
513.28	655.35
513.64	667.82
514.00	680.52
514.37	693.53
514.73	706.60
515.09	719.73
515.45	732.95
515.81	746.56
516.17	760.54
516.53	774.66
516.89	788.88
517.25	802.95
517.61	817.30
517.97	831.74
518.33	846.11
518.69	860.80
519.05	875.83
519.41	890.95
519.77	906.45
520.13	921.91
520.49	937.32
520.85	952.79
521.21	968.51
521.57	984.63
521.93	1000.27
522.29	1016.68
522.65	1032.83
523.01	1049.05
523.37	1065.02
523.73	1081.22
524.09	1097.29
524.45	1113.61
524.81	1130.26
525.17	1147.09
525.53	1164.05
525.89	1180.99
526.25	1197.87
526.61	1214.23
526.97	1230.92
527.33	1247.28
527.68	1263.80
528.04	1280.24
528.40	1296.80
528.76	1313.84
529.12	1330.44
529.48	1347.21
529.84	1363.21
530.20	1379.80
530.56	1396.84
530.91	1414.37
531.27	1431.11
531.63	1447.65
531.99	1464.10
532.35	1479.88
532.71	1495.69
533.07	1511.85
533.42	1527.75
533.78	1543.77
534.14	1560.06
534.50	1575.38
534.86	1591.39
535.21	1606.60
535.57	1622.47
535.93	1637.97
536.29	1652.64
536.65	1667.70
537.00	1682.62
537.36	1697.93
537.72	1712.43
538.08	1726.76
538.44	1740.39
538.79	1754.34
539.15	1767.94
539.51	1781.74
539.87	1796.15
540.22	1809.90
540.58	1823.71
540.94	1836.98
541.29	1849.71
541.65	1862.41
542.01	1875.65
542.37	1887.94
542.72	1900.37
543.08	1912.08
543.44	1924.41
543.79	1935.61
544.15	1946.55
544.51	1958.08
544.87	1968.98
545.22	1979.81
545.58	1989.95
545.94	1999.71
546.29	2009.38
546.65	2019.19
547.01	2028.45
547.36	2037.19
547.72	2045.63
548.07	2053.45
548.43	2061.67
548.79	2069.86
549.14	2077.26
549.50	2084.48
549.86	2092.04
550.21	2099.38
550.57	2106.49
550.92	2113.09
551.28	2120.20
551.64	2127.34
551.99	2133.93
552.35	2140.15
552.70	2146.26
553.06	2152.38
553.41	2158.80
553.77	2164.86
554.13	2170.96
554.48	2177.11
554.84	2182.61
555.19	2187.96
555.55	2193.05
555.90	2197.33
556.26	2202.12
556.61	2206.88
556.97	2211.23
557.32	2215.47
557.68	2219.47
558.03	2223.78
558.39	2227.42
558.74	2232.08
559.10	2235.95
559.45	2239.42
559.81	2243.60
560.16	2247.51
560.52	2250.73
560.87	2254.04
561.23	2256.82
561.58	2259.72
561.94	2262.25
562.29	2264.61
562.64	2267.15
563.00	2269.81
563.35	2273.46
563.71	2276.54
564.06	2279.69
564.42	2282.66
564.77	2285.03
565.12	2287.37
565.48	2289.34
565.83	2291.30
566.19	2292.50
566.54	2293.43
566.89	2294.69
567.25	2295.24
567.60	2296.52
567.96	2298.19
568.31	2299.12
568.66	2300.11
569.02	2300.72
569.37	2301.01
569.72	2301.89
570.08	2302.12
570.43	2302.12
570.78	2301.53
571.14	2300.09
571.49	2298.93
571.84	2298.60
572.20	2297.67
572.55	2296.59
572.90	2295.11
573.26	2293.76
573.61	2292.19
573.96	2290.36
574.31	2287.34
574.67	2284.40
575.02	2280.66
575.37	2277.27
575.72	2273.46
576.08	2270.23
576.43	2266.77
576.78	2263.01
577.13	2259.84
577.49	2256.72
577.84	2253.20
578.19	2249.54
578.54	2245.90
578.90	2241.54
579.25	2235.92
579.60	2230.86
579.95	2225.85
580.30	2220.78
580.66	2215.48
581.01	2210.55
581.36	2205.77
581.71	2201.59
582.06	2197.10
582.42	2192.74
582.77	2187.37
583.12	2182.80
583.47	2177.94
583.82	2173.05
584.17	2167.82
584.53	2162.34
584.88	2156.61
585.23	2150.77
585.58	2145.32
585.93	2139.88
586.28	2135.17
586.63	2130.09
586.98	2125.02
587.34	2120.37
587.69	2115.43
588.04	2110.17
588.39	2104.41
588.74	2097.88
589.09	2091.69
589.44	2084.94
589.79	2078.97
590.14	2073.48
590.49	2066.89
590.84	2060.60
591.19	2054.53
591.54	2048.09
591.89	2040.60
592.25	2033.78
592.60	2026.68
592.95	2018.98
593.30	2011.56
593.65	2003.83
594.00	1996.85
594.35	1989.60
594.70	1981.58
595.05	1974.48
595.40	1967.29
595.75	1959.82
596.10	1953.48
596.45	1946.88
596.80	1940.72
597.15	1934.03
597.50	1926.85
597.85	1920.49
598.19	1913.94
598.54	1906.68
598.89	1899.98
599.24	1894.24
599.59	1887.67
599.94	1881.42
600.29	1875.13
600.64	1868.80
600.99	1861.53
601.34	1854.76
601.69	1847.79
602.04	1840.81
602.39	1833.29
602.74	1826.31
603.08	1819.53
603.43	1812.92
603.78	1805.54
604.13	1798.30
604.48	1790.94
604.83	1784.05
605.18	1776.96
605.53	1768.71
605.87	1760.97
606.22	1753.85
606.57	1745.88
606.92	1738.59
607.27	1731.44
607.62	1724.52
607.96	1717.00
608.31	1710.22
608.66	1702.43
609.01	1694.95
609.36	1687.42
609.70	1679.61
610.05	1671.62
610.40	1663.87
610.75	1655.49
611.10	1647.76
611.44	1639.31
611.79	1631.30
612.14	1622.61
612.49	1613.46
612.83	1605.15
613.18	1597.01
613.53	1588.81
613.88	1580.22
614.22	1571.91
614.57	1563.36
614.92	1555.11
615.27	1547.58
615.61	1539.28
615.96	1531.26
616.31	1523.66
616.65	1516.21
617.00	1508.50
617.35	1500.88
617.70	1492.61
618.04	1484.11
618.39	1475.94
618.74	1468.45
619.08	1460.15
619.43	1452.73
619.78	1445.86
620.12	1438.62
620.47	1431.06
620.82	1422.95
621.16	1415.64
621.51	1408.09
621.85	1400.39
622.20	1391.98
622.55	1383.65
622.89	1375.87
623.24	1368.33
623.59	1360.81
623.93	1353.27
624.28	1346.04
624.62	1338.43
624.97	1331.23
625.32	1324.52
625.66	1317.50
626.01	1310.25
626.35	1302.83
626.70	1294.99
627.04	1287.31
627.39	1279.59
627.73	1272.28
628.08	1265.29
628.43	1257.88
628.77	1250.41
629.12	1242.84
629.46	1235.74
629.81	1228.39
630.15	1221.24
630.50	1213.80
630.84	1205.75
631.19	1197.97
631.53	1190.48
631.88	1182.93
632.22	1175.34
632.57	1167.93
632.91	1160.41
633.26	1152.97
633.60	1145.72
633.95	1138.58
634.29	1131.52
634.64	1124.89
634.98	1117.48
635.32	1110.43
635.67	1103.81
636.01	1097.25
636.36	1090.46
636.70	1083.88
637.05	1077.23
637.39	1070.72
637.73	1064.29
638.08	1058.37
638.42	1052.30
638.77	1045.83
639.11	1039.31
639.45	1033.00
639.80	1026.36
640.14	1019.91
640.49	1013.45
640.83	1007.04
641.17	1000.74
641.52	994.36
641.86	987.90
642.20	982.03
642.55	975.68
642.89	969.26
643.23	962.71
643.58	957.05
643.92	950.97
644.26	944.81
644.61	938.73
644.95	932.63
645.29	925.99
645.64	919.29
645.98	913.05
646.32	907.21
646.66	901.14
647.01	895.34
647.35	889.63
647.69	883.72
648.04	878.12
648.38	872.44
648.72	866.40
649.06	860.33
649.41	854.35
649.75	848.33
650.09	842.34
650.43	836.57
650.78	830.26
651.12	824.16
651.46	818.55
651.80	812.83
652.14	807.39
652.49	802.04
652.83	796.86
653.17	791.05
653.51	785.32
653.85	779.90
654.20	774.28
654.54	768.31
654.88	762.58
655.22	756.81
655.56	751.15
655.90	745.77
656.25	740.53
656.59	735.19
656.93	730.12
657.27	725.00
657.61	719.52
657.95	714.46
658.29	709.39
658.64	704.17
658.98	698.82
659.32	693.32
659.66	688.10
660.00	682.80
660.34	677.89
660.68	672.94
661.02	667.88
661.36	663.22
661.70	658.74
662.05	654.43
662.39	650.08
662.73	645.57
663.07	641.10
663.41	636.64
663.75	632.20
664.09	627.67
664.43	623.25
664.77	619.07
665.11	614.86
665.45	610.80
665.79	606.69
666.13	602.55
666.47	598.50
666.81	594.34
667.15	590.24
667.49	586.36
667.83	582.62
668.17	578.77
668.51	574.68
668.85	570.59
669.19	566.73
669.53	562.85
669.87	558.99
670.21	555.35
670.55	551.67
670.89	548.22
671.23	544.80
671.57	541.26
671.91	537.80
672.25	534.31
672.58	530.75
672.92	527.33
673.26	524.21
673.60	521.05
673.94	517.94
674.28	515.06
674.62	512.09
674.96	508.95
675.30	505.98
675.64	503.03
675.97	500.31
676.31	497.45
676.65	494.53
676.99	491.84
677.33	488.97
677.67	486.14
678.01	483.14
678.34	480.15
678.68	477.37
679.02	474.51
679.36	471.74
679.70	469.11
680.04	466.28
680.37	463.41
680.71	460.61
681.05	457.95
681.39	455.13
681.73	452.51
682.06	449.97
682.40	447.39
682.74	444.87
683.08	442.32
683.42	439.67
683.75	437.18
684.09	434.60
684.43	432.13
684.77	429.68
685.10	427.30
685.44	425.04
685.78	422.69
686.12	420.46
686.45	418.13
686.79	415.79
687.13	413.65
687.46	411.44
687.80	409.28
688.14	407.12
688.48	405.10
688.81	402.81
689.15	400.65
689.49	398.52
689.82	396.39
690.16	394.27
690.50	392.36
690.83	390.42
691.17	388.45
691.51	386.57
691.84	384.72
692.18	382.81
692.52	380.78
692.85	378.85
693.19	376.95
693.52	375.17
693.86	373.32
694.20	371.53
694.53	369.78
694.87	367.99
695.21	366.22
695.54	364.39
695.88	362.68
696.21	360.95
696.55	359.26
696.88	357.62
697.22	355.96
697.56	354.31
697.89	352.64
698.23	351.07
698.56	349.44
698.90	347.86
699.23	346.17
699.57	344.62
699.90	343.08
700.24	341.56
700.58	339.97
700.91	338.52
701.25	337.08
701.58	335.71
701.92	334.30
702.25	332.91
702.59	331.52
702.92	330.18
703.26	328.92
703.59	327.63
703.93	326.42
704.26	325.20
704.60	323.90
704.93	322.63
705.26	321.31
705.60	320.17
705.93	319.02
706.27	318.00
706.60	316.95
706.94	315.87
707.27	314.73
707.61	313.68
707.94	312.64
708.27	311.55
708.61	310.46
708.94	309.45
709.28	308.48
709.61	307.54
709.94	306.56
710.28	305.49
710.61	304.58
710.95	303.56
711.28	302.63
711.61	301.69
711.95	300.77
712.28	299.88
712.61	298.84
712.95	297.90
713.28	297.04
713.61	296.14
713.95	295.22
714.28	294.42
714.61	293.58
714.95	292.74
715.28	291.82
715.61	290.95
715.95	290.11
716.28	289.23
716.61	288.40
716.95	287.63
717.28	286.91
717.61	286.13
717.94	285.35
718.28	284.54
718.61	283.82
718.94	283.14
719.27	282.45
719.61	281.82
719.94	281.19
720.27	280.48
720.60	279.82
720.94	279.21
721.27	278.60
721.60	278.05
721.93	277.46
722.27	276.98
722.60	276.43
722.93	275.87
723.26	275.36
723.59	274.81
723.93	274.25
724.26	273.72
724.59	273.18
724.92	272.67
725.25	272.19
725.59	271.66
725.92	271.16
726.25	270.65
726.58	270.16
726.91	269.65
727.24	269.17
727.57	268.73
727.91	268.24
728.24	267.78
728.57	267.27
728.90	266.82
729.23	266.30
729.56	265.88
729.89	265.40
730.22	264.89
730.55	264.42
730.89	264.01
731.22	263.56
731.55	263.09
731.88	262.69
732.21	262.25
732.54	261.85
732.87	261.44
733.20	261.05
733.53	260.70
733.86	260.32
734.19	259.91
734.52	259.52
734.85	259.20
735.18	258.76
735.51	258.42
735.84	258.04
736.17	257.74
736.50	257.34
736.83	257.15
737.16	256.82
737.49	256.52
737.82	256.11
738.15	255.77
738.48	255.48
738.81	255.14
739.14	254.83
739.47	254.51
739.80	254.18
740.13	253.88
740.46	253.53
740.79	253.20
741.12	252.89
741.45	252.56
741.78	252.20
742.11	251.96
742.44	251.61
742.77	251.30
743.10	250.99
743.43	250.67
743.75	250.27
744.08	250.12
744.41	249.81
744.74	249.55
745.07	249.28
745.40	248.98
745.73	248.77
746.06	248.48
746.39	248.20
746.71	247.95
747.04	247.67
747.37	247.42
747.70	247.22
748.03	246.98
748.36	246.78
748.68	246.57
749.01	246.27
749.34	246.05
749.67	245.83
750.00	245.62
750.33	245.49
750.65	245.27
750.98	244.93
751.31	244.72
751.64	244.54
751.97	244.38
752.29	244.18
752.62	243.88
752.95	243.68
753.28	243.49
753.60	243.24
753.93	243.09
754.26	242.90
754.59	242.66
754.91	242.45
755.24	242.21
755.57	242.00
755.90	241.84
756.22	241.66
756.55	241.45
756.88	241.22
757.20	240.98
757.53	240.78
757.86	240.57
758.19	240.43
758.51	240.26
758.84	240.05
759.17	239.89
759.49	239.78
759.82	239.65
760.15	239.51
760.47	239.37
760.80	239.16
761.13	239.01
761.45	238.84
761.78	238.69
762.11	238.54
762.43	238.41
762.76	238.29
763.08	238.13
763.41	238.01
763.74	237.86
764.06	237.71
764.39	237.58
764.71	237.48
765.04	237.33
765.37	237.18
765.69	237.02
766.02	236.87
766.34	236.74
766.67	236.60
767.00	236.48
767.32	236.42
767.65	236.41
767.97	236.30
768.30	236.20
768.62	236.09
768.95	236.00
769.27	235.87
769.60	235.73
769.92	235.61
770.25	235.51
770.57	235.39
770.90	235.31
771.22	235.21
771.55	235.09
771.87	234.99
772.20	234.86
772.52	234.87
772.85	234.90
773.17	234.81
773.50	234.65
773.82	234.54
774.15	234.41
774.47	234.21
774.80	234.12
775.12	234.02
775.45	233.95
775.77	233.82
776.09	233.72
776.42	233.65
776.74	233.62
777.07	233.51
777.39	233.46
777.72	233.37
778.04	233.29
778.36	233.21
778.69	233.18
779.01	233.15
779.33	232.98
779.66	232.84
779.98	232.75
780.31	232.73
780.63	232.69
780.95	232.66
781.28	232.63
781.60	232.54
781.92	232.47
782.25	232.39
782.57	232.37
782.89	232.32
783.22	232.25
783.54	232.15
783.86	232.13
784.19	232.09
784.51	232.06
784.83	232.01
785.16	231.95
785.48	231.89
785.80	231.84
786.12	231.81
786.45	231.72
786.77	231.67
787.09	231.63
