SpectraSuite Data File
++++++++++++++++++++++++++++++++++++
Date: Fri Feb 01 17:03:36 EST 2013
User: group
Dark Spectrum Present: No
Reference Spectrum Present: No
Number of Sampled Component Spectra: 1
Spectrometers: USB2E7196
Integration Time (usec): 35000 (USB2E7196)
Spectra Averaged: 100 (USB2E7196)
Boxcar Smoothing: 10 (USB2E7196)
Correct for Electrical Dark: No (USB2E7196)
Strobe/Lamp Enabled: No (USB2E7196)
Correct for Detector Non-linearity: No (USB2E7196)
Correct for Stray Light: No (USB2E7196)
Number of Pixels in Processed Spectrum: 2048
>>>>>Begin Processed Spectral Data<<<<<
339.09	0.00
339.48	213.07
339.86	214.62
340.24	215.85
340.63	216.99
341.01	220.53
341.39	220.40
341.78	221.11
342.16	222.85
342.54	222.76
342.93	211.63
343.31	222.37
343.69	222.92
344.07	223.38
344.46	223.84
344.84	224.23
345.22	224.47
345.60	224.72
345.99	224.93
346.37	225.07
346.75	225.21
347.13	225.27
347.52	225.34
347.90	225.42
348.28	225.44
348.66	225.47
349.05	225.50
349.43	225.54
349.81	225.60
350.19	225.65
350.57	225.72
350.96	225.83
351.34	225.86
351.72	225.96
352.10	226.08
352.48	226.14
352.87	226.23
353.25	226.31
353.63	226.35
354.01	226.41
354.39	226.49
354.77	226.54
355.15	226.66
355.54	226.70
355.92	226.78
356.30	226.87
356.68	226.99
357.06	227.06
357.44	227.11
357.82	227.15
358.20	227.22
358.58	227.30
358.97	227.34
359.35	227.40
359.73	227.47
360.11	227.51
360.49	227.57
360.87	227.60
361.25	227.63
361.63	227.71
362.01	227.76
362.39	227.77
362.77	227.81
363.15	227.81
363.53	227.89
363.91	227.88
364.29	227.88
364.67	227.80
365.05	227.82
365.43	227.82
365.81	227.85
366.19	227.88
366.57	227.90
366.95	227.88
367.33	227.86
367.71	227.85
368.09	227.84
368.47	227.82
368.85	227.79
369.23	227.81
369.61	227.72
369.99	227.73
370.37	227.71
370.75	227.73
371.13	227.69
371.51	227.60
371.89	227.58
372.27	227.58
372.65	227.54
373.03	227.48
373.41	227.45
373.78	227.39
374.16	227.29
374.54	227.20
374.92	227.11
375.30	227.08
375.68	226.97
376.06	226.94
376.44	226.88
376.82	226.85
377.19	226.79
377.57	226.75
377.95	226.63
378.33	226.60
378.71	226.46
379.09	226.40
379.47	226.35
379.84	226.27
380.22	226.21
380.60	226.12
380.98	226.06
381.36	225.96
381.73	225.87
382.11	225.87
382.49	225.80
382.87	225.77
383.25	225.71
383.62	225.82
384.00	225.74
384.38	225.67
384.76	225.61
385.13	225.55
385.51	225.51
385.89	225.44
386.27	225.37
386.64	225.34
387.02	225.31
387.40	225.26
387.78	225.22
388.15	225.15
388.53	225.13
388.91	225.12
389.29	225.12
389.66	225.12
390.04	225.06
390.42	225.08
390.79	225.06
391.17	225.06
391.55	224.92
391.92	224.90
392.30	224.91
392.68	224.88
393.05	224.89
393.43	224.90
393.81	224.91
394.18	224.88
394.56	224.88
394.94	224.89
395.31	224.89
395.69	224.94
396.06	224.95
396.44	224.98
396.82	224.99
397.19	225.04
397.57	225.05
397.95	225.12
398.32	225.12
398.70	225.18
399.07	225.19
399.45	225.21
399.82	225.26
400.20	225.28
400.58	225.35
400.95	225.39
401.33	225.44
401.70	225.61
402.08	225.73
402.45	225.80
402.83	225.89
403.20	226.01
403.58	226.10
403.95	226.24
404.33	226.35
404.71	226.44
405.08	226.63
405.46	226.78
405.83	226.88
406.21	227.01
406.58	227.17
406.96	227.35
407.33	227.54
407.70	227.74
408.08	228.05
408.45	228.28
408.83	228.53
409.20	228.77
409.58	228.92
409.95	229.18
410.33	229.47
410.70	229.74
411.08	230.03
411.45	230.32
411.82	230.64
412.20	230.99
412.57	231.42
412.95	231.71
413.32	232.08
413.69	232.48
414.07	232.92
414.44	233.43
414.82	233.88
415.19	234.42
415.56	234.99
415.94	235.53
416.31	236.14
416.68	236.74
417.06	237.46
417.43	238.14
417.81	238.90
418.18	239.67
418.55	240.50
418.93	241.41
419.30	242.30
419.67	243.24
420.04	244.18
420.42	245.16
420.79	246.35
421.16	247.51
421.54	248.72
421.91	249.92
422.28	251.16
422.66	252.53
423.03	253.81
423.40	255.13
423.77	256.50
424.15	257.89
424.52	259.36
424.89	260.95
425.26	262.52
425.64	263.95
426.01	265.53
426.38	267.19
426.75	268.82
427.13	270.54
427.50	272.30
427.87	274.20
428.24	276.06
428.61	277.78
428.99	279.72
429.36	281.77
429.73	283.83
430.10	285.83
430.47	287.86
430.85	289.99
431.22	292.26
431.59	294.64
431.96	296.90
432.33	299.39
432.70	301.71
433.08	304.45
433.45	307.07
433.82	309.66
434.19	312.55
434.56	315.34
434.93	317.97
435.30	320.59
435.68	323.45
436.05	326.24
436.42	329.03
436.79	331.57
437.16	334.26
437.53	337.09
437.90	339.86
438.27	342.58
438.64	345.38
439.01	347.92
439.38	350.10
439.75	352.26
440.13	354.71
440.50	357.06
440.87	358.91
441.24	360.82
441.61	363.01
441.98	364.46
442.35	366.18
442.72	368.03
443.09	369.84
443.46	370.83
443.83	371.39
444.20	371.89
444.57	372.72
444.94	373.00
445.31	373.35
445.68	373.66
446.05	373.71
446.42	373.35
446.79	372.93
447.16	372.50
447.53	372.20
447.90	371.11
448.27	369.95
448.64	368.37
449.01	367.29
449.37	365.27
449.74	363.40
450.11	361.21
450.48	358.75
450.85	356.23
451.22	354.11
451.59	352.14
451.96	350.24
452.33	347.63
452.70	345.31
453.07	342.50
453.43	339.66
453.80	336.93
454.17	334.25
454.54	331.70
454.91	329.03
455.28	326.34
455.65	323.84
456.02	321.42
456.38	319.34
456.75	316.69
457.12	314.48
457.49	312.29
457.86	310.14
458.23	308.29
458.59	306.29
458.96	304.23
459.33	302.37
459.70	300.49
460.07	298.99
460.43	297.29
460.80	295.67
461.17	294.24
461.54	292.78
461.91	291.34
462.27	289.91
462.64	288.65
463.01	287.34
463.38	286.04
463.74	284.71
464.11	283.51
464.48	282.49
464.85	281.38
465.21	280.51
465.58	279.63
465.95	278.57
466.32	277.65
466.68	276.76
467.05	275.87
467.42	274.98
467.78	274.05
468.15	273.18
468.52	272.53
468.88	271.69
469.25	270.94
469.62	270.36
469.98	269.69
470.35	269.06
470.72	268.48
471.08	267.84
471.45	267.30
471.82	266.79
472.18	266.21
472.55	265.83
472.92	265.31
473.28	264.82
473.65	264.41
474.02	263.97
474.38	263.58
474.75	263.32
475.11	263.03
475.48	262.79
475.85	262.59
476.21	262.38
476.58	262.21
476.94	262.05
477.31	261.89
477.67	261.82
478.04	261.75
478.41	261.70
478.77	261.79
479.14	261.73
479.50	261.78
479.87	261.84
480.23	261.95
480.60	262.02
480.96	262.13
481.33	262.36
481.69	262.61
482.06	262.86
482.42	263.01
482.79	263.27
483.15	263.60
483.52	264.00
483.88	264.34
484.25	264.74
484.61	265.19
484.98	265.63
485.34	266.16
485.71	266.73
486.07	267.37
486.44	267.90
486.80	268.61
487.17	269.31
487.53	270.13
487.90	270.95
488.26	271.89
488.62	272.85
488.99	273.79
489.35	274.81
489.72	275.94
490.08	277.20
490.44	278.40
490.81	279.73
491.17	281.03
491.54	282.50
491.90	284.03
492.26	285.67
492.63	287.41
492.99	289.18
493.36	291.09
493.72	293.11
494.08	295.20
494.45	297.44
494.81	299.79
495.17	302.18
495.54	304.72
495.90	307.34
496.26	310.12
496.63	313.08
496.99	316.16
497.35	319.39
497.72	322.74
498.08	326.26
498.44	329.95
498.80	333.89
499.17	337.92
499.53	342.06
499.89	346.44
500.26	350.92
500.62	355.51
500.98	360.43
501.34	365.49
501.71	370.77
502.07	376.18
502.43	381.75
502.79	387.56
503.16	393.62
503.52	399.87
503.88	406.27
504.24	412.85
504.60	419.70
504.97	426.78
505.33	434.07
505.69	441.71
506.05	449.38
506.41	457.14
506.78	465.23
507.14	473.56
507.50	482.10
507.86	491.04
508.22	500.21
508.59	509.31
508.95	518.67
509.31	528.42
509.67	538.35
510.03	548.54
510.39	559.00
510.75	569.68
511.12	580.51
511.48	591.63
511.84	602.91
512.20	614.22
512.56	625.89
512.92	637.85
513.28	650.07
513.64	662.38
514.00	674.93
514.37	687.67
514.73	700.51
515.09	713.40
515.45	726.44
515.81	739.72
516.17	753.58
516.53	767.57
516.89	781.45
517.25	795.31
517.61	809.50
517.97	823.72
518.33	837.75
518.69	852.20
519.05	866.92
519.41	881.83
519.77	897.16
520.13	912.39
520.49	927.53
520.85	942.52
521.21	957.90
521.57	973.77
521.93	989.19
522.29	1005.31
522.65	1021.23
523.01	1037.08
523.37	1052.87
523.73	1068.64
524.09	1084.43
524.45	1100.38
524.81	1116.81
525.17	1133.13
525.53	1149.51
525.89	1166.18
526.25	1182.75
526.61	1198.68
526.97	1215.09
527.33	1231.21
527.68	1247.40
528.04	1263.52
528.40	1279.71
528.76	1296.28
529.12	1312.44
529.48	1328.95
529.84	1344.56
530.20	1360.76
530.56	1377.37
530.91	1394.26
531.27	1410.64
531.63	1426.75
531.99	1443.10
532.35	1458.72
532.71	1474.35
533.07	1490.33
533.42	1505.81
533.78	1521.54
534.14	1537.58
534.50	1552.48
534.86	1567.90
535.21	1582.75
535.57	1598.24
535.93	1613.52
536.29	1627.94
536.65	1642.72
537.00	1657.15
537.36	1672.11
537.72	1686.21
538.08	1700.46
538.44	1714.02
538.79	1727.60
539.15	1740.71
539.51	1754.07
539.87	1768.03
540.22	1781.46
540.58	1794.85
540.94	1807.80
541.29	1820.25
541.65	1832.60
542.01	1845.56
542.37	1857.76
542.72	1869.93
543.08	1881.44
543.44	1893.53
543.79	1904.77
544.15	1915.58
544.51	1927.00
544.87	1937.62
545.22	1948.44
545.58	1958.28
545.94	1967.81
546.29	1977.36
546.65	1987.23
547.01	1996.30
547.36	2004.71
547.72	2013.07
548.07	2020.81
548.43	2028.76
548.79	2036.48
549.14	2043.94
549.50	2051.11
549.86	2058.45
550.21	2065.78
550.57	2072.92
550.92	2079.53
551.28	2086.39
551.64	2093.35
551.99	2099.71
552.35	2105.97
552.70	2111.98
553.06	2117.96
553.41	2124.34
553.77	2130.37
554.13	2136.27
554.48	2142.40
554.84	2148.10
555.19	2153.26
555.55	2158.51
555.90	2163.09
556.26	2168.32
556.61	2173.00
556.97	2177.59
557.32	2181.80
557.68	2185.84
558.03	2190.07
558.39	2193.60
558.74	2198.21
559.10	2202.11
559.45	2205.95
559.81	2210.24
560.16	2214.18
560.52	2217.64
560.87	2221.01
561.23	2223.78
561.58	2226.83
561.94	2229.45
562.29	2231.68
562.64	2234.59
563.00	2237.20
563.35	2240.81
563.71	2243.98
564.06	2247.25
564.42	2250.05
564.77	2252.76
565.12	2255.34
565.48	2257.44
565.83	2259.49
566.19	2260.97
566.54	2261.96
566.89	2263.23
567.25	2264.07
567.60	2265.43
567.96	2267.27
568.31	2268.30
568.66	2269.63
569.02	2270.40
569.37	2270.83
569.72	2272.12
570.08	2272.38
570.43	2272.68
570.78	2272.32
571.14	2270.88
571.49	2269.59
571.84	2269.41
572.20	2268.52
572.55	2267.40
572.90	2266.02
573.26	2264.93
573.61	2263.32
573.96	2261.90
574.31	2259.10
574.67	2256.32
575.02	2252.93
575.37	2249.61
575.72	2246.25
576.08	2242.95
576.43	2239.72
576.78	2236.31
577.13	2233.07
577.49	2230.17
577.84	2226.95
578.19	2223.50
578.54	2220.17
578.90	2216.41
579.25	2211.12
579.60	2206.48
579.95	2201.89
580.30	2197.02
580.66	2192.08
581.01	2187.41
581.36	2182.73
581.71	2178.72
582.06	2174.56
582.42	2170.39
582.77	2165.42
583.12	2161.06
583.47	2156.84
583.82	2152.25
584.17	2147.31
584.53	2142.06
584.88	2136.54
585.23	2131.00
585.58	2125.51
585.93	2120.17
586.28	2115.46
586.63	2110.63
586.98	2105.56
587.34	2101.00
587.69	2096.39
588.04	2091.37
588.39	2086.05
588.74	2079.58
589.09	2073.74
589.44	2067.05
589.79	2061.10
590.14	2055.64
590.49	2049.15
590.84	2042.73
591.19	2036.90
591.54	2030.53
591.89	2023.61
592.25	2017.14
592.60	2010.09
592.95	2002.96
593.30	1995.82
593.65	1988.40
594.00	1981.57
594.35	1974.61
594.70	1966.70
595.05	1959.75
595.40	1952.65
595.75	1945.14
596.10	1939.29
596.45	1932.74
596.80	1926.91
597.15	1920.57
597.50	1913.91
597.85	1907.61
598.19	1901.31
598.54	1894.40
598.89	1887.99
599.24	1882.13
599.59	1875.76
599.94	1869.54
600.29	1863.22
600.64	1856.78
600.99	1849.60
601.34	1842.90
601.69	1835.98
602.04	1829.33
602.39	1822.10
602.74	1815.49
603.08	1808.99
603.43	1802.31
603.78	1795.04
604.13	1787.82
604.48	1780.72
604.83	1773.83
605.18	1767.01
605.53	1759.15
605.87	1751.19
606.22	1744.02
606.57	1736.21
606.92	1728.77
607.27	1721.98
607.62	1715.22
607.96	1708.15
608.31	1701.86
608.66	1694.39
609.01	1687.05
609.36	1679.70
609.70	1671.87
610.05	1663.88
610.40	1656.23
610.75	1648.00
611.10	1640.48
611.44	1632.15
611.79	1624.13
612.14	1615.57
612.49	1606.39
612.83	1597.94
613.18	1589.83
613.53	1581.85
613.88	1573.42
614.22	1565.27
614.57	1556.52
614.92	1548.63
615.27	1541.24
615.61	1532.83
615.96	1524.89
616.31	1517.24
616.65	1509.77
617.00	1502.20
617.35	1494.44
617.70	1486.32
618.04	1477.91
618.39	1469.80
618.74	1462.23
619.08	1453.92
619.43	1446.31
619.78	1439.47
620.12	1432.41
620.47	1425.16
620.82	1416.96
621.16	1409.52
621.51	1401.86
621.85	1394.22
622.20	1385.73
622.55	1377.24
622.89	1369.48
623.24	1361.80
623.59	1354.40
623.93	1346.95
624.28	1339.77
624.62	1332.46
624.97	1325.27
625.32	1318.53
625.66	1311.46
626.01	1304.34
626.35	1297.03
626.70	1289.22
627.04	1281.61
627.39	1273.85
627.73	1266.33
628.08	1259.48
628.43	1252.33
628.77	1245.25
629.12	1237.87
629.46	1230.74
629.81	1223.31
630.15	1216.02
630.50	1208.67
630.84	1200.55
631.19	1192.63
631.53	1185.05
631.88	1177.41
632.22	1169.92
632.57	1162.63
632.91	1155.11
633.26	1147.75
633.60	1140.31
633.95	1133.32
634.29	1126.25
634.64	1119.54
634.98	1112.24
635.32	1105.13
635.67	1098.45
636.01	1091.76
636.36	1085.00
636.70	1078.41
637.05	1071.92
637.39	1065.48
637.73	1059.07
638.08	1053.13
638.42	1047.15
638.77	1040.70
639.11	1034.21
639.45	1027.76
639.80	1021.13
640.14	1014.86
640.49	1008.39
640.83	1002.19
641.17	996.03
641.52	989.80
641.86	983.39
642.20	977.63
642.55	971.34
642.89	964.97
643.23	958.36
643.58	952.58
643.92	946.54
644.26	940.61
644.61	934.60
644.95	928.63
645.29	922.18
645.64	915.49
645.98	909.24
646.32	903.40
646.66	897.39
647.01	891.72
647.35	886.00
647.69	880.14
648.04	874.63
648.38	868.82
648.72	862.88
649.06	856.89
649.41	850.93
649.75	845.04
650.09	839.14
650.43	833.35
650.78	827.13
651.12	821.22
651.46	815.51
651.80	809.85
652.14	804.48
652.49	799.14
652.83	793.97
653.17	788.38
653.51	782.74
653.85	777.36
654.20	771.69
654.54	765.63
654.88	759.99
655.22	754.08
655.56	748.34
655.90	742.91
656.25	737.68
656.59	732.38
656.93	727.25
657.27	722.17
657.61	716.78
657.95	711.82
658.29	706.74
658.64	701.41
658.98	696.08
659.32	690.63
659.66	685.47
660.00	680.23
660.34	675.28
660.68	670.32
661.02	665.28
661.36	660.55
661.70	656.16
662.05	651.81
662.39	647.58
662.73	643.22
663.07	638.80
663.41	634.38
663.75	629.98
664.09	625.52
664.43	621.08
664.77	617.02
665.11	612.78
665.45	608.63
665.79	604.64
666.13	600.53
666.47	596.47
666.81	592.34
667.15	588.27
667.49	584.37
667.83	580.51
668.17	576.65
668.51	572.63
668.85	568.55
669.19	564.72
669.53	560.94
669.87	557.15
670.21	553.53
670.55	549.85
670.89	546.38
671.23	542.95
671.57	539.44
671.91	535.93
672.25	532.45
672.58	529.00
672.92	525.51
673.26	522.41
673.60	519.19
673.94	516.09
674.28	513.15
674.62	510.23
674.96	507.21
675.30	504.39
675.64	501.53
675.97	498.79
676.31	495.94
676.65	492.94
676.99	490.16
677.33	487.26
677.67	484.53
678.01	481.54
678.34	478.53
678.68	475.65
679.02	472.89
679.36	470.12
679.70	467.40
680.04	464.69
680.37	461.84
680.71	459.07
681.05	456.46
681.39	453.77
681.73	451.13
682.06	448.63
682.40	446.02
682.74	443.47
683.08	440.92
683.42	438.31
683.75	435.84
684.09	433.30
684.43	430.83
684.77	428.39
685.10	426.02
685.44	423.74
685.78	421.47
686.12	419.21
686.45	416.94
686.79	414.62
687.13	412.42
687.46	410.23
687.80	408.14
688.14	405.92
688.48	403.91
688.81	401.70
689.15	399.54
689.49	397.39
689.82	395.29
690.16	393.18
690.50	391.21
690.83	389.28
691.17	387.29
691.51	385.42
691.84	383.54
692.18	381.64
692.52	379.69
692.85	377.76
693.19	375.90
693.52	374.03
693.86	372.22
694.20	370.48
694.53	368.69
694.87	366.80
695.21	365.00
695.54	363.12
695.88	361.36
696.21	359.61
696.55	357.94
696.88	356.25
697.22	354.58
697.56	352.91
697.89	351.25
698.23	349.69
698.56	348.10
698.90	346.52
699.23	344.89
699.57	343.31
699.90	341.72
700.24	340.09
700.58	338.59
700.91	337.12
701.25	335.65
701.58	334.27
701.92	332.95
702.25	331.56
702.59	330.21
702.92	328.92
703.26	327.62
703.59	326.32
703.93	325.17
704.26	323.95
704.60	322.69
704.93	321.43
705.26	320.17
705.60	318.94
705.93	317.79
706.27	316.75
706.60	315.71
706.94	314.64
707.27	313.58
707.61	312.48
707.94	311.40
708.27	310.33
708.61	309.20
708.94	308.14
709.28	307.15
709.61	306.18
709.94	305.23
710.28	304.21
710.61	303.21
710.95	302.09
711.28	301.16
711.61	300.21
711.95	299.29
712.28	298.36
712.61	297.37
712.95	296.37
713.28	295.47
713.61	294.58
713.95	293.73
714.28	292.86
714.61	292.03
714.95	291.21
715.28	290.32
715.61	289.48
715.95	288.62
716.28	287.79
716.61	286.96
716.95	286.10
717.28	285.35
717.61	284.60
717.94	283.87
718.28	283.04
718.61	282.32
718.94	281.61
719.27	280.93
719.61	280.31
719.94	279.69
720.27	278.96
720.60	278.30
720.94	277.64
721.27	277.06
721.60	276.49
721.93	275.91
722.27	275.38
722.60	274.85
722.93	274.27
723.26	273.74
723.59	273.15
723.93	272.58
724.26	272.04
724.59	271.47
724.92	270.95
725.25	270.50
725.59	270.00
725.92	269.53
726.25	269.02
726.58	268.50
726.91	268.03
727.24	267.57
727.57	267.09
727.91	266.62
728.24	266.15
728.57	265.64
728.90	265.17
729.23	264.66
729.56	264.25
729.89	263.79
730.22	263.28
730.55	262.82
730.89	262.41
731.22	261.99
731.55	261.58
731.88	261.16
732.21	260.74
732.54	260.29
732.87	259.86
733.20	259.47
733.53	259.09
733.86	258.71
734.19	258.27
734.52	257.89
734.85	257.55
735.18	257.15
735.51	256.78
735.84	256.41
736.17	256.06
736.50	255.66
736.83	255.47
737.16	255.15
737.49	254.84
737.82	254.46
738.15	254.09
738.48	253.76
738.81	253.43
739.14	253.07
739.47	252.76
739.80	252.44
740.13	252.15
740.46	251.81
740.79	251.46
741.12	251.20
741.45	250.88
741.78	250.55
742.11	250.29
742.44	250.00
742.77	249.70
743.10	249.43
743.43	249.11
743.75	248.72
744.08	248.62
744.41	248.36
744.74	248.10
745.07	247.82
745.40	247.58
745.73	247.36
746.06	247.13
746.39	246.86
746.71	246.55
747.04	246.25
747.37	246.02
747.70	245.83
748.03	245.57
748.36	245.36
748.68	245.15
749.01	244.85
749.34	244.64
749.67	244.39
750.00	244.13
750.33	243.97
750.65	243.73
750.98	243.36
751.31	243.13
751.64	242.90
751.97	242.75
752.29	242.52
752.62	242.25
752.95	242.01
753.28	241.81
753.60	241.61
753.93	241.45
754.26	241.23
754.59	240.96
754.91	240.74
755.24	240.51
755.57	240.29
755.90	240.14
756.22	239.90
756.55	239.69
756.88	239.48
757.20	239.25
757.53	239.08
757.86	238.90
758.19	238.72
758.51	238.57
758.84	238.34
759.17	238.16
759.49	238.04
759.82	237.91
760.15	237.75
760.47	237.59
760.80	237.42
761.13	237.28
761.45	237.15
761.78	237.00
762.11	236.87
762.43	236.71
762.76	236.54
763.08	236.47
763.41	236.36
763.74	236.25
764.06	236.10
764.39	235.97
764.71	235.81
765.04	235.68
765.37	235.55
765.69	235.44
766.02	235.30
766.34	235.16
766.67	235.01
767.00	234.93
767.32	234.87
767.65	234.80
767.97	234.67
768.30	234.57
768.62	234.47
768.95	234.35
769.27	234.27
769.60	234.17
769.92	234.01
770.25	233.91
770.57	233.80
770.90	233.72
771.22	233.59
771.55	233.52
771.87	233.42
772.20	233.32
772.52	233.30
772.85	233.34
773.17	233.22
773.50	233.11
773.82	232.98
774.15	232.84
774.47	232.69
774.80	232.61
775.12	232.53
775.45	232.46
775.77	232.37
776.09	232.27
776.42	232.17
776.74	232.11
777.07	232.04
777.39	231.98
777.72	231.88
778.04	231.83
778.36	231.79
778.69	231.74
779.01	231.64
779.33	231.49
779.66	231.30
779.98	231.26
780.31	231.21
780.63	231.19
780.95	231.16
781.28	231.11
781.60	231.04
781.92	230.98
782.25	230.90
782.57	230.86
782.89	230.83
783.22	230.76
783.54	230.70
783.86	230.66
784.19	230.59
784.51	230.57
784.83	230.51
785.16	230.39
785.48	230.33
785.80	230.31
786.12	230.26
786.45	230.22
786.77	230.17
787.09	230.10
