SpectraSuite Data File
++++++++++++++++++++++++++++++++++++
Date: Fri Feb 01 14:58:14 EST 2013
User: group
Dark Spectrum Present: No
Reference Spectrum Present: No
Number of Sampled Component Spectra: 1
Spectrometers: USB2E7196
Integration Time (usec): 35000 (USB2E7196)
Spectra Averaged: 100 (USB2E7196)
Boxcar Smoothing: 10 (USB2E7196)
Correct for Electrical Dark: No (USB2E7196)
Strobe/Lamp Enabled: No (USB2E7196)
Correct for Detector Non-linearity: No (USB2E7196)
Correct for Stray Light: No (USB2E7196)
Number of Pixels in Processed Spectrum: 2048
>>>>>Begin Processed Spectral Data<<<<<
339.09	0.00
339.48	215.64
339.86	216.38
340.24	217.81
340.63	219.42
341.01	222.02
341.39	221.95
341.78	223.72
342.16	223.89
342.54	225.37
342.93	213.46
343.31	224.26
343.69	224.78
344.07	225.26
344.46	225.69
344.84	226.07
345.22	226.31
345.60	226.55
345.99	226.72
346.37	226.90
346.75	226.98
347.13	227.07
347.52	227.14
347.90	227.17
348.28	227.21
348.66	227.25
349.05	227.25
349.43	227.30
349.81	227.39
350.19	227.40
350.57	227.49
350.96	227.57
351.34	227.66
351.72	227.75
352.10	227.84
352.48	227.93
352.87	227.97
353.25	228.06
353.63	228.16
354.01	228.25
354.39	228.31
354.77	228.40
355.15	228.49
355.54	228.56
355.92	228.66
356.30	228.74
356.68	228.88
357.06	228.97
357.44	229.01
357.82	229.05
358.20	229.15
358.58	229.18
358.97	229.25
359.35	229.30
359.73	229.38
360.11	229.43
360.49	229.50
360.87	229.58
361.25	229.66
361.63	229.68
362.01	229.71
362.39	229.71
362.77	229.76
363.15	229.75
363.53	229.75
363.91	229.72
364.29	229.73
364.67	229.63
365.05	229.62
365.43	229.64
365.81	229.67
366.19	229.70
366.57	229.75
366.95	229.76
367.33	229.72
367.71	229.65
368.09	229.69
368.47	229.63
368.85	229.60
369.23	229.53
369.61	229.50
369.99	229.52
370.37	229.49
370.75	229.49
371.13	229.43
371.51	229.38
371.89	229.37
372.27	229.32
372.65	229.27
373.03	229.24
373.41	229.17
373.78	229.09
374.16	228.96
374.54	228.85
374.92	228.72
375.30	228.69
375.68	228.63
376.06	228.54
376.44	228.47
376.82	228.38
377.19	228.31
377.57	228.19
377.95	228.08
378.33	228.00
378.71	227.87
379.09	227.83
379.47	227.75
379.84	227.65
380.22	227.53
380.60	227.44
380.98	227.32
381.36	227.22
381.73	227.12
382.11	227.08
382.49	227.01
382.87	226.93
383.25	226.83
383.62	226.89
384.00	226.79
384.38	226.74
384.76	226.71
385.13	226.74
385.51	226.70
385.89	226.62
386.27	226.57
386.64	226.55
387.02	226.49
387.40	226.45
387.78	226.42
388.15	226.41
388.53	226.36
388.91	226.36
389.29	226.34
389.66	226.31
390.04	226.26
390.42	226.25
390.79	226.25
391.17	226.23
391.55	226.11
391.92	226.11
392.30	226.09
392.68	226.05
393.05	225.98
393.43	225.99
393.81	226.01
394.18	226.01
394.56	226.04
394.94	226.10
395.31	226.13
395.69	226.23
396.06	226.27
396.44	226.37
396.82	226.43
397.19	226.54
397.57	226.58
397.95	226.70
398.32	226.75
398.70	226.87
399.07	226.98
399.45	227.06
399.82	227.13
400.20	227.24
400.58	227.35
400.95	227.43
401.33	227.55
401.70	227.73
402.08	227.88
402.45	227.98
402.83	228.12
403.20	228.24
403.58	228.32
403.95	228.49
404.33	228.65
404.71	228.79
405.08	228.99
405.46	229.17
405.83	229.28
406.21	229.48
406.58	229.63
406.96	229.81
407.33	230.01
407.70	230.23
408.08	230.49
408.45	230.72
408.83	230.99
409.20	231.23
409.58	231.42
409.95	231.68
410.33	231.97
410.70	232.24
411.08	232.52
411.45	232.86
411.82	233.13
412.20	233.44
412.57	233.84
412.95	234.13
413.32	234.54
413.69	234.96
414.07	235.34
414.44	235.80
414.82	236.28
415.19	236.84
415.56	237.37
415.94	237.93
416.31	238.57
416.68	239.16
417.06	239.85
417.43	240.54
417.81	241.28
418.18	242.02
418.55	242.84
418.93	243.74
419.30	244.61
419.67	245.54
420.04	246.53
420.42	247.53
420.79	248.70
421.16	249.84
421.54	251.06
421.91	252.33
422.28	253.58
422.66	254.90
423.03	256.20
423.40	257.54
423.77	258.93
424.15	260.33
424.52	261.82
424.89	263.41
425.26	264.96
425.64	266.44
426.01	267.98
426.38	269.64
426.75	271.28
427.13	272.97
427.50	274.78
427.87	276.63
428.24	278.47
428.61	280.19
428.99	282.14
429.36	284.24
429.73	286.27
430.10	288.27
430.47	290.31
430.85	292.44
431.22	294.69
431.59	297.09
431.96	299.35
432.33	301.86
432.70	304.26
433.08	307.11
433.45	309.70
433.82	312.36
434.19	315.24
434.56	318.09
434.93	320.75
435.30	323.34
435.68	326.23
436.05	329.06
436.42	331.89
436.79	334.42
437.16	337.11
437.53	339.99
437.90	342.84
438.27	345.62
438.64	348.41
439.01	350.99
439.38	353.21
439.75	355.36
440.13	357.83
440.50	360.18
440.87	361.95
441.24	363.89
441.61	366.08
441.98	367.58
442.35	369.39
442.72	371.31
443.09	373.15
443.46	374.14
443.83	374.79
444.20	375.30
444.57	376.14
444.94	376.45
445.31	376.78
445.68	377.15
446.05	377.19
446.42	376.84
446.79	376.43
447.16	375.99
447.53	375.71
447.90	374.55
448.27	373.38
448.64	371.85
449.01	370.73
449.37	368.75
449.74	366.89
450.11	364.65
450.48	362.15
450.85	359.62
451.22	357.48
451.59	355.39
451.96	353.45
452.33	350.79
452.70	348.43
453.07	345.61
453.43	342.67
453.80	339.92
454.17	337.24
454.54	334.69
454.91	331.96
455.28	329.24
455.65	326.78
456.02	324.35
456.38	322.20
456.75	319.58
457.12	317.35
457.49	315.12
457.86	312.92
458.23	311.09
458.59	309.04
458.96	307.00
459.33	305.15
459.70	303.28
460.07	301.84
460.43	300.11
460.80	298.46
461.17	297.05
461.54	295.54
461.91	294.13
462.27	292.69
462.64	291.43
463.01	290.08
463.38	288.76
463.74	287.37
464.11	286.20
464.48	285.14
464.85	284.00
465.21	283.08
465.58	282.19
465.95	281.03
466.32	280.13
466.68	279.17
467.05	278.28
467.42	277.36
467.78	276.43
468.15	275.57
468.52	274.92
468.88	274.08
469.25	273.33
469.62	272.69
469.98	272.00
470.35	271.39
470.72	270.81
471.08	270.12
471.45	269.58
471.82	269.00
472.18	268.41
472.55	267.92
472.92	267.39
473.28	266.86
473.65	266.38
474.02	265.90
474.38	265.51
474.75	265.19
475.11	264.82
475.48	264.53
475.85	264.27
476.21	264.01
476.58	263.76
476.94	263.57
477.31	263.38
477.67	263.23
478.04	263.08
478.41	262.97
478.77	262.99
479.14	262.84
479.50	262.86
479.87	262.91
480.23	262.99
480.60	263.04
480.96	263.16
481.33	263.41
481.69	263.62
482.06	263.77
482.42	263.93
482.79	264.21
483.15	264.48
483.52	264.82
483.88	265.15
484.25	265.52
484.61	265.92
484.98	266.34
485.34	266.86
485.71	267.44
486.07	268.04
486.44	268.59
486.80	269.33
487.17	270.06
487.53	270.86
487.90	271.69
488.26	272.58
488.62	273.56
488.99	274.54
489.35	275.59
489.72	276.75
490.08	277.98
490.44	279.20
490.81	280.56
491.17	281.87
491.54	283.32
491.90	284.91
492.26	286.57
492.63	288.35
492.99	290.12
493.36	291.99
493.72	294.02
494.08	296.13
494.45	298.37
494.81	300.73
495.17	303.12
495.54	305.69
495.90	308.37
496.26	311.11
496.63	314.04
496.99	317.12
497.35	320.34
497.72	323.71
498.08	327.23
498.44	330.86
498.80	334.79
499.17	338.78
499.53	342.90
499.89	347.23
500.26	351.67
500.62	356.31
500.98	361.24
501.34	366.30
501.71	371.59
502.07	376.99
502.43	382.57
502.79	388.39
503.16	394.46
503.52	400.72
503.88	407.13
504.24	413.73
504.60	420.63
504.97	427.73
505.33	435.00
505.69	442.67
506.05	450.45
506.41	458.27
506.78	466.41
507.14	474.85
507.50	483.52
507.86	492.60
508.22	501.74
508.59	510.91
508.95	520.52
509.31	530.32
509.67	540.43
510.03	550.66
510.39	561.19
510.75	571.97
511.12	582.92
511.48	594.18
511.84	605.59
512.20	617.11
512.56	629.05
512.92	641.28
513.28	653.56
513.64	665.99
514.00	678.65
514.37	691.58
514.73	704.61
515.09	717.72
515.45	730.96
515.81	744.65
516.17	758.75
516.53	772.92
516.89	787.10
517.25	801.34
517.61	815.80
517.97	830.36
518.33	844.80
518.69	859.54
519.05	874.59
519.41	889.81
519.77	905.30
520.13	920.79
520.49	936.07
520.85	951.55
521.21	967.35
521.57	983.73
521.93	999.61
522.29	1016.07
522.65	1032.30
523.01	1048.58
523.37	1064.68
523.73	1080.82
524.09	1096.85
524.45	1113.28
524.81	1130.00
525.17	1146.86
525.53	1163.78
525.89	1180.67
526.25	1197.53
526.61	1213.98
526.97	1230.80
527.33	1247.27
527.68	1264.07
528.04	1280.79
528.40	1297.55
528.76	1314.60
529.12	1331.31
529.48	1348.14
529.84	1364.30
530.20	1381.13
530.56	1398.24
530.91	1415.66
531.27	1432.58
531.63	1449.19
531.99	1465.75
532.35	1481.71
532.71	1497.66
533.07	1513.95
533.42	1529.99
533.78	1546.18
534.14	1562.65
534.50	1578.07
534.86	1594.17
535.21	1609.31
535.57	1625.30
535.93	1640.91
536.29	1655.76
536.65	1670.93
537.00	1685.90
537.36	1701.31
537.72	1715.94
538.08	1730.46
538.44	1744.34
538.79	1758.31
539.15	1772.16
539.51	1786.05
539.87	1800.51
540.22	1814.48
540.58	1828.42
540.94	1841.82
541.29	1854.83
541.65	1867.55
542.01	1880.89
542.37	1893.23
542.72	1905.80
543.08	1917.60
543.44	1930.11
543.79	1941.55
544.15	1952.52
544.51	1964.12
544.87	1975.12
545.22	1985.96
545.58	1996.17
545.94	2006.03
546.29	2015.94
546.65	2025.94
547.01	2035.22
547.36	2043.99
547.72	2052.47
548.07	2060.43
548.43	2068.72
548.79	2076.78
549.14	2084.23
549.50	2091.54
549.86	2099.21
550.21	2106.51
550.57	2113.63
550.92	2120.17
551.28	2127.27
551.64	2134.37
551.99	2140.93
552.35	2146.98
552.70	2153.01
553.06	2158.92
553.41	2165.21
553.77	2171.26
554.13	2177.15
554.48	2183.21
554.84	2188.49
555.19	2193.71
555.55	2198.75
555.90	2203.19
556.26	2208.08
556.61	2212.82
556.97	2217.02
557.32	2221.16
557.68	2225.30
558.03	2229.65
558.39	2233.28
558.74	2237.85
559.10	2241.57
559.45	2244.94
559.81	2249.31
560.16	2253.06
560.52	2256.20
560.87	2259.57
561.23	2262.11
561.58	2265.00
561.94	2267.48
562.29	2270.07
562.64	2272.56
563.00	2275.10
563.35	2278.42
563.71	2281.36
564.06	2284.52
564.42	2287.38
564.77	2289.81
565.12	2291.91
565.48	2293.73
565.83	2295.42
566.19	2296.47
566.54	2297.48
566.89	2298.71
567.25	2298.99
567.60	2300.34
567.96	2301.98
568.31	2302.58
568.66	2303.33
569.02	2303.73
569.37	2303.90
569.72	2304.39
570.08	2304.40
570.43	2304.30
570.78	2303.56
571.14	2301.94
571.49	2300.38
571.84	2299.87
572.20	2298.35
572.55	2297.13
572.90	2295.33
573.26	2293.68
573.61	2291.90
573.96	2289.84
574.31	2286.64
574.67	2283.54
575.02	2279.73
575.37	2276.13
575.72	2272.13
576.08	2268.95
576.43	2265.50
576.78	2261.66
577.13	2258.39
577.49	2255.21
577.84	2251.57
578.19	2247.65
578.54	2243.70
578.90	2239.41
579.25	2233.72
579.60	2228.70
579.95	2223.52
580.30	2218.39
580.66	2213.15
581.01	2208.02
581.36	2202.93
581.71	2198.59
582.06	2194.01
582.42	2189.31
582.77	2183.93
583.12	2179.26
583.47	2174.10
583.82	2168.77
584.17	2163.38
584.53	2157.65
584.88	2151.91
585.23	2145.84
585.58	2140.32
585.93	2134.73
586.28	2129.68
586.63	2124.43
586.98	2119.32
587.34	2114.57
587.69	2109.54
588.04	2104.10
588.39	2098.23
588.74	2091.76
589.09	2085.59
589.44	2078.67
589.79	2072.54
590.14	2066.87
590.49	2060.21
590.84	2053.81
591.19	2047.80
591.54	2041.34
591.89	2033.72
592.25	2026.65
592.60	2019.41
592.95	2011.60
593.30	2004.23
593.65	1996.53
594.00	1989.32
594.35	1982.01
594.70	1973.78
595.05	1966.49
595.40	1959.22
595.75	1951.68
596.10	1945.20
596.45	1938.09
596.80	1931.88
597.15	1925.06
597.50	1917.73
597.85	1911.29
598.19	1904.69
598.54	1897.52
598.89	1890.66
599.24	1884.86
599.59	1878.09
599.94	1871.89
600.29	1865.58
600.64	1859.01
600.99	1851.57
601.34	1844.72
601.69	1837.56
602.04	1830.54
602.39	1823.11
602.74	1816.29
603.08	1809.49
603.43	1802.87
603.78	1795.86
604.13	1788.55
604.48	1781.27
604.83	1774.50
605.18	1767.31
605.53	1759.17
605.87	1751.26
606.22	1744.12
606.57	1736.29
606.92	1729.03
607.27	1721.77
607.62	1714.73
607.96	1707.38
608.31	1700.80
608.66	1693.21
609.01	1685.71
609.36	1678.35
609.70	1670.36
610.05	1662.21
610.40	1654.63
610.75	1646.35
611.10	1638.64
611.44	1630.38
611.79	1622.38
612.14	1613.71
612.49	1604.89
612.83	1596.56
613.18	1588.31
613.53	1580.32
613.88	1571.73
614.22	1563.47
614.57	1555.02
614.92	1547.28
615.27	1539.74
615.61	1531.46
615.96	1523.46
616.31	1515.93
616.65	1508.53
617.00	1501.19
617.35	1493.60
617.70	1485.18
618.04	1476.52
618.39	1468.39
618.74	1460.85
619.08	1452.72
619.43	1445.21
619.78	1438.25
620.12	1431.12
620.47	1423.66
620.82	1415.44
621.16	1408.03
621.51	1400.46
621.85	1392.85
622.20	1384.21
622.55	1375.98
622.89	1368.19
623.24	1360.63
623.59	1353.32
623.93	1345.92
624.28	1338.65
624.62	1331.07
624.97	1323.91
625.32	1317.21
625.66	1310.08
626.01	1302.83
626.35	1295.36
626.70	1287.58
627.04	1279.79
627.39	1272.08
627.73	1264.68
628.08	1257.75
628.43	1250.46
628.77	1243.28
629.12	1235.67
629.46	1228.51
629.81	1221.15
630.15	1213.93
630.50	1206.48
630.84	1198.25
631.19	1190.37
631.53	1182.84
631.88	1175.31
632.22	1167.81
632.57	1160.61
632.91	1153.17
633.26	1145.76
633.60	1138.48
633.95	1131.54
634.29	1124.56
634.64	1117.89
634.98	1110.71
635.32	1103.70
635.67	1097.25
636.01	1090.58
636.36	1083.76
636.70	1077.34
637.05	1070.80
637.39	1064.46
637.73	1058.11
638.08	1052.34
638.42	1046.35
638.77	1039.88
639.11	1033.40
639.45	1027.04
639.80	1020.40
640.14	1014.03
640.49	1007.59
640.83	1001.36
641.17	995.15
641.52	988.80
641.86	982.46
642.20	976.57
642.55	970.36
642.89	963.94
643.23	957.49
643.58	951.82
643.92	945.62
644.26	939.53
644.61	933.52
644.95	927.52
645.29	920.90
645.64	914.18
645.98	907.97
646.32	902.14
646.66	896.21
647.01	890.57
647.35	884.91
647.69	879.12
648.04	873.58
648.38	867.80
648.72	861.89
649.06	855.92
649.41	850.13
649.75	844.15
650.09	838.17
650.43	832.35
650.78	826.29
651.12	820.37
651.46	814.64
651.80	808.82
652.14	803.53
652.49	798.29
652.83	793.17
653.17	787.48
653.51	781.83
653.85	776.49
654.20	770.83
654.54	764.87
654.88	759.17
655.22	753.39
655.56	747.79
655.90	742.43
656.25	737.15
656.59	731.73
656.93	726.64
657.27	721.54
657.61	716.20
657.95	711.10
658.29	706.11
658.64	700.97
658.98	695.77
659.32	690.30
659.66	685.08
660.00	679.80
660.34	674.92
660.68	670.04
661.02	664.97
661.36	660.19
661.70	655.63
662.05	651.31
662.39	646.96
662.73	642.52
663.07	638.20
663.41	633.73
663.75	629.28
664.09	624.78
664.43	620.43
664.77	616.30
665.11	612.04
665.45	607.90
665.79	603.82
666.13	599.69
666.47	595.64
666.81	591.54
667.15	587.43
667.49	583.55
667.83	579.80
668.17	575.91
668.51	571.89
668.85	567.95
669.19	564.10
669.53	560.26
669.87	556.39
670.21	552.71
670.55	549.14
670.89	545.73
671.23	542.30
671.57	538.79
671.91	535.25
672.25	531.77
672.58	528.35
672.92	525.03
673.26	521.89
673.60	518.76
673.94	515.59
674.28	512.74
674.62	509.81
674.96	506.69
675.30	503.79
675.64	500.94
675.97	498.19
676.31	495.38
676.65	492.49
676.99	489.80
677.33	486.96
677.67	484.17
678.01	481.18
678.34	478.25
678.68	475.42
679.02	472.66
679.36	469.95
679.70	467.22
680.04	464.43
680.37	461.62
680.71	458.86
681.05	456.34
681.39	453.66
681.73	451.06
682.06	448.57
682.40	446.04
682.74	443.53
683.08	441.02
683.42	438.41
683.75	435.96
684.09	433.48
684.43	431.03
684.77	428.55
685.10	426.31
685.44	424.01
685.78	421.73
686.12	419.53
686.45	417.29
686.79	415.01
687.13	412.86
687.46	410.68
687.80	408.56
688.14	406.37
688.48	404.34
688.81	402.10
689.15	399.98
689.49	397.87
689.82	395.83
690.16	393.76
690.50	391.87
690.83	389.93
691.17	387.95
691.51	386.08
691.84	384.31
692.18	382.32
692.52	380.33
692.85	378.41
693.19	376.54
693.52	374.77
693.86	373.04
694.20	371.27
694.53	369.53
694.87	367.70
695.21	365.96
695.54	364.11
695.88	362.43
696.21	360.75
696.55	359.09
696.88	357.43
697.22	355.83
697.56	354.19
697.89	352.53
698.23	350.90
698.56	349.30
698.90	347.68
699.23	346.08
699.57	344.56
699.90	343.03
700.24	341.48
700.58	339.93
700.91	338.39
701.25	336.95
701.58	335.57
701.92	334.19
702.25	332.80
702.59	331.44
702.92	330.12
703.26	328.79
703.59	327.56
703.93	326.35
704.26	325.12
704.60	323.87
704.93	322.66
705.26	321.43
705.60	320.24
705.93	319.09
706.27	318.05
706.60	317.02
706.94	315.95
707.27	314.81
707.61	313.76
707.94	312.70
708.27	311.65
708.61	310.55
708.94	309.57
709.28	308.57
709.61	307.65
709.94	306.67
710.28	305.65
710.61	304.63
710.95	303.57
711.28	302.65
711.61	301.68
711.95	300.73
712.28	299.77
712.61	298.80
712.95	297.85
713.28	296.98
713.61	296.05
713.95	295.17
714.28	294.35
714.61	293.44
714.95	292.66
715.28	291.79
715.61	290.93
715.95	290.05
716.28	289.21
716.61	288.35
716.95	287.52
717.28	286.78
717.61	286.02
717.94	285.29
718.28	284.47
718.61	283.75
718.94	283.07
719.27	282.43
719.61	281.81
719.94	281.20
720.27	280.46
720.60	279.83
720.94	279.20
721.27	278.59
721.60	278.08
721.93	277.47
722.27	276.91
722.60	276.38
722.93	275.81
723.26	275.27
723.59	274.73
723.93	274.18
724.26	273.62
724.59	273.08
724.92	272.55
725.25	272.04
725.59	271.57
725.92	271.07
726.25	270.60
726.58	270.15
726.91	269.68
727.24	269.24
727.57	268.78
727.91	268.29
728.24	267.86
728.57	267.35
728.90	266.93
729.23	266.47
729.56	266.05
729.89	265.58
730.22	265.13
730.55	264.71
730.89	264.31
731.22	263.91
731.55	263.52
731.88	263.10
732.21	262.72
732.54	262.27
732.87	261.88
733.20	261.43
733.53	261.02
733.86	260.60
734.19	260.20
734.52	259.85
734.85	259.55
735.18	259.14
735.51	258.79
735.84	258.40
736.17	258.05
736.50	257.67
736.83	257.48
737.16	257.13
737.49	256.76
737.82	256.42
738.15	256.06
738.48	255.71
738.81	255.42
739.14	255.10
739.47	254.76
739.80	254.45
740.13	254.17
740.46	253.85
740.79	253.53
741.12	253.22
741.45	252.87
741.78	252.51
742.11	252.22
742.44	251.92
742.77	251.63
743.10	251.30
743.43	251.01
743.75	250.59
744.08	250.45
744.41	250.15
744.74	249.85
745.07	249.56
745.40	249.30
745.73	249.01
746.06	248.74
746.39	248.50
746.71	248.23
747.04	247.97
747.37	247.68
747.70	247.44
748.03	247.20
748.36	246.95
748.68	246.71
749.01	246.44
749.34	246.18
749.67	245.93
750.00	245.71
750.33	245.54
750.65	245.33
750.98	244.98
751.31	244.79
751.64	244.58
751.97	244.44
752.29	244.22
752.62	243.99
752.95	243.72
753.28	243.51
753.60	243.28
753.93	243.09
754.26	242.88
754.59	242.64
754.91	242.45
755.24	242.26
755.57	242.06
755.90	241.88
756.22	241.70
756.55	241.49
756.88	241.28
757.20	241.04
757.53	240.81
757.86	240.67
758.19	240.49
758.51	240.37
758.84	240.18
759.17	240.02
759.49	239.86
759.82	239.78
760.15	239.66
760.47	239.52
760.80	239.35
761.13	239.26
761.45	239.13
761.78	238.98
762.11	238.85
762.43	238.74
762.76	238.60
763.08	238.50
763.41	238.39
763.74	238.28
764.06	238.16
764.39	238.06
764.71	237.91
765.04	237.77
765.37	237.64
765.69	237.48
766.02	237.35
766.34	237.24
766.67	237.06
767.00	236.97
767.32	236.92
767.65	236.88
767.97	236.75
768.30	236.67
768.62	236.55
768.95	236.43
769.27	236.29
769.60	236.20
769.92	236.07
770.25	235.95
770.57	235.82
770.90	235.71
771.22	235.58
771.55	235.50
771.87	235.41
772.20	235.29
772.52	235.28
772.85	235.31
773.17	235.21
773.50	235.15
773.82	235.00
774.15	234.85
774.47	234.68
774.80	234.58
775.12	234.45
775.45	234.40
775.77	234.33
776.09	234.26
776.42	234.18
776.74	234.15
777.07	234.08
777.39	234.03
777.72	233.95
778.04	233.92
778.36	233.84
778.69	233.77
779.01	233.72
779.33	233.57
779.66	233.33
779.98	233.26
780.31	233.16
780.63	233.13
780.95	233.06
781.28	232.97
781.60	232.89
781.92	232.84
782.25	232.76
782.57	232.66
782.89	232.58
783.22	232.51
783.54	232.41
783.86	232.32
784.19	232.24
784.51	232.23
784.83	232.13
785.16	232.08
785.48	232.00
785.80	231.94
786.12	231.91
786.45	231.90
786.77	231.84
787.09	231.81
