SpectraSuite Data File
++++++++++++++++++++++++++++++++++++
Date: Fri Feb 01 16:04:12 EST 2013
User: group
Dark Spectrum Present: No
Reference Spectrum Present: No
Number of Sampled Component Spectra: 1
Spectrometers: USB2E7196
Integration Time (usec): 35000 (USB2E7196)
Spectra Averaged: 100 (USB2E7196)
Boxcar Smoothing: 10 (USB2E7196)
Correct for Electrical Dark: No (USB2E7196)
Strobe/Lamp Enabled: No (USB2E7196)
Correct for Detector Non-linearity: No (USB2E7196)
Correct for Stray Light: No (USB2E7196)
Number of Pixels in Processed Spectrum: 2048
>>>>>Begin Processed Spectral Data<<<<<
339.09	0.00
339.48	215.09
339.86	216.13
340.24	217.66
340.63	218.67
341.01	221.59
341.39	221.80
341.78	223.44
342.16	224.81
342.54	225.45
342.93	213.31
343.31	224.10
343.69	224.66
344.07	225.15
344.46	225.58
344.84	225.96
345.22	226.21
345.60	226.45
345.99	226.66
346.37	226.77
346.75	226.85
347.13	226.94
347.52	227.03
347.90	227.09
348.28	227.09
348.66	227.15
349.05	227.16
349.43	227.19
349.81	227.24
350.19	227.28
350.57	227.31
350.96	227.38
351.34	227.47
351.72	227.49
352.10	227.55
352.48	227.65
352.87	227.69
353.25	227.76
353.63	227.82
354.01	227.87
354.39	227.92
354.77	228.01
355.15	228.09
355.54	228.13
355.92	228.20
356.30	228.30
356.68	228.42
357.06	228.45
357.44	228.50
357.82	228.55
358.20	228.61
358.58	228.66
358.97	228.69
359.35	228.76
359.73	228.86
360.11	228.89
360.49	228.90
360.87	228.97
361.25	229.02
361.63	229.08
362.01	229.09
362.39	229.13
362.77	229.12
363.15	229.13
363.53	229.14
363.91	229.15
364.29	229.13
364.67	229.04
365.05	229.05
365.43	229.06
365.81	229.04
366.19	229.09
366.57	229.13
366.95	229.12
367.33	229.06
367.71	229.04
368.09	229.07
368.47	229.07
368.85	229.04
369.23	229.00
369.61	228.92
369.99	228.93
370.37	228.88
370.75	228.91
371.13	228.87
371.51	228.80
371.89	228.73
372.27	228.72
372.65	228.67
373.03	228.64
373.41	228.59
373.78	228.56
374.16	228.47
374.54	228.35
374.92	228.28
375.30	228.23
375.68	228.15
376.06	228.06
376.44	227.97
376.82	227.89
377.19	227.85
377.57	227.79
377.95	227.70
378.33	227.64
378.71	227.52
379.09	227.48
379.47	227.44
379.84	227.38
380.22	227.31
380.60	227.24
380.98	227.16
381.36	227.10
381.73	226.99
382.11	226.94
382.49	226.93
382.87	226.87
383.25	226.80
383.62	226.91
384.00	226.85
384.38	226.84
384.76	226.85
385.13	226.84
385.51	226.82
385.89	226.80
386.27	226.77
386.64	226.73
387.02	226.68
387.40	226.64
387.78	226.61
388.15	226.57
388.53	226.52
388.91	226.51
389.29	226.47
389.66	226.50
390.04	226.45
390.42	226.43
390.79	226.43
391.17	226.43
391.55	226.31
391.92	226.28
392.30	226.25
392.68	226.21
393.05	226.21
393.43	226.19
393.81	226.21
394.18	226.18
394.56	226.20
394.94	226.25
395.31	226.27
395.69	226.31
396.06	226.35
396.44	226.41
396.82	226.45
397.19	226.54
397.57	226.56
397.95	226.65
398.32	226.66
398.70	226.72
399.07	226.76
399.45	226.80
399.82	226.90
400.20	226.95
400.58	227.03
400.95	227.03
401.33	227.14
401.70	227.27
402.08	227.35
402.45	227.45
402.83	227.53
403.20	227.60
403.58	227.67
403.95	227.80
404.33	227.91
404.71	228.03
405.08	228.18
405.46	228.33
405.83	228.42
406.21	228.55
406.58	228.72
406.96	228.89
407.33	229.05
407.70	229.23
408.08	229.51
408.45	229.70
408.83	229.98
409.20	230.18
409.58	230.36
409.95	230.62
410.33	230.87
410.70	231.13
411.08	231.47
411.45	231.77
411.82	232.05
412.20	232.40
412.57	232.82
412.95	233.13
413.32	233.52
413.69	233.98
414.07	234.42
414.44	234.87
414.82	235.37
415.19	235.87
415.56	236.44
415.94	236.98
416.31	237.60
416.68	238.21
417.06	238.90
417.43	239.57
417.81	240.35
418.18	241.12
418.55	241.93
418.93	242.82
419.30	243.73
419.67	244.66
420.04	245.61
420.42	246.58
420.79	247.76
421.16	248.92
421.54	250.11
421.91	251.33
422.28	252.58
422.66	253.88
423.03	255.22
423.40	256.59
423.77	257.98
424.15	259.42
424.52	260.92
424.89	262.56
425.26	264.10
425.64	265.55
426.01	267.13
426.38	268.80
426.75	270.43
427.13	272.16
427.50	274.00
427.87	275.91
428.24	277.77
428.61	279.51
428.99	281.45
429.36	283.57
429.73	285.64
430.10	287.67
430.47	289.74
430.85	291.86
431.22	294.03
431.59	296.42
431.96	298.69
432.33	301.19
432.70	303.55
433.08	306.40
433.45	309.06
433.82	311.70
434.19	314.60
434.56	317.45
434.93	320.11
435.30	322.71
435.68	325.58
436.05	328.40
436.42	331.20
436.79	333.70
437.16	336.42
437.53	339.22
437.90	342.03
438.27	344.81
438.64	347.64
439.01	350.31
439.38	352.59
439.75	354.81
440.13	357.32
440.50	359.66
440.87	361.51
441.24	363.41
441.61	365.63
441.98	367.08
442.35	368.87
442.72	370.74
443.09	372.57
443.46	373.56
443.83	374.13
444.20	374.60
444.57	375.45
444.94	375.69
445.31	376.02
445.68	376.35
446.05	376.32
446.42	375.95
446.79	375.44
447.16	374.98
447.53	374.64
447.90	373.45
448.27	372.22
448.64	370.62
449.01	369.51
449.37	367.47
449.74	365.59
450.11	363.31
450.48	360.81
450.85	358.26
451.22	356.10
451.59	354.11
451.96	352.16
452.33	349.48
452.70	347.13
453.07	344.33
453.43	341.50
453.80	338.78
454.17	336.07
454.54	333.54
454.91	330.77
455.28	328.07
455.65	325.56
456.02	323.19
456.38	321.03
456.75	318.38
457.12	316.13
457.49	313.94
457.86	311.80
458.23	309.95
458.59	307.91
458.96	305.85
459.33	303.98
459.70	302.13
460.07	300.71
460.43	298.99
460.80	297.36
461.17	295.90
461.54	294.43
461.91	292.99
462.27	291.53
462.64	290.30
463.01	288.93
463.38	287.61
463.74	286.18
464.11	285.01
464.48	283.95
464.85	282.86
465.21	281.97
465.58	281.02
465.95	279.92
466.32	278.99
466.68	278.08
467.05	277.17
467.42	276.27
467.78	275.28
468.15	274.42
468.52	273.75
468.88	272.85
469.25	272.10
469.62	271.49
469.98	270.84
470.35	270.21
470.72	269.60
471.08	268.98
471.45	268.48
471.82	267.95
472.18	267.34
472.55	266.89
472.92	266.33
473.28	265.89
473.65	265.43
474.02	265.02
474.38	264.63
474.75	264.33
475.11	263.98
475.48	263.74
475.85	263.50
476.21	263.27
476.58	263.14
476.94	262.93
477.31	262.76
477.67	262.60
478.04	262.51
478.41	262.49
478.77	262.55
479.14	262.49
479.50	262.47
479.87	262.56
480.23	262.62
480.60	262.70
480.96	262.78
481.33	262.99
481.69	263.15
482.06	263.37
482.42	263.58
482.79	263.86
483.15	264.18
483.52	264.57
483.88	264.93
484.25	265.29
484.61	265.73
484.98	266.22
485.34	266.77
485.71	267.33
486.07	267.93
486.44	268.48
486.80	269.18
487.17	269.91
487.53	270.72
487.90	271.63
488.26	272.57
488.62	273.56
488.99	274.57
489.35	275.63
489.72	276.75
490.08	277.93
490.44	279.16
490.81	280.53
491.17	281.85
491.54	283.35
491.90	284.87
492.26	286.56
492.63	288.33
492.99	290.13
493.36	292.09
493.72	294.13
494.08	296.21
494.45	298.48
494.81	300.93
495.17	303.36
495.54	305.92
495.90	308.61
496.26	311.40
496.63	314.35
496.99	317.51
497.35	320.79
497.72	324.23
498.08	327.78
498.44	331.45
498.80	335.40
499.17	339.50
499.53	343.69
499.89	348.04
500.26	352.54
500.62	357.20
500.98	362.14
501.34	367.20
501.71	372.57
502.07	378.02
502.43	383.57
502.79	389.42
503.16	395.51
503.52	401.86
503.88	408.28
504.24	414.97
504.60	421.82
504.97	428.93
505.33	436.31
505.69	444.05
506.05	451.82
506.41	459.71
506.78	467.83
507.14	476.35
507.50	485.11
507.86	494.08
508.22	503.27
508.59	512.53
508.95	522.16
509.31	531.92
509.67	541.99
510.03	552.34
510.39	562.90
510.75	573.71
511.12	584.56
511.48	595.86
511.84	607.26
512.20	618.78
512.56	630.74
512.92	642.94
513.28	655.18
513.64	667.69
514.00	680.42
514.37	693.32
514.73	706.36
515.09	719.39
515.45	732.70
515.81	746.31
516.17	760.27
516.53	774.38
516.89	788.65
517.25	802.90
517.61	817.36
517.97	831.81
518.33	846.22
518.69	861.01
519.05	876.10
519.41	891.25
519.77	906.73
520.13	922.23
520.49	937.52
520.85	953.05
521.21	968.72
521.57	984.91
521.93	1000.66
522.29	1017.04
522.65	1033.28
523.01	1049.41
523.37	1065.46
523.73	1081.57
524.09	1097.61
524.45	1113.79
524.81	1130.34
525.17	1147.04
525.53	1164.02
525.89	1180.89
526.25	1197.64
526.61	1213.89
526.97	1230.56
527.33	1247.09
527.68	1263.63
528.04	1280.09
528.40	1296.60
528.76	1313.62
529.12	1330.12
529.48	1347.11
529.84	1363.02
530.20	1379.65
530.56	1396.65
530.91	1413.98
531.27	1430.74
531.63	1447.21
531.99	1463.88
532.35	1479.78
532.71	1495.68
533.07	1511.74
533.42	1527.60
533.78	1543.66
534.14	1559.97
534.50	1575.44
534.86	1591.18
535.21	1606.27
535.57	1622.15
535.93	1637.63
536.29	1652.33
536.65	1667.34
537.00	1681.96
537.36	1697.31
537.72	1711.65
538.08	1726.04
538.44	1739.64
538.79	1753.35
539.15	1766.85
539.51	1780.27
539.87	1794.49
540.22	1808.00
540.58	1821.61
540.94	1834.79
541.29	1847.44
541.65	1859.95
542.01	1872.91
542.37	1885.15
542.72	1897.50
543.08	1909.21
543.44	1921.44
543.79	1932.64
544.15	1943.68
544.51	1955.18
544.87	1965.88
545.22	1976.74
545.58	1986.88
545.94	1996.70
546.29	2006.65
546.65	2016.66
547.01	2026.01
547.36	2034.75
547.72	2043.33
548.07	2051.22
548.43	2059.38
548.79	2067.59
549.14	2075.20
549.50	2082.63
549.86	2090.47
550.21	2097.92
550.57	2105.16
550.92	2111.81
551.28	2118.97
551.64	2125.89
551.99	2132.43
552.35	2138.78
552.70	2144.76
553.06	2150.66
553.41	2157.05
553.77	2163.06
554.13	2169.03
554.48	2175.27
554.84	2180.73
555.19	2185.93
555.55	2191.13
555.90	2195.68
556.26	2200.56
556.61	2205.30
556.97	2209.53
557.32	2213.52
557.68	2217.54
558.03	2221.79
558.39	2225.53
558.74	2230.17
559.10	2234.08
559.45	2237.83
559.81	2242.18
560.16	2246.20
560.52	2249.54
560.87	2253.08
561.23	2255.75
561.58	2258.76
561.94	2261.28
562.29	2263.60
562.64	2266.41
563.00	2268.90
563.35	2272.49
563.71	2275.57
564.06	2278.78
564.42	2281.70
564.77	2284.31
565.12	2286.61
565.48	2288.48
565.83	2290.33
566.19	2291.62
566.54	2292.49
566.89	2293.62
567.25	2294.24
567.60	2295.52
567.96	2297.19
568.31	2297.91
568.66	2299.01
569.02	2299.66
569.37	2299.99
569.72	2301.01
570.08	2301.12
570.43	2301.23
570.78	2300.65
571.14	2299.09
571.49	2297.61
571.84	2297.36
572.20	2296.16
572.55	2295.07
572.90	2293.52
573.26	2292.12
573.61	2290.39
573.96	2288.84
574.31	2285.72
574.67	2282.72
575.02	2279.21
575.37	2275.90
575.72	2272.18
576.08	2268.79
576.43	2265.40
576.78	2261.75
577.13	2258.68
577.49	2255.68
577.84	2252.16
578.19	2248.28
578.54	2244.62
578.90	2240.47
579.25	2234.85
579.60	2229.97
579.95	2225.15
580.30	2220.22
580.66	2214.94
581.01	2210.03
581.36	2205.10
581.71	2201.13
582.06	2196.53
582.42	2191.92
582.77	2186.74
583.12	2182.19
583.47	2177.47
583.82	2172.51
584.17	2167.21
584.53	2161.52
584.88	2155.80
585.23	2150.22
585.58	2144.86
585.93	2139.50
586.28	2134.91
586.63	2129.95
586.98	2124.91
587.34	2120.08
587.69	2115.07
588.04	2109.94
588.39	2104.26
588.74	2097.70
589.09	2091.53
589.44	2084.83
589.79	2078.99
590.14	2073.47
590.49	2066.87
590.84	2060.61
591.19	2054.64
591.54	2048.36
591.89	2041.13
592.25	2034.39
592.60	2027.16
592.95	2019.49
593.30	2012.18
593.65	2004.54
594.00	1997.47
594.35	1990.01
594.70	1982.02
595.05	1974.92
595.40	1967.60
595.75	1960.17
596.10	1954.00
596.45	1947.25
596.80	1941.15
597.15	1934.46
597.50	1927.19
597.85	1920.74
598.19	1914.06
598.54	1906.82
598.89	1900.01
599.24	1894.10
599.59	1887.37
599.94	1881.17
600.29	1874.91
600.64	1868.32
600.99	1860.82
601.34	1853.93
601.69	1847.20
602.04	1840.42
602.39	1833.14
602.74	1826.38
603.08	1819.61
603.43	1812.95
603.78	1805.57
604.13	1798.26
604.48	1790.85
604.83	1784.03
605.18	1777.03
605.53	1769.04
605.87	1761.04
606.22	1753.79
606.57	1745.69
606.92	1738.29
607.27	1731.09
607.62	1724.02
607.96	1716.65
608.31	1710.00
608.66	1702.27
609.01	1694.58
609.36	1686.94
609.70	1678.80
610.05	1670.63
610.40	1662.93
610.75	1654.35
611.10	1646.60
611.44	1638.16
611.79	1630.34
612.14	1621.63
612.49	1612.48
612.83	1604.08
613.18	1595.94
613.53	1587.82
613.88	1579.36
614.22	1571.19
614.57	1562.60
614.92	1554.75
615.27	1547.22
615.61	1538.83
615.96	1530.91
616.31	1523.37
616.65	1515.97
617.00	1508.41
617.35	1500.88
617.70	1492.55
618.04	1484.28
618.39	1476.12
618.74	1468.59
619.08	1460.15
619.43	1452.66
619.78	1445.85
620.12	1438.57
620.47	1431.05
620.82	1422.90
621.16	1415.51
621.51	1407.88
621.85	1400.19
622.20	1391.69
622.55	1383.31
622.89	1375.58
623.24	1367.99
623.59	1360.61
623.93	1353.05
624.28	1345.93
624.62	1338.35
624.97	1331.18
625.32	1324.38
625.66	1317.29
626.01	1310.13
626.35	1302.78
626.70	1294.99
627.04	1287.22
627.39	1279.48
627.73	1272.16
628.08	1265.21
628.43	1258.05
628.77	1250.71
629.12	1243.25
629.46	1236.03
629.81	1228.82
630.15	1221.53
630.50	1214.12
630.84	1205.95
631.19	1197.99
631.53	1190.43
631.88	1182.96
632.22	1175.34
632.57	1168.09
632.91	1160.63
633.26	1153.18
633.60	1145.79
633.95	1138.72
634.29	1131.60
634.64	1124.96
634.98	1117.62
635.32	1110.58
635.67	1103.84
636.01	1097.17
636.36	1090.29
636.70	1083.77
637.05	1077.10
637.39	1070.72
637.73	1064.18
638.08	1058.26
638.42	1052.28
638.77	1045.87
639.11	1039.26
639.45	1032.88
639.80	1026.12
640.14	1019.74
640.49	1013.18
640.83	1006.84
641.17	1000.55
641.52	994.26
641.86	987.81
642.20	981.98
642.55	975.63
642.89	969.18
643.23	962.68
643.58	956.86
643.92	950.68
644.26	944.57
644.61	938.43
644.95	932.50
645.29	925.87
645.64	919.16
645.98	912.79
646.32	906.85
646.66	900.77
647.01	895.05
647.35	889.36
647.69	883.58
648.04	878.01
648.38	872.22
648.72	866.22
649.06	860.21
649.41	854.28
649.75	848.34
650.09	842.38
650.43	836.59
650.78	830.56
651.12	824.62
651.46	818.95
651.80	813.25
652.14	807.79
652.49	802.49
652.83	797.37
653.17	791.65
653.51	785.94
653.85	780.60
654.20	774.96
654.54	768.94
654.88	763.16
655.22	757.33
655.56	751.64
655.90	746.22
656.25	741.00
656.59	735.60
656.93	730.52
657.27	725.39
657.61	719.91
657.95	714.72
658.29	709.62
658.64	704.36
658.98	699.05
659.32	693.60
659.66	688.40
660.00	683.04
660.34	678.15
660.68	673.31
661.02	668.29
661.36	663.52
661.70	659.02
662.05	654.61
662.39	650.28
662.73	645.82
663.07	641.41
663.41	636.91
663.75	632.45
664.09	627.89
664.43	623.49
664.77	619.41
665.11	615.13
665.45	611.00
665.79	606.93
666.13	602.83
666.47	598.74
666.81	594.53
667.15	590.44
667.49	586.51
667.83	582.67
668.17	578.68
668.51	574.64
668.85	570.60
669.19	566.82
669.53	562.97
669.87	559.12
670.21	555.42
670.55	551.83
670.89	548.46
671.23	545.01
671.57	541.45
671.91	537.95
672.25	534.50
672.58	530.97
672.92	527.54
673.26	524.38
673.60	521.24
673.94	518.16
674.28	515.25
674.62	512.33
674.96	509.23
675.30	506.36
675.64	503.41
675.97	500.63
676.31	497.72
676.65	494.86
676.99	492.14
677.33	489.29
677.67	486.49
678.01	483.42
678.34	480.45
678.68	477.61
679.02	474.75
679.36	471.98
679.70	469.27
680.04	466.48
680.37	463.58
680.71	460.74
681.05	458.11
681.39	455.42
681.73	452.74
682.06	450.21
682.40	447.63
682.74	445.12
683.08	442.60
683.42	440.01
683.75	437.44
684.09	434.88
684.43	432.38
684.77	429.86
685.10	427.43
685.44	425.10
685.78	422.79
686.12	420.51
686.45	418.22
686.79	415.96
687.13	413.74
687.46	411.60
687.80	409.52
688.14	407.29
688.48	405.15
688.81	402.88
689.15	400.70
689.49	398.55
689.82	396.48
690.16	394.40
690.50	392.43
690.83	390.49
691.17	388.50
691.51	386.57
691.84	384.73
692.18	382.88
692.52	380.92
692.85	378.98
693.19	377.14
693.52	375.27
693.86	373.41
694.20	371.66
694.53	369.83
694.87	367.93
695.21	366.15
695.54	364.38
695.88	362.68
696.21	360.97
696.55	359.28
696.88	357.60
697.22	355.94
697.56	354.35
697.89	352.68
698.23	351.09
698.56	349.50
698.90	347.88
699.23	346.25
699.57	344.72
699.90	343.19
700.24	341.64
700.58	340.17
700.91	338.68
701.25	337.21
701.58	335.83
701.92	334.47
702.25	333.07
702.59	331.67
702.92	330.32
703.26	328.98
703.59	327.70
703.93	326.47
704.26	325.22
704.60	323.88
704.93	322.65
705.26	321.37
705.60	320.17
705.93	319.03
706.27	317.96
706.60	316.87
706.94	315.78
707.27	314.64
707.61	313.58
707.94	312.56
708.27	311.49
708.61	310.40
708.94	309.41
709.28	308.42
709.61	307.48
709.94	306.54
710.28	305.57
710.61	304.62
710.95	303.53
711.28	302.61
711.61	301.68
711.95	300.75
712.28	299.81
712.61	298.85
712.95	297.90
713.28	297.00
713.61	296.11
713.95	295.20
714.28	294.38
714.61	293.48
714.95	292.62
715.28	291.74
715.61	290.89
715.95	290.00
716.28	289.13
716.61	288.29
716.95	287.47
717.28	286.71
717.61	285.94
717.94	285.24
718.28	284.42
718.61	283.67
718.94	282.98
719.27	282.30
719.61	281.68
719.94	281.02
720.27	280.32
720.60	279.63
720.94	278.99
721.27	278.43
721.60	277.82
721.93	277.22
722.27	276.66
722.60	276.15
722.93	275.62
723.26	275.08
723.59	274.52
723.93	273.96
724.26	273.39
724.59	272.83
724.92	272.33
725.25	271.82
725.59	271.32
725.92	270.81
726.25	270.29
726.58	269.74
726.91	269.21
727.24	268.73
727.57	268.27
727.91	267.81
728.24	267.29
728.57	266.85
728.90	266.39
729.23	265.92
729.56	265.47
729.89	264.99
730.22	264.51
730.55	264.05
730.89	263.60
731.22	263.18
731.55	262.70
731.88	262.26
732.21	261.84
732.54	261.40
732.87	261.00
733.20	260.59
733.53	260.24
733.86	259.89
734.19	259.51
734.52	259.16
734.85	258.86
735.18	258.43
735.51	258.07
735.84	257.74
736.17	257.39
736.50	256.95
736.83	256.77
737.16	256.43
737.49	256.12
737.82	255.80
738.15	255.46
738.48	255.13
738.81	254.82
739.14	254.49
739.47	254.22
739.80	253.91
740.13	253.68
740.46	253.35
740.79	253.05
741.12	252.72
741.45	252.38
741.78	252.05
742.11	251.80
742.44	251.49
742.77	251.21
743.10	250.88
743.43	250.62
743.75	250.19
744.08	250.06
744.41	249.76
744.74	249.47
745.07	249.19
745.40	248.97
745.73	248.70
746.06	248.44
746.39	248.13
746.71	247.85
747.04	247.55
747.37	247.30
747.70	247.03
748.03	246.78
748.36	246.57
748.68	246.31
749.01	246.05
749.34	245.83
749.67	245.55
750.00	245.36
750.33	245.21
750.65	245.00
750.98	244.66
751.31	244.46
751.64	244.30
751.97	244.14
752.29	243.87
752.62	243.64
752.95	243.41
753.28	243.23
753.60	242.98
753.93	242.80
754.26	242.58
754.59	242.37
754.91	242.17
755.24	241.95
755.57	241.79
755.90	241.59
756.22	241.35
756.55	241.15
756.88	240.95
757.20	240.68
757.53	240.48
757.86	240.31
758.19	240.13
758.51	239.90
758.84	239.67
759.17	239.54
759.49	239.40
759.82	239.30
760.15	239.13
760.47	239.00
760.80	238.83
761.13	238.71
761.45	238.51
761.78	238.36
762.11	238.22
762.43	238.05
762.76	237.93
763.08	237.82
763.41	237.74
763.74	237.59
764.06	237.50
764.39	237.35
764.71	237.22
765.04	237.08
765.37	236.95
765.69	236.85
766.02	236.70
766.34	236.56
766.67	236.41
767.00	236.31
767.32	236.26
767.65	236.18
767.97	236.07
768.30	236.02
768.62	235.92
768.95	235.79
769.27	235.69
769.60	235.55
769.92	235.43
770.25	235.30
770.57	235.19
770.90	235.09
771.22	235.00
771.55	234.89
771.87	234.82
772.20	234.75
772.52	234.72
772.85	234.75
773.17	234.67
773.50	234.57
773.82	234.48
774.15	234.36
774.47	234.23
774.80	234.13
775.12	234.07
775.45	233.96
775.77	233.91
776.09	233.83
776.42	233.79
776.74	233.77
777.07	233.68
777.39	233.62
777.72	233.53
778.04	233.49
778.36	233.44
778.69	233.39
779.01	233.33
779.33	233.21
779.66	233.03
779.98	232.99
780.31	232.95
780.63	232.92
780.95	232.85
781.28	232.78
781.60	232.72
781.92	232.64
782.25	232.59
782.57	232.53
782.89	232.48
783.22	232.42
783.54	232.33
783.86	232.30
784.19	232.24
784.51	232.21
784.83	232.11
785.16	232.04
785.48	232.00
785.80	231.98
786.12	231.93
786.45	231.90
786.77	231.82
787.09	231.75
