SpectraSuite Data File
++++++++++++++++++++++++++++++++++++
Date: Fri Feb 01 14:56:40 EST 2013
User: group
Dark Spectrum Present: No
Reference Spectrum Present: No
Number of Sampled Component Spectra: 1
Spectrometers: USB2E7196
Integration Time (usec): 35000 (USB2E7196)
Spectra Averaged: 100 (USB2E7196)
Boxcar Smoothing: 10 (USB2E7196)
Correct for Electrical Dark: No (USB2E7196)
Strobe/Lamp Enabled: No (USB2E7196)
Correct for Detector Non-linearity: No (USB2E7196)
Correct for Stray Light: No (USB2E7196)
Number of Pixels in Processed Spectrum: 2048
>>>>>Begin Processed Spectral Data<<<<<
339.09	0.00
339.48	214.97
339.86	217.19
340.24	217.90
340.63	219.17
341.01	222.15
341.39	222.12
341.78	224.08
342.16	224.46
342.54	225.09
342.93	213.66
343.31	224.45
343.69	225.02
344.07	225.44
344.46	225.87
344.84	226.26
345.22	226.49
345.60	226.73
345.99	226.89
346.37	227.05
346.75	227.17
347.13	227.23
347.52	227.27
347.90	227.37
348.28	227.41
348.66	227.46
349.05	227.44
349.43	227.47
349.81	227.49
350.19	227.51
350.57	227.57
350.96	227.62
351.34	227.73
351.72	227.78
352.10	227.90
352.48	228.00
352.87	228.06
353.25	228.12
353.63	228.20
354.01	228.26
354.39	228.33
354.77	228.41
355.15	228.50
355.54	228.57
355.92	228.57
356.30	228.66
356.68	228.80
357.06	228.90
357.44	228.96
357.82	229.03
358.20	229.13
358.58	229.20
358.97	229.30
359.35	229.37
359.73	229.47
360.11	229.52
360.49	229.55
360.87	229.58
361.25	229.68
361.63	229.74
362.01	229.81
362.39	229.83
362.77	229.88
363.15	229.90
363.53	229.94
363.91	230.00
364.29	230.00
364.67	229.92
365.05	229.94
365.43	229.97
365.81	229.98
366.19	230.03
366.57	230.02
366.95	229.98
367.33	229.90
367.71	229.85
368.09	229.82
368.47	229.81
368.85	229.79
369.23	229.74
369.61	229.68
369.99	229.64
370.37	229.58
370.75	229.56
371.13	229.50
371.51	229.41
371.89	229.31
372.27	229.27
372.65	229.19
373.03	229.10
373.41	229.00
373.78	228.93
374.16	228.80
374.54	228.73
374.92	228.67
375.30	228.62
375.68	228.53
376.06	228.53
376.44	228.41
376.82	228.33
377.19	228.25
377.57	228.16
377.95	228.06
378.33	227.98
378.71	227.86
379.09	227.78
379.47	227.72
379.84	227.63
380.22	227.52
380.60	227.43
380.98	227.37
381.36	227.27
381.73	227.17
382.11	227.12
382.49	227.05
382.87	226.96
383.25	226.89
383.62	226.93
384.00	226.82
384.38	226.82
384.76	226.79
385.13	226.77
385.51	226.71
385.89	226.67
386.27	226.63
386.64	226.58
387.02	226.53
387.40	226.49
387.78	226.48
388.15	226.46
388.53	226.46
388.91	226.41
389.29	226.39
389.66	226.33
390.04	226.28
390.42	226.28
390.79	226.27
391.17	226.22
391.55	226.12
391.92	226.10
392.30	226.08
392.68	226.06
393.05	226.06
393.43	226.08
393.81	226.05
394.18	226.05
394.56	226.07
394.94	226.13
395.31	226.16
395.69	226.21
396.06	226.25
396.44	226.30
396.82	226.33
397.19	226.46
397.57	226.55
397.95	226.65
398.32	226.68
398.70	226.74
399.07	226.88
399.45	226.95
399.82	227.04
400.20	227.12
400.58	227.21
400.95	227.26
401.33	227.37
401.70	227.53
402.08	227.64
402.45	227.75
402.83	227.85
403.20	227.98
403.58	228.05
403.95	228.24
404.33	228.37
404.71	228.54
405.08	228.72
405.46	228.86
405.83	229.03
406.21	229.20
406.58	229.40
406.96	229.58
407.33	229.79
407.70	229.97
408.08	230.25
408.45	230.49
408.83	230.75
409.20	230.96
409.58	231.19
409.95	231.45
410.33	231.73
410.70	232.00
411.08	232.27
411.45	232.61
411.82	232.89
412.20	233.23
412.57	233.63
412.95	233.90
413.32	234.31
413.69	234.68
414.07	235.12
414.44	235.59
414.82	236.05
415.19	236.59
415.56	237.19
415.94	237.74
416.31	238.37
416.68	238.97
417.06	239.71
417.43	240.39
417.81	241.18
418.18	241.94
418.55	242.75
418.93	243.63
419.30	244.52
419.67	245.47
420.04	246.45
420.42	247.42
420.79	248.64
421.16	249.76
421.54	250.95
421.91	252.15
422.28	253.40
422.66	254.75
423.03	256.08
423.40	257.35
423.77	258.73
424.15	260.14
424.52	261.63
424.89	263.20
425.26	264.71
425.64	266.15
426.01	267.75
426.38	269.41
426.75	271.09
427.13	272.82
427.50	274.60
427.87	276.45
428.24	278.33
428.61	280.04
428.99	282.01
429.36	284.13
429.73	286.16
430.10	288.20
430.47	290.25
430.85	292.33
431.22	294.59
431.59	297.02
431.96	299.25
432.33	301.73
432.70	304.13
433.08	306.96
433.45	309.63
433.82	312.22
434.19	315.15
434.56	317.97
434.93	320.65
435.30	323.22
435.68	326.14
436.05	328.97
436.42	331.76
436.79	334.28
437.16	336.99
437.53	339.86
437.90	342.65
438.27	345.42
438.64	348.26
439.01	350.90
439.38	353.11
439.75	355.26
440.13	357.79
440.50	360.12
440.87	361.95
441.24	363.89
441.61	366.07
441.98	367.52
442.35	369.32
442.72	371.20
443.09	373.10
443.46	374.10
443.83	374.68
444.20	375.23
444.57	376.08
444.94	376.42
445.31	376.75
445.68	377.11
446.05	377.19
446.42	376.78
446.79	376.31
447.16	375.86
447.53	375.62
447.90	374.45
448.27	373.28
448.64	371.75
449.01	370.57
449.37	368.61
449.74	366.71
450.11	364.45
450.48	361.90
450.85	359.38
451.22	357.22
451.59	355.22
451.96	353.29
452.33	350.65
452.70	348.24
453.07	345.38
453.43	342.47
453.80	339.67
454.17	337.05
454.54	334.52
454.91	331.78
455.28	329.06
455.65	326.57
456.02	324.15
456.38	321.98
456.75	319.38
457.12	317.10
457.49	314.90
457.86	312.74
458.23	310.92
458.59	308.86
458.96	306.75
459.33	304.87
459.70	302.99
460.07	301.51
460.43	299.80
460.80	298.19
461.17	296.75
461.54	295.26
461.91	293.81
462.27	292.37
462.64	291.11
463.01	289.76
463.38	288.44
463.74	287.07
464.11	285.91
464.48	284.86
464.85	283.76
465.21	282.89
465.58	281.97
465.95	280.86
466.32	279.92
466.68	279.04
467.05	278.14
467.42	277.25
467.78	276.31
468.15	275.41
468.52	274.74
468.88	273.90
469.25	273.12
469.62	272.47
469.98	271.79
470.35	271.16
470.72	270.55
471.08	269.91
471.45	269.33
471.82	268.78
472.18	268.16
472.55	267.72
472.92	267.16
473.28	266.66
473.65	266.15
474.02	265.68
474.38	265.30
474.75	264.99
475.11	264.61
475.48	264.32
475.85	264.11
476.21	263.85
476.58	263.63
476.94	263.44
477.31	263.25
477.67	263.05
478.04	262.93
478.41	262.85
478.77	262.91
479.14	262.85
479.50	262.86
479.87	262.91
480.23	262.95
480.60	263.02
480.96	263.13
481.33	263.34
481.69	263.53
482.06	263.76
482.42	263.97
482.79	264.20
483.15	264.52
483.52	264.86
483.88	265.22
484.25	265.62
484.61	266.02
484.98	266.45
485.34	267.01
485.71	267.60
486.07	268.19
486.44	268.68
486.80	269.38
487.17	270.07
487.53	270.90
487.90	271.73
488.26	272.66
488.62	273.62
488.99	274.57
489.35	275.64
489.72	276.69
490.08	277.84
490.44	279.08
490.81	280.42
491.17	281.77
491.54	283.25
491.90	284.75
492.26	286.40
492.63	288.15
492.99	289.90
493.36	291.78
493.72	293.81
494.08	295.93
494.45	298.17
494.81	300.52
495.17	302.92
495.54	305.50
495.90	308.16
496.26	310.97
496.63	313.93
496.99	317.00
497.35	320.23
497.72	323.67
498.08	327.16
498.44	330.78
498.80	334.67
499.17	338.63
499.53	342.81
499.89	347.20
500.26	351.67
500.62	356.34
500.98	361.27
501.34	366.35
501.71	371.66
502.07	377.05
502.43	382.65
502.79	388.41
503.16	394.40
503.52	400.64
503.88	407.02
504.24	413.67
504.60	420.51
504.97	427.67
505.33	434.93
505.69	442.64
506.05	450.34
506.41	458.21
506.78	466.39
507.14	474.82
507.50	483.46
507.86	492.53
508.22	501.73
508.59	510.91
508.95	520.45
509.31	530.18
509.67	540.30
510.03	550.56
510.39	561.10
510.75	571.89
511.12	582.82
511.48	594.04
511.84	605.42
512.20	616.92
512.56	628.83
512.92	640.95
513.28	653.26
513.64	665.82
514.00	678.50
514.37	691.46
514.73	704.44
515.09	717.52
515.45	730.81
515.81	744.35
516.17	758.35
516.53	772.49
516.89	786.73
517.25	800.90
517.61	815.36
517.97	829.90
518.33	844.35
518.69	859.14
519.05	874.24
519.41	889.49
519.77	905.12
520.13	920.63
520.49	936.08
520.85	951.59
521.21	967.35
521.57	983.66
521.93	999.39
522.29	1015.83
522.65	1032.10
523.01	1048.36
523.37	1064.51
523.73	1080.69
524.09	1096.89
524.45	1113.21
524.81	1129.94
525.17	1146.81
525.53	1163.77
525.89	1180.68
526.25	1197.60
526.61	1214.02
526.97	1230.77
527.33	1247.29
527.68	1263.96
528.04	1280.64
528.40	1297.28
528.76	1314.34
529.12	1330.97
529.48	1347.95
529.84	1364.14
530.20	1380.92
530.56	1398.04
530.91	1415.46
531.27	1432.32
531.63	1448.79
531.99	1465.47
532.35	1481.48
532.71	1497.44
533.07	1513.81
533.42	1529.77
533.78	1545.95
534.14	1562.34
534.50	1577.79
534.86	1593.81
535.21	1609.03
535.57	1624.97
535.93	1640.49
536.29	1655.34
536.65	1670.64
537.00	1685.66
537.36	1701.02
537.72	1715.64
538.08	1730.16
538.44	1744.14
538.79	1758.18
539.15	1772.00
539.51	1785.99
539.87	1800.55
540.22	1814.41
540.58	1828.21
540.94	1841.71
541.29	1854.76
541.65	1867.60
542.01	1881.06
542.37	1893.28
542.72	1905.82
543.08	1917.60
543.44	1930.13
543.79	1941.51
544.15	1952.50
544.51	1963.94
544.87	1975.04
545.22	1985.85
545.58	1996.08
545.94	2005.85
546.29	2015.71
546.65	2025.49
547.01	2034.63
547.36	2043.29
547.72	2051.72
548.07	2059.53
548.43	2067.74
548.79	2075.64
549.14	2083.19
549.50	2090.49
549.86	2098.34
550.21	2105.65
550.57	2112.74
550.92	2119.41
551.28	2126.45
551.64	2133.37
551.99	2140.02
552.35	2146.12
552.70	2152.25
553.06	2158.08
553.41	2164.44
553.77	2170.47
554.13	2176.68
554.48	2182.67
554.84	2188.07
555.19	2193.48
555.55	2198.68
555.90	2203.03
556.26	2207.79
556.61	2212.38
556.97	2216.43
557.32	2220.47
557.68	2224.61
558.03	2228.92
558.39	2232.40
558.74	2237.00
559.10	2240.96
559.45	2244.39
559.81	2248.67
560.16	2252.35
560.52	2255.67
560.87	2258.91
561.23	2261.38
561.58	2264.15
561.94	2266.70
562.29	2269.01
562.64	2271.59
563.00	2274.20
563.35	2277.68
563.71	2280.77
564.06	2283.89
564.42	2286.81
564.77	2289.32
565.12	2291.34
565.48	2293.07
565.83	2294.92
566.19	2296.11
566.54	2297.05
566.89	2298.14
567.25	2298.46
567.60	2299.80
567.96	2301.25
568.31	2302.00
568.66	2302.90
569.02	2303.35
569.37	2303.51
569.72	2304.21
570.08	2303.94
570.43	2303.78
570.78	2302.88
571.14	2301.27
571.49	2299.76
571.84	2299.15
572.20	2297.75
572.55	2296.46
572.90	2294.85
573.26	2293.17
573.61	2291.19
573.96	2288.90
574.31	2285.79
574.67	2282.59
575.02	2278.77
575.37	2275.14
575.72	2271.10
576.08	2267.76
576.43	2264.36
576.78	2260.55
577.13	2257.28
577.49	2254.22
577.84	2250.60
578.19	2246.88
578.54	2242.95
578.90	2238.47
579.25	2232.92
579.60	2227.72
579.95	2222.76
580.30	2217.45
580.66	2212.24
581.01	2207.42
581.36	2202.50
581.71	2198.05
582.06	2193.60
582.42	2188.82
582.77	2183.61
583.12	2179.01
583.47	2174.10
583.82	2168.97
584.17	2163.53
584.53	2157.93
584.88	2152.14
585.23	2146.09
585.58	2140.41
585.93	2134.95
586.28	2130.21
586.63	2124.91
586.98	2119.81
587.34	2115.00
587.69	2110.15
588.04	2104.72
588.39	2098.66
588.74	2092.12
589.09	2086.04
589.44	2078.96
589.79	2073.03
590.14	2067.36
590.49	2060.63
590.84	2054.17
591.19	2047.82
591.54	2041.26
591.89	2033.59
592.25	2026.67
592.60	2019.38
592.95	2011.74
593.30	2004.21
593.65	1996.39
594.00	1989.20
594.35	1981.87
594.70	1973.66
595.05	1966.18
595.40	1958.86
595.75	1951.36
596.10	1944.93
596.45	1937.86
596.80	1931.70
597.15	1924.91
597.50	1917.52
597.85	1911.04
598.19	1904.32
598.54	1897.17
598.89	1890.45
599.24	1884.49
599.59	1877.62
599.94	1871.46
600.29	1865.00
600.64	1858.35
600.99	1850.84
601.34	1844.00
601.69	1836.95
602.04	1829.86
602.39	1822.67
602.74	1815.77
603.08	1808.98
603.43	1802.23
603.78	1795.08
604.13	1787.77
604.48	1780.39
604.83	1773.60
605.18	1766.39
605.53	1758.33
605.87	1750.40
606.22	1743.15
606.57	1735.26
606.92	1728.06
607.27	1720.73
607.62	1713.83
607.96	1706.56
608.31	1699.91
608.66	1692.24
609.01	1684.68
609.36	1677.34
609.70	1669.27
610.05	1661.21
610.40	1653.50
610.75	1645.22
611.10	1637.45
611.44	1629.19
611.79	1621.26
612.14	1612.58
612.49	1603.68
612.83	1595.34
613.18	1587.28
613.53	1579.22
613.88	1570.69
614.22	1562.56
614.57	1554.11
614.92	1546.10
615.27	1538.58
615.61	1530.38
615.96	1522.39
616.31	1514.82
616.65	1507.34
617.00	1499.80
617.35	1492.20
617.70	1483.91
618.04	1475.43
618.39	1467.29
618.74	1459.71
619.08	1451.48
619.43	1444.02
619.78	1437.12
620.12	1429.91
620.47	1422.36
620.82	1414.35
621.16	1407.01
621.51	1399.25
621.85	1391.60
622.20	1383.11
622.55	1374.93
622.89	1367.18
623.24	1359.73
623.59	1352.47
623.93	1345.03
624.28	1337.80
624.62	1330.32
624.97	1323.21
625.32	1316.58
625.66	1309.65
626.01	1302.49
626.35	1295.02
626.70	1287.28
627.04	1279.61
627.39	1271.93
627.73	1264.58
628.08	1257.62
628.43	1250.25
628.77	1242.93
629.12	1235.44
629.46	1228.34
629.81	1220.94
630.15	1213.68
630.50	1206.32
630.84	1198.04
631.19	1190.24
631.53	1182.87
631.88	1175.39
632.22	1167.81
632.57	1160.48
632.91	1152.94
633.26	1145.60
633.60	1138.35
633.95	1131.30
634.29	1124.31
634.64	1117.70
634.98	1110.50
635.32	1103.49
635.67	1097.19
636.01	1090.66
636.36	1083.96
636.70	1077.52
637.05	1071.00
637.39	1064.65
637.73	1058.15
638.08	1052.42
638.42	1046.48
638.77	1040.06
639.11	1033.37
639.45	1027.10
639.80	1020.53
640.14	1014.15
640.49	1007.66
640.83	1001.36
641.17	995.13
641.52	988.76
641.86	982.41
642.20	976.55
642.55	970.27
642.89	963.69
643.23	957.15
643.58	951.41
643.92	945.25
644.26	939.18
644.61	933.19
644.95	927.18
645.29	920.60
645.64	913.85
645.98	907.59
646.32	901.90
646.66	895.92
647.01	890.11
647.35	884.45
647.69	878.67
648.04	873.26
648.38	867.53
648.72	861.53
649.06	855.51
649.41	849.64
649.75	843.58
650.09	837.66
650.43	831.95
650.78	825.82
651.12	819.94
651.46	814.22
651.80	808.45
652.14	803.04
652.49	797.72
652.83	792.61
653.17	786.86
653.51	781.13
653.85	775.75
654.20	770.15
654.54	764.22
654.88	758.57
655.22	752.67
655.56	747.04
655.90	741.70
656.25	736.41
656.59	731.13
656.93	726.08
657.27	721.00
657.61	715.59
657.95	710.46
658.29	705.39
658.64	700.25
658.98	695.05
659.32	689.68
659.66	684.43
660.00	679.14
660.34	674.37
660.68	669.49
661.02	664.46
661.36	659.79
661.70	655.30
662.05	650.93
662.39	646.62
662.73	642.20
663.07	637.86
663.41	633.51
663.75	629.01
664.09	624.56
664.43	620.21
664.77	616.13
665.11	611.93
665.45	607.83
665.79	603.75
666.13	599.62
666.47	595.60
666.81	591.49
667.15	587.40
667.49	583.42
667.83	579.73
668.17	575.86
668.51	571.84
668.85	567.87
669.19	564.07
669.53	560.32
669.87	556.49
670.21	552.83
670.55	549.25
670.89	545.87
671.23	542.48
671.57	538.98
671.91	535.48
672.25	532.05
672.58	528.59
672.92	525.26
673.26	522.17
673.60	519.02
673.94	515.97
674.28	513.16
674.62	510.31
674.96	507.19
675.30	504.26
675.64	501.36
675.97	498.60
676.31	495.76
676.65	492.83
676.99	490.15
677.33	487.29
677.67	484.45
678.01	481.46
678.34	478.50
678.68	475.63
679.02	472.83
679.36	470.10
679.70	467.41
680.04	464.63
680.37	461.71
680.71	458.91
681.05	456.29
681.39	453.60
681.73	450.92
682.06	448.42
682.40	445.90
682.74	443.39
683.08	440.89
683.42	438.32
683.75	435.87
684.09	433.33
684.43	430.88
684.77	428.45
685.10	426.12
685.44	423.84
685.78	421.62
686.12	419.42
686.45	417.13
686.79	414.77
687.13	412.62
687.46	410.57
687.80	408.42
688.14	406.19
688.48	404.13
688.81	401.86
689.15	399.76
689.49	397.63
689.82	395.59
690.16	393.52
690.50	391.55
690.83	389.56
691.17	387.58
691.51	385.70
691.84	383.88
692.18	381.90
692.52	379.86
692.85	377.94
693.19	376.05
693.52	374.26
693.86	372.52
694.20	370.74
694.53	368.91
694.87	367.10
695.21	365.42
695.54	363.60
695.88	361.90
696.21	360.16
696.55	358.52
696.88	356.83
697.22	355.20
697.56	353.60
697.89	351.97
698.23	350.40
698.56	348.77
698.90	347.16
699.23	345.58
699.57	344.08
699.90	342.59
700.24	341.04
700.58	339.49
700.91	337.99
701.25	336.55
701.58	335.19
701.92	333.84
702.25	332.48
702.59	331.16
702.92	329.88
703.26	328.61
703.59	327.31
703.93	326.15
704.26	324.97
704.60	323.71
704.93	322.46
705.26	321.25
705.60	320.14
705.93	319.04
706.27	318.07
706.60	317.05
706.94	316.01
707.27	314.94
707.61	313.92
707.94	312.94
708.27	311.88
708.61	310.80
708.94	309.80
709.28	308.84
709.61	307.94
709.94	307.00
710.28	305.96
710.61	305.01
710.95	303.93
711.28	303.03
711.61	302.09
711.95	301.19
712.28	300.24
712.61	299.25
712.95	298.32
713.28	297.41
713.61	296.53
713.95	295.69
714.28	294.86
714.61	294.00
714.95	293.15
715.28	292.30
715.61	291.44
715.95	290.59
716.28	289.69
716.61	288.84
716.95	288.03
717.28	287.33
717.61	286.56
717.94	285.84
718.28	285.02
718.61	284.30
718.94	283.62
719.27	282.99
719.61	282.34
719.94	281.68
720.27	280.93
720.60	280.27
720.94	279.58
721.27	278.95
721.60	278.37
721.93	277.76
722.27	277.23
722.60	276.69
722.93	276.13
723.26	275.62
723.59	275.03
723.93	274.47
724.26	273.93
724.59	273.38
724.92	272.88
725.25	272.38
725.59	271.85
725.92	271.32
726.25	270.80
726.58	270.32
726.91	269.80
727.24	269.36
727.57	268.90
727.91	268.39
728.24	267.95
728.57	267.46
728.90	266.98
729.23	266.46
729.56	266.03
729.89	265.56
730.22	265.06
730.55	264.64
730.89	264.17
731.22	263.68
731.55	263.25
731.88	262.84
732.21	262.39
732.54	261.95
732.87	261.56
733.20	261.14
733.53	260.75
733.86	260.40
734.19	259.99
734.52	259.60
734.85	259.28
735.18	258.87
735.51	258.51
735.84	258.17
736.17	257.82
736.50	257.41
736.83	257.17
737.16	256.81
737.49	256.47
737.82	256.14
738.15	255.82
738.48	255.48
738.81	255.13
739.14	254.80
739.47	254.48
739.80	254.15
740.13	253.87
740.46	253.56
740.79	253.21
741.12	252.91
741.45	252.59
741.78	252.24
742.11	251.97
742.44	251.66
742.77	251.37
743.10	251.07
743.43	250.78
743.75	250.40
744.08	250.25
744.41	249.94
744.74	249.65
745.07	249.39
745.40	249.14
745.73	248.91
746.06	248.63
746.39	248.35
746.71	248.05
747.04	247.74
747.37	247.44
747.70	247.19
748.03	246.95
748.36	246.75
748.68	246.51
749.01	246.25
749.34	246.02
749.67	245.82
750.00	245.63
750.33	245.51
750.65	245.35
750.98	245.04
751.31	244.86
751.64	244.69
751.97	244.54
752.29	244.33
752.62	244.10
752.95	243.92
753.28	243.72
753.60	243.54
753.93	243.38
754.26	243.23
754.59	243.04
754.91	242.83
755.24	242.59
755.57	242.42
755.90	242.23
756.22	242.05
756.55	241.82
756.88	241.66
757.20	241.42
757.53	241.20
757.86	241.03
758.19	240.89
758.51	240.72
758.84	240.50
759.17	240.33
759.49	240.18
759.82	240.07
760.15	239.94
760.47	239.79
760.80	239.59
761.13	239.46
761.45	239.26
761.78	239.16
762.11	239.04
762.43	238.87
762.76	238.72
763.08	238.59
763.41	238.47
763.74	238.28
764.06	238.13
764.39	238.01
764.71	237.88
765.04	237.73
765.37	237.56
765.69	237.43
766.02	237.29
766.34	237.12
766.67	236.99
767.00	236.92
767.32	236.85
767.65	236.83
767.97	236.69
768.30	236.62
768.62	236.47
768.95	236.33
769.27	236.24
769.60	236.14
769.92	236.00
770.25	235.89
770.57	235.77
770.90	235.66
771.22	235.51
771.55	235.38
771.87	235.29
772.20	235.20
772.52	235.19
772.85	235.20
773.17	235.08
773.50	234.95
773.82	234.80
774.15	234.70
774.47	234.54
774.80	234.45
775.12	234.37
775.45	234.31
775.77	234.23
776.09	234.13
776.42	234.05
776.74	234.01
777.07	233.92
777.39	233.83
777.72	233.78
778.04	233.74
778.36	233.70
778.69	233.61
779.01	233.56
779.33	233.40
779.66	233.24
779.98	233.17
780.31	233.14
780.63	233.12
780.95	233.05
781.28	233.02
781.60	232.95
781.92	232.86
782.25	232.77
782.57	232.71
782.89	232.66
783.22	232.59
783.54	232.51
783.86	232.44
784.19	232.40
784.51	232.35
784.83	232.27
785.16	232.22
785.48	232.18
785.80	232.11
786.12	232.07
786.45	232.01
786.77	231.99
787.09	231.91
