SpectraSuite Data File
++++++++++++++++++++++++++++++++++++
Date: Fri Feb 01 17:20:33 EST 2013
User: group
Dark Spectrum Present: No
Reference Spectrum Present: No
Number of Sampled Component Spectra: 1
Spectrometers: USB2E7196
Integration Time (usec): 35000 (USB2E7196)
Spectra Averaged: 100 (USB2E7196)
Boxcar Smoothing: 10 (USB2E7196)
Correct for Electrical Dark: No (USB2E7196)
Strobe/Lamp Enabled: No (USB2E7196)
Correct for Detector Non-linearity: No (USB2E7196)
Correct for Stray Light: No (USB2E7196)
Number of Pixels in Processed Spectrum: 2048
>>>>>Begin Processed Spectral Data<<<<<
339.09	0.00
339.48	212.80
339.86	214.25
340.24	215.79
340.63	217.02
341.01	220.32
341.39	220.14
341.78	221.78
342.16	221.85
342.54	223.10
342.93	211.48
343.31	222.17
343.69	222.73
344.07	223.21
344.46	223.65
344.84	224.04
345.22	224.25
345.60	224.51
345.99	224.67
346.37	224.84
346.75	224.93
347.13	225.01
347.52	225.06
347.90	225.15
348.28	225.18
348.66	225.21
349.05	225.19
349.43	225.28
349.81	225.32
350.19	225.37
350.57	225.44
350.96	225.51
351.34	225.58
351.72	225.66
352.10	225.77
352.48	225.83
352.87	225.86
353.25	225.94
353.63	225.97
354.01	226.07
354.39	226.13
354.77	226.21
355.15	226.30
355.54	226.34
355.92	226.37
356.30	226.41
356.68	226.53
357.06	226.62
357.44	226.65
357.82	226.70
358.20	226.77
358.58	226.85
358.97	226.90
359.35	226.99
359.73	227.07
360.11	227.10
360.49	227.16
360.87	227.22
361.25	227.25
361.63	227.33
362.01	227.34
362.39	227.36
362.77	227.41
363.15	227.44
363.53	227.47
363.91	227.51
364.29	227.55
364.67	227.48
365.05	227.50
365.43	227.53
365.81	227.58
366.19	227.61
366.57	227.65
366.95	227.65
367.33	227.58
367.71	227.55
368.09	227.54
368.47	227.53
368.85	227.50
369.23	227.51
369.61	227.43
369.99	227.44
370.37	227.44
370.75	227.43
371.13	227.36
371.51	227.30
371.89	227.26
372.27	227.24
372.65	227.18
373.03	227.12
373.41	227.07
373.78	226.97
374.16	226.85
374.54	226.77
374.92	226.68
375.30	226.62
375.68	226.58
376.06	226.55
376.44	226.46
376.82	226.41
377.19	226.35
377.57	226.28
377.95	226.19
378.33	226.12
378.71	226.00
379.09	225.96
379.47	225.94
379.84	225.87
380.22	225.76
380.60	225.71
380.98	225.64
381.36	225.55
381.73	225.49
382.11	225.44
382.49	225.41
382.87	225.36
383.25	225.34
383.62	225.37
384.00	225.29
384.38	225.23
384.76	225.21
385.13	225.15
385.51	225.12
385.89	225.06
386.27	225.02
386.64	224.99
387.02	224.90
387.40	224.84
387.78	224.79
388.15	224.79
388.53	224.77
388.91	224.74
389.29	224.72
389.66	224.71
390.04	224.69
390.42	224.64
390.79	224.61
391.17	224.56
391.55	224.45
391.92	224.42
392.30	224.43
392.68	224.39
393.05	224.39
393.43	224.44
393.81	224.44
394.18	224.40
394.56	224.39
394.94	224.42
395.31	224.43
395.69	224.47
396.06	224.48
396.44	224.51
396.82	224.53
397.19	224.59
397.57	224.60
397.95	224.65
398.32	224.64
398.70	224.70
399.07	224.78
399.45	224.83
399.82	224.89
400.20	224.94
400.58	225.02
400.95	225.06
401.33	225.15
401.70	225.29
402.08	225.41
402.45	225.50
402.83	225.63
403.20	225.76
403.58	225.84
403.95	225.97
404.33	226.08
404.71	226.19
405.08	226.37
405.46	226.51
405.83	226.62
406.21	226.78
406.58	226.93
406.96	227.06
407.33	227.22
407.70	227.43
408.08	227.69
408.45	227.90
408.83	228.14
409.20	228.30
409.58	228.48
409.95	228.72
410.33	229.02
410.70	229.24
411.08	229.48
411.45	229.79
411.82	230.08
412.20	230.38
412.57	230.81
412.95	231.11
413.32	231.55
413.69	232.02
414.07	232.47
414.44	232.97
414.82	233.47
415.19	234.02
415.56	234.52
415.94	235.11
416.31	235.76
416.68	236.40
417.06	237.18
417.43	237.87
417.81	238.67
418.18	239.45
418.55	240.36
418.93	241.29
419.30	242.25
419.67	243.23
420.04	244.29
420.42	245.29
420.79	246.54
421.16	247.76
421.54	248.99
421.91	250.27
422.28	251.54
422.66	252.92
423.03	254.31
423.40	255.73
423.77	257.20
424.15	258.69
424.52	260.19
424.89	261.85
425.26	263.49
425.64	264.98
426.01	266.65
426.38	268.37
426.75	270.09
427.13	271.90
427.50	273.79
427.87	275.71
428.24	277.68
428.61	279.46
428.99	281.44
429.36	283.59
429.73	285.72
430.10	287.84
430.47	289.97
430.85	292.17
431.22	294.51
431.59	296.95
431.96	299.28
432.33	301.88
432.70	304.29
433.08	307.19
433.45	309.95
433.82	312.68
434.19	315.65
434.56	318.56
434.93	321.26
435.30	323.96
435.68	326.95
436.05	329.84
436.42	332.72
436.79	335.31
437.16	338.12
437.53	341.08
437.90	343.97
438.27	346.81
438.64	349.67
439.01	352.32
439.38	354.61
439.75	356.84
440.13	359.46
440.50	361.94
440.87	363.84
441.24	365.84
441.61	368.07
441.98	369.58
442.35	371.47
442.72	373.40
443.09	375.31
443.46	376.37
443.83	377.03
444.20	377.56
444.57	378.47
444.94	378.78
445.31	379.12
445.68	379.50
446.05	379.60
446.42	379.28
446.79	378.87
447.16	378.44
447.53	378.13
447.90	376.92
448.27	375.74
448.64	374.13
449.01	372.96
449.37	370.91
449.74	369.02
450.11	366.72
450.48	364.15
450.85	361.53
451.22	359.34
451.59	357.23
451.96	355.25
452.33	352.54
452.70	350.12
453.07	347.18
453.43	344.17
453.80	341.34
454.17	338.58
454.54	336.02
454.91	333.23
455.28	330.50
455.65	327.94
456.02	325.35
456.38	323.14
456.75	320.41
457.12	318.10
457.49	315.79
457.86	313.53
458.23	311.64
458.59	309.51
458.96	307.35
459.33	305.43
459.70	303.50
460.07	301.93
460.43	300.14
460.80	298.47
461.17	297.00
461.54	295.43
461.91	293.95
462.27	292.39
462.64	291.07
463.01	289.65
463.38	288.28
463.74	286.92
464.11	285.72
464.48	284.64
464.85	283.49
465.21	282.60
465.58	281.63
465.95	280.49
466.32	279.57
466.68	278.60
467.05	277.69
467.42	276.76
467.78	275.81
468.15	274.90
468.52	274.25
468.88	273.38
469.25	272.59
469.62	271.95
469.98	271.29
470.35	270.67
470.72	270.08
471.08	269.43
471.45	268.84
471.82	268.26
472.18	267.65
472.55	267.21
472.92	266.69
473.28	266.23
473.65	265.77
474.02	265.30
474.38	264.97
474.75	264.62
475.11	264.25
475.48	264.02
475.85	263.81
476.21	263.53
476.58	263.33
476.94	263.18
477.31	263.00
477.67	262.83
478.04	262.69
478.41	262.63
478.77	262.68
479.14	262.61
479.50	262.59
479.87	262.67
480.23	262.73
480.60	262.78
480.96	262.85
481.33	263.06
481.69	263.27
482.06	263.47
482.42	263.67
482.79	263.95
483.15	264.25
483.52	264.61
483.88	264.97
484.25	265.36
484.61	265.81
484.98	266.26
485.34	266.84
485.71	267.43
486.07	268.01
486.44	268.59
486.80	269.32
487.17	270.08
487.53	270.88
487.90	271.71
488.26	272.65
488.62	273.67
488.99	274.64
489.35	275.65
489.72	276.76
490.08	277.96
490.44	279.19
490.81	280.54
491.17	281.89
491.54	283.40
491.90	284.90
492.26	286.54
492.63	288.26
492.99	290.02
493.36	291.92
493.72	293.95
494.08	296.03
494.45	298.27
494.81	300.63
495.17	303.08
495.54	305.69
495.90	308.35
496.26	311.14
496.63	314.08
496.99	317.21
497.35	320.40
497.72	323.75
498.08	327.25
498.44	330.89
498.80	334.79
499.17	338.79
499.53	342.91
499.89	347.27
500.26	351.69
500.62	356.35
500.98	361.23
501.34	366.27
501.71	371.58
502.07	376.99
502.43	382.57
502.79	388.25
503.16	394.19
503.52	400.37
503.88	406.65
504.24	413.20
504.60	419.98
504.97	427.05
505.33	434.31
505.69	441.92
506.05	449.61
506.41	457.40
506.78	465.45
507.14	473.86
507.50	482.42
507.86	491.37
508.22	500.36
508.59	509.49
508.95	518.97
509.31	528.57
509.67	538.41
510.03	548.55
510.39	559.04
510.75	569.67
511.12	580.45
511.48	591.54
511.84	602.83
512.20	614.13
512.56	625.85
512.92	637.76
513.28	649.93
513.64	662.12
514.00	674.59
514.37	687.31
514.73	700.04
515.09	712.82
515.45	725.85
515.81	739.14
516.17	752.77
516.53	766.48
516.89	780.42
517.25	794.36
517.61	808.47
517.97	822.64
518.33	836.74
518.69	851.16
519.05	865.85
519.41	880.70
519.77	895.88
520.13	910.91
520.49	926.09
520.85	941.07
521.21	956.41
521.57	972.21
521.93	987.67
522.29	1003.65
522.65	1019.47
523.01	1035.30
523.37	1051.05
523.73	1066.86
524.09	1082.64
524.45	1098.50
524.81	1114.81
525.17	1131.11
525.53	1147.53
525.89	1164.05
526.25	1180.59
526.61	1196.62
526.97	1212.93
527.33	1229.04
527.68	1245.33
528.04	1261.29
528.40	1277.44
528.76	1294.22
529.12	1310.51
529.48	1326.94
529.84	1342.68
530.20	1358.96
530.56	1375.45
530.91	1392.36
531.27	1408.74
531.63	1425.00
531.99	1441.18
532.35	1456.81
532.71	1472.39
533.07	1488.41
533.42	1504.07
533.78	1519.85
534.14	1535.79
534.50	1550.93
534.86	1566.50
535.21	1581.46
535.57	1597.18
535.93	1612.40
536.29	1626.80
536.65	1641.54
537.00	1656.00
537.36	1671.20
537.72	1685.51
538.08	1699.87
538.44	1713.53
538.79	1727.42
539.15	1740.76
539.51	1754.40
539.87	1768.67
540.22	1782.19
540.58	1795.58
540.94	1808.62
541.29	1821.14
541.65	1833.59
542.01	1846.53
542.37	1858.76
542.72	1871.06
543.08	1882.82
543.44	1895.30
543.79	1906.59
544.15	1917.55
544.51	1929.21
544.87	1940.03
545.22	1950.86
545.58	1961.18
545.94	1971.08
546.29	1980.79
546.65	1990.79
547.01	2000.15
547.36	2008.82
547.72	2017.56
548.07	2025.66
548.43	2034.02
548.79	2042.10
549.14	2050.05
549.50	2057.57
549.86	2065.28
550.21	2072.72
550.57	2080.10
550.92	2086.85
551.28	2094.09
551.64	2101.27
551.99	2107.90
552.35	2114.23
552.70	2120.68
553.06	2126.77
553.41	2133.13
553.77	2139.29
554.13	2145.44
554.48	2151.80
554.84	2157.78
555.19	2163.20
555.55	2168.64
555.90	2173.39
556.26	2178.86
556.61	2183.76
556.97	2188.53
557.32	2193.07
557.68	2197.44
558.03	2201.88
558.39	2205.68
558.74	2210.43
559.10	2214.73
559.45	2218.68
559.81	2223.11
560.16	2227.17
560.52	2230.84
560.87	2234.65
561.23	2237.73
561.58	2240.94
561.94	2243.75
562.29	2246.16
562.64	2249.45
563.00	2252.20
563.35	2256.03
563.71	2259.25
564.06	2262.63
564.42	2265.86
564.77	2268.85
565.12	2271.77
565.48	2274.13
565.83	2276.46
566.19	2278.49
566.54	2279.68
566.89	2281.27
567.25	2282.40
567.60	2284.02
567.96	2286.03
568.31	2287.23
568.66	2288.82
569.02	2289.97
569.37	2290.61
569.72	2291.93
570.08	2292.37
570.43	2292.96
570.78	2292.84
571.14	2291.85
571.49	2290.93
571.84	2290.83
572.20	2290.11
572.55	2289.32
572.90	2287.92
573.26	2286.95
573.61	2285.35
573.96	2284.13
574.31	2281.60
574.67	2279.04
575.02	2275.65
575.37	2272.49
575.72	2269.14
576.08	2266.04
576.43	2262.86
576.78	2259.76
577.13	2256.67
577.49	2253.65
577.84	2250.47
578.19	2246.92
578.54	2243.64
578.90	2239.86
579.25	2234.59
579.60	2229.92
579.95	2225.20
580.30	2220.54
580.66	2215.68
581.01	2210.94
581.36	2206.31
581.71	2202.42
582.06	2198.28
582.42	2194.35
582.77	2189.72
583.12	2185.44
583.47	2181.16
583.82	2176.59
584.17	2171.57
584.53	2166.54
584.88	2161.23
585.23	2155.73
585.58	2150.45
585.93	2145.14
586.28	2140.39
586.63	2135.71
586.98	2130.69
587.34	2126.14
587.69	2121.48
588.04	2116.67
588.39	2111.38
588.74	2104.95
589.09	2098.87
589.44	2092.40
589.79	2086.30
590.14	2080.68
590.49	2074.21
590.84	2067.78
591.19	2061.86
591.54	2055.58
591.89	2048.49
592.25	2042.05
592.60	2035.01
592.95	2027.67
593.30	2020.52
593.65	2013.12
594.00	2006.07
594.35	1999.03
594.70	1991.05
595.05	1984.18
595.40	1976.74
595.75	1969.38
596.10	1963.39
596.45	1956.93
596.80	1950.68
597.15	1944.29
597.50	1937.40
597.85	1931.00
598.19	1924.55
598.54	1917.85
598.89	1911.18
599.24	1905.30
599.59	1898.77
599.94	1892.47
600.29	1886.16
600.64	1879.56
600.99	1872.33
601.34	1865.63
601.69	1858.64
602.04	1851.94
602.39	1844.57
602.74	1837.94
603.08	1831.18
603.43	1824.43
603.78	1817.07
604.13	1809.92
604.48	1802.72
604.83	1795.86
605.18	1789.22
605.53	1781.31
605.87	1773.14
606.22	1765.99
606.57	1758.03
606.92	1750.52
607.27	1743.58
607.62	1736.83
607.96	1729.72
608.31	1723.18
608.66	1715.63
609.01	1708.18
609.36	1700.61
609.70	1692.69
610.05	1684.71
610.40	1677.09
610.75	1668.78
611.10	1661.08
611.44	1652.57
611.79	1644.52
612.14	1635.82
612.49	1626.27
612.83	1617.82
613.18	1609.55
613.53	1601.42
613.88	1592.87
614.22	1584.49
614.57	1575.66
614.92	1567.58
615.27	1560.06
615.61	1551.66
615.96	1543.47
616.31	1535.76
616.65	1528.34
617.00	1520.70
617.35	1512.75
617.70	1504.40
618.04	1495.88
618.39	1487.48
618.74	1479.89
619.08	1471.55
619.43	1463.84
619.78	1457.03
620.12	1449.78
620.47	1442.24
620.82	1433.86
621.16	1426.23
621.51	1418.55
621.85	1410.87
622.20	1402.29
622.55	1393.68
622.89	1385.73
623.24	1378.03
623.59	1370.44
623.93	1362.83
624.28	1355.37
624.62	1347.85
624.97	1340.53
625.32	1333.52
625.66	1326.52
626.01	1319.29
626.35	1311.99
626.70	1304.18
627.04	1296.37
627.39	1288.35
627.73	1280.77
628.08	1273.81
628.43	1266.59
628.77	1259.33
629.12	1251.80
629.46	1244.45
629.81	1236.87
630.15	1229.56
630.50	1222.02
630.84	1213.91
631.19	1205.81
631.53	1198.23
631.88	1190.60
632.22	1182.84
632.57	1175.50
632.91	1167.86
633.26	1160.47
633.60	1152.78
633.95	1145.42
634.29	1138.23
634.64	1131.58
634.98	1124.21
635.32	1117.00
635.67	1110.19
636.01	1103.33
636.36	1096.42
636.70	1089.86
637.05	1083.24
637.39	1076.60
637.73	1070.16
638.08	1064.12
638.42	1058.04
638.77	1051.49
639.11	1044.88
639.45	1038.43
639.80	1031.78
640.14	1025.44
640.49	1018.76
640.83	1012.38
641.17	1006.19
641.52	999.86
641.86	993.35
642.20	987.43
642.55	980.95
642.89	974.54
643.23	967.87
643.58	962.01
643.92	955.72
644.26	949.75
644.61	943.69
644.95	937.51
645.29	930.91
645.64	924.16
645.98	917.78
646.32	911.81
646.66	905.75
647.01	899.88
647.35	894.05
647.69	888.13
648.04	882.50
648.38	876.62
648.72	870.62
649.06	864.55
649.41	858.60
649.75	852.70
650.09	846.72
650.43	840.90
650.78	834.65
651.12	828.66
651.46	822.75
651.80	817.04
652.14	811.63
652.49	806.18
652.83	800.95
653.17	795.30
653.51	789.59
653.85	784.21
654.20	778.61
654.54	772.56
654.88	766.72
655.22	760.90
655.56	755.26
655.90	749.62
656.25	744.36
656.59	738.99
656.93	733.95
657.27	728.79
657.61	723.37
657.95	718.25
658.29	713.18
658.64	707.94
658.98	702.51
659.32	697.02
659.66	691.83
660.00	686.55
660.34	681.56
660.68	676.54
661.02	671.44
661.36	666.58
661.70	662.07
662.05	657.73
662.39	653.38
662.73	648.85
663.07	644.58
663.41	640.06
663.75	635.56
664.09	630.92
664.43	626.46
664.77	622.38
665.11	618.20
665.45	614.01
665.79	609.89
666.13	605.80
666.47	601.68
666.81	597.51
667.15	593.35
667.49	589.36
667.83	585.51
668.17	581.59
668.51	577.53
668.85	573.35
669.19	569.44
669.53	565.62
669.87	561.75
670.21	557.94
670.55	554.27
670.89	550.80
671.23	547.35
671.57	543.77
671.91	540.15
672.25	536.61
672.58	533.10
672.92	529.62
673.26	526.35
673.60	523.16
673.94	520.04
674.28	517.08
674.62	514.15
674.96	511.07
675.30	508.15
675.64	505.24
675.97	502.49
676.31	499.61
676.65	496.57
676.99	493.85
677.33	490.99
677.67	488.16
678.01	485.16
678.34	482.15
678.68	479.23
679.02	476.38
679.36	473.56
679.70	470.81
680.04	468.12
680.37	465.27
680.71	462.44
681.05	459.75
681.39	457.00
681.73	454.28
682.06	451.76
682.40	449.16
682.74	446.57
683.08	443.99
683.42	441.33
683.75	438.82
684.09	436.23
684.43	433.75
684.77	431.28
685.10	428.88
685.44	426.53
685.78	424.25
686.12	422.01
686.45	419.67
686.79	417.34
687.13	415.09
687.46	412.90
687.80	410.73
688.14	408.50
688.48	406.42
688.81	404.19
689.15	401.98
689.49	399.73
689.82	397.60
690.16	395.53
690.50	393.55
690.83	391.58
691.17	389.57
691.51	387.65
691.84	385.77
692.18	383.81
692.52	381.79
692.85	379.86
693.19	377.92
693.52	376.06
693.86	374.19
694.20	372.38
694.53	370.58
694.87	368.73
695.21	366.88
695.54	365.00
695.88	363.25
696.21	361.51
696.55	359.85
696.88	358.14
697.22	356.43
697.56	354.79
697.89	353.15
698.23	351.52
698.56	349.84
698.90	348.25
699.23	346.56
699.57	344.98
699.90	343.39
700.24	341.83
700.58	340.34
700.91	338.84
701.25	337.39
701.58	335.99
701.92	334.60
702.25	333.26
702.59	331.90
702.92	330.58
703.26	329.24
703.59	327.89
703.93	326.70
704.26	325.46
704.60	324.15
704.93	322.87
705.26	321.57
705.60	320.37
705.93	319.11
706.27	318.08
706.60	317.04
706.94	315.87
707.27	314.70
707.61	313.60
707.94	312.53
708.27	311.40
708.61	310.32
708.94	309.26
709.28	308.23
709.61	307.26
709.94	306.23
710.28	305.23
710.61	304.27
710.95	303.14
711.28	302.21
711.61	301.24
711.95	300.30
712.28	299.38
712.61	298.35
712.95	297.48
713.28	296.57
713.61	295.65
713.95	294.78
714.28	293.95
714.61	293.01
714.95	292.18
715.28	291.33
715.61	290.44
715.95	289.60
716.28	288.71
716.61	287.85
716.95	287.04
717.28	286.24
717.61	285.48
717.94	284.79
718.28	283.97
718.61	283.24
718.94	282.54
719.27	281.87
719.61	281.24
719.94	280.55
720.27	279.83
720.60	279.16
720.94	278.56
721.27	277.95
721.60	277.42
721.93	276.81
722.27	276.26
722.60	275.68
722.93	275.09
723.26	274.59
723.59	274.06
723.93	273.49
724.26	272.92
724.59	272.34
724.92	271.74
725.25	271.23
725.59	270.68
725.92	270.16
726.25	269.64
726.58	269.12
726.91	268.64
727.24	268.14
727.57	267.66
727.91	267.11
728.24	266.61
728.57	266.11
728.90	265.64
729.23	265.14
729.56	264.72
729.89	264.19
730.22	263.70
730.55	263.23
730.89	262.78
731.22	262.35
731.55	261.90
731.88	261.49
732.21	261.01
732.54	260.55
732.87	260.10
733.20	259.66
733.53	259.26
733.86	258.87
734.19	258.49
734.52	258.11
734.85	257.81
735.18	257.41
735.51	257.02
735.84	256.64
736.17	256.27
736.50	255.86
736.83	255.66
737.16	255.33
737.49	254.93
737.82	254.58
738.15	254.21
738.48	253.86
738.81	253.55
739.14	253.27
739.47	252.95
739.80	252.70
740.13	252.37
740.46	252.05
740.79	251.71
741.12	251.37
741.45	251.02
741.78	250.68
742.11	250.41
742.44	250.10
742.77	249.78
743.10	249.46
743.43	249.16
743.75	248.77
744.08	248.56
744.41	248.31
744.74	248.04
745.07	247.76
745.40	247.55
745.73	247.32
746.06	247.01
746.39	246.76
746.71	246.40
747.04	246.11
747.37	245.83
747.70	245.58
748.03	245.33
748.36	245.10
748.68	244.83
749.01	244.54
749.34	244.29
749.67	244.09
750.00	243.87
750.33	243.70
750.65	243.49
750.98	243.18
751.31	242.95
751.64	242.72
751.97	242.55
752.29	242.28
752.62	241.99
752.95	241.79
753.28	241.57
753.60	241.38
753.93	241.22
754.26	241.00
754.59	240.76
754.91	240.55
755.24	240.37
755.57	240.17
755.90	240.00
756.22	239.81
756.55	239.57
756.88	239.36
757.20	239.11
757.53	238.90
757.86	238.73
758.19	238.59
758.51	238.44
758.84	238.21
759.17	238.06
759.49	237.90
759.82	237.77
760.15	237.63
760.47	237.47
760.80	237.29
761.13	237.15
761.45	237.02
761.78	236.86
762.11	236.72
762.43	236.56
762.76	236.39
763.08	236.26
763.41	236.16
763.74	236.04
764.06	235.93
764.39	235.77
764.71	235.60
765.04	235.43
765.37	235.31
765.69	235.20
766.02	235.09
766.34	234.99
766.67	234.84
767.00	234.70
767.32	234.64
767.65	234.60
767.97	234.51
768.30	234.41
768.62	234.32
768.95	234.18
769.27	234.04
769.60	233.97
769.92	233.86
770.25	233.73
770.57	233.60
770.90	233.47
771.22	233.37
771.55	233.30
771.87	233.22
772.20	233.09
772.52	233.05
772.85	233.10
773.17	233.01
773.50	232.92
773.82	232.86
774.15	232.73
774.47	232.59
774.80	232.50
775.12	232.41
775.45	232.35
775.77	232.28
776.09	232.22
776.42	232.14
776.74	232.08
777.07	232.02
777.39	231.96
777.72	231.90
778.04	231.86
778.36	231.74
778.69	231.64
779.01	231.61
779.33	231.49
779.66	231.28
779.98	231.22
780.31	231.18
780.63	231.16
780.95	231.10
781.28	231.03
781.60	230.98
781.92	230.90
782.25	230.82
782.57	230.73
782.89	230.70
783.22	230.64
783.54	230.55
783.86	230.47
784.19	230.39
784.51	230.36
784.83	230.31
785.16	230.29
785.48	230.28
785.80	230.23
786.12	230.16
786.45	230.12
786.77	230.05
787.09	229.97
