SpectraSuite Data File
++++++++++++++++++++++++++++++++++++
Date: Fri Feb 01 17:58:23 EST 2013
User: group
Dark Spectrum Present: No
Reference Spectrum Present: No
Number of Sampled Component Spectra: 1
Spectrometers: USB2E7196
Integration Time (usec): 35000 (USB2E7196)
Spectra Averaged: 100 (USB2E7196)
Boxcar Smoothing: 10 (USB2E7196)
Correct for Electrical Dark: No (USB2E7196)
Strobe/Lamp Enabled: No (USB2E7196)
Correct for Detector Non-linearity: No (USB2E7196)
Correct for Stray Light: No (USB2E7196)
Number of Pixels in Processed Spectrum: 2048
>>>>>Begin Processed Spectral Data<<<<<
339.09	0.00
339.48	212.56
339.86	214.33
340.24	215.47
340.63	216.57
341.01	220.54
341.39	219.35
341.78	220.39
342.16	222.18
342.54	222.54
342.93	211.16
343.31	221.85
343.69	222.38
344.07	222.84
344.46	223.25
344.84	223.67
345.22	223.89
345.60	224.13
345.99	224.36
346.37	224.51
346.75	224.61
347.13	224.66
347.52	224.74
347.90	224.82
348.28	224.86
348.66	224.94
349.05	224.92
349.43	224.95
349.81	224.98
350.19	225.03
350.57	225.12
350.96	225.20
351.34	225.28
351.72	225.36
352.10	225.49
352.48	225.60
352.87	225.63
353.25	225.71
353.63	225.81
354.01	225.85
354.39	225.89
354.77	225.98
355.15	226.09
355.54	226.13
355.92	226.17
356.30	226.25
356.68	226.37
357.06	226.44
357.44	226.47
357.82	226.55
358.20	226.65
358.58	226.70
358.97	226.76
359.35	226.84
359.73	226.94
360.11	226.97
360.49	227.03
360.87	227.07
361.25	227.10
361.63	227.17
362.01	227.28
362.39	227.34
362.77	227.38
363.15	227.43
363.53	227.48
363.91	227.52
364.29	227.55
364.67	227.45
365.05	227.46
365.43	227.50
365.81	227.55
366.19	227.55
366.57	227.61
366.95	227.61
367.33	227.59
367.71	227.57
368.09	227.56
368.47	227.54
368.85	227.53
369.23	227.50
369.61	227.45
369.99	227.42
370.37	227.40
370.75	227.42
371.13	227.38
371.51	227.34
371.89	227.32
372.27	227.31
372.65	227.29
373.03	227.25
373.41	227.21
373.78	227.14
374.16	227.09
374.54	227.01
374.92	226.97
375.30	226.93
375.68	226.85
376.06	226.79
376.44	226.73
376.82	226.69
377.19	226.67
377.57	226.63
377.95	226.54
378.33	226.48
378.71	226.36
379.09	226.31
379.47	226.26
379.84	226.19
380.22	226.08
380.60	225.99
380.98	225.92
381.36	225.84
381.73	225.74
382.11	225.68
382.49	225.61
382.87	225.53
383.25	225.46
383.62	225.54
384.00	225.51
384.38	225.46
384.76	225.42
385.13	225.39
385.51	225.30
385.89	225.24
386.27	225.20
386.64	225.18
387.02	225.14
387.40	225.07
387.78	225.01
388.15	225.01
388.53	224.99
388.91	224.99
389.29	225.00
389.66	225.00
390.04	224.99
390.42	224.98
390.79	224.96
391.17	224.94
391.55	224.80
391.92	224.75
392.30	224.76
392.68	224.74
393.05	224.71
393.43	224.75
393.81	224.74
394.18	224.75
394.56	224.74
394.94	224.76
395.31	224.78
395.69	224.85
396.06	224.87
396.44	224.93
396.82	224.90
397.19	224.95
397.57	224.98
397.95	225.03
398.32	225.03
398.70	225.10
399.07	225.17
399.45	225.23
399.82	225.30
400.20	225.32
400.58	225.38
400.95	225.42
401.33	225.49
401.70	225.68
402.08	225.76
402.45	225.86
402.83	225.96
403.20	226.07
403.58	226.16
403.95	226.31
404.33	226.42
404.71	226.58
405.08	226.81
405.46	226.94
405.83	227.09
406.21	227.29
406.58	227.46
406.96	227.65
407.33	227.85
407.70	228.11
408.08	228.47
408.45	228.76
408.83	229.07
409.20	229.35
409.58	229.55
409.95	229.87
410.33	230.23
410.70	230.59
411.08	230.97
411.45	231.36
411.82	231.75
412.20	232.20
412.57	232.74
412.95	233.09
413.32	233.63
413.69	234.19
414.07	234.72
414.44	235.37
414.82	236.02
415.19	236.75
415.56	237.45
415.94	238.16
416.31	238.99
416.68	239.81
417.06	240.76
417.43	241.66
417.81	242.69
418.18	243.70
418.55	244.77
418.93	245.95
419.30	247.14
419.67	248.38
420.04	249.69
420.42	251.00
420.79	252.59
421.16	254.14
421.54	255.71
421.91	257.34
422.28	258.99
422.66	260.77
423.03	262.52
423.40	264.28
423.77	266.18
424.15	268.08
424.52	270.09
424.89	272.28
425.26	274.38
425.64	276.37
426.01	278.51
426.38	280.74
426.75	282.96
427.13	285.28
427.50	287.70
427.87	290.22
428.24	292.75
428.61	295.13
428.99	297.70
429.36	300.57
429.73	303.33
430.10	306.06
430.47	308.84
430.85	311.73
431.22	314.74
431.59	317.96
431.96	320.99
432.33	324.28
432.70	327.44
433.08	331.18
433.45	334.69
433.82	338.21
434.19	342.10
434.56	345.88
434.93	349.43
435.30	353.00
435.68	356.91
436.05	360.70
436.42	364.44
436.79	367.85
437.16	371.42
437.53	375.29
437.90	379.06
438.27	382.74
438.64	386.52
439.01	390.04
439.38	393.01
439.75	395.90
440.13	399.33
440.50	402.46
440.87	404.99
441.24	407.60
441.61	410.49
441.98	412.52
442.35	414.98
442.72	417.52
443.09	419.91
443.46	421.21
443.83	422.03
444.20	422.73
444.57	423.87
444.94	424.29
445.31	424.76
445.68	425.28
446.05	425.42
446.42	424.90
446.79	424.33
447.16	423.69
447.53	423.29
447.90	421.71
448.27	420.15
448.64	418.06
449.01	416.54
449.37	413.87
449.74	411.28
450.11	408.18
450.48	404.86
450.85	401.47
451.22	398.56
451.59	395.79
451.96	393.14
452.33	389.60
452.70	386.45
453.07	382.61
453.43	378.67
453.80	374.92
454.17	371.34
454.54	367.90
454.91	364.34
455.28	360.74
455.65	357.39
456.02	354.07
456.38	351.10
456.75	347.48
457.12	344.49
457.49	341.48
457.86	338.64
458.23	336.12
458.59	333.34
458.96	330.51
459.33	328.01
459.70	325.54
460.07	323.50
460.43	321.17
460.80	318.95
461.17	316.97
461.54	314.92
461.91	312.94
462.27	310.98
462.64	309.22
463.01	307.37
463.38	305.61
463.74	303.79
464.11	302.24
464.48	300.84
464.85	299.31
465.21	298.16
465.58	296.88
465.95	295.38
466.32	294.18
466.68	293.03
467.05	291.85
467.42	290.64
467.78	289.37
468.15	288.16
468.52	287.27
468.88	286.17
469.25	285.13
469.62	284.28
469.98	283.37
470.35	282.52
470.72	281.71
471.08	280.81
471.45	280.08
471.82	279.37
472.18	278.55
472.55	277.97
472.92	277.23
473.28	276.58
473.65	275.98
474.02	275.36
474.38	274.82
474.75	274.32
475.11	273.81
475.48	273.43
475.85	273.12
476.21	272.77
476.58	272.46
476.94	272.20
477.31	271.92
477.67	271.65
478.04	271.44
478.41	271.23
478.77	271.21
479.14	271.03
479.50	270.94
479.87	270.99
480.23	271.01
480.60	271.03
480.96	271.04
481.33	271.20
481.69	271.35
482.06	271.47
482.42	271.62
482.79	271.81
483.15	272.11
483.52	272.46
483.88	272.76
484.25	273.09
484.61	273.50
484.98	273.94
485.34	274.53
485.71	275.12
486.07	275.79
486.44	276.31
486.80	277.03
487.17	277.78
487.53	278.58
487.90	279.44
488.26	280.40
488.62	281.43
488.99	282.41
489.35	283.49
489.72	284.68
490.08	285.96
490.44	287.27
490.81	288.60
491.17	289.99
491.54	291.56
491.90	293.21
492.26	294.93
492.63	296.76
492.99	298.61
493.36	300.59
493.72	302.72
494.08	304.96
494.45	307.35
494.81	309.82
495.17	312.42
495.54	315.11
495.90	317.91
496.26	320.89
496.63	323.98
496.99	327.25
497.35	330.69
497.72	334.25
498.08	337.98
498.44	341.90
498.80	346.05
499.17	350.30
499.53	354.68
499.89	359.30
500.26	364.05
500.62	368.96
500.98	374.27
501.34	379.59
501.71	385.28
502.07	391.03
502.43	397.02
502.79	403.15
503.16	409.61
503.52	416.28
503.88	423.06
504.24	430.12
504.60	437.45
504.97	445.02
505.33	452.76
505.69	460.97
506.05	469.25
506.41	477.62
506.78	486.35
507.14	495.38
507.50	504.68
507.86	514.29
508.22	524.14
508.59	533.97
508.95	544.23
509.31	554.61
509.67	565.34
510.03	576.32
510.39	587.59
510.75	599.09
511.12	610.84
511.48	622.96
511.84	635.22
512.20	647.51
512.56	660.21
512.92	673.30
513.28	686.62
513.64	700.03
514.00	713.74
514.37	727.70
514.73	741.77
515.09	755.81
515.45	770.21
515.81	784.83
516.17	799.83
516.53	815.13
516.89	830.60
517.25	845.96
517.61	861.63
517.97	877.31
518.33	892.94
518.69	908.93
519.05	925.13
519.41	941.63
519.77	958.60
520.13	975.49
520.49	992.34
520.85	1009.02
521.21	1026.05
521.57	1043.76
521.93	1060.88
522.29	1078.69
522.65	1096.54
523.01	1114.15
523.37	1131.77
523.73	1149.44
524.09	1167.14
524.45	1184.86
524.81	1203.18
525.17	1221.56
525.53	1240.06
525.89	1258.66
526.25	1277.13
526.61	1295.36
526.97	1313.89
527.33	1332.05
527.68	1350.44
528.04	1368.70
528.40	1387.05
528.76	1406.00
529.12	1424.37
529.48	1443.16
529.84	1460.93
530.20	1479.30
530.56	1498.32
530.91	1517.77
531.27	1536.63
531.63	1554.94
531.99	1573.52
532.35	1591.47
532.71	1609.37
533.07	1627.75
533.42	1645.72
533.78	1664.09
534.14	1682.33
534.50	1699.76
534.86	1717.71
535.21	1734.89
535.57	1752.72
535.93	1770.26
536.29	1787.16
536.65	1804.50
537.00	1821.41
537.36	1839.04
537.72	1855.60
538.08	1872.06
538.44	1887.96
538.79	1903.94
539.15	1919.65
539.51	1935.60
539.87	1952.04
540.22	1967.90
540.58	1983.86
540.94	1999.30
541.29	2014.09
541.65	2028.98
542.01	2044.35
542.37	2058.99
542.72	2073.73
543.08	2087.85
543.44	2102.56
543.79	2115.95
544.15	2128.94
544.51	2142.79
544.87	2155.94
545.22	2169.16
545.58	2181.63
545.94	2193.55
546.29	2205.59
546.65	2217.84
547.01	2229.33
547.36	2240.28
547.72	2250.86
548.07	2260.79
548.43	2270.93
548.79	2280.88
549.14	2290.34
549.50	2299.68
549.86	2309.27
550.21	2318.45
550.57	2327.66
550.92	2336.14
551.28	2345.25
551.64	2354.25
551.99	2362.55
552.35	2370.53
552.70	2378.65
553.06	2386.48
553.41	2394.74
553.77	2402.64
554.13	2410.45
554.48	2418.36
554.84	2425.68
555.19	2432.59
555.55	2439.49
555.90	2445.74
556.26	2452.65
556.61	2459.20
556.97	2465.17
557.32	2470.73
557.68	2476.52
558.03	2482.42
558.39	2487.63
558.74	2493.89
559.10	2499.49
559.45	2504.79
559.81	2510.61
560.16	2515.78
560.52	2520.50
560.87	2525.20
561.23	2529.02
561.58	2533.25
561.94	2537.18
562.29	2540.71
562.64	2544.90
563.00	2548.79
563.35	2553.74
563.71	2558.21
564.06	2562.72
564.42	2566.97
564.77	2570.92
565.12	2574.52
565.48	2577.52
565.83	2580.81
566.19	2583.23
566.54	2584.98
566.89	2587.28
567.25	2588.91
567.60	2591.26
567.96	2594.07
568.31	2595.90
568.66	2598.21
569.02	2599.78
569.37	2600.89
569.72	2602.68
570.08	2603.79
570.43	2604.57
570.78	2604.87
571.14	2603.82
571.49	2602.96
571.84	2603.36
572.20	2602.98
572.55	2602.48
572.90	2601.37
573.26	2600.46
573.61	2599.20
573.96	2598.06
574.31	2595.19
574.67	2592.45
575.02	2589.06
575.37	2585.75
575.72	2582.15
576.08	2578.78
576.43	2575.46
576.78	2571.93
577.13	2568.73
577.49	2565.36
577.84	2561.94
578.19	2558.01
578.54	2554.59
578.90	2550.24
579.25	2544.14
579.60	2538.85
579.95	2533.55
580.30	2528.16
580.66	2522.46
581.01	2517.05
581.36	2511.74
581.71	2507.38
582.06	2502.72
582.42	2498.01
582.77	2492.35
583.12	2487.57
583.47	2482.59
583.82	2477.41
584.17	2471.68
584.53	2465.84
584.88	2459.92
585.23	2453.74
585.58	2447.74
585.93	2441.59
586.28	2436.38
586.63	2430.98
586.98	2425.47
587.34	2420.31
587.69	2415.10
588.04	2409.62
588.39	2403.54
588.74	2396.28
589.09	2389.41
589.44	2381.94
589.79	2375.03
590.14	2368.86
590.49	2361.42
590.84	2354.15
591.19	2347.33
591.54	2340.26
591.89	2332.08
592.25	2324.43
592.60	2316.25
592.95	2307.62
593.30	2299.27
593.65	2290.81
594.00	2282.75
594.35	2274.46
594.70	2265.36
595.05	2257.29
595.40	2248.83
595.75	2240.14
596.10	2233.15
596.45	2225.54
596.80	2218.43
597.15	2210.95
597.50	2202.91
597.85	2195.43
598.19	2187.88
598.54	2179.98
598.89	2172.23
599.24	2165.52
599.59	2158.01
599.94	2150.96
600.29	2143.83
600.64	2136.31
600.99	2127.80
601.34	2120.00
601.69	2111.93
602.04	2103.96
602.39	2095.47
602.74	2087.58
603.08	2079.96
603.43	2072.14
603.78	2063.62
604.13	2055.24
604.48	2046.92
604.83	2039.02
605.18	2031.10
605.53	2022.09
605.87	2012.65
606.22	2004.21
606.57	1994.81
606.92	1986.06
607.27	1977.57
607.62	1969.40
607.96	1960.96
608.31	1953.30
608.66	1944.42
609.01	1935.68
609.36	1927.00
609.70	1917.54
610.05	1908.17
610.40	1899.11
610.75	1889.41
611.10	1880.52
611.44	1870.63
611.79	1861.17
612.14	1850.99
612.49	1840.19
612.83	1830.22
613.18	1820.64
613.53	1811.25
613.88	1801.25
614.22	1791.49
614.57	1781.33
614.92	1771.99
615.27	1763.10
615.61	1753.33
615.96	1743.90
616.31	1734.83
616.65	1726.01
617.00	1717.20
617.35	1708.14
617.70	1698.36
618.04	1688.45
618.39	1678.79
618.74	1669.92
619.08	1660.30
619.43	1651.26
619.78	1643.07
620.12	1634.66
620.47	1625.81
620.82	1616.05
621.16	1607.23
621.51	1598.39
621.85	1589.40
622.20	1579.38
622.55	1569.51
622.89	1560.22
623.24	1551.21
623.59	1542.56
623.93	1533.67
624.28	1525.17
624.62	1516.26
624.97	1507.82
625.32	1499.73
625.66	1491.43
626.01	1483.07
626.35	1474.30
626.70	1465.24
627.04	1456.06
627.39	1446.78
627.73	1438.17
628.08	1430.05
628.43	1421.65
628.77	1413.00
629.12	1404.27
629.46	1395.85
629.81	1387.11
630.15	1378.55
630.50	1369.88
630.84	1360.29
631.19	1351.02
631.53	1342.15
631.88	1333.28
632.22	1324.40
632.57	1315.82
632.91	1306.92
633.26	1298.17
633.60	1289.35
633.95	1280.97
634.29	1272.85
634.64	1265.09
634.98	1256.47
635.32	1248.18
635.67	1240.34
636.01	1232.55
636.36	1224.48
636.70	1216.84
637.05	1209.13
637.39	1201.57
637.73	1194.03
638.08	1187.08
638.42	1180.13
638.77	1172.60
639.11	1165.05
639.45	1157.51
639.80	1149.89
640.14	1142.51
640.49	1135.01
640.83	1127.81
641.17	1120.64
641.52	1113.27
641.86	1105.70
642.20	1098.96
642.55	1091.50
642.89	1084.04
643.23	1076.39
643.58	1069.79
643.92	1062.61
644.26	1055.71
644.61	1048.56
644.95	1041.57
645.29	1033.95
645.64	1026.09
645.98	1018.77
646.32	1011.87
646.66	1004.91
647.01	998.07
647.35	991.43
647.69	984.60
648.04	978.18
648.38	971.42
648.72	964.54
649.06	957.63
649.41	950.74
649.75	943.91
650.09	937.08
650.43	930.51
650.78	923.39
651.12	916.45
651.46	909.69
651.80	903.26
652.14	897.08
652.49	890.93
652.83	884.96
653.17	878.39
653.51	871.86
653.85	865.62
654.20	859.11
654.54	852.15
654.88	845.46
655.22	838.61
655.56	832.05
655.90	825.70
656.25	819.62
656.59	813.30
656.93	807.43
657.27	801.42
657.61	795.07
657.95	789.22
658.29	783.35
658.64	777.36
658.98	771.16
659.32	764.72
659.66	758.72
660.00	752.62
660.34	746.88
660.68	741.16
661.02	735.29
661.36	729.90
661.70	724.74
662.05	719.66
662.39	714.66
662.73	709.46
663.07	704.47
663.41	699.32
663.75	694.24
664.09	688.92
664.43	683.82
664.77	679.03
665.11	674.06
665.45	669.24
665.79	664.50
666.13	659.78
666.47	655.10
666.81	650.32
667.15	645.56
667.49	641.08
667.83	636.66
668.17	632.19
668.51	627.49
668.85	622.77
669.19	618.35
669.53	613.92
669.87	609.47
670.21	605.11
670.55	600.88
670.89	596.90
671.23	592.94
671.57	588.85
671.91	584.81
672.25	580.73
672.58	576.70
672.92	572.68
673.26	569.00
673.60	565.39
673.94	561.77
674.28	558.35
674.62	554.93
674.96	551.39
675.30	548.01
675.64	544.65
675.97	541.48
676.31	538.18
676.65	534.83
676.99	531.71
677.33	528.34
677.67	525.11
678.01	521.61
678.34	518.21
678.68	514.92
679.02	511.74
679.36	508.64
679.70	505.54
680.04	502.41
680.37	499.10
680.71	495.85
681.05	492.82
681.39	489.71
681.73	486.61
682.06	483.70
682.40	480.76
682.74	477.85
683.08	474.80
683.42	471.82
683.75	468.96
684.09	465.97
684.43	463.17
684.77	460.29
685.10	457.57
685.44	454.89
685.78	452.22
686.12	449.58
686.45	446.86
686.79	444.21
687.13	441.68
687.46	439.18
687.80	436.65
688.14	434.05
688.48	431.74
688.81	429.13
689.15	426.65
689.49	424.16
689.82	421.72
690.16	419.39
690.50	417.12
690.83	414.86
691.17	412.56
691.51	410.32
691.84	408.17
692.18	405.99
692.52	403.76
692.85	401.49
693.19	399.32
693.52	397.18
693.86	395.08
694.20	392.99
694.53	390.92
694.87	388.78
695.21	386.71
695.54	384.54
695.88	382.58
696.21	380.59
696.55	378.63
696.88	376.66
697.22	374.70
697.56	372.81
697.89	370.88
698.23	369.06
698.56	367.23
698.90	365.46
699.23	363.53
699.57	361.71
699.90	360.00
700.24	358.21
700.58	356.49
700.91	354.76
701.25	353.08
701.58	351.47
701.92	349.91
702.25	348.39
702.59	346.83
702.92	345.25
703.26	343.75
703.59	342.30
703.93	340.95
704.26	339.54
704.60	338.03
704.93	336.58
705.26	335.13
705.60	333.76
705.93	332.40
706.27	331.17
706.60	329.94
706.94	328.66
707.27	327.34
707.61	326.07
707.94	324.86
708.27	323.61
708.61	322.33
708.94	321.14
709.28	319.96
709.61	318.82
709.94	317.73
710.28	316.48
710.61	315.30
710.95	314.01
711.28	312.90
711.61	311.80
711.95	310.70
712.28	309.60
712.61	308.44
712.95	307.36
713.28	306.32
713.61	305.26
713.95	304.20
714.28	303.21
714.61	302.24
714.95	301.24
715.28	300.23
715.61	299.22
715.95	298.23
716.28	297.18
716.61	296.20
716.95	295.27
717.28	294.41
717.61	293.53
717.94	292.70
718.28	291.82
718.61	290.96
718.94	290.13
719.27	289.37
719.61	288.60
719.94	287.79
720.27	286.96
720.60	286.18
720.94	285.46
721.27	284.76
721.60	284.06
721.93	283.36
722.27	282.73
722.60	282.08
722.93	281.43
723.26	280.88
723.59	280.26
723.93	279.61
724.26	278.95
724.59	278.29
724.92	277.68
725.25	277.09
725.59	276.48
725.92	275.89
726.25	275.28
726.58	274.74
726.91	274.16
727.24	273.62
727.57	273.07
727.91	272.47
728.24	271.93
728.57	271.35
728.90	270.83
729.23	270.25
729.56	269.75
729.89	269.18
730.22	268.58
730.55	268.01
730.89	267.48
731.22	266.97
731.55	266.49
731.88	265.96
732.21	265.45
732.54	264.99
732.87	264.46
733.20	264.00
733.53	263.53
733.86	263.09
734.19	262.61
734.52	262.17
734.85	261.81
735.18	261.32
735.51	260.92
735.84	260.49
736.17	260.08
736.50	259.62
736.83	259.35
737.16	258.99
737.49	258.60
737.82	258.21
738.15	257.86
738.48	257.48
738.81	257.08
739.14	256.73
739.47	256.33
739.80	256.03
740.13	255.70
740.46	255.35
740.79	254.96
741.12	254.61
741.45	254.23
741.78	253.85
742.11	253.56
742.44	253.20
742.77	252.86
743.10	252.55
743.43	252.27
743.75	251.84
744.08	251.63
744.41	251.33
744.74	251.04
745.07	250.71
745.40	250.44
745.73	250.19
746.06	249.89
746.39	249.59
746.71	249.29
747.04	248.96
747.37	248.64
747.70	248.38
748.03	248.15
748.36	247.91
748.68	247.66
749.01	247.35
749.34	247.07
749.67	246.82
750.00	246.54
750.33	246.32
750.65	246.08
750.98	245.70
751.31	245.46
751.64	245.18
751.97	245.02
752.29	244.75
752.62	244.44
752.95	244.20
753.28	243.97
753.60	243.71
753.93	243.48
754.26	243.27
754.59	243.02
754.91	242.76
755.24	242.55
755.57	242.30
755.90	242.11
756.22	241.89
756.55	241.66
756.88	241.45
757.20	241.18
757.53	240.95
757.86	240.75
758.19	240.55
758.51	240.38
758.84	240.06
759.17	239.86
759.49	239.72
759.82	239.58
760.15	239.39
760.47	239.20
760.80	239.02
761.13	238.89
761.45	238.71
761.78	238.53
762.11	238.31
762.43	238.12
762.76	237.94
763.08	237.78
763.41	237.63
763.74	237.48
764.06	237.28
764.39	237.13
764.71	236.96
765.04	236.81
765.37	236.62
765.69	236.50
766.02	236.33
766.34	236.17
766.67	235.98
767.00	235.88
767.32	235.81
767.65	235.71
767.97	235.56
768.30	235.47
768.62	235.33
768.95	235.19
769.27	235.07
769.60	234.94
769.92	234.80
770.25	234.65
770.57	234.48
770.90	234.40
771.22	234.26
771.55	234.12
771.87	234.01
772.20	233.92
772.52	233.93
772.85	233.93
773.17	233.82
773.50	233.69
773.82	233.54
774.15	233.40
774.47	233.24
774.80	233.12
775.12	232.98
775.45	232.90
775.77	232.87
776.09	232.76
776.42	232.65
776.74	232.59
777.07	232.49
777.39	232.42
777.72	232.35
778.04	232.30
778.36	232.26
778.69	232.16
779.01	232.07
779.33	231.91
779.66	231.74
779.98	231.66
780.31	231.62
780.63	231.59
780.95	231.53
781.28	231.46
781.60	231.39
781.92	231.33
782.25	231.25
782.57	231.14
782.89	231.08
783.22	231.03
783.54	230.96
783.86	230.94
784.19	230.88
784.51	230.81
784.83	230.75
785.16	230.63
785.48	230.57
785.80	230.55
786.12	230.47
786.45	230.40
