SpectraSuite Data File
++++++++++++++++++++++++++++++++++++
Date: Fri Feb 01 15:06:25 EST 2013
User: group
Dark Spectrum Present: No
Reference Spectrum Present: No
Number of Sampled Component Spectra: 1
Spectrometers: USB2E7196
Integration Time (usec): 35000 (USB2E7196)
Spectra Averaged: 100 (USB2E7196)
Boxcar Smoothing: 10 (USB2E7196)
Correct for Electrical Dark: No (USB2E7196)
Strobe/Lamp Enabled: No (USB2E7196)
Correct for Detector Non-linearity: No (USB2E7196)
Correct for Stray Light: No (USB2E7196)
Number of Pixels in Processed Spectrum: 2048
>>>>>Begin Processed Spectral Data<<<<<
339.09	0.00
339.48	214.93
339.86	216.42
340.24	218.10
340.63	219.29
341.01	221.81
341.39	222.34
341.78	223.27
342.16	224.43
342.54	225.39
342.93	213.55
343.31	224.36
343.69	224.93
344.07	225.42
344.46	225.85
344.84	226.25
345.22	226.50
345.60	226.76
345.99	226.95
346.37	227.08
346.75	227.17
347.13	227.21
347.52	227.26
347.90	227.35
348.28	227.37
348.66	227.40
349.05	227.38
349.43	227.37
349.81	227.43
350.19	227.47
350.57	227.53
350.96	227.62
351.34	227.72
351.72	227.77
352.10	227.86
352.48	227.91
352.87	227.95
353.25	228.03
353.63	228.06
354.01	228.12
354.39	228.20
354.77	228.27
355.15	228.40
355.54	228.46
355.92	228.46
356.30	228.53
356.68	228.65
357.06	228.71
357.44	228.78
357.82	228.84
358.20	228.87
358.58	228.96
358.97	229.00
359.35	229.02
359.73	229.11
360.11	229.15
360.49	229.20
360.87	229.25
361.25	229.28
361.63	229.36
362.01	229.43
362.39	229.45
362.77	229.47
363.15	229.48
363.53	229.51
363.91	229.55
364.29	229.56
364.67	229.46
365.05	229.46
365.43	229.46
365.81	229.47
366.19	229.54
366.57	229.53
366.95	229.51
367.33	229.48
367.71	229.42
368.09	229.42
368.47	229.38
368.85	229.36
369.23	229.37
369.61	229.26
369.99	229.23
370.37	229.20
370.75	229.21
371.13	229.14
371.51	229.04
371.89	228.98
372.27	228.91
372.65	228.87
373.03	228.83
373.41	228.77
373.78	228.70
374.16	228.57
374.54	228.47
374.92	228.39
375.30	228.33
375.68	228.24
376.06	228.19
376.44	228.13
376.82	228.03
377.19	227.91
377.57	227.84
377.95	227.75
378.33	227.67
378.71	227.52
379.09	227.47
379.47	227.44
379.84	227.36
380.22	227.29
380.60	227.20
380.98	227.12
381.36	227.02
381.73	226.95
382.11	226.93
382.49	226.87
382.87	226.81
383.25	226.75
383.62	226.84
384.00	226.73
384.38	226.67
384.76	226.66
385.13	226.67
385.51	226.63
385.89	226.55
386.27	226.51
386.64	226.51
387.02	226.47
387.40	226.44
387.78	226.43
388.15	226.43
388.53	226.42
388.91	226.41
389.29	226.40
389.66	226.40
390.04	226.37
390.42	226.38
390.79	226.40
391.17	226.41
391.55	226.28
391.92	226.32
392.30	226.36
392.68	226.33
393.05	226.33
393.43	226.38
393.81	226.41
394.18	226.43
394.56	226.44
394.94	226.47
395.31	226.48
395.69	226.55
396.06	226.61
396.44	226.65
396.82	226.69
397.19	226.81
397.57	226.86
397.95	226.94
398.32	227.00
398.70	227.07
399.07	227.20
399.45	227.27
399.82	227.33
400.20	227.41
400.58	227.52
400.95	227.59
401.33	227.71
401.70	227.90
402.08	228.02
402.45	228.14
402.83	228.27
403.20	228.40
403.58	228.52
403.95	228.64
404.33	228.79
404.71	228.93
405.08	229.11
405.46	229.25
405.83	229.39
406.21	229.53
406.58	229.69
406.96	229.80
407.33	230.01
407.70	230.23
408.08	230.47
408.45	230.70
408.83	230.92
409.20	231.10
409.58	231.26
409.95	231.53
410.33	231.81
410.70	232.06
411.08	232.37
411.45	232.63
411.82	232.94
412.20	233.27
412.57	233.69
412.95	233.98
413.32	234.36
413.69	234.75
414.07	235.15
414.44	235.63
414.82	236.12
415.19	236.65
415.56	237.15
415.94	237.69
416.31	238.28
416.68	238.91
417.06	239.66
417.43	240.36
417.81	241.10
418.18	241.86
418.55	242.67
418.93	243.52
419.30	244.42
419.67	245.36
420.04	246.30
420.42	247.24
420.79	248.41
421.16	249.57
421.54	250.75
421.91	251.98
422.28	253.18
422.66	254.47
423.03	255.77
423.40	257.10
423.77	258.52
424.15	259.96
424.52	261.41
424.89	262.98
425.26	264.48
425.64	265.94
426.01	267.51
426.38	269.15
426.75	270.84
427.13	272.55
427.50	274.36
427.87	276.27
428.24	278.15
428.61	279.89
428.99	281.83
429.36	283.95
429.73	286.02
430.10	288.08
430.47	290.17
430.85	292.26
431.22	294.51
431.59	296.91
431.96	299.20
432.33	301.73
432.70	304.12
433.08	306.99
433.45	309.64
433.82	312.29
434.19	315.25
434.56	318.07
434.93	320.80
435.30	323.41
435.68	326.29
436.05	329.15
436.42	332.00
436.79	334.51
437.16	337.23
437.53	340.11
437.90	342.92
438.27	345.71
438.64	348.56
439.01	351.17
439.38	353.41
439.75	355.59
440.13	358.05
440.50	360.41
440.87	362.26
441.24	364.18
441.61	366.34
441.98	367.84
442.35	369.64
442.72	371.46
443.09	373.31
443.46	374.34
443.83	374.94
444.20	375.41
444.57	376.30
444.94	376.55
445.31	376.89
445.68	377.24
446.05	377.31
446.42	376.98
446.79	376.58
447.16	376.15
447.53	375.84
447.90	374.72
448.27	373.57
448.64	372.02
449.01	370.94
449.37	368.97
449.74	367.06
450.11	364.85
450.48	362.38
450.85	359.88
451.22	357.72
451.59	355.70
451.96	353.81
452.33	351.16
452.70	348.82
453.07	345.94
453.43	343.04
453.80	340.29
454.17	337.53
454.54	334.96
454.91	332.21
455.28	329.52
455.65	327.01
456.02	324.50
456.38	322.33
456.75	319.65
457.12	317.38
457.49	315.15
457.86	312.96
458.23	311.08
458.59	309.00
458.96	306.90
459.33	304.99
459.70	303.07
460.07	301.52
460.43	299.79
460.80	298.21
461.17	296.79
461.54	295.31
461.91	293.92
462.27	292.45
462.64	291.18
463.01	289.80
463.38	288.47
463.74	287.12
464.11	285.93
464.48	284.83
464.85	283.67
465.21	282.74
465.58	281.77
465.95	280.65
466.32	279.72
466.68	278.82
467.05	277.91
467.42	277.01
467.78	276.09
468.15	275.18
468.52	274.46
468.88	273.55
469.25	272.71
469.62	272.04
469.98	271.33
470.35	270.70
470.72	270.08
471.08	269.46
471.45	268.89
471.82	268.32
472.18	267.72
472.55	267.31
472.92	266.75
473.28	266.26
473.65	265.83
474.02	265.35
474.38	264.95
474.75	264.59
475.11	264.22
475.48	263.89
475.85	263.68
476.21	263.41
476.58	263.23
476.94	263.08
477.31	262.89
477.67	262.77
478.04	262.65
478.41	262.55
478.77	262.55
479.14	262.47
479.50	262.51
479.87	262.60
480.23	262.69
480.60	262.78
480.96	262.89
481.33	263.05
481.69	263.23
482.06	263.44
482.42	263.69
482.79	263.95
483.15	264.33
483.52	264.70
483.88	265.08
484.25	265.46
484.61	265.88
484.98	266.39
485.34	266.95
485.71	267.51
486.07	268.15
486.44	268.75
486.80	269.47
487.17	270.17
487.53	271.01
487.90	271.83
488.26	272.80
488.62	273.81
488.99	274.79
489.35	275.84
489.72	276.95
490.08	278.19
490.44	279.42
490.81	280.76
491.17	282.11
491.54	283.60
491.90	285.11
492.26	286.72
492.63	288.42
492.99	290.21
493.36	292.10
493.72	294.12
494.08	296.21
494.45	298.49
494.81	300.81
495.17	303.18
495.54	305.76
495.90	308.44
496.26	311.19
496.63	314.15
496.99	317.25
497.35	320.48
497.72	323.84
498.08	327.38
498.44	331.02
498.80	334.87
499.17	338.91
499.53	343.09
499.89	347.47
500.26	351.93
500.62	356.55
500.98	361.53
501.34	366.59
501.71	371.93
502.07	377.28
502.43	382.90
502.79	388.66
503.16	394.67
503.52	400.94
503.88	407.34
504.24	413.99
504.60	420.90
504.97	428.02
505.33	435.37
505.69	443.07
506.05	450.81
506.41	458.73
506.78	466.84
507.14	475.34
507.50	484.04
507.86	493.06
508.22	502.28
508.59	511.41
508.95	520.99
509.31	530.70
509.67	540.77
510.03	551.03
510.39	561.67
510.75	572.48
511.12	583.36
511.48	594.62
511.84	606.04
512.20	617.51
512.56	629.45
512.92	641.56
513.28	653.83
513.64	666.38
514.00	679.11
514.37	692.06
514.73	705.06
515.09	718.12
515.45	731.45
515.81	745.07
516.17	759.07
516.53	773.20
516.89	787.46
517.25	801.64
517.61	816.16
517.97	830.60
518.33	845.07
518.69	859.96
519.05	875.07
519.41	890.25
519.77	905.81
520.13	921.28
520.49	936.73
520.85	952.24
521.21	967.94
521.57	984.23
521.93	1000.10
522.29	1016.56
522.65	1032.84
523.01	1049.09
523.37	1065.20
523.73	1081.43
524.09	1097.54
524.45	1113.91
524.81	1130.60
525.17	1147.45
525.53	1164.46
525.89	1181.46
526.25	1198.25
526.61	1214.65
526.97	1231.45
527.33	1247.93
527.68	1264.75
528.04	1281.30
528.40	1297.97
528.76	1315.15
529.12	1331.72
529.48	1348.72
529.84	1364.84
530.20	1381.51
530.56	1398.58
530.91	1416.01
531.27	1432.80
531.63	1449.33
531.99	1466.05
532.35	1482.20
532.71	1498.16
533.07	1514.33
533.42	1530.19
533.78	1546.33
534.14	1562.71
534.50	1578.17
534.86	1594.26
535.21	1609.42
535.57	1625.48
535.93	1641.09
536.29	1655.94
536.65	1671.24
537.00	1686.08
537.36	1701.52
537.72	1716.29
538.08	1730.78
538.44	1744.55
538.79	1758.69
539.15	1772.65
539.51	1786.29
539.87	1800.75
540.22	1814.61
540.58	1828.61
540.94	1842.23
541.29	1855.30
541.65	1868.09
542.01	1881.47
542.37	1893.91
542.72	1906.42
543.08	1918.23
543.44	1930.72
543.79	1942.02
544.15	1953.03
544.51	1964.56
544.87	1975.66
545.22	1986.32
545.58	1996.66
545.94	2006.57
546.29	2016.43
546.65	2026.13
547.01	2035.51
547.36	2044.24
547.72	2052.69
548.07	2060.56
548.43	2068.68
548.79	2076.73
549.14	2084.26
549.50	2091.72
549.86	2099.40
550.21	2106.76
550.57	2113.94
550.92	2120.43
551.28	2127.52
551.64	2134.60
551.99	2141.26
552.35	2147.30
552.70	2153.60
553.06	2159.43
553.41	2165.77
553.77	2171.80
554.13	2178.10
554.48	2184.15
554.84	2189.46
555.19	2194.89
555.55	2200.03
555.90	2204.38
556.26	2209.15
556.61	2213.92
556.97	2217.86
557.32	2221.84
557.68	2225.95
558.03	2230.28
558.39	2234.12
558.74	2238.72
559.10	2242.46
559.45	2245.93
559.81	2250.17
560.16	2253.89
560.52	2257.18
560.87	2260.62
561.23	2263.08
561.58	2265.82
561.94	2268.43
562.29	2270.82
562.64	2273.37
563.00	2275.86
563.35	2279.36
563.71	2282.51
564.06	2285.60
564.42	2288.46
564.77	2290.95
565.12	2293.01
565.48	2294.72
565.83	2296.26
566.19	2297.46
566.54	2298.42
566.89	2299.44
567.25	2299.79
567.60	2301.14
567.96	2302.65
568.31	2303.42
568.66	2304.41
569.02	2304.96
569.37	2305.05
569.72	2305.73
570.08	2305.61
570.43	2305.58
570.78	2304.78
571.14	2303.02
571.49	2301.61
571.84	2301.23
572.20	2299.90
572.55	2298.81
572.90	2297.27
573.26	2295.80
573.61	2293.88
573.96	2291.86
574.31	2288.77
574.67	2285.69
575.02	2281.78
575.37	2278.34
575.72	2274.27
576.08	2270.96
576.43	2267.50
576.78	2263.75
577.13	2260.54
577.49	2257.41
577.84	2253.81
578.19	2250.07
578.54	2246.21
578.90	2241.69
579.25	2236.09
579.60	2230.98
579.95	2225.91
580.30	2220.60
580.66	2215.24
581.01	2210.29
581.36	2205.21
581.71	2200.98
582.06	2196.48
582.42	2191.94
582.77	2186.55
583.12	2181.76
583.47	2176.78
583.82	2171.51
584.17	2166.14
584.53	2160.66
584.88	2154.78
585.23	2148.70
585.58	2143.10
585.93	2137.60
586.28	2132.91
586.63	2127.71
586.98	2122.61
587.34	2117.71
587.69	2112.84
588.04	2107.55
588.39	2101.74
588.74	2095.19
589.09	2088.84
589.44	2081.88
589.79	2075.72
590.14	2069.95
590.49	2063.49
590.84	2056.98
591.19	2050.90
591.54	2044.34
591.89	2036.56
592.25	2029.66
592.60	2022.46
592.95	2014.79
593.30	2007.38
593.65	1999.64
594.00	1992.45
594.35	1985.13
594.70	1977.03
595.05	1969.60
595.40	1962.33
595.75	1954.85
596.10	1948.54
596.45	1941.78
596.80	1935.61
597.15	1928.93
597.50	1921.81
597.85	1915.32
598.19	1908.64
598.54	1901.51
598.89	1894.84
599.24	1889.06
599.59	1882.38
599.94	1876.17
600.29	1869.74
600.64	1863.08
600.99	1855.47
601.34	1848.51
601.69	1841.51
602.04	1834.57
602.39	1827.17
602.74	1820.25
603.08	1813.47
603.43	1806.67
603.78	1799.36
604.13	1792.14
604.48	1784.71
604.83	1777.80
605.18	1770.66
605.53	1762.56
605.87	1754.51
606.22	1747.33
606.57	1739.43
606.92	1732.13
607.27	1724.87
607.62	1717.89
607.96	1710.64
608.31	1704.06
608.66	1696.39
609.01	1688.73
609.36	1681.17
609.70	1673.26
610.05	1665.15
610.40	1657.32
610.75	1649.05
611.10	1641.47
611.44	1633.07
611.79	1625.17
612.14	1616.48
612.49	1607.47
612.83	1599.29
613.18	1591.31
613.53	1583.15
613.88	1574.60
614.22	1566.43
614.57	1557.89
614.92	1549.92
615.27	1542.37
615.61	1533.90
615.96	1526.10
616.31	1518.61
616.65	1511.33
617.00	1503.79
617.35	1496.22
617.70	1487.89
618.04	1479.38
618.39	1471.14
618.74	1463.52
619.08	1455.26
619.43	1447.76
619.78	1440.76
620.12	1433.54
620.47	1425.92
620.82	1417.86
621.16	1410.52
621.51	1402.90
621.85	1395.28
622.20	1386.80
622.55	1378.51
622.89	1370.92
623.24	1363.33
623.59	1355.96
623.93	1348.43
624.28	1341.13
624.62	1333.62
624.97	1326.50
625.32	1319.93
625.66	1312.93
626.01	1305.77
626.35	1298.31
626.70	1290.53
627.04	1282.84
627.39	1275.11
627.73	1267.82
628.08	1260.97
628.43	1253.61
628.77	1246.19
629.12	1238.70
629.46	1231.55
629.81	1224.16
630.15	1216.95
630.50	1209.50
630.84	1201.31
631.19	1193.48
631.53	1186.10
631.88	1178.57
632.22	1170.97
632.57	1163.56
632.91	1155.99
633.26	1148.63
633.60	1141.36
633.95	1134.37
634.29	1127.53
634.64	1120.88
634.98	1113.48
635.32	1106.37
635.67	1099.88
636.01	1093.31
636.36	1086.57
636.70	1080.07
637.05	1073.48
637.39	1067.05
637.73	1060.53
638.08	1054.75
638.42	1048.75
638.77	1042.29
639.11	1035.75
639.45	1029.55
639.80	1022.93
640.14	1016.57
640.49	1010.07
640.83	1003.84
641.17	997.66
641.52	991.27
641.86	984.95
642.20	979.09
642.55	972.75
642.89	966.23
643.23	959.67
643.58	953.84
643.92	947.64
644.26	941.66
644.61	935.69
644.95	929.62
645.29	922.96
645.64	916.07
645.98	909.82
646.32	904.02
646.66	897.87
647.01	892.10
647.35	886.42
647.69	880.56
648.04	875.04
648.38	869.24
648.72	863.17
649.06	857.08
649.41	851.18
649.75	845.17
650.09	839.21
650.43	833.47
650.78	827.28
651.12	821.39
651.46	815.62
651.80	809.76
652.14	804.43
652.49	799.09
652.83	794.08
653.17	788.31
653.51	782.52
653.85	777.11
654.20	771.45
654.54	765.41
654.88	759.76
655.22	753.92
655.56	748.19
655.90	742.83
656.25	737.57
656.59	732.28
656.93	727.21
657.27	722.11
657.61	716.70
657.95	711.70
658.29	706.65
658.64	701.47
658.98	696.23
659.32	690.88
659.66	685.70
660.00	680.36
660.34	675.44
660.68	670.60
661.02	665.70
661.36	661.08
661.70	656.67
662.05	652.24
662.39	647.92
662.73	643.55
663.07	639.20
663.41	634.81
663.75	630.37
664.09	625.85
664.43	621.49
664.77	617.39
665.11	613.18
665.45	609.15
665.79	605.06
666.13	601.03
666.47	596.94
666.81	592.83
667.15	588.72
667.49	584.91
667.83	581.17
668.17	577.20
668.51	573.10
668.85	569.09
669.19	565.32
669.53	561.45
669.87	557.57
670.21	553.86
670.55	550.24
670.89	546.82
671.23	543.43
671.57	539.92
671.91	536.46
672.25	533.02
672.58	529.49
672.92	526.17
673.26	523.02
673.60	519.88
673.94	516.80
674.28	514.08
674.62	511.15
674.96	508.00
675.30	505.12
675.64	502.19
675.97	499.48
676.31	496.65
676.65	493.74
676.99	491.07
677.33	488.22
677.67	485.39
678.01	482.38
678.34	479.35
678.68	476.48
679.02	473.60
679.36	470.84
679.70	468.12
680.04	465.34
680.37	462.42
680.71	459.68
681.05	457.04
681.39	454.21
681.73	451.55
682.06	449.06
682.40	446.54
682.74	444.04
683.08	441.45
683.42	438.85
683.75	436.34
684.09	433.80
684.43	431.34
684.77	428.91
685.10	426.57
685.44	424.29
685.78	422.01
686.12	419.82
686.45	417.51
686.79	415.21
687.13	413.02
687.46	410.92
687.80	408.73
688.14	406.54
688.48	404.47
688.81	402.24
689.15	400.05
689.49	397.91
689.82	395.86
690.16	393.79
690.50	391.77
690.83	389.84
691.17	387.87
691.51	385.97
691.84	384.09
692.18	382.13
692.52	380.18
692.85	378.27
693.19	376.38
693.52	374.61
693.86	372.79
694.20	371.02
694.53	369.20
694.87	367.39
695.21	365.57
695.54	363.79
695.88	362.03
696.21	360.33
696.55	358.65
696.88	356.97
697.22	355.35
697.56	353.81
697.89	352.13
698.23	350.51
698.56	348.94
698.90	347.33
699.23	345.65
699.57	344.09
699.90	342.58
700.24	341.05
700.58	339.47
700.91	337.98
701.25	336.54
701.58	335.18
701.92	333.80
702.25	332.49
702.59	331.13
702.92	329.85
703.26	328.54
703.59	327.26
703.93	326.09
704.26	324.79
704.60	323.52
704.93	322.36
705.26	321.15
705.60	320.00
705.93	318.92
706.27	317.96
706.60	316.96
706.94	315.90
707.27	314.81
707.61	313.82
707.94	312.86
708.27	311.78
708.61	310.75
708.94	309.74
709.28	308.76
709.61	307.83
709.94	306.91
710.28	305.95
710.61	305.01
710.95	303.96
711.28	303.09
711.61	302.12
711.95	301.18
712.28	300.24
712.61	299.25
712.95	298.31
713.28	297.43
713.61	296.49
713.95	295.63
714.28	294.81
714.61	293.91
714.95	293.04
715.28	292.21
715.61	291.29
715.95	290.50
716.28	289.65
716.61	288.81
716.95	288.02
717.28	287.28
717.61	286.51
717.94	285.78
718.28	285.03
718.61	284.36
718.94	283.67
719.27	283.01
719.61	282.38
719.94	281.73
720.27	281.05
720.60	280.41
720.94	279.76
721.27	279.16
721.60	278.61
721.93	278.02
722.27	277.47
722.60	276.96
722.93	276.37
723.26	275.85
723.59	275.31
723.93	274.75
724.26	274.21
724.59	273.67
724.92	273.13
725.25	272.61
725.59	272.05
725.92	271.52
726.25	271.04
726.58	270.52
726.91	270.00
727.24	269.52
727.57	269.05
727.91	268.53
728.24	268.04
728.57	267.54
728.90	267.09
729.23	266.56
729.56	266.11
729.89	265.60
730.22	265.11
730.55	264.62
730.89	264.16
731.22	263.64
731.55	263.21
731.88	262.82
732.21	262.35
732.54	261.91
732.87	261.48
733.20	261.05
733.53	260.66
733.86	260.28
734.19	259.83
734.52	259.43
734.85	259.10
735.18	258.66
735.51	258.28
735.84	257.87
736.17	257.53
736.50	257.11
736.83	256.90
737.16	256.53
737.49	256.18
737.82	255.81
738.15	255.52
738.48	255.15
738.81	254.79
739.14	254.45
739.47	254.15
739.80	253.84
740.13	253.52
740.46	253.16
740.79	252.82
741.12	252.52
741.45	252.21
741.78	251.90
742.11	251.63
742.44	251.27
742.77	251.00
743.10	250.68
743.43	250.37
743.75	250.01
744.08	249.86
744.41	249.60
744.74	249.33
745.07	249.02
745.40	248.79
745.73	248.55
746.06	248.31
746.39	248.04
746.71	247.77
747.04	247.49
747.37	247.24
747.70	247.02
748.03	246.77
748.36	246.58
748.68	246.33
749.01	246.07
749.34	245.89
749.67	245.66
750.00	245.45
750.33	245.31
750.65	245.09
750.98	244.77
751.31	244.56
751.64	244.37
751.97	244.23
752.29	244.01
752.62	243.75
752.95	243.55
753.28	243.31
753.60	243.11
753.93	242.97
754.26	242.77
754.59	242.57
754.91	242.38
755.24	242.14
755.57	241.98
755.90	241.82
756.22	241.60
756.55	241.41
756.88	241.22
757.20	240.99
757.53	240.76
757.86	240.57
758.19	240.44
758.51	240.26
758.84	240.06
759.17	239.93
759.49	239.83
759.82	239.70
760.15	239.57
760.47	239.45
760.80	239.31
761.13	239.21
761.45	239.05
761.78	238.90
762.11	238.77
762.43	238.60
762.76	238.50
763.08	238.38
763.41	238.24
763.74	238.10
764.06	237.99
764.39	237.87
764.71	237.75
765.04	237.60
765.37	237.48
765.69	237.34
766.02	237.21
766.34	237.05
766.67	236.94
767.00	236.83
767.32	236.75
767.65	236.67
767.97	236.54
768.30	236.46
768.62	236.37
768.95	236.24
769.27	236.15
769.60	236.04
769.92	235.94
770.25	235.86
770.57	235.76
770.90	235.63
771.22	235.53
771.55	235.48
771.87	235.38
772.20	235.29
772.52	235.26
772.85	235.27
773.17	235.17
773.50	235.02
773.82	234.93
774.15	234.81
774.47	234.65
774.80	234.55
775.12	234.44
775.45	234.34
775.77	234.26
776.09	234.16
776.42	234.07
776.74	234.00
777.07	233.89
777.39	233.80
777.72	233.74
778.04	233.68
778.36	233.54
778.69	233.49
779.01	233.37
779.33	233.24
779.66	233.06
779.98	232.97
780.31	232.92
780.63	232.91
780.95	232.82
781.28	232.78
781.60	232.71
781.92	232.63
782.25	232.57
782.57	232.54
782.89	232.46
783.22	232.42
783.54	232.34
783.86	232.28
784.19	232.23
784.51	232.20
784.83	232.14
785.16	232.11
785.48	232.03
785.80	232.02
786.12	231.99
786.45	231.96
786.77	231.94
787.09	231.91
