SpectraSuite Data File
++++++++++++++++++++++++++++++++++++
Date: Fri Feb 01 16:39:36 EST 2013
User: group
Dark Spectrum Present: No
Reference Spectrum Present: No
Number of Sampled Component Spectra: 1
Spectrometers: USB2E7196
Integration Time (usec): 35000 (USB2E7196)
Spectra Averaged: 100 (USB2E7196)
Boxcar Smoothing: 10 (USB2E7196)
Correct for Electrical Dark: No (USB2E7196)
Strobe/Lamp Enabled: No (USB2E7196)
Correct for Detector Non-linearity: No (USB2E7196)
Correct for Stray Light: No (USB2E7196)
Number of Pixels in Processed Spectrum: 2048
>>>>>Begin Processed Spectral Data<<<<<
339.09	0.00
339.48	213.27
339.86	215.09
340.24	216.79
340.63	218.17
341.01	220.78
341.39	220.58
341.78	222.11
342.16	222.64
342.54	223.73
342.93	212.17
343.31	222.87
343.69	223.44
344.07	223.90
344.46	224.30
344.84	224.68
345.22	224.91
345.60	225.16
345.99	225.32
346.37	225.46
346.75	225.55
347.13	225.64
347.52	225.70
347.90	225.75
348.28	225.74
348.66	225.79
349.05	225.76
349.43	225.78
349.81	225.80
350.19	225.85
350.57	225.88
350.96	225.94
351.34	226.04
351.72	226.11
352.10	226.21
352.48	226.29
352.87	226.33
353.25	226.41
353.63	226.48
354.01	226.58
354.39	226.67
354.77	226.76
355.15	226.85
355.54	226.90
355.92	226.92
356.30	227.02
356.68	227.15
357.06	227.23
357.44	227.32
357.82	227.40
358.20	227.47
358.58	227.54
358.97	227.59
359.35	227.65
359.73	227.74
360.11	227.81
360.49	227.91
360.87	227.94
361.25	228.00
361.63	228.07
362.01	228.10
362.39	228.15
362.77	228.18
363.15	228.20
363.53	228.25
363.91	228.29
364.29	228.31
364.67	228.24
365.05	228.29
365.43	228.30
365.81	228.32
366.19	228.39
366.57	228.45
366.95	228.46
367.33	228.44
367.71	228.43
368.09	228.39
368.47	228.34
368.85	228.36
369.23	228.36
369.61	228.32
369.99	228.33
370.37	228.30
370.75	228.32
371.13	228.30
371.51	228.22
371.89	228.24
372.27	228.20
372.65	228.17
373.03	228.12
373.41	228.10
373.78	228.04
374.16	227.92
374.54	227.85
374.92	227.78
375.30	227.76
375.68	227.71
376.06	227.69
376.44	227.63
376.82	227.56
377.19	227.50
377.57	227.43
377.95	227.38
378.33	227.31
378.71	227.20
379.09	227.13
379.47	227.10
379.84	226.97
380.22	226.93
380.60	226.83
380.98	226.75
381.36	226.67
381.73	226.60
382.11	226.56
382.49	226.50
382.87	226.45
383.25	226.36
383.62	226.39
384.00	226.32
384.38	226.27
384.76	226.23
385.13	226.21
385.51	226.17
385.89	226.09
386.27	226.04
386.64	225.99
387.02	225.91
387.40	225.87
387.78	225.83
388.15	225.75
388.53	225.75
388.91	225.72
389.29	225.70
389.66	225.67
390.04	225.59
390.42	225.58
390.79	225.53
391.17	225.52
391.55	225.39
391.92	225.40
392.30	225.37
392.68	225.31
393.05	225.26
393.43	225.25
393.81	225.23
394.18	225.26
394.56	225.27
394.94	225.32
395.31	225.32
395.69	225.35
396.06	225.41
396.44	225.42
396.82	225.46
397.19	225.52
397.57	225.53
397.95	225.61
398.32	225.62
398.70	225.73
399.07	225.80
399.45	225.85
399.82	225.89
400.20	225.97
400.58	226.06
400.95	226.11
401.33	226.20
401.70	226.35
402.08	226.41
402.45	226.49
402.83	226.57
403.20	226.68
403.58	226.78
403.95	226.88
404.33	227.02
404.71	227.12
405.08	227.30
405.46	227.43
405.83	227.56
406.21	227.68
406.58	227.82
406.96	227.96
407.33	228.14
407.70	228.32
408.08	228.58
408.45	228.78
408.83	229.03
409.20	229.24
409.58	229.37
409.95	229.63
410.33	229.92
410.70	230.16
411.08	230.45
411.45	230.77
411.82	231.10
412.20	231.42
412.57	231.80
412.95	232.07
413.32	232.46
413.69	232.85
414.07	233.31
414.44	233.76
414.82	234.21
415.19	234.73
415.56	235.25
415.94	235.77
416.31	236.37
416.68	236.99
417.06	237.70
417.43	238.40
417.81	239.14
418.18	239.93
418.55	240.78
418.93	241.68
419.30	242.58
419.67	243.48
420.04	244.43
420.42	245.44
420.79	246.62
421.16	247.79
421.54	249.00
421.91	250.18
422.28	251.42
422.66	252.77
423.03	254.05
423.40	255.40
423.77	256.83
424.15	258.31
424.52	259.76
424.89	261.37
425.26	262.96
425.64	264.42
426.01	265.98
426.38	267.61
426.75	269.22
427.13	270.91
427.50	272.71
427.87	274.59
428.24	276.49
428.61	278.25
428.99	280.14
429.36	282.25
429.73	284.33
430.10	286.36
430.47	288.41
430.85	290.54
431.22	292.78
431.59	295.09
431.96	297.28
432.33	299.74
432.70	302.02
433.08	304.78
433.45	307.40
433.82	309.98
434.19	312.84
434.56	315.67
434.93	318.31
435.30	320.95
435.68	323.81
436.05	326.54
436.42	329.31
436.79	331.85
437.16	334.47
437.53	337.26
437.90	339.98
438.27	342.70
438.64	345.48
439.01	348.05
439.38	350.25
439.75	352.45
440.13	354.89
440.50	357.29
440.87	359.08
441.24	361.00
441.61	363.14
441.98	364.60
442.35	366.36
442.72	368.23
443.09	369.98
443.46	370.96
443.83	371.57
444.20	372.03
444.57	372.82
444.94	373.13
445.31	373.45
445.68	373.86
446.05	373.94
446.42	373.59
446.79	373.14
447.16	372.71
447.53	372.36
447.90	371.26
448.27	370.08
448.64	368.59
449.01	367.45
449.37	365.48
449.74	363.62
450.11	361.37
450.48	358.92
450.85	356.40
451.22	354.28
451.59	352.30
451.96	350.38
452.33	347.81
452.70	345.52
453.07	342.73
453.43	339.85
453.80	337.11
454.17	334.46
454.54	331.93
454.91	329.25
455.28	326.58
455.65	324.11
456.02	321.67
456.38	319.52
456.75	316.89
457.12	314.70
457.49	312.52
457.86	310.41
458.23	308.54
458.59	306.50
458.96	304.43
459.33	302.58
459.70	300.73
460.07	299.27
460.43	297.50
460.80	295.90
461.17	294.50
461.54	293.01
461.91	291.59
462.27	290.21
462.64	289.00
463.01	287.68
463.38	286.42
463.74	285.06
464.11	283.92
464.48	282.90
464.85	281.78
465.21	280.90
465.58	280.00
465.95	278.92
466.32	278.05
466.68	277.18
467.05	276.29
467.42	275.45
467.78	274.51
468.15	273.67
468.52	273.03
468.88	272.21
469.25	271.42
469.62	270.80
469.98	270.12
470.35	269.50
470.72	268.92
471.08	268.29
471.45	267.80
471.82	267.26
472.18	266.68
472.55	266.28
472.92	265.79
473.28	265.34
473.65	264.88
474.02	264.47
474.38	264.11
474.75	263.81
475.11	263.45
475.48	263.20
475.85	263.02
476.21	262.82
476.58	262.60
476.94	262.49
477.31	262.34
477.67	262.20
478.04	262.07
478.41	262.00
478.77	262.03
479.14	261.95
479.50	261.97
479.87	262.03
480.23	262.07
480.60	262.13
480.96	262.22
481.33	262.43
481.69	262.62
482.06	262.81
482.42	262.98
482.79	263.26
483.15	263.55
483.52	263.89
483.88	264.22
484.25	264.62
484.61	265.04
484.98	265.50
485.34	266.06
485.71	266.66
486.07	267.28
486.44	267.81
486.80	268.50
487.17	269.24
487.53	270.04
487.90	270.91
488.26	271.87
488.62	272.88
488.99	273.86
489.35	274.90
489.72	276.03
490.08	277.27
490.44	278.50
490.81	279.84
491.17	281.19
491.54	282.68
491.90	284.21
492.26	285.91
492.63	287.63
492.99	289.42
493.36	291.30
493.72	293.37
494.08	295.47
494.45	297.75
494.81	300.10
495.17	302.58
495.54	305.12
495.90	307.81
496.26	310.64
496.63	313.62
496.99	316.73
497.35	319.98
497.72	323.37
498.08	326.91
498.44	330.62
498.80	334.54
499.17	338.59
499.53	342.78
499.89	347.15
500.26	351.68
500.62	356.34
500.98	361.40
501.34	366.48
501.71	371.83
502.07	377.26
502.43	382.86
502.79	388.71
503.16	394.84
503.52	401.11
503.88	407.51
504.24	414.18
504.60	421.13
504.97	428.32
505.33	435.68
505.69	443.40
506.05	451.17
506.41	459.08
506.78	467.21
507.14	475.66
507.50	484.35
507.86	493.37
508.22	502.61
508.59	511.76
508.95	521.31
509.31	531.19
509.67	541.28
510.03	551.62
510.39	562.17
510.75	572.96
511.12	583.92
511.48	595.20
511.84	606.63
512.20	618.12
512.56	629.95
512.92	642.03
513.28	654.39
513.64	666.81
514.00	679.47
514.37	692.39
514.73	705.44
515.09	718.45
515.45	731.67
515.81	745.27
516.17	759.13
516.53	773.28
516.89	787.40
517.25	801.55
517.61	815.91
517.97	830.29
518.33	844.68
518.69	859.32
519.05	874.23
519.41	889.28
519.77	904.68
520.13	920.03
520.49	935.35
520.85	950.57
521.21	966.18
521.57	982.29
521.93	997.94
522.29	1014.16
522.65	1030.37
523.01	1046.40
523.37	1062.28
523.73	1078.36
524.09	1094.34
524.45	1110.56
524.81	1127.10
525.17	1143.76
525.53	1160.45
525.89	1177.20
526.25	1193.85
526.61	1210.04
526.97	1226.68
527.33	1243.11
527.68	1259.62
528.04	1276.06
528.40	1292.51
528.76	1309.46
529.12	1326.06
529.48	1342.86
529.84	1358.80
530.20	1375.16
530.56	1391.95
530.91	1409.28
531.27	1425.92
531.63	1442.21
531.99	1458.50
532.35	1474.29
532.71	1490.10
533.07	1506.27
533.42	1522.12
533.78	1538.21
534.14	1554.39
534.50	1569.62
534.86	1585.28
535.21	1600.47
535.57	1616.14
535.93	1631.49
536.29	1646.10
536.65	1660.88
537.00	1675.44
537.36	1690.62
537.72	1705.08
538.08	1719.53
538.44	1732.90
538.79	1746.76
539.15	1760.11
539.51	1773.64
539.87	1787.86
540.22	1801.30
540.58	1814.73
540.94	1827.70
541.29	1840.31
541.65	1852.77
542.01	1865.60
542.37	1877.76
542.72	1889.85
543.08	1901.55
543.44	1913.74
543.79	1924.88
544.15	1935.63
544.51	1947.03
544.87	1957.66
545.22	1968.37
545.58	1978.39
545.94	1988.26
546.29	1997.97
546.65	2007.89
547.01	2017.30
547.36	2025.89
547.72	2034.48
548.07	2042.50
548.43	2050.64
548.79	2058.40
549.14	2066.00
549.50	2073.38
549.86	2080.90
550.21	2088.16
550.57	2095.34
550.92	2101.98
551.28	2109.18
551.64	2116.26
551.99	2122.86
552.35	2129.11
552.70	2135.22
553.06	2141.41
553.41	2147.73
553.77	2153.61
554.13	2159.65
554.48	2165.64
554.84	2171.32
555.19	2176.45
555.55	2181.61
555.90	2186.26
556.26	2191.48
556.61	2196.24
556.97	2200.67
557.32	2204.87
557.68	2209.08
558.03	2213.33
558.39	2216.95
558.74	2221.33
559.10	2225.35
559.45	2228.90
559.81	2233.15
560.16	2236.87
560.52	2240.05
560.87	2243.33
561.23	2246.08
561.58	2249.04
561.94	2251.56
562.29	2253.64
562.64	2256.45
563.00	2258.98
563.35	2262.32
563.71	2265.33
564.06	2268.34
564.42	2271.31
564.77	2274.04
565.12	2276.42
565.48	2278.27
565.83	2280.29
566.19	2281.76
566.54	2282.52
566.89	2283.81
567.25	2284.65
567.60	2286.01
567.96	2287.69
568.31	2288.62
568.66	2289.82
569.02	2290.43
569.37	2290.89
569.72	2291.99
570.08	2292.20
570.43	2292.21
570.78	2291.68
571.14	2290.29
571.49	2289.01
571.84	2288.60
572.20	2287.44
572.55	2286.40
572.90	2284.78
573.26	2283.31
573.61	2281.51
573.96	2280.04
574.31	2277.20
574.67	2274.19
575.02	2270.57
575.37	2267.08
575.72	2263.49
576.08	2259.95
576.43	2256.42
576.78	2252.79
577.13	2249.34
577.49	2246.10
577.84	2242.74
578.19	2239.04
578.54	2235.41
578.90	2231.42
579.25	2225.96
579.60	2221.12
579.95	2216.22
580.30	2211.40
580.66	2206.35
581.01	2201.53
581.36	2196.50
581.71	2192.46
582.06	2188.20
582.42	2183.99
582.77	2178.97
583.12	2174.47
583.47	2170.04
583.82	2165.30
584.17	2160.11
584.53	2154.87
584.88	2149.43
585.23	2143.93
585.58	2138.44
585.93	2132.92
586.28	2127.97
586.63	2123.03
586.98	2117.97
587.34	2113.28
587.69	2108.28
588.04	2103.23
588.39	2097.72
588.74	2091.37
589.09	2085.04
589.44	2078.22
589.79	2072.08
590.14	2066.36
590.49	2059.76
590.84	2053.37
591.19	2047.29
591.54	2040.93
591.89	2033.74
592.25	2027.09
592.60	2019.91
592.95	2012.59
593.30	2005.38
593.65	1997.78
594.00	1990.73
594.35	1983.50
594.70	1975.41
595.05	1968.57
595.40	1961.40
595.75	1953.89
596.10	1947.90
596.45	1941.50
596.80	1935.36
597.15	1928.88
597.50	1922.14
597.85	1915.80
598.19	1909.31
598.54	1902.69
598.89	1896.21
599.24	1890.42
599.59	1883.93
599.94	1877.71
600.29	1871.46
600.64	1864.89
600.99	1857.84
601.34	1851.19
601.69	1844.21
602.04	1837.56
602.39	1830.16
602.74	1823.34
603.08	1816.64
603.43	1809.78
603.78	1802.38
604.13	1795.35
604.48	1788.37
604.83	1781.50
605.18	1774.71
605.53	1766.80
605.87	1758.68
606.22	1751.30
606.57	1743.28
606.92	1735.57
607.27	1728.53
607.62	1721.69
607.96	1714.66
608.31	1708.19
608.66	1700.59
609.01	1693.24
609.36	1685.83
609.70	1677.89
610.05	1669.88
610.40	1662.38
610.75	1654.18
611.10	1646.64
611.44	1638.12
611.79	1629.95
612.14	1621.29
612.49	1612.15
612.83	1603.70
613.18	1595.49
613.53	1587.39
613.88	1578.87
614.22	1570.90
614.57	1562.18
614.92	1554.22
615.27	1546.75
615.61	1538.44
615.96	1530.31
616.31	1522.61
616.65	1515.12
617.00	1507.53
617.35	1499.84
617.70	1491.61
618.04	1483.15
618.39	1474.82
618.74	1467.38
619.08	1459.06
619.43	1451.45
619.78	1444.32
620.12	1437.27
620.47	1429.87
620.82	1421.76
621.16	1414.33
621.51	1406.61
621.85	1398.97
622.20	1390.37
622.55	1381.89
622.89	1373.91
623.24	1366.41
623.59	1358.90
623.93	1351.35
624.28	1344.16
624.62	1336.69
624.97	1329.34
625.32	1322.47
625.66	1315.43
626.01	1308.15
626.35	1300.89
626.70	1293.13
627.04	1285.55
627.39	1277.68
627.73	1270.24
628.08	1263.30
628.43	1256.23
628.77	1248.99
629.12	1241.53
629.46	1234.36
629.81	1226.86
630.15	1219.66
630.50	1212.28
630.84	1204.30
631.19	1196.43
631.53	1188.83
631.88	1181.27
632.22	1173.77
632.57	1166.54
632.91	1159.11
633.26	1151.80
633.60	1144.24
633.95	1137.11
634.29	1130.00
634.64	1123.41
634.98	1116.14
635.32	1109.08
635.67	1102.38
636.01	1095.74
636.36	1089.04
636.70	1082.56
637.05	1076.13
637.39	1069.67
637.73	1063.16
638.08	1057.20
638.42	1051.14
638.77	1044.81
639.11	1038.37
639.45	1031.94
639.80	1025.29
640.14	1018.91
640.49	1012.34
640.83	1006.14
641.17	1000.06
641.52	993.84
641.86	987.35
642.20	981.47
642.55	975.11
642.89	968.66
643.23	962.02
643.58	956.27
643.92	950.09
644.26	944.05
644.61	937.98
644.95	932.05
645.29	925.62
645.64	918.97
645.98	912.58
646.32	906.55
646.66	900.60
647.01	894.78
647.35	889.03
647.69	883.15
648.04	877.61
648.38	871.80
648.72	865.89
649.06	859.85
649.41	853.93
649.75	848.13
650.09	842.22
650.43	836.46
650.78	830.27
651.12	824.36
651.46	818.58
651.80	812.93
652.14	807.47
652.49	802.06
652.83	796.87
653.17	791.35
653.51	785.76
653.85	780.26
654.20	774.66
654.54	768.70
654.88	762.99
655.22	757.07
655.56	751.30
655.90	745.74
656.25	740.51
656.59	735.19
656.93	730.04
657.27	724.86
657.61	719.44
657.95	714.32
658.29	709.17
658.64	703.85
658.98	698.49
659.32	692.98
659.66	687.78
660.00	682.54
660.34	677.58
660.68	672.64
661.02	667.61
661.36	662.95
661.70	658.50
662.05	654.12
662.39	649.88
662.73	645.39
663.07	641.02
663.41	636.59
663.75	632.11
664.09	627.50
664.43	623.08
664.77	619.02
665.11	614.74
665.45	610.62
665.79	606.61
666.13	602.51
666.47	598.44
666.81	594.22
667.15	590.00
667.49	586.07
667.83	582.13
668.17	578.19
668.51	574.09
668.85	570.00
669.19	566.12
669.53	562.25
669.87	558.43
670.21	554.74
670.55	551.05
670.89	547.59
671.23	544.20
671.57	540.68
671.91	537.19
672.25	533.60
672.58	530.06
672.92	526.59
673.26	523.40
673.60	520.24
673.94	517.20
674.28	514.29
674.62	511.27
674.96	508.23
675.30	505.32
675.64	502.45
675.97	499.62
676.31	496.79
676.65	493.83
676.99	491.13
677.33	488.26
677.67	485.47
678.01	482.50
678.34	479.53
678.68	476.60
679.02	473.71
679.36	470.99
679.70	468.25
680.04	465.50
680.37	462.67
680.71	459.83
681.05	457.18
681.39	454.49
681.73	451.83
682.06	449.30
682.40	446.74
682.74	444.15
683.08	441.62
683.42	439.04
683.75	436.58
684.09	433.95
684.43	431.46
684.77	429.02
685.10	426.57
685.44	424.19
685.78	421.95
686.12	419.70
686.45	417.40
686.79	415.15
687.13	413.02
687.46	410.79
687.80	408.65
688.14	406.35
688.48	404.31
688.81	402.13
689.15	399.98
689.49	397.84
689.82	395.75
690.16	393.65
690.50	391.68
690.83	389.74
691.17	387.79
691.51	385.91
691.84	384.07
692.18	382.20
692.52	380.30
692.85	378.36
693.19	376.52
693.52	374.72
693.86	372.87
694.20	371.07
694.53	369.33
694.87	367.49
695.21	365.73
695.54	363.89
695.88	362.13
696.21	360.40
696.55	358.71
696.88	357.00
697.22	355.34
697.56	353.69
697.89	352.03
698.23	350.40
698.56	348.76
698.90	347.13
699.23	345.49
699.57	343.93
699.90	342.33
700.24	340.75
700.58	339.23
700.91	337.76
701.25	336.28
701.58	334.85
701.92	333.49
702.25	332.11
702.59	330.77
702.92	329.47
703.26	328.13
703.59	326.88
703.93	325.71
704.26	324.47
704.60	323.17
704.93	321.91
705.26	320.66
705.60	319.46
705.93	318.29
706.27	317.23
706.60	316.15
706.94	315.08
707.27	313.98
707.61	312.88
707.94	311.83
708.27	310.77
708.61	309.73
708.94	308.70
709.28	307.74
709.61	306.74
709.94	305.78
710.28	304.77
710.61	303.79
710.95	302.71
711.28	301.78
711.61	300.85
711.95	299.90
712.28	299.00
712.61	298.04
712.95	297.14
713.28	296.23
713.61	295.34
713.95	294.48
714.28	293.63
714.61	292.76
714.95	291.92
715.28	291.02
715.61	290.14
715.95	289.31
716.28	288.43
716.61	287.61
716.95	286.79
717.28	286.05
717.61	285.28
717.94	284.56
718.28	283.73
718.61	283.00
718.94	282.30
719.27	281.62
719.61	280.93
719.94	280.24
720.27	279.53
720.60	278.89
720.94	278.28
721.27	277.67
721.60	277.11
721.93	276.54
722.27	275.99
722.60	275.43
722.93	274.87
723.26	274.36
723.59	273.78
723.93	273.21
724.26	272.69
724.59	272.09
724.92	271.54
725.25	271.07
725.59	270.60
725.92	270.10
726.25	269.60
726.58	269.13
726.91	268.66
727.24	268.23
727.57	267.73
727.91	267.22
728.24	266.79
728.57	266.30
728.90	265.80
729.23	265.29
729.56	264.88
729.89	264.40
730.22	263.93
730.55	263.45
730.89	263.03
731.22	262.57
731.55	262.15
731.88	261.73
732.21	261.32
732.54	260.83
732.87	260.39
733.20	259.99
733.53	259.60
733.86	259.21
734.19	258.81
734.52	258.41
734.85	258.05
735.18	257.62
735.51	257.23
735.84	256.87
736.17	256.53
736.50	256.11
736.83	255.91
737.16	255.55
737.49	255.25
737.82	254.91
738.15	254.56
738.48	254.23
738.81	253.89
739.14	253.55
739.47	253.26
739.80	252.97
740.13	252.66
740.46	252.35
740.79	252.04
741.12	251.69
741.45	251.43
741.78	251.12
742.11	250.86
742.44	250.58
742.77	250.28
743.10	249.98
743.43	249.67
743.75	249.28
744.08	249.13
744.41	248.81
744.74	248.52
745.07	248.23
745.40	247.98
745.73	247.76
746.06	247.52
746.39	247.29
746.71	247.01
747.04	246.75
747.37	246.52
747.70	246.24
748.03	246.03
748.36	245.77
748.68	245.54
749.01	245.29
749.34	245.07
749.67	244.85
750.00	244.62
750.33	244.48
750.65	244.27
750.98	243.94
751.31	243.75
751.64	243.52
751.97	243.36
752.29	243.14
752.62	242.87
752.95	242.65
753.28	242.39
753.60	242.18
753.93	241.94
754.26	241.72
754.59	241.50
754.91	241.29
755.24	241.10
755.57	240.87
755.90	240.67
756.22	240.48
756.55	240.27
756.88	240.08
757.20	239.85
757.53	239.64
757.86	239.49
758.19	239.35
758.51	239.19
758.84	238.97
759.17	238.82
759.49	238.65
759.82	238.51
760.15	238.37
760.47	238.22
760.80	238.07
761.13	237.95
761.45	237.78
761.78	237.62
762.11	237.48
762.43	237.32
762.76	237.15
763.08	236.99
763.41	236.84
763.74	236.72
764.06	236.58
764.39	236.43
764.71	236.27
765.04	236.11
765.37	236.00
765.69	235.87
766.02	235.72
766.34	235.61
766.67	235.49
767.00	235.39
767.32	235.30
767.65	235.27
767.97	235.13
768.30	235.03
768.62	234.92
768.95	234.80
769.27	234.70
769.60	234.61
769.92	234.48
770.25	234.36
770.57	234.24
770.90	234.13
771.22	234.01
771.55	233.91
771.87	233.82
772.20	233.69
772.52	233.70
772.85	233.73
773.17	233.62
773.50	233.51
773.82	233.41
774.15	233.30
774.47	233.13
774.80	233.00
775.12	232.91
775.45	232.83
775.77	232.76
776.09	232.67
776.42	232.59
776.74	232.57
777.07	232.50
777.39	232.43
777.72	232.34
778.04	232.29
778.36	232.21
778.69	232.15
779.01	232.10
779.33	231.96
779.66	231.79
779.98	231.73
780.31	231.70
780.63	231.67
780.95	231.61
781.28	231.55
781.60	231.51
781.92	231.46
782.25	231.41
782.57	231.33
782.89	231.29
783.22	231.23
783.54	231.12
783.86	231.08
784.19	231.01
784.51	231.01
784.83	230.94
785.16	230.89
785.48	230.83
785.80	230.80
786.12	230.76
786.45	230.70
786.77	230.65
787.09	230.57
