SpectraSuite Data File
++++++++++++++++++++++++++++++++++++
Date: Fri Feb 01 16:46:43 EST 2013
User: group
Dark Spectrum Present: No
Reference Spectrum Present: No
Number of Sampled Component Spectra: 1
Spectrometers: USB2E7196
Integration Time (usec): 35000 (USB2E7196)
Spectra Averaged: 100 (USB2E7196)
Boxcar Smoothing: 10 (USB2E7196)
Correct for Electrical Dark: No (USB2E7196)
Strobe/Lamp Enabled: No (USB2E7196)
Correct for Detector Non-linearity: No (USB2E7196)
Correct for Stray Light: No (USB2E7196)
Number of Pixels in Processed Spectrum: 2048
>>>>>Begin Processed Spectral Data<<<<<
339.09	0.00
339.48	213.52
339.86	214.44
340.24	215.90
340.63	217.17
341.01	220.25
341.39	220.02
341.78	221.15
342.16	222.15
342.54	223.52
342.93	211.58
343.31	222.26
343.69	222.78
344.07	223.25
344.46	223.68
344.84	224.08
345.22	224.31
345.60	224.59
345.99	224.81
346.37	224.98
346.75	225.08
347.13	225.19
347.52	225.27
347.90	225.39
348.28	225.43
348.66	225.49
349.05	225.48
349.43	225.50
349.81	225.54
350.19	225.59
350.57	225.64
350.96	225.73
351.34	225.85
351.72	225.95
352.10	226.08
352.48	226.16
352.87	226.23
353.25	226.30
353.63	226.36
354.01	226.43
354.39	226.50
354.77	226.57
355.15	226.68
355.54	226.72
355.92	226.73
356.30	226.82
356.68	226.98
357.06	227.05
357.44	227.13
357.82	227.21
358.20	227.30
358.58	227.40
358.97	227.49
359.35	227.54
359.73	227.64
360.11	227.68
360.49	227.74
360.87	227.77
361.25	227.85
361.63	227.92
362.01	227.97
362.39	227.98
362.77	228.05
363.15	228.05
363.53	228.11
363.91	228.15
364.29	228.15
364.67	228.03
365.05	228.07
365.43	228.10
365.81	228.10
366.19	228.14
366.57	228.17
366.95	228.13
367.33	228.12
367.71	228.09
368.09	228.08
368.47	228.06
368.85	228.04
369.23	228.00
369.61	227.93
369.99	227.93
370.37	227.95
370.75	227.95
371.13	227.88
371.51	227.85
371.89	227.82
372.27	227.79
372.65	227.80
373.03	227.74
373.41	227.69
373.78	227.59
374.16	227.48
374.54	227.37
374.92	227.31
375.30	227.24
375.68	227.14
376.06	227.07
376.44	227.00
376.82	226.95
377.19	226.91
377.57	226.84
377.95	226.75
378.33	226.67
378.71	226.54
379.09	226.51
379.47	226.45
379.84	226.35
380.22	226.25
380.60	226.13
380.98	226.06
381.36	225.97
381.73	225.94
382.11	225.85
382.49	225.79
382.87	225.72
383.25	225.66
383.62	225.71
384.00	225.66
384.38	225.61
384.76	225.56
385.13	225.52
385.51	225.44
385.89	225.37
386.27	225.29
386.64	225.24
387.02	225.19
387.40	225.10
387.78	225.08
388.15	225.05
388.53	225.02
388.91	224.98
389.29	224.99
389.66	224.95
390.04	224.96
390.42	224.97
390.79	224.99
391.17	224.98
391.55	224.86
391.92	224.87
392.30	224.88
392.68	224.88
393.05	224.90
393.43	224.92
393.81	224.93
394.18	224.89
394.56	224.91
394.94	224.93
395.31	224.96
395.69	225.01
396.06	225.04
396.44	225.11
396.82	225.11
397.19	225.16
397.57	225.20
397.95	225.26
398.32	225.27
398.70	225.31
399.07	225.35
399.45	225.44
399.82	225.48
400.20	225.49
400.58	225.59
400.95	225.59
401.33	225.70
401.70	225.84
402.08	225.99
402.45	226.12
402.83	226.25
403.20	226.32
403.58	226.42
403.95	226.54
404.33	226.67
404.71	226.81
405.08	226.99
405.46	227.13
405.83	227.25
406.21	227.40
406.58	227.56
406.96	227.74
407.33	227.89
407.70	228.07
408.08	228.38
408.45	228.56
408.83	228.82
409.20	229.03
409.58	229.19
409.95	229.42
410.33	229.62
410.70	229.83
411.08	230.13
411.45	230.41
411.82	230.71
412.20	231.03
412.57	231.45
412.95	231.72
413.32	232.10
413.69	232.50
414.07	232.92
414.44	233.35
414.82	233.81
415.19	234.37
415.56	234.92
415.94	235.39
416.31	236.01
416.68	236.61
417.06	237.30
417.43	238.00
417.81	238.78
418.18	239.57
418.55	240.41
418.93	241.28
419.30	242.17
419.67	243.07
420.04	244.01
420.42	244.98
420.79	246.14
421.16	247.29
421.54	248.47
421.91	249.67
422.28	250.90
422.66	252.24
423.03	253.49
423.40	254.78
423.77	256.26
424.15	257.70
424.52	259.18
424.89	260.78
425.26	262.30
425.64	263.70
426.01	265.29
426.38	266.93
426.75	268.60
427.13	270.32
427.50	272.11
427.87	273.98
428.24	275.85
428.61	277.59
428.99	279.51
429.36	281.62
429.73	283.69
430.10	285.72
430.47	287.77
430.85	289.89
431.22	292.12
431.59	294.42
431.96	296.64
432.33	299.11
432.70	301.46
433.08	304.25
433.45	306.91
433.82	309.43
434.19	312.31
434.56	315.07
434.93	317.71
435.30	320.33
435.68	323.20
436.05	326.00
436.42	328.74
436.79	331.22
437.16	333.84
437.53	336.63
437.90	339.38
438.27	342.09
438.64	344.86
439.01	347.43
439.38	349.67
439.75	351.83
440.13	354.25
440.50	356.57
440.87	358.41
441.24	360.31
441.61	362.49
441.98	363.94
442.35	365.72
442.72	367.53
443.09	369.33
443.46	370.33
443.83	370.90
444.20	371.44
444.57	372.26
444.94	372.58
445.31	372.95
445.68	373.34
446.05	373.45
446.42	373.16
446.79	372.83
447.16	372.39
447.53	372.07
447.90	370.94
448.27	369.80
448.64	368.24
449.01	367.16
449.37	365.20
449.74	363.37
450.11	361.19
450.48	358.79
450.85	356.29
451.22	354.15
451.59	352.15
451.96	350.25
452.33	347.70
452.70	345.38
453.07	342.56
453.43	339.69
453.80	336.92
454.17	334.19
454.54	331.63
454.91	328.93
455.28	326.31
455.65	323.86
456.02	321.43
456.38	319.30
456.75	316.62
457.12	314.43
457.49	312.24
457.86	310.08
458.23	308.22
458.59	306.18
458.96	304.15
459.33	302.30
459.70	300.47
460.07	298.98
460.43	297.25
460.80	295.66
461.17	294.25
461.54	292.76
461.91	291.38
462.27	289.93
462.64	288.67
463.01	287.32
463.38	286.02
463.74	284.66
464.11	283.51
464.48	282.47
464.85	281.38
465.21	280.47
465.58	279.52
465.95	278.42
466.32	277.53
466.68	276.58
467.05	275.73
467.42	274.80
467.78	273.86
468.15	273.01
468.52	272.36
468.88	271.47
469.25	270.70
469.62	270.11
469.98	269.48
470.35	268.88
470.72	268.28
471.08	267.67
471.45	267.16
471.82	266.62
472.18	266.10
472.55	265.64
472.92	265.17
473.28	264.72
473.65	264.30
474.02	263.89
474.38	263.57
474.75	263.27
475.11	262.97
475.48	262.75
475.85	262.53
476.21	262.32
476.58	262.16
476.94	262.07
477.31	261.89
477.67	261.74
478.04	261.61
478.41	261.58
478.77	261.65
479.14	261.62
479.50	261.62
479.87	261.69
480.23	261.77
480.60	261.81
480.96	261.92
481.33	262.15
481.69	262.37
482.06	262.59
482.42	262.74
482.79	262.97
483.15	263.27
483.52	263.68
483.88	264.02
484.25	264.42
484.61	264.86
484.98	265.31
485.34	265.88
485.71	266.47
486.07	267.08
486.44	267.64
486.80	268.33
487.17	269.08
487.53	269.90
487.90	270.77
488.26	271.73
488.62	272.74
488.99	273.67
489.35	274.68
489.72	275.79
490.08	277.03
490.44	278.35
490.81	279.68
491.17	281.01
491.54	282.48
491.90	284.03
492.26	285.68
492.63	287.43
492.99	289.21
493.36	291.10
493.72	293.13
494.08	295.21
494.45	297.43
494.81	299.82
495.17	302.28
495.54	304.80
495.90	307.51
496.26	310.33
496.63	313.34
496.99	316.47
497.35	319.74
497.72	323.16
498.08	326.65
498.44	330.33
498.80	334.28
499.17	338.32
499.53	342.49
499.89	346.88
500.26	351.39
500.62	356.04
500.98	361.06
501.34	366.11
501.71	371.45
502.07	376.91
502.43	382.53
502.79	388.30
503.16	394.43
503.52	400.68
503.88	407.07
504.24	413.67
504.60	420.54
504.97	427.68
505.33	434.95
505.69	442.57
506.05	450.35
506.41	458.16
506.78	466.29
507.14	474.74
507.50	483.40
507.86	492.40
508.22	501.56
508.59	510.70
508.95	520.21
509.31	530.02
509.67	540.10
510.03	550.35
510.39	560.93
510.75	571.62
511.12	582.50
511.48	593.67
511.84	605.08
512.20	616.53
512.56	628.35
512.92	640.46
513.28	652.83
513.64	665.23
514.00	677.92
514.37	690.75
514.73	703.69
515.09	716.60
515.45	729.74
515.81	743.27
516.17	757.21
516.53	771.28
516.89	785.32
517.25	799.38
517.61	813.71
517.97	827.97
518.33	842.29
518.69	856.87
519.05	871.85
519.41	886.86
519.77	902.25
520.13	917.56
520.49	932.84
520.85	948.03
521.21	963.57
521.57	979.62
521.93	995.24
522.29	1011.43
522.65	1027.57
523.01	1043.68
523.37	1059.60
523.73	1075.61
524.09	1091.54
524.45	1107.62
524.81	1124.01
525.17	1140.56
525.53	1157.39
525.89	1174.18
526.25	1191.00
526.61	1207.18
526.97	1223.85
527.33	1240.26
527.68	1256.72
528.04	1273.00
528.40	1289.41
528.76	1306.38
529.12	1322.85
529.48	1339.68
529.84	1355.56
530.20	1371.97
530.56	1388.76
530.91	1405.94
531.27	1422.48
531.63	1438.74
531.99	1455.31
532.35	1471.21
532.71	1487.04
533.07	1503.08
533.42	1518.80
533.78	1534.66
534.14	1550.78
534.50	1565.91
534.86	1581.55
535.21	1596.61
535.57	1612.37
535.93	1627.66
536.29	1642.31
536.65	1657.18
537.00	1671.68
537.36	1686.87
537.72	1701.31
538.08	1715.48
538.44	1729.15
538.79	1742.84
539.15	1756.38
539.51	1769.78
539.87	1784.01
540.22	1797.36
540.58	1810.93
540.94	1823.90
541.29	1836.59
541.65	1849.09
542.01	1862.00
542.37	1874.25
542.72	1886.51
543.08	1898.16
543.44	1910.53
543.79	1921.50
544.15	1932.40
544.51	1943.81
544.87	1954.64
545.22	1965.44
545.58	1975.56
545.94	1985.27
546.29	1995.09
546.65	2004.94
547.01	2014.20
547.36	2022.78
547.72	2031.27
548.07	2039.13
548.43	2047.32
548.79	2055.15
549.14	2062.53
549.50	2069.84
549.86	2077.30
550.21	2084.44
550.57	2091.51
550.92	2097.98
551.28	2104.98
551.64	2111.89
551.99	2118.38
552.35	2124.42
552.70	2130.43
553.06	2136.49
553.41	2142.66
553.77	2148.56
554.13	2154.35
554.48	2160.31
554.84	2165.84
555.19	2171.06
555.55	2176.19
555.90	2180.70
556.26	2185.64
556.61	2190.43
556.97	2194.75
557.32	2198.90
557.68	2203.14
558.03	2207.42
558.39	2211.05
558.74	2215.71
559.10	2219.47
559.45	2223.25
559.81	2227.58
560.16	2231.40
560.52	2234.58
560.87	2237.96
561.23	2240.66
561.58	2243.72
561.94	2246.40
562.29	2248.61
562.64	2251.45
563.00	2253.93
563.35	2257.49
563.71	2260.58
564.06	2263.65
564.42	2266.64
564.77	2269.23
565.12	2271.55
565.48	2273.54
565.83	2275.65
566.19	2277.01
566.54	2278.08
566.89	2279.24
567.25	2279.90
567.60	2281.16
567.96	2283.01
568.31	2284.10
568.66	2285.40
569.02	2286.01
569.37	2286.49
569.72	2287.44
570.08	2287.69
570.43	2287.88
570.78	2287.35
571.14	2285.93
571.49	2284.73
571.84	2284.44
572.20	2283.30
572.55	2282.40
572.90	2280.87
573.26	2279.52
573.61	2277.89
573.96	2276.42
574.31	2273.63
574.67	2270.65
575.02	2267.31
575.37	2263.94
575.72	2260.16
576.08	2256.68
576.43	2253.50
576.78	2249.96
577.13	2246.85
577.49	2243.82
577.84	2240.49
578.19	2236.77
578.54	2233.31
578.90	2229.38
579.25	2223.93
579.60	2219.30
579.95	2214.38
580.30	2209.53
580.66	2204.52
581.01	2199.53
581.36	2194.59
581.71	2190.48
582.06	2186.19
582.42	2181.84
582.77	2176.79
583.12	2172.36
583.47	2167.89
583.82	2163.05
584.17	2157.83
584.53	2152.42
584.88	2147.02
585.23	2141.33
585.58	2135.95
585.93	2130.51
586.28	2125.82
586.63	2120.88
586.98	2115.86
587.34	2111.24
587.69	2106.42
588.04	2101.14
588.39	2095.82
588.74	2089.45
589.09	2083.40
589.44	2076.76
589.79	2070.67
590.14	2065.17
590.49	2058.62
590.84	2052.29
591.19	2046.36
591.54	2040.08
591.89	2033.08
592.25	2026.36
592.60	2019.24
592.95	2012.00
593.30	2004.86
593.65	1997.30
594.00	1990.29
594.35	1983.03
594.70	1975.01
595.05	1968.08
595.40	1961.01
595.75	1953.54
596.10	1947.55
596.45	1940.87
596.80	1934.72
597.15	1928.25
597.50	1921.34
597.85	1914.90
598.19	1908.34
598.54	1901.44
598.89	1894.83
599.24	1888.85
599.59	1882.16
599.94	1875.98
600.29	1869.57
600.64	1862.96
600.99	1855.70
601.34	1849.17
601.69	1842.35
602.04	1835.56
602.39	1828.24
602.74	1821.47
603.08	1814.77
603.43	1807.94
603.78	1800.72
604.13	1793.67
604.48	1786.49
604.83	1779.63
605.18	1772.99
605.53	1765.09
605.87	1757.08
606.22	1749.90
606.57	1741.99
606.92	1734.65
607.27	1727.66
607.62	1720.88
607.96	1713.79
608.31	1707.29
608.66	1699.70
609.01	1692.25
609.36	1684.83
609.70	1676.77
610.05	1668.72
610.40	1661.07
610.75	1652.80
611.10	1645.09
611.44	1636.60
611.79	1628.68
612.14	1619.98
612.49	1610.71
612.83	1602.34
613.18	1594.32
613.53	1586.20
613.88	1577.65
614.22	1569.48
614.57	1560.70
614.92	1552.64
615.27	1545.18
615.61	1536.75
615.96	1528.59
616.31	1520.82
616.65	1513.45
617.00	1505.97
617.35	1498.31
617.70	1490.11
618.04	1481.77
618.39	1473.55
618.74	1466.09
619.08	1457.73
619.43	1450.05
619.78	1443.12
620.12	1435.96
620.47	1428.33
620.82	1420.25
621.16	1412.97
621.51	1405.29
621.85	1397.68
622.20	1389.11
622.55	1380.66
622.89	1372.82
623.24	1365.23
623.59	1357.96
623.93	1350.49
624.28	1343.23
624.62	1335.81
624.97	1328.58
625.32	1321.74
625.66	1314.77
626.01	1307.62
626.35	1300.22
626.70	1292.61
627.04	1284.96
627.39	1277.21
627.73	1269.84
628.08	1262.99
628.43	1255.69
628.77	1248.43
629.12	1241.04
629.46	1234.06
629.81	1226.58
630.15	1219.39
630.50	1211.94
630.84	1203.77
631.19	1195.71
631.53	1188.14
631.88	1180.52
632.22	1172.89
632.57	1165.50
632.91	1157.96
633.26	1150.51
633.60	1143.10
633.95	1135.98
634.29	1128.88
634.64	1122.30
634.98	1115.00
635.32	1107.77
635.67	1101.15
636.01	1094.52
636.36	1087.72
636.70	1081.10
637.05	1074.55
637.39	1068.07
637.73	1061.71
638.08	1055.83
638.42	1049.93
638.77	1043.51
639.11	1037.01
639.45	1030.68
639.80	1024.02
640.14	1017.71
640.49	1011.24
640.83	1004.98
641.17	998.81
641.52	992.49
641.86	985.92
642.20	980.04
642.55	973.72
642.89	967.26
643.23	960.65
643.58	954.95
643.92	948.83
644.26	942.86
644.61	936.83
644.95	930.76
645.29	924.20
645.64	917.47
645.98	911.22
646.32	905.37
646.66	899.31
647.01	893.59
647.35	887.79
647.69	881.95
648.04	876.35
648.38	870.55
648.72	864.61
649.06	858.70
649.41	852.74
649.75	846.79
650.09	840.89
650.43	835.20
650.78	829.01
651.12	822.99
651.46	817.25
651.80	811.54
652.14	806.20
652.49	800.83
652.83	795.70
653.17	790.08
653.51	784.38
653.85	779.06
654.20	773.50
654.54	767.59
654.88	761.83
655.22	755.94
655.56	750.25
655.90	744.86
656.25	739.64
656.59	734.35
656.93	729.24
657.27	724.06
657.61	718.59
657.95	713.49
658.29	708.45
658.64	703.15
658.98	697.84
659.32	692.33
659.66	687.13
660.00	681.83
660.34	676.78
660.68	671.87
661.02	666.74
661.36	662.04
661.70	657.55
662.05	653.25
662.39	648.95
662.73	644.47
663.07	640.06
663.41	635.59
663.75	631.14
664.09	626.64
664.43	622.29
664.77	618.17
665.11	613.93
665.45	609.81
665.79	605.79
666.13	601.65
666.47	597.58
666.81	593.44
667.15	589.26
667.49	585.41
667.83	581.50
668.17	577.62
668.51	573.48
668.85	569.40
669.19	565.50
669.53	561.70
669.87	557.81
670.21	554.08
670.55	550.39
670.89	546.92
671.23	543.49
671.57	539.92
671.91	536.41
672.25	532.92
672.58	529.40
672.92	525.97
673.26	522.78
673.60	519.58
673.94	516.45
674.28	513.53
674.62	510.55
674.96	507.45
675.30	504.58
675.64	501.67
675.97	498.86
676.31	496.01
676.65	493.12
676.99	490.48
677.33	487.67
677.67	484.82
678.01	481.81
678.34	478.86
678.68	475.93
679.02	473.09
679.36	470.28
679.70	467.52
680.04	464.75
680.37	461.92
680.71	459.12
681.05	456.52
681.39	453.83
681.73	451.15
682.06	448.66
682.40	446.08
682.74	443.59
683.08	441.05
683.42	438.40
683.75	435.86
684.09	433.24
684.43	430.78
684.77	428.32
685.10	425.97
685.44	423.63
685.78	421.42
686.12	419.18
686.45	416.93
686.79	414.65
687.13	412.45
687.46	410.26
687.80	408.10
688.14	405.80
688.48	403.78
688.81	401.58
689.15	399.46
689.49	397.32
689.82	395.22
690.16	393.09
690.50	391.14
690.83	389.23
691.17	387.26
691.51	385.33
691.84	383.52
692.18	381.55
692.52	379.58
692.85	377.61
693.19	375.72
693.52	373.85
693.86	372.03
694.20	370.27
694.53	368.53
694.87	366.68
695.21	364.96
695.54	363.12
695.88	361.38
696.21	359.63
696.55	357.95
696.88	356.27
697.22	354.66
697.56	353.05
697.89	351.39
698.23	349.78
698.56	348.17
698.90	346.60
699.23	345.02
699.57	343.47
699.90	341.94
700.24	340.38
700.58	338.86
700.91	337.38
701.25	335.94
701.58	334.57
701.92	333.25
702.25	331.87
702.59	330.50
702.92	329.20
703.26	327.89
703.59	326.60
703.93	325.38
704.26	324.18
704.60	322.87
704.93	321.58
705.26	320.36
705.60	319.17
705.93	317.99
706.27	316.91
706.60	315.85
706.94	314.75
707.27	313.66
707.61	312.56
707.94	311.53
708.27	310.43
708.61	309.29
708.94	308.26
709.28	307.27
709.61	306.31
709.94	305.31
710.28	304.32
710.61	303.31
710.95	302.25
711.28	301.28
711.61	300.35
711.95	299.46
712.28	298.48
712.61	297.47
712.95	296.55
713.28	295.70
713.61	294.81
713.95	293.95
714.28	293.10
714.61	292.27
714.95	291.41
715.28	290.51
715.61	289.65
715.95	288.79
716.28	287.96
716.61	287.13
716.95	286.31
717.28	285.54
717.61	284.77
717.94	284.03
718.28	283.24
718.61	282.51
718.94	281.79
719.27	281.15
719.61	280.53
719.94	279.86
720.27	279.12
720.60	278.45
720.94	277.82
721.27	277.19
721.60	276.60
721.93	276.01
722.27	275.51
722.60	274.97
722.93	274.41
723.26	273.84
723.59	273.28
723.93	272.78
724.26	272.21
724.59	271.68
724.92	271.17
725.25	270.69
725.59	270.18
725.92	269.64
726.25	269.12
726.58	268.61
726.91	268.13
727.24	267.66
727.57	267.22
727.91	266.70
728.24	266.23
728.57	265.74
728.90	265.32
729.23	264.79
729.56	264.38
729.89	263.86
730.22	263.38
730.55	262.92
730.89	262.43
731.22	261.97
731.55	261.53
731.88	261.07
732.21	260.63
732.54	260.19
732.87	259.79
733.20	259.39
733.53	259.04
733.86	258.64
734.19	258.24
734.52	257.86
734.85	257.56
735.18	257.17
735.51	256.80
735.84	256.41
736.17	256.09
736.50	255.69
736.83	255.50
737.16	255.15
737.49	254.82
737.82	254.48
738.15	254.19
738.48	253.85
738.81	253.56
739.14	253.25
739.47	252.97
739.80	252.66
740.13	252.37
740.46	252.02
740.79	251.69
741.12	251.39
741.45	251.05
741.78	250.71
742.11	250.45
742.44	250.18
742.77	249.89
743.10	249.57
743.43	249.27
743.75	248.88
744.08	248.80
744.41	248.54
744.74	248.28
745.07	247.98
745.40	247.75
745.73	247.49
746.06	247.23
746.39	246.95
746.71	246.67
747.04	246.44
747.37	246.21
747.70	245.94
748.03	245.70
748.36	245.48
748.68	245.26
749.01	244.98
749.34	244.71
749.67	244.46
750.00	244.26
750.33	244.08
750.65	243.89
750.98	243.50
751.31	243.27
751.64	243.03
751.97	242.86
752.29	242.62
752.62	242.36
752.95	242.12
753.28	241.89
753.60	241.69
753.93	241.47
754.26	241.25
754.59	241.07
754.91	240.82
755.24	240.59
755.57	240.37
755.90	240.20
756.22	239.98
756.55	239.76
756.88	239.53
757.20	239.30
757.53	239.06
757.86	238.90
758.19	238.74
758.51	238.57
758.84	238.34
759.17	238.16
759.49	238.00
759.82	237.86
760.15	237.68
760.47	237.53
760.80	237.35
761.13	237.22
761.45	237.02
761.78	236.88
762.11	236.74
762.43	236.60
762.76	236.45
763.08	236.38
763.41	236.25
763.74	236.17
764.06	236.04
764.39	235.91
764.71	235.73
765.04	235.57
765.37	235.48
765.69	235.41
766.02	235.29
766.34	235.16
766.67	234.99
767.00	234.93
767.32	234.85
767.65	234.80
767.97	234.65
768.30	234.54
768.62	234.45
768.95	234.34
769.27	234.22
769.60	234.14
769.92	233.98
770.25	233.88
770.57	233.73
770.90	233.61
771.22	233.53
771.55	233.47
771.87	233.40
772.20	233.25
772.52	233.20
772.85	233.22
773.17	233.12
773.50	233.03
773.82	232.88
774.15	232.75
774.47	232.57
774.80	232.49
775.12	232.41
775.45	232.31
775.77	232.22
776.09	232.14
776.42	232.04
776.74	231.97
777.07	231.91
777.39	231.87
777.72	231.80
778.04	231.71
778.36	231.64
778.69	231.56
779.01	231.51
779.33	231.37
779.66	231.20
779.98	231.17
780.31	231.13
780.63	231.13
780.95	231.09
781.28	231.07
781.60	230.98
781.92	230.97
782.25	230.92
782.57	230.86
782.89	230.80
783.22	230.73
783.54	230.68
783.86	230.62
784.19	230.54
784.51	230.53
784.83	230.48
785.16	230.41
785.48	230.38
785.80	230.35
786.12	230.32
786.45	230.30
786.77	230.29
787.09	230.22
