SpectraSuite Data File
++++++++++++++++++++++++++++++++++++
Date: Fri Feb 01 15:17:03 EST 2013
User: group
Dark Spectrum Present: No
Reference Spectrum Present: No
Number of Sampled Component Spectra: 1
Spectrometers: USB2E7196
Integration Time (usec): 35000 (USB2E7196)
Spectra Averaged: 100 (USB2E7196)
Boxcar Smoothing: 10 (USB2E7196)
Correct for Electrical Dark: No (USB2E7196)
Strobe/Lamp Enabled: No (USB2E7196)
Correct for Detector Non-linearity: No (USB2E7196)
Correct for Stray Light: No (USB2E7196)
Number of Pixels in Processed Spectrum: 2048
>>>>>Begin Processed Spectral Data<<<<<
339.09	0.00
339.48	214.90
339.86	216.26
340.24	218.18
340.63	219.14
341.01	222.15
341.39	222.57
341.78	223.79
342.16	224.79
342.54	225.59
342.93	213.55
343.31	224.35
343.69	224.91
344.07	225.39
344.46	225.79
344.84	226.18
345.22	226.45
345.60	226.64
345.99	226.81
346.37	226.93
346.75	227.01
347.13	227.06
347.52	227.14
347.90	227.23
348.28	227.25
348.66	227.28
349.05	227.24
349.43	227.31
349.81	227.32
350.19	227.35
350.57	227.39
350.96	227.49
351.34	227.55
351.72	227.62
352.10	227.73
352.48	227.81
352.87	227.84
353.25	227.90
353.63	227.98
354.01	228.03
354.39	228.08
354.77	228.15
355.15	228.26
355.54	228.26
355.92	228.27
356.30	228.32
356.68	228.43
357.06	228.49
357.44	228.51
357.82	228.56
358.20	228.65
358.58	228.70
358.97	228.75
359.35	228.81
359.73	228.87
360.11	228.89
360.49	228.93
360.87	228.99
361.25	229.04
361.63	229.11
362.01	229.15
362.39	229.19
362.77	229.20
363.15	229.22
363.53	229.28
363.91	229.28
364.29	229.30
364.67	229.23
365.05	229.24
365.43	229.26
365.81	229.28
366.19	229.30
366.57	229.33
366.95	229.32
367.33	229.30
367.71	229.29
368.09	229.30
368.47	229.30
368.85	229.25
369.23	229.23
369.61	229.14
369.99	229.15
370.37	229.13
370.75	229.17
371.13	229.08
371.51	229.02
371.89	229.03
372.27	228.98
372.65	228.95
373.03	228.89
373.41	228.82
373.78	228.76
374.16	228.64
374.54	228.54
374.92	228.47
375.30	228.37
375.68	228.27
376.06	228.20
376.44	228.15
376.82	228.12
377.19	228.04
377.57	227.98
377.95	227.88
378.33	227.77
378.71	227.65
379.09	227.60
379.47	227.54
379.84	227.43
380.22	227.36
380.60	227.30
380.98	227.24
381.36	227.21
381.73	227.16
382.11	227.14
382.49	227.10
382.87	227.02
383.25	226.99
383.62	227.04
384.00	226.97
384.38	226.90
384.76	226.88
385.13	226.86
385.51	226.85
385.89	226.77
386.27	226.74
386.64	226.73
387.02	226.70
387.40	226.67
387.78	226.68
388.15	226.64
388.53	226.58
388.91	226.53
389.29	226.47
389.66	226.47
390.04	226.45
390.42	226.44
390.79	226.44
391.17	226.42
391.55	226.36
391.92	226.33
392.30	226.36
392.68	226.33
393.05	226.31
393.43	226.33
393.81	226.37
394.18	226.37
394.56	226.38
394.94	226.39
395.31	226.41
395.69	226.49
396.06	226.55
396.44	226.64
396.82	226.67
397.19	226.77
397.57	226.80
397.95	226.85
398.32	226.88
398.70	226.96
399.07	227.05
399.45	227.05
399.82	227.15
400.20	227.19
400.58	227.28
400.95	227.34
401.33	227.43
401.70	227.59
402.08	227.71
402.45	227.79
402.83	227.95
403.20	228.07
403.58	228.14
403.95	228.26
404.33	228.35
404.71	228.52
405.08	228.69
405.46	228.84
405.83	228.99
406.21	229.15
406.58	229.31
406.96	229.46
407.33	229.70
407.70	229.87
408.08	230.13
408.45	230.31
408.83	230.54
409.20	230.73
409.58	230.90
409.95	231.14
410.33	231.42
410.70	231.66
411.08	231.94
411.45	232.26
411.82	232.56
412.20	232.91
412.57	233.30
412.95	233.56
413.32	233.99
413.69	234.36
414.07	234.79
414.44	235.25
414.82	235.72
415.19	236.25
415.56	236.80
415.94	237.34
416.31	237.99
416.68	238.59
417.06	239.31
417.43	239.99
417.81	240.77
418.18	241.54
418.55	242.34
418.93	243.21
419.30	244.07
419.67	245.05
420.04	246.01
420.42	247.00
420.79	248.17
421.16	249.30
421.54	250.51
421.91	251.74
422.28	253.01
422.66	254.34
423.03	255.65
423.40	256.97
423.77	258.38
424.15	259.80
424.52	261.31
424.89	262.93
425.26	264.50
425.64	265.93
426.01	267.55
426.38	269.24
426.75	270.92
427.13	272.63
427.50	274.40
427.87	276.30
428.24	278.20
428.61	280.01
428.99	281.98
429.36	284.07
429.73	286.15
430.10	288.20
430.47	290.28
430.85	292.40
431.22	294.71
431.59	297.08
431.96	299.36
432.33	301.87
432.70	304.30
433.08	307.10
433.45	309.75
433.82	312.32
434.19	315.23
434.56	318.03
434.93	320.73
435.30	323.37
435.68	326.25
436.05	329.10
436.42	331.87
436.79	334.40
437.16	337.15
437.53	340.00
437.90	342.84
438.27	345.59
438.64	348.44
439.01	350.98
439.38	353.25
439.75	355.44
440.13	357.90
440.50	360.19
440.87	362.09
441.24	364.09
441.61	366.31
441.98	367.81
442.35	369.60
442.72	371.49
443.09	373.32
443.46	374.31
443.83	374.89
444.20	375.39
444.57	376.17
444.94	376.42
445.31	376.73
445.68	377.08
446.05	377.15
446.42	376.76
446.79	376.42
447.16	375.95
447.53	375.60
447.90	374.45
448.27	373.28
448.64	371.69
449.01	370.51
449.37	368.50
449.74	366.60
450.11	364.38
450.48	361.87
450.85	359.33
451.22	357.20
451.59	355.19
451.96	353.28
452.33	350.71
452.70	348.37
453.07	345.56
453.43	342.62
453.80	339.87
454.17	337.18
454.54	334.58
454.91	331.84
455.28	329.18
455.65	326.67
456.02	324.26
456.38	322.07
456.75	319.37
457.12	317.09
457.49	314.85
457.86	312.64
458.23	310.75
458.59	308.70
458.96	306.61
459.33	304.69
459.70	302.81
460.07	301.28
460.43	299.55
460.80	297.91
461.17	296.43
461.54	294.87
461.91	293.44
462.27	291.98
462.64	290.72
463.01	289.35
463.38	288.05
463.74	286.65
464.11	285.47
464.48	284.44
464.85	283.34
465.21	282.45
465.58	281.54
465.95	280.46
466.32	279.55
466.68	278.61
467.05	277.71
467.42	276.78
467.78	275.83
468.15	274.93
468.52	274.25
468.88	273.42
469.25	272.65
469.62	272.02
469.98	271.34
470.35	270.69
470.72	270.11
471.08	269.44
471.45	268.87
471.82	268.34
472.18	267.77
472.55	267.35
472.92	266.80
473.28	266.36
473.65	265.89
474.02	265.42
474.38	265.07
474.75	264.73
475.11	264.40
475.48	264.14
475.85	263.91
476.21	263.66
476.58	263.47
476.94	263.33
477.31	263.17
477.67	263.04
478.04	262.95
478.41	262.87
478.77	262.92
479.14	262.87
479.50	262.90
479.87	262.96
480.23	263.03
480.60	263.09
480.96	263.19
481.33	263.43
481.69	263.65
482.06	263.85
482.42	264.07
482.79	264.34
483.15	264.66
483.52	265.02
483.88	265.37
484.25	265.80
484.61	266.23
484.98	266.68
485.34	267.23
485.71	267.82
486.07	268.44
486.44	269.01
486.80	269.75
487.17	270.47
487.53	271.27
487.90	272.11
488.26	273.06
488.62	274.01
488.99	274.99
489.35	276.03
489.72	277.17
490.08	278.33
490.44	279.57
490.81	280.89
491.17	282.26
491.54	283.77
491.90	285.28
492.26	286.95
492.63	288.67
492.99	290.43
493.36	292.30
493.72	294.31
494.08	296.40
494.45	298.62
494.81	300.99
495.17	303.44
495.54	305.98
495.90	308.66
496.26	311.44
496.63	314.40
496.99	317.48
497.35	320.71
497.72	324.14
498.08	327.66
498.44	331.28
498.80	335.22
499.17	339.27
499.53	343.42
499.89	347.75
500.26	352.24
500.62	356.95
500.98	361.93
501.34	366.98
501.71	372.31
502.07	377.75
502.43	383.32
502.79	389.13
503.16	395.20
503.52	401.45
503.88	407.87
504.24	414.46
504.60	421.30
504.97	428.45
505.33	435.80
505.69	443.45
506.05	451.29
506.41	459.15
506.78	467.24
507.14	475.67
507.50	484.34
507.86	493.35
508.22	502.47
508.59	511.63
508.95	521.26
509.31	531.02
509.67	541.12
510.03	551.39
510.39	561.87
510.75	572.72
511.12	583.57
511.48	594.86
511.84	606.33
512.20	617.83
512.56	629.76
512.92	641.89
513.28	654.24
513.64	666.69
514.00	679.40
514.37	692.35
514.73	705.44
515.09	718.52
515.45	731.87
515.81	745.48
516.17	759.50
516.53	773.58
516.89	787.83
517.25	802.08
517.61	816.59
517.97	831.19
518.33	845.64
518.69	860.49
519.05	875.46
519.41	890.72
519.77	906.34
520.13	921.82
520.49	937.26
520.85	952.77
521.21	968.48
521.57	984.79
521.93	1000.70
522.29	1017.22
522.65	1033.49
523.01	1049.80
523.37	1065.84
523.73	1082.07
524.09	1098.20
524.45	1114.52
524.81	1131.15
525.17	1147.99
525.53	1164.95
525.89	1181.98
526.25	1198.86
526.61	1215.38
526.97	1232.15
527.33	1248.66
527.68	1265.35
528.04	1281.89
528.40	1298.57
528.76	1315.87
529.12	1332.52
529.48	1349.38
529.84	1365.37
530.20	1382.18
530.56	1399.20
530.91	1416.83
531.27	1433.65
531.63	1450.22
531.99	1466.97
532.35	1483.03
532.71	1499.05
533.07	1515.39
533.42	1531.16
533.78	1547.22
534.14	1563.49
534.50	1578.87
534.86	1594.86
535.21	1610.15
535.57	1626.26
535.93	1641.77
536.29	1656.56
536.65	1671.88
537.00	1686.88
537.36	1702.22
537.72	1716.70
538.08	1731.25
538.44	1745.00
538.79	1758.95
539.15	1772.83
539.51	1786.54
539.87	1800.95
540.22	1814.77
540.58	1828.64
540.94	1842.21
541.29	1855.44
541.65	1868.31
542.01	1881.67
542.37	1894.04
542.72	1906.39
543.08	1918.11
543.44	1930.60
543.79	1941.80
544.15	1952.71
544.51	1964.19
544.87	1975.28
545.22	1986.20
545.58	1996.46
545.94	2006.25
546.29	2016.22
546.65	2026.00
547.01	2035.29
547.36	2044.01
547.72	2052.44
548.07	2060.21
548.43	2068.39
548.79	2076.31
549.14	2083.78
549.50	2091.12
549.86	2098.80
550.21	2106.20
550.57	2113.41
550.92	2120.03
551.28	2127.25
551.64	2134.34
551.99	2140.85
552.35	2146.99
552.70	2153.11
553.06	2158.97
553.41	2165.45
553.77	2171.42
554.13	2177.40
554.48	2183.38
554.84	2188.81
555.19	2194.21
555.55	2199.31
555.90	2203.81
556.26	2208.66
556.61	2213.40
556.97	2217.62
557.32	2221.69
557.68	2225.89
558.03	2230.25
558.39	2233.84
558.74	2238.30
559.10	2242.06
559.45	2245.89
559.81	2250.32
560.16	2254.09
560.52	2257.35
560.87	2260.83
561.23	2263.39
561.58	2266.42
561.94	2269.01
562.29	2271.48
562.64	2274.05
563.00	2276.69
563.35	2280.08
563.71	2283.21
564.06	2286.51
564.42	2289.42
564.77	2291.87
565.12	2293.97
565.48	2295.67
565.83	2297.54
566.19	2298.83
566.54	2299.86
566.89	2300.75
567.25	2301.15
567.60	2302.53
567.96	2304.09
568.31	2304.71
568.66	2305.72
569.02	2306.22
569.37	2306.57
569.72	2307.30
570.08	2307.16
570.43	2307.18
570.78	2306.40
571.14	2304.80
571.49	2303.34
571.84	2302.92
572.20	2301.76
572.55	2300.71
572.90	2299.15
573.26	2297.74
573.61	2296.02
573.96	2293.97
574.31	2290.96
574.67	2287.89
575.02	2284.10
575.37	2280.61
575.72	2276.59
576.08	2273.39
576.43	2270.03
576.78	2266.21
577.13	2263.01
577.49	2260.03
577.84	2256.46
578.19	2252.78
578.54	2249.00
578.90	2244.66
579.25	2238.99
579.60	2233.94
579.95	2228.95
580.30	2223.78
580.66	2218.39
581.01	2213.33
581.36	2208.34
581.71	2204.16
582.06	2199.56
582.42	2194.98
582.77	2189.86
583.12	2185.27
583.47	2180.33
583.82	2175.07
584.17	2169.70
584.53	2163.91
584.88	2158.02
585.23	2152.11
585.58	2146.56
585.93	2141.03
586.28	2136.17
586.63	2130.94
586.98	2125.85
587.34	2120.95
587.69	2116.16
588.04	2110.78
588.39	2104.98
588.74	2098.48
589.09	2092.14
589.44	2085.26
589.79	2079.27
590.14	2073.47
590.49	2066.74
590.84	2060.23
591.19	2054.22
591.54	2047.78
591.89	2040.27
592.25	2033.61
592.60	2026.32
592.95	2018.58
593.30	2011.12
593.65	2003.30
594.00	1996.24
594.35	1988.84
594.70	1980.79
595.05	1973.35
595.40	1966.10
595.75	1958.49
596.10	1952.02
596.45	1945.15
596.80	1938.96
597.15	1932.12
597.50	1924.85
597.85	1918.44
598.19	1911.67
598.54	1904.53
598.89	1897.90
599.24	1892.15
599.59	1885.23
599.94	1878.96
600.29	1872.61
600.64	1865.98
600.99	1858.57
601.34	1851.71
601.69	1844.78
602.04	1837.61
602.39	1830.24
602.74	1823.41
603.08	1816.68
603.43	1810.05
603.78	1802.72
604.13	1795.44
604.48	1788.06
604.83	1781.37
605.18	1774.29
605.53	1766.22
605.87	1758.14
606.22	1750.79
606.57	1742.83
606.92	1735.56
607.27	1728.26
607.62	1721.38
607.96	1714.16
608.31	1707.48
608.66	1699.73
609.01	1692.12
609.36	1684.75
609.70	1676.74
610.05	1668.54
610.40	1660.82
610.75	1652.52
611.10	1644.89
611.44	1636.59
611.79	1628.79
612.14	1620.04
612.49	1611.02
612.83	1602.82
613.18	1594.70
613.53	1586.62
613.88	1578.09
614.22	1569.75
614.57	1561.24
614.92	1553.14
615.27	1545.53
615.61	1537.21
615.96	1529.26
616.31	1521.62
616.65	1514.09
617.00	1506.56
617.35	1499.03
617.70	1490.63
618.04	1482.13
618.39	1473.92
618.74	1466.31
619.08	1457.97
619.43	1450.39
619.78	1443.41
620.12	1436.20
620.47	1428.78
620.82	1420.58
621.16	1413.11
621.51	1405.55
621.85	1397.96
622.20	1389.44
622.55	1381.13
622.89	1373.48
623.24	1365.97
623.59	1358.67
623.93	1351.26
624.28	1344.02
624.62	1336.49
624.97	1329.51
625.32	1322.75
625.66	1315.68
626.01	1308.44
626.35	1300.96
626.70	1293.15
627.04	1285.49
627.39	1277.77
627.73	1270.28
628.08	1263.39
628.43	1256.09
628.77	1248.70
629.12	1241.09
629.46	1234.07
629.81	1226.59
630.15	1219.19
630.50	1211.75
630.84	1203.53
631.19	1195.62
631.53	1188.13
631.88	1180.63
632.22	1172.92
632.57	1165.69
632.91	1158.13
633.26	1150.80
633.60	1143.45
633.95	1136.41
634.29	1129.42
634.64	1122.71
634.98	1115.49
635.32	1108.46
635.67	1101.94
636.01	1095.38
636.36	1088.67
636.70	1082.08
637.05	1075.58
637.39	1069.18
637.73	1062.67
638.08	1056.96
638.42	1051.04
638.77	1044.55
639.11	1037.85
639.45	1031.47
639.80	1024.76
640.14	1018.42
640.49	1011.86
640.83	1005.57
641.17	999.31
641.52	992.97
641.86	986.60
642.20	980.74
642.55	974.38
642.89	967.84
643.23	961.26
643.58	955.41
643.92	949.23
644.26	943.11
644.61	937.10
644.95	931.08
645.29	924.30
645.64	917.50
645.98	911.13
646.32	905.40
646.66	899.43
647.01	893.67
647.35	887.91
647.69	882.08
648.04	876.59
648.38	870.85
648.72	864.81
649.06	858.74
649.41	852.79
649.75	846.75
650.09	840.84
650.43	835.05
650.78	828.92
651.12	822.97
651.46	817.26
651.80	811.52
652.14	806.17
652.49	800.95
652.83	795.82
653.17	790.17
653.51	784.47
653.85	779.02
654.20	773.43
654.54	767.54
654.88	761.81
655.22	755.92
655.56	750.30
655.90	744.87
656.25	739.59
656.59	734.30
656.93	729.25
657.27	724.11
657.61	718.70
657.95	713.63
658.29	708.50
658.64	703.29
658.98	698.03
659.32	692.55
659.66	687.23
660.00	681.88
660.34	676.96
660.68	672.04
661.02	667.02
661.36	662.25
661.70	657.74
662.05	653.34
662.39	649.00
662.73	644.56
663.07	640.21
663.41	635.78
663.75	631.24
664.09	626.72
664.43	622.33
664.77	618.24
665.11	613.97
665.45	609.91
665.79	605.78
666.13	601.61
666.47	597.44
666.81	593.31
667.15	589.23
667.49	585.37
667.83	581.53
668.17	577.64
668.51	573.61
668.85	569.59
669.19	565.77
669.53	562.00
669.87	558.01
670.21	554.30
670.55	550.70
670.89	547.30
671.23	543.87
671.57	540.31
671.91	536.79
672.25	533.36
672.58	529.85
672.92	526.54
673.26	523.43
673.60	520.33
673.94	517.24
674.28	514.31
674.62	511.29
674.96	508.17
675.30	505.25
675.64	502.30
675.97	499.53
676.31	496.72
676.65	493.69
676.99	490.99
677.33	488.14
677.67	485.29
678.01	482.26
678.34	479.26
678.68	476.45
679.02	473.63
679.36	470.86
679.70	468.15
680.04	465.34
680.37	462.39
680.71	459.67
681.05	457.07
681.39	454.38
681.73	451.78
682.06	449.31
682.40	446.77
682.74	444.23
683.08	441.67
683.42	439.06
683.75	436.64
684.09	434.12
684.43	431.69
684.77	429.25
685.10	426.93
685.44	424.66
685.78	422.36
686.12	420.12
686.45	417.86
686.79	415.56
687.13	413.38
687.46	411.24
687.80	409.07
688.14	406.84
688.48	404.80
688.81	402.56
689.15	400.41
689.49	398.28
689.82	396.24
690.16	394.21
690.50	392.26
690.83	390.26
691.17	388.32
691.51	386.44
691.84	384.59
692.18	382.65
692.52	380.69
692.85	378.79
693.19	376.93
693.52	375.11
693.86	373.29
694.20	371.51
694.53	369.75
694.87	367.94
695.21	366.21
695.54	364.42
695.88	362.71
696.21	360.94
696.55	359.26
696.88	357.56
697.22	355.89
697.56	354.28
697.89	352.70
698.23	351.12
698.56	349.48
698.90	347.88
699.23	346.22
699.57	344.70
699.90	343.20
700.24	341.69
700.58	340.16
700.91	338.68
701.25	337.26
701.58	335.86
701.92	334.54
702.25	333.13
702.59	331.76
702.92	330.47
703.26	329.22
703.59	327.97
703.93	326.83
704.26	325.59
704.60	324.31
704.93	323.05
705.26	321.80
705.60	320.64
705.93	319.49
706.27	318.48
706.60	317.46
706.94	316.38
707.27	315.24
707.61	314.16
707.94	313.14
708.27	312.06
708.61	310.99
708.94	309.94
709.28	308.97
709.61	308.00
709.94	307.01
710.28	305.99
710.61	305.00
710.95	303.89
711.28	303.01
711.61	302.05
711.95	301.12
712.28	300.17
712.61	299.18
712.95	298.26
713.28	297.39
713.61	296.45
713.95	295.53
714.28	294.67
714.61	293.78
714.95	292.95
715.28	292.08
715.61	291.18
715.95	290.33
716.28	289.50
716.61	288.67
716.95	287.85
717.28	287.11
717.61	286.33
717.94	285.63
718.28	284.79
718.61	284.11
718.94	283.38
719.27	282.75
719.61	282.12
719.94	281.44
720.27	280.70
720.60	280.05
720.94	279.44
721.27	278.84
721.60	278.28
721.93	277.66
722.27	277.14
722.60	276.65
722.93	276.07
723.26	275.51
723.59	274.96
723.93	274.43
724.26	273.88
724.59	273.33
724.92	272.79
725.25	272.29
725.59	271.72
725.92	271.23
726.25	270.68
726.58	270.14
726.91	269.66
727.24	269.19
727.57	268.75
727.91	268.26
728.24	267.82
728.57	267.36
728.90	266.91
729.23	266.37
729.56	265.92
729.89	265.46
730.22	264.94
730.55	264.47
730.89	264.03
731.22	263.57
731.55	263.15
731.88	262.75
732.21	262.30
732.54	261.88
732.87	261.47
733.20	261.10
733.53	260.75
733.86	260.37
734.19	259.99
734.52	259.57
734.85	259.24
735.18	258.82
735.51	258.47
735.84	258.08
736.17	257.77
736.50	257.38
736.83	257.18
737.16	256.90
737.49	256.57
737.82	256.23
738.15	255.91
738.48	255.59
738.81	255.20
739.14	254.90
739.47	254.58
739.80	254.28
740.13	253.95
740.46	253.62
740.79	253.30
741.12	253.02
741.45	252.70
741.78	252.38
742.11	252.09
742.44	251.74
742.77	251.49
743.10	251.18
743.43	250.87
743.75	250.45
744.08	250.30
744.41	250.01
744.74	249.75
745.07	249.47
745.40	249.22
745.73	249.02
746.06	248.76
746.39	248.51
746.71	248.20
747.04	247.89
747.37	247.62
747.70	247.35
748.03	247.09
748.36	246.88
748.68	246.63
749.01	246.39
749.34	246.16
749.67	245.93
750.00	245.68
750.33	245.56
750.65	245.39
750.98	245.06
751.31	244.86
751.64	244.64
751.97	244.48
752.29	244.24
752.62	244.00
752.95	243.76
753.28	243.54
753.60	243.37
753.93	243.20
754.26	243.04
754.59	242.82
754.91	242.57
755.24	242.35
755.57	242.14
755.90	241.99
756.22	241.82
756.55	241.63
756.88	241.45
757.20	241.22
757.53	240.99
757.86	240.82
758.19	240.68
758.51	240.55
758.84	240.35
759.17	240.17
759.49	239.97
759.82	239.88
760.15	239.78
760.47	239.60
760.80	239.44
761.13	239.27
761.45	239.16
761.78	239.05
762.11	238.93
762.43	238.79
762.76	238.61
763.08	238.47
763.41	238.33
763.74	238.21
764.06	238.03
764.39	237.89
764.71	237.73
765.04	237.59
765.37	237.41
765.69	237.29
766.02	237.17
766.34	237.06
766.67	236.92
767.00	236.78
767.32	236.75
767.65	236.70
767.97	236.58
768.30	236.46
768.62	236.35
768.95	236.21
769.27	236.10
769.60	236.01
769.92	235.88
770.25	235.76
770.57	235.63
770.90	235.53
771.22	235.42
771.55	235.28
771.87	235.14
772.20	235.05
772.52	235.01
772.85	235.06
773.17	234.97
773.50	234.83
773.82	234.76
774.15	234.62
774.47	234.43
774.80	234.38
775.12	234.28
775.45	234.19
775.77	234.12
776.09	234.02
776.42	233.94
776.74	233.91
777.07	233.84
777.39	233.79
777.72	233.73
778.04	233.69
778.36	233.65
778.69	233.58
779.01	233.52
779.33	233.36
779.66	233.19
779.98	233.09
780.31	233.06
780.63	232.99
780.95	232.95
781.28	232.92
781.60	232.84
781.92	232.78
782.25	232.72
782.57	232.68
782.89	232.63
783.22	232.57
783.54	232.46
783.86	232.41
784.19	232.34
784.51	232.30
784.83	232.27
785.16	232.25
785.48	232.24
785.80	232.18
786.12	232.17
786.45	232.09
786.77	232.12
787.09	232.08
