SpectraSuite Data File
++++++++++++++++++++++++++++++++++++
Date: Fri Feb 01 15:46:57 EST 2013
User: group
Dark Spectrum Present: No
Reference Spectrum Present: No
Number of Sampled Component Spectra: 1
Spectrometers: USB2E7196
Integration Time (usec): 35000 (USB2E7196)
Spectra Averaged: 100 (USB2E7196)
Boxcar Smoothing: 10 (USB2E7196)
Correct for Electrical Dark: No (USB2E7196)
Strobe/Lamp Enabled: No (USB2E7196)
Correct for Detector Non-linearity: No (USB2E7196)
Correct for Stray Light: No (USB2E7196)
Number of Pixels in Processed Spectrum: 2048
>>>>>Begin Processed Spectral Data<<<<<
339.09	0.00
339.48	215.16
339.86	216.21
340.24	218.28
340.63	219.20
341.01	222.15
341.39	221.86
341.78	223.03
342.16	224.44
342.54	224.72
342.93	213.39
343.31	224.20
343.69	224.73
344.07	225.21
344.46	225.61
344.84	225.98
345.22	226.21
345.60	226.47
345.99	226.70
346.37	226.83
346.75	226.98
347.13	227.02
347.52	227.06
347.90	227.13
348.28	227.16
348.66	227.21
349.05	227.21
349.43	227.25
349.81	227.29
350.19	227.35
350.57	227.38
350.96	227.44
351.34	227.49
351.72	227.59
352.10	227.70
352.48	227.76
352.87	227.80
353.25	227.85
353.63	227.90
354.01	227.92
354.39	228.01
354.77	228.06
355.15	228.15
355.54	228.21
355.92	228.24
356.30	228.32
356.68	228.44
357.06	228.49
357.44	228.51
357.82	228.58
358.20	228.62
358.58	228.67
358.97	228.74
359.35	228.81
359.73	228.85
360.11	228.91
360.49	228.96
360.87	229.03
361.25	229.08
361.63	229.15
362.01	229.19
362.39	229.22
362.77	229.21
363.15	229.23
363.53	229.24
363.91	229.25
364.29	229.25
364.67	229.19
365.05	229.18
365.43	229.24
365.81	229.23
366.19	229.28
366.57	229.33
366.95	229.33
367.33	229.31
367.71	229.30
368.09	229.29
368.47	229.28
368.85	229.26
369.23	229.24
369.61	229.18
369.99	229.20
370.37	229.15
370.75	229.20
371.13	229.17
371.51	229.13
371.89	229.13
372.27	229.09
372.65	229.03
373.03	228.98
373.41	228.91
373.78	228.85
374.16	228.75
374.54	228.63
374.92	228.53
375.30	228.47
375.68	228.38
376.06	228.32
376.44	228.25
376.82	228.17
377.19	228.13
377.57	228.08
377.95	227.98
378.33	227.89
378.71	227.73
379.09	227.68
379.47	227.59
379.84	227.47
380.22	227.41
380.60	227.35
380.98	227.31
381.36	227.25
381.73	227.19
382.11	227.16
382.49	227.14
382.87	227.09
383.25	227.01
383.62	227.08
384.00	226.99
384.38	226.93
384.76	226.88
385.13	226.84
385.51	226.80
385.89	226.72
386.27	226.66
386.64	226.65
387.02	226.59
387.40	226.57
387.78	226.55
388.15	226.50
388.53	226.46
388.91	226.42
389.29	226.39
389.66	226.40
390.04	226.35
390.42	226.35
390.79	226.33
391.17	226.31
391.55	226.20
391.92	226.18
392.30	226.20
392.68	226.20
393.05	226.20
393.43	226.18
393.81	226.19
394.18	226.19
394.56	226.24
394.94	226.28
395.31	226.30
395.69	226.35
396.06	226.41
396.44	226.46
396.82	226.51
397.19	226.63
397.57	226.63
397.95	226.70
398.32	226.72
398.70	226.78
399.07	226.88
399.45	226.97
399.82	227.04
400.20	227.12
400.58	227.21
400.95	227.24
401.33	227.37
401.70	227.56
402.08	227.71
402.45	227.77
402.83	227.89
403.20	228.00
403.58	228.14
403.95	228.26
404.33	228.39
404.71	228.49
405.08	228.63
405.46	228.77
405.83	228.93
406.21	229.09
406.58	229.27
406.96	229.42
407.33	229.58
407.70	229.78
408.08	230.03
408.45	230.23
408.83	230.49
409.20	230.68
409.58	230.81
409.95	231.05
410.33	231.34
410.70	231.57
411.08	231.86
411.45	232.14
411.82	232.44
412.20	232.77
412.57	233.18
412.95	233.47
413.32	233.88
413.69	234.25
414.07	234.68
414.44	235.13
414.82	235.60
415.19	236.15
415.56	236.69
415.94	237.22
416.31	237.84
416.68	238.44
417.06	239.18
417.43	239.90
417.81	240.63
418.18	241.39
418.55	242.24
418.93	243.09
419.30	243.98
419.67	244.87
420.04	245.82
420.42	246.81
420.79	247.97
421.16	249.10
421.54	250.28
421.91	251.50
422.28	252.71
422.66	254.03
423.03	255.35
423.40	256.68
423.77	258.10
424.15	259.55
424.52	261.03
424.89	262.64
425.26	264.18
425.64	265.66
426.01	267.26
426.38	268.90
426.75	270.61
427.13	272.35
427.50	274.19
427.87	276.06
428.24	277.91
428.61	279.65
428.99	281.60
429.36	283.72
429.73	285.80
430.10	287.87
430.47	289.93
430.85	292.04
431.22	294.31
431.59	296.66
431.96	298.86
432.33	301.41
432.70	303.75
433.08	306.56
433.45	309.16
433.82	311.78
434.19	314.69
434.56	317.45
434.93	320.13
435.30	322.74
435.68	325.69
436.05	328.53
436.42	331.38
436.79	333.89
437.16	336.61
437.53	339.46
437.90	342.29
438.27	345.07
438.64	347.92
439.01	350.53
439.38	352.79
439.75	354.97
440.13	357.44
440.50	359.78
440.87	361.67
441.24	363.65
441.61	365.81
441.98	367.33
442.35	369.15
442.72	370.97
443.09	372.82
443.46	373.80
443.83	374.42
444.20	374.89
444.57	375.75
444.94	376.04
445.31	376.35
445.68	376.66
446.05	376.72
446.42	376.34
446.79	375.86
447.16	375.38
447.53	375.11
447.90	373.92
448.27	372.77
448.64	371.15
449.01	369.98
449.37	368.01
449.74	366.06
450.11	363.82
450.48	361.37
450.85	358.83
451.22	356.63
451.59	354.57
451.96	352.63
452.33	349.99
452.70	347.58
453.07	344.75
453.43	341.83
453.80	339.04
454.17	336.35
454.54	333.86
454.91	331.17
455.28	328.50
455.65	326.00
456.02	323.57
456.38	321.40
456.75	318.79
457.12	316.49
457.49	314.28
457.86	312.12
458.23	310.23
458.59	308.17
458.96	306.10
459.33	304.28
459.70	302.38
460.07	300.88
460.43	299.16
460.80	297.53
461.17	296.13
461.54	294.66
461.91	293.19
462.27	291.73
462.64	290.43
463.01	289.01
463.38	287.74
463.74	286.33
464.11	285.20
464.48	284.17
464.85	283.08
465.21	282.18
465.58	281.25
465.95	280.17
466.32	279.21
466.68	278.34
467.05	277.42
467.42	276.57
467.78	275.64
468.15	274.79
468.52	274.13
468.88	273.23
469.25	272.46
469.62	271.89
469.98	271.21
470.35	270.60
470.72	270.06
471.08	269.40
471.45	268.86
471.82	268.28
472.18	267.65
472.55	267.20
472.92	266.70
473.28	266.28
473.65	265.82
474.02	265.43
474.38	265.07
474.75	264.75
475.11	264.41
475.48	264.14
475.85	263.92
476.21	263.70
476.58	263.55
476.94	263.39
477.31	263.20
477.67	263.06
478.04	262.95
478.41	262.87
478.77	262.92
479.14	262.88
479.50	262.91
479.87	263.03
480.23	263.12
480.60	263.20
480.96	263.28
481.33	263.54
481.69	263.75
482.06	263.93
482.42	264.11
482.79	264.39
483.15	264.72
483.52	265.09
483.88	265.48
484.25	265.89
484.61	266.32
484.98	266.77
485.34	267.35
485.71	267.98
486.07	268.57
486.44	269.19
486.80	269.90
487.17	270.62
487.53	271.48
487.90	272.35
488.26	273.31
488.62	274.29
488.99	275.25
489.35	276.28
489.72	277.40
490.08	278.63
490.44	279.87
490.81	281.20
491.17	282.58
491.54	284.06
491.90	285.53
492.26	287.21
492.63	288.94
492.99	290.69
493.36	292.56
493.72	294.59
494.08	296.67
494.45	298.91
494.81	301.29
495.17	303.66
495.54	306.26
495.90	308.93
496.26	311.73
496.63	314.68
496.99	317.77
497.35	321.06
497.72	324.50
498.08	328.00
498.44	331.66
498.80	335.58
499.17	339.64
499.53	343.85
499.89	348.22
500.26	352.73
500.62	357.44
500.98	362.43
501.34	367.52
501.71	372.84
502.07	378.29
502.43	383.89
502.79	389.71
503.16	395.78
503.52	401.99
503.88	408.42
504.24	415.06
504.60	421.97
504.97	429.07
505.33	436.39
505.69	444.16
506.05	451.92
506.41	459.78
506.78	467.90
507.14	476.33
507.50	485.02
507.86	494.07
508.22	503.27
508.59	512.50
508.95	522.09
509.31	531.91
509.67	541.99
510.03	552.29
510.39	562.84
510.75	573.63
511.12	584.61
511.48	595.83
511.84	607.26
512.20	618.73
512.56	630.68
512.92	642.91
513.28	655.19
513.64	667.64
514.00	680.28
514.37	693.25
514.73	706.33
515.09	719.32
515.45	732.57
515.81	746.07
516.17	760.06
516.53	774.17
516.89	788.33
517.25	802.43
517.61	816.91
517.97	831.42
518.33	845.76
518.69	860.58
519.05	875.60
519.41	890.82
519.77	906.48
520.13	921.89
520.49	937.15
520.85	952.61
521.21	968.40
521.57	984.69
521.93	1000.43
522.29	1016.80
522.65	1033.05
523.01	1049.31
523.37	1065.45
523.73	1081.62
524.09	1097.71
524.45	1113.99
524.81	1130.77
525.17	1147.50
525.53	1164.47
525.89	1181.41
526.25	1198.21
526.61	1214.69
526.97	1231.43
527.33	1247.83
527.68	1264.47
528.04	1281.08
528.40	1297.67
528.76	1314.70
529.12	1331.36
529.48	1348.28
529.84	1364.35
530.20	1381.05
530.56	1398.15
530.91	1415.60
531.27	1432.38
531.63	1448.97
531.99	1465.60
532.35	1481.51
532.71	1497.44
533.07	1513.62
533.42	1529.54
533.78	1545.56
534.14	1561.73
534.50	1577.13
534.86	1593.14
535.21	1608.29
535.57	1624.16
535.93	1639.66
536.29	1654.51
536.65	1669.47
537.00	1684.24
537.36	1699.61
537.72	1714.21
538.08	1728.53
538.44	1742.24
538.79	1756.13
539.15	1769.82
539.51	1783.53
539.87	1797.94
540.22	1811.79
540.58	1825.46
540.94	1838.99
541.29	1851.95
541.65	1864.63
542.01	1877.84
542.37	1890.09
542.72	1902.58
543.08	1914.30
543.44	1926.83
543.79	1938.11
544.15	1949.20
544.51	1960.73
544.87	1971.63
545.22	1982.33
545.58	1992.51
545.94	2002.35
546.29	2012.07
546.65	2021.78
547.01	2031.10
547.36	2039.76
547.72	2048.06
548.07	2055.96
548.43	2063.97
548.79	2072.02
549.14	2079.58
549.50	2086.83
549.86	2094.54
550.21	2101.82
550.57	2109.03
550.92	2115.46
551.28	2122.42
551.64	2129.47
551.99	2136.02
552.35	2142.14
552.70	2148.34
553.06	2154.38
553.41	2160.57
553.77	2166.67
554.13	2172.78
554.48	2178.81
554.84	2184.39
555.19	2189.81
555.55	2194.99
555.90	2199.44
556.26	2204.28
556.61	2209.01
556.97	2213.31
557.32	2217.35
557.68	2221.53
558.03	2226.03
558.39	2229.70
558.74	2234.45
559.10	2238.38
559.45	2242.15
559.81	2246.40
560.16	2250.17
560.52	2253.41
560.87	2257.04
561.23	2259.80
561.58	2262.79
561.94	2265.46
562.29	2267.70
562.64	2270.23
563.00	2272.78
563.35	2276.36
563.71	2279.45
564.06	2282.67
564.42	2285.47
564.77	2287.98
565.12	2290.15
565.48	2292.00
565.83	2293.85
566.19	2294.94
566.54	2295.81
566.89	2296.82
567.25	2297.54
567.60	2298.90
567.96	2300.54
568.31	2301.09
568.66	2302.09
569.02	2302.69
569.37	2302.95
569.72	2303.77
570.08	2303.95
570.43	2303.95
570.78	2303.31
571.14	2301.84
571.49	2300.61
571.84	2300.32
572.20	2299.23
572.55	2298.32
572.90	2296.60
573.26	2295.12
573.61	2293.55
573.96	2291.70
574.31	2288.63
574.67	2285.64
575.02	2282.00
575.37	2278.53
575.72	2274.84
576.08	2271.63
576.43	2268.21
576.78	2264.46
577.13	2261.43
577.49	2258.47
577.84	2255.06
578.19	2251.24
578.54	2247.48
578.90	2243.12
579.25	2237.61
579.60	2232.54
579.95	2227.52
580.30	2222.56
580.66	2217.52
581.01	2212.59
581.36	2207.61
581.71	2203.50
582.06	2198.94
582.42	2194.53
582.77	2189.45
583.12	2184.98
583.47	2180.17
583.82	2175.09
584.17	2169.85
584.53	2164.23
584.88	2158.62
585.23	2152.66
585.58	2147.23
585.93	2141.86
586.28	2137.01
586.63	2131.91
586.98	2126.89
587.34	2122.07
587.69	2117.30
588.04	2111.85
588.39	2106.00
588.74	2099.60
589.09	2093.36
589.44	2086.60
589.79	2080.52
590.14	2074.89
590.49	2068.23
590.84	2061.92
591.19	2055.99
591.54	2049.55
591.89	2042.18
592.25	2035.27
592.60	2028.20
592.95	2020.59
593.30	2013.23
593.65	2005.77
594.00	1998.77
594.35	1991.56
594.70	1983.44
595.05	1976.01
595.40	1968.90
595.75	1961.50
596.10	1955.14
596.45	1948.45
596.80	1942.38
597.15	1935.72
597.50	1928.53
597.85	1922.10
598.19	1915.33
598.54	1908.08
598.89	1901.43
599.24	1895.56
599.59	1888.64
599.94	1882.60
600.29	1876.27
600.64	1869.67
600.99	1862.18
601.34	1855.29
601.69	1848.31
602.04	1841.42
602.39	1834.09
602.74	1827.15
603.08	1820.38
603.43	1813.66
603.78	1806.34
604.13	1798.98
604.48	1791.56
604.83	1784.73
605.18	1777.63
605.53	1769.60
605.87	1761.65
606.22	1754.44
606.57	1746.50
606.92	1739.25
607.27	1731.85
607.62	1724.78
607.96	1717.44
608.31	1710.73
608.66	1703.03
609.01	1695.50
609.36	1688.01
609.70	1679.86
610.05	1671.83
610.40	1664.04
610.75	1655.76
611.10	1648.14
611.44	1639.80
611.79	1631.90
612.14	1623.16
612.49	1614.05
612.83	1605.77
613.18	1597.59
613.53	1589.45
613.88	1580.75
614.22	1572.50
614.57	1563.97
614.92	1555.90
615.27	1548.27
615.61	1540.03
615.96	1532.08
616.31	1524.38
616.65	1516.96
617.00	1509.46
617.35	1501.83
617.70	1493.58
618.04	1485.13
618.39	1476.76
618.74	1469.07
619.08	1460.72
619.43	1453.06
619.78	1446.09
620.12	1438.80
620.47	1431.30
620.82	1423.18
621.16	1415.87
621.51	1408.25
621.85	1400.62
622.20	1392.22
622.55	1383.96
622.89	1376.10
623.24	1368.43
623.59	1361.01
623.93	1353.49
624.28	1346.29
624.62	1338.82
624.97	1331.68
625.32	1324.98
625.66	1318.16
626.01	1310.99
626.35	1303.57
626.70	1295.90
627.04	1288.25
627.39	1280.50
627.73	1273.09
628.08	1266.20
628.43	1258.86
628.77	1251.50
629.12	1243.88
629.46	1236.72
629.81	1229.33
630.15	1221.98
630.50	1214.47
630.84	1206.28
631.19	1198.39
631.53	1190.88
631.88	1183.19
632.22	1175.50
632.57	1168.14
632.91	1160.43
633.26	1152.94
633.60	1145.65
633.95	1138.60
634.29	1131.61
634.64	1124.94
634.98	1117.64
635.32	1110.42
635.67	1103.82
636.01	1097.21
636.36	1090.35
636.70	1083.83
637.05	1077.21
637.39	1070.88
637.73	1064.47
638.08	1058.57
638.42	1052.56
638.77	1046.09
639.11	1039.49
639.45	1033.13
639.80	1026.44
640.14	1020.04
640.49	1013.60
640.83	1007.17
641.17	1000.90
641.52	994.56
641.86	988.09
642.20	982.14
642.55	975.84
642.89	969.32
643.23	962.77
643.58	956.97
643.92	950.74
644.26	944.58
644.61	938.58
644.95	932.56
645.29	926.00
645.64	919.21
645.98	912.95
646.32	907.18
646.66	901.08
647.01	895.35
647.35	889.66
647.69	883.78
648.04	878.26
648.38	872.46
648.72	866.41
649.06	860.32
649.41	854.51
649.75	848.58
650.09	842.68
650.43	836.89
650.78	830.77
651.12	824.84
651.46	819.16
651.80	813.30
652.14	807.89
652.49	802.49
652.83	797.32
653.17	791.53
653.51	785.78
653.85	780.46
654.20	774.78
654.54	768.76
654.88	763.03
655.22	757.17
655.56	751.50
655.90	746.03
656.25	740.83
656.59	735.49
656.93	730.31
657.27	725.04
657.61	719.61
657.95	714.51
658.29	709.46
658.64	704.17
658.98	698.90
659.32	693.42
659.66	688.15
660.00	682.80
660.34	677.91
660.68	672.96
661.02	667.91
661.36	663.20
661.70	658.69
662.05	654.36
662.39	650.03
662.73	645.53
663.07	641.17
663.41	636.74
663.75	632.16
664.09	627.61
664.43	623.32
664.77	619.16
665.11	614.91
665.45	610.74
665.79	606.69
666.13	602.55
666.47	598.42
666.81	594.35
667.15	590.31
667.49	586.42
667.83	582.72
668.17	578.81
668.51	574.70
668.85	570.71
669.19	566.88
669.53	562.99
669.87	559.07
670.21	555.37
670.55	551.70
670.89	548.30
671.23	544.85
671.57	541.29
671.91	537.80
672.25	534.37
672.58	530.86
672.92	527.46
673.26	524.34
673.60	521.26
673.94	518.19
674.28	515.27
674.62	512.28
674.96	509.14
675.30	506.22
675.64	503.36
675.97	500.61
676.31	497.74
676.65	494.81
676.99	492.17
677.33	489.30
677.67	486.48
678.01	483.45
678.34	480.48
678.68	477.68
679.02	474.84
679.36	472.04
679.70	469.32
680.04	466.56
680.37	463.64
680.71	460.84
681.05	458.17
681.39	455.47
681.73	452.80
682.06	450.22
682.40	447.63
682.74	445.07
683.08	442.49
683.42	439.85
683.75	437.38
684.09	434.80
684.43	432.33
684.77	429.89
685.10	427.54
685.44	425.27
685.78	422.97
686.12	420.76
686.45	418.49
686.79	416.19
687.13	414.00
687.46	411.91
687.80	409.75
688.14	407.54
688.48	405.46
688.81	403.29
689.15	401.18
689.49	399.06
689.82	397.02
690.16	394.90
690.50	392.94
690.83	390.97
691.17	388.99
691.51	387.07
691.84	385.17
692.18	383.23
692.52	381.23
692.85	379.31
693.19	377.40
693.52	375.56
693.86	373.80
694.20	372.01
694.53	370.20
694.87	368.37
695.21	366.61
695.54	364.73
695.88	362.98
696.21	361.21
696.55	359.53
696.88	357.81
697.22	356.16
697.56	354.56
697.89	352.91
698.23	351.34
698.56	349.74
698.90	348.20
699.23	346.51
699.57	344.94
699.90	343.36
700.24	341.83
700.58	340.31
700.91	338.78
701.25	337.32
701.58	335.89
701.92	334.48
702.25	332.99
702.59	331.70
702.92	330.38
703.26	329.09
703.59	327.81
703.93	326.60
704.26	325.41
704.60	324.08
704.93	322.79
705.26	321.50
705.60	320.37
705.93	319.16
706.27	318.17
706.60	317.10
706.94	316.02
707.27	314.88
707.61	313.81
707.94	312.76
708.27	311.66
708.61	310.60
708.94	309.62
709.28	308.71
709.61	307.73
709.94	306.77
710.28	305.79
710.61	304.80
710.95	303.74
711.28	302.79
711.61	301.85
711.95	300.95
712.28	300.01
712.61	298.99
712.95	298.06
713.28	297.20
713.61	296.37
713.95	295.50
714.28	294.66
714.61	293.83
714.95	293.01
715.28	292.17
715.61	291.32
715.95	290.46
716.28	289.58
716.61	288.71
716.95	287.97
717.28	287.20
717.61	286.41
717.94	285.69
718.28	284.90
718.61	284.22
718.94	283.56
719.27	282.93
719.61	282.27
719.94	281.64
720.27	280.92
720.60	280.23
720.94	279.59
721.27	279.02
721.60	278.41
721.93	277.81
722.27	277.27
722.60	276.71
722.93	276.18
723.26	275.66
723.59	275.14
723.93	274.53
724.26	274.00
724.59	273.49
724.92	272.93
725.25	272.43
725.59	271.90
725.92	271.37
726.25	270.84
726.58	270.35
726.91	269.84
727.24	269.37
727.57	268.89
727.91	268.42
728.24	267.93
728.57	267.44
728.90	267.00
729.23	266.47
729.56	266.03
729.89	265.52
730.22	265.02
730.55	264.53
730.89	264.13
731.22	263.64
731.55	263.22
731.88	262.81
732.21	262.37
732.54	261.91
732.87	261.49
733.20	261.10
733.53	260.74
733.86	260.37
734.19	259.94
734.52	259.55
734.85	259.19
735.18	258.75
735.51	258.39
735.84	258.00
736.17	257.66
736.50	257.26
736.83	257.02
737.16	256.71
737.49	256.35
737.82	255.97
738.15	255.67
738.48	255.32
738.81	255.01
739.14	254.68
739.47	254.36
739.80	254.04
740.13	253.70
740.46	253.32
740.79	252.99
741.12	252.68
741.45	252.37
741.78	252.05
742.11	251.76
742.44	251.43
742.77	251.16
743.10	250.81
743.43	250.49
743.75	250.10
744.08	249.93
744.41	249.67
744.74	249.39
745.07	249.06
745.40	248.80
745.73	248.54
746.06	248.25
746.39	247.95
746.71	247.66
747.04	247.38
747.37	247.14
747.70	246.84
748.03	246.61
748.36	246.42
748.68	246.15
749.01	245.92
749.34	245.65
749.67	245.38
750.00	245.21
750.33	245.05
750.65	244.82
750.98	244.48
751.31	244.28
751.64	244.06
751.97	243.91
752.29	243.69
752.62	243.42
752.95	243.24
753.28	243.05
753.60	242.86
753.93	242.70
754.26	242.49
754.59	242.34
754.91	242.13
755.24	241.88
755.57	241.72
755.90	241.55
756.22	241.38
756.55	241.24
756.88	241.05
757.20	240.84
757.53	240.67
757.86	240.50
758.19	240.39
758.51	240.21
758.84	240.01
759.17	239.84
759.49	239.69
759.82	239.60
760.15	239.47
760.47	239.38
760.80	239.22
761.13	239.11
761.45	238.95
761.78	238.79
762.11	238.70
762.43	238.58
762.76	238.45
763.08	238.35
763.41	238.20
763.74	238.07
764.06	237.94
764.39	237.83
764.71	237.71
765.04	237.53
765.37	237.43
765.69	237.31
766.02	237.19
766.34	237.09
766.67	236.93
767.00	236.84
767.32	236.76
767.65	236.68
767.97	236.55
768.30	236.47
768.62	236.38
768.95	236.21
769.27	236.06
769.60	235.96
769.92	235.83
770.25	235.68
770.57	235.55
770.90	235.48
771.22	235.36
771.55	235.27
771.87	235.21
772.20	235.09
772.52	235.10
772.85	235.13
773.17	235.04
773.50	234.94
773.82	234.82
774.15	234.69
774.47	234.57
774.80	234.48
775.12	234.36
775.45	234.28
775.77	234.23
776.09	234.19
776.42	234.11
776.74	234.09
777.07	234.07
777.39	233.98
777.72	233.88
778.04	233.82
778.36	233.75
778.69	233.67
779.01	233.61
779.33	233.43
779.66	233.27
779.98	233.19
780.31	233.09
780.63	233.06
780.95	232.99
781.28	232.89
781.60	232.83
781.92	232.82
782.25	232.76
782.57	232.68
782.89	232.59
783.22	232.54
783.54	232.43
783.86	232.37
784.19	232.33
784.51	232.30
784.83	232.19
785.16	232.09
785.48	232.01
785.80	231.93
786.12	231.89
786.45	231.82
786.77	231.76
787.09	231.74
