SpectraSuite Data File
++++++++++++++++++++++++++++++++++++
Date: Fri Feb 01 16:29:00 EST 2013
User: group
Dark Spectrum Present: No
Reference Spectrum Present: No
Number of Sampled Component Spectra: 1
Spectrometers: USB2E7196
Integration Time (usec): 35000 (USB2E7196)
Spectra Averaged: 100 (USB2E7196)
Boxcar Smoothing: 10 (USB2E7196)
Correct for Electrical Dark: No (USB2E7196)
Strobe/Lamp Enabled: No (USB2E7196)
Correct for Detector Non-linearity: No (USB2E7196)
Correct for Stray Light: No (USB2E7196)
Number of Pixels in Processed Spectrum: 2048
>>>>>Begin Processed Spectral Data<<<<<
339.09	0.00
339.48	214.22
339.86	216.32
340.24	216.90
340.63	218.09
341.01	221.35
341.39	221.03
341.78	221.96
342.16	223.39
342.54	224.14
342.93	212.54
343.31	223.26
343.69	223.80
344.07	224.22
344.46	224.65
344.84	225.06
345.22	225.27
345.60	225.53
345.99	225.75
346.37	225.90
346.75	226.00
347.13	226.07
347.52	226.12
347.90	226.19
348.28	226.21
348.66	226.23
349.05	226.24
349.43	226.25
349.81	226.32
350.19	226.35
350.57	226.40
350.96	226.47
351.34	226.58
351.72	226.67
352.10	226.77
352.48	226.85
352.87	226.91
353.25	226.98
353.63	227.05
354.01	227.08
354.39	227.14
354.77	227.20
355.15	227.30
355.54	227.37
355.92	227.43
356.30	227.50
356.68	227.65
357.06	227.73
357.44	227.77
357.82	227.81
358.20	227.88
358.58	227.92
358.97	227.98
359.35	228.09
359.73	228.12
360.11	228.19
360.49	228.24
360.87	228.28
361.25	228.36
361.63	228.42
362.01	228.51
362.39	228.53
362.77	228.61
363.15	228.61
363.53	228.61
363.91	228.63
364.29	228.66
364.67	228.56
365.05	228.59
365.43	228.63
365.81	228.64
366.19	228.70
366.57	228.69
366.95	228.70
367.33	228.63
367.71	228.65
368.09	228.66
368.47	228.64
368.85	228.62
369.23	228.59
369.61	228.53
369.99	228.50
370.37	228.48
370.75	228.45
371.13	228.41
371.51	228.33
371.89	228.30
372.27	228.23
372.65	228.20
373.03	228.11
373.41	228.06
373.78	228.02
374.16	227.90
374.54	227.85
374.92	227.81
375.30	227.74
375.68	227.63
376.06	227.57
376.44	227.51
376.82	227.44
377.19	227.41
377.57	227.32
377.95	227.24
378.33	227.13
378.71	227.01
379.09	227.00
379.47	226.97
379.84	226.85
380.22	226.80
380.60	226.70
380.98	226.64
381.36	226.55
381.73	226.51
382.11	226.51
382.49	226.44
382.87	226.36
383.25	226.31
383.62	226.35
384.00	226.25
384.38	226.15
384.76	226.13
385.13	226.05
385.51	226.01
385.89	225.96
386.27	225.93
386.64	225.91
387.02	225.82
387.40	225.79
387.78	225.78
388.15	225.73
388.53	225.71
388.91	225.69
389.29	225.69
389.66	225.64
390.04	225.57
390.42	225.56
390.79	225.55
391.17	225.56
391.55	225.47
391.92	225.45
392.30	225.49
392.68	225.46
393.05	225.47
393.43	225.46
393.81	225.46
394.18	225.47
394.56	225.50
394.94	225.55
395.31	225.56
395.69	225.62
396.06	225.67
396.44	225.67
396.82	225.69
397.19	225.76
397.57	225.82
397.95	225.92
398.32	225.92
398.70	225.96
399.07	225.99
399.45	226.04
399.82	226.09
400.20	226.14
400.58	226.23
400.95	226.25
401.33	226.38
401.70	226.53
402.08	226.63
402.45	226.70
402.83	226.81
403.20	226.93
403.58	227.04
403.95	227.21
404.33	227.35
404.71	227.50
405.08	227.67
405.46	227.78
405.83	227.90
406.21	228.10
406.58	228.28
406.96	228.46
407.33	228.64
407.70	228.88
408.08	229.15
408.45	229.38
408.83	229.62
409.20	229.81
409.58	229.97
409.95	230.22
410.33	230.47
410.70	230.73
411.08	231.01
411.45	231.30
411.82	231.57
412.20	231.91
412.57	232.34
412.95	232.61
413.32	233.03
413.69	233.43
414.07	233.85
414.44	234.28
414.82	234.75
415.19	235.29
415.56	235.81
415.94	236.37
416.31	237.01
416.68	237.61
417.06	238.33
417.43	239.00
417.81	239.80
418.18	240.60
418.55	241.42
418.93	242.30
419.30	243.15
419.67	244.08
420.04	245.05
420.42	246.00
420.79	247.19
421.16	248.31
421.54	249.47
421.91	250.67
422.28	251.93
422.66	253.27
423.03	254.56
423.40	255.85
423.77	257.21
424.15	258.59
424.52	260.08
424.89	261.70
425.26	263.25
425.64	264.63
426.01	266.18
426.38	267.82
426.75	269.50
427.13	271.20
427.50	273.03
427.87	274.87
428.24	276.72
428.61	278.46
428.99	280.34
429.36	282.45
429.73	284.48
430.10	286.49
430.47	288.49
430.85	290.58
431.22	292.84
431.59	295.24
431.96	297.46
432.33	299.91
432.70	302.22
433.08	305.00
433.45	307.66
433.82	310.29
434.19	313.15
434.56	315.92
434.93	318.58
435.30	321.19
435.68	324.08
436.05	326.92
436.42	329.69
436.79	332.26
437.16	334.94
437.53	337.78
437.90	340.54
438.27	343.32
438.64	346.16
439.01	348.75
439.38	350.92
439.75	353.11
440.13	355.59
440.50	357.95
440.87	359.77
441.24	361.72
441.61	363.82
441.98	365.29
442.35	367.06
442.72	368.91
443.09	370.69
443.46	371.68
443.83	372.19
444.20	372.67
444.57	373.48
444.94	373.77
445.31	374.11
445.68	374.49
446.05	374.62
446.42	374.24
446.79	373.84
447.16	373.40
447.53	373.09
447.90	371.96
448.27	370.79
448.64	369.26
449.01	368.11
449.37	366.18
449.74	364.34
450.11	362.13
450.48	359.67
450.85	357.13
451.22	355.01
451.59	353.07
451.96	351.17
452.33	348.58
452.70	346.25
453.07	343.39
453.43	340.54
453.80	337.73
454.17	335.07
454.54	332.51
454.91	329.84
455.28	327.16
455.65	324.69
456.02	322.31
456.38	320.18
456.75	317.54
457.12	315.33
457.49	313.11
457.86	310.96
458.23	309.13
458.59	307.14
458.96	305.07
459.33	303.19
459.70	301.33
460.07	299.84
460.43	298.15
460.80	296.53
461.17	295.07
461.54	293.58
461.91	292.16
462.27	290.72
462.64	289.46
463.01	288.12
463.38	286.81
463.74	285.43
464.11	284.24
464.48	283.23
464.85	282.11
465.21	281.22
465.58	280.30
465.95	279.20
466.32	278.28
466.68	277.36
467.05	276.50
467.42	275.64
467.78	274.72
468.15	273.81
468.52	273.20
468.88	272.34
469.25	271.57
469.62	270.97
469.98	270.28
470.35	269.66
470.72	269.10
471.08	268.47
471.45	267.93
471.82	267.41
472.18	266.82
472.55	266.43
472.92	265.96
473.28	265.50
473.65	265.05
474.02	264.62
474.38	264.31
474.75	264.00
475.11	263.63
475.48	263.39
475.85	263.21
476.21	262.95
476.58	262.79
476.94	262.66
477.31	262.49
477.67	262.37
478.04	262.28
478.41	262.19
478.77	262.26
479.14	262.19
479.50	262.21
479.87	262.30
480.23	262.37
480.60	262.40
480.96	262.46
481.33	262.70
481.69	262.94
482.06	263.10
482.42	263.31
482.79	263.57
483.15	263.92
483.52	264.30
483.88	264.71
484.25	265.10
484.61	265.54
484.98	266.02
485.34	266.59
485.71	267.18
486.07	267.79
486.44	268.38
486.80	269.09
487.17	269.84
487.53	270.66
487.90	271.51
488.26	272.49
488.62	273.51
488.99	274.46
489.35	275.52
489.72	276.68
490.08	277.89
490.44	279.15
490.81	280.45
491.17	281.82
491.54	283.27
491.90	284.83
492.26	286.49
492.63	288.24
492.99	290.02
493.36	291.96
493.72	294.06
494.08	296.16
494.45	298.44
494.81	300.81
495.17	303.24
495.54	305.82
495.90	308.48
496.26	311.34
496.63	314.35
496.99	317.47
497.35	320.71
497.72	324.12
498.08	327.67
498.44	331.42
498.80	335.36
499.17	339.41
499.53	343.59
499.89	347.97
500.26	352.49
500.62	357.13
500.98	362.08
501.34	367.14
501.71	372.46
502.07	377.88
502.43	383.55
502.79	389.38
503.16	395.46
503.52	401.77
503.88	408.17
504.24	414.75
504.60	421.67
504.97	428.79
505.33	436.07
505.69	443.76
506.05	451.56
506.41	459.43
506.78	467.60
507.14	476.05
507.50	484.71
507.86	493.71
508.22	502.96
508.59	512.14
508.95	521.60
509.31	531.39
509.67	541.59
510.03	551.84
510.39	562.41
510.75	573.16
511.12	584.01
511.48	595.23
511.84	606.75
512.20	618.24
512.56	630.16
512.92	642.38
513.28	654.72
513.64	667.10
514.00	679.79
514.37	692.75
514.73	705.83
515.09	718.77
515.45	731.99
515.81	745.56
516.17	759.53
516.53	773.75
516.89	787.96
517.25	802.05
517.61	816.43
517.97	830.81
518.33	845.19
518.69	859.91
519.05	874.87
519.41	889.88
519.77	905.32
520.13	920.72
520.49	936.02
520.85	951.42
521.21	967.05
521.57	983.22
521.93	998.85
522.29	1015.09
522.65	1031.40
523.01	1047.58
523.37	1063.51
523.73	1079.62
524.09	1095.54
524.45	1111.63
524.81	1128.25
525.17	1144.96
525.53	1161.78
525.89	1178.70
526.25	1195.53
526.61	1211.90
526.97	1228.59
527.33	1245.01
527.68	1261.49
528.04	1277.92
528.40	1294.35
528.76	1311.33
529.12	1327.80
529.48	1344.62
529.84	1360.58
530.20	1377.11
530.56	1393.97
530.91	1411.34
531.27	1428.07
531.63	1444.44
531.99	1460.98
532.35	1476.73
532.71	1492.57
533.07	1508.77
533.42	1524.47
533.78	1540.42
534.14	1556.61
534.50	1571.92
534.86	1587.73
535.21	1602.90
535.57	1618.71
535.93	1634.11
536.29	1648.85
536.65	1663.68
537.00	1678.36
537.36	1693.56
537.72	1708.00
538.08	1722.32
538.44	1736.07
538.79	1749.81
539.15	1763.44
539.51	1777.07
539.87	1791.25
540.22	1804.72
540.58	1818.40
540.94	1831.65
541.29	1844.42
541.65	1856.96
542.01	1870.02
542.37	1882.22
542.72	1894.53
543.08	1906.15
543.44	1918.58
543.79	1929.74
544.15	1940.85
544.51	1952.36
544.87	1963.29
545.22	1973.99
545.58	1984.24
545.94	1993.85
546.29	2003.68
546.65	2013.54
547.01	2022.96
547.36	2031.67
547.72	2040.19
548.07	2047.86
548.43	2055.96
548.79	2064.03
549.14	2071.47
549.50	2078.74
549.86	2086.36
550.21	2093.64
550.57	2100.96
550.92	2107.42
551.28	2114.35
551.64	2121.25
551.99	2127.70
552.35	2133.81
552.70	2139.98
553.06	2145.82
553.41	2152.21
553.77	2158.16
554.13	2164.19
554.48	2170.14
554.84	2175.67
555.19	2180.94
555.55	2186.26
555.90	2190.69
556.26	2195.43
556.61	2200.25
556.97	2204.58
557.32	2208.72
557.68	2212.81
558.03	2216.97
558.39	2220.60
558.74	2225.32
559.10	2229.35
559.45	2232.99
559.81	2237.24
560.16	2241.06
560.52	2244.34
560.87	2247.66
561.23	2250.36
561.58	2253.23
561.94	2255.83
562.29	2258.19
562.64	2260.89
563.00	2263.44
563.35	2266.87
563.71	2270.05
564.06	2273.24
564.42	2276.11
564.77	2278.53
565.12	2280.89
565.48	2282.85
565.83	2284.79
566.19	2286.01
566.54	2286.92
566.89	2288.02
567.25	2288.66
567.60	2289.89
567.96	2291.64
568.31	2292.50
568.66	2293.61
569.02	2294.30
569.37	2294.56
569.72	2295.35
570.08	2295.56
570.43	2295.53
570.78	2295.17
571.14	2293.64
571.49	2292.40
571.84	2292.12
572.20	2291.26
572.55	2290.22
572.90	2288.73
573.26	2287.27
573.61	2285.69
573.96	2283.91
574.31	2281.10
574.67	2278.33
575.02	2274.95
575.37	2271.68
575.72	2267.93
576.08	2264.64
576.43	2261.40
576.78	2257.90
577.13	2254.91
577.49	2251.90
577.84	2248.67
578.19	2245.08
578.54	2241.65
578.90	2237.51
579.25	2232.10
579.60	2227.23
579.95	2222.31
580.30	2217.32
580.66	2212.37
581.01	2207.43
581.36	2202.62
581.71	2198.44
582.06	2193.84
582.42	2189.41
582.77	2184.16
583.12	2179.66
583.47	2175.06
583.82	2170.13
584.17	2165.01
584.53	2159.64
584.88	2154.05
585.23	2148.25
585.58	2142.78
585.93	2137.33
586.28	2132.54
586.63	2127.38
586.98	2122.29
587.34	2117.56
587.69	2112.67
588.04	2107.48
588.39	2101.94
588.74	2095.55
589.09	2089.61
589.44	2082.94
589.79	2077.08
590.14	2071.62
590.49	2065.20
590.84	2058.78
591.19	2052.78
591.54	2046.37
591.89	2039.04
592.25	2032.21
592.60	2025.12
592.95	2017.55
593.30	2010.22
593.65	2002.69
594.00	1995.87
594.35	1988.70
594.70	1980.80
595.05	1973.86
595.40	1966.72
595.75	1959.27
596.10	1953.18
596.45	1946.49
596.80	1940.47
597.15	1933.79
597.50	1926.64
597.85	1920.28
598.19	1913.68
598.54	1906.55
598.89	1899.85
599.24	1893.96
599.59	1887.29
599.94	1881.02
600.29	1874.73
600.64	1868.32
600.99	1860.97
601.34	1854.11
601.69	1847.11
602.04	1840.31
602.39	1832.78
602.74	1825.89
603.08	1819.31
603.43	1812.46
603.78	1805.15
604.13	1797.83
604.48	1790.49
604.83	1783.74
605.18	1776.74
605.53	1768.85
605.87	1760.92
606.22	1753.74
606.57	1745.76
606.92	1738.59
607.27	1731.61
607.62	1724.78
607.96	1717.36
608.31	1710.72
608.66	1703.16
609.01	1695.71
609.36	1688.14
609.70	1680.20
610.05	1672.15
610.40	1664.39
610.75	1656.09
611.10	1648.41
611.44	1639.97
611.79	1631.98
612.14	1623.26
612.49	1614.14
612.83	1605.73
613.18	1597.70
613.53	1589.64
613.88	1581.07
614.22	1572.71
614.57	1564.03
614.92	1555.82
615.27	1548.29
615.61	1539.93
615.96	1531.88
616.31	1524.27
616.65	1516.95
617.00	1509.25
617.35	1501.52
617.70	1493.18
618.04	1484.75
618.39	1476.47
618.74	1468.89
619.08	1460.69
619.43	1453.04
619.78	1446.16
620.12	1438.91
620.47	1431.26
620.82	1423.02
621.16	1415.67
621.51	1408.07
621.85	1400.37
622.20	1391.90
622.55	1383.52
622.89	1375.70
623.24	1368.10
623.59	1360.70
623.93	1353.12
624.28	1346.04
624.62	1338.63
624.97	1331.41
625.32	1324.64
625.66	1317.69
626.01	1310.64
626.35	1303.13
626.70	1295.42
627.04	1287.58
627.39	1279.90
627.73	1272.47
628.08	1265.50
628.43	1258.27
628.77	1250.93
629.12	1243.31
629.46	1236.22
629.81	1228.87
630.15	1221.58
630.50	1214.08
630.84	1205.84
631.19	1197.87
631.53	1190.32
631.88	1182.65
632.22	1175.03
632.57	1167.70
632.91	1160.04
633.26	1152.47
633.60	1145.19
633.95	1138.03
634.29	1131.07
634.64	1124.37
634.98	1117.08
635.32	1109.99
635.67	1103.31
636.01	1096.65
636.36	1089.86
636.70	1083.32
637.05	1076.61
637.39	1070.12
637.73	1063.69
638.08	1057.78
638.42	1051.81
638.77	1045.35
639.11	1038.82
639.45	1032.32
639.80	1025.62
640.14	1019.29
640.49	1012.93
640.83	1006.49
641.17	1000.21
641.52	993.84
641.86	987.35
642.20	981.53
642.55	975.19
642.89	968.67
643.23	962.20
643.58	956.51
643.92	950.33
644.26	944.29
644.61	938.31
644.95	932.32
645.29	925.77
645.64	919.02
645.98	912.75
646.32	906.89
646.66	901.03
647.01	895.23
647.35	889.51
647.69	883.66
648.04	878.14
648.38	872.48
648.72	866.46
649.06	860.43
649.41	854.50
649.75	848.57
650.09	842.70
650.43	836.91
650.78	830.78
651.12	824.75
651.46	819.12
651.80	813.34
652.14	807.88
652.49	802.51
652.83	797.38
653.17	791.62
653.51	785.89
653.85	780.49
654.20	774.87
654.54	768.87
654.88	763.06
655.22	757.23
655.56	751.45
655.90	745.99
656.25	740.74
656.59	735.35
656.93	730.25
657.27	724.97
657.61	719.56
657.95	714.32
658.29	709.28
658.64	704.00
658.98	698.77
659.32	693.27
659.66	687.99
660.00	682.59
660.34	677.61
660.68	672.74
661.02	667.64
661.36	662.90
661.70	658.36
662.05	654.03
662.39	649.77
662.73	645.28
663.07	640.93
663.41	636.47
663.75	631.96
664.09	627.38
664.43	623.01
664.77	618.85
665.11	614.65
665.45	610.50
665.79	606.39
666.13	602.19
666.47	598.19
666.81	594.01
667.15	589.93
667.49	586.08
667.83	582.24
668.17	578.28
668.51	574.23
668.85	570.26
669.19	566.39
669.53	562.44
669.87	558.65
670.21	554.93
670.55	551.27
670.89	547.87
671.23	544.41
671.57	540.91
671.91	537.34
672.25	533.87
672.58	530.33
672.92	526.92
673.26	523.85
673.60	520.63
673.94	517.54
674.28	514.66
674.62	511.70
674.96	508.56
675.30	505.63
675.64	502.67
675.97	499.83
676.31	496.94
676.65	494.03
676.99	491.29
677.33	488.40
677.67	485.63
678.01	482.58
678.34	479.62
678.68	476.76
679.02	473.95
679.36	471.16
679.70	468.48
680.04	465.75
680.37	462.80
680.71	460.00
681.05	457.37
681.39	454.65
681.73	451.98
682.06	449.44
682.40	446.90
682.74	444.39
683.08	441.86
683.42	439.27
683.75	436.81
684.09	434.23
684.43	431.72
684.77	429.21
685.10	426.84
685.44	424.53
685.78	422.21
686.12	419.95
686.45	417.69
686.79	415.38
687.13	413.20
687.46	411.01
687.80	408.86
688.14	406.66
688.48	404.56
688.81	402.35
689.15	400.21
689.49	398.09
689.82	396.01
690.16	393.96
690.50	392.00
690.83	389.98
691.17	388.06
691.51	386.20
691.84	384.37
692.18	382.47
692.52	380.52
692.85	378.63
693.19	376.75
693.52	374.87
693.86	373.06
694.20	371.23
694.53	369.45
694.87	367.56
695.21	365.76
695.54	363.97
695.88	362.24
696.21	360.53
696.55	358.85
696.88	357.18
697.22	355.49
697.56	353.86
697.89	352.26
698.23	350.61
698.56	349.01
698.90	347.43
699.23	345.79
699.57	344.22
699.90	342.69
700.24	341.16
700.58	339.61
700.91	338.09
701.25	336.65
701.58	335.28
701.92	333.98
702.25	332.61
702.59	331.24
702.92	329.90
703.26	328.58
703.59	327.28
703.93	326.06
704.26	324.83
704.60	323.53
704.93	322.22
705.26	320.96
705.60	319.74
705.93	318.54
706.27	317.50
706.60	316.45
706.94	315.33
707.27	314.21
707.61	313.18
707.94	312.15
708.27	311.07
708.61	309.99
708.94	308.94
709.28	307.94
709.61	306.98
709.94	306.06
710.28	305.02
710.61	304.04
710.95	302.96
711.28	302.04
711.61	301.08
711.95	300.19
712.28	299.28
712.61	298.28
712.95	297.34
713.28	296.45
713.61	295.55
713.95	294.70
714.28	293.86
714.61	292.94
714.95	292.09
715.28	291.25
715.61	290.37
715.95	289.50
716.28	288.63
716.61	287.77
716.95	286.88
717.28	286.14
717.61	285.35
717.94	284.62
718.28	283.79
718.61	283.07
718.94	282.36
719.27	281.64
719.61	281.04
719.94	280.36
720.27	279.64
720.60	278.93
720.94	278.24
721.27	277.64
721.60	277.10
721.93	276.48
722.27	275.89
722.60	275.33
722.93	274.81
723.26	274.25
723.59	273.69
723.93	273.18
724.26	272.62
724.59	272.09
724.92	271.55
725.25	271.06
725.59	270.55
725.92	270.02
726.25	269.53
726.58	269.04
726.91	268.57
727.24	268.13
727.57	267.69
727.91	267.19
728.24	266.68
728.57	266.18
728.90	265.75
729.23	265.28
729.56	264.87
729.89	264.37
730.22	263.90
730.55	263.45
730.89	262.98
731.22	262.56
731.55	262.09
731.88	261.68
732.21	261.23
732.54	260.81
732.87	260.40
733.20	260.02
733.53	259.61
733.86	259.25
734.19	258.85
734.52	258.46
734.85	258.18
735.18	257.77
735.51	257.43
735.84	257.03
736.17	256.72
736.50	256.28
736.83	256.08
737.16	255.72
737.49	255.41
737.82	255.08
738.15	254.75
738.48	254.46
738.81	254.12
739.14	253.81
739.47	253.51
739.80	253.21
740.13	252.87
740.46	252.57
740.79	252.24
741.12	251.90
741.45	251.60
741.78	251.23
742.11	250.97
742.44	250.63
742.77	250.37
743.10	250.02
743.43	249.74
743.75	249.33
744.08	249.22
744.41	248.92
744.74	248.63
745.07	248.35
745.40	248.09
745.73	247.89
746.06	247.63
746.39	247.35
746.71	247.09
747.04	246.83
747.37	246.57
747.70	246.35
748.03	246.09
748.36	245.86
748.68	245.65
749.01	245.40
749.34	245.17
749.67	244.92
750.00	244.74
750.33	244.56
750.65	244.34
750.98	244.01
751.31	243.80
751.64	243.58
751.97	243.42
752.29	243.20
752.62	242.91
752.95	242.68
753.28	242.47
753.60	242.21
753.93	242.06
754.26	241.86
754.59	241.63
754.91	241.40
755.24	241.19
755.57	240.99
755.90	240.79
756.22	240.63
756.55	240.45
756.88	240.24
757.20	239.99
757.53	239.80
757.86	239.59
758.19	239.42
758.51	239.27
758.84	239.04
759.17	238.87
759.49	238.74
759.82	238.58
760.15	238.41
760.47	238.28
760.80	238.08
761.13	237.95
761.45	237.79
761.78	237.67
762.11	237.52
762.43	237.35
762.76	237.19
763.08	237.06
763.41	236.92
763.74	236.76
764.06	236.64
764.39	236.51
764.71	236.39
765.04	236.24
765.37	236.10
765.69	235.98
766.02	235.85
766.34	235.73
766.67	235.61
767.00	235.51
767.32	235.45
767.65	235.40
767.97	235.27
768.30	235.13
768.62	235.04
768.95	234.99
769.27	234.89
769.60	234.80
769.92	234.67
770.25	234.56
770.57	234.47
770.90	234.39
771.22	234.29
771.55	234.22
771.87	234.15
772.20	234.07
772.52	234.05
772.85	234.09
773.17	233.97
773.50	233.89
773.82	233.81
774.15	233.68
774.47	233.54
774.80	233.48
775.12	233.41
775.45	233.35
775.77	233.24
776.09	233.16
776.42	233.13
776.74	233.11
777.07	233.05
777.39	233.00
777.72	232.92
778.04	232.89
778.36	232.83
778.69	232.77
779.01	232.72
779.33	232.59
779.66	232.41
779.98	232.36
780.31	232.32
780.63	232.28
780.95	232.24
781.28	232.23
781.60	232.17
781.92	232.12
782.25	232.03
782.57	231.95
782.89	231.89
783.22	231.82
783.54	231.74
783.86	231.67
784.19	231.61
784.51	231.58
784.83	231.52
785.16	231.45
785.48	231.41
785.80	231.38
786.12	231.32
786.45	231.30
786.77	231.25
787.09	231.22
