SpectraSuite Data File
++++++++++++++++++++++++++++++++++++
Date: Fri Feb 01 18:01:11 EST 2013
User: group
Dark Spectrum Present: No
Reference Spectrum Present: No
Number of Sampled Component Spectra: 1
Spectrometers: USB2E7196
Integration Time (usec): 35000 (USB2E7196)
Spectra Averaged: 100 (USB2E7196)
Boxcar Smoothing: 10 (USB2E7196)
Correct for Electrical Dark: No (USB2E7196)
Strobe/Lamp Enabled: No (USB2E7196)
Correct for Detector Non-linearity: No (USB2E7196)
Correct for Stray Light: No (USB2E7196)
Number of Pixels in Processed Spectrum: 2048
>>>>>Begin Processed Spectral Data<<<<<
339.09	0.00
339.48	212.86
339.86	215.00
340.24	215.08
340.63	217.17
341.01	219.65
341.39	219.56
341.78	221.10
342.16	222.27
342.54	223.04
342.93	211.25
343.31	221.94
343.69	222.49
344.07	222.95
344.46	223.40
344.84	223.79
345.22	224.05
345.60	224.34
345.99	224.55
346.37	224.68
346.75	224.78
347.13	224.87
347.52	224.94
347.90	224.99
348.28	225.07
348.66	225.14
349.05	225.16
349.43	225.20
349.81	225.24
350.19	225.29
350.57	225.37
350.96	225.43
351.34	225.53
351.72	225.60
352.10	225.68
352.48	225.77
352.87	225.82
353.25	225.89
353.63	225.93
354.01	225.98
354.39	226.05
354.77	226.09
355.15	226.22
355.54	226.33
355.92	226.40
356.30	226.44
356.68	226.55
357.06	226.61
357.44	226.66
357.82	226.72
358.20	226.81
358.58	226.85
358.97	226.93
359.35	226.98
359.73	227.07
360.11	227.13
360.49	227.19
360.87	227.28
361.25	227.36
361.63	227.46
362.01	227.49
362.39	227.55
362.77	227.62
363.15	227.61
363.53	227.59
363.91	227.62
364.29	227.65
364.67	227.59
365.05	227.60
365.43	227.63
365.81	227.67
366.19	227.70
366.57	227.73
366.95	227.71
367.33	227.67
367.71	227.65
368.09	227.62
368.47	227.59
368.85	227.52
369.23	227.48
369.61	227.39
369.99	227.39
370.37	227.39
370.75	227.42
371.13	227.38
371.51	227.36
371.89	227.29
372.27	227.27
372.65	227.26
373.03	227.21
373.41	227.14
373.78	227.08
374.16	226.98
374.54	226.92
374.92	226.86
375.30	226.81
375.68	226.73
376.06	226.71
376.44	226.66
376.82	226.61
377.19	226.53
377.57	226.47
377.95	226.40
378.33	226.29
378.71	226.15
379.09	226.08
379.47	226.01
379.84	225.98
380.22	225.89
380.60	225.77
380.98	225.72
381.36	225.68
381.73	225.60
382.11	225.60
382.49	225.58
382.87	225.53
383.25	225.47
383.62	225.54
384.00	225.47
384.38	225.39
384.76	225.37
385.13	225.40
385.51	225.35
385.89	225.27
386.27	225.26
386.64	225.24
387.02	225.20
387.40	225.12
387.78	225.08
388.15	225.07
388.53	225.07
388.91	225.05
389.29	225.02
389.66	225.01
390.04	224.94
390.42	224.88
390.79	224.85
391.17	224.81
391.55	224.69
391.92	224.69
392.30	224.70
392.68	224.68
393.05	224.64
393.43	224.64
393.81	224.64
394.18	224.61
394.56	224.61
394.94	224.66
395.31	224.69
395.69	224.79
396.06	224.79
396.44	224.81
396.82	224.84
397.19	224.92
397.57	224.93
397.95	224.98
398.32	225.02
398.70	225.09
399.07	225.18
399.45	225.25
399.82	225.30
400.20	225.34
400.58	225.39
400.95	225.41
401.33	225.47
401.70	225.67
402.08	225.76
402.45	225.88
402.83	225.97
403.20	226.08
403.58	226.14
403.95	226.28
404.33	226.39
404.71	226.52
405.08	226.69
405.46	226.86
405.83	227.03
406.21	227.22
406.58	227.42
406.96	227.62
407.33	227.84
407.70	228.06
408.08	228.37
408.45	228.65
408.83	228.95
409.20	229.26
409.58	229.49
409.95	229.84
410.33	230.17
410.70	230.53
411.08	230.90
411.45	231.28
411.82	231.66
412.20	232.13
412.57	232.66
412.95	233.03
413.32	233.55
413.69	234.07
414.07	234.63
414.44	235.21
414.82	235.81
415.19	236.52
415.56	237.27
415.94	238.03
416.31	238.90
416.68	239.76
417.06	240.70
417.43	241.58
417.81	242.61
418.18	243.63
418.55	244.74
418.93	245.96
419.30	247.18
419.67	248.44
420.04	249.70
420.42	251.02
420.79	252.59
421.16	254.12
421.54	255.71
421.91	257.31
422.28	259.04
422.66	260.80
423.03	262.51
423.40	264.27
423.77	266.18
424.15	268.09
424.52	270.08
424.89	272.24
425.26	274.37
425.64	276.30
426.01	278.48
426.38	280.71
426.75	282.92
427.13	285.23
427.50	287.70
427.87	290.27
428.24	292.78
428.61	295.18
428.99	297.84
429.36	300.73
429.73	303.58
430.10	306.32
430.47	309.17
430.85	312.11
431.22	315.16
431.59	318.35
431.96	321.41
432.33	324.75
432.70	327.99
433.08	331.80
433.45	335.35
433.82	338.84
434.19	342.74
434.56	346.49
434.93	350.12
435.30	353.65
435.68	357.55
436.05	361.40
436.42	365.18
436.79	368.57
437.16	372.22
437.53	376.04
437.90	379.86
438.27	383.57
438.64	387.35
439.01	390.89
439.38	393.92
439.75	396.82
440.13	400.19
440.50	403.33
440.87	405.83
441.24	408.49
441.61	411.45
441.98	413.48
442.35	416.00
442.72	418.53
443.09	420.97
443.46	422.37
443.83	423.14
444.20	423.84
444.57	425.00
444.94	425.40
445.31	425.88
445.68	426.28
446.05	426.41
446.42	425.94
446.79	425.39
447.16	424.80
447.53	424.36
447.90	422.83
448.27	421.30
448.64	419.14
449.01	417.56
449.37	414.84
449.74	412.29
450.11	409.25
450.48	405.90
450.85	402.48
451.22	399.56
451.59	396.87
451.96	394.24
452.33	390.70
452.70	387.50
453.07	383.66
453.43	379.79
453.80	376.05
454.17	372.42
454.54	368.96
454.91	365.32
455.28	361.72
455.65	358.35
456.02	354.97
456.38	352.05
456.75	348.46
457.12	345.45
457.49	342.44
457.86	339.50
458.23	336.96
458.59	334.21
458.96	331.35
459.33	328.78
459.70	326.22
460.07	324.20
460.43	321.87
460.80	319.65
461.17	317.67
461.54	315.57
461.91	313.59
462.27	311.62
462.64	309.85
463.01	307.97
463.38	306.18
463.74	304.36
464.11	302.79
464.48	301.42
464.85	299.92
465.21	298.72
465.58	297.45
465.95	295.98
466.32	294.70
466.68	293.49
467.05	292.28
467.42	291.13
467.78	289.82
468.15	288.60
468.52	287.67
468.88	286.51
469.25	285.50
469.62	284.65
469.98	283.73
470.35	282.88
470.72	282.07
471.08	281.19
471.45	280.45
471.82	279.68
472.18	278.87
472.55	278.25
472.92	277.52
473.28	276.88
473.65	276.23
474.02	275.60
474.38	275.09
474.75	274.66
475.11	274.16
475.48	273.81
475.85	273.44
476.21	273.05
476.58	272.78
476.94	272.50
477.31	272.21
477.67	271.93
478.04	271.70
478.41	271.55
478.77	271.49
479.14	271.32
479.50	271.27
479.87	271.26
480.23	271.28
480.60	271.27
480.96	271.26
481.33	271.41
481.69	271.58
482.06	271.72
482.42	271.87
482.79	272.09
483.15	272.38
483.52	272.76
483.88	273.14
484.25	273.50
484.61	273.93
484.98	274.40
485.34	274.96
485.71	275.61
486.07	276.22
486.44	276.77
486.80	277.48
487.17	278.22
487.53	279.05
487.90	279.92
488.26	280.93
488.62	281.97
488.99	282.98
489.35	284.06
489.72	285.20
490.08	286.42
490.44	287.69
490.81	289.05
491.17	290.44
491.54	291.95
491.90	293.54
492.26	295.28
492.63	297.07
492.99	298.94
493.36	300.90
493.72	303.03
494.08	305.25
494.45	307.60
494.81	310.08
495.17	312.62
495.54	315.30
495.90	318.12
496.26	321.05
496.63	324.19
496.99	327.48
497.35	330.95
497.72	334.52
498.08	338.20
498.44	342.04
498.80	346.19
499.17	350.47
499.53	354.91
499.89	359.51
500.26	364.23
500.62	369.18
500.98	374.41
501.34	379.79
501.71	385.43
502.07	391.20
502.43	397.14
502.79	403.36
503.16	409.83
503.52	416.50
503.88	423.35
504.24	430.32
504.60	437.66
504.97	445.21
505.33	453.04
505.69	461.27
506.05	469.63
506.41	478.03
506.78	486.73
507.14	495.69
507.50	504.97
507.86	514.59
508.22	524.40
508.59	534.23
508.95	544.43
509.31	554.92
509.67	565.72
510.03	576.71
510.39	587.96
510.75	599.45
511.12	611.19
511.48	623.25
511.84	635.64
512.20	647.92
512.56	660.71
512.92	673.84
513.28	687.08
513.64	700.48
514.00	714.14
514.37	728.09
514.73	742.17
515.09	756.22
515.45	770.65
515.81	785.33
516.17	800.43
516.53	815.77
516.89	831.13
517.25	846.45
517.61	862.14
517.97	877.90
518.33	893.56
518.69	909.53
519.05	925.82
519.41	942.28
519.77	959.23
520.13	976.05
520.49	992.73
520.85	1009.50
521.21	1026.57
521.57	1044.32
521.93	1061.50
522.29	1079.34
522.65	1097.18
523.01	1114.83
523.37	1132.34
523.73	1150.14
524.09	1167.85
524.45	1185.76
524.81	1204.18
525.17	1222.66
525.53	1241.28
525.89	1259.98
526.25	1278.61
526.61	1296.72
526.97	1315.26
527.33	1333.54
527.68	1351.96
528.04	1370.31
528.40	1388.74
528.76	1407.71
529.12	1426.19
529.48	1445.05
529.84	1462.93
530.20	1481.43
530.56	1500.43
530.91	1519.98
531.27	1538.86
531.63	1557.23
531.99	1575.85
532.35	1593.80
532.71	1611.78
533.07	1630.03
533.42	1647.93
533.78	1666.02
534.14	1684.47
534.50	1701.89
534.86	1719.81
535.21	1737.14
535.57	1755.21
535.93	1772.97
536.29	1789.92
536.65	1806.97
537.00	1823.71
537.36	1841.44
537.72	1858.16
538.08	1874.84
538.44	1890.64
538.79	1906.54
539.15	1922.36
539.51	1938.23
539.87	1954.67
540.22	1970.54
540.58	1986.51
540.94	2001.98
541.29	2017.08
541.65	2031.87
542.01	2047.31
542.37	2061.81
542.72	2076.42
543.08	2090.47
543.44	2105.19
543.79	2118.59
544.15	2131.86
544.51	2145.86
544.87	2158.96
545.22	2171.99
545.58	2184.51
545.94	2196.64
546.29	2208.71
546.65	2220.88
547.01	2232.44
547.36	2243.25
547.72	2253.93
548.07	2263.97
548.43	2274.26
548.79	2284.21
549.14	2293.98
549.50	2303.21
549.86	2313.05
550.21	2322.34
550.57	2331.50
550.92	2339.94
551.28	2349.05
551.64	2358.18
551.99	2366.61
552.35	2374.65
552.70	2382.74
553.06	2390.60
553.41	2398.79
553.77	2406.50
554.13	2414.29
554.48	2422.33
554.84	2430.02
555.19	2436.98
555.55	2443.95
555.90	2450.14
556.26	2457.12
556.61	2463.59
556.97	2469.88
557.32	2475.65
557.68	2481.43
558.03	2487.35
558.39	2492.64
558.74	2499.03
559.10	2504.56
559.45	2509.85
559.81	2515.62
560.16	2520.96
560.52	2525.62
560.87	2530.53
561.23	2534.61
561.58	2539.01
561.94	2542.77
562.29	2546.18
562.64	2550.34
563.00	2554.21
563.35	2559.23
563.71	2563.55
564.06	2567.90
564.42	2572.06
564.77	2575.88
565.12	2579.67
565.48	2582.83
565.83	2586.05
566.19	2588.55
566.54	2590.33
566.89	2592.59
567.25	2594.35
567.60	2596.79
567.96	2599.62
568.31	2601.45
568.66	2603.75
569.02	2605.34
569.37	2606.49
569.72	2608.43
570.08	2609.32
570.43	2610.11
570.78	2610.23
571.14	2609.19
571.49	2608.42
571.84	2608.67
572.20	2608.09
572.55	2607.47
572.90	2606.24
573.26	2605.29
573.61	2603.79
573.96	2602.78
574.31	2600.14
574.67	2597.44
575.02	2593.86
575.37	2590.49
575.72	2586.88
576.08	2583.50
576.43	2580.29
576.78	2576.88
577.13	2573.60
577.49	2570.46
577.84	2566.94
578.19	2563.11
578.54	2559.73
578.90	2555.62
579.25	2549.69
579.60	2544.60
579.95	2539.33
580.30	2534.10
580.66	2528.69
581.01	2523.42
581.36	2518.02
581.71	2513.44
582.06	2508.78
582.42	2504.16
582.77	2498.59
583.12	2493.72
583.47	2488.87
583.82	2483.51
584.17	2477.91
584.53	2472.00
584.88	2466.00
585.23	2459.84
585.58	2453.91
585.93	2447.69
586.28	2442.29
586.63	2436.86
586.98	2431.26
587.34	2426.11
587.69	2420.76
588.04	2414.85
588.39	2408.63
588.74	2401.36
589.09	2394.54
589.44	2386.82
589.79	2379.83
590.14	2373.49
590.49	2366.00
590.84	2358.75
591.19	2351.98
591.54	2344.57
591.89	2336.47
592.25	2328.87
592.60	2320.57
592.95	2312.09
593.30	2303.95
593.65	2295.29
594.00	2287.33
594.35	2278.96
594.70	2269.66
595.05	2261.75
595.40	2253.55
595.75	2245.00
596.10	2238.03
596.45	2230.46
596.80	2223.56
597.15	2216.19
597.50	2208.34
597.85	2200.85
598.19	2193.22
598.54	2185.11
598.89	2177.51
599.24	2170.71
599.59	2163.17
599.94	2156.17
600.29	2148.81
600.64	2141.13
600.99	2132.74
601.34	2124.80
601.69	2116.79
602.04	2109.03
602.39	2100.27
602.74	2092.25
603.08	2084.53
603.43	2076.78
603.78	2068.18
604.13	2059.78
604.48	2051.41
604.83	2043.33
605.18	2035.41
605.53	2026.25
605.87	2016.92
606.22	2008.41
606.57	1998.92
606.92	1990.15
607.27	1981.72
607.62	1973.61
607.96	1965.23
608.31	1957.56
608.66	1948.81
609.01	1940.09
609.36	1931.20
609.70	1921.81
610.05	1912.42
610.40	1903.39
610.75	1893.52
611.10	1884.61
611.44	1874.54
611.79	1865.14
612.14	1854.88
612.49	1844.11
612.83	1834.11
613.18	1824.52
613.53	1815.02
613.88	1805.10
614.22	1795.37
614.57	1785.23
614.92	1775.85
615.27	1766.90
615.61	1757.18
615.96	1747.54
616.31	1738.45
616.65	1729.74
617.00	1720.82
617.35	1711.77
617.70	1702.09
618.04	1692.08
618.39	1682.27
618.74	1673.44
619.08	1663.54
619.43	1654.59
619.78	1646.22
620.12	1637.84
620.47	1629.06
620.82	1619.35
621.16	1610.54
621.51	1601.52
621.85	1592.49
622.20	1582.47
622.55	1572.60
622.89	1563.29
623.24	1554.28
623.59	1545.54
623.93	1536.62
624.28	1528.13
624.62	1519.20
624.97	1510.48
625.32	1502.44
625.66	1494.20
626.01	1485.72
626.35	1477.13
626.70	1467.96
627.04	1459.00
627.39	1449.83
627.73	1440.99
628.08	1432.95
628.43	1424.44
628.77	1415.83
629.12	1407.06
629.46	1398.52
629.81	1389.64
630.15	1381.07
630.50	1372.37
630.84	1362.91
631.19	1353.54
631.53	1344.61
631.88	1335.68
632.22	1326.83
632.57	1318.29
632.91	1309.36
633.26	1300.66
633.60	1291.76
633.95	1283.42
634.29	1275.10
634.64	1267.29
634.98	1258.76
635.32	1250.25
635.67	1242.44
636.01	1234.57
636.36	1226.60
636.70	1218.91
637.05	1211.24
637.39	1203.66
637.73	1196.06
638.08	1188.95
638.42	1181.93
638.77	1174.45
639.11	1166.94
639.45	1159.42
639.80	1151.57
640.14	1144.26
640.49	1136.67
640.83	1129.38
641.17	1122.20
641.52	1114.88
641.86	1107.25
642.20	1100.34
642.55	1093.01
642.89	1085.42
643.23	1077.84
643.58	1071.08
643.92	1063.92
644.26	1056.97
644.61	1049.86
644.95	1042.94
645.29	1035.38
645.64	1027.56
645.98	1020.13
646.32	1013.15
646.66	1006.16
647.01	999.52
647.35	992.81
647.69	985.92
648.04	979.48
648.38	972.69
648.72	965.80
649.06	958.84
649.41	952.00
649.75	945.13
650.09	938.41
650.43	931.72
650.78	924.60
651.12	917.73
651.46	911.11
651.80	904.52
652.14	898.21
652.49	892.01
652.83	886.13
653.17	879.65
653.51	873.08
653.85	866.85
654.20	860.28
654.54	853.26
654.88	846.67
655.22	839.86
655.56	833.27
655.90	826.92
656.25	820.83
656.59	814.65
656.93	808.76
657.27	802.69
657.61	796.33
657.95	790.47
658.29	784.57
658.64	778.43
658.98	772.27
659.32	765.92
659.66	759.86
660.00	753.71
660.34	747.99
660.68	742.31
661.02	736.51
661.36	731.08
661.70	725.96
662.05	720.89
662.39	715.89
662.73	710.71
663.07	705.61
663.41	700.42
663.75	695.20
664.09	689.86
664.43	684.79
664.77	680.12
665.11	675.11
665.45	670.26
665.79	665.53
666.13	660.71
666.47	655.98
666.81	651.20
667.15	646.42
667.49	641.78
667.83	637.29
668.17	632.72
668.51	627.99
668.85	623.28
669.19	618.86
669.53	614.44
669.87	610.00
670.21	605.67
670.55	601.47
670.89	597.47
671.23	593.57
671.57	589.49
671.91	585.35
672.25	581.34
672.58	577.36
672.92	573.37
673.26	569.68
673.60	565.97
673.94	562.35
674.28	558.96
674.62	555.62
674.96	552.07
675.30	548.66
675.64	545.27
675.97	542.08
676.31	538.71
676.65	535.35
676.99	532.21
677.33	528.92
677.67	525.69
678.01	522.21
678.34	518.76
678.68	515.38
679.02	512.13
679.36	508.91
679.70	505.70
680.04	502.49
680.37	499.27
680.71	496.07
681.05	493.05
681.39	489.89
681.73	486.82
682.06	483.91
682.40	481.06
682.74	478.13
683.08	475.18
683.42	472.24
683.75	469.33
684.09	466.35
684.43	463.52
684.77	460.64
685.10	457.93
685.44	455.26
685.78	452.63
686.12	450.00
686.45	447.39
686.79	444.75
687.13	442.28
687.46	439.69
687.80	437.24
688.14	434.67
688.48	432.27
688.81	429.71
689.15	427.18
689.49	424.66
689.82	422.26
690.16	419.83
690.50	417.51
690.83	415.27
691.17	412.95
691.51	410.74
691.84	408.60
692.18	406.37
692.52	404.12
692.85	401.90
693.19	399.76
693.52	397.62
693.86	395.55
694.20	393.45
694.53	391.42
694.87	389.24
695.21	387.17
695.54	385.05
695.88	383.05
696.21	381.09
696.55	379.13
696.88	377.20
697.22	375.30
697.56	373.42
697.89	371.55
698.23	369.77
698.56	367.90
698.90	366.09
699.23	364.23
699.57	362.42
699.90	360.66
700.24	358.84
700.58	357.07
700.91	355.31
701.25	353.66
701.58	352.07
701.92	350.52
702.25	348.92
702.59	347.37
702.92	345.83
703.26	344.31
703.59	342.84
703.93	341.45
704.26	340.05
704.60	338.55
704.93	337.03
705.26	335.56
705.60	334.19
705.93	332.84
706.27	331.58
706.60	330.33
706.94	329.06
707.27	327.74
707.61	326.51
707.94	325.32
708.27	324.06
708.61	322.75
708.94	321.56
709.28	320.44
709.61	319.30
709.94	318.18
710.28	317.01
710.61	315.79
710.95	314.52
711.28	313.36
711.61	312.23
711.95	311.16
712.28	310.07
712.61	308.93
712.95	307.78
713.28	306.73
713.61	305.70
713.95	304.63
714.28	303.65
714.61	302.64
714.95	301.66
715.28	300.65
715.61	299.62
715.95	298.63
716.28	297.60
716.61	296.57
716.95	295.55
717.28	294.65
717.61	293.76
717.94	292.88
718.28	291.99
718.61	291.16
718.94	290.32
719.27	289.52
719.61	288.74
719.94	287.96
720.27	287.14
720.60	286.33
720.94	285.62
721.27	284.89
721.60	284.20
721.93	283.50
722.27	282.83
722.60	282.18
722.93	281.49
723.26	280.86
723.59	280.27
723.93	279.68
724.26	279.03
724.59	278.43
724.92	277.76
725.25	277.14
725.59	276.52
725.92	275.94
726.25	275.34
726.58	274.77
726.91	274.21
727.24	273.63
727.57	273.06
727.91	272.48
728.24	271.96
728.57	271.39
728.90	270.82
729.23	270.27
729.56	269.77
729.89	269.22
730.22	268.66
730.55	268.13
730.89	267.62
731.22	267.09
731.55	266.55
731.88	266.12
732.21	265.61
732.54	265.09
732.87	264.59
733.20	264.09
733.53	263.64
733.86	263.22
734.19	262.83
734.52	262.44
734.85	262.07
735.18	261.55
735.51	261.17
735.84	260.74
736.17	260.33
736.50	259.87
736.83	259.60
737.16	259.21
737.49	258.82
737.82	258.41
738.15	258.04
738.48	257.68
738.81	257.30
739.14	256.94
739.47	256.63
739.80	256.30
740.13	256.01
740.46	255.66
740.79	255.28
741.12	254.89
741.45	254.53
741.78	254.16
742.11	253.88
742.44	253.49
742.77	253.15
743.10	252.81
743.43	252.49
743.75	252.03
744.08	251.84
744.41	251.53
744.74	251.22
745.07	250.92
745.40	250.65
745.73	250.36
746.06	250.05
746.39	249.73
746.71	249.39
747.04	249.07
747.37	248.76
747.70	248.48
748.03	248.17
748.36	247.96
748.68	247.66
749.01	247.39
749.34	247.13
749.67	246.87
750.00	246.60
750.33	246.41
750.65	246.18
750.98	245.76
751.31	245.50
751.64	245.27
751.97	245.05
752.29	244.75
752.62	244.47
752.95	244.25
753.28	243.99
753.60	243.77
753.93	243.51
754.26	243.28
754.59	243.02
754.91	242.78
755.24	242.49
755.57	242.25
755.90	241.99
756.22	241.76
756.55	241.51
756.88	241.29
757.20	241.01
757.53	240.76
757.86	240.59
758.19	240.38
758.51	240.14
758.84	239.90
759.17	239.71
759.49	239.49
759.82	239.32
760.15	239.12
760.47	238.91
760.80	238.68
761.13	238.54
761.45	238.33
761.78	238.15
762.11	237.97
762.43	237.81
762.76	237.63
763.08	237.47
763.41	237.34
763.74	237.18
764.06	237.01
764.39	236.86
764.71	236.69
765.04	236.51
765.37	236.36
765.69	236.18
766.02	236.03
766.34	235.87
766.67	235.69
767.00	235.59
767.32	235.54
767.65	235.49
767.97	235.33
768.30	235.22
768.62	235.09
768.95	234.92
769.27	234.79
769.60	234.68
769.92	234.54
770.25	234.40
770.57	234.23
770.90	234.12
771.22	234.01
771.55	233.92
771.87	233.81
772.20	233.71
772.52	233.69
772.85	233.70
773.17	233.64
773.50	233.54
773.82	233.42
774.15	233.26
774.47	233.10
774.80	233.02
775.12	232.92
775.45	232.85
775.77	232.77
776.09	232.67
776.42	232.56
776.74	232.52
777.07	232.43
777.39	232.37
777.72	232.29
778.04	232.23
778.36	232.16
778.69	232.08
779.01	232.02
779.33	231.89
779.66	231.70
779.98	231.61
780.31	231.53
780.63	231.53
780.95	231.48
781.28	231.42
781.60	231.32
781.92	231.25
782.25	231.19
782.57	231.16
782.89	231.12
783.22	231.07
783.54	230.97
783.86	230.95
784.19	230.89
784.51	230.85
784.83	230.80
785.16	230.72
785.48	230.70
785.80	230.62
786.12	230.59
786.45	230.56
