SpectraSuite Data File
++++++++++++++++++++++++++++++++++++
Date: Fri Feb 01 16:16:21 EST 2013
User: group
Dark Spectrum Present: No
Reference Spectrum Present: No
Number of Sampled Component Spectra: 1
Spectrometers: USB2E7196
Integration Time (usec): 35000 (USB2E7196)
Spectra Averaged: 100 (USB2E7196)
Boxcar Smoothing: 10 (USB2E7196)
Correct for Electrical Dark: No (USB2E7196)
Strobe/Lamp Enabled: No (USB2E7196)
Correct for Detector Non-linearity: No (USB2E7196)
Correct for Stray Light: No (USB2E7196)
Number of Pixels in Processed Spectrum: 2048
>>>>>Begin Processed Spectral Data<<<<<
339.09	0.00
339.48	213.91
339.86	215.13
340.24	216.93
340.63	218.78
341.01	221.42
341.39	221.19
341.78	222.06
342.16	223.42
342.54	224.00
342.93	212.47
343.31	223.21
343.69	223.77
344.07	224.27
344.46	224.72
344.84	225.07
345.22	225.27
345.60	225.50
345.99	225.70
346.37	225.84
346.75	225.94
347.13	226.01
347.52	226.08
347.90	226.15
348.28	226.17
348.66	226.23
349.05	226.23
349.43	226.23
349.81	226.25
350.19	226.33
350.57	226.37
350.96	226.43
351.34	226.51
351.72	226.56
352.10	226.63
352.48	226.65
352.87	226.69
353.25	226.78
353.63	226.84
354.01	226.88
354.39	226.91
354.77	226.99
355.15	227.10
355.54	227.11
355.92	227.12
356.30	227.20
356.68	227.31
357.06	227.39
357.44	227.45
357.82	227.54
358.20	227.56
358.58	227.62
358.97	227.69
359.35	227.74
359.73	227.84
360.11	227.90
360.49	227.96
360.87	228.02
361.25	228.07
361.63	228.15
362.01	228.20
362.39	228.27
362.77	228.30
363.15	228.31
363.53	228.39
363.91	228.42
364.29	228.43
364.67	228.35
365.05	228.35
365.43	228.38
365.81	228.40
366.19	228.49
366.57	228.51
366.95	228.51
367.33	228.47
367.71	228.44
368.09	228.44
368.47	228.43
368.85	228.41
369.23	228.40
369.61	228.34
369.99	228.32
370.37	228.29
370.75	228.31
371.13	228.23
371.51	228.16
371.89	228.17
372.27	228.13
372.65	228.13
373.03	228.11
373.41	228.05
373.78	227.99
374.16	227.85
374.54	227.77
374.92	227.70
375.30	227.66
375.68	227.58
376.06	227.51
376.44	227.45
376.82	227.40
377.19	227.34
377.57	227.26
377.95	227.21
378.33	227.14
378.71	227.03
379.09	226.99
379.47	226.93
379.84	226.82
380.22	226.72
380.60	226.63
380.98	226.57
381.36	226.54
381.73	226.47
382.11	226.41
382.49	226.38
382.87	226.30
383.25	226.25
383.62	226.33
384.00	226.24
384.38	226.20
384.76	226.18
385.13	226.19
385.51	226.16
385.89	226.09
386.27	226.04
386.64	226.02
387.02	225.95
387.40	225.94
387.78	225.90
388.15	225.89
388.53	225.83
388.91	225.80
389.29	225.71
389.66	225.71
390.04	225.71
390.42	225.72
390.79	225.74
391.17	225.74
391.55	225.65
391.92	225.68
392.30	225.67
392.68	225.64
393.05	225.61
393.43	225.58
393.81	225.57
394.18	225.58
394.56	225.60
394.94	225.65
395.31	225.66
395.69	225.74
396.06	225.80
396.44	225.86
396.82	225.90
397.19	226.01
397.57	226.02
397.95	226.07
398.32	226.06
398.70	226.11
399.07	226.18
399.45	226.20
399.82	226.27
400.20	226.32
400.58	226.38
400.95	226.42
401.33	226.54
401.70	226.70
402.08	226.81
402.45	226.91
402.83	227.03
403.20	227.11
403.58	227.17
403.95	227.27
404.33	227.39
404.71	227.49
405.08	227.66
405.46	227.80
405.83	227.95
406.21	228.10
406.58	228.28
406.96	228.40
407.33	228.55
407.70	228.73
408.08	228.99
408.45	229.22
408.83	229.45
409.20	229.67
409.58	229.85
409.95	230.11
410.33	230.36
410.70	230.58
411.08	230.90
411.45	231.22
411.82	231.51
412.20	231.86
412.57	232.29
412.95	232.56
413.32	232.97
413.69	233.36
414.07	233.78
414.44	234.22
414.82	234.69
415.19	235.29
415.56	235.84
415.94	236.37
416.31	237.00
416.68	237.63
417.06	238.34
417.43	239.00
417.81	239.75
418.18	240.52
418.55	241.34
418.93	242.23
419.30	243.09
419.67	244.04
420.04	244.96
420.42	245.96
420.79	247.16
421.16	248.31
421.54	249.54
421.91	250.76
422.28	251.99
422.66	253.33
423.03	254.66
423.40	255.97
423.77	257.41
424.15	258.84
424.52	260.37
424.89	261.98
425.26	263.51
425.64	264.98
426.01	266.56
426.38	268.22
426.75	269.89
427.13	271.62
427.50	273.43
427.87	275.31
428.24	277.14
428.61	278.88
428.99	280.81
429.36	282.91
429.73	284.99
430.10	287.09
430.47	289.14
430.85	291.23
431.22	293.49
431.59	295.84
431.96	298.05
432.33	300.48
432.70	302.84
433.08	305.68
433.45	308.30
433.82	310.96
434.19	313.88
434.56	316.69
434.93	319.36
435.30	321.93
435.68	324.80
436.05	327.67
436.42	330.46
436.79	333.01
437.16	335.71
437.53	338.52
437.90	341.30
438.27	344.04
438.64	346.83
439.01	349.41
439.38	351.66
439.75	353.87
440.13	356.35
440.50	358.68
440.87	360.50
441.24	362.46
441.61	364.54
441.98	365.98
442.35	367.77
442.72	369.63
443.09	371.49
443.46	372.52
443.83	373.06
444.20	373.55
444.57	374.36
444.94	374.61
445.31	374.97
445.68	375.27
446.05	375.35
446.42	374.96
446.79	374.53
447.16	374.06
447.53	373.75
447.90	372.62
448.27	371.45
448.64	369.84
449.01	368.67
449.37	366.72
449.74	364.88
450.11	362.62
450.48	360.13
450.85	357.58
451.22	355.41
451.59	353.43
451.96	351.49
452.33	348.91
452.70	346.55
453.07	343.71
453.43	340.83
453.80	338.02
454.17	335.37
454.54	332.84
454.91	330.12
455.28	327.41
455.65	324.90
456.02	322.48
456.38	320.38
456.75	317.74
457.12	315.52
457.49	313.27
457.86	311.10
458.23	309.21
458.59	307.17
458.96	305.10
459.33	303.22
459.70	301.35
460.07	299.80
460.43	298.09
460.80	296.45
461.17	295.03
461.54	293.55
461.91	292.13
462.27	290.68
462.64	289.43
463.01	288.11
463.38	286.82
463.74	285.46
464.11	284.32
464.48	283.29
464.85	282.19
465.21	281.31
465.58	280.40
465.95	279.37
466.32	278.41
466.68	277.52
467.05	276.62
467.42	275.74
467.78	274.87
468.15	274.02
468.52	273.38
468.88	272.49
469.25	271.71
469.62	271.08
469.98	270.42
470.35	269.78
470.72	269.18
471.08	268.55
471.45	268.01
471.82	267.46
472.18	266.86
472.55	266.42
472.92	265.90
473.28	265.41
473.65	264.92
474.02	264.57
474.38	264.18
474.75	263.88
475.11	263.58
475.48	263.30
475.85	263.05
476.21	262.84
476.58	262.71
476.94	262.61
477.31	262.44
477.67	262.32
478.04	262.25
478.41	262.19
478.77	262.24
479.14	262.18
479.50	262.19
479.87	262.29
480.23	262.36
480.60	262.46
480.96	262.58
481.33	262.82
481.69	263.01
482.06	263.23
482.42	263.45
482.79	263.65
483.15	264.01
483.52	264.42
483.88	264.78
484.25	265.19
484.61	265.62
484.98	266.10
485.34	266.68
485.71	267.26
486.07	267.85
486.44	268.39
486.80	269.12
487.17	269.86
487.53	270.65
487.90	271.54
488.26	272.48
488.62	273.52
488.99	274.53
489.35	275.60
489.72	276.69
490.08	277.91
490.44	279.21
490.81	280.50
491.17	281.86
491.54	283.31
491.90	284.81
492.26	286.44
492.63	288.19
492.99	289.92
493.36	291.81
493.72	293.90
494.08	296.04
494.45	298.30
494.81	300.67
495.17	303.15
495.54	305.73
495.90	308.40
496.26	311.24
496.63	314.19
496.99	317.27
497.35	320.55
497.72	323.96
498.08	327.46
498.44	331.15
498.80	335.03
499.17	339.11
499.53	343.35
499.89	347.73
500.26	352.21
500.62	356.88
500.98	361.87
501.34	366.93
501.71	372.28
502.07	377.74
502.43	383.36
502.79	389.19
503.16	395.20
503.52	401.45
503.88	407.82
504.24	414.47
504.60	421.40
504.97	428.59
505.33	435.86
505.69	443.54
506.05	451.36
506.41	459.26
506.78	467.42
507.14	475.87
507.50	484.64
507.86	493.62
508.22	502.87
508.59	512.10
508.95	521.69
509.31	531.47
509.67	541.56
510.03	551.85
510.39	562.36
510.75	573.15
511.12	584.16
511.48	595.51
511.84	606.93
512.20	618.34
512.56	630.26
512.92	642.42
513.28	654.79
513.64	667.19
514.00	679.93
514.37	692.82
514.73	705.85
515.09	718.87
515.45	732.17
515.81	745.70
516.17	759.71
516.53	773.84
516.89	788.03
517.25	802.11
517.61	816.52
517.97	831.01
518.33	845.50
518.69	860.12
519.05	874.96
519.41	890.11
519.77	905.76
520.13	921.16
520.49	936.56
520.85	951.99
521.21	967.69
521.57	983.88
521.93	999.60
522.29	1016.01
522.65	1032.23
523.01	1048.38
523.37	1064.42
523.73	1080.49
524.09	1096.49
524.45	1112.70
524.81	1129.38
525.17	1146.05
525.53	1162.89
525.89	1179.72
526.25	1196.60
526.61	1212.98
526.97	1229.80
527.33	1246.17
527.68	1262.74
528.04	1279.26
528.40	1295.72
528.76	1312.76
529.12	1329.22
529.48	1346.08
529.84	1362.01
530.20	1378.57
530.56	1395.62
530.91	1413.01
531.27	1429.72
531.63	1446.18
531.99	1462.70
532.35	1478.57
532.71	1494.49
533.07	1510.71
533.42	1526.55
533.78	1542.54
534.14	1558.82
534.50	1573.96
534.86	1589.78
535.21	1604.92
535.57	1620.73
535.93	1636.10
536.29	1650.86
536.65	1665.86
537.00	1680.60
537.36	1695.89
537.72	1710.39
538.08	1724.75
538.44	1738.47
538.79	1752.34
539.15	1765.90
539.51	1779.63
539.87	1793.89
540.22	1807.52
540.58	1821.18
540.94	1834.34
541.29	1847.07
541.65	1859.59
542.01	1872.85
542.37	1885.12
542.72	1897.36
543.08	1909.11
543.44	1921.40
543.79	1932.59
544.15	1943.56
544.51	1955.01
544.87	1965.86
545.22	1976.44
545.58	1986.52
545.94	1996.11
546.29	2005.78
546.65	2015.71
547.01	2024.86
547.36	2033.57
547.72	2041.99
548.07	2049.76
548.43	2057.92
548.79	2065.98
549.14	2073.56
549.50	2080.75
549.86	2088.30
550.21	2095.79
550.57	2102.90
550.92	2109.46
551.28	2116.45
551.64	2123.59
551.99	2130.21
552.35	2136.32
552.70	2142.56
553.06	2148.59
553.41	2155.12
553.77	2161.19
554.13	2167.18
554.48	2173.35
554.84	2178.77
555.19	2184.14
555.55	2189.43
555.90	2193.92
556.26	2198.86
556.61	2203.59
556.97	2207.92
557.32	2212.11
557.68	2216.22
558.03	2220.46
558.39	2224.30
558.74	2228.92
559.10	2232.68
559.45	2236.27
559.81	2240.57
560.16	2244.44
560.52	2247.57
560.87	2250.84
561.23	2253.55
561.58	2256.54
561.94	2258.96
562.29	2261.34
562.64	2264.13
563.00	2266.58
563.35	2270.02
563.71	2273.04
564.06	2276.37
564.42	2279.21
564.77	2281.86
565.12	2284.17
565.48	2286.19
565.83	2288.15
566.19	2289.43
566.54	2290.32
566.89	2291.47
567.25	2292.17
567.60	2293.44
567.96	2295.29
568.31	2296.03
568.66	2297.17
569.02	2297.61
569.37	2298.05
569.72	2298.97
570.08	2298.99
570.43	2299.10
570.78	2298.65
571.14	2297.28
571.49	2295.90
571.84	2295.76
572.20	2294.66
572.55	2293.52
572.90	2291.87
573.26	2290.51
573.61	2288.98
573.96	2287.52
574.31	2284.52
574.67	2281.56
575.02	2278.08
575.37	2274.66
575.72	2271.05
576.08	2267.80
576.43	2264.62
576.78	2260.97
577.13	2257.86
577.49	2254.77
577.84	2251.38
578.19	2247.67
578.54	2244.09
578.90	2239.65
579.25	2233.96
579.60	2228.93
579.95	2223.87
580.30	2218.89
580.66	2213.64
581.01	2208.62
581.36	2203.58
581.71	2199.48
582.06	2195.19
582.42	2190.73
582.77	2185.59
583.12	2181.10
583.47	2176.48
583.82	2171.52
584.17	2166.17
584.53	2160.67
584.88	2155.17
585.23	2149.43
585.58	2143.99
585.93	2138.47
586.28	2133.87
586.63	2128.95
586.98	2123.98
587.34	2119.45
587.69	2114.65
588.04	2109.48
588.39	2103.88
588.74	2097.40
589.09	2091.34
589.44	2084.38
589.79	2078.36
590.14	2072.76
590.49	2066.20
590.84	2059.63
591.19	2053.54
591.54	2047.18
591.89	2039.81
592.25	2032.97
592.60	2025.68
592.95	2018.23
593.30	2010.80
593.65	2003.33
594.00	1996.30
594.35	1988.98
594.70	1980.97
595.05	1973.84
595.40	1966.60
595.75	1959.15
596.10	1952.92
596.45	1946.24
596.80	1940.14
597.15	1933.57
597.50	1926.52
597.85	1920.01
598.19	1913.48
598.54	1906.51
598.89	1900.05
599.24	1894.19
599.59	1887.49
599.94	1881.40
600.29	1874.89
600.64	1868.48
600.99	1861.15
601.34	1854.31
601.69	1847.48
602.04	1840.45
602.39	1833.13
602.74	1826.18
603.08	1819.39
603.43	1812.70
603.78	1805.27
604.13	1798.09
604.48	1790.71
604.83	1783.81
605.18	1776.94
605.53	1768.94
605.87	1760.88
606.22	1753.64
606.57	1745.74
606.92	1738.55
607.27	1731.44
607.62	1724.73
607.96	1717.50
608.31	1710.82
608.66	1703.25
609.01	1695.69
609.36	1688.27
609.70	1680.31
610.05	1672.44
610.40	1664.84
610.75	1656.46
611.10	1648.81
611.44	1640.30
611.79	1632.33
612.14	1623.64
612.49	1614.44
612.83	1606.09
613.18	1598.00
613.53	1589.73
613.88	1581.10
614.22	1572.86
614.57	1564.17
614.92	1556.14
615.27	1548.54
615.61	1540.13
615.96	1532.02
616.31	1524.31
616.65	1516.93
617.00	1509.22
617.35	1501.44
617.70	1493.11
618.04	1484.72
618.39	1476.58
618.74	1468.95
619.08	1460.68
619.43	1453.12
619.78	1446.38
620.12	1439.20
620.47	1431.70
620.82	1423.67
621.16	1416.26
621.51	1408.58
621.85	1400.95
622.20	1392.35
622.55	1384.03
622.89	1376.30
623.24	1368.75
623.59	1361.33
623.93	1353.86
624.28	1346.68
624.62	1339.21
624.97	1332.05
625.32	1325.38
625.66	1318.36
626.01	1311.39
626.35	1304.08
626.70	1296.33
627.04	1288.54
627.39	1280.75
627.73	1273.36
628.08	1266.43
628.43	1259.24
628.77	1251.80
629.12	1244.25
629.46	1237.07
629.81	1229.58
630.15	1222.21
630.50	1214.84
630.84	1206.62
631.19	1198.69
631.53	1191.11
631.88	1183.58
632.22	1175.89
632.57	1168.45
632.91	1160.83
633.26	1153.28
633.60	1145.75
633.95	1138.62
634.29	1131.54
634.64	1124.86
634.98	1117.47
635.32	1110.26
635.67	1103.52
636.01	1096.88
636.36	1090.07
636.70	1083.57
637.05	1077.02
637.39	1070.63
637.73	1064.12
638.08	1058.25
638.42	1052.20
638.77	1045.85
639.11	1039.18
639.45	1032.80
639.80	1026.16
640.14	1019.80
640.49	1013.32
640.83	1006.99
641.17	1000.71
641.52	994.29
641.86	987.84
642.20	981.92
642.55	975.59
642.89	969.12
643.23	962.61
643.58	956.80
643.92	950.58
644.26	944.47
644.61	938.42
644.95	932.39
645.29	925.81
645.64	919.07
645.98	912.65
646.32	906.84
646.66	900.81
647.01	895.00
647.35	889.21
647.69	883.25
648.04	877.79
648.38	872.03
648.72	866.06
649.06	859.99
649.41	854.10
649.75	848.22
650.09	842.35
650.43	836.55
650.78	830.38
651.12	824.41
651.46	818.74
651.80	812.91
652.14	807.48
652.49	802.17
652.83	796.91
653.17	791.24
653.51	785.45
653.85	780.12
654.20	774.49
654.54	768.47
654.88	762.74
655.22	756.79
655.56	751.09
655.90	745.65
656.25	740.45
656.59	735.11
656.93	730.01
657.27	724.82
657.61	719.36
657.95	714.32
658.29	709.25
658.64	703.87
658.98	698.59
659.32	693.06
659.66	687.75
660.00	682.50
660.34	677.54
660.68	672.70
661.02	667.58
661.36	662.79
661.70	658.30
662.05	654.00
662.39	649.68
662.73	645.23
663.07	640.80
663.41	636.32
663.75	631.84
664.09	627.26
664.43	622.92
664.77	618.84
665.11	614.55
665.45	610.41
665.79	606.40
666.13	602.32
666.47	598.31
666.81	594.21
667.15	590.12
667.49	586.16
667.83	582.30
668.17	578.37
668.51	574.33
668.85	570.37
669.19	566.54
669.53	562.75
669.87	558.94
670.21	555.26
670.55	551.58
670.89	548.17
671.23	544.76
671.57	541.20
671.91	537.66
672.25	534.17
672.58	530.68
672.92	527.27
673.26	524.05
673.60	520.82
673.94	517.72
674.28	514.84
674.62	511.96
674.96	508.90
675.30	505.95
675.64	503.09
675.97	500.26
676.31	497.41
676.65	494.45
676.99	491.66
677.33	488.78
677.67	485.96
678.01	482.89
678.34	479.90
678.68	477.05
679.02	474.21
679.36	471.47
679.70	468.75
680.04	465.98
680.37	463.10
680.71	460.32
681.05	457.67
681.39	454.95
681.73	452.24
682.06	449.64
682.40	447.09
682.74	444.50
683.08	441.98
683.42	439.36
683.75	436.87
684.09	434.27
684.43	431.83
684.77	429.35
685.10	426.98
685.44	424.66
685.78	422.32
686.12	419.99
686.45	417.62
686.79	415.27
687.13	413.11
687.46	410.93
687.80	408.77
688.14	406.55
688.48	404.46
688.81	402.23
689.15	400.10
689.49	397.95
689.82	395.86
690.16	393.74
690.50	391.75
690.83	389.76
691.17	387.83
691.51	385.93
691.84	384.07
692.18	382.11
692.52	380.11
692.85	378.19
693.19	376.37
693.52	374.54
693.86	372.73
694.20	370.89
694.53	369.12
694.87	367.26
695.21	365.45
695.54	363.59
695.88	361.90
696.21	360.16
696.55	358.49
696.88	356.81
697.22	355.14
697.56	353.52
697.89	351.88
698.23	350.27
698.56	348.66
698.90	347.08
699.23	345.46
699.57	343.91
699.90	342.40
700.24	340.85
700.58	339.37
700.91	337.85
701.25	336.44
701.58	335.05
701.92	333.73
702.25	332.31
702.59	330.98
702.92	329.65
703.26	328.38
703.59	327.08
703.93	325.93
704.26	324.74
704.60	323.41
704.93	322.14
705.26	320.89
705.60	319.69
705.93	318.53
706.27	317.49
706.60	316.44
706.94	315.35
707.27	314.21
707.61	313.15
707.94	312.15
708.27	311.05
708.61	310.01
708.94	308.98
709.28	308.05
709.61	307.05
709.94	306.11
710.28	305.10
710.61	304.16
710.95	303.10
711.28	302.18
711.61	301.28
711.95	300.36
712.28	299.45
712.61	298.46
712.95	297.54
713.28	296.68
713.61	295.77
713.95	294.89
714.28	294.11
714.61	293.24
714.95	292.41
715.28	291.60
715.61	290.71
715.95	289.92
716.28	289.04
716.61	288.20
716.95	287.37
717.28	286.65
717.61	285.86
717.94	285.11
718.28	284.27
718.61	283.52
718.94	282.85
719.27	282.17
719.61	281.54
719.94	280.85
720.27	280.14
720.60	279.49
720.94	278.86
721.27	278.20
721.60	277.65
721.93	277.03
722.27	276.46
722.60	275.91
722.93	275.27
723.26	274.76
723.59	274.24
723.93	273.67
724.26	273.10
724.59	272.53
724.92	272.01
725.25	271.52
725.59	271.02
725.92	270.45
726.25	269.93
726.58	269.47
726.91	269.01
727.24	268.51
727.57	268.02
727.91	267.51
728.24	267.06
728.57	266.53
728.90	266.08
729.23	265.55
729.56	265.14
729.89	264.66
730.22	264.12
730.55	263.61
730.89	263.21
731.22	262.75
731.55	262.30
731.88	261.85
732.21	261.41
732.54	260.97
732.87	260.60
733.20	260.22
733.53	259.76
733.86	259.37
734.19	258.97
734.52	258.58
734.85	258.26
735.18	257.84
735.51	257.49
735.84	257.12
736.17	256.77
736.50	256.34
736.83	256.11
737.16	255.81
737.49	255.50
737.82	255.11
738.15	254.76
738.48	254.43
738.81	254.11
739.14	253.80
739.47	253.47
739.80	253.13
740.13	252.82
740.46	252.53
740.79	252.22
741.12	251.94
741.45	251.64
741.78	251.31
742.11	251.04
742.44	250.72
742.77	250.43
743.10	250.12
743.43	249.81
743.75	249.40
744.08	249.25
744.41	249.00
744.74	248.77
745.07	248.49
745.40	248.25
745.73	248.02
746.06	247.71
746.39	247.48
746.71	247.22
747.04	246.94
747.37	246.65
747.70	246.36
748.03	246.10
748.36	245.86
748.68	245.64
749.01	245.37
749.34	245.12
749.67	244.87
750.00	244.61
750.33	244.47
750.65	244.30
750.98	243.95
751.31	243.73
751.64	243.46
751.97	243.34
752.29	243.13
752.62	242.85
752.95	242.67
753.28	242.43
753.60	242.23
753.93	242.06
754.26	241.85
754.59	241.62
754.91	241.42
755.24	241.23
755.57	241.02
755.90	240.85
756.22	240.67
756.55	240.50
756.88	240.34
757.20	240.10
757.53	239.91
757.86	239.75
758.19	239.59
758.51	239.44
758.84	239.20
759.17	239.01
759.49	238.87
759.82	238.76
760.15	238.58
760.47	238.44
760.80	238.22
761.13	238.14
761.45	238.02
761.78	237.92
762.11	237.76
762.43	237.62
762.76	237.49
763.08	237.40
763.41	237.29
763.74	237.19
764.06	237.07
764.39	236.92
764.71	236.82
765.04	236.65
765.37	236.52
765.69	236.40
766.02	236.28
766.34	236.15
766.67	236.03
767.00	235.96
767.32	235.90
767.65	235.92
767.97	235.79
768.30	235.68
768.62	235.56
768.95	235.45
769.27	235.35
769.60	235.24
769.92	235.08
770.25	234.90
770.57	234.77
770.90	234.63
771.22	234.53
771.55	234.44
771.87	234.38
772.20	234.30
772.52	234.30
772.85	234.35
773.17	234.26
773.50	234.15
773.82	234.03
774.15	233.86
774.47	233.66
774.80	233.57
775.12	233.49
775.45	233.38
775.77	233.30
776.09	233.21
776.42	233.10
776.74	233.06
777.07	233.02
777.39	232.93
777.72	232.86
778.04	232.76
778.36	232.65
778.69	232.58
779.01	232.51
779.33	232.33
779.66	232.12
779.98	232.05
780.31	231.95
780.63	231.97
780.95	231.94
781.28	231.88
781.60	231.81
781.92	231.70
782.25	231.64
782.57	231.57
782.89	231.51
783.22	231.50
783.54	231.42
783.86	231.34
784.19	231.26
784.51	231.24
784.83	231.19
785.16	231.11
785.48	231.03
785.80	230.96
786.12	230.90
786.45	230.83
786.77	230.77
787.09	230.73
