SpectraSuite Data File
++++++++++++++++++++++++++++++++++++
Date: Fri Feb 01 16:53:19 EST 2013
User: group
Dark Spectrum Present: No
Reference Spectrum Present: No
Number of Sampled Component Spectra: 1
Spectrometers: USB2E7196
Integration Time (usec): 35000 (USB2E7196)
Spectra Averaged: 100 (USB2E7196)
Boxcar Smoothing: 10 (USB2E7196)
Correct for Electrical Dark: No (USB2E7196)
Strobe/Lamp Enabled: No (USB2E7196)
Correct for Detector Non-linearity: No (USB2E7196)
Correct for Stray Light: No (USB2E7196)
Number of Pixels in Processed Spectrum: 2048
>>>>>Begin Processed Spectral Data<<<<<
339.09	0.00
339.48	213.12
339.86	215.10
340.24	216.97
340.63	217.50
341.01	220.75
341.39	220.47
341.78	221.20
342.16	223.18
342.54	223.47
342.93	211.82
343.31	222.51
343.69	223.06
344.07	223.51
344.46	223.90
344.84	224.27
345.22	224.46
345.60	224.69
345.99	224.90
346.37	225.01
346.75	225.11
347.13	225.20
347.52	225.30
347.90	225.38
348.28	225.40
348.66	225.48
349.05	225.49
349.43	225.51
349.81	225.53
350.19	225.59
350.57	225.66
350.96	225.70
351.34	225.80
351.72	225.88
352.10	225.96
352.48	226.03
352.87	226.13
353.25	226.24
353.63	226.34
354.01	226.41
354.39	226.47
354.77	226.53
355.15	226.62
355.54	226.70
355.92	226.73
356.30	226.79
356.68	226.89
357.06	226.96
357.44	227.03
357.82	227.12
358.20	227.18
358.58	227.24
358.97	227.29
359.35	227.36
359.73	227.43
360.11	227.48
360.49	227.56
360.87	227.59
361.25	227.66
361.63	227.69
362.01	227.72
362.39	227.77
362.77	227.82
363.15	227.84
363.53	227.84
363.91	227.86
364.29	227.87
364.67	227.81
365.05	227.82
365.43	227.81
365.81	227.81
366.19	227.82
366.57	227.83
366.95	227.83
367.33	227.81
367.71	227.78
368.09	227.81
368.47	227.75
368.85	227.73
369.23	227.70
369.61	227.62
369.99	227.61
370.37	227.54
370.75	227.56
371.13	227.48
371.51	227.43
371.89	227.41
372.27	227.36
372.65	227.31
373.03	227.26
373.41	227.21
373.78	227.17
374.16	227.06
374.54	226.98
374.92	226.89
375.30	226.83
375.68	226.74
376.06	226.69
376.44	226.64
376.82	226.57
377.19	226.45
377.57	226.40
377.95	226.32
378.33	226.30
378.71	226.14
379.09	226.10
379.47	226.07
379.84	225.98
380.22	225.95
380.60	225.85
380.98	225.82
381.36	225.78
381.73	225.67
382.11	225.66
382.49	225.61
382.87	225.56
383.25	225.50
383.62	225.58
384.00	225.50
384.38	225.45
384.76	225.42
385.13	225.46
385.51	225.41
385.89	225.35
386.27	225.32
386.64	225.33
387.02	225.30
387.40	225.24
387.78	225.24
388.15	225.21
388.53	225.17
388.91	225.15
389.29	225.15
389.66	225.16
390.04	225.15
390.42	225.14
390.79	225.14
391.17	225.15
391.55	225.03
391.92	225.03
392.30	225.03
392.68	225.01
393.05	224.98
393.43	225.02
393.81	225.07
394.18	225.06
394.56	225.07
394.94	225.12
395.31	225.13
395.69	225.18
396.06	225.23
396.44	225.31
396.82	225.29
397.19	225.33
397.57	225.36
397.95	225.43
398.32	225.43
398.70	225.51
399.07	225.57
399.45	225.64
399.82	225.72
400.20	225.80
400.58	225.85
400.95	225.86
401.33	225.94
401.70	226.03
402.08	226.11
402.45	226.18
402.83	226.28
403.20	226.39
403.58	226.45
403.95	226.56
404.33	226.66
404.71	226.80
405.08	226.98
405.46	227.12
405.83	227.25
406.21	227.44
406.58	227.56
406.96	227.70
407.33	227.86
407.70	228.02
408.08	228.27
408.45	228.49
408.83	228.73
409.20	228.90
409.58	229.14
409.95	229.39
410.33	229.65
410.70	229.84
411.08	230.10
411.45	230.41
411.82	230.68
412.20	231.01
412.57	231.44
412.95	231.70
413.32	232.11
413.69	232.49
414.07	232.89
414.44	233.35
414.82	233.85
415.19	234.37
415.56	234.93
415.94	235.47
416.31	236.08
416.68	236.70
417.06	237.46
417.43	238.12
417.81	238.87
418.18	239.69
418.55	240.54
418.93	241.41
419.30	242.29
419.67	243.22
420.04	244.19
420.42	245.12
420.79	246.33
421.16	247.46
421.54	248.66
421.91	249.88
422.28	251.13
422.66	252.41
423.03	253.73
423.40	255.02
423.77	256.42
424.15	257.83
424.52	259.29
424.89	260.83
425.26	262.34
425.64	263.77
426.01	265.33
426.38	266.96
426.75	268.64
427.13	270.32
427.50	272.09
427.87	273.95
428.24	275.81
428.61	277.53
428.99	279.44
429.36	281.53
429.73	283.60
430.10	285.62
430.47	287.69
430.85	289.80
431.22	292.04
431.59	294.41
431.96	296.66
432.33	299.14
432.70	301.54
433.08	304.33
433.45	306.96
433.82	309.54
434.19	312.46
434.56	315.26
434.93	317.93
435.30	320.56
435.68	323.39
436.05	326.25
436.42	329.04
436.79	331.57
437.16	334.27
437.53	337.06
437.90	339.81
438.27	342.50
438.64	345.33
439.01	347.91
439.38	350.10
439.75	352.27
440.13	354.73
440.50	357.08
440.87	358.93
441.24	360.80
441.61	362.96
441.98	364.38
442.35	366.16
442.72	368.00
443.09	369.76
443.46	370.77
443.83	371.36
444.20	371.88
444.57	372.69
444.94	372.97
445.31	373.32
445.68	373.75
446.05	373.86
446.42	373.47
446.79	373.08
447.16	372.67
447.53	372.39
447.90	371.26
448.27	370.09
448.64	368.50
449.01	367.44
449.37	365.51
449.74	363.70
450.11	361.46
450.48	359.03
450.85	356.56
451.22	354.47
451.59	352.46
451.96	350.53
452.33	347.98
452.70	345.62
453.07	342.81
453.43	339.90
453.80	337.14
454.17	334.47
454.54	331.89
454.91	329.20
455.28	326.47
455.65	324.00
456.02	321.55
456.38	319.44
456.75	316.77
457.12	314.51
457.49	312.26
457.86	310.11
458.23	308.25
458.59	306.24
458.96	304.14
459.33	302.25
459.70	300.35
460.07	298.81
460.43	297.07
460.80	295.45
461.17	293.99
461.54	292.51
461.91	291.11
462.27	289.68
462.64	288.43
463.01	287.10
463.38	285.82
463.74	284.46
464.11	283.30
464.48	282.32
464.85	281.23
465.21	280.37
465.58	279.42
465.95	278.34
466.32	277.44
466.68	276.51
467.05	275.62
467.42	274.75
467.78	273.83
468.15	272.99
468.52	272.31
468.88	271.48
469.25	270.70
469.62	270.06
469.98	269.40
470.35	268.78
470.72	268.15
471.08	267.45
471.45	266.94
471.82	266.41
472.18	265.80
472.55	265.38
472.92	264.87
473.28	264.46
473.65	264.05
474.02	263.62
474.38	263.27
474.75	262.95
475.11	262.63
475.48	262.42
475.85	262.19
476.21	261.98
476.58	261.82
476.94	261.72
477.31	261.60
477.67	261.46
478.04	261.34
478.41	261.37
478.77	261.46
479.14	261.39
479.50	261.43
479.87	261.53
480.23	261.61
480.60	261.68
480.96	261.77
481.33	261.98
481.69	262.18
482.06	262.41
482.42	262.65
482.79	262.92
483.15	263.25
483.52	263.64
483.88	264.02
484.25	264.44
484.61	264.87
484.98	265.34
485.34	265.95
485.71	266.52
486.07	267.10
486.44	267.67
486.80	268.40
487.17	269.11
487.53	269.93
487.90	270.80
488.26	271.76
488.62	272.77
488.99	273.71
489.35	274.77
489.72	275.92
490.08	277.13
490.44	278.38
490.81	279.66
491.17	281.03
491.54	282.51
491.90	284.02
492.26	285.63
492.63	287.37
492.99	289.12
493.36	291.02
493.72	293.08
494.08	295.19
494.45	297.45
494.81	299.83
495.17	302.26
495.54	304.80
495.90	307.46
496.26	310.28
496.63	313.29
496.99	316.40
497.35	319.61
497.72	323.02
498.08	326.50
498.44	330.20
498.80	334.04
499.17	338.06
499.53	342.23
499.89	346.62
500.26	351.09
500.62	355.76
500.98	360.70
501.34	365.71
501.71	371.02
502.07	376.43
502.43	381.99
502.79	387.77
503.16	393.82
503.52	400.09
503.88	406.41
504.24	412.96
504.60	419.78
504.97	426.87
505.33	434.11
505.69	441.78
506.05	449.50
506.41	457.42
506.78	465.54
507.14	473.95
507.50	482.56
507.86	491.49
508.22	500.58
508.59	509.77
508.95	519.31
509.31	529.04
509.67	539.02
510.03	549.29
510.39	559.77
510.75	570.45
511.12	581.27
511.48	592.44
511.84	603.80
512.20	615.19
512.56	627.04
512.92	639.10
513.28	651.37
513.64	663.68
514.00	676.27
514.37	689.02
514.73	701.93
515.09	714.82
515.45	727.98
515.81	741.43
516.17	755.27
516.53	769.33
516.89	783.37
517.25	797.38
517.61	811.56
517.97	825.92
518.33	840.17
518.69	854.75
519.05	869.63
519.41	884.68
519.77	900.03
520.13	915.31
520.49	930.55
520.85	945.67
521.21	961.18
521.57	977.16
521.93	992.66
522.29	1008.83
522.65	1024.95
523.01	1040.96
523.37	1056.78
523.73	1072.70
524.09	1088.46
524.45	1104.59
524.81	1121.03
525.17	1137.62
525.53	1154.30
525.89	1170.93
526.25	1187.58
526.61	1203.71
526.97	1220.19
527.33	1236.50
527.68	1252.73
528.04	1268.98
528.40	1285.34
528.76	1302.14
529.12	1318.45
529.48	1335.14
529.84	1350.92
530.20	1367.24
530.56	1383.99
530.91	1401.18
531.27	1417.82
531.63	1433.97
531.99	1450.12
532.35	1465.82
532.71	1481.46
533.07	1497.40
533.42	1513.13
533.78	1528.92
534.14	1544.93
534.50	1560.10
534.86	1575.66
535.21	1590.75
535.57	1606.46
535.93	1621.77
536.29	1636.33
536.65	1651.13
537.00	1665.62
537.36	1680.71
537.72	1694.96
538.08	1709.14
538.44	1722.52
538.79	1736.00
539.15	1749.42
539.51	1762.92
539.87	1776.95
540.22	1790.42
540.58	1803.77
540.94	1816.88
541.29	1829.49
541.65	1842.05
542.01	1855.04
542.37	1867.15
542.72	1879.30
543.08	1890.81
543.44	1902.99
543.79	1914.14
544.15	1924.99
544.51	1936.43
544.87	1947.18
545.22	1957.87
545.58	1967.87
545.94	1977.55
546.29	1987.25
546.65	1997.10
547.01	2006.37
547.36	2015.06
547.72	2023.46
548.07	2031.38
548.43	2039.33
548.79	2047.17
549.14	2054.60
549.50	2061.76
549.86	2069.26
550.21	2076.53
550.57	2083.61
550.92	2090.01
551.28	2097.00
551.64	2103.99
551.99	2110.48
552.35	2116.56
552.70	2122.71
553.06	2128.71
553.41	2135.09
553.77	2141.13
554.13	2147.12
554.48	2153.19
554.84	2158.73
555.19	2163.99
555.55	2169.18
555.90	2173.73
556.26	2178.68
556.61	2183.36
556.97	2187.66
557.32	2191.82
557.68	2196.00
558.03	2200.41
558.39	2204.13
558.74	2208.71
559.10	2212.61
559.45	2216.34
559.81	2220.69
560.16	2224.49
560.52	2227.80
560.87	2231.18
561.23	2233.96
561.58	2236.89
561.94	2239.53
562.29	2241.83
562.64	2244.61
563.00	2247.23
563.35	2250.77
563.71	2253.93
564.06	2257.28
564.42	2260.35
564.77	2263.05
565.12	2265.53
565.48	2267.41
565.83	2269.55
566.19	2271.03
566.54	2272.03
566.89	2273.33
567.25	2274.09
567.60	2275.47
567.96	2277.37
568.31	2278.41
568.66	2279.72
569.02	2280.53
569.37	2280.95
569.72	2282.04
570.08	2282.26
570.43	2282.43
570.78	2282.12
571.14	2280.94
571.49	2279.68
571.84	2279.45
572.20	2278.58
572.55	2277.53
572.90	2276.09
573.26	2274.78
573.61	2273.14
573.96	2271.63
574.31	2268.75
574.67	2265.90
575.02	2262.57
575.37	2259.32
575.72	2255.81
576.08	2252.52
576.43	2249.23
576.78	2245.72
577.13	2242.61
577.49	2239.76
577.84	2236.48
578.19	2232.92
578.54	2229.43
578.90	2225.34
579.25	2219.84
579.60	2215.01
579.95	2210.22
580.30	2205.37
580.66	2200.50
581.01	2195.78
581.36	2191.03
581.71	2187.18
582.06	2182.99
582.42	2178.62
582.77	2173.58
583.12	2169.22
583.47	2164.72
583.82	2159.98
584.17	2154.98
584.53	2149.72
584.88	2144.15
585.23	2138.60
585.58	2133.29
585.93	2127.91
586.28	2123.26
586.63	2118.46
586.98	2113.60
587.34	2109.11
587.69	2104.42
588.04	2099.29
588.39	2093.80
588.74	2087.49
589.09	2081.37
589.44	2074.82
589.79	2068.94
590.14	2063.44
590.49	2056.88
590.84	2050.69
591.19	2044.87
591.54	2038.55
591.89	2031.35
592.25	2024.73
592.60	2017.62
592.95	2010.06
593.30	2002.89
593.65	1995.49
594.00	1988.60
594.35	1981.43
594.70	1973.40
595.05	1966.41
595.40	1959.27
595.75	1951.73
596.10	1945.65
596.45	1939.05
596.80	1932.96
597.15	1926.56
597.50	1919.51
597.85	1913.07
598.19	1906.39
598.54	1899.33
598.89	1892.70
599.24	1886.86
599.59	1880.45
599.94	1874.39
600.29	1868.27
600.64	1861.75
600.99	1854.59
601.34	1847.85
601.69	1841.02
602.04	1834.47
602.39	1827.18
602.74	1820.39
603.08	1813.82
603.43	1807.23
603.78	1799.95
604.13	1792.77
604.48	1785.62
604.83	1778.75
605.18	1772.01
605.53	1764.16
605.87	1756.28
606.22	1749.09
606.57	1741.30
606.92	1733.92
607.27	1726.79
607.62	1719.93
607.96	1712.80
608.31	1706.29
608.66	1698.76
609.01	1691.25
609.36	1683.56
609.70	1675.61
610.05	1667.65
610.40	1660.01
610.75	1651.65
611.10	1644.11
611.44	1635.75
611.79	1627.62
612.14	1619.15
612.49	1609.98
612.83	1601.75
613.18	1593.73
613.53	1585.63
613.88	1577.14
614.22	1568.92
614.57	1560.23
614.92	1552.18
615.27	1544.66
615.61	1536.14
615.96	1528.14
616.31	1520.52
616.65	1513.09
617.00	1505.57
617.35	1497.94
617.70	1489.69
618.04	1481.19
618.39	1472.97
618.74	1465.40
619.08	1457.28
619.43	1449.71
619.78	1442.88
620.12	1435.66
620.47	1428.04
620.82	1419.95
621.16	1412.49
621.51	1404.96
621.85	1397.44
622.20	1388.96
622.55	1380.58
622.89	1372.80
623.24	1365.07
623.59	1357.53
623.93	1350.21
624.28	1343.00
624.62	1335.49
624.97	1328.33
625.32	1321.65
625.66	1314.60
626.01	1307.41
626.35	1299.96
626.70	1292.22
627.04	1284.53
627.39	1276.75
627.73	1269.41
628.08	1262.56
628.43	1255.31
628.77	1247.86
629.12	1240.34
629.46	1233.24
629.81	1225.89
630.15	1218.61
630.50	1211.31
630.84	1203.30
631.19	1195.36
631.53	1187.82
631.88	1180.31
632.22	1172.76
632.57	1165.36
632.91	1157.88
633.26	1150.48
633.60	1143.00
633.95	1135.83
634.29	1128.77
634.64	1122.16
634.98	1114.87
635.32	1107.71
635.67	1101.06
636.01	1094.52
636.36	1087.63
636.70	1081.07
637.05	1074.46
637.39	1068.11
637.73	1061.66
638.08	1055.73
638.42	1049.70
638.77	1043.30
639.11	1036.74
639.45	1030.32
639.80	1023.80
640.14	1017.45
640.49	1010.89
640.83	1004.71
641.17	998.51
641.52	992.10
641.86	985.60
642.20	979.72
642.55	973.44
642.89	966.97
643.23	960.39
643.58	954.72
643.92	948.47
644.26	942.41
644.61	936.29
644.95	930.29
645.29	923.86
645.64	917.15
645.98	910.86
646.32	904.96
646.66	898.97
647.01	893.17
647.35	887.44
647.69	881.59
648.04	876.05
648.38	870.31
648.72	864.44
649.06	858.36
649.41	852.42
649.75	846.52
650.09	840.65
650.43	834.84
650.78	828.69
651.12	822.80
651.46	817.12
651.80	811.38
652.14	805.96
652.49	800.44
652.83	795.30
653.17	789.66
653.51	783.98
653.85	778.59
654.20	772.92
654.54	766.90
654.88	761.29
655.22	755.39
655.56	749.69
655.90	744.22
656.25	739.05
656.59	733.71
656.93	728.58
657.27	723.41
657.61	717.97
657.95	712.76
658.29	707.65
658.64	702.44
658.98	697.17
659.32	691.72
659.66	686.62
660.00	681.28
660.34	676.30
660.68	671.41
661.02	666.42
661.36	661.73
661.70	657.23
662.05	652.78
662.39	648.53
662.73	644.10
663.07	639.77
663.41	635.29
663.75	630.95
664.09	626.41
664.43	622.06
664.77	618.01
665.11	613.88
665.45	609.78
665.79	605.69
666.13	601.58
666.47	597.53
666.81	593.35
667.15	589.25
667.49	585.31
667.83	581.46
668.17	577.48
668.51	573.42
668.85	569.42
669.19	565.63
669.53	561.74
669.87	557.87
670.21	554.14
670.55	550.54
670.89	547.12
671.23	543.71
671.57	540.18
671.91	536.64
672.25	533.15
672.58	529.65
672.92	526.27
673.26	523.15
673.60	519.97
673.94	516.90
674.28	513.95
674.62	511.03
674.96	507.89
675.30	505.00
675.64	502.07
675.97	499.28
676.31	496.39
676.65	493.49
676.99	490.80
677.33	487.95
677.67	485.15
678.01	482.05
678.34	479.06
678.68	476.22
679.02	473.38
679.36	470.66
679.70	468.00
680.04	465.22
680.37	462.27
680.71	459.49
681.05	456.84
681.39	454.12
681.73	451.45
682.06	449.00
682.40	446.44
682.74	443.89
683.08	441.29
683.42	438.66
683.75	436.16
684.09	433.57
684.43	431.07
684.77	428.65
685.10	426.31
685.44	424.00
685.78	421.68
686.12	419.42
686.45	417.08
686.79	414.73
687.13	412.54
687.46	410.41
687.80	408.20
688.14	405.97
688.48	403.94
688.81	401.65
689.15	399.41
689.49	397.26
689.82	395.16
690.16	393.09
690.50	391.15
690.83	389.17
691.17	387.19
691.51	385.29
691.84	383.35
692.18	381.38
692.52	379.40
692.85	377.42
693.19	375.54
693.52	373.69
693.86	371.88
694.20	370.02
694.53	368.22
694.87	366.37
695.21	364.63
695.54	362.75
695.88	361.03
696.21	359.36
696.55	357.72
696.88	356.05
697.22	354.42
697.56	352.79
697.89	351.18
698.23	349.55
698.56	347.94
698.90	346.34
699.23	344.71
699.57	343.17
699.90	341.68
700.24	340.11
700.58	338.60
700.91	337.06
701.25	335.59
701.58	334.24
701.92	332.93
702.25	331.52
702.59	330.24
702.92	328.96
703.26	327.65
703.59	326.35
703.93	325.19
704.26	323.94
704.60	322.66
704.93	321.37
705.26	320.12
705.60	318.93
705.93	317.83
706.27	316.82
706.60	315.74
706.94	314.66
707.27	313.52
707.61	312.49
707.94	311.49
708.27	310.44
708.61	309.32
708.94	308.26
709.28	307.30
709.61	306.31
709.94	305.34
710.28	304.33
710.61	303.36
710.95	302.28
711.28	301.38
711.61	300.43
711.95	299.51
712.28	298.58
712.61	297.60
712.95	296.66
713.28	295.74
713.61	294.85
713.95	293.96
714.28	293.12
714.61	292.25
714.95	291.38
715.28	290.52
715.61	289.63
715.95	288.81
716.28	287.93
716.61	287.09
716.95	286.30
717.28	285.56
717.61	284.80
717.94	284.04
718.28	283.23
718.61	282.51
718.94	281.84
719.27	281.20
719.61	280.59
719.94	279.89
720.27	279.17
720.60	278.52
720.94	277.91
721.27	277.38
721.60	276.76
721.93	276.18
722.27	275.62
722.60	275.11
722.93	274.53
723.26	273.98
723.59	273.43
723.93	272.84
724.26	272.30
724.59	271.68
724.92	271.16
725.25	270.63
725.59	270.11
725.92	269.60
726.25	269.06
726.58	268.51
726.91	268.05
727.24	267.57
727.57	267.09
727.91	266.54
728.24	266.02
728.57	265.53
728.90	265.09
729.23	264.61
729.56	264.21
729.89	263.74
730.22	263.27
730.55	262.78
730.89	262.37
731.22	261.86
731.55	261.49
731.88	261.08
732.21	260.67
732.54	260.23
732.87	259.79
733.20	259.41
733.53	259.04
733.86	258.64
734.19	258.27
734.52	257.88
734.85	257.60
735.18	257.19
735.51	256.85
735.84	256.46
736.17	256.11
736.50	255.68
736.83	255.47
737.16	255.13
737.49	254.81
737.82	254.45
738.15	254.14
738.48	253.79
738.81	253.47
739.14	253.11
739.47	252.81
739.80	252.47
740.13	252.13
740.46	251.81
740.79	251.48
741.12	251.17
741.45	250.86
741.78	250.47
742.11	250.21
742.44	249.85
742.77	249.56
743.10	249.27
743.43	248.98
743.75	248.58
744.08	248.44
744.41	248.18
744.74	247.91
745.07	247.63
745.40	247.39
745.73	247.14
746.06	246.89
746.39	246.61
746.71	246.37
747.04	246.10
747.37	245.82
747.70	245.61
748.03	245.35
748.36	245.13
748.68	244.91
749.01	244.68
749.34	244.51
749.67	244.27
750.00	244.04
750.33	243.89
750.65	243.68
750.98	243.32
751.31	243.11
751.64	242.89
751.97	242.70
752.29	242.46
752.62	242.24
752.95	242.05
753.28	241.83
753.60	241.65
753.93	241.49
754.26	241.33
754.59	241.07
754.91	240.87
755.24	240.69
755.57	240.53
755.90	240.31
756.22	240.11
756.55	239.92
756.88	239.74
757.20	239.49
757.53	239.30
757.86	239.17
758.19	238.99
758.51	238.82
758.84	238.67
759.17	238.54
759.49	238.37
759.82	238.25
760.15	238.14
760.47	237.97
760.80	237.80
761.13	237.66
761.45	237.54
761.78	237.41
762.11	237.22
762.43	237.04
762.76	236.91
763.08	236.74
763.41	236.65
763.74	236.49
764.06	236.38
764.39	236.27
764.71	236.12
765.04	235.98
765.37	235.84
765.69	235.69
766.02	235.53
766.34	235.41
766.67	235.24
767.00	235.11
767.32	235.05
767.65	234.97
767.97	234.86
768.30	234.72
768.62	234.58
768.95	234.48
769.27	234.38
769.60	234.26
769.92	234.15
770.25	234.00
770.57	233.87
770.90	233.74
771.22	233.59
771.55	233.51
771.87	233.41
772.20	233.29
772.52	233.27
772.85	233.28
773.17	233.17
773.50	233.09
773.82	232.99
774.15	232.86
774.47	232.74
774.80	232.65
775.12	232.59
775.45	232.51
775.77	232.42
776.09	232.33
776.42	232.25
776.74	232.21
777.07	232.12
777.39	232.06
777.72	231.97
778.04	231.92
778.36	231.83
778.69	231.74
779.01	231.70
779.33	231.55
779.66	231.38
779.98	231.26
780.31	231.19
780.63	231.17
780.95	231.08
781.28	231.01
781.60	230.91
781.92	230.83
782.25	230.77
782.57	230.71
782.89	230.64
783.22	230.58
783.54	230.49
783.86	230.43
784.19	230.37
784.51	230.38
784.83	230.29
785.16	230.24
785.48	230.21
785.80	230.12
786.12	230.08
786.45	230.03
786.77	230.02
787.09	229.93
