SpectraSuite Data File
++++++++++++++++++++++++++++++++++++
Date: Fri Feb 01 15:27:15 EST 2013
User: group
Dark Spectrum Present: No
Reference Spectrum Present: No
Number of Sampled Component Spectra: 1
Spectrometers: USB2E7196
Integration Time (usec): 35000 (USB2E7196)
Spectra Averaged: 100 (USB2E7196)
Boxcar Smoothing: 10 (USB2E7196)
Correct for Electrical Dark: No (USB2E7196)
Strobe/Lamp Enabled: No (USB2E7196)
Correct for Detector Non-linearity: No (USB2E7196)
Correct for Stray Light: No (USB2E7196)
Number of Pixels in Processed Spectrum: 2048
>>>>>Begin Processed Spectral Data<<<<<
339.09	0.00
339.48	215.17
339.86	216.47
340.24	217.57
340.63	219.53
341.01	222.09
341.39	222.14
341.78	222.98
342.16	224.66
342.54	224.91
342.93	213.32
343.31	224.13
343.69	224.65
344.07	225.09
344.46	225.54
344.84	225.90
345.22	226.12
345.60	226.37
345.99	226.54
346.37	226.67
346.75	226.77
347.13	226.88
347.52	226.90
347.90	226.97
348.28	227.00
348.66	226.99
349.05	227.00
349.43	227.03
349.81	227.07
350.19	227.10
350.57	227.17
350.96	227.24
351.34	227.30
351.72	227.37
352.10	227.49
352.48	227.55
352.87	227.62
353.25	227.67
353.63	227.73
354.01	227.82
354.39	227.89
354.77	227.97
355.15	228.04
355.54	228.10
355.92	228.12
356.30	228.18
356.68	228.33
357.06	228.38
357.44	228.45
357.82	228.51
358.20	228.59
358.58	228.64
358.97	228.70
359.35	228.76
359.73	228.86
360.11	228.89
360.49	228.94
360.87	228.96
361.25	229.05
361.63	229.13
362.01	229.20
362.39	229.24
362.77	229.29
363.15	229.32
363.53	229.37
363.91	229.42
364.29	229.45
364.67	229.37
365.05	229.41
365.43	229.42
365.81	229.44
366.19	229.51
366.57	229.52
366.95	229.50
367.33	229.47
367.71	229.45
368.09	229.48
368.47	229.49
368.85	229.46
369.23	229.44
369.61	229.36
369.99	229.32
370.37	229.29
370.75	229.28
371.13	229.23
371.51	229.18
371.89	229.13
372.27	229.05
372.65	229.02
373.03	228.99
373.41	228.95
373.78	228.88
374.16	228.77
374.54	228.68
374.92	228.61
375.30	228.55
375.68	228.46
376.06	228.38
376.44	228.29
376.82	228.26
377.19	228.22
377.57	228.14
377.95	228.04
378.33	227.97
378.71	227.82
379.09	227.76
379.47	227.67
379.84	227.58
380.22	227.55
380.60	227.44
380.98	227.33
381.36	227.24
381.73	227.16
382.11	227.11
382.49	227.05
382.87	227.00
383.25	226.94
383.62	226.98
384.00	226.90
384.38	226.82
384.76	226.75
385.13	226.68
385.51	226.62
385.89	226.57
386.27	226.51
386.64	226.49
387.02	226.45
387.40	226.42
387.78	226.39
388.15	226.35
388.53	226.35
388.91	226.32
389.29	226.27
389.66	226.27
390.04	226.25
390.42	226.28
390.79	226.24
391.17	226.22
391.55	226.13
391.92	226.14
392.30	226.16
392.68	226.17
393.05	226.20
393.43	226.19
393.81	226.20
394.18	226.20
394.56	226.21
394.94	226.25
395.31	226.31
395.69	226.35
396.06	226.40
396.44	226.46
396.82	226.49
397.19	226.59
397.57	226.60
397.95	226.65
398.32	226.65
398.70	226.74
399.07	226.86
399.45	226.90
399.82	226.96
400.20	226.99
400.58	227.06
400.95	227.09
401.33	227.19
401.70	227.37
402.08	227.48
402.45	227.56
402.83	227.69
403.20	227.75
403.58	227.87
403.95	228.00
404.33	228.13
404.71	228.28
405.08	228.49
405.46	228.66
405.83	228.78
406.21	228.96
406.58	229.13
406.96	229.27
407.33	229.46
407.70	229.66
408.08	229.99
408.45	230.20
408.83	230.47
409.20	230.71
409.58	230.86
409.95	231.13
410.33	231.43
410.70	231.69
411.08	232.04
411.45	232.35
411.82	232.66
412.20	233.02
412.57	233.42
412.95	233.70
413.32	234.10
413.69	234.53
414.07	234.99
414.44	235.46
414.82	235.95
415.19	236.52
415.56	237.07
415.94	237.59
416.31	238.25
416.68	238.86
417.06	239.60
417.43	240.28
417.81	241.07
418.18	241.83
418.55	242.66
418.93	243.53
419.30	244.44
419.67	245.40
420.04	246.35
420.42	247.35
420.79	248.52
421.16	249.67
421.54	250.89
421.91	252.10
422.28	253.36
422.66	254.72
423.03	256.00
423.40	257.37
423.77	258.79
424.15	260.20
424.52	261.71
424.89	263.29
425.26	264.91
425.64	266.33
426.01	267.98
426.38	269.64
426.75	271.31
427.13	273.04
427.50	274.83
427.87	276.74
428.24	278.58
428.61	280.37
428.99	282.31
429.36	284.40
429.73	286.45
430.10	288.40
430.47	290.47
430.85	292.60
431.22	294.80
431.59	297.16
431.96	299.44
432.33	301.92
432.70	304.34
433.08	307.08
433.45	309.73
433.82	312.28
434.19	315.15
434.56	317.94
434.93	320.55
435.30	323.18
435.68	326.06
436.05	328.90
436.42	331.65
436.79	334.16
437.16	336.87
437.53	339.72
437.90	342.59
438.27	345.31
438.64	348.12
439.01	350.75
439.38	353.00
439.75	355.12
440.13	357.60
440.50	359.94
440.87	361.84
441.24	363.79
441.61	365.97
441.98	367.45
442.35	369.24
442.72	371.12
443.09	372.92
443.46	373.92
443.83	374.50
444.20	375.00
444.57	375.83
444.94	376.11
445.31	376.42
445.68	376.80
446.05	376.87
446.42	376.47
446.79	376.01
447.16	375.59
447.53	375.29
447.90	374.14
448.27	372.90
448.64	371.28
449.01	370.11
449.37	368.14
449.74	366.25
450.11	364.01
450.48	361.53
450.85	358.99
451.22	356.85
451.59	354.84
451.96	352.93
452.33	350.35
452.70	347.98
453.07	345.16
453.43	342.24
453.80	339.50
454.17	336.85
454.54	334.33
454.91	331.58
455.28	328.89
455.65	326.39
456.02	323.98
456.38	321.84
456.75	319.21
457.12	316.95
457.49	314.71
457.86	312.56
458.23	310.71
458.59	308.66
458.96	306.60
459.33	304.76
459.70	302.89
460.07	301.37
460.43	299.64
460.80	298.02
461.17	296.59
461.54	295.06
461.91	293.63
462.27	292.15
462.64	290.92
463.01	289.55
463.38	288.23
463.74	286.86
464.11	285.71
464.48	284.68
464.85	283.59
465.21	282.76
465.58	281.80
465.95	280.72
466.32	279.84
466.68	278.87
467.05	277.92
467.42	276.99
467.78	276.08
468.15	275.21
468.52	274.54
468.88	273.63
469.25	272.86
469.62	272.26
469.98	271.60
470.35	270.92
470.72	270.34
471.08	269.72
471.45	269.15
471.82	268.63
472.18	268.01
472.55	267.58
472.92	267.06
473.28	266.59
473.65	266.13
474.02	265.63
474.38	265.29
474.75	264.99
475.11	264.69
475.48	264.41
475.85	264.17
476.21	263.91
476.58	263.75
476.94	263.60
477.31	263.43
477.67	263.24
478.04	263.15
478.41	263.11
478.77	263.13
479.14	263.10
479.50	263.07
479.87	263.16
480.23	263.20
480.60	263.24
480.96	263.31
481.33	263.54
481.69	263.75
482.06	263.95
482.42	264.11
482.79	264.36
483.15	264.65
483.52	265.04
483.88	265.41
484.25	265.79
484.61	266.22
484.98	266.67
485.34	267.25
485.71	267.85
486.07	268.38
486.44	268.93
486.80	269.61
487.17	270.34
487.53	271.15
487.90	271.99
488.26	272.92
488.62	273.93
488.99	274.87
489.35	275.88
489.72	277.01
490.08	278.22
490.44	279.45
490.81	280.82
491.17	282.14
491.54	283.62
491.90	285.17
492.26	286.80
492.63	288.54
492.99	290.31
493.36	292.21
493.72	294.29
494.08	296.44
494.45	298.70
494.81	301.04
495.17	303.49
495.54	306.05
495.90	308.75
496.26	311.57
496.63	314.53
496.99	317.62
497.35	320.86
497.72	324.26
498.08	327.77
498.44	331.43
498.80	335.34
499.17	339.41
499.53	343.54
499.89	347.92
500.26	352.38
500.62	357.10
500.98	362.02
501.34	367.14
501.71	372.42
502.07	377.86
502.43	383.45
502.79	389.24
503.16	395.35
503.52	401.63
503.88	407.98
504.24	414.66
504.60	421.57
504.97	428.67
505.33	435.98
505.69	443.70
506.05	451.47
506.41	459.38
506.78	467.52
507.14	476.00
507.50	484.71
507.86	493.74
508.22	502.91
508.59	512.13
508.95	521.71
509.31	531.51
509.67	541.65
510.03	551.98
510.39	562.50
510.75	573.31
511.12	584.26
511.48	595.64
511.84	607.13
512.20	618.71
512.56	630.69
512.92	642.95
513.28	655.26
513.64	667.79
514.00	680.51
514.37	693.48
514.73	706.51
515.09	719.49
515.45	732.83
515.81	746.44
516.17	760.45
516.53	774.56
516.89	788.77
517.25	802.86
517.61	817.33
517.97	831.86
518.33	846.30
518.69	861.07
519.05	876.14
519.41	891.27
519.77	906.83
520.13	922.32
520.49	937.67
520.85	953.17
521.21	968.96
521.57	985.22
521.93	1001.00
522.29	1017.55
522.65	1033.96
523.01	1050.16
523.37	1066.22
523.73	1082.48
524.09	1098.58
524.45	1114.99
524.81	1131.79
525.17	1148.67
525.53	1165.65
525.89	1182.59
526.25	1199.51
526.61	1215.89
526.97	1232.71
527.33	1249.18
527.68	1265.94
528.04	1282.54
528.40	1299.21
528.76	1316.29
529.12	1332.92
529.48	1349.82
529.84	1365.88
530.20	1382.56
530.56	1399.75
530.91	1417.28
531.27	1434.03
531.63	1450.54
531.99	1467.18
532.35	1483.16
532.71	1499.11
533.07	1515.48
533.42	1531.37
533.78	1547.50
534.14	1563.86
534.50	1579.32
534.86	1595.27
535.21	1610.37
535.57	1626.36
535.93	1641.90
536.29	1656.66
536.65	1671.96
537.00	1686.86
537.36	1702.26
537.72	1716.92
538.08	1731.48
538.44	1745.29
538.79	1759.30
539.15	1773.12
539.51	1786.91
539.87	1801.39
540.22	1815.25
540.58	1829.02
540.94	1842.50
541.29	1855.40
541.65	1868.13
542.01	1881.34
542.37	1893.72
542.72	1906.24
543.08	1917.92
543.44	1930.39
543.79	1941.83
544.15	1952.74
544.51	1964.36
544.87	1975.20
545.22	1985.96
545.58	1996.03
545.94	2005.84
546.29	2015.76
546.65	2025.55
547.01	2034.84
547.36	2043.58
547.72	2051.95
548.07	2059.85
548.43	2068.03
548.79	2076.19
549.14	2083.89
549.50	2091.28
549.86	2099.11
550.21	2106.35
550.57	2113.72
550.92	2120.28
551.28	2127.19
551.64	2134.43
551.99	2140.93
552.35	2147.19
552.70	2153.29
553.06	2159.19
553.41	2165.61
553.77	2171.72
554.13	2177.91
554.48	2184.08
554.84	2189.52
555.19	2194.79
555.55	2199.93
555.90	2204.47
556.26	2209.15
556.61	2213.82
556.97	2217.98
557.32	2222.01
557.68	2226.37
558.03	2230.66
558.39	2234.55
558.74	2239.26
559.10	2242.91
559.45	2246.64
559.81	2251.02
560.16	2254.88
560.52	2258.28
560.87	2261.58
561.23	2264.11
561.58	2267.06
561.94	2269.57
562.29	2272.00
562.64	2274.72
563.00	2277.38
563.35	2280.93
563.71	2284.13
564.06	2287.27
564.42	2290.08
564.77	2292.61
565.12	2294.81
565.48	2296.60
565.83	2298.24
566.19	2299.44
566.54	2300.47
566.89	2301.50
567.25	2302.05
567.60	2303.44
567.96	2305.09
568.31	2305.87
568.66	2306.86
569.02	2307.36
569.37	2307.61
569.72	2308.32
570.08	2308.48
570.43	2308.39
570.78	2307.56
571.14	2305.97
571.49	2304.62
571.84	2304.43
572.20	2303.21
572.55	2302.09
572.90	2300.52
573.26	2299.11
573.61	2297.47
573.96	2295.54
574.31	2292.52
574.67	2289.27
575.02	2285.48
575.37	2281.95
575.72	2278.08
576.08	2274.94
576.43	2271.55
576.78	2267.93
577.13	2264.80
577.49	2261.59
577.84	2258.05
578.19	2254.32
578.54	2250.47
578.90	2246.07
579.25	2240.40
579.60	2235.39
579.95	2230.25
580.30	2225.15
580.66	2220.02
581.01	2214.88
581.36	2209.87
581.71	2205.58
582.06	2201.18
582.42	2196.60
582.77	2191.34
583.12	2186.80
583.47	2181.84
583.82	2176.72
584.17	2171.23
584.53	2165.48
584.88	2159.70
585.23	2153.73
585.58	2148.26
585.93	2142.82
586.28	2138.03
586.63	2132.87
586.98	2127.65
587.34	2122.93
587.69	2117.96
588.04	2112.60
588.39	2106.96
588.74	2100.40
589.09	2094.20
589.44	2087.36
589.79	2081.41
590.14	2075.62
590.49	2068.95
590.84	2062.53
591.19	2056.42
591.54	2050.01
591.89	2042.53
592.25	2035.64
592.60	2028.53
592.95	2020.65
593.30	2013.29
593.65	2005.60
594.00	1998.51
594.35	1991.23
594.70	1983.08
595.05	1975.76
595.40	1968.29
595.75	1960.66
596.10	1954.36
596.45	1947.38
596.80	1941.17
597.15	1934.28
597.50	1927.23
597.85	1920.70
598.19	1913.89
598.54	1906.66
598.89	1899.90
599.24	1894.08
599.59	1887.35
599.94	1881.02
600.29	1874.82
600.64	1868.20
600.99	1860.76
601.34	1853.90
601.69	1846.81
602.04	1839.83
602.39	1832.48
602.74	1825.65
603.08	1818.85
603.43	1812.07
603.78	1804.90
604.13	1797.49
604.48	1790.24
604.83	1783.30
605.18	1776.26
605.53	1768.17
605.87	1760.20
606.22	1752.94
606.57	1744.92
606.92	1737.61
607.27	1730.36
607.62	1723.44
607.96	1716.00
608.31	1709.23
608.66	1701.42
609.01	1693.91
609.36	1686.29
609.70	1678.13
610.05	1670.03
610.40	1662.40
610.75	1654.09
611.10	1646.52
611.44	1638.30
611.79	1630.35
612.14	1621.65
612.49	1612.69
612.83	1604.30
613.18	1596.26
613.53	1588.14
613.88	1579.67
614.22	1571.38
614.57	1562.80
614.92	1554.68
615.27	1547.15
615.61	1538.81
615.96	1530.88
616.31	1523.32
616.65	1516.12
617.00	1508.76
617.35	1501.16
617.70	1492.84
618.04	1484.30
618.39	1475.94
618.74	1468.11
619.08	1459.84
619.43	1452.25
619.78	1445.25
620.12	1438.12
620.47	1430.40
620.82	1422.25
621.16	1414.86
621.51	1407.30
621.85	1399.63
622.20	1391.07
622.55	1382.81
622.89	1375.05
623.24	1367.50
623.59	1360.05
623.93	1352.35
624.28	1345.02
624.62	1337.43
624.97	1330.28
625.32	1323.62
625.66	1316.60
626.01	1309.45
626.35	1301.93
626.70	1294.15
627.04	1286.21
627.39	1278.50
627.73	1271.12
628.08	1264.21
628.43	1256.80
628.77	1249.33
629.12	1241.76
629.46	1234.63
629.81	1227.18
630.15	1219.92
630.50	1212.44
630.84	1204.26
631.19	1196.44
631.53	1188.99
631.88	1181.42
632.22	1173.85
632.57	1166.49
632.91	1158.90
633.26	1151.57
633.60	1144.26
633.95	1137.18
634.29	1130.29
634.64	1123.65
634.98	1116.38
635.32	1109.25
635.67	1102.66
636.01	1096.08
636.36	1089.36
636.70	1082.87
637.05	1076.27
637.39	1069.85
637.73	1063.39
638.08	1057.50
638.42	1051.44
638.77	1044.96
639.11	1038.27
639.45	1031.85
639.80	1025.20
640.14	1018.84
640.49	1012.34
640.83	1006.03
641.17	999.87
641.52	993.51
641.86	987.08
642.20	981.27
642.55	974.94
642.89	968.44
643.23	961.97
643.58	956.22
643.92	949.97
644.26	943.92
644.61	937.93
644.95	931.91
645.29	925.28
645.64	918.65
645.98	912.31
646.32	906.57
646.66	900.44
647.01	894.71
647.35	889.01
647.69	883.29
648.04	877.71
648.38	871.83
648.72	865.82
649.06	859.82
649.41	853.90
649.75	847.94
650.09	841.99
650.43	836.15
650.78	829.93
651.12	823.98
651.46	818.24
651.80	812.38
652.14	806.92
652.49	801.68
652.83	796.47
653.17	790.77
653.51	785.04
653.85	779.64
654.20	773.83
654.54	767.82
654.88	762.01
655.22	756.13
655.56	750.49
655.90	745.12
656.25	739.79
656.59	734.45
656.93	729.41
657.27	724.32
657.61	718.92
657.95	713.79
658.29	708.75
658.64	703.43
658.98	698.25
659.32	692.79
659.66	687.52
660.00	682.10
660.34	677.21
660.68	672.30
661.02	667.37
661.36	662.72
661.70	658.27
662.05	653.85
662.39	649.54
662.73	645.06
663.07	640.64
663.41	636.15
663.75	631.68
664.09	627.10
664.43	622.69
664.77	618.58
665.11	614.34
665.45	610.27
665.79	606.25
666.13	602.13
666.47	598.04
666.81	593.82
667.15	589.82
667.49	585.95
667.83	582.17
668.17	578.14
668.51	574.11
668.85	570.05
669.19	566.29
669.53	562.42
669.87	558.56
670.21	554.88
670.55	551.24
670.89	547.82
671.23	544.41
671.57	540.86
671.91	537.35
672.25	533.91
672.58	530.34
672.92	526.99
673.26	523.81
673.60	520.71
673.94	517.65
674.28	514.72
674.62	511.74
674.96	508.60
675.30	505.73
675.64	502.76
675.97	500.02
676.31	497.13
676.65	494.22
676.99	491.55
677.33	488.62
677.67	485.84
678.01	482.75
678.34	479.75
678.68	476.93
679.02	474.06
679.36	471.29
679.70	468.53
680.04	465.81
680.37	462.91
680.71	460.15
681.05	457.55
681.39	454.87
681.73	452.19
682.06	449.72
682.40	447.16
682.74	444.70
683.08	442.21
683.42	439.59
683.75	437.09
684.09	434.52
684.43	432.10
684.77	429.64
685.10	427.35
685.44	425.06
685.78	422.79
686.12	420.60
686.45	418.32
686.79	416.07
687.13	413.81
687.46	411.70
687.80	409.49
688.14	407.30
688.48	405.21
688.81	402.98
689.15	400.78
689.49	398.66
689.82	396.59
690.16	394.45
690.50	392.52
690.83	390.58
691.17	388.60
691.51	386.70
691.84	384.86
692.18	382.92
692.52	380.93
692.85	378.98
693.19	377.08
693.52	375.27
693.86	373.48
694.20	371.74
694.53	369.89
694.87	368.07
695.21	366.27
695.54	364.47
695.88	362.73
696.21	361.02
696.55	359.35
696.88	357.63
697.22	355.94
697.56	354.28
697.89	352.64
698.23	351.02
698.56	349.43
698.90	347.82
699.23	346.20
699.57	344.65
699.90	343.09
700.24	341.54
700.58	339.97
700.91	338.43
701.25	336.94
701.58	335.58
701.92	334.21
702.25	332.81
702.59	331.45
702.92	330.10
703.26	328.83
703.59	327.54
703.93	326.33
704.26	325.15
704.60	323.86
704.93	322.58
705.26	321.29
705.60	320.05
705.93	318.93
706.27	317.90
706.60	316.87
706.94	315.81
707.27	314.68
707.61	313.68
707.94	312.69
708.27	311.61
708.61	310.54
708.94	309.56
709.28	308.58
709.61	307.63
709.94	306.71
710.28	305.67
710.61	304.70
710.95	303.64
711.28	302.70
711.61	301.80
711.95	300.88
712.28	300.00
712.61	299.06
712.95	298.12
713.28	297.23
713.61	296.28
713.95	295.38
714.28	294.51
714.61	293.60
714.95	292.73
715.28	291.89
715.61	291.02
715.95	290.19
716.28	289.38
716.61	288.54
716.95	287.75
717.28	287.04
717.61	286.25
717.94	285.54
718.28	284.75
718.61	284.04
718.94	283.36
719.27	282.69
719.61	282.08
719.94	281.39
720.27	280.69
720.60	280.07
720.94	279.47
721.27	278.90
721.60	278.35
721.93	277.81
722.27	277.28
722.60	276.72
722.93	276.12
723.26	275.57
723.59	275.01
723.93	274.44
724.26	273.88
724.59	273.38
724.92	272.90
725.25	272.41
725.59	271.85
725.92	271.36
726.25	270.87
726.58	270.40
726.91	269.94
727.24	269.46
727.57	268.99
727.91	268.51
728.24	268.08
728.57	267.60
728.90	267.13
729.23	266.63
729.56	266.24
729.89	265.76
730.22	265.29
730.55	264.86
730.89	264.40
731.22	263.96
731.55	263.48
731.88	263.01
732.21	262.59
732.54	262.17
732.87	261.73
733.20	261.31
733.53	260.87
733.86	260.48
734.19	260.06
734.52	259.67
734.85	259.34
735.18	258.90
735.51	258.54
735.84	258.18
736.17	257.81
736.50	257.44
736.83	257.24
737.16	256.94
737.49	256.58
737.82	256.24
738.15	255.92
738.48	255.59
738.81	255.27
739.14	254.95
739.47	254.63
739.80	254.35
740.13	254.06
740.46	253.76
740.79	253.44
741.12	253.16
741.45	252.83
741.78	252.46
742.11	252.16
742.44	251.82
742.77	251.51
743.10	251.19
743.43	250.84
743.75	250.45
744.08	250.27
744.41	250.00
744.74	249.70
745.07	249.41
745.40	249.13
745.73	248.89
746.06	248.59
746.39	248.32
746.71	248.02
747.04	247.72
747.37	247.42
747.70	247.18
748.03	246.90
748.36	246.70
748.68	246.46
749.01	246.21
749.34	245.99
749.67	245.76
750.00	245.54
750.33	245.41
750.65	245.17
750.98	244.82
751.31	244.63
751.64	244.44
751.97	244.29
752.29	244.12
752.62	243.87
752.95	243.65
753.28	243.45
753.60	243.26
753.93	243.08
754.26	242.90
754.59	242.70
754.91	242.51
755.24	242.30
755.57	242.14
755.90	241.93
756.22	241.75
756.55	241.53
756.88	241.37
757.20	241.13
757.53	240.93
757.86	240.74
758.19	240.56
758.51	240.41
758.84	240.19
759.17	240.00
759.49	239.84
759.82	239.74
760.15	239.57
760.47	239.41
760.80	239.27
761.13	239.16
761.45	238.98
761.78	238.83
762.11	238.70
762.43	238.53
762.76	238.42
763.08	238.30
763.41	238.21
763.74	238.09
764.06	237.97
764.39	237.85
764.71	237.73
765.04	237.57
765.37	237.45
765.69	237.32
766.02	237.24
766.34	237.12
766.67	237.01
767.00	236.94
767.32	236.89
767.65	236.85
767.97	236.72
768.30	236.61
768.62	236.51
768.95	236.37
769.27	236.29
769.60	236.22
769.92	236.09
770.25	235.93
770.57	235.81
770.90	235.70
771.22	235.59
771.55	235.51
771.87	235.45
772.20	235.33
772.52	235.35
772.85	235.34
773.17	235.24
773.50	235.13
773.82	235.01
774.15	234.89
774.47	234.73
774.80	234.60
775.12	234.55
775.45	234.48
775.77	234.39
776.09	234.29
776.42	234.18
776.74	234.14
777.07	234.08
777.39	233.99
777.72	233.90
778.04	233.84
778.36	233.77
778.69	233.68
779.01	233.59
779.33	233.44
779.66	233.26
779.98	233.17
780.31	233.07
780.63	233.02
780.95	232.94
781.28	232.85
781.60	232.81
781.92	232.71
782.25	232.60
782.57	232.55
782.89	232.47
783.22	232.40
783.54	232.31
783.86	232.26
784.19	232.18
784.51	232.14
784.83	232.05
785.16	231.97
785.48	231.90
785.80	231.87
786.12	231.80
786.45	231.72
786.77	231.70
787.09	231.64
