SpectraSuite Data File
++++++++++++++++++++++++++++++++++++
Date: Fri Feb 01 14:55:13 EST 2013
User: group
Dark Spectrum Present: No
Reference Spectrum Present: No
Number of Sampled Component Spectra: 1
Spectrometers: USB2E7196
Integration Time (usec): 35000 (USB2E7196)
Spectra Averaged: 100 (USB2E7196)
Boxcar Smoothing: 10 (USB2E7196)
Correct for Electrical Dark: No (USB2E7196)
Strobe/Lamp Enabled: No (USB2E7196)
Correct for Detector Non-linearity: No (USB2E7196)
Correct for Stray Light: No (USB2E7196)
Number of Pixels in Processed Spectrum: 2048
>>>>>Begin Processed Spectral Data<<<<<
339.09	0.00
339.48	215.20
339.86	216.88
340.24	218.35
340.63	219.15
341.01	222.59
341.39	222.75
341.78	223.74
342.16	225.43
342.54	225.40
342.93	213.56
343.31	224.34
343.69	224.89
344.07	225.34
344.46	225.75
344.84	226.15
345.22	226.36
345.60	226.57
345.99	226.78
346.37	226.89
346.75	226.98
347.13	227.06
347.52	227.11
347.90	227.18
348.28	227.22
348.66	227.25
349.05	227.23
349.43	227.26
349.81	227.32
350.19	227.39
350.57	227.48
350.96	227.55
351.34	227.64
351.72	227.72
352.10	227.84
352.48	227.93
352.87	227.99
353.25	228.07
353.63	228.15
354.01	228.20
354.39	228.26
354.77	228.34
355.15	228.46
355.54	228.50
355.92	228.56
356.30	228.67
356.68	228.82
357.06	228.94
357.44	228.99
357.82	229.05
358.20	229.14
358.58	229.22
358.97	229.31
359.35	229.39
359.73	229.47
360.11	229.54
360.49	229.56
360.87	229.60
361.25	229.65
361.63	229.76
362.01	229.79
362.39	229.81
362.77	229.83
363.15	229.85
363.53	229.92
363.91	229.96
364.29	229.95
364.67	229.87
365.05	229.86
365.43	229.89
365.81	229.90
366.19	229.92
366.57	229.95
366.95	229.94
367.33	229.91
367.71	229.90
368.09	229.87
368.47	229.84
368.85	229.81
369.23	229.80
369.61	229.70
369.99	229.70
370.37	229.70
370.75	229.72
371.13	229.65
371.51	229.58
371.89	229.54
372.27	229.50
372.65	229.44
373.03	229.39
373.41	229.32
373.78	229.24
374.16	229.11
374.54	229.00
374.92	228.89
375.30	228.80
375.68	228.69
376.06	228.64
376.44	228.55
376.82	228.47
377.19	228.36
377.57	228.28
377.95	228.17
378.33	228.06
378.71	227.92
379.09	227.87
379.47	227.80
379.84	227.67
380.22	227.60
380.60	227.48
380.98	227.40
381.36	227.34
381.73	227.29
382.11	227.23
382.49	227.15
382.87	227.08
383.25	227.01
383.62	227.06
384.00	226.98
384.38	226.96
384.76	226.91
385.13	226.88
385.51	226.84
385.89	226.78
386.27	226.72
386.64	226.66
387.02	226.61
387.40	226.57
387.78	226.55
388.15	226.51
388.53	226.51
388.91	226.46
389.29	226.42
389.66	226.42
390.04	226.39
390.42	226.43
390.79	226.41
391.17	226.43
391.55	226.33
391.92	226.32
392.30	226.31
392.68	226.33
393.05	226.37
393.43	226.37
393.81	226.37
394.18	226.39
394.56	226.46
394.94	226.51
395.31	226.53
395.69	226.58
396.06	226.64
396.44	226.68
396.82	226.75
397.19	226.87
397.57	226.91
397.95	226.98
398.32	226.99
398.70	227.11
399.07	227.24
399.45	227.31
399.82	227.46
400.20	227.55
400.58	227.61
400.95	227.68
401.33	227.84
401.70	228.02
402.08	228.14
402.45	228.26
402.83	228.43
403.20	228.60
403.58	228.73
403.95	228.86
404.33	229.01
404.71	229.17
405.08	229.33
405.46	229.47
405.83	229.69
406.21	229.88
406.58	230.06
406.96	230.21
407.33	230.41
407.70	230.56
408.08	230.84
408.45	231.11
408.83	231.36
409.20	231.58
409.58	231.75
409.95	232.05
410.33	232.30
410.70	232.52
411.08	232.80
411.45	233.10
411.82	233.40
412.20	233.77
412.57	234.21
412.95	234.52
413.32	234.92
413.69	235.27
414.07	235.69
414.44	236.13
414.82	236.59
415.19	237.11
415.56	237.67
415.94	238.22
416.31	238.86
416.68	239.43
417.06	240.12
417.43	240.80
417.81	241.58
418.18	242.32
418.55	243.13
418.93	243.99
419.30	244.89
419.67	245.81
420.04	246.75
420.42	247.69
420.79	248.86
421.16	250.00
421.54	251.19
421.91	252.38
422.28	253.64
422.66	254.95
423.03	256.25
423.40	257.54
423.77	258.92
424.15	260.28
424.52	261.81
424.89	263.41
425.26	264.96
425.64	266.40
426.01	268.00
426.38	269.63
426.75	271.26
427.13	272.98
427.50	274.81
427.87	276.63
428.24	278.46
428.61	280.18
428.99	282.10
429.36	284.20
429.73	286.28
430.10	288.29
430.47	290.37
430.85	292.49
431.22	294.76
431.59	297.11
431.96	299.38
432.33	301.85
432.70	304.22
433.08	307.01
433.45	309.59
433.82	312.20
434.19	315.12
434.56	317.96
434.93	320.60
435.30	323.18
435.68	326.13
436.05	328.98
436.42	331.80
436.79	334.33
437.16	337.01
437.53	339.89
437.90	342.71
438.27	345.42
438.64	348.23
439.01	350.80
439.38	353.05
439.75	355.22
440.13	357.75
440.50	360.09
440.87	361.94
441.24	363.93
441.61	366.11
441.98	367.60
442.35	369.40
442.72	371.26
443.09	373.06
443.46	374.05
443.83	374.65
444.20	375.17
444.57	376.02
444.94	376.33
445.31	376.61
445.68	376.98
446.05	377.13
446.42	376.74
446.79	376.36
447.16	375.96
447.53	375.66
447.90	374.50
448.27	373.33
448.64	371.80
449.01	370.66
449.37	368.73
449.74	366.83
450.11	364.63
450.48	362.20
450.85	359.73
451.22	357.56
451.59	355.58
451.96	353.63
452.33	351.02
452.70	348.67
453.07	345.84
453.43	342.93
453.80	340.11
454.17	337.48
454.54	334.91
454.91	332.16
455.28	329.49
455.65	326.95
456.02	324.52
456.38	322.34
456.75	319.69
457.12	317.42
457.49	315.22
457.86	313.03
458.23	311.13
458.59	309.06
458.96	307.00
459.33	305.15
459.70	303.25
460.07	301.72
460.43	300.01
460.80	298.43
461.17	296.98
461.54	295.50
461.91	294.05
462.27	292.63
462.64	291.37
463.01	289.99
463.38	288.69
463.74	287.31
464.11	286.15
464.48	285.08
464.85	283.93
465.21	283.05
465.58	282.08
465.95	280.96
466.32	280.04
466.68	279.11
467.05	278.22
467.42	277.31
467.78	276.39
468.15	275.51
468.52	274.82
468.88	273.96
469.25	273.17
469.62	272.48
469.98	271.75
470.35	271.12
470.72	270.49
471.08	269.83
471.45	269.24
471.82	268.66
472.18	268.01
472.55	267.58
472.92	267.02
473.28	266.58
473.65	266.12
474.02	265.64
474.38	265.28
474.75	264.91
475.11	264.53
475.48	264.26
475.85	263.98
476.21	263.72
476.58	263.51
476.94	263.32
477.31	263.15
477.67	262.96
478.04	262.82
478.41	262.74
478.77	262.78
479.14	262.71
479.50	262.70
479.87	262.76
480.23	262.81
480.60	262.86
480.96	262.92
481.33	263.17
481.69	263.37
482.06	263.54
482.42	263.72
482.79	263.98
483.15	264.30
483.52	264.67
483.88	265.03
484.25	265.42
484.61	265.90
484.98	266.35
485.34	266.97
485.71	267.55
486.07	268.17
486.44	268.72
486.80	269.45
487.17	270.16
487.53	271.03
487.90	271.89
488.26	272.80
488.62	273.78
488.99	274.68
489.35	275.73
489.72	276.84
490.08	278.08
490.44	279.33
490.81	280.65
491.17	281.98
491.54	283.46
491.90	285.02
492.26	286.63
492.63	288.38
492.99	290.11
493.36	292.03
493.72	294.04
494.08	296.18
494.45	298.43
494.81	300.80
495.17	303.20
495.54	305.75
495.90	308.50
496.26	311.31
496.63	314.32
496.99	317.42
497.35	320.65
497.72	323.98
498.08	327.54
498.44	331.20
498.80	335.14
499.17	339.17
499.53	343.29
499.89	347.66
500.26	352.14
500.62	356.79
500.98	361.71
501.34	366.73
501.71	372.04
502.07	377.41
502.43	382.96
502.79	388.76
503.16	394.83
503.52	401.01
503.88	407.36
504.24	413.94
504.60	420.80
504.97	427.90
505.33	435.24
505.69	442.86
506.05	450.59
506.41	458.42
506.78	466.55
507.14	474.98
507.50	483.65
507.86	492.59
508.22	501.80
508.59	511.00
508.95	520.59
509.31	530.31
509.67	540.36
510.03	550.62
510.39	561.15
510.75	571.89
511.12	582.76
511.48	594.04
511.84	605.41
512.20	616.87
512.56	628.82
512.92	640.93
513.28	653.16
513.64	665.62
514.00	678.34
514.37	691.21
514.73	704.25
515.09	717.33
515.45	730.64
515.81	744.20
516.17	758.23
516.53	772.34
516.89	786.50
517.25	800.75
517.61	815.25
517.97	829.76
518.33	844.20
518.69	858.97
519.05	873.99
519.41	889.15
519.77	904.76
520.13	920.20
520.49	935.56
520.85	951.03
521.21	966.85
521.57	983.10
521.93	998.91
522.29	1015.40
522.65	1031.63
523.01	1047.92
523.37	1063.97
523.73	1080.17
524.09	1096.29
524.45	1112.69
524.81	1129.42
525.17	1146.34
525.53	1163.21
525.89	1180.08
526.25	1196.98
526.61	1213.49
526.97	1230.48
527.33	1247.05
527.68	1263.77
528.04	1280.48
528.40	1297.35
528.76	1314.44
529.12	1331.00
529.48	1348.05
529.84	1364.08
530.20	1380.81
530.56	1397.89
530.91	1415.43
531.27	1432.27
531.63	1448.74
531.99	1465.47
532.35	1481.44
532.71	1497.35
533.07	1513.69
533.42	1529.68
533.78	1545.79
534.14	1562.16
534.50	1577.51
534.86	1593.48
535.21	1608.62
535.57	1624.69
535.93	1640.09
536.29	1654.96
536.65	1670.33
537.00	1685.20
537.36	1700.63
537.72	1715.31
538.08	1729.82
538.44	1743.74
538.79	1757.72
539.15	1771.72
539.51	1785.57
539.87	1800.07
540.22	1814.06
540.58	1828.02
540.94	1841.62
541.29	1854.78
541.65	1867.51
542.01	1880.85
542.37	1893.34
542.72	1905.92
543.08	1917.64
543.44	1930.20
543.79	1941.51
544.15	1952.48
544.51	1964.06
544.87	1975.20
545.22	1986.05
545.58	1996.23
545.94	2005.99
546.29	2015.84
546.65	2025.53
547.01	2034.69
547.36	2043.44
547.72	2051.74
548.07	2059.53
548.43	2067.65
548.79	2075.60
549.14	2083.13
549.50	2090.44
549.86	2098.01
550.21	2105.31
550.57	2112.51
550.92	2119.03
551.28	2126.25
551.64	2133.30
551.99	2139.70
552.35	2145.64
552.70	2151.66
553.06	2157.64
553.41	2163.94
553.77	2169.95
554.13	2176.01
554.48	2182.16
554.84	2187.39
555.19	2192.83
555.55	2197.89
555.90	2202.25
556.26	2207.07
556.61	2211.69
556.97	2215.85
557.32	2219.98
557.68	2224.16
558.03	2228.39
558.39	2232.09
558.74	2236.51
559.10	2240.19
559.45	2243.97
559.81	2248.34
560.16	2252.02
560.52	2255.16
560.87	2258.57
561.23	2260.84
561.58	2263.64
561.94	2266.13
562.29	2268.57
562.64	2270.97
563.00	2273.73
563.35	2277.14
563.71	2280.11
564.06	2283.22
564.42	2286.01
564.77	2288.18
565.12	2290.31
565.48	2292.11
565.83	2293.75
566.19	2294.86
566.54	2295.82
566.89	2296.68
567.25	2297.04
567.60	2298.39
567.96	2299.97
568.31	2300.55
568.66	2301.70
569.02	2302.19
569.37	2302.24
569.72	2302.90
570.08	2302.89
570.43	2302.50
570.78	2301.55
571.14	2299.96
571.49	2298.42
571.84	2297.80
572.20	2296.46
572.55	2295.05
572.90	2293.28
573.26	2291.58
573.61	2289.81
573.96	2287.80
574.31	2284.49
574.67	2281.32
575.02	2277.38
575.37	2273.67
575.72	2269.70
576.08	2266.23
576.43	2262.78
576.78	2258.84
577.13	2255.42
577.49	2252.10
577.84	2248.52
578.19	2244.92
578.54	2240.98
578.90	2236.54
579.25	2230.95
579.60	2225.85
579.95	2220.77
580.30	2215.50
580.66	2210.32
581.01	2205.09
581.36	2199.90
581.71	2195.78
582.06	2191.15
582.42	2186.48
582.77	2181.23
583.12	2176.39
583.47	2171.42
583.82	2166.24
584.17	2160.91
584.53	2155.34
584.88	2149.54
585.23	2143.54
585.58	2137.85
585.93	2132.30
586.28	2127.42
586.63	2122.26
586.98	2117.14
587.34	2112.41
587.69	2107.58
588.04	2102.19
588.39	2096.38
588.74	2089.90
589.09	2083.54
589.44	2076.54
589.79	2070.49
590.14	2064.64
590.49	2058.05
590.84	2051.54
591.19	2045.30
591.54	2038.81
591.89	2031.36
592.25	2024.34
592.60	2017.03
592.95	2009.29
593.30	2001.91
593.65	1994.27
594.00	1987.02
594.35	1979.61
594.70	1971.36
595.05	1963.87
595.40	1956.48
595.75	1948.81
596.10	1942.48
596.45	1935.66
596.80	1929.49
597.15	1922.85
597.50	1915.73
597.85	1909.29
598.19	1902.65
598.54	1895.50
598.89	1888.81
599.24	1882.74
599.59	1876.13
599.94	1869.83
600.29	1863.51
600.64	1856.77
600.99	1849.10
601.34	1842.26
601.69	1835.36
602.04	1828.33
602.39	1820.97
602.74	1814.06
603.08	1807.40
603.43	1800.61
603.78	1793.29
604.13	1785.97
604.48	1778.61
604.83	1771.81
605.18	1764.62
605.53	1756.51
605.87	1748.48
606.22	1741.13
606.57	1733.24
606.92	1725.98
607.27	1718.77
607.62	1711.73
607.96	1704.50
608.31	1697.94
608.66	1690.24
609.01	1682.71
609.36	1675.35
609.70	1667.40
610.05	1659.39
610.40	1651.72
610.75	1643.39
611.10	1635.84
611.44	1627.65
611.79	1619.57
612.14	1610.79
612.49	1601.86
612.83	1593.68
613.18	1585.71
613.53	1577.73
613.88	1569.22
614.22	1560.94
614.57	1552.50
614.92	1544.58
615.27	1537.01
615.61	1528.78
615.96	1520.93
616.31	1513.31
616.65	1505.90
617.00	1498.39
617.35	1490.72
617.70	1482.37
618.04	1473.91
618.39	1465.69
618.74	1458.12
619.08	1449.93
619.43	1442.51
619.78	1435.54
620.12	1428.34
620.47	1420.80
620.82	1412.72
621.16	1405.37
621.51	1397.75
621.85	1390.27
622.20	1381.86
622.55	1373.59
622.89	1365.77
623.24	1358.20
623.59	1350.94
623.93	1343.48
624.28	1336.28
624.62	1328.98
624.97	1321.91
625.32	1315.19
625.66	1308.14
626.01	1300.92
626.35	1293.61
626.70	1285.95
627.04	1278.37
627.39	1270.64
627.73	1263.27
628.08	1256.41
628.43	1249.08
628.77	1241.78
629.12	1234.17
629.46	1227.00
629.81	1219.76
630.15	1212.75
630.50	1205.39
630.84	1197.22
631.19	1189.41
631.53	1182.07
631.88	1174.60
632.22	1167.11
632.57	1159.91
632.91	1152.51
633.26	1145.17
633.60	1137.99
633.95	1131.00
634.29	1124.09
634.64	1117.57
634.98	1110.32
635.32	1103.20
635.67	1096.75
636.01	1090.25
636.36	1083.47
636.70	1077.01
637.05	1070.50
637.39	1064.03
637.73	1057.70
638.08	1051.88
638.42	1046.01
638.77	1039.54
639.11	1032.89
639.45	1026.62
639.80	1020.04
640.14	1013.65
640.49	1007.14
640.83	1000.84
641.17	994.58
641.52	988.23
641.86	981.87
642.20	976.14
642.55	970.00
642.89	963.57
643.23	957.13
643.58	951.48
643.92	945.29
644.26	939.17
644.61	933.20
644.95	927.07
645.29	920.47
645.64	913.69
645.98	907.45
646.32	901.74
646.66	895.68
647.01	889.98
647.35	884.34
647.69	878.59
648.04	873.00
648.38	867.31
648.72	861.35
649.06	855.31
649.41	849.43
649.75	843.47
650.09	837.55
650.43	831.72
650.78	825.55
651.12	819.68
651.46	814.03
651.80	808.25
652.14	802.96
652.49	797.59
652.83	792.43
653.17	786.74
653.51	781.07
653.85	775.69
654.20	769.93
654.54	763.91
654.88	758.28
655.22	752.47
655.56	746.79
655.90	741.37
656.25	736.15
656.59	730.86
656.93	725.77
657.27	720.66
657.61	715.30
657.95	710.27
658.29	705.21
658.64	699.95
658.98	694.72
659.32	689.27
659.66	684.15
660.00	678.88
660.34	673.97
660.68	669.01
661.02	663.96
661.36	659.38
661.70	654.99
662.05	650.56
662.39	646.26
662.73	641.82
663.07	637.42
663.41	632.98
663.75	628.44
664.09	623.87
664.43	619.56
664.77	615.44
665.11	611.27
665.45	607.18
665.79	603.20
666.13	599.13
666.47	595.04
666.81	590.87
667.15	586.80
667.49	582.97
667.83	579.19
668.17	575.37
668.51	571.36
668.85	567.40
669.19	563.62
669.53	559.79
669.87	555.94
670.21	552.26
670.55	548.66
670.89	545.32
671.23	542.01
671.57	538.50
671.91	534.98
672.25	531.50
672.58	528.05
672.92	524.71
673.26	521.53
673.60	518.46
673.94	515.44
674.28	512.53
674.62	509.57
674.96	506.48
675.30	503.62
675.64	500.70
675.97	497.93
676.31	495.11
676.65	492.24
676.99	489.59
677.33	486.81
677.67	484.04
678.01	481.06
678.34	478.06
678.68	475.23
679.02	472.50
679.36	469.80
679.70	467.10
680.04	464.31
680.37	461.50
680.71	458.71
681.05	456.14
681.39	453.54
681.73	450.94
682.06	448.46
682.40	445.88
682.74	443.39
683.08	440.88
683.42	438.27
683.75	435.81
684.09	433.31
684.43	430.89
684.77	428.42
685.10	426.09
685.44	423.84
685.78	421.58
686.12	419.32
686.45	417.03
686.79	414.75
687.13	412.61
687.46	410.49
687.80	408.43
688.14	406.22
688.48	404.20
688.81	401.92
689.15	399.80
689.49	397.68
689.82	395.62
690.16	393.55
690.50	391.65
690.83	389.72
691.17	387.76
691.51	385.88
691.84	384.12
692.18	382.17
692.52	380.15
692.85	378.23
693.19	376.40
693.52	374.58
693.86	372.80
694.20	371.02
694.53	369.23
694.87	367.36
695.21	365.61
695.54	363.74
695.88	362.05
696.21	360.35
696.55	358.65
696.88	356.99
697.22	355.36
697.56	353.74
697.89	352.07
698.23	350.44
698.56	348.79
698.90	347.14
699.23	345.52
699.57	344.02
699.90	342.51
700.24	340.96
700.58	339.45
700.91	337.94
701.25	336.47
701.58	335.12
701.92	333.79
702.25	332.38
702.59	331.06
702.92	329.74
703.26	328.43
703.59	327.15
703.93	325.95
704.26	324.71
704.60	323.43
704.93	322.17
705.26	320.93
705.60	319.80
705.93	318.69
706.27	317.66
706.60	316.60
706.94	315.53
707.27	314.43
707.61	313.35
707.94	312.34
708.27	311.29
708.61	310.23
708.94	309.22
709.28	308.28
709.61	307.33
709.94	306.42
710.28	305.46
710.61	304.52
710.95	303.50
711.28	302.61
711.61	301.72
711.95	300.83
712.28	299.85
712.61	298.88
712.95	297.99
713.28	297.12
713.61	296.25
713.95	295.36
714.28	294.53
714.61	293.68
714.95	292.85
715.28	292.06
715.61	291.20
715.95	290.35
716.28	289.50
716.61	288.70
716.95	287.88
717.28	287.12
717.61	286.36
717.94	285.62
718.28	284.84
718.61	284.12
718.94	283.44
719.27	282.86
719.61	282.24
719.94	281.59
720.27	280.90
720.60	280.27
720.94	279.69
721.27	279.10
721.60	278.56
721.93	277.99
722.27	277.42
722.60	276.83
722.93	276.26
723.26	275.71
723.59	275.15
723.93	274.59
724.26	274.03
724.59	273.48
724.92	272.98
725.25	272.47
725.59	271.90
725.92	271.42
726.25	270.84
726.58	270.35
726.91	269.81
727.24	269.33
727.57	268.85
727.91	268.32
728.24	267.86
728.57	267.35
728.90	266.87
729.23	266.38
729.56	265.98
729.89	265.52
730.22	265.05
730.55	264.58
730.89	264.16
731.22	263.73
731.55	263.31
731.88	262.87
732.21	262.40
732.54	261.98
732.87	261.50
733.20	261.18
733.53	260.80
733.86	260.43
734.19	260.06
734.52	259.64
734.85	259.35
735.18	258.90
735.51	258.56
735.84	258.20
736.17	257.84
736.50	257.44
736.83	257.18
737.16	256.85
737.49	256.51
737.82	256.18
738.15	255.87
738.48	255.52
738.81	255.18
739.14	254.85
739.47	254.56
739.80	254.30
740.13	253.96
740.46	253.64
740.79	253.32
741.12	253.00
741.45	252.67
741.78	252.30
742.11	252.05
742.44	251.71
742.77	251.43
743.10	251.15
743.43	250.87
743.75	250.49
744.08	250.34
744.41	250.06
744.74	249.73
745.07	249.41
745.40	249.22
745.73	249.02
746.06	248.78
746.39	248.51
746.71	248.22
747.04	247.95
747.37	247.67
747.70	247.42
748.03	247.15
748.36	246.94
748.68	246.71
749.01	246.47
749.34	246.27
749.67	246.04
750.00	245.82
750.33	245.67
750.65	245.47
750.98	245.15
751.31	244.93
751.64	244.77
751.97	244.64
752.29	244.41
752.62	244.16
752.95	243.95
753.28	243.72
753.60	243.54
753.93	243.36
754.26	243.17
754.59	242.96
754.91	242.76
755.24	242.58
755.57	242.41
755.90	242.23
756.22	242.03
756.55	241.84
756.88	241.66
757.20	241.41
757.53	241.22
757.86	241.09
758.19	240.96
758.51	240.80
758.84	240.59
759.17	240.41
759.49	240.25
759.82	240.17
760.15	240.03
760.47	239.92
760.80	239.73
761.13	239.64
761.45	239.49
761.78	239.38
762.11	239.23
762.43	239.08
762.76	238.94
763.08	238.84
763.41	238.70
763.74	238.59
764.06	238.48
764.39	238.37
764.71	238.19
765.04	238.04
765.37	237.91
765.69	237.77
766.02	237.64
766.34	237.53
766.67	237.37
767.00	237.29
767.32	237.18
767.65	237.12
767.97	236.98
768.30	236.88
768.62	236.73
768.95	236.60
769.27	236.49
769.60	236.38
769.92	236.22
770.25	236.07
770.57	235.94
770.90	235.80
771.22	235.69
771.55	235.59
771.87	235.51
772.20	235.42
772.52	235.40
772.85	235.44
773.17	235.32
773.50	235.22
773.82	235.07
774.15	234.94
774.47	234.82
774.80	234.74
775.12	234.64
775.45	234.58
775.77	234.51
776.09	234.43
776.42	234.35
776.74	234.32
777.07	234.21
777.39	234.16
777.72	234.13
778.04	234.04
778.36	233.96
778.69	233.90
779.01	233.77
779.33	233.60
779.66	233.41
779.98	233.33
780.31	233.25
780.63	233.26
780.95	233.19
781.28	233.10
781.60	232.99
781.92	232.92
782.25	232.88
782.57	232.78
782.89	232.70
783.22	232.64
783.54	232.57
783.86	232.57
784.19	232.46
784.51	232.39
784.83	232.31
785.16	232.26
785.48	232.16
785.80	232.13
786.12	232.08
786.45	232.02
786.77	231.97
787.09	231.92
