SpectraSuite Data File
++++++++++++++++++++++++++++++++++++
Date: Fri Feb 01 15:23:03 EST 2013
User: group
Dark Spectrum Present: No
Reference Spectrum Present: No
Number of Sampled Component Spectra: 1
Spectrometers: USB2E7196
Integration Time (usec): 35000 (USB2E7196)
Spectra Averaged: 100 (USB2E7196)
Boxcar Smoothing: 10 (USB2E7196)
Correct for Electrical Dark: No (USB2E7196)
Strobe/Lamp Enabled: No (USB2E7196)
Correct for Detector Non-linearity: No (USB2E7196)
Correct for Stray Light: No (USB2E7196)
Number of Pixels in Processed Spectrum: 2048
>>>>>Begin Processed Spectral Data<<<<<
339.09	0.00
339.48	215.30
339.86	216.66
340.24	217.73
340.63	219.14
341.01	222.26
341.39	222.07
341.78	223.57
342.16	224.75
342.54	224.77
342.93	213.47
343.31	224.27
343.69	224.82
344.07	225.30
344.46	225.77
344.84	226.17
345.22	226.43
345.60	226.67
345.99	226.86
346.37	227.03
346.75	227.14
347.13	227.22
347.52	227.30
347.90	227.37
348.28	227.41
348.66	227.47
349.05	227.51
349.43	227.54
349.81	227.59
350.19	227.61
350.57	227.68
350.96	227.78
351.34	227.85
351.72	227.94
352.10	228.05
352.48	228.10
352.87	228.18
353.25	228.24
353.63	228.31
354.01	228.37
354.39	228.40
354.77	228.51
355.15	228.61
355.54	228.64
355.92	228.68
356.30	228.73
356.68	228.83
357.06	228.89
357.44	228.93
357.82	228.97
358.20	229.05
358.58	229.10
358.97	229.16
359.35	229.25
359.73	229.35
360.11	229.38
360.49	229.46
360.87	229.51
361.25	229.53
361.63	229.62
362.01	229.67
362.39	229.69
362.77	229.71
363.15	229.72
363.53	229.78
363.91	229.82
364.29	229.85
364.67	229.80
365.05	229.80
365.43	229.82
365.81	229.85
366.19	229.88
366.57	229.89
366.95	229.88
367.33	229.82
367.71	229.75
368.09	229.76
368.47	229.69
368.85	229.64
369.23	229.63
369.61	229.54
369.99	229.53
370.37	229.52
370.75	229.50
371.13	229.45
371.51	229.37
371.89	229.33
372.27	229.23
372.65	229.17
373.03	229.15
373.41	229.09
373.78	229.02
374.16	228.87
374.54	228.79
374.92	228.69
375.30	228.64
375.68	228.58
376.06	228.51
376.44	228.41
376.82	228.39
377.19	228.33
377.57	228.28
377.95	228.16
378.33	228.08
378.71	227.94
379.09	227.86
379.47	227.81
379.84	227.71
380.22	227.65
380.60	227.56
380.98	227.47
381.36	227.40
381.73	227.31
382.11	227.30
382.49	227.21
382.87	227.16
383.25	227.10
383.62	227.12
384.00	227.01
384.38	227.00
384.76	226.91
385.13	226.87
385.51	226.77
385.89	226.73
386.27	226.68
386.64	226.66
387.02	226.59
387.40	226.54
387.78	226.54
388.15	226.54
388.53	226.50
388.91	226.46
389.29	226.43
389.66	226.45
390.04	226.42
390.42	226.44
390.79	226.43
391.17	226.38
391.55	226.26
391.92	226.26
392.30	226.27
392.68	226.25
393.05	226.24
393.43	226.25
393.81	226.25
394.18	226.27
394.56	226.28
394.94	226.33
395.31	226.35
395.69	226.41
396.06	226.42
396.44	226.48
396.82	226.52
397.19	226.61
397.57	226.62
397.95	226.70
398.32	226.73
398.70	226.77
399.07	226.89
399.45	226.96
399.82	227.03
400.20	227.08
400.58	227.18
400.95	227.22
401.33	227.38
401.70	227.56
402.08	227.63
402.45	227.76
402.83	227.89
403.20	227.98
403.58	228.05
403.95	228.22
404.33	228.37
404.71	228.49
405.08	228.67
405.46	228.85
405.83	228.96
406.21	229.09
406.58	229.28
406.96	229.46
407.33	229.65
407.70	229.86
408.08	230.12
408.45	230.32
408.83	230.60
409.20	230.79
409.58	230.93
409.95	231.21
410.33	231.47
410.70	231.73
411.08	232.06
411.45	232.37
411.82	232.64
412.20	233.00
412.57	233.44
412.95	233.70
413.32	234.11
413.69	234.54
414.07	235.01
414.44	235.49
414.82	235.97
415.19	236.53
415.56	237.06
415.94	237.59
416.31	238.24
416.68	238.85
417.06	239.54
417.43	240.23
417.81	241.00
418.18	241.79
418.55	242.61
418.93	243.48
419.30	244.34
419.67	245.30
420.04	246.25
420.42	247.22
420.79	248.42
421.16	249.54
421.54	250.74
421.91	251.91
422.28	253.13
422.66	254.42
423.03	255.74
423.40	257.08
423.77	258.51
424.15	259.90
424.52	261.39
424.89	263.00
425.26	264.56
425.64	266.00
426.01	267.60
426.38	269.28
426.75	270.93
427.13	272.69
427.50	274.48
427.87	276.36
428.24	278.22
428.61	280.00
428.99	281.97
429.36	284.07
429.73	286.16
430.10	288.22
430.47	290.26
430.85	292.33
431.22	294.59
431.59	296.95
431.96	299.25
432.33	301.77
432.70	304.13
433.08	306.95
433.45	309.62
433.82	312.25
434.19	315.16
434.56	318.00
434.93	320.70
435.30	323.31
435.68	326.22
436.05	329.05
436.42	331.86
436.79	334.37
437.16	337.12
437.53	339.94
437.90	342.77
438.27	345.55
438.64	348.46
439.01	351.04
439.38	353.30
439.75	355.46
440.13	357.98
440.50	360.33
440.87	362.24
441.24	364.22
441.61	366.37
441.98	367.82
442.35	369.71
442.72	371.59
443.09	373.41
443.46	374.37
443.83	374.96
444.20	375.44
444.57	376.25
444.94	376.50
445.31	376.84
445.68	377.15
446.05	377.27
446.42	376.82
446.79	376.39
447.16	375.94
447.53	375.58
447.90	374.38
448.27	373.23
448.64	371.63
449.01	370.44
449.37	368.44
449.74	366.51
450.11	364.17
450.48	361.62
450.85	359.07
451.22	356.91
451.59	354.87
451.96	352.92
452.33	350.37
452.70	348.06
453.07	345.21
453.43	342.35
453.80	339.53
454.17	336.88
454.54	334.32
454.91	331.58
455.28	328.88
455.65	326.38
456.02	323.91
456.38	321.75
456.75	319.08
457.12	316.84
457.49	314.58
457.86	312.37
458.23	310.51
458.59	308.50
458.96	306.44
459.33	304.60
459.70	302.71
460.07	301.18
460.43	299.39
460.80	297.76
461.17	296.27
461.54	294.79
461.91	293.36
462.27	291.92
462.64	290.68
463.01	289.37
463.38	288.09
463.74	286.70
464.11	285.51
464.48	284.47
464.85	283.35
465.21	282.57
465.58	281.68
465.95	280.57
466.32	279.63
466.68	278.69
467.05	277.79
467.42	276.93
467.78	275.98
468.15	275.11
468.52	274.50
468.88	273.68
469.25	272.89
469.62	272.25
469.98	271.55
470.35	270.92
470.72	270.34
471.08	269.68
471.45	269.19
471.82	268.64
472.18	268.03
472.55	267.61
472.92	267.02
473.28	266.55
473.65	266.13
474.02	265.70
474.38	265.37
474.75	265.07
475.11	264.70
475.48	264.47
475.85	264.23
476.21	263.99
476.58	263.80
476.94	263.67
477.31	263.51
477.67	263.37
478.04	263.25
478.41	263.16
478.77	263.19
479.14	263.10
479.50	263.11
479.87	263.20
480.23	263.24
480.60	263.32
480.96	263.42
481.33	263.62
481.69	263.83
482.06	263.98
482.42	264.17
482.79	264.42
483.15	264.70
483.52	265.07
483.88	265.38
484.25	265.76
484.61	266.16
484.98	266.60
485.34	267.20
485.71	267.81
486.07	268.42
486.44	268.98
486.80	269.67
487.17	270.39
487.53	271.22
487.90	272.06
488.26	272.97
488.62	273.97
488.99	274.90
489.35	275.95
489.72	277.09
490.08	278.28
490.44	279.55
490.81	280.87
491.17	282.21
491.54	283.75
491.90	285.26
492.26	286.90
492.63	288.62
492.99	290.33
493.36	292.19
493.72	294.25
494.08	296.34
494.45	298.60
494.81	300.97
495.17	303.41
495.54	305.99
495.90	308.74
496.26	311.48
496.63	314.47
496.99	317.55
497.35	320.83
497.72	324.24
498.08	327.73
498.44	331.40
498.80	335.33
499.17	339.28
499.53	343.46
499.89	347.78
500.26	352.31
500.62	356.96
500.98	361.92
501.34	366.94
501.71	372.31
502.07	377.69
502.43	383.28
502.79	389.10
503.16	395.17
503.52	401.41
503.88	407.82
504.24	414.43
504.60	421.32
504.97	428.43
505.33	435.76
505.69	443.44
506.05	451.23
506.41	459.13
506.78	467.34
507.14	475.76
507.50	484.56
507.86	493.55
508.22	502.79
508.59	511.98
508.95	521.63
509.31	531.40
509.67	541.53
510.03	551.84
510.39	562.39
510.75	573.18
511.12	584.08
511.48	595.41
511.84	606.90
512.20	618.43
512.56	630.38
512.92	642.56
513.28	654.91
513.64	667.38
514.00	680.14
514.37	693.09
514.73	706.20
515.09	719.30
515.45	732.65
515.81	746.22
516.17	760.33
516.53	774.39
516.89	788.60
517.25	802.83
517.61	817.28
517.97	831.84
518.33	846.31
518.69	861.19
519.05	876.23
519.41	891.36
519.77	906.99
520.13	922.41
520.49	937.82
520.85	953.27
521.21	969.14
521.57	985.41
521.93	1001.33
522.29	1017.71
522.65	1033.93
523.01	1050.19
523.37	1066.27
523.73	1082.46
524.09	1098.67
524.45	1115.08
524.81	1131.77
525.17	1148.68
525.53	1165.58
525.89	1182.55
526.25	1199.37
526.61	1215.72
526.97	1232.62
527.33	1249.08
527.68	1265.90
528.04	1282.41
528.40	1298.99
528.76	1316.04
529.12	1332.71
529.48	1349.45
529.84	1365.62
530.20	1382.31
530.56	1399.40
530.91	1416.81
531.27	1433.54
531.63	1450.09
531.99	1466.70
532.35	1482.81
532.71	1498.70
533.07	1514.99
533.42	1530.86
533.78	1546.99
534.14	1563.42
534.50	1578.82
534.86	1594.81
535.21	1609.95
535.57	1626.11
535.93	1641.76
536.29	1656.55
536.65	1671.68
537.00	1686.68
537.36	1701.98
537.72	1716.66
538.08	1731.12
538.44	1744.98
538.79	1758.95
539.15	1772.75
539.51	1786.54
539.87	1800.92
540.22	1814.80
540.58	1828.65
540.94	1842.14
541.29	1855.14
541.65	1867.97
542.01	1881.25
542.37	1893.57
542.72	1906.10
543.08	1917.89
543.44	1930.32
543.79	1941.76
544.15	1952.83
544.51	1964.42
544.87	1975.51
545.22	1986.24
545.58	1996.48
545.94	2006.29
546.29	2016.22
546.65	2025.92
547.01	2035.14
547.36	2043.90
547.72	2052.35
548.07	2060.16
548.43	2068.40
548.79	2076.44
549.14	2083.94
549.50	2091.38
549.86	2099.22
550.21	2106.54
550.57	2113.71
550.92	2120.38
551.28	2127.33
551.64	2134.41
551.99	2140.91
552.35	2146.94
552.70	2153.14
553.06	2159.19
553.41	2165.60
553.77	2171.69
554.13	2177.89
554.48	2184.05
554.84	2189.42
555.19	2194.69
555.55	2199.89
555.90	2204.24
556.26	2209.14
556.61	2213.78
556.97	2217.84
557.32	2221.97
557.68	2225.99
558.03	2230.32
558.39	2234.15
558.74	2238.74
559.10	2242.57
559.45	2246.29
559.81	2250.73
560.16	2254.58
560.52	2257.69
560.87	2261.18
561.23	2263.64
561.58	2266.51
561.94	2268.97
562.29	2271.44
562.64	2274.04
563.00	2276.67
563.35	2280.36
563.71	2283.48
564.06	2286.75
564.42	2289.61
564.77	2292.00
565.12	2294.28
565.48	2295.92
565.83	2297.58
566.19	2298.79
566.54	2299.72
566.89	2300.83
567.25	2301.37
567.60	2302.73
567.96	2304.36
568.31	2305.24
568.66	2306.49
569.02	2307.16
569.37	2307.40
569.72	2308.04
570.08	2308.07
570.43	2307.97
570.78	2307.12
571.14	2305.45
571.49	2304.03
571.84	2303.69
572.20	2302.46
572.55	2301.40
572.90	2300.03
573.26	2298.55
573.61	2296.89
573.96	2295.02
574.31	2291.75
574.67	2288.58
575.02	2284.91
575.37	2281.45
575.72	2277.44
576.08	2274.10
576.43	2270.60
576.78	2267.03
577.13	2263.95
577.49	2260.97
577.84	2257.42
578.19	2253.67
578.54	2249.82
578.90	2245.44
579.25	2239.95
579.60	2234.87
579.95	2229.79
580.30	2224.54
580.66	2219.21
581.01	2214.29
581.36	2209.21
581.71	2205.14
582.06	2200.78
582.42	2196.07
582.77	2190.82
583.12	2186.11
583.47	2181.02
583.82	2175.82
584.17	2170.46
584.53	2164.72
584.88	2159.04
585.23	2153.02
585.58	2147.50
585.93	2142.17
586.28	2137.56
586.63	2132.20
586.98	2127.11
587.34	2122.32
587.69	2117.45
588.04	2112.24
588.39	2106.44
588.74	2100.01
589.09	2093.72
589.44	2086.81
589.79	2080.84
590.14	2075.16
590.49	2068.67
590.84	2062.40
591.19	2056.50
591.54	2049.85
591.89	2042.34
592.25	2035.37
592.60	2028.29
592.95	2020.55
593.30	2013.09
593.65	2005.31
594.00	1998.32
594.35	1991.06
594.70	1982.95
595.05	1975.54
595.40	1968.24
595.75	1960.60
596.10	1954.17
596.45	1947.29
596.80	1941.00
597.15	1934.18
597.50	1927.05
597.85	1920.54
598.19	1913.88
598.54	1906.56
598.89	1899.94
599.24	1894.22
599.59	1887.43
599.94	1881.22
600.29	1874.93
600.64	1868.23
600.99	1860.69
601.34	1853.76
601.69	1846.71
602.04	1839.66
602.39	1832.41
602.74	1825.44
603.08	1818.66
603.43	1811.94
603.78	1804.76
604.13	1797.49
604.48	1790.21
604.83	1783.26
605.18	1776.07
605.53	1767.93
605.87	1759.99
606.22	1752.76
606.57	1744.61
606.92	1737.32
607.27	1730.08
607.62	1723.05
607.96	1715.76
608.31	1708.98
608.66	1701.38
609.01	1693.77
609.36	1686.21
609.70	1678.12
610.05	1670.03
610.40	1662.24
610.75	1653.90
611.10	1646.17
611.44	1637.80
611.79	1629.78
612.14	1621.16
612.49	1612.10
612.83	1603.83
613.18	1595.72
613.53	1587.64
613.88	1579.24
614.22	1570.84
614.57	1562.31
614.92	1554.17
615.27	1546.60
615.61	1538.33
615.96	1530.37
616.31	1522.74
616.65	1515.36
617.00	1507.85
617.35	1500.26
617.70	1492.01
618.04	1483.47
618.39	1475.16
618.74	1467.46
619.08	1459.22
619.43	1451.57
619.78	1444.68
620.12	1437.47
620.47	1429.90
620.82	1421.77
621.16	1414.37
621.51	1406.93
621.85	1399.26
622.20	1390.97
622.55	1382.70
622.89	1374.91
623.24	1367.24
623.59	1359.89
623.93	1352.49
624.28	1345.24
624.62	1337.62
624.97	1330.41
625.32	1323.73
625.66	1316.75
626.01	1309.49
626.35	1301.88
626.70	1294.16
627.04	1286.25
627.39	1278.43
627.73	1271.09
628.08	1264.10
628.43	1256.71
628.77	1249.20
629.12	1241.54
629.46	1234.26
629.81	1226.80
630.15	1219.56
630.50	1212.18
630.84	1203.98
631.19	1196.03
631.53	1188.48
631.88	1180.95
632.22	1173.33
632.57	1166.03
632.91	1158.53
633.26	1151.25
633.60	1143.99
633.95	1137.01
634.29	1130.20
634.64	1123.57
634.98	1116.21
635.32	1109.04
635.67	1102.51
636.01	1096.02
636.36	1089.30
636.70	1082.88
637.05	1076.36
637.39	1069.90
637.73	1063.39
638.08	1057.54
638.42	1051.55
638.77	1045.07
639.11	1038.42
639.45	1032.11
639.80	1025.33
640.14	1018.86
640.49	1012.37
640.83	1006.05
641.17	999.68
641.52	993.34
641.86	986.98
642.20	981.09
642.55	974.79
642.89	968.27
643.23	961.70
643.58	955.94
643.92	949.64
644.26	943.50
644.61	937.53
644.95	931.43
645.29	924.80
645.64	918.05
645.98	911.79
646.32	906.11
646.66	900.16
647.01	894.49
647.35	888.83
647.69	883.01
648.04	877.51
648.38	871.75
648.72	865.62
649.06	859.38
649.41	853.51
649.75	847.55
650.09	841.57
650.43	835.79
650.78	829.59
651.12	823.65
651.46	817.96
651.80	812.17
652.14	806.74
652.49	801.41
652.83	796.18
653.17	790.43
653.51	784.63
653.85	779.12
654.20	773.43
654.54	767.40
654.88	761.56
655.22	755.67
655.56	750.00
655.90	744.63
656.25	739.50
656.59	734.13
656.93	729.03
657.27	723.82
657.61	718.33
657.95	713.21
658.29	708.12
658.64	702.91
658.98	697.63
659.32	692.26
659.66	687.00
660.00	681.72
660.34	676.83
660.68	671.93
661.02	666.97
661.36	662.22
661.70	657.75
662.05	653.40
662.39	649.06
662.73	644.67
663.07	640.29
663.41	635.78
663.75	631.28
664.09	626.71
664.43	622.36
664.77	618.26
665.11	614.02
665.45	609.99
665.79	605.85
666.13	601.73
666.47	597.64
666.81	593.48
667.15	589.38
667.49	585.47
667.83	581.72
668.17	577.80
668.51	573.78
668.85	569.72
669.19	565.94
669.53	562.08
669.87	558.11
670.21	554.43
670.55	550.82
670.89	547.38
671.23	543.96
671.57	540.46
671.91	536.98
672.25	533.54
672.58	529.97
672.92	526.63
673.26	523.52
673.60	520.36
673.94	517.31
674.28	514.40
674.62	511.43
674.96	508.29
675.30	505.32
675.64	502.33
675.97	499.62
676.31	496.77
676.65	493.88
676.99	491.19
677.33	488.36
677.67	485.50
678.01	482.51
678.34	479.51
678.68	476.67
679.02	473.83
679.36	471.05
679.70	468.31
680.04	465.51
680.37	462.57
680.71	459.85
681.05	457.26
681.39	454.59
681.73	452.00
682.06	449.47
682.40	446.96
682.74	444.52
683.08	441.95
683.42	439.35
683.75	436.91
684.09	434.42
684.43	431.93
684.77	429.54
685.10	427.23
685.44	424.99
685.78	422.77
686.12	420.53
686.45	418.29
686.79	415.98
687.13	413.85
687.46	411.75
687.80	409.55
688.14	407.39
688.48	405.34
688.81	403.09
689.15	400.96
689.49	398.80
689.82	396.75
690.16	394.69
690.50	392.70
690.83	390.73
691.17	388.73
691.51	386.81
691.84	384.97
692.18	383.01
692.52	381.05
692.85	379.12
693.19	377.26
693.52	375.44
693.86	373.68
694.20	371.90
694.53	370.10
694.87	368.29
695.21	366.49
695.54	364.67
695.88	362.95
696.21	361.22
696.55	359.54
696.88	357.85
697.22	356.21
697.56	354.64
697.89	352.98
698.23	351.37
698.56	349.79
698.90	348.22
699.23	346.58
699.57	345.00
699.90	343.44
700.24	341.88
700.58	340.35
700.91	338.82
701.25	337.35
701.58	335.98
701.92	334.59
702.25	333.16
702.59	331.79
702.92	330.43
703.26	329.14
703.59	327.91
703.93	326.75
704.26	325.53
704.60	324.23
704.93	322.94
705.26	321.68
705.60	320.53
705.93	319.35
706.27	318.33
706.60	317.27
706.94	316.22
707.27	315.12
707.61	314.06
707.94	313.08
708.27	312.03
708.61	310.96
708.94	309.96
709.28	309.01
709.61	308.07
709.94	307.17
710.28	306.15
710.61	305.15
710.95	304.04
711.28	303.10
711.61	302.18
711.95	301.29
712.28	300.35
712.61	299.32
712.95	298.38
713.28	297.47
713.61	296.61
713.95	295.70
714.28	294.87
714.61	294.01
714.95	293.15
715.28	292.28
715.61	291.43
715.95	290.58
716.28	289.73
716.61	288.89
716.95	288.05
717.28	287.31
717.61	286.52
717.94	285.78
718.28	284.97
718.61	284.22
718.94	283.55
719.27	282.90
719.61	282.28
719.94	281.62
720.27	280.94
720.60	280.25
720.94	279.62
721.27	279.02
721.60	278.44
721.93	277.84
722.27	277.25
722.60	276.66
722.93	276.10
723.26	275.54
723.59	274.97
723.93	274.41
724.26	273.90
724.59	273.38
724.92	272.89
725.25	272.40
725.59	271.88
725.92	271.36
726.25	270.86
726.58	270.32
726.91	269.80
727.24	269.32
727.57	268.85
727.91	268.32
728.24	267.81
728.57	267.28
728.90	266.83
729.23	266.37
729.56	265.94
729.89	265.46
730.22	264.99
730.55	264.54
730.89	264.12
731.22	263.64
731.55	263.19
731.88	262.76
732.21	262.34
732.54	261.92
732.87	261.45
733.20	261.00
733.53	260.65
733.86	260.30
734.19	259.90
734.52	259.53
734.85	259.25
735.18	258.88
735.51	258.58
735.84	258.18
736.17	257.83
736.50	257.42
736.83	257.17
737.16	256.82
737.49	256.44
737.82	256.07
738.15	255.75
738.48	255.41
738.81	255.09
739.14	254.77
739.47	254.49
739.80	254.21
740.13	253.93
740.46	253.56
740.79	253.24
741.12	252.95
741.45	252.61
741.78	252.23
742.11	251.91
742.44	251.54
742.77	251.27
743.10	250.98
743.43	250.68
743.75	250.31
744.08	250.18
744.41	249.93
744.74	249.67
745.07	249.35
745.40	249.10
745.73	248.84
746.06	248.54
746.39	248.25
746.71	247.96
747.04	247.69
747.37	247.47
747.70	247.22
748.03	246.95
748.36	246.76
748.68	246.51
749.01	246.28
749.34	246.08
749.67	245.84
750.00	245.60
750.33	245.45
750.65	245.25
750.98	244.94
751.31	244.71
751.64	244.52
751.97	244.36
752.29	244.13
752.62	243.91
752.95	243.69
753.28	243.47
753.60	243.25
753.93	243.08
754.26	242.87
754.59	242.66
754.91	242.48
755.24	242.26
755.57	242.10
755.90	241.93
756.22	241.75
756.55	241.58
756.88	241.39
757.20	241.16
757.53	240.98
757.86	240.79
758.19	240.63
758.51	240.44
758.84	240.23
759.17	240.11
759.49	239.94
759.82	239.83
760.15	239.70
760.47	239.57
760.80	239.39
761.13	239.28
761.45	239.11
761.78	238.95
762.11	238.83
762.43	238.67
762.76	238.54
763.08	238.41
763.41	238.28
763.74	238.15
764.06	238.04
764.39	237.88
764.71	237.72
765.04	237.60
765.37	237.48
765.69	237.37
766.02	237.22
766.34	237.06
766.67	236.95
767.00	236.83
767.32	236.80
767.65	236.75
767.97	236.62
768.30	236.54
768.62	236.45
768.95	236.32
769.27	236.20
769.60	236.08
769.92	235.94
770.25	235.80
770.57	235.72
770.90	235.59
771.22	235.50
771.55	235.44
771.87	235.37
772.20	235.26
772.52	235.25
772.85	235.29
773.17	235.21
773.50	235.08
773.82	234.99
774.15	234.79
774.47	234.63
774.80	234.55
775.12	234.45
775.45	234.32
775.77	234.26
776.09	234.17
776.42	234.08
776.74	234.05
777.07	233.97
777.39	233.84
777.72	233.73
778.04	233.66
778.36	233.57
778.69	233.44
779.01	233.35
779.33	233.18
779.66	233.00
779.98	232.94
780.31	232.86
780.63	232.84
780.95	232.80
781.28	232.72
781.60	232.66
781.92	232.62
782.25	232.56
782.57	232.47
782.89	232.44
783.22	232.40
783.54	232.30
783.86	232.26
784.19	232.22
784.51	232.22
784.83	232.13
785.16	232.09
785.48	232.06
785.80	232.03
786.12	232.00
786.45	231.92
786.77	231.86
787.09	231.80
