SpectraSuite Data File
++++++++++++++++++++++++++++++++++++
Date: Fri Feb 01 15:41:26 EST 2013
User: group
Dark Spectrum Present: No
Reference Spectrum Present: No
Number of Sampled Component Spectra: 1
Spectrometers: USB2E7196
Integration Time (usec): 35000 (USB2E7196)
Spectra Averaged: 100 (USB2E7196)
Boxcar Smoothing: 10 (USB2E7196)
Correct for Electrical Dark: No (USB2E7196)
Strobe/Lamp Enabled: No (USB2E7196)
Correct for Detector Non-linearity: No (USB2E7196)
Correct for Stray Light: No (USB2E7196)
Number of Pixels in Processed Spectrum: 2048
>>>>>Begin Processed Spectral Data<<<<<
339.09	0.00
339.48	214.94
339.86	216.51
340.24	217.28
340.63	218.79
341.01	222.01
341.39	222.15
341.78	223.32
342.16	223.92
342.54	225.00
342.93	213.22
343.31	224.00
343.69	224.56
344.07	224.99
344.46	225.44
344.84	225.85
345.22	226.08
345.60	226.33
345.99	226.49
346.37	226.62
346.75	226.72
347.13	226.81
347.52	226.88
347.90	226.93
348.28	227.00
348.66	227.05
349.05	227.02
349.43	227.05
349.81	227.13
350.19	227.17
350.57	227.21
350.96	227.28
351.34	227.35
351.72	227.41
352.10	227.54
352.48	227.61
352.87	227.64
353.25	227.70
353.63	227.76
354.01	227.86
354.39	227.96
354.77	228.02
355.15	228.11
355.54	228.15
355.92	228.16
356.30	228.23
356.68	228.32
357.06	228.42
357.44	228.49
357.82	228.52
358.20	228.60
358.58	228.64
358.97	228.66
359.35	228.73
359.73	228.81
360.11	228.86
360.49	228.89
360.87	228.94
361.25	228.99
361.63	229.07
362.01	229.09
362.39	229.11
362.77	229.16
363.15	229.19
363.53	229.25
363.91	229.26
364.29	229.26
364.67	229.19
365.05	229.21
365.43	229.24
365.81	229.23
366.19	229.27
366.57	229.33
366.95	229.32
367.33	229.31
367.71	229.29
368.09	229.29
368.47	229.27
368.85	229.24
369.23	229.20
369.61	229.12
369.99	229.09
370.37	229.08
370.75	229.09
371.13	229.02
371.51	228.97
371.89	228.96
372.27	228.90
372.65	228.86
373.03	228.80
373.41	228.71
373.78	228.66
374.16	228.56
374.54	228.50
374.92	228.47
375.30	228.40
375.68	228.34
376.06	228.29
376.44	228.23
376.82	228.18
377.19	228.13
377.57	228.06
377.95	227.99
378.33	227.92
378.71	227.81
379.09	227.76
379.47	227.69
379.84	227.62
380.22	227.56
380.60	227.49
380.98	227.40
381.36	227.35
381.73	227.27
382.11	227.24
382.49	227.18
382.87	227.08
383.25	227.03
383.62	227.08
384.00	227.00
384.38	226.97
384.76	226.95
385.13	226.93
385.51	226.89
385.89	226.81
386.27	226.76
386.64	226.71
387.02	226.65
387.40	226.57
387.78	226.52
388.15	226.48
388.53	226.44
388.91	226.44
389.29	226.42
389.66	226.41
390.04	226.38
390.42	226.37
390.79	226.37
391.17	226.35
391.55	226.20
391.92	226.20
392.30	226.18
392.68	226.15
393.05	226.17
393.43	226.21
393.81	226.23
394.18	226.22
394.56	226.24
394.94	226.28
395.31	226.30
395.69	226.36
396.06	226.39
396.44	226.43
396.82	226.44
397.19	226.56
397.57	226.60
397.95	226.66
398.32	226.66
398.70	226.75
399.07	226.82
399.45	226.87
399.82	226.94
400.20	227.00
400.58	227.10
400.95	227.13
401.33	227.23
401.70	227.37
402.08	227.48
402.45	227.57
402.83	227.72
403.20	227.86
403.58	227.94
403.95	228.08
404.33	228.22
404.71	228.37
405.08	228.51
405.46	228.63
405.83	228.79
406.21	228.93
406.58	229.10
406.96	229.27
407.33	229.48
407.70	229.67
408.08	229.94
408.45	230.15
408.83	230.40
409.20	230.59
409.58	230.78
409.95	231.05
410.33	231.32
410.70	231.56
411.08	231.84
411.45	232.16
411.82	232.49
412.20	232.83
412.57	233.26
412.95	233.55
413.32	233.97
413.69	234.41
414.07	234.86
414.44	235.29
414.82	235.73
415.19	236.28
415.56	236.85
415.94	237.41
416.31	238.04
416.68	238.65
417.06	239.38
417.43	240.09
417.81	240.87
418.18	241.66
418.55	242.49
418.93	243.40
419.30	244.31
419.67	245.21
420.04	246.17
420.42	247.13
420.79	248.30
421.16	249.44
421.54	250.62
421.91	251.85
422.28	253.10
422.66	254.44
423.03	255.72
423.40	257.01
423.77	258.39
424.15	259.80
424.52	261.28
424.89	262.90
425.26	264.45
425.64	265.88
426.01	267.51
426.38	269.21
426.75	270.87
427.13	272.61
427.50	274.41
427.87	276.27
428.24	278.13
428.61	279.89
428.99	281.83
429.36	283.94
429.73	286.02
430.10	288.09
430.47	290.19
430.85	292.33
431.22	294.54
431.59	296.95
431.96	299.19
432.33	301.69
432.70	304.10
433.08	306.91
433.45	309.56
433.82	312.11
434.19	314.96
434.56	317.79
434.93	320.45
435.30	323.12
435.68	326.00
436.05	328.86
436.42	331.70
436.79	334.24
437.16	336.92
437.53	339.77
437.90	342.55
438.27	345.24
438.64	348.07
439.01	350.72
439.38	352.91
439.75	355.10
440.13	357.58
440.50	359.90
440.87	361.72
441.24	363.69
441.61	365.87
441.98	367.33
442.35	369.08
442.72	370.91
443.09	372.70
443.46	373.71
443.83	374.25
444.20	374.76
444.57	375.59
444.94	375.88
445.31	376.20
445.68	376.50
446.05	376.59
446.42	376.23
446.79	375.79
447.16	375.38
447.53	375.09
447.90	373.95
448.27	372.76
448.64	371.16
449.01	369.99
449.37	368.04
449.74	366.16
450.11	363.95
450.48	361.52
450.85	359.00
451.22	356.85
451.59	354.86
451.96	352.87
452.33	350.24
452.70	347.89
453.07	345.08
453.43	342.24
453.80	339.50
454.17	336.81
454.54	334.26
454.91	331.55
455.28	328.86
455.65	326.36
456.02	323.93
456.38	321.82
456.75	319.17
457.12	316.91
457.49	314.69
457.86	312.51
458.23	310.63
458.59	308.57
458.96	306.43
459.33	304.58
459.70	302.74
460.07	301.27
460.43	299.56
460.80	297.91
461.17	296.49
461.54	294.96
461.91	293.52
462.27	292.09
462.64	290.81
463.01	289.43
463.38	288.10
463.74	286.75
464.11	285.54
464.48	284.49
464.85	283.39
465.21	282.52
465.58	281.61
465.95	280.51
466.32	279.59
466.68	278.72
467.05	277.82
467.42	276.91
467.78	275.95
468.15	275.05
468.52	274.39
468.88	273.51
469.25	272.72
469.62	272.10
469.98	271.42
470.35	270.79
470.72	270.21
471.08	269.57
471.45	269.04
471.82	268.51
472.18	267.92
472.55	267.46
472.92	266.94
473.28	266.49
473.65	266.06
474.02	265.62
474.38	265.28
474.75	264.95
475.11	264.59
475.48	264.31
475.85	264.08
476.21	263.82
476.58	263.61
476.94	263.46
477.31	263.28
477.67	263.13
478.04	263.02
478.41	262.94
478.77	262.95
479.14	262.85
479.50	262.83
479.87	262.88
480.23	262.96
480.60	263.04
480.96	263.13
481.33	263.30
481.69	263.53
482.06	263.72
482.42	263.91
482.79	264.16
483.15	264.45
483.52	264.83
483.88	265.18
484.25	265.59
484.61	266.04
484.98	266.50
485.34	267.07
485.71	267.66
486.07	268.24
486.44	268.82
486.80	269.52
487.17	270.30
487.53	271.15
487.90	272.01
488.26	272.92
488.62	273.91
488.99	274.87
489.35	275.88
489.72	276.98
490.08	278.19
490.44	279.48
490.81	280.84
491.17	282.18
491.54	283.68
491.90	285.20
492.26	286.85
492.63	288.58
492.99	290.38
493.36	292.30
493.72	294.36
494.08	296.46
494.45	298.74
494.81	301.07
495.17	303.47
495.54	306.04
495.90	308.72
496.26	311.48
496.63	314.43
496.99	317.56
497.35	320.82
497.72	324.21
498.08	327.69
498.44	331.36
498.80	335.29
499.17	339.35
499.53	343.53
499.89	347.85
500.26	352.30
500.62	356.92
500.98	361.87
501.34	366.99
501.71	372.31
502.07	377.76
502.43	383.33
502.79	389.19
503.16	395.23
503.52	401.55
503.88	408.00
504.24	414.66
504.60	421.59
504.97	428.75
505.33	436.09
505.69	443.79
506.05	451.59
506.41	459.49
506.78	467.64
507.14	476.11
507.50	484.87
507.86	493.92
508.22	503.12
508.59	512.35
508.95	521.92
509.31	531.79
509.67	541.85
510.03	552.16
510.39	562.74
510.75	573.59
511.12	584.51
511.48	595.73
511.84	607.15
512.20	618.64
512.56	630.61
512.92	642.82
513.28	655.14
513.64	667.60
514.00	680.32
514.37	693.34
514.73	706.41
515.09	719.47
515.45	732.80
515.81	746.42
516.17	760.43
516.53	774.56
516.89	788.71
517.25	802.92
517.61	817.33
517.97	831.73
518.33	846.16
518.69	860.86
519.05	876.00
519.41	891.24
519.77	906.76
520.13	922.19
520.49	937.56
520.85	953.02
521.21	968.77
521.57	985.05
521.93	1000.75
522.29	1017.18
522.65	1033.46
523.01	1049.76
523.37	1065.80
523.73	1082.03
524.09	1098.05
524.45	1114.43
524.81	1131.10
525.17	1148.08
525.53	1164.90
525.89	1181.77
526.25	1198.61
526.61	1214.94
526.97	1231.63
527.33	1248.17
527.68	1264.75
528.04	1281.25
528.40	1297.77
528.76	1314.85
529.12	1331.41
529.48	1348.32
529.84	1364.19
530.20	1380.74
530.56	1397.69
530.91	1415.08
531.27	1431.72
531.63	1448.27
531.99	1464.76
532.35	1480.70
532.71	1496.48
533.07	1512.85
533.42	1528.78
533.78	1544.94
534.14	1561.31
534.50	1576.77
534.86	1592.62
535.21	1607.86
535.57	1623.97
535.93	1639.55
536.29	1654.28
536.65	1669.31
537.00	1684.13
537.36	1699.59
537.72	1714.24
538.08	1728.56
538.44	1742.32
538.79	1756.33
539.15	1769.94
539.51	1783.73
539.87	1798.12
540.22	1812.04
540.58	1825.81
540.94	1839.19
541.29	1851.98
541.65	1864.58
542.01	1877.68
542.37	1890.08
542.72	1902.47
543.08	1914.19
543.44	1926.66
543.79	1937.99
544.15	1949.06
544.51	1960.59
544.87	1971.50
545.22	1982.26
545.58	1992.57
545.94	2002.40
546.29	2012.17
546.65	2022.18
547.01	2031.51
547.36	2040.19
547.72	2048.56
548.07	2056.36
548.43	2064.47
548.79	2072.54
549.14	2080.14
549.50	2087.65
549.86	2095.22
550.21	2102.51
550.57	2109.68
550.92	2116.08
551.28	2123.16
551.64	2130.16
551.99	2136.71
552.35	2142.94
552.70	2149.22
553.06	2155.22
553.41	2161.66
553.77	2167.67
554.13	2173.70
554.48	2179.84
554.84	2185.24
555.19	2190.52
555.55	2195.72
555.90	2200.05
556.26	2205.00
556.61	2209.76
556.97	2213.86
557.32	2218.12
557.68	2222.27
558.03	2226.46
558.39	2230.25
558.74	2234.79
559.10	2238.69
559.45	2242.30
559.81	2246.50
560.16	2250.29
560.52	2253.54
560.87	2256.79
561.23	2259.44
561.58	2262.37
561.94	2264.87
562.29	2267.32
562.64	2269.86
563.00	2272.43
563.35	2276.11
563.71	2279.32
564.06	2282.34
564.42	2285.26
564.77	2287.73
565.12	2289.94
565.48	2291.82
565.83	2293.62
566.19	2294.89
566.54	2295.74
566.89	2296.84
567.25	2297.56
567.60	2298.75
567.96	2300.30
568.31	2301.29
568.66	2302.53
569.02	2303.12
569.37	2303.38
569.72	2304.14
570.08	2304.34
570.43	2304.34
570.78	2303.67
571.14	2301.94
571.49	2300.66
571.84	2300.32
572.20	2299.02
572.55	2297.91
572.90	2296.45
573.26	2295.23
573.61	2293.70
573.96	2291.89
574.31	2288.80
574.67	2285.63
575.02	2282.01
575.37	2278.64
575.72	2274.70
576.08	2271.17
576.43	2267.75
576.78	2264.08
577.13	2260.97
577.49	2257.96
577.84	2254.38
578.19	2250.75
578.54	2247.12
578.90	2242.85
579.25	2237.34
579.60	2232.39
579.95	2227.49
580.30	2222.32
580.66	2217.03
581.01	2211.89
581.36	2206.99
581.71	2202.84
582.06	2198.25
582.42	2193.60
582.77	2188.37
583.12	2183.74
583.47	2179.16
583.82	2174.00
584.17	2168.69
584.53	2163.15
584.88	2157.44
585.23	2151.72
585.58	2146.06
585.93	2140.54
586.28	2135.72
586.63	2130.63
586.98	2125.56
587.34	2120.76
587.69	2115.91
588.04	2110.57
588.39	2104.88
588.74	2098.38
589.09	2092.39
589.44	2085.61
589.79	2079.86
590.14	2074.29
590.49	2067.68
590.84	2061.11
591.19	2055.26
591.54	2048.78
591.89	2041.27
592.25	2034.36
592.60	2027.08
592.95	2019.51
593.30	2012.13
593.65	2004.44
594.00	1997.33
594.35	1990.06
594.70	1981.95
595.05	1974.61
595.40	1967.24
595.75	1959.66
596.10	1953.37
596.45	1946.46
596.80	1940.36
597.15	1933.61
597.50	1926.32
597.85	1919.85
598.19	1913.21
598.54	1905.95
598.89	1899.25
599.24	1893.40
599.59	1886.63
599.94	1880.41
600.29	1874.09
600.64	1867.51
600.99	1860.15
601.34	1853.15
601.69	1846.10
602.04	1839.26
602.39	1831.99
602.74	1825.29
603.08	1818.56
603.43	1811.85
603.78	1804.61
604.13	1797.32
604.48	1790.02
604.83	1783.14
605.18	1776.20
605.53	1768.18
605.87	1760.28
606.22	1753.24
606.57	1745.23
606.92	1737.95
607.27	1730.78
607.62	1723.87
607.96	1716.56
608.31	1709.93
608.66	1702.39
609.01	1694.82
609.36	1687.25
609.70	1679.25
610.05	1671.09
610.40	1663.31
610.75	1655.04
611.10	1647.30
611.44	1638.97
611.79	1630.87
612.14	1622.18
612.49	1613.04
612.83	1604.73
613.18	1596.54
613.53	1588.22
613.88	1579.77
614.22	1571.50
614.57	1562.94
614.92	1554.83
615.27	1547.26
615.61	1538.91
615.96	1530.92
616.31	1523.40
616.65	1515.99
617.00	1508.33
617.35	1500.71
617.70	1492.41
618.04	1483.89
618.39	1475.67
618.74	1468.08
619.08	1459.89
619.43	1452.36
619.78	1445.46
620.12	1438.18
620.47	1430.58
620.82	1422.45
621.16	1415.07
621.51	1407.53
621.85	1399.92
622.20	1391.41
622.55	1383.03
622.89	1375.18
623.24	1367.51
623.59	1360.10
623.93	1352.59
624.28	1345.33
624.62	1337.78
624.97	1330.69
625.32	1323.97
625.66	1316.95
626.01	1309.81
626.35	1302.32
626.70	1294.57
627.04	1286.76
627.39	1279.06
627.73	1271.77
628.08	1264.94
628.43	1257.47
628.77	1250.03
629.12	1242.36
629.46	1235.10
629.81	1227.78
630.15	1220.53
630.50	1213.12
630.84	1204.92
631.19	1197.06
631.53	1189.49
631.88	1181.93
632.22	1174.29
632.57	1167.02
632.91	1159.46
633.26	1152.02
633.60	1144.65
633.95	1137.60
634.29	1130.72
634.64	1124.05
634.98	1116.64
635.32	1109.39
635.67	1102.96
636.01	1096.42
636.36	1089.66
636.70	1083.28
637.05	1076.72
637.39	1070.30
637.73	1063.79
638.08	1057.97
638.42	1051.95
638.77	1045.66
639.11	1039.13
639.45	1032.78
639.80	1026.04
640.14	1019.59
640.49	1013.07
640.83	1006.68
641.17	1000.33
641.52	993.90
641.86	987.47
642.20	981.71
642.55	975.43
642.89	968.90
643.23	962.36
643.58	956.61
643.92	950.36
644.26	944.22
644.61	938.25
644.95	932.26
645.29	925.72
645.64	919.05
645.98	912.68
646.32	906.75
646.66	900.75
647.01	894.93
647.35	889.24
647.69	883.42
648.04	877.99
648.38	872.29
648.72	866.24
649.06	860.11
649.41	854.18
649.75	848.25
650.09	842.32
650.43	836.54
650.78	830.40
651.12	824.45
651.46	818.78
651.80	812.99
652.14	807.61
652.49	802.15
652.83	796.97
653.17	791.28
653.51	785.64
653.85	780.21
654.20	774.58
654.54	768.60
654.88	762.91
655.22	757.09
655.56	751.42
655.90	746.01
656.25	740.80
656.59	735.47
656.93	730.41
657.27	725.24
657.61	719.78
657.95	714.71
658.29	709.67
658.64	704.38
658.98	699.08
659.32	693.61
659.66	688.41
660.00	683.05
660.34	678.16
660.68	673.25
661.02	668.18
661.36	663.47
661.70	658.96
662.05	654.59
662.39	650.18
662.73	645.72
663.07	641.35
663.41	636.94
663.75	632.36
664.09	627.76
664.43	623.39
664.77	619.33
665.11	615.02
665.45	610.87
665.79	606.85
666.13	602.72
666.47	598.66
666.81	594.45
667.15	590.35
667.49	586.34
667.83	582.50
668.17	578.55
668.51	574.47
668.85	570.36
669.19	566.46
669.53	562.60
669.87	558.71
670.21	555.02
670.55	551.26
670.89	547.89
671.23	544.45
671.57	540.88
671.91	537.21
672.25	533.71
672.58	530.16
672.92	526.76
673.26	523.61
673.60	520.40
673.94	517.29
674.28	514.38
674.62	511.47
674.96	508.38
675.30	505.50
675.64	502.53
675.97	499.88
676.31	497.01
676.65	494.08
676.99	491.37
677.33	488.52
677.67	485.73
678.01	482.66
678.34	479.64
678.68	476.84
679.02	474.07
679.36	471.35
679.70	468.66
680.04	465.86
680.37	463.01
680.71	460.19
681.05	457.57
681.39	454.86
681.73	452.28
682.06	449.77
682.40	447.22
682.74	444.75
683.08	442.18
683.42	439.57
683.75	437.06
684.09	434.52
684.43	432.04
684.77	429.60
685.10	427.26
685.44	425.02
685.78	422.73
686.12	420.51
686.45	418.25
686.79	415.99
687.13	413.80
687.46	411.63
687.80	409.51
688.14	407.33
688.48	405.26
688.81	402.95
689.15	400.79
689.49	398.63
689.82	396.55
690.16	394.47
690.50	392.54
690.83	390.64
691.17	388.72
691.51	386.81
691.84	385.00
692.18	383.11
692.52	381.11
692.85	379.19
693.19	377.32
693.52	375.48
693.86	373.72
694.20	371.95
694.53	370.15
694.87	368.37
695.21	366.64
695.54	364.82
695.88	363.13
696.21	361.41
696.55	359.74
696.88	358.02
697.22	356.35
697.56	354.76
697.89	353.08
698.23	351.43
698.56	349.80
698.90	348.19
699.23	346.55
699.57	345.01
699.90	343.47
700.24	341.89
700.58	340.36
700.91	338.78
701.25	337.33
701.58	335.94
701.92	334.52
702.25	333.12
702.59	331.73
702.92	330.42
703.26	329.12
703.59	327.86
703.93	326.71
704.26	325.50
704.60	324.18
704.93	322.90
705.26	321.65
705.60	320.53
705.93	319.37
706.27	318.36
706.60	317.30
706.94	316.18
707.27	315.06
707.61	314.00
707.94	312.98
708.27	311.91
708.61	310.81
708.94	309.79
709.28	308.80
709.61	307.84
709.94	306.90
710.28	305.86
710.61	304.89
710.95	303.79
711.28	302.86
711.61	301.90
711.95	300.98
712.28	300.00
712.61	298.99
712.95	298.05
713.28	297.16
713.61	296.23
713.95	295.34
714.28	294.53
714.61	293.67
714.95	292.84
715.28	291.93
715.61	291.10
715.95	290.26
716.28	289.38
716.61	288.56
716.95	287.69
717.28	286.96
717.61	286.13
717.94	285.42
718.28	284.60
718.61	283.88
718.94	283.18
719.27	282.55
719.61	281.89
719.94	281.27
720.27	280.51
720.60	279.86
720.94	279.25
721.27	278.65
721.60	278.04
721.93	277.43
722.27	276.92
722.60	276.34
722.93	275.79
723.26	275.31
723.59	274.76
723.93	274.22
724.26	273.71
724.59	273.19
724.92	272.66
725.25	272.18
725.59	271.70
725.92	271.20
726.25	270.71
726.58	270.24
726.91	269.72
727.24	269.26
727.57	268.82
727.91	268.32
728.24	267.86
728.57	267.40
728.90	266.95
729.23	266.48
729.56	266.10
729.89	265.62
730.22	265.10
730.55	264.65
730.89	264.20
731.22	263.73
731.55	263.31
731.88	262.91
732.21	262.45
732.54	262.00
732.87	261.57
733.20	261.19
733.53	260.83
733.86	260.47
734.19	260.10
734.52	259.68
734.85	259.40
735.18	258.97
735.51	258.61
735.84	258.25
736.17	257.86
736.50	257.46
736.83	257.23
737.16	256.90
737.49	256.58
737.82	256.27
738.15	255.96
738.48	255.62
738.81	255.31
739.14	255.01
739.47	254.68
739.80	254.38
740.13	254.04
740.46	253.69
740.79	253.33
741.12	253.01
741.45	252.69
741.78	252.32
742.11	252.04
742.44	251.73
742.77	251.44
743.10	251.16
743.43	250.83
743.75	250.44
744.08	250.27
744.41	249.98
744.74	249.67
745.07	249.37
745.40	249.12
745.73	248.89
746.06	248.61
746.39	248.34
746.71	248.03
747.04	247.78
747.37	247.50
747.70	247.28
748.03	246.99
748.36	246.82
748.68	246.57
749.01	246.30
749.34	246.06
749.67	245.79
750.00	245.56
750.33	245.40
750.65	245.20
750.98	244.87
751.31	244.65
751.64	244.46
751.97	244.26
752.29	244.04
752.62	243.73
752.95	243.55
753.28	243.35
753.60	243.17
753.93	242.96
754.26	242.78
754.59	242.58
754.91	242.39
755.24	242.12
755.57	241.94
755.90	241.75
756.22	241.57
756.55	241.40
756.88	241.19
757.20	240.94
757.53	240.73
757.86	240.55
758.19	240.39
758.51	240.26
758.84	240.06
759.17	239.86
759.49	239.74
759.82	239.59
760.15	239.46
760.47	239.32
760.80	239.16
761.13	239.01
761.45	238.83
761.78	238.69
762.11	238.58
762.43	238.43
762.76	238.30
763.08	238.16
763.41	238.03
763.74	237.92
764.06	237.81
764.39	237.66
764.71	237.51
765.04	237.39
765.37	237.24
765.69	237.11
766.02	237.02
766.34	236.90
766.67	236.76
767.00	236.68
767.32	236.63
767.65	236.58
767.97	236.48
768.30	236.38
768.62	236.26
768.95	236.15
769.27	236.03
769.60	235.94
769.92	235.80
770.25	235.68
770.57	235.57
770.90	235.45
771.22	235.36
771.55	235.28
771.87	235.18
772.20	235.05
772.52	235.07
772.85	235.09
773.17	235.01
773.50	234.92
773.82	234.81
774.15	234.66
774.47	234.53
774.80	234.42
775.12	234.33
775.45	234.27
775.77	234.18
776.09	234.11
776.42	234.01
776.74	234.02
777.07	233.95
777.39	233.84
777.72	233.76
778.04	233.74
778.36	233.63
778.69	233.59
779.01	233.52
779.33	233.33
779.66	233.17
779.98	233.08
780.31	233.00
780.63	232.96
780.95	232.90
781.28	232.84
781.60	232.78
781.92	232.71
782.25	232.62
782.57	232.57
782.89	232.51
783.22	232.49
783.54	232.40
783.86	232.35
784.19	232.30
784.51	232.27
784.83	232.17
785.16	232.11
785.48	232.03
785.80	231.99
786.12	231.97
786.45	231.90
786.77	231.88
787.09	231.83
