SpectraSuite Data File
++++++++++++++++++++++++++++++++++++
Date: Fri Feb 01 17:57:07 EST 2013
User: group
Dark Spectrum Present: No
Reference Spectrum Present: No
Number of Sampled Component Spectra: 1
Spectrometers: USB2E7196
Integration Time (usec): 35000 (USB2E7196)
Spectra Averaged: 100 (USB2E7196)
Boxcar Smoothing: 10 (USB2E7196)
Correct for Electrical Dark: No (USB2E7196)
Strobe/Lamp Enabled: No (USB2E7196)
Correct for Detector Non-linearity: No (USB2E7196)
Correct for Stray Light: No (USB2E7196)
Number of Pixels in Processed Spectrum: 2048
>>>>>Begin Processed Spectral Data<<<<<
339.09	0.00
339.48	212.30
339.86	214.34
340.24	214.85
340.63	216.63
341.01	219.64
341.39	219.06
341.78	220.61
342.16	221.71
342.54	222.58
342.93	210.84
343.31	221.48
343.69	222.03
344.07	222.45
344.46	222.89
344.84	223.28
345.22	223.51
345.60	223.77
345.99	223.96
346.37	224.10
346.75	224.18
347.13	224.25
347.52	224.33
347.90	224.46
348.28	224.49
348.66	224.59
349.05	224.59
349.43	224.66
349.81	224.72
350.19	224.75
350.57	224.81
350.96	224.84
351.34	224.94
351.72	225.05
352.10	225.17
352.48	225.23
352.87	225.31
353.25	225.42
353.63	225.48
354.01	225.58
354.39	225.66
354.77	225.75
355.15	225.86
355.54	225.92
355.92	225.95
356.30	226.03
356.68	226.17
357.06	226.27
357.44	226.34
357.82	226.43
358.20	226.54
358.58	226.63
358.97	226.74
359.35	226.84
359.73	226.90
360.11	226.98
360.49	227.07
360.87	227.12
361.25	227.16
361.63	227.27
362.01	227.30
362.39	227.34
362.77	227.41
363.15	227.45
363.53	227.49
363.91	227.52
364.29	227.53
364.67	227.43
365.05	227.46
365.43	227.49
365.81	227.50
366.19	227.55
366.57	227.58
366.95	227.57
367.33	227.53
367.71	227.54
368.09	227.55
368.47	227.54
368.85	227.50
369.23	227.49
369.61	227.42
369.99	227.42
370.37	227.43
370.75	227.45
371.13	227.41
371.51	227.35
371.89	227.35
372.27	227.34
372.65	227.30
373.03	227.24
373.41	227.17
373.78	227.08
374.16	226.97
374.54	226.89
374.92	226.83
375.30	226.78
375.68	226.70
376.06	226.64
376.44	226.58
376.82	226.54
377.19	226.46
377.57	226.41
377.95	226.33
378.33	226.22
378.71	226.09
379.09	226.03
379.47	226.00
379.84	225.90
380.22	225.82
380.60	225.75
380.98	225.70
381.36	225.66
381.73	225.61
382.11	225.57
382.49	225.55
382.87	225.49
383.25	225.48
383.62	225.53
384.00	225.45
384.38	225.40
384.76	225.36
385.13	225.34
385.51	225.29
385.89	225.23
386.27	225.22
386.64	225.21
387.02	225.18
387.40	225.13
387.78	225.09
388.15	225.07
388.53	225.01
388.91	224.98
389.29	224.94
389.66	224.93
390.04	224.86
390.42	224.82
390.79	224.80
391.17	224.74
391.55	224.61
391.92	224.65
392.30	224.64
392.68	224.62
393.05	224.61
393.43	224.63
393.81	224.65
394.18	224.67
394.56	224.67
394.94	224.66
395.31	224.64
395.69	224.70
396.06	224.71
396.44	224.76
396.82	224.79
397.19	224.87
397.57	224.90
397.95	224.96
398.32	224.98
398.70	225.02
399.07	225.10
399.45	225.19
399.82	225.21
400.20	225.25
400.58	225.33
400.95	225.40
401.33	225.49
401.70	225.60
402.08	225.66
402.45	225.76
402.83	225.88
403.20	225.99
403.58	226.07
403.95	226.20
404.33	226.32
404.71	226.44
405.08	226.62
405.46	226.75
405.83	226.92
406.21	227.10
406.58	227.29
406.96	227.43
407.33	227.59
407.70	227.79
408.08	228.10
408.45	228.34
408.83	228.59
409.20	228.83
409.58	229.10
409.95	229.43
410.33	229.78
410.70	230.07
411.08	230.45
411.45	230.86
411.82	231.24
412.20	231.69
412.57	232.22
412.95	232.64
413.32	233.15
413.69	233.68
414.07	234.23
414.44	234.87
414.82	235.54
415.19	236.27
415.56	237.04
415.94	237.75
416.31	238.57
416.68	239.42
417.06	240.40
417.43	241.27
417.81	242.28
418.18	243.30
418.55	244.48
418.93	245.67
419.30	246.88
419.67	248.15
420.04	249.44
420.42	250.78
420.79	252.33
421.16	253.94
421.54	255.54
421.91	257.17
422.28	258.82
422.66	260.57
423.03	262.30
423.40	264.07
423.77	266.00
424.15	267.94
424.52	269.93
424.89	272.09
425.26	274.20
425.64	276.09
426.01	278.25
426.38	280.50
426.75	282.72
427.13	284.97
427.50	287.39
427.87	289.93
428.24	292.43
428.61	294.79
428.99	297.35
429.36	300.20
429.73	302.99
430.10	305.70
430.47	308.50
430.85	311.33
431.22	314.37
431.59	317.55
431.96	320.56
432.33	323.91
432.70	327.08
433.08	330.86
433.45	334.43
433.82	337.85
434.19	341.68
434.56	345.45
434.93	349.06
435.30	352.58
435.68	356.41
436.05	360.25
436.42	364.03
436.79	367.41
437.16	370.98
437.53	374.80
437.90	378.60
438.27	382.30
438.64	386.13
439.01	389.60
439.38	392.62
439.75	395.54
440.13	398.84
440.50	401.95
440.87	404.40
441.24	407.03
441.61	410.01
441.98	412.04
442.35	414.51
442.72	417.03
443.09	419.47
443.46	420.86
443.83	421.62
444.20	422.31
444.57	423.43
444.94	423.86
445.31	424.29
445.68	424.72
446.05	424.79
446.42	424.26
446.79	423.67
447.16	423.10
447.53	422.67
447.90	421.19
448.27	419.69
448.64	417.58
449.01	416.05
449.37	413.38
449.74	410.81
450.11	407.76
450.48	404.45
450.85	401.08
451.22	398.21
451.59	395.47
451.96	392.90
452.33	389.44
452.70	386.24
453.07	382.48
453.43	378.66
453.80	375.00
454.17	371.46
454.54	368.09
454.91	364.44
455.28	360.90
455.65	357.55
456.02	354.21
456.38	351.31
456.75	347.77
457.12	344.77
457.49	341.79
457.86	338.89
458.23	336.37
458.59	333.61
458.96	330.80
459.33	328.32
459.70	325.79
460.07	323.75
460.43	321.44
460.80	319.23
461.17	317.25
461.54	315.21
461.91	313.26
462.27	311.30
462.64	309.59
463.01	307.72
463.38	305.97
463.74	304.16
464.11	302.64
464.48	301.21
464.85	299.70
465.21	298.52
465.58	297.24
465.95	295.71
466.32	294.49
466.68	293.24
467.05	292.02
467.42	290.80
467.78	289.52
468.15	288.33
468.52	287.41
468.88	286.28
469.25	285.23
469.62	284.39
469.98	283.47
470.35	282.59
470.72	281.77
471.08	280.88
471.45	280.14
471.82	279.38
472.18	278.58
472.55	277.99
472.92	277.26
473.28	276.61
473.65	276.02
474.02	275.34
474.38	274.82
474.75	274.36
475.11	273.88
475.48	273.51
475.85	273.18
476.21	272.86
476.58	272.52
476.94	272.27
477.31	271.95
477.67	271.70
478.04	271.49
478.41	271.34
478.77	271.27
479.14	271.11
479.50	271.05
479.87	271.05
480.23	271.03
480.60	271.06
480.96	271.11
481.33	271.29
481.69	271.46
482.06	271.61
482.42	271.76
482.79	271.93
483.15	272.25
483.52	272.60
483.88	272.91
484.25	273.26
484.61	273.67
484.98	274.10
485.34	274.64
485.71	275.21
486.07	275.76
486.44	276.32
486.80	277.05
487.17	277.75
487.53	278.58
487.90	279.45
488.26	280.38
488.62	281.34
488.99	282.33
489.35	283.40
489.72	284.58
490.08	285.81
490.44	287.09
490.81	288.41
491.17	289.78
491.54	291.32
491.90	292.92
492.26	294.62
492.63	296.43
492.99	298.25
493.36	300.26
493.72	302.42
494.08	304.64
494.45	307.01
494.81	309.50
495.17	312.05
495.54	314.77
495.90	317.62
496.26	320.62
496.63	323.78
496.99	327.06
497.35	330.48
497.72	334.12
498.08	337.89
498.44	341.76
498.80	345.93
499.17	350.21
499.53	354.62
499.89	359.28
500.26	364.03
500.62	368.99
500.98	374.23
501.34	379.60
501.71	385.19
502.07	390.92
502.43	396.83
502.79	403.02
503.16	409.47
503.52	416.08
503.88	422.80
504.24	429.72
504.60	437.03
504.97	444.57
505.33	452.34
505.69	460.43
506.05	468.68
506.41	477.10
506.78	485.78
507.14	494.85
507.50	504.07
507.86	513.66
508.22	523.48
508.59	533.31
508.95	543.49
509.31	553.99
509.67	564.74
510.03	575.71
510.39	587.01
510.75	598.52
511.12	610.27
511.48	622.36
511.84	634.69
512.20	646.99
512.56	659.75
512.92	672.70
513.28	685.97
513.64	699.37
514.00	712.96
514.37	726.90
514.73	740.83
515.09	754.82
515.45	769.12
515.81	783.69
516.17	798.67
516.53	813.89
516.89	829.17
517.25	844.48
517.61	860.21
517.97	875.82
518.33	891.34
518.69	907.30
519.05	923.48
519.41	939.89
519.77	956.75
520.13	973.62
520.49	990.34
520.85	1007.08
521.21	1024.19
521.57	1041.87
521.93	1059.05
522.29	1076.95
522.65	1094.70
523.01	1112.50
523.37	1130.16
523.73	1147.91
524.09	1165.46
524.45	1183.26
524.81	1201.53
525.17	1219.75
525.53	1238.36
525.89	1257.03
526.25	1275.51
526.61	1293.67
526.97	1312.12
527.33	1330.39
527.68	1348.61
528.04	1366.90
528.40	1385.22
528.76	1404.11
529.12	1422.50
529.48	1441.19
529.84	1459.03
530.20	1477.63
530.56	1496.38
530.91	1515.76
531.27	1534.46
531.63	1552.93
531.99	1571.58
532.35	1589.60
532.71	1607.62
533.07	1625.77
533.42	1643.56
533.78	1661.78
534.14	1680.10
534.50	1697.58
534.86	1715.54
535.21	1732.92
535.57	1751.07
535.93	1768.70
536.29	1785.58
536.65	1802.73
537.00	1819.49
537.36	1836.88
537.72	1853.33
538.08	1870.07
538.44	1885.87
538.79	1901.92
539.15	1917.74
539.51	1933.63
539.87	1950.11
540.22	1965.87
540.58	1981.88
540.94	1997.35
541.29	2012.22
541.65	2027.16
542.01	2042.48
542.37	2056.89
542.72	2071.43
543.08	2085.36
543.44	2100.09
543.79	2113.61
544.15	2126.71
544.51	2140.66
544.87	2153.92
545.22	2166.92
545.58	2179.21
545.94	2191.17
546.29	2203.16
546.65	2215.30
547.01	2226.58
547.36	2237.31
547.72	2247.85
548.07	2257.76
548.43	2268.04
548.79	2277.97
549.14	2287.39
549.50	2296.71
549.86	2306.24
550.21	2315.55
550.57	2324.77
550.92	2333.12
551.28	2342.00
551.64	2351.04
551.99	2359.41
552.35	2367.45
552.70	2375.56
553.06	2383.45
553.41	2391.56
553.77	2399.33
554.13	2407.10
554.48	2415.22
554.84	2422.63
555.19	2429.70
555.55	2436.55
555.90	2442.75
556.26	2449.66
556.61	2456.07
556.97	2462.15
557.32	2468.13
557.68	2473.83
558.03	2479.62
558.39	2484.93
558.74	2491.26
559.10	2496.85
559.45	2502.17
559.81	2507.94
560.16	2513.17
560.52	2517.85
560.87	2522.64
561.23	2526.65
561.58	2530.98
561.94	2534.89
562.29	2538.37
562.64	2542.47
563.00	2546.36
563.35	2551.23
563.71	2555.54
564.06	2560.09
564.42	2564.22
564.77	2568.06
565.12	2571.69
565.48	2574.92
565.83	2577.99
566.19	2580.44
566.54	2582.04
566.89	2584.23
567.25	2585.80
567.60	2588.27
567.96	2591.05
568.31	2592.94
568.66	2595.16
569.02	2596.59
569.37	2597.66
569.72	2599.53
570.08	2600.53
570.43	2601.29
570.78	2601.54
571.14	2600.63
571.49	2599.88
571.84	2600.07
572.20	2599.33
572.55	2598.81
572.90	2597.48
573.26	2596.56
573.61	2595.06
573.96	2594.09
574.31	2591.36
574.67	2588.67
575.02	2585.22
575.37	2581.97
575.72	2578.33
576.08	2574.91
576.43	2571.65
576.78	2568.21
577.13	2565.01
577.49	2561.87
577.84	2558.46
578.19	2554.48
578.54	2551.09
578.90	2546.83
579.25	2541.06
579.60	2535.93
579.95	2530.69
580.30	2525.44
580.66	2520.04
581.01	2514.83
581.36	2509.57
581.71	2505.07
582.06	2500.34
582.42	2495.57
582.77	2490.02
583.12	2485.24
583.47	2480.42
583.82	2475.26
584.17	2469.46
584.53	2463.54
584.88	2457.59
585.23	2451.41
585.58	2445.43
585.93	2439.20
586.28	2433.78
586.63	2428.40
586.98	2422.93
587.34	2417.88
587.69	2412.45
588.04	2406.82
588.39	2400.73
588.74	2393.50
589.09	2386.63
589.44	2379.16
589.79	2372.28
590.14	2365.95
590.49	2358.51
590.84	2351.32
591.19	2344.55
591.54	2337.41
591.89	2329.28
592.25	2321.69
592.60	2313.53
592.95	2305.18
593.30	2297.06
593.65	2288.59
594.00	2280.57
594.35	2272.32
594.70	2262.98
595.05	2255.02
595.40	2246.60
595.75	2237.91
596.10	2230.89
596.45	2223.41
596.80	2216.49
597.15	2209.09
597.50	2201.15
597.85	2193.71
598.19	2186.11
598.54	2178.16
598.89	2170.50
599.24	2163.61
599.59	2156.06
599.94	2148.82
600.29	2141.53
600.64	2133.80
600.99	2125.37
601.34	2117.54
601.69	2109.48
602.04	2101.73
602.39	2093.23
602.74	2085.27
603.08	2077.55
603.43	2069.71
603.78	2061.14
604.13	2052.65
604.48	2044.33
604.83	2036.25
605.18	2028.37
605.53	2019.24
605.87	2009.76
606.22	2001.30
606.57	1992.12
606.92	1983.13
607.27	1974.88
607.62	1966.81
607.96	1958.37
608.31	1950.75
608.66	1941.76
609.01	1933.02
609.36	1924.23
609.70	1914.93
610.05	1905.67
610.40	1896.72
610.75	1886.97
611.10	1877.99
611.44	1868.15
611.79	1858.69
612.14	1848.64
612.49	1837.83
612.83	1827.80
613.18	1818.28
613.53	1808.81
613.88	1798.86
614.22	1789.35
614.57	1779.16
614.92	1769.76
615.27	1761.07
615.61	1751.19
615.96	1741.74
616.31	1732.71
616.65	1724.00
617.00	1715.04
617.35	1705.96
617.70	1696.23
618.04	1686.26
618.39	1676.66
618.74	1667.84
619.08	1658.04
619.43	1649.10
619.78	1640.94
620.12	1632.76
620.47	1623.93
620.82	1614.33
621.16	1605.58
621.51	1596.63
621.85	1587.68
622.20	1577.70
622.55	1567.71
622.89	1558.53
623.24	1549.55
623.59	1540.73
623.93	1531.76
624.28	1523.17
624.62	1514.25
624.97	1505.73
625.32	1497.71
625.66	1489.26
626.01	1480.72
626.35	1472.14
626.70	1463.06
627.04	1454.03
627.39	1444.74
627.73	1436.12
628.08	1427.93
628.43	1419.45
628.77	1410.88
629.12	1402.08
629.46	1393.65
629.81	1384.86
630.15	1376.37
630.50	1367.81
630.84	1358.38
631.19	1349.12
631.53	1340.34
631.88	1331.54
632.22	1322.76
632.57	1314.28
632.91	1305.60
633.26	1296.91
633.60	1288.09
633.95	1279.66
634.29	1271.28
634.64	1263.44
634.98	1254.79
635.32	1246.42
635.67	1238.63
636.01	1230.80
636.36	1222.88
636.70	1215.20
637.05	1207.66
637.39	1200.05
637.73	1192.52
638.08	1185.54
638.42	1178.50
638.77	1171.05
639.11	1163.41
639.45	1155.95
639.80	1148.16
640.14	1140.74
640.49	1133.18
640.83	1125.93
641.17	1118.79
641.52	1111.48
641.86	1103.98
642.20	1097.10
642.55	1089.80
642.89	1082.21
643.23	1074.55
643.58	1067.89
643.92	1060.76
644.26	1053.63
644.61	1046.56
644.95	1039.54
645.29	1032.10
645.64	1024.32
645.98	1016.83
646.32	1010.05
646.66	1003.02
647.01	996.35
647.35	989.75
647.69	982.98
648.04	976.49
648.38	969.78
648.72	962.90
649.06	955.83
649.41	949.07
649.75	942.23
650.09	935.46
650.43	928.79
650.78	921.70
651.12	914.80
651.46	908.23
651.80	901.74
652.14	895.38
652.49	889.07
652.83	883.14
653.17	876.79
653.51	870.15
653.85	863.88
654.20	857.34
654.54	850.41
654.88	843.77
655.22	837.03
655.56	830.44
655.90	824.13
656.25	818.18
656.59	812.06
656.93	806.15
657.27	800.12
657.61	793.88
657.95	787.95
658.29	782.04
658.64	775.95
658.98	769.73
659.32	763.48
659.66	757.50
660.00	751.38
660.34	745.61
660.68	740.01
661.02	734.29
661.36	728.88
661.70	723.72
662.05	718.62
662.39	713.71
662.73	708.52
663.07	703.46
663.41	698.29
663.75	693.04
664.09	687.76
664.43	682.74
664.77	678.06
665.11	673.15
665.45	668.38
665.79	663.73
666.13	659.06
666.47	654.39
666.81	649.63
667.15	644.92
667.49	640.40
667.83	635.93
668.17	631.30
668.51	626.61
668.85	621.90
669.19	617.47
669.53	613.06
669.87	608.62
670.21	604.39
670.55	600.25
670.89	596.34
671.23	592.35
671.57	588.34
671.91	584.26
672.25	580.19
672.58	576.15
672.92	572.22
673.26	568.55
673.60	564.86
673.94	561.25
674.28	557.87
674.62	554.46
674.96	550.90
675.30	547.54
675.64	544.21
675.97	540.95
676.31	537.68
676.65	534.29
676.99	531.16
677.33	527.88
677.67	524.63
678.01	521.16
678.34	517.83
678.68	514.43
679.02	511.24
679.36	508.11
679.70	505.01
680.04	501.85
680.37	498.54
680.71	495.34
681.05	492.40
681.39	489.27
681.73	486.22
682.06	483.30
682.40	480.45
682.74	477.46
683.08	474.57
683.42	471.56
683.75	468.66
684.09	465.72
684.43	462.83
684.77	459.91
685.10	457.18
685.44	454.46
685.78	451.86
686.12	449.19
686.45	446.47
686.79	443.77
687.13	441.21
687.46	438.68
687.80	436.12
688.14	433.47
688.48	431.13
688.81	428.55
689.15	426.04
689.49	423.50
689.82	421.11
690.16	418.69
690.50	416.45
690.83	414.20
691.17	411.89
691.51	409.73
691.84	407.62
692.18	405.41
692.52	403.14
692.85	400.86
693.19	398.65
693.52	396.54
693.86	394.45
694.20	392.37
694.53	390.30
694.87	388.20
695.21	386.11
695.54	383.97
695.88	381.91
696.21	379.95
696.55	378.02
696.88	376.07
697.22	374.17
697.56	372.28
697.89	370.40
698.23	368.54
698.56	366.66
698.90	364.83
699.23	362.92
699.57	361.13
699.90	359.38
700.24	357.60
700.58	355.84
700.91	354.14
701.25	352.48
701.58	350.93
701.92	349.37
702.25	347.83
702.59	346.23
702.92	344.77
703.26	343.24
703.59	341.76
703.93	340.41
704.26	338.99
704.60	337.49
704.93	335.99
705.26	334.56
705.60	333.15
705.93	331.83
706.27	330.61
706.60	329.42
706.94	328.14
707.27	326.81
707.61	325.60
707.94	324.38
708.27	323.12
708.61	321.84
708.94	320.63
709.28	319.45
709.61	318.38
709.94	317.25
710.28	316.08
710.61	314.95
710.95	313.65
711.28	312.56
711.61	311.46
711.95	310.44
712.28	309.35
712.61	308.21
712.95	307.09
713.28	306.08
713.61	305.03
713.95	304.04
714.28	303.15
714.61	302.14
714.95	301.17
715.28	300.20
715.61	299.19
715.95	298.25
716.28	297.27
716.61	296.29
716.95	295.36
717.28	294.52
717.61	293.64
717.94	292.82
718.28	291.91
718.61	291.07
718.94	290.24
719.27	289.51
719.61	288.81
719.94	288.06
720.27	287.23
720.60	286.45
720.94	285.69
721.27	284.98
721.60	284.36
721.93	283.69
722.27	283.05
722.60	282.43
722.93	281.74
723.26	281.13
723.59	280.48
723.93	279.85
724.26	279.19
724.59	278.54
724.92	277.94
725.25	277.32
725.59	276.72
725.92	276.18
726.25	275.53
726.58	274.95
726.91	274.37
727.24	273.84
727.57	273.28
727.91	272.70
728.24	272.14
728.57	271.53
728.90	270.99
729.23	270.41
729.56	269.91
729.89	269.39
730.22	268.83
730.55	268.28
730.89	267.74
731.22	267.21
731.55	266.73
731.88	266.25
732.21	265.79
732.54	265.30
732.87	264.77
733.20	264.31
733.53	263.85
733.86	263.37
734.19	262.91
734.52	262.45
734.85	262.09
735.18	261.60
735.51	261.23
735.84	260.78
736.17	260.36
736.50	259.88
736.83	259.58
737.16	259.20
737.49	258.84
737.82	258.45
738.15	258.04
738.48	257.62
738.81	257.22
739.14	256.85
739.47	256.47
739.80	256.12
740.13	255.79
740.46	255.42
740.79	255.06
741.12	254.70
741.45	254.35
741.78	253.97
742.11	253.65
742.44	253.25
742.77	252.93
743.10	252.58
743.43	252.22
743.75	251.78
744.08	251.56
744.41	251.19
744.74	250.82
745.07	250.53
745.40	250.23
745.73	249.95
746.06	249.61
746.39	249.30
746.71	248.97
747.04	248.62
747.37	248.30
747.70	248.00
748.03	247.67
748.36	247.39
748.68	247.10
749.01	246.80
749.34	246.55
749.67	246.28
750.00	246.04
750.33	245.83
750.65	245.60
750.98	245.23
751.31	244.98
751.64	244.77
751.97	244.56
752.29	244.28
752.62	243.97
752.95	243.77
753.28	243.55
753.60	243.33
753.93	243.13
754.26	242.92
754.59	242.68
754.91	242.47
755.24	242.26
755.57	242.03
755.90	241.84
756.22	241.62
756.55	241.38
756.88	241.16
757.20	240.93
757.53	240.69
757.86	240.52
758.19	240.37
758.51	240.18
758.84	239.94
759.17	239.75
759.49	239.58
759.82	239.38
760.15	239.22
760.47	239.05
760.80	238.87
761.13	238.73
761.45	238.55
761.78	238.41
762.11	238.24
762.43	238.10
762.76	237.90
763.08	237.76
763.41	237.65
763.74	237.50
764.06	237.35
764.39	237.22
764.71	237.02
765.04	236.83
765.37	236.68
765.69	236.53
766.02	236.40
766.34	236.23
766.67	236.05
767.00	235.90
767.32	235.81
767.65	235.74
767.97	235.61
768.30	235.49
768.62	235.35
768.95	235.22
769.27	235.08
769.60	234.95
769.92	234.78
770.25	234.63
770.57	234.48
770.90	234.37
771.22	234.22
771.55	234.12
771.87	234.04
772.20	233.95
772.52	233.90
772.85	233.91
773.17	233.81
773.50	233.71
773.82	233.63
774.15	233.45
774.47	233.29
774.80	233.16
775.12	233.04
775.45	232.93
775.77	232.81
776.09	232.69
776.42	232.64
776.74	232.59
777.07	232.49
777.39	232.36
777.72	232.21
778.04	232.12
778.36	232.04
778.69	231.92
779.01	231.84
779.33	231.72
779.66	231.50
779.98	231.41
780.31	231.33
780.63	231.28
780.95	231.28
781.28	231.18
781.60	231.11
781.92	231.05
782.25	230.98
782.57	230.91
782.89	230.84
783.22	230.73
783.54	230.64
783.86	230.56
784.19	230.52
784.51	230.52
784.83	230.46
785.16	230.39
785.48	230.32
785.80	230.26
786.12	230.17
786.45	230.16
