SpectraSuite Data File
++++++++++++++++++++++++++++++++++++
Date: Fri Feb 01 17:04:52 EST 2013
User: group
Dark Spectrum Present: No
Reference Spectrum Present: No
Number of Sampled Component Spectra: 1
Spectrometers: USB2E7196
Integration Time (usec): 35000 (USB2E7196)
Spectra Averaged: 100 (USB2E7196)
Boxcar Smoothing: 10 (USB2E7196)
Correct for Electrical Dark: No (USB2E7196)
Strobe/Lamp Enabled: No (USB2E7196)
Correct for Detector Non-linearity: No (USB2E7196)
Correct for Stray Light: No (USB2E7196)
Number of Pixels in Processed Spectrum: 2048
>>>>>Begin Processed Spectral Data<<<<<
339.09	0.00
339.48	213.52
339.86	215.05
340.24	216.20
340.63	217.40
341.01	220.21
341.39	220.53
341.78	221.85
342.16	223.23
342.54	223.39
342.93	211.79
343.31	222.48
343.69	223.01
344.07	223.46
344.46	223.88
344.84	224.28
345.22	224.54
345.60	224.74
345.99	224.92
346.37	225.01
346.75	225.11
347.13	225.21
347.52	225.24
347.90	225.32
348.28	225.34
348.66	225.40
349.05	225.35
349.43	225.37
349.81	225.42
350.19	225.45
350.57	225.54
350.96	225.60
351.34	225.68
351.72	225.75
352.10	225.86
352.48	225.93
352.87	225.98
353.25	226.01
353.63	226.10
354.01	226.17
354.39	226.24
354.77	226.29
355.15	226.38
355.54	226.43
355.92	226.45
356.30	226.51
356.68	226.64
357.06	226.74
357.44	226.79
357.82	226.86
358.20	226.95
358.58	227.01
358.97	227.10
359.35	227.19
359.73	227.27
360.11	227.29
360.49	227.34
360.87	227.39
361.25	227.47
361.63	227.50
362.01	227.58
362.39	227.65
362.77	227.74
363.15	227.76
363.53	227.80
363.91	227.83
364.29	227.90
364.67	227.86
365.05	227.87
365.43	227.94
365.81	227.95
366.19	228.00
366.57	228.02
366.95	228.01
367.33	227.97
367.71	227.97
368.09	228.01
368.47	228.02
368.85	228.01
369.23	228.02
369.61	228.00
369.99	227.99
370.37	227.98
370.75	227.99
371.13	227.94
371.51	227.91
371.89	227.91
372.27	227.88
372.65	227.83
373.03	227.76
373.41	227.72
373.78	227.66
374.16	227.55
374.54	227.48
374.92	227.42
375.30	227.37
375.68	227.31
376.06	227.25
376.44	227.17
376.82	227.10
377.19	227.03
377.57	226.96
377.95	226.84
378.33	226.76
378.71	226.66
379.09	226.62
379.47	226.54
379.84	226.48
380.22	226.39
380.60	226.31
380.98	226.25
381.36	226.14
381.73	226.08
382.11	226.06
382.49	226.02
382.87	225.93
383.25	225.87
383.62	225.93
384.00	225.88
384.38	225.83
384.76	225.78
385.13	225.74
385.51	225.69
385.89	225.65
386.27	225.60
386.64	225.53
387.02	225.48
387.40	225.45
387.78	225.41
388.15	225.39
388.53	225.32
388.91	225.30
389.29	225.29
389.66	225.29
390.04	225.21
390.42	225.20
390.79	225.21
391.17	225.20
391.55	225.06
391.92	225.03
392.30	225.04
392.68	225.03
393.05	225.04
393.43	225.06
393.81	225.10
394.18	225.07
394.56	225.11
394.94	225.11
395.31	225.12
395.69	225.13
396.06	225.13
396.44	225.19
396.82	225.20
397.19	225.26
397.57	225.28
397.95	225.37
398.32	225.40
398.70	225.45
399.07	225.51
399.45	225.58
399.82	225.64
400.20	225.66
400.58	225.71
400.95	225.75
401.33	225.84
401.70	225.92
402.08	226.04
402.45	226.11
402.83	226.25
403.20	226.34
403.58	226.42
403.95	226.52
404.33	226.65
404.71	226.79
405.08	226.95
405.46	227.08
405.83	227.20
406.21	227.35
406.58	227.50
406.96	227.62
407.33	227.79
407.70	227.97
408.08	228.25
408.45	228.46
408.83	228.68
409.20	228.90
409.58	229.09
409.95	229.32
410.33	229.56
410.70	229.77
411.08	230.06
411.45	230.37
411.82	230.72
412.20	231.06
412.57	231.46
412.95	231.74
413.32	232.12
413.69	232.50
414.07	232.92
414.44	233.38
414.82	233.89
415.19	234.41
415.56	234.94
415.94	235.50
416.31	236.14
416.68	236.77
417.06	237.49
417.43	238.19
417.81	238.95
418.18	239.75
418.55	240.62
418.93	241.51
419.30	242.39
419.67	243.30
420.04	244.26
420.42	245.23
420.79	246.39
421.16	247.54
421.54	248.78
421.91	249.97
422.28	251.23
422.66	252.54
423.03	253.83
423.40	255.15
423.77	256.53
424.15	257.92
424.52	259.38
424.89	260.97
425.26	262.52
425.64	263.95
426.01	265.54
426.38	267.18
426.75	268.85
427.13	270.59
427.50	272.36
427.87	274.21
428.24	276.05
428.61	277.79
428.99	279.74
429.36	281.80
429.73	283.85
430.10	285.86
430.47	287.86
430.85	289.94
431.22	292.15
431.59	294.46
431.96	296.65
432.33	299.15
432.70	301.48
433.08	304.19
433.45	306.81
433.82	309.37
434.19	312.18
434.56	314.94
434.93	317.55
435.30	320.18
435.68	323.06
436.05	325.88
436.42	328.65
436.79	331.11
437.16	333.80
437.53	336.60
437.90	339.38
438.27	342.11
438.64	344.93
439.01	347.54
439.38	349.80
439.75	351.94
440.13	354.35
440.50	356.67
440.87	358.54
441.24	360.47
441.61	362.62
441.98	364.13
442.35	365.92
442.72	367.75
443.09	369.51
443.46	370.49
443.83	371.12
444.20	371.64
444.57	372.47
444.94	372.75
445.31	373.08
445.68	373.41
446.05	373.56
446.42	373.21
446.79	372.80
447.16	372.37
447.53	372.10
447.90	370.98
448.27	369.87
448.64	368.34
449.01	367.19
449.37	365.23
449.74	363.34
450.11	361.13
450.48	358.72
450.85	356.25
451.22	354.14
451.59	352.08
451.96	350.15
452.33	347.64
452.70	345.30
453.07	342.54
453.43	339.67
453.80	336.94
454.17	334.27
454.54	331.74
454.91	329.07
455.28	326.49
455.65	324.02
456.02	321.57
456.38	319.44
456.75	316.82
457.12	314.63
457.49	312.46
457.86	310.30
458.23	308.47
458.59	306.44
458.96	304.37
459.33	302.55
459.70	300.73
460.07	299.21
460.43	297.50
460.80	295.89
461.17	294.48
461.54	292.94
461.91	291.57
462.27	290.14
462.64	288.89
463.01	287.50
463.38	286.27
463.74	284.91
464.11	283.75
464.48	282.76
464.85	281.63
465.21	280.78
465.58	279.82
465.95	278.76
466.32	277.87
466.68	276.96
467.05	276.09
467.42	275.18
467.78	274.25
468.15	273.40
468.52	272.71
468.88	271.86
469.25	271.10
469.62	270.45
469.98	269.76
470.35	269.13
470.72	268.55
471.08	267.89
471.45	267.36
471.82	266.85
472.18	266.24
472.55	265.81
472.92	265.26
473.28	264.85
473.65	264.35
474.02	263.93
474.38	263.58
474.75	263.27
475.11	262.96
475.48	262.68
475.85	262.45
476.21	262.25
476.58	262.10
476.94	262.03
477.31	261.88
477.67	261.75
478.04	261.69
478.41	261.64
478.77	261.68
479.14	261.60
479.50	261.60
479.87	261.68
480.23	261.77
480.60	261.87
480.96	261.98
481.33	262.22
481.69	262.42
482.06	262.61
482.42	262.80
482.79	263.09
483.15	263.40
483.52	263.78
483.88	264.11
484.25	264.50
484.61	264.87
484.98	265.33
485.34	265.89
485.71	266.46
486.07	267.01
486.44	267.57
486.80	268.29
487.17	269.03
487.53	269.86
487.90	270.69
488.26	271.56
488.62	272.54
488.99	273.49
489.35	274.53
489.72	275.69
490.08	276.89
490.44	278.08
490.81	279.43
491.17	280.82
491.54	282.34
491.90	283.89
492.26	285.52
492.63	287.25
492.99	289.04
493.36	290.88
493.72	292.95
494.08	295.04
494.45	297.30
494.81	299.65
495.17	302.10
495.54	304.71
495.90	307.44
496.26	310.26
496.63	313.22
496.99	316.28
497.35	319.48
497.72	322.87
498.08	326.40
498.44	330.07
498.80	333.95
499.17	337.98
499.53	342.09
499.89	346.45
500.26	350.90
500.62	355.57
500.98	360.52
501.34	365.61
501.71	370.94
502.07	376.36
502.43	381.96
502.79	387.75
503.16	393.71
503.52	399.90
503.88	406.30
504.24	412.94
504.60	419.76
504.97	426.84
505.33	434.09
505.69	441.73
506.05	449.41
506.41	457.21
506.78	465.22
507.14	473.55
507.50	482.21
507.86	491.14
508.22	500.24
508.59	509.27
508.95	518.74
509.31	528.46
509.67	538.35
510.03	548.51
510.39	558.90
510.75	569.63
511.12	580.48
511.48	591.57
511.84	602.82
512.20	614.18
512.56	625.94
512.92	637.88
513.28	650.06
513.64	662.41
514.00	675.02
514.37	687.79
514.73	700.68
515.09	713.47
515.45	726.54
515.81	739.81
516.17	753.63
516.53	767.44
516.89	781.40
517.25	795.40
517.61	809.53
517.97	823.68
518.33	837.85
518.69	852.34
519.05	867.05
519.41	882.01
519.77	897.18
520.13	912.32
520.49	927.57
520.85	942.60
521.21	957.92
521.57	973.75
521.93	989.21
522.29	1005.12
522.65	1021.04
523.01	1036.83
523.37	1052.56
523.73	1068.38
524.09	1084.10
524.45	1100.01
524.81	1116.20
525.17	1132.54
525.53	1149.01
525.89	1165.54
526.25	1182.08
526.61	1198.02
526.97	1214.29
527.33	1230.42
527.68	1246.58
528.04	1262.65
528.40	1278.80
528.76	1295.44
529.12	1311.53
529.48	1328.02
529.84	1343.76
530.20	1359.92
530.56	1376.56
530.91	1393.56
531.27	1409.94
531.63	1426.12
531.99	1442.25
532.35	1457.92
532.71	1473.48
533.07	1489.42
533.42	1504.93
533.78	1520.44
534.14	1536.39
534.50	1551.48
534.86	1567.10
535.21	1581.98
535.57	1597.39
535.93	1612.57
536.29	1626.97
536.65	1641.59
537.00	1655.93
537.36	1670.84
537.72	1685.04
538.08	1699.14
538.44	1712.59
538.79	1726.09
539.15	1739.29
539.51	1752.72
539.87	1766.76
540.22	1780.15
540.58	1793.43
540.94	1806.38
541.29	1818.86
541.65	1831.20
542.01	1843.99
542.37	1855.94
542.72	1868.04
543.08	1879.61
543.44	1891.77
543.79	1902.82
544.15	1913.58
544.51	1924.91
544.87	1935.57
545.22	1946.39
545.58	1956.35
545.94	1965.89
546.29	1975.52
546.65	1985.30
547.01	1994.35
547.36	2002.89
547.72	2011.21
548.07	2019.16
548.43	2027.11
548.79	2034.98
549.14	2042.52
549.50	2049.57
549.86	2057.15
550.21	2064.48
550.57	2071.63
550.92	2078.17
551.28	2085.15
551.64	2092.27
551.99	2098.65
552.35	2104.85
552.70	2110.78
553.06	2116.85
553.41	2123.29
553.77	2129.32
554.13	2135.40
554.48	2141.50
554.84	2146.98
555.19	2152.23
555.55	2157.35
555.90	2161.89
556.26	2167.03
556.61	2171.70
556.97	2176.31
557.32	2180.50
557.68	2184.67
558.03	2188.95
558.39	2192.59
558.74	2197.22
559.10	2201.07
559.45	2204.92
559.81	2209.27
560.16	2213.15
560.52	2216.38
560.87	2219.76
561.23	2222.51
561.58	2225.38
561.94	2228.02
562.29	2230.42
562.64	2233.19
563.00	2235.78
563.35	2239.35
563.71	2242.49
564.06	2245.66
564.42	2248.62
564.77	2251.31
565.12	2253.75
565.48	2255.76
565.83	2257.78
566.19	2259.32
566.54	2260.36
566.89	2261.60
567.25	2262.47
567.60	2263.99
567.96	2266.02
568.31	2266.98
568.66	2268.33
569.02	2269.22
569.37	2269.66
569.72	2270.67
570.08	2271.23
570.43	2271.49
570.78	2271.26
571.14	2269.99
571.49	2268.97
571.84	2268.74
572.20	2267.78
572.55	2266.87
572.90	2265.32
573.26	2264.10
573.61	2262.44
573.96	2261.11
574.31	2258.29
574.67	2255.48
575.02	2252.08
575.37	2248.62
575.72	2245.14
576.08	2241.79
576.43	2238.62
576.78	2235.38
577.13	2232.40
577.49	2229.27
577.84	2226.04
578.19	2222.39
578.54	2219.00
578.90	2214.97
579.25	2209.68
579.60	2204.99
579.95	2200.20
580.30	2195.55
580.66	2190.68
581.01	2185.98
581.36	2181.23
581.71	2177.44
582.06	2173.23
582.42	2168.98
582.77	2164.16
583.12	2159.86
583.47	2155.60
583.82	2150.90
584.17	2145.79
584.53	2140.51
584.88	2135.20
585.23	2129.75
585.58	2124.49
585.93	2119.19
586.28	2114.66
586.63	2109.84
586.98	2104.96
587.34	2100.37
587.69	2095.71
588.04	2090.68
588.39	2085.28
588.74	2078.94
589.09	2072.99
589.44	2066.46
589.79	2060.51
590.14	2055.00
590.49	2048.56
590.84	2042.26
591.19	2036.35
591.54	2030.05
591.89	2023.04
592.25	2016.54
592.60	2009.47
592.95	2002.24
593.30	1995.15
593.65	1987.74
594.00	1980.85
594.35	1973.74
594.70	1965.87
595.05	1958.91
595.40	1951.81
595.75	1944.50
596.10	1938.53
596.45	1931.98
596.80	1925.99
597.15	1919.70
597.50	1913.01
597.85	1906.76
598.19	1900.35
598.54	1893.54
598.89	1887.07
599.24	1881.28
599.59	1874.83
599.94	1868.63
600.29	1862.34
600.64	1855.78
600.99	1848.47
601.34	1841.79
601.69	1834.92
602.04	1828.35
602.39	1821.18
602.74	1814.49
603.08	1807.96
603.43	1801.39
603.78	1794.09
604.13	1786.94
604.48	1779.77
604.83	1772.84
605.18	1766.10
605.53	1758.32
605.87	1750.41
606.22	1743.32
606.57	1735.46
606.92	1728.04
607.27	1721.18
607.62	1714.49
607.96	1707.40
608.31	1701.08
608.66	1693.66
609.01	1686.32
609.36	1678.85
609.70	1670.92
610.05	1662.95
610.40	1655.31
610.75	1647.10
611.10	1639.69
611.44	1631.28
611.79	1623.32
612.14	1614.91
612.49	1605.78
612.83	1597.38
613.18	1589.23
613.53	1581.15
613.88	1572.73
614.22	1564.62
614.57	1555.96
614.92	1547.94
615.27	1540.51
615.61	1532.20
615.96	1524.12
616.31	1516.46
616.65	1509.05
617.00	1501.51
617.35	1493.93
617.70	1485.73
618.04	1477.38
618.39	1469.04
618.74	1461.66
619.08	1453.42
619.43	1445.74
619.78	1438.82
620.12	1431.78
620.47	1424.37
620.82	1416.30
621.16	1408.83
621.51	1401.22
621.85	1393.73
622.20	1385.26
622.55	1376.86
622.89	1369.09
623.24	1361.44
623.59	1354.03
623.93	1346.64
624.28	1339.51
624.62	1332.02
624.97	1324.84
625.32	1317.88
625.66	1310.99
626.01	1303.83
626.35	1296.49
626.70	1288.70
627.04	1281.10
627.39	1273.24
627.73	1265.84
628.08	1258.98
628.43	1251.84
628.77	1244.66
629.12	1237.14
629.46	1229.99
629.81	1222.59
630.15	1215.24
630.50	1208.10
630.84	1199.99
631.19	1192.03
631.53	1184.52
631.88	1177.02
632.22	1169.49
632.57	1162.31
632.91	1154.72
633.26	1147.34
633.60	1139.92
633.95	1132.91
634.29	1125.77
634.64	1119.15
634.98	1111.84
635.32	1104.76
635.67	1098.09
636.01	1091.40
636.36	1084.64
636.70	1078.06
637.05	1071.51
637.39	1065.20
637.73	1058.60
638.08	1052.72
638.42	1046.79
638.77	1040.41
639.11	1033.83
639.45	1027.51
639.80	1020.85
640.14	1014.57
640.49	1008.11
640.83	1001.87
641.17	995.70
641.52	989.44
641.86	983.01
642.20	977.20
642.55	970.83
642.89	964.43
643.23	957.84
643.58	952.05
643.92	945.94
644.26	940.08
644.61	934.01
644.95	928.06
645.29	921.56
645.64	914.85
645.98	908.57
646.32	902.79
646.66	896.73
647.01	890.99
647.35	885.32
647.69	879.31
648.04	873.74
648.38	868.02
648.72	862.19
649.06	856.18
649.41	850.30
649.75	844.41
650.09	838.55
650.43	832.86
650.78	826.76
651.12	820.91
651.46	815.15
651.80	809.53
652.14	804.19
652.49	798.89
652.83	793.79
653.17	788.12
653.51	782.43
653.85	777.03
654.20	771.51
654.54	765.48
654.88	759.83
655.22	753.98
655.56	748.28
655.90	742.81
656.25	737.64
656.59	732.31
656.93	727.26
657.27	722.13
657.61	716.69
657.95	711.68
658.29	706.56
658.64	701.26
658.98	695.93
659.32	690.50
659.66	685.31
660.00	680.03
660.34	675.13
660.68	670.26
661.02	665.23
661.36	660.47
661.70	656.05
662.05	651.81
662.39	647.55
662.73	643.09
663.07	638.74
663.41	634.30
663.75	629.89
664.09	625.29
664.43	620.87
664.77	616.85
665.11	612.57
665.45	608.53
665.79	604.53
666.13	600.41
666.47	596.29
666.81	592.18
667.15	588.06
667.49	584.14
667.83	580.31
668.17	576.44
668.51	572.38
668.85	568.36
669.19	564.46
669.53	560.73
669.87	556.89
670.21	553.18
670.55	549.53
670.89	546.10
671.23	542.77
671.57	539.30
671.91	535.75
672.25	532.22
672.58	528.68
672.92	525.24
673.26	522.11
673.60	519.02
673.94	515.91
674.28	512.95
674.62	510.01
674.96	506.93
675.30	504.01
675.64	501.12
675.97	498.34
676.31	495.45
676.65	492.53
676.99	489.90
677.33	487.04
677.67	484.24
678.01	481.18
678.34	478.18
678.68	475.26
679.02	472.48
679.36	469.73
679.70	467.02
680.04	464.31
680.37	461.45
680.71	458.57
681.05	455.94
681.39	453.27
681.73	450.63
682.06	448.09
682.40	445.58
682.74	443.08
683.08	440.56
683.42	438.03
683.75	435.48
684.09	432.87
684.43	430.42
684.77	427.96
685.10	425.63
685.44	423.31
685.78	421.09
686.12	418.84
686.45	416.58
686.79	414.30
687.13	412.14
687.46	409.95
687.80	407.86
688.14	405.62
688.48	403.58
688.81	401.38
689.15	399.23
689.49	397.05
689.82	394.98
690.16	392.89
690.50	390.92
690.83	388.96
691.17	386.96
691.51	385.07
691.84	383.27
692.18	381.35
692.52	379.40
692.85	377.38
693.19	375.44
693.52	373.61
693.86	371.78
694.20	369.95
694.53	368.22
694.87	366.35
695.21	364.60
695.54	362.74
695.88	361.00
696.21	359.30
696.55	357.67
696.88	355.98
697.22	354.34
697.56	352.73
697.89	351.07
698.23	349.51
698.56	347.89
698.90	346.30
699.23	344.71
699.57	343.15
699.90	341.66
700.24	340.15
700.58	338.62
700.91	337.15
701.25	335.71
701.58	334.29
701.92	332.94
702.25	331.56
702.59	330.22
702.92	328.89
703.26	327.58
703.59	326.28
703.93	325.11
704.26	323.85
704.60	322.54
704.93	321.30
705.26	320.07
705.60	318.89
705.93	317.72
706.27	316.67
706.60	315.63
706.94	314.53
707.27	313.40
707.61	312.36
707.94	311.35
708.27	310.24
708.61	309.16
708.94	308.16
709.28	307.19
709.61	306.22
709.94	305.28
710.28	304.25
710.61	303.28
710.95	302.20
711.28	301.32
711.61	300.40
711.95	299.47
712.28	298.52
712.61	297.54
712.95	296.63
713.28	295.73
713.61	294.83
713.95	293.97
714.28	293.12
714.61	292.24
714.95	291.38
715.28	290.54
715.61	289.66
715.95	288.80
716.28	287.95
716.61	287.14
716.95	286.32
717.28	285.59
717.61	284.80
717.94	284.08
718.28	283.28
718.61	282.53
718.94	281.85
719.27	281.19
719.61	280.53
719.94	279.80
720.27	279.09
720.60	278.44
720.94	277.81
721.27	277.25
721.60	276.69
721.93	276.12
722.27	275.59
722.60	275.03
722.93	274.44
723.26	273.90
723.59	273.33
723.93	272.80
724.26	272.24
724.59	271.71
724.92	271.14
725.25	270.64
725.59	270.13
725.92	269.61
726.25	269.09
726.58	268.59
726.91	268.16
727.24	267.69
727.57	267.19
727.91	266.67
728.24	266.19
728.57	265.67
728.90	265.21
729.23	264.69
729.56	264.29
729.89	263.83
730.22	263.36
730.55	262.91
730.89	262.47
731.22	262.01
731.55	261.55
731.88	261.15
732.21	260.72
732.54	260.31
732.87	259.85
733.20	259.42
733.53	259.03
733.86	258.65
734.19	258.26
734.52	257.89
734.85	257.59
735.18	257.19
735.51	256.88
735.84	256.49
736.17	256.16
736.50	255.76
736.83	255.56
737.16	255.21
737.49	254.88
737.82	254.53
738.15	254.20
738.48	253.86
738.81	253.48
739.14	253.13
739.47	252.80
739.80	252.49
740.13	252.20
740.46	251.86
740.79	251.49
741.12	251.16
741.45	250.85
741.78	250.51
742.11	250.24
742.44	249.86
742.77	249.60
743.10	249.29
743.43	249.02
743.75	248.61
744.08	248.48
744.41	248.20
744.74	247.88
745.07	247.61
745.40	247.35
745.73	247.16
746.06	246.88
746.39	246.64
746.71	246.39
747.04	246.13
747.37	245.90
747.70	245.71
748.03	245.46
748.36	245.28
748.68	245.02
749.01	244.76
749.34	244.55
749.67	244.30
750.00	244.08
750.33	243.89
750.65	243.70
750.98	243.33
751.31	243.10
751.64	242.89
751.97	242.75
752.29	242.55
752.62	242.32
752.95	242.13
753.28	241.90
753.60	241.69
753.93	241.54
754.26	241.36
754.59	241.11
754.91	240.90
755.24	240.66
755.57	240.50
755.90	240.34
756.22	240.15
756.55	239.91
756.88	239.72
757.20	239.44
757.53	239.24
757.86	239.06
758.19	238.93
758.51	238.78
758.84	238.55
759.17	238.36
759.49	238.19
759.82	238.05
760.15	237.89
760.47	237.76
760.80	237.51
761.13	237.37
761.45	237.20
761.78	237.03
762.11	236.84
762.43	236.67
762.76	236.50
763.08	236.37
763.41	236.28
763.74	236.11
764.06	235.98
764.39	235.84
764.71	235.70
765.04	235.54
765.37	235.39
765.69	235.24
766.02	235.09
766.34	234.99
766.67	234.86
767.00	234.75
767.32	234.68
767.65	234.67
767.97	234.50
768.30	234.40
768.62	234.32
768.95	234.22
769.27	234.13
769.60	234.02
769.92	233.87
770.25	233.73
770.57	233.62
770.90	233.53
771.22	233.39
771.55	233.29
771.87	233.21
772.20	233.15
772.52	233.17
772.85	233.20
773.17	233.07
773.50	232.95
773.82	232.87
774.15	232.70
774.47	232.53
774.80	232.47
775.12	232.41
775.45	232.33
775.77	232.26
776.09	232.15
776.42	232.05
776.74	232.05
777.07	231.95
777.39	231.86
777.72	231.78
778.04	231.75
778.36	231.69
778.69	231.63
779.01	231.53
779.33	231.35
779.66	231.17
779.98	231.09
780.31	231.06
780.63	231.01
780.95	230.99
781.28	230.94
781.60	230.89
781.92	230.79
782.25	230.74
782.57	230.68
782.89	230.62
783.22	230.58
783.54	230.51
783.86	230.49
784.19	230.47
784.51	230.46
784.83	230.38
785.16	230.33
785.48	230.26
785.80	230.24
786.12	230.21
786.45	230.17
786.77	230.18
787.09	230.11
