SpectraSuite Data File
++++++++++++++++++++++++++++++++++++
Date: Fri Feb 01 16:06:34 EST 2013
User: group
Dark Spectrum Present: No
Reference Spectrum Present: No
Number of Sampled Component Spectra: 1
Spectrometers: USB2E7196
Integration Time (usec): 35000 (USB2E7196)
Spectra Averaged: 100 (USB2E7196)
Boxcar Smoothing: 10 (USB2E7196)
Correct for Electrical Dark: No (USB2E7196)
Strobe/Lamp Enabled: No (USB2E7196)
Correct for Detector Non-linearity: No (USB2E7196)
Correct for Stray Light: No (USB2E7196)
Number of Pixels in Processed Spectrum: 2048
>>>>>Begin Processed Spectral Data<<<<<
339.09	0.00
339.48	214.54
339.86	216.26
340.24	217.25
340.63	218.97
341.01	221.76
341.39	221.63
341.78	223.01
342.16	224.20
342.54	225.31
342.93	212.99
343.31	223.73
343.69	224.25
344.07	224.71
344.46	225.12
344.84	225.50
345.22	225.75
345.60	225.99
345.99	226.15
346.37	226.26
346.75	226.30
347.13	226.37
347.52	226.42
347.90	226.50
348.28	226.57
348.66	226.62
349.05	226.62
349.43	226.62
349.81	226.68
350.19	226.67
350.57	226.75
350.96	226.83
351.34	226.92
351.72	227.01
352.10	227.09
352.48	227.19
352.87	227.24
353.25	227.30
353.63	227.38
354.01	227.48
354.39	227.55
354.77	227.62
355.15	227.69
355.54	227.74
355.92	227.76
356.30	227.80
356.68	227.92
357.06	228.02
357.44	228.10
357.82	228.15
358.20	228.23
358.58	228.29
358.97	228.31
359.35	228.39
359.73	228.48
360.11	228.54
360.49	228.59
360.87	228.65
361.25	228.70
361.63	228.74
362.01	228.74
362.39	228.76
362.77	228.81
363.15	228.84
363.53	228.88
363.91	228.90
364.29	228.92
364.67	228.87
365.05	228.87
365.43	228.92
365.81	228.91
366.19	228.92
366.57	228.93
366.95	228.95
367.33	228.91
367.71	228.88
368.09	228.88
368.47	228.86
368.85	228.84
369.23	228.84
369.61	228.79
369.99	228.83
370.37	228.84
370.75	228.85
371.13	228.81
371.51	228.78
371.89	228.73
372.27	228.72
372.65	228.67
373.03	228.61
373.41	228.55
373.78	228.48
374.16	228.40
374.54	228.35
374.92	228.29
375.30	228.26
375.68	228.20
376.06	228.14
376.44	228.08
376.82	227.98
377.19	227.89
377.57	227.82
377.95	227.72
378.33	227.66
378.71	227.55
379.09	227.49
379.47	227.42
379.84	227.35
380.22	227.23
380.60	227.16
380.98	227.08
381.36	226.98
381.73	226.90
382.11	226.88
382.49	226.83
382.87	226.73
383.25	226.67
383.62	226.70
384.00	226.63
384.38	226.57
384.76	226.60
385.13	226.58
385.51	226.51
385.89	226.44
386.27	226.39
386.64	226.35
387.02	226.34
387.40	226.33
387.78	226.27
388.15	226.30
388.53	226.26
388.91	226.27
389.29	226.28
389.66	226.28
390.04	226.23
390.42	226.19
390.79	226.19
391.17	226.17
391.55	226.09
391.92	226.07
392.30	226.09
392.68	226.06
393.05	226.08
393.43	226.10
393.81	226.12
394.18	226.08
394.56	226.10
394.94	226.14
395.31	226.15
395.69	226.26
396.06	226.26
396.44	226.29
396.82	226.35
397.19	226.44
397.57	226.46
397.95	226.50
398.32	226.56
398.70	226.63
399.07	226.73
399.45	226.79
399.82	226.86
400.20	226.92
400.58	226.99
400.95	227.02
401.33	227.17
401.70	227.30
402.08	227.42
402.45	227.52
402.83	227.64
403.20	227.72
403.58	227.81
403.95	227.97
404.33	228.12
404.71	228.22
405.08	228.40
405.46	228.55
405.83	228.72
406.21	228.83
406.58	228.97
406.96	229.10
407.33	229.28
407.70	229.48
408.08	229.71
408.45	229.92
408.83	230.14
409.20	230.32
409.58	230.52
409.95	230.78
410.33	231.07
410.70	231.33
411.08	231.65
411.45	231.95
411.82	232.27
412.20	232.59
412.57	233.01
412.95	233.28
413.32	233.71
413.69	234.10
414.07	234.61
414.44	235.10
414.82	235.59
415.19	236.11
415.56	236.70
415.94	237.26
416.31	237.86
416.68	238.49
417.06	239.20
417.43	239.88
417.81	240.66
418.18	241.42
418.55	242.25
418.93	243.12
419.30	244.03
419.67	244.95
420.04	245.89
420.42	246.87
420.79	248.04
421.16	249.15
421.54	250.35
421.91	251.54
422.28	252.83
422.66	254.16
423.03	255.49
423.40	256.75
423.77	258.15
424.15	259.63
424.52	261.14
424.89	262.75
425.26	264.31
425.64	265.75
426.01	267.35
426.38	269.01
426.75	270.67
427.13	272.35
427.50	274.12
427.87	276.01
428.24	277.84
428.61	279.58
428.99	281.50
429.36	283.62
429.73	285.67
430.10	287.65
430.47	289.72
430.85	291.84
431.22	294.12
431.59	296.52
431.96	298.74
432.33	301.22
432.70	303.57
433.08	306.38
433.45	309.04
433.82	311.59
434.19	314.45
434.56	317.25
434.93	319.93
435.30	322.60
435.68	325.49
436.05	328.33
436.42	331.15
436.79	333.68
437.16	336.34
437.53	339.17
437.90	341.94
438.27	344.63
438.64	347.44
439.01	350.02
439.38	352.26
439.75	354.41
440.13	356.89
440.50	359.22
440.87	361.05
441.24	362.99
441.61	365.19
441.98	366.69
442.35	368.52
442.72	370.34
443.09	372.16
443.46	373.13
443.83	373.73
444.20	374.22
444.57	375.06
444.94	375.33
445.31	375.63
445.68	376.04
446.05	376.16
446.42	375.82
446.79	375.40
447.16	374.92
447.53	374.61
447.90	373.45
448.27	372.27
448.64	370.68
449.01	369.50
449.37	367.55
449.74	365.66
450.11	363.37
450.48	360.91
450.85	358.33
451.22	356.27
451.59	354.21
451.96	352.26
452.33	349.66
452.70	347.29
453.07	344.49
453.43	341.59
453.80	338.81
454.17	336.12
454.54	333.58
454.91	330.88
455.28	328.19
455.65	325.67
456.02	323.26
456.38	321.15
456.75	318.51
457.12	316.22
457.49	313.97
457.86	311.83
458.23	310.02
458.59	308.00
458.96	305.89
459.33	304.03
459.70	302.16
460.07	300.68
460.43	299.03
460.80	297.41
461.17	296.00
461.54	294.49
461.91	293.05
462.27	291.63
462.64	290.36
463.01	289.01
463.38	287.76
463.74	286.40
464.11	285.27
464.48	284.27
464.85	283.17
465.21	282.33
465.58	281.42
465.95	280.31
466.32	279.39
466.68	278.49
467.05	277.63
467.42	276.74
467.78	275.82
468.15	274.94
468.52	274.32
468.88	273.39
469.25	272.62
469.62	271.98
469.98	271.28
470.35	270.65
470.72	270.06
471.08	269.41
471.45	268.92
471.82	268.33
472.18	267.71
472.55	267.26
472.92	266.73
473.28	266.27
473.65	265.79
474.02	265.34
474.38	264.97
474.75	264.65
475.11	264.32
475.48	264.04
475.85	263.79
476.21	263.53
476.58	263.37
476.94	263.24
477.31	263.11
477.67	262.98
478.04	262.88
478.41	262.79
478.77	262.82
479.14	262.74
479.50	262.78
479.87	262.87
480.23	262.99
480.60	263.04
480.96	263.13
481.33	263.37
481.69	263.57
482.06	263.76
482.42	263.98
482.79	264.23
483.15	264.52
483.52	264.88
483.88	265.22
484.25	265.61
484.61	266.07
484.98	266.51
485.34	267.10
485.71	267.75
486.07	268.35
486.44	268.92
486.80	269.66
487.17	270.34
487.53	271.16
487.90	271.99
488.26	272.96
488.62	273.95
488.99	274.93
489.35	275.99
489.72	277.16
490.08	278.36
490.44	279.65
490.81	280.99
491.17	282.35
491.54	283.84
491.90	285.37
492.26	287.03
492.63	288.76
492.99	290.52
493.36	292.38
493.72	294.45
494.08	296.54
494.45	298.81
494.81	301.22
495.17	303.64
495.54	306.24
495.90	308.91
496.26	311.73
496.63	314.69
496.99	317.81
497.35	321.03
497.72	324.44
498.08	327.94
498.44	331.70
498.80	335.68
499.17	339.72
499.53	343.92
499.89	348.31
500.26	352.81
500.62	357.47
500.98	362.42
501.34	367.54
501.71	372.93
502.07	378.32
502.43	383.90
502.79	389.75
503.16	395.78
503.52	402.05
503.88	408.42
504.24	415.08
504.60	421.97
504.97	429.14
505.33	436.50
505.69	444.20
506.05	451.96
506.41	459.79
506.78	467.99
507.14	476.43
507.50	485.14
507.86	494.19
508.22	503.35
508.59	512.52
508.95	522.12
509.31	531.90
509.67	542.04
510.03	552.35
510.39	562.86
510.75	573.74
511.12	584.71
511.48	596.07
511.84	607.45
512.20	618.98
512.56	630.94
512.92	643.07
513.28	655.33
513.64	667.86
514.00	680.61
514.37	693.52
514.73	706.66
515.09	719.76
515.45	733.03
515.81	746.67
516.17	760.68
516.53	774.71
516.89	788.90
517.25	803.04
517.61	817.44
517.97	831.92
518.33	846.32
518.69	861.07
519.05	875.99
519.41	891.13
519.77	906.68
520.13	922.02
520.49	937.47
520.85	952.91
521.21	968.50
521.57	984.67
521.93	1000.40
522.29	1016.66
522.65	1032.79
523.01	1049.09
523.37	1065.08
523.73	1081.23
524.09	1097.40
524.45	1113.58
524.81	1130.25
525.17	1147.03
525.53	1163.97
525.89	1180.84
526.25	1197.64
526.61	1213.93
526.97	1230.70
527.33	1247.12
527.68	1263.72
528.04	1280.11
528.40	1296.76
528.76	1313.83
529.12	1330.29
529.48	1347.21
529.84	1363.21
530.20	1379.82
530.56	1396.73
530.91	1414.00
531.27	1430.71
531.63	1447.13
531.99	1463.79
532.35	1479.66
532.71	1495.54
533.07	1511.67
533.42	1527.40
533.78	1543.37
534.14	1559.64
534.50	1574.95
534.86	1590.79
535.21	1605.93
535.57	1621.83
535.93	1637.31
536.29	1652.01
536.65	1667.20
537.00	1681.84
537.36	1697.01
537.72	1711.55
538.08	1726.01
538.44	1739.90
538.79	1753.72
539.15	1767.25
539.51	1780.87
539.87	1795.27
540.22	1809.08
540.58	1822.77
540.94	1836.04
541.29	1849.00
541.65	1861.68
542.01	1874.88
542.37	1887.15
542.72	1899.49
543.08	1911.20
543.44	1923.49
543.79	1934.70
544.15	1945.55
544.51	1957.15
544.87	1968.22
545.22	1978.88
545.58	1988.92
545.94	1998.53
546.29	2008.44
546.65	2018.22
547.01	2027.55
547.36	2036.04
547.72	2044.39
548.07	2052.25
548.43	2060.43
548.79	2068.29
549.14	2075.83
549.50	2083.05
549.86	2090.74
550.21	2098.10
550.57	2105.25
550.92	2111.75
551.28	2118.76
551.64	2125.79
551.99	2132.21
552.35	2138.33
552.70	2144.54
553.06	2150.57
553.41	2156.85
553.77	2162.94
554.13	2169.15
554.48	2175.21
554.84	2180.73
555.19	2185.93
555.55	2191.24
555.90	2195.79
556.26	2200.82
556.61	2205.41
556.97	2209.77
557.32	2213.81
557.68	2218.00
558.03	2222.41
558.39	2226.20
558.74	2230.83
559.10	2234.78
559.45	2238.53
559.81	2242.75
560.16	2246.45
560.52	2249.49
560.87	2253.13
561.23	2255.66
561.58	2258.57
561.94	2261.05
562.29	2263.41
562.64	2266.11
563.00	2268.63
563.35	2272.13
563.71	2275.17
564.06	2278.52
564.42	2281.36
564.77	2283.98
565.12	2286.27
565.48	2288.08
565.83	2289.90
566.19	2291.06
566.54	2291.88
566.89	2292.95
567.25	2293.47
567.60	2294.99
567.96	2296.79
568.31	2297.52
568.66	2298.71
569.02	2299.21
569.37	2299.59
569.72	2300.61
570.08	2300.79
570.43	2300.67
570.78	2300.08
571.14	2298.53
571.49	2297.24
571.84	2297.04
572.20	2295.83
572.55	2294.75
572.90	2293.16
573.26	2291.76
573.61	2290.29
573.96	2288.74
574.31	2285.80
574.67	2282.85
575.02	2279.23
575.37	2275.89
575.72	2272.17
576.08	2268.80
576.43	2265.49
576.78	2261.85
577.13	2258.59
577.49	2255.50
577.84	2252.06
578.19	2248.21
578.54	2244.63
578.90	2240.42
579.25	2234.79
579.60	2229.80
579.95	2224.80
580.30	2219.87
580.66	2214.67
581.01	2209.80
581.36	2204.84
581.71	2200.72
582.06	2196.40
582.42	2191.98
582.77	2186.80
583.12	2182.24
583.47	2177.54
583.82	2172.67
584.17	2167.42
584.53	2161.86
584.88	2156.30
585.23	2150.58
585.58	2145.16
585.93	2139.64
586.28	2134.87
586.63	2129.94
586.98	2125.01
587.34	2120.41
587.69	2115.53
588.04	2110.41
588.39	2104.58
588.74	2098.00
589.09	2091.97
589.44	2085.09
589.79	2078.95
590.14	2073.32
590.49	2066.67
590.84	2060.21
591.19	2054.11
591.54	2047.59
591.89	2040.33
592.25	2033.53
592.60	2026.47
592.95	2018.97
593.30	2011.73
593.65	2004.13
594.00	1997.03
594.35	1989.79
594.70	1981.72
595.05	1974.51
595.40	1967.21
595.75	1959.91
596.10	1953.73
596.45	1946.87
596.80	1940.72
597.15	1934.13
597.50	1927.04
597.85	1920.71
598.19	1914.22
598.54	1907.18
598.89	1900.64
599.24	1894.81
599.59	1888.12
599.94	1881.81
600.29	1875.53
600.64	1868.88
600.99	1861.41
601.34	1854.60
601.69	1847.73
602.04	1840.82
602.39	1833.51
602.74	1826.76
603.08	1819.96
603.43	1813.34
603.78	1806.02
604.13	1798.90
604.48	1791.59
604.83	1784.76
605.18	1777.83
605.53	1769.81
605.87	1761.68
606.22	1754.52
606.57	1746.52
606.92	1739.12
607.27	1732.04
607.62	1725.06
607.96	1717.93
608.31	1711.44
608.66	1703.79
609.01	1696.14
609.36	1688.67
609.70	1680.61
610.05	1672.58
610.40	1664.89
610.75	1656.47
611.10	1648.90
611.44	1640.45
611.79	1632.50
612.14	1623.89
612.49	1614.58
612.83	1606.17
613.18	1598.20
613.53	1590.13
613.88	1581.56
614.22	1573.42
614.57	1564.73
614.92	1556.83
615.27	1549.31
615.61	1540.84
615.96	1532.87
616.31	1525.24
616.65	1517.75
617.00	1510.19
617.35	1502.41
617.70	1494.14
618.04	1485.62
618.39	1477.33
618.74	1469.78
619.08	1461.41
619.43	1453.81
619.78	1447.08
620.12	1439.88
620.47	1432.25
620.82	1424.06
621.16	1416.68
621.51	1409.04
621.85	1401.52
622.20	1392.91
622.55	1384.36
622.89	1376.57
623.24	1368.92
623.59	1361.55
623.93	1354.04
624.28	1346.84
624.62	1339.23
624.97	1332.06
625.32	1325.43
625.66	1318.50
626.01	1311.33
626.35	1304.00
626.70	1296.11
627.04	1288.30
627.39	1280.56
627.73	1273.29
628.08	1266.36
628.43	1259.00
628.77	1251.62
629.12	1243.98
629.46	1236.85
629.81	1229.46
630.15	1222.21
630.50	1214.72
630.84	1206.42
631.19	1198.51
631.53	1190.97
631.88	1183.49
632.22	1175.80
632.57	1168.43
632.91	1160.83
633.26	1153.32
633.60	1145.91
633.95	1138.85
634.29	1131.80
634.64	1125.14
634.98	1117.70
635.32	1110.44
635.67	1103.84
636.01	1097.18
636.36	1090.34
636.70	1083.82
637.05	1077.29
637.39	1070.84
637.73	1064.34
638.08	1058.53
638.42	1052.52
638.77	1046.06
639.11	1039.53
639.45	1033.09
639.80	1026.40
640.14	1019.94
640.49	1013.52
640.83	1007.27
641.17	1001.05
641.52	994.64
641.86	988.09
642.20	982.23
642.55	975.92
642.89	969.51
643.23	962.94
643.58	957.17
643.92	950.97
644.26	944.89
644.61	938.84
644.95	932.85
645.29	926.25
645.64	919.46
645.98	913.15
646.32	907.27
646.66	901.21
647.01	895.38
647.35	889.71
647.69	883.74
648.04	878.09
648.38	872.28
648.72	866.33
649.06	860.38
649.41	854.51
649.75	848.59
650.09	842.65
650.43	836.88
650.78	830.73
651.12	824.74
651.46	819.05
651.80	813.33
652.14	807.94
652.49	802.61
652.83	797.51
653.17	791.90
653.51	786.18
653.85	780.82
654.20	775.20
654.54	769.20
654.88	763.52
655.22	757.65
655.56	751.98
655.90	746.51
656.25	741.21
656.59	735.81
656.93	730.76
657.27	725.50
657.61	720.07
657.95	715.07
658.29	710.00
658.64	704.67
658.98	699.31
659.32	693.81
659.66	688.58
660.00	683.29
660.34	678.24
660.68	673.33
661.02	668.36
661.36	663.66
661.70	659.13
662.05	654.79
662.39	650.49
662.73	645.99
663.07	641.70
663.41	637.28
663.75	632.78
664.09	628.16
664.43	623.78
664.77	619.62
665.11	615.27
665.45	611.19
665.79	607.16
666.13	603.05
666.47	598.98
666.81	594.73
667.15	590.61
667.49	586.71
667.83	582.87
668.17	578.86
668.51	574.75
668.85	570.73
669.19	566.83
669.53	563.00
669.87	559.15
670.21	555.38
670.55	551.69
670.89	548.34
671.23	544.91
671.57	541.36
671.91	537.86
672.25	534.36
672.58	530.77
672.92	527.29
673.26	524.13
673.60	520.98
673.94	517.90
674.28	514.92
674.62	511.99
674.96	508.89
675.30	506.03
675.64	503.13
675.97	500.36
676.31	497.53
676.65	494.58
676.99	491.86
677.33	489.00
677.67	486.16
678.01	483.03
678.34	480.07
678.68	477.26
679.02	474.41
679.36	471.66
679.70	468.93
680.04	466.22
680.37	463.36
680.71	460.52
681.05	457.93
681.39	455.24
681.73	452.57
682.06	450.03
682.40	447.43
682.74	444.88
683.08	442.30
683.42	439.72
683.75	437.23
684.09	434.66
684.43	432.20
684.77	429.76
685.10	427.46
685.44	425.14
685.78	422.90
686.12	420.65
686.45	418.36
686.79	416.06
687.13	413.83
687.46	411.61
687.80	409.47
688.14	407.21
688.48	405.14
688.81	402.90
689.15	400.73
689.49	398.59
689.82	396.54
690.16	394.52
690.50	392.55
690.83	390.61
691.17	388.67
691.51	386.74
691.84	384.90
692.18	382.91
692.52	380.89
692.85	378.88
693.19	377.02
693.52	375.20
693.86	373.39
694.20	371.62
694.53	369.85
694.87	368.01
695.21	366.25
695.54	364.41
695.88	362.68
696.21	360.93
696.55	359.26
696.88	357.54
697.22	355.81
697.56	354.15
697.89	352.47
698.23	350.88
698.56	349.30
698.90	347.73
699.23	346.18
699.57	344.71
699.90	343.21
700.24	341.66
700.58	340.15
700.91	338.66
701.25	337.23
701.58	335.85
701.92	334.50
702.25	333.11
702.59	331.73
702.92	330.44
703.26	329.19
703.59	327.93
703.93	326.73
704.26	325.54
704.60	324.24
704.93	322.99
705.26	321.68
705.60	320.49
705.93	319.31
706.27	318.25
706.60	317.15
706.94	316.07
707.27	314.95
707.61	313.87
707.94	312.82
708.27	311.70
708.61	310.60
708.94	309.60
709.28	308.65
709.61	307.74
709.94	306.73
710.28	305.72
710.61	304.75
710.95	303.67
711.28	302.78
711.61	301.87
711.95	300.95
712.28	300.00
712.61	298.98
712.95	298.05
713.28	297.16
713.61	296.26
713.95	295.36
714.28	294.47
714.61	293.58
714.95	292.76
715.28	291.92
715.61	291.06
715.95	290.18
716.28	289.31
716.61	288.45
716.95	287.66
717.28	286.89
717.61	286.09
717.94	285.37
718.28	284.51
718.61	283.77
718.94	283.08
719.27	282.45
719.61	281.83
719.94	281.15
720.27	280.41
720.60	279.74
720.94	279.10
721.27	278.50
721.60	277.93
721.93	277.28
722.27	276.73
722.60	276.17
722.93	275.63
723.26	275.12
723.59	274.57
723.93	273.99
724.26	273.40
724.59	272.84
724.92	272.31
725.25	271.81
725.59	271.30
725.92	270.78
726.25	270.24
726.58	269.76
726.91	269.28
727.24	268.84
727.57	268.38
727.91	267.86
728.24	267.41
728.57	266.91
728.90	266.49
729.23	266.01
729.56	265.57
729.89	265.08
730.22	264.57
730.55	264.09
730.89	263.66
731.22	263.27
731.55	262.84
731.88	262.43
732.21	262.00
732.54	261.54
732.87	261.11
733.20	260.75
733.53	260.37
733.86	259.99
734.19	259.56
734.52	259.16
734.85	258.88
735.18	258.44
735.51	258.10
735.84	257.69
736.17	257.35
736.50	256.96
736.83	256.76
737.16	256.42
737.49	256.10
737.82	255.77
738.15	255.43
738.48	255.07
738.81	254.76
739.14	254.45
739.47	254.15
739.80	253.86
740.13	253.53
740.46	253.16
740.79	252.85
741.12	252.60
741.45	252.32
741.78	251.94
742.11	251.70
742.44	251.39
742.77	251.10
743.10	250.83
743.43	250.51
743.75	250.08
744.08	249.94
744.41	249.66
744.74	249.37
745.07	249.08
745.40	248.85
745.73	248.59
746.06	248.33
746.39	248.09
746.71	247.83
747.04	247.60
747.37	247.37
747.70	247.09
748.03	246.82
748.36	246.59
748.68	246.37
749.01	246.11
749.34	245.86
749.67	245.66
750.00	245.41
750.33	245.26
750.65	245.09
750.98	244.75
751.31	244.54
751.64	244.34
751.97	244.24
752.29	244.00
752.62	243.77
752.95	243.55
753.28	243.35
753.60	243.13
753.93	242.95
754.26	242.73
754.59	242.52
754.91	242.30
755.24	242.10
755.57	241.91
755.90	241.74
756.22	241.56
756.55	241.36
756.88	241.17
757.20	240.98
757.53	240.75
757.86	240.60
758.19	240.46
758.51	240.29
758.84	240.04
759.17	239.87
759.49	239.72
759.82	239.60
760.15	239.42
760.47	239.27
760.80	239.09
761.13	238.97
761.45	238.81
761.78	238.67
762.11	238.54
762.43	238.36
762.76	238.18
763.08	238.05
763.41	237.92
763.74	237.79
764.06	237.64
764.39	237.53
764.71	237.33
765.04	237.17
765.37	237.04
765.69	236.91
766.02	236.78
766.34	236.61
766.67	236.44
767.00	236.33
767.32	236.26
767.65	236.19
767.97	236.06
768.30	235.96
768.62	235.83
768.95	235.69
769.27	235.59
769.60	235.56
769.92	235.46
770.25	235.36
770.57	235.22
770.90	235.09
771.22	234.97
771.55	234.91
771.87	234.80
772.20	234.71
772.52	234.67
772.85	234.69
773.17	234.62
773.50	234.56
773.82	234.47
774.15	234.32
774.47	234.14
774.80	234.07
775.12	233.96
775.45	233.89
775.77	233.81
776.09	233.75
776.42	233.66
776.74	233.60
777.07	233.50
777.39	233.45
777.72	233.38
778.04	233.32
778.36	233.25
778.69	233.19
779.01	233.10
779.33	232.98
779.66	232.84
779.98	232.76
780.31	232.71
780.63	232.69
780.95	232.68
781.28	232.63
781.60	232.57
781.92	232.54
782.25	232.46
782.57	232.41
782.89	232.36
783.22	232.28
783.54	232.23
783.86	232.20
784.19	232.15
784.51	232.15
784.83	232.05
785.16	232.00
785.48	231.93
785.80	231.91
786.12	231.88
786.45	231.83
786.77	231.80
787.09	231.71
