SpectraSuite Data File
++++++++++++++++++++++++++++++++++++
Date: Fri Feb 01 17:54:57 EST 2013
User: group
Dark Spectrum Present: No
Reference Spectrum Present: No
Number of Sampled Component Spectra: 1
Spectrometers: USB2E7196
Integration Time (usec): 35000 (USB2E7196)
Spectra Averaged: 100 (USB2E7196)
Boxcar Smoothing: 10 (USB2E7196)
Correct for Electrical Dark: No (USB2E7196)
Strobe/Lamp Enabled: No (USB2E7196)
Correct for Detector Non-linearity: No (USB2E7196)
Correct for Stray Light: No (USB2E7196)
Number of Pixels in Processed Spectrum: 2048
>>>>>Begin Processed Spectral Data<<<<<
339.09	0.00
339.48	212.34
339.86	213.85
340.24	215.38
340.63	216.70
341.01	219.92
341.39	219.40
341.78	220.51
342.16	221.96
342.54	222.45
342.93	210.99
343.31	221.68
343.69	222.27
344.07	222.76
344.46	223.19
344.84	223.60
345.22	223.84
345.60	224.11
345.99	224.31
346.37	224.45
346.75	224.55
347.13	224.67
347.52	224.73
347.90	224.81
348.28	224.82
348.66	224.88
349.05	224.87
349.43	224.95
349.81	225.04
350.19	225.07
350.57	225.14
350.96	225.25
351.34	225.30
351.72	225.39
352.10	225.49
352.48	225.57
352.87	225.63
353.25	225.68
353.63	225.73
354.01	225.83
354.39	225.90
354.77	225.99
355.15	226.08
355.54	226.11
355.92	226.15
356.30	226.23
356.68	226.35
357.06	226.42
357.44	226.43
357.82	226.46
358.20	226.54
358.58	226.59
358.97	226.62
359.35	226.70
359.73	226.75
360.11	226.78
360.49	226.82
360.87	226.87
361.25	226.91
361.63	226.98
362.01	227.00
362.39	227.04
362.77	227.08
363.15	227.11
363.53	227.16
363.91	227.18
364.29	227.21
364.67	227.10
365.05	227.12
365.43	227.15
365.81	227.20
366.19	227.25
366.57	227.26
366.95	227.26
367.33	227.25
367.71	227.21
368.09	227.19
368.47	227.19
368.85	227.14
369.23	227.17
369.61	227.13
369.99	227.15
370.37	227.12
370.75	227.12
371.13	227.06
371.51	227.00
371.89	227.00
372.27	226.96
372.65	226.95
373.03	226.91
373.41	226.83
373.78	226.73
374.16	226.61
374.54	226.54
374.92	226.49
375.30	226.43
375.68	226.39
376.06	226.37
376.44	226.30
376.82	226.25
377.19	226.16
377.57	226.06
377.95	225.93
378.33	225.89
378.71	225.80
379.09	225.75
379.47	225.71
379.84	225.64
380.22	225.56
380.60	225.49
380.98	225.41
381.36	225.37
381.73	225.34
382.11	225.31
382.49	225.28
382.87	225.21
383.25	225.18
383.62	225.20
384.00	225.11
384.38	225.04
384.76	225.03
385.13	225.03
385.51	224.99
385.89	224.97
386.27	224.91
386.64	224.86
387.02	224.81
387.40	224.80
387.78	224.77
388.15	224.74
388.53	224.71
388.91	224.69
389.29	224.68
389.66	224.67
390.04	224.64
390.42	224.64
390.79	224.64
391.17	224.57
391.55	224.44
391.92	224.43
392.30	224.45
392.68	224.41
393.05	224.40
393.43	224.40
393.81	224.42
394.18	224.43
394.56	224.46
394.94	224.48
395.31	224.44
395.69	224.49
396.06	224.52
396.44	224.55
396.82	224.56
397.19	224.64
397.57	224.66
397.95	224.71
398.32	224.74
398.70	224.75
399.07	224.83
399.45	224.90
399.82	224.96
400.20	225.02
400.58	225.10
400.95	225.10
401.33	225.22
401.70	225.34
402.08	225.42
402.45	225.46
402.83	225.59
403.20	225.72
403.58	225.79
403.95	225.92
404.33	226.09
404.71	226.22
405.08	226.39
405.46	226.54
405.83	226.69
406.21	226.84
406.58	227.06
406.96	227.26
407.33	227.46
407.70	227.73
408.08	228.05
408.45	228.32
408.83	228.64
409.20	228.85
409.58	229.07
409.95	229.43
410.33	229.80
410.70	230.12
411.08	230.50
411.45	230.92
411.82	231.34
412.20	231.77
412.57	232.31
412.95	232.71
413.32	233.24
413.69	233.78
414.07	234.35
414.44	234.93
414.82	235.53
415.19	236.28
415.56	237.01
415.94	237.72
416.31	238.58
416.68	239.42
417.06	240.37
417.43	241.31
417.81	242.32
418.18	243.35
418.55	244.44
418.93	245.60
419.30	246.80
419.67	248.00
420.04	249.31
420.42	250.58
420.79	252.16
421.16	253.68
421.54	255.23
421.91	256.86
422.28	258.55
422.66	260.38
423.03	262.10
423.40	263.86
423.77	265.76
424.15	267.64
424.52	269.61
424.89	271.78
425.26	273.86
425.64	275.79
426.01	277.91
426.38	280.15
426.75	282.35
427.13	284.65
427.50	287.12
427.87	289.62
428.24	292.16
428.61	294.52
428.99	297.14
429.36	299.97
429.73	302.71
430.10	305.45
430.47	308.15
430.85	311.01
431.22	314.01
431.59	317.13
431.96	320.09
432.33	323.44
432.70	326.58
433.08	330.26
433.45	333.75
433.82	337.20
434.19	341.03
434.56	344.80
434.93	348.33
435.30	351.79
435.68	355.55
436.05	359.30
436.42	362.99
436.79	366.33
437.16	369.90
437.53	373.69
437.90	377.41
438.27	381.06
438.64	384.79
439.01	388.27
439.38	391.28
439.75	394.21
440.13	397.49
440.50	400.62
440.87	403.16
441.24	405.79
441.61	408.73
441.98	410.75
442.35	413.16
442.72	415.66
443.09	418.07
443.46	419.49
443.83	420.32
444.20	421.06
444.57	422.21
444.94	422.63
445.31	423.12
445.68	423.52
446.05	423.68
446.42	423.17
446.79	422.57
447.16	422.00
447.53	421.59
447.90	420.11
448.27	418.59
448.64	416.46
449.01	414.94
449.37	412.32
449.74	409.79
450.11	406.80
450.48	403.47
450.85	400.15
451.22	397.29
451.59	394.53
451.96	391.93
452.33	388.45
452.70	385.32
453.07	381.55
453.43	377.75
453.80	374.03
454.17	370.48
454.54	367.12
454.91	363.48
455.28	359.88
455.65	356.56
456.02	353.24
456.38	350.38
456.75	346.80
457.12	343.78
457.49	340.79
457.86	337.89
458.23	335.42
458.59	332.64
458.96	329.83
459.33	327.39
459.70	324.87
460.07	322.86
460.43	320.49
460.80	318.29
461.17	316.36
461.54	314.34
461.91	312.43
462.27	310.50
462.64	308.81
463.01	306.99
463.38	305.19
463.74	303.41
464.11	301.83
464.48	300.44
464.85	298.96
465.21	297.78
465.58	296.54
465.95	295.04
466.32	293.79
466.68	292.55
467.05	291.31
467.42	290.10
467.78	288.81
468.15	287.67
468.52	286.76
468.88	285.56
469.25	284.53
469.62	283.64
469.98	282.70
470.35	281.87
470.72	281.03
471.08	280.16
471.45	279.44
471.82	278.70
472.18	277.90
472.55	277.29
472.92	276.57
473.28	275.92
473.65	275.35
474.02	274.76
474.38	274.23
474.75	273.78
475.11	273.28
475.48	272.90
475.85	272.55
476.21	272.24
476.58	271.96
476.94	271.72
477.31	271.46
477.67	271.22
478.04	270.98
478.41	270.87
478.77	270.81
479.14	270.65
479.50	270.55
479.87	270.54
480.23	270.55
480.60	270.52
480.96	270.55
481.33	270.73
481.69	270.88
482.06	271.05
482.42	271.21
482.79	271.38
483.15	271.69
483.52	272.05
483.88	272.36
484.25	272.73
484.61	273.13
484.98	273.54
485.34	274.09
485.71	274.68
486.07	275.24
486.44	275.79
486.80	276.48
487.17	277.25
487.53	278.08
487.90	278.94
488.26	279.91
488.62	280.91
488.99	281.92
489.35	283.00
489.72	284.15
490.08	285.37
490.44	286.69
490.81	288.04
491.17	289.41
491.54	290.93
491.90	292.53
492.26	294.24
492.63	296.07
492.99	297.91
493.36	299.90
493.72	302.08
494.08	304.30
494.45	306.65
494.81	309.10
495.17	311.65
495.54	314.38
495.90	317.17
496.26	320.10
496.63	323.21
496.99	326.49
497.35	329.92
497.72	333.53
498.08	337.22
498.44	341.11
498.80	345.25
499.17	349.52
499.53	353.95
499.89	358.60
500.26	363.36
500.62	368.28
500.98	373.53
501.34	378.90
501.71	384.52
502.07	390.31
502.43	396.24
502.79	402.39
503.16	408.83
503.52	415.51
503.88	422.33
504.24	429.33
504.60	436.61
504.97	444.18
505.33	451.92
505.69	460.11
506.05	468.37
506.41	476.70
506.78	485.39
507.14	494.31
507.50	503.58
507.86	513.18
508.22	522.95
508.59	532.74
508.95	542.88
509.31	553.35
509.67	564.08
510.03	575.07
510.39	586.36
510.75	597.86
511.12	609.49
511.48	621.49
511.84	633.74
512.20	646.05
512.56	658.80
512.92	671.73
513.28	685.02
513.64	698.37
514.00	712.05
514.37	725.97
514.73	739.99
515.09	753.92
515.45	768.23
515.81	782.80
516.17	797.76
516.53	812.96
516.89	828.23
517.25	843.51
517.61	859.12
517.97	874.75
518.33	890.29
518.69	906.26
519.05	922.47
519.41	938.88
519.77	955.69
520.13	972.49
520.49	989.25
520.85	1005.82
521.21	1022.78
521.57	1040.41
521.93	1057.47
522.29	1075.30
522.65	1093.07
523.01	1110.65
523.37	1128.23
523.73	1145.92
524.09	1163.55
524.45	1181.37
524.81	1199.56
525.17	1217.77
525.53	1236.16
525.89	1254.75
526.25	1273.26
526.61	1291.38
526.97	1309.80
527.33	1327.89
527.68	1346.02
528.04	1364.28
528.40	1382.58
528.76	1401.49
529.12	1419.87
529.48	1438.52
529.84	1456.26
530.20	1474.58
530.56	1493.50
530.91	1512.77
531.27	1531.42
531.63	1549.75
531.99	1568.35
532.35	1586.23
532.71	1604.14
533.07	1622.35
533.42	1640.25
533.78	1658.39
534.14	1676.64
534.50	1694.07
534.86	1712.02
535.21	1729.25
535.57	1747.16
535.93	1764.78
536.29	1781.48
536.65	1798.46
537.00	1815.35
537.36	1832.82
537.72	1849.50
538.08	1866.00
538.44	1881.87
538.79	1897.85
539.15	1913.51
539.51	1929.22
539.87	1945.77
540.22	1961.55
540.58	1977.47
540.94	1992.74
541.29	2007.56
541.65	2022.42
542.01	2037.73
542.37	2052.17
542.72	2066.71
543.08	2080.74
543.44	2095.27
543.79	2108.76
544.15	2121.89
544.51	2135.67
544.87	2148.69
545.22	2161.64
545.58	2173.90
545.94	2185.69
546.29	2197.76
546.65	2209.82
547.01	2221.17
547.36	2231.82
547.72	2242.45
548.07	2252.42
548.43	2262.69
548.79	2272.58
549.14	2282.07
549.50	2291.09
549.86	2300.63
550.21	2309.91
550.57	2318.94
550.92	2327.43
551.28	2336.40
551.64	2345.46
551.99	2353.80
552.35	2361.93
552.70	2369.90
553.06	2377.79
553.41	2386.16
553.77	2393.67
554.13	2401.42
554.48	2409.29
554.84	2416.72
555.19	2423.55
555.55	2430.40
555.90	2436.47
556.26	2443.24
556.61	2449.54
556.97	2455.84
557.32	2461.64
557.68	2467.45
558.03	2473.28
558.39	2478.44
558.74	2484.57
559.10	2489.99
559.45	2495.10
559.81	2500.59
560.16	2505.87
560.52	2510.59
560.87	2515.13
561.23	2519.19
561.58	2523.50
561.94	2527.43
562.29	2530.81
562.64	2534.99
563.00	2538.70
563.35	2543.63
563.71	2548.13
564.06	2552.49
564.42	2556.46
564.77	2560.30
565.12	2563.86
565.48	2566.99
565.83	2570.12
566.19	2572.58
566.54	2574.24
566.89	2576.44
567.25	2578.21
567.60	2580.41
567.96	2583.17
568.31	2585.01
568.66	2587.24
569.02	2588.75
569.37	2589.84
569.72	2591.80
570.08	2592.75
570.43	2593.74
570.78	2593.89
571.14	2592.68
571.49	2591.79
571.84	2591.99
572.20	2591.39
572.55	2590.84
572.90	2589.46
573.26	2588.38
573.61	2587.00
573.96	2585.79
574.31	2583.01
574.67	2580.25
575.02	2576.73
575.37	2573.32
575.72	2569.84
576.08	2566.45
576.43	2563.03
576.78	2559.56
577.13	2556.26
577.49	2553.10
577.84	2549.57
578.19	2545.65
578.54	2542.22
578.90	2538.25
579.25	2532.46
579.60	2527.24
579.95	2522.00
580.30	2516.86
580.66	2511.37
581.01	2506.17
581.36	2500.86
581.71	2496.62
582.06	2492.13
582.42	2487.59
582.77	2482.00
583.12	2477.09
583.47	2472.36
583.82	2467.30
584.17	2461.60
584.53	2455.71
584.88	2449.64
585.23	2443.50
585.58	2437.51
585.93	2431.42
586.28	2425.96
586.63	2420.65
586.98	2415.14
587.34	2409.94
587.69	2404.61
588.04	2399.01
588.39	2392.88
588.74	2385.95
589.09	2379.20
589.44	2371.70
589.79	2364.79
590.14	2358.56
590.49	2351.25
590.84	2343.91
591.19	2337.19
591.54	2329.98
591.89	2321.97
592.25	2314.46
592.60	2306.26
592.95	2297.97
593.30	2289.82
593.65	2281.17
594.00	2273.19
594.35	2265.11
594.70	2255.72
595.05	2247.80
595.40	2239.58
595.75	2231.05
596.10	2224.00
596.45	2216.40
596.80	2209.23
597.15	2201.97
597.50	2194.17
597.85	2186.79
598.19	2179.35
598.54	2171.43
598.89	2163.84
599.24	2156.86
599.59	2149.43
599.94	2142.14
600.29	2134.79
600.64	2127.12
600.99	2118.77
601.34	2111.06
601.69	2102.86
602.04	2095.32
602.39	2086.81
602.74	2078.96
603.08	2071.23
603.43	2063.36
603.78	2054.83
604.13	2046.62
604.48	2038.29
604.83	2030.18
605.18	2022.28
605.53	2013.19
605.87	2003.79
606.22	1995.34
606.57	1986.23
606.92	1977.39
607.27	1969.19
607.62	1961.16
607.96	1952.98
608.31	1945.44
608.66	1936.39
609.01	1927.86
609.36	1919.12
609.70	1909.64
610.05	1900.34
610.40	1891.39
610.75	1881.72
611.10	1872.74
611.44	1862.79
611.79	1853.21
612.14	1843.16
612.49	1832.40
612.83	1822.39
613.18	1812.84
613.53	1803.48
613.88	1793.51
614.22	1783.88
614.57	1773.67
614.92	1764.35
615.27	1755.49
615.61	1745.80
615.96	1736.45
616.31	1727.43
616.65	1718.74
617.00	1710.05
617.35	1701.04
617.70	1691.45
618.04	1681.52
618.39	1671.96
618.74	1663.18
619.08	1653.50
619.43	1644.60
619.78	1636.34
620.12	1628.04
620.47	1619.31
620.82	1609.61
621.16	1600.81
621.51	1591.82
621.85	1583.02
622.20	1572.97
622.55	1563.04
622.89	1553.80
623.24	1544.75
623.59	1535.84
623.93	1527.05
624.28	1518.49
624.62	1509.70
624.97	1501.15
625.32	1493.16
625.66	1484.88
626.01	1476.53
626.35	1468.06
626.70	1458.92
627.04	1450.03
627.39	1440.90
627.73	1432.25
628.08	1424.17
628.43	1415.77
628.77	1407.39
629.12	1398.65
629.46	1390.29
629.81	1381.57
630.15	1373.22
630.50	1364.75
630.84	1355.43
631.19	1346.08
631.53	1337.25
631.88	1328.40
632.22	1319.51
632.57	1311.05
632.91	1302.16
633.26	1293.46
633.60	1284.68
633.95	1276.28
634.29	1267.93
634.64	1260.03
634.98	1251.41
635.32	1243.12
635.67	1235.32
636.01	1227.49
636.36	1219.55
636.70	1211.96
637.05	1204.33
637.39	1196.65
637.73	1189.00
638.08	1182.03
638.42	1175.06
638.77	1167.71
639.11	1160.07
639.45	1152.65
639.80	1144.98
640.14	1137.67
640.49	1130.19
640.83	1122.89
641.17	1115.83
641.52	1108.56
641.86	1101.21
642.20	1094.41
642.55	1087.04
642.89	1079.60
643.23	1071.99
643.58	1065.28
643.92	1058.11
644.26	1051.13
644.61	1044.13
644.95	1037.23
645.29	1029.72
645.64	1021.96
645.98	1014.49
646.32	1007.62
646.66	1000.64
647.01	994.00
647.35	987.39
647.69	980.48
648.04	974.15
648.38	967.45
648.72	960.67
649.06	953.65
649.41	946.79
649.75	940.04
650.09	933.22
650.43	926.54
650.78	919.52
651.12	912.72
651.46	906.10
651.80	899.64
652.14	893.38
652.49	887.13
652.83	881.24
653.17	874.87
653.51	868.38
653.85	862.17
654.20	855.61
654.54	848.68
654.88	842.07
655.22	835.23
655.56	828.63
655.90	822.34
656.25	816.34
656.59	810.22
656.93	804.43
657.27	798.48
657.61	792.19
657.95	786.30
658.29	780.38
658.64	774.33
658.98	768.12
659.32	761.83
659.66	755.90
660.00	749.77
660.34	744.02
660.68	738.31
661.02	732.54
661.36	727.10
661.70	721.99
662.05	717.09
662.39	712.12
662.73	706.99
663.07	701.84
663.41	696.71
663.75	691.58
664.09	686.19
664.43	681.19
664.77	676.55
665.11	671.66
665.45	666.93
665.79	662.28
666.13	657.61
666.47	652.91
666.81	648.14
667.15	643.42
667.49	638.93
667.83	634.57
668.17	630.04
668.51	625.39
668.85	620.76
669.19	616.26
669.53	611.91
669.87	607.54
670.21	603.32
670.55	599.09
670.89	595.14
671.23	591.25
671.57	587.16
671.91	583.12
672.25	579.07
672.58	575.03
672.92	571.05
673.26	567.32
673.60	563.66
673.94	560.17
674.28	556.79
674.62	553.42
674.96	549.87
675.30	546.57
675.64	543.24
675.97	539.99
676.31	536.68
676.65	533.34
676.99	530.20
677.33	526.86
677.67	523.62
678.01	520.17
678.34	516.81
678.68	513.54
679.02	510.34
679.36	507.21
679.70	504.17
680.04	501.09
680.37	497.91
680.71	494.72
681.05	491.70
681.39	488.55
681.73	485.50
682.06	482.63
682.40	479.73
682.74	476.83
683.08	473.87
683.42	470.92
683.75	468.04
684.09	465.08
684.43	462.24
684.77	459.44
685.10	456.75
685.44	454.04
685.78	451.36
686.12	448.69
686.45	446.02
686.79	443.35
687.13	440.77
687.46	438.19
687.80	435.72
688.14	433.09
688.48	430.76
688.81	428.15
689.15	425.63
689.49	423.13
689.82	420.69
690.16	418.28
690.50	415.99
690.83	413.74
691.17	411.44
691.51	409.32
691.84	407.19
692.18	404.95
692.52	402.78
692.85	400.57
693.19	398.41
693.52	396.28
693.86	394.17
694.20	392.18
694.53	390.11
694.87	387.99
695.21	385.91
695.54	383.77
695.88	381.79
696.21	379.84
696.55	377.90
696.88	375.96
697.22	374.05
697.56	372.17
697.89	370.27
698.23	368.46
698.56	366.58
698.90	364.76
699.23	362.88
699.57	361.02
699.90	359.20
700.24	357.41
700.58	355.64
700.91	353.89
701.25	352.19
701.58	350.63
701.92	349.03
702.25	347.51
702.59	345.93
702.92	344.40
703.26	342.87
703.59	341.37
703.93	340.00
704.26	338.59
704.60	337.11
704.93	335.67
705.26	334.25
705.60	332.86
705.93	331.52
706.27	330.31
706.60	329.11
706.94	327.92
707.27	326.63
707.61	325.38
707.94	324.20
708.27	322.90
708.61	321.63
708.94	320.44
709.28	319.24
709.61	318.14
709.94	317.03
710.28	315.86
710.61	314.73
710.95	313.51
711.28	312.43
711.61	311.30
711.95	310.22
712.28	309.09
712.61	307.98
712.95	306.85
713.28	305.80
713.61	304.71
713.95	303.71
714.28	302.77
714.61	301.79
714.95	300.84
715.28	299.85
715.61	298.85
715.95	297.86
716.28	296.87
716.61	295.89
716.95	294.94
717.28	294.06
717.61	293.18
717.94	292.31
718.28	291.37
718.61	290.55
718.94	289.73
719.27	288.94
719.61	288.19
719.94	287.43
720.27	286.58
720.60	285.81
720.94	285.10
721.27	284.38
721.60	283.73
721.93	283.02
722.27	282.43
722.60	281.77
722.93	281.11
723.26	280.55
723.59	279.92
723.93	279.29
724.26	278.65
724.59	278.00
724.92	277.38
725.25	276.81
725.59	276.23
725.92	275.65
726.25	275.08
726.58	274.50
726.91	273.97
727.24	273.44
727.57	272.92
727.91	272.29
728.24	271.74
728.57	271.15
728.90	270.61
729.23	270.02
729.56	269.54
729.89	269.01
730.22	268.43
730.55	267.86
730.89	267.37
731.22	266.87
731.55	266.40
731.88	265.91
732.21	265.40
732.54	264.91
732.87	264.40
733.20	263.90
733.53	263.43
733.86	262.98
734.19	262.50
734.52	262.06
734.85	261.66
735.18	261.21
735.51	260.79
735.84	260.34
736.17	259.90
736.50	259.50
736.83	259.21
737.16	258.82
737.49	258.49
737.82	258.09
738.15	257.69
738.48	257.29
738.81	256.91
739.14	256.56
739.47	256.20
739.80	255.84
740.13	255.50
740.46	255.17
740.79	254.78
741.12	254.46
741.45	254.07
741.78	253.73
742.11	253.41
742.44	253.07
742.77	252.76
743.10	252.45
743.43	252.05
743.75	251.60
744.08	251.42
744.41	251.13
744.74	250.81
745.07	250.51
745.40	250.21
745.73	249.96
746.06	249.68
746.39	249.37
746.71	249.08
747.04	248.80
747.37	248.47
747.70	248.23
748.03	247.96
748.36	247.72
748.68	247.44
749.01	247.14
749.34	246.90
749.67	246.65
750.00	246.40
750.33	246.21
750.65	246.01
750.98	245.64
751.31	245.36
751.64	245.13
751.97	244.91
752.29	244.64
752.62	244.34
752.95	244.06
753.28	243.80
753.60	243.56
753.93	243.36
754.26	243.15
754.59	242.89
754.91	242.64
755.24	242.38
755.57	242.16
755.90	241.94
756.22	241.72
756.55	241.48
756.88	241.26
757.20	241.03
757.53	240.78
757.86	240.57
758.19	240.37
758.51	240.17
758.84	239.96
759.17	239.77
759.49	239.60
759.82	239.43
760.15	239.29
760.47	239.13
760.80	238.91
761.13	238.77
761.45	238.56
761.78	238.38
762.11	238.25
762.43	238.06
762.76	237.89
763.08	237.72
763.41	237.55
763.74	237.37
764.06	237.19
764.39	237.05
764.71	236.87
765.04	236.70
765.37	236.54
765.69	236.40
766.02	236.27
766.34	236.11
766.67	235.97
767.00	235.85
767.32	235.73
767.65	235.67
767.97	235.47
768.30	235.35
768.62	235.24
768.95	235.08
769.27	234.96
769.60	234.81
769.92	234.67
770.25	234.56
770.57	234.48
770.90	234.32
771.22	234.23
771.55	234.15
771.87	234.06
772.20	233.93
772.52	233.89
772.85	233.90
773.17	233.79
773.50	233.65
773.82	233.51
774.15	233.37
774.47	233.21
774.80	233.13
775.12	233.04
775.45	232.95
775.77	232.86
776.09	232.74
776.42	232.67
776.74	232.61
777.07	232.50
777.39	232.38
777.72	232.30
778.04	232.20
778.36	232.07
778.69	231.99
779.01	231.94
779.33	231.76
779.66	231.54
779.98	231.47
780.31	231.42
780.63	231.40
780.95	231.32
781.28	231.27
781.60	231.20
781.92	231.12
782.25	231.03
782.57	230.95
782.89	230.87
783.22	230.80
783.54	230.70
783.86	230.66
784.19	230.60
784.51	230.58
784.83	230.50
785.16	230.46
785.48	230.38
785.80	230.32
786.12	230.27
786.45	230.26
