SpectraSuite Data File
++++++++++++++++++++++++++++++++++++
Date: Fri Feb 01 17:39:00 EST 2013
User: group
Dark Spectrum Present: No
Reference Spectrum Present: No
Number of Sampled Component Spectra: 1
Spectrometers: USB2E7196
Integration Time (usec): 35000 (USB2E7196)
Spectra Averaged: 100 (USB2E7196)
Boxcar Smoothing: 10 (USB2E7196)
Correct for Electrical Dark: No (USB2E7196)
Strobe/Lamp Enabled: No (USB2E7196)
Correct for Detector Non-linearity: No (USB2E7196)
Correct for Stray Light: No (USB2E7196)
Number of Pixels in Processed Spectrum: 2048
>>>>>Begin Processed Spectral Data<<<<<
339.09	0.00
339.48	213.09
339.86	214.30
340.24	215.54
340.63	216.87
341.01	219.98
341.39	220.03
341.78	221.40
342.16	222.77
342.54	223.65
342.93	211.49
343.31	222.19
343.69	222.75
344.07	223.24
344.46	223.69
344.84	224.11
345.22	224.36
345.60	224.60
345.99	224.80
346.37	224.92
346.75	224.99
347.13	225.07
347.52	225.11
347.90	225.20
348.28	225.18
348.66	225.26
349.05	225.24
349.43	225.27
349.81	225.33
350.19	225.39
350.57	225.41
350.96	225.50
351.34	225.59
351.72	225.65
352.10	225.68
352.48	225.75
352.87	225.78
353.25	225.82
353.63	225.91
354.01	225.96
354.39	226.03
354.77	226.12
355.15	226.20
355.54	226.26
355.92	226.29
356.30	226.39
356.68	226.50
357.06	226.54
357.44	226.60
357.82	226.64
358.20	226.71
358.58	226.79
358.97	226.85
359.35	226.90
359.73	226.96
360.11	227.03
360.49	227.07
360.87	227.11
361.25	227.15
361.63	227.19
362.01	227.22
362.39	227.24
362.77	227.28
363.15	227.31
363.53	227.32
363.91	227.33
364.29	227.29
364.67	227.22
365.05	227.24
365.43	227.26
365.81	227.25
366.19	227.27
366.57	227.30
366.95	227.28
367.33	227.23
367.71	227.21
368.09	227.23
368.47	227.19
368.85	227.14
369.23	227.19
369.61	227.15
369.99	227.14
370.37	227.13
370.75	227.13
371.13	227.06
371.51	227.03
371.89	227.01
372.27	226.99
372.65	226.93
373.03	226.87
373.41	226.81
373.78	226.77
374.16	226.69
374.54	226.60
374.92	226.56
375.30	226.50
375.68	226.43
376.06	226.39
376.44	226.32
376.82	226.27
377.19	226.17
377.57	226.10
377.95	226.03
378.33	225.95
378.71	225.83
379.09	225.81
379.47	225.73
379.84	225.66
380.22	225.60
380.60	225.54
380.98	225.50
381.36	225.44
381.73	225.41
382.11	225.35
382.49	225.32
382.87	225.24
383.25	225.18
383.62	225.24
384.00	225.16
384.38	225.13
384.76	225.11
385.13	225.09
385.51	225.03
385.89	224.97
386.27	224.95
386.64	224.88
387.02	224.83
387.40	224.81
387.78	224.76
388.15	224.72
388.53	224.67
388.91	224.64
389.29	224.59
389.66	224.55
390.04	224.52
390.42	224.51
390.79	224.51
391.17	224.51
391.55	224.37
391.92	224.37
392.30	224.38
392.68	224.37
393.05	224.36
393.43	224.37
393.81	224.38
394.18	224.35
394.56	224.40
394.94	224.44
395.31	224.45
395.69	224.52
396.06	224.56
396.44	224.61
396.82	224.63
397.19	224.73
397.57	224.78
397.95	224.85
398.32	224.86
398.70	224.87
399.07	224.95
399.45	225.01
399.82	225.05
400.20	225.10
400.58	225.16
400.95	225.21
401.33	225.26
401.70	225.41
402.08	225.49
402.45	225.55
402.83	225.62
403.20	225.73
403.58	225.81
403.95	225.89
404.33	226.02
404.71	226.11
405.08	226.26
405.46	226.37
405.83	226.50
406.21	226.62
406.58	226.81
406.96	226.91
407.33	227.10
407.70	227.29
408.08	227.54
408.45	227.77
408.83	227.98
409.20	228.23
409.58	228.36
409.95	228.63
410.33	228.90
410.70	229.17
411.08	229.46
411.45	229.79
411.82	230.14
412.20	230.49
412.57	230.93
412.95	231.22
413.32	231.66
413.69	232.04
414.07	232.48
414.44	232.98
414.82	233.47
415.19	234.04
415.56	234.63
415.94	235.18
416.31	235.84
416.68	236.48
417.06	237.21
417.43	237.96
417.81	238.76
418.18	239.58
418.55	240.43
418.93	241.33
419.30	242.22
419.67	243.19
420.04	244.20
420.42	245.21
420.79	246.46
421.16	247.65
421.54	248.94
421.91	250.22
422.28	251.54
422.66	252.94
423.03	254.29
423.40	255.67
423.77	257.15
424.15	258.62
424.52	260.22
424.89	261.92
425.26	263.52
425.64	265.01
426.01	266.70
426.38	268.43
426.75	270.16
427.13	271.97
427.50	273.86
427.87	275.82
428.24	277.79
428.61	279.61
428.99	281.62
429.36	283.81
429.73	285.97
430.10	288.06
430.47	290.23
430.85	292.45
431.22	294.78
431.59	297.29
431.96	299.65
432.33	302.22
432.70	304.69
433.08	307.68
433.45	310.47
433.82	313.17
434.19	316.23
434.56	319.18
434.93	321.97
435.30	324.73
435.68	327.73
436.05	330.66
436.42	333.58
436.79	336.24
437.16	339.04
437.53	342.00
437.90	344.97
438.27	347.82
438.64	350.78
439.01	353.48
439.38	355.83
439.75	358.09
440.13	360.65
440.50	363.09
440.87	365.02
441.24	367.08
441.61	369.34
441.98	370.90
442.35	372.79
442.72	374.77
443.09	376.65
443.46	377.72
443.83	378.40
444.20	378.97
444.57	379.85
444.94	380.17
445.31	380.51
445.68	380.86
446.05	381.01
446.42	380.63
446.79	380.23
447.16	379.76
447.53	379.45
447.90	378.31
448.27	377.12
448.64	375.48
449.01	374.31
449.37	372.29
449.74	370.32
450.11	368.04
450.48	365.44
450.85	362.86
451.22	360.63
451.59	358.51
451.96	356.49
452.33	353.79
452.70	351.35
453.07	348.38
453.43	345.35
453.80	342.42
454.17	339.64
454.54	336.99
454.91	334.18
455.28	331.39
455.65	328.78
456.02	326.24
456.38	323.95
456.75	321.15
457.12	318.81
457.49	316.47
457.86	314.19
458.23	312.23
458.59	310.06
458.96	307.90
459.33	305.96
459.70	303.98
460.07	302.38
460.43	300.55
460.80	298.90
461.17	297.45
461.54	295.91
461.91	294.41
462.27	292.88
462.64	291.55
463.01	290.13
463.38	288.76
463.74	287.34
464.11	286.12
464.48	285.03
464.85	283.86
465.21	282.93
465.58	281.94
465.95	280.79
466.32	279.83
466.68	278.87
467.05	277.90
467.42	276.99
467.78	276.03
468.15	275.17
468.52	274.48
468.88	273.57
469.25	272.76
469.62	272.09
469.98	271.41
470.35	270.77
470.72	270.15
471.08	269.49
471.45	268.94
471.82	268.38
472.18	267.76
472.55	267.35
472.92	266.85
473.28	266.40
473.65	265.95
474.02	265.50
474.38	265.14
474.75	264.86
475.11	264.51
475.48	264.27
475.85	264.02
476.21	263.75
476.58	263.52
476.94	263.39
477.31	263.21
477.67	263.05
478.04	262.93
478.41	262.90
478.77	262.94
479.14	262.83
479.50	262.86
479.87	262.92
480.23	262.95
480.60	262.99
480.96	263.05
481.33	263.28
481.69	263.46
482.06	263.66
482.42	263.84
482.79	264.07
483.15	264.38
483.52	264.73
483.88	265.08
484.25	265.50
484.61	265.90
484.98	266.36
485.34	266.90
485.71	267.44
486.07	268.04
486.44	268.55
486.80	269.26
487.17	269.97
487.53	270.82
487.90	271.67
488.26	272.58
488.62	273.56
488.99	274.52
489.35	275.59
489.72	276.66
490.08	277.88
490.44	279.13
490.81	280.45
491.17	281.80
491.54	283.27
491.90	284.74
492.26	286.40
492.63	288.13
492.99	289.90
493.36	291.80
493.72	293.83
494.08	295.93
494.45	298.15
494.81	300.48
495.17	302.87
495.54	305.42
495.90	308.07
496.26	310.85
496.63	313.73
496.99	316.76
497.35	320.01
497.72	323.32
498.08	326.77
498.44	330.36
498.80	334.22
499.17	338.23
499.53	342.34
499.89	346.65
500.26	351.04
500.62	355.63
500.98	360.54
501.34	365.44
501.71	370.67
502.07	376.05
502.43	381.58
502.79	387.26
503.16	393.16
503.52	399.35
503.88	405.63
504.24	412.14
504.60	418.94
504.97	425.88
505.33	433.07
505.69	440.63
506.05	448.31
506.41	455.99
506.78	463.96
507.14	472.24
507.50	480.74
507.86	489.58
508.22	498.52
508.59	507.46
508.95	516.86
509.31	526.52
509.67	536.37
510.03	546.38
510.39	556.66
510.75	567.14
511.12	577.83
511.48	588.92
511.84	600.11
512.20	611.32
512.56	622.92
512.92	634.80
513.28	646.89
513.64	658.91
514.00	671.31
514.37	683.87
514.73	696.58
515.09	709.20
515.45	722.13
515.81	735.39
516.17	748.97
516.53	762.70
516.89	776.45
517.25	790.23
517.61	804.26
517.97	818.31
518.33	832.38
518.69	846.67
519.05	861.12
519.41	875.74
519.77	890.70
520.13	905.63
520.49	920.50
520.85	935.26
521.21	950.49
521.57	966.24
521.93	981.47
522.29	997.22
522.65	1013.04
523.01	1028.63
523.37	1044.20
523.73	1059.78
524.09	1075.33
524.45	1090.98
524.81	1106.98
525.17	1123.22
525.53	1139.44
525.89	1155.67
526.25	1171.95
526.61	1187.82
526.97	1204.14
527.33	1220.21
527.68	1236.37
528.04	1252.29
528.40	1268.33
528.76	1284.89
529.12	1300.99
529.48	1317.45
529.84	1332.97
530.20	1349.01
530.56	1365.44
530.91	1382.10
531.27	1398.40
531.63	1414.37
531.99	1430.49
532.35	1446.06
532.71	1461.43
533.07	1477.30
533.42	1492.95
533.78	1508.62
534.14	1524.38
534.50	1539.18
534.86	1554.48
535.21	1569.25
535.57	1584.75
535.93	1599.77
536.29	1614.09
536.65	1628.68
537.00	1642.92
537.36	1657.99
537.72	1672.10
538.08	1686.34
538.44	1699.94
538.79	1713.63
539.15	1726.89
539.51	1740.27
539.87	1754.38
540.22	1767.78
540.58	1781.24
540.94	1794.03
541.29	1806.43
541.65	1818.90
542.01	1831.96
542.37	1844.25
542.72	1856.47
543.08	1868.21
543.44	1880.65
543.79	1892.00
544.15	1902.91
544.51	1914.35
544.87	1925.12
545.22	1936.03
545.58	1946.13
545.94	1955.92
546.29	1965.82
546.65	1975.83
547.01	1985.33
547.36	1994.04
547.72	2002.72
548.07	2010.89
548.43	2019.27
548.79	2027.27
549.14	2035.17
549.50	2042.74
549.86	2050.36
550.21	2057.78
550.57	2065.15
550.92	2071.88
551.28	2079.08
551.64	2086.35
551.99	2093.13
552.35	2099.54
552.70	2105.80
553.06	2112.15
553.41	2118.91
553.77	2125.00
554.13	2131.40
554.48	2137.67
554.84	2143.76
555.19	2149.25
555.55	2154.70
555.90	2159.53
556.26	2165.23
556.61	2170.10
556.97	2174.77
557.32	2179.47
557.68	2184.05
558.03	2188.47
558.39	2192.60
558.74	2197.52
559.10	2201.74
559.45	2205.87
559.81	2210.45
560.16	2214.78
560.52	2218.41
560.87	2221.96
561.23	2225.08
561.58	2228.07
561.94	2231.00
562.29	2233.48
562.64	2236.88
563.00	2239.82
563.35	2243.71
563.71	2247.02
564.06	2250.52
564.42	2253.75
564.77	2256.71
565.12	2259.59
565.48	2262.26
565.83	2264.50
566.19	2266.32
566.54	2267.42
566.89	2269.07
567.25	2270.32
567.60	2272.02
567.96	2274.25
568.31	2275.70
568.66	2277.34
569.02	2278.57
569.37	2279.43
569.72	2280.69
570.08	2281.29
570.43	2281.65
570.78	2281.67
571.14	2280.72
571.49	2279.82
571.84	2279.71
572.20	2278.96
572.55	2278.27
572.90	2276.91
573.26	2276.12
573.61	2274.61
573.96	2273.75
574.31	2271.21
574.67	2268.66
575.02	2265.34
575.37	2262.21
575.72	2258.92
576.08	2255.81
576.43	2252.56
576.78	2249.46
577.13	2246.60
577.49	2243.49
577.84	2240.54
578.19	2237.15
578.54	2234.02
578.90	2230.45
579.25	2225.46
579.60	2221.05
579.95	2216.58
580.30	2211.95
580.66	2207.15
581.01	2202.60
581.36	2197.79
581.71	2194.09
582.06	2190.06
582.42	2186.23
582.77	2181.47
583.12	2177.24
583.47	2173.09
583.82	2168.94
584.17	2163.96
584.53	2158.91
584.88	2153.88
585.23	2148.57
585.58	2143.29
585.93	2138.02
586.28	2133.37
586.63	2128.66
586.98	2123.77
587.34	2119.07
587.69	2114.41
588.04	2109.37
588.39	2104.02
588.74	2097.96
589.09	2091.97
589.44	2085.57
589.79	2079.50
590.14	2074.00
590.49	2067.50
590.84	2061.20
591.19	2055.25
591.54	2049.10
591.89	2042.08
592.25	2035.49
592.60	2028.54
592.95	2021.40
593.30	2014.32
593.65	2006.95
594.00	2000.10
594.35	1992.97
594.70	1985.00
595.05	1978.33
595.40	1971.19
595.75	1963.99
596.10	1958.01
596.45	1951.55
596.80	1945.44
597.15	1939.06
597.50	1932.47
597.85	1926.26
598.19	1919.84
598.54	1913.29
598.89	1906.76
599.24	1900.92
599.59	1894.74
599.94	1888.51
600.29	1882.30
600.64	1875.89
600.99	1868.63
601.34	1862.04
601.69	1855.13
602.04	1848.63
602.39	1841.30
602.74	1834.66
603.08	1828.18
603.43	1821.44
603.78	1814.26
604.13	1807.09
604.48	1800.11
604.83	1793.25
605.18	1786.54
605.53	1778.69
605.87	1770.49
606.22	1763.28
606.57	1755.42
606.92	1747.68
607.27	1740.77
607.62	1734.08
607.96	1726.89
608.31	1720.57
608.66	1713.07
609.01	1705.80
609.36	1698.37
609.70	1690.29
610.05	1682.31
610.40	1674.52
610.75	1666.35
611.10	1658.68
611.44	1650.27
611.79	1642.14
612.14	1633.40
612.49	1624.10
612.83	1615.58
613.18	1607.40
613.53	1599.30
613.88	1590.78
614.22	1582.51
614.57	1573.59
614.92	1565.32
615.27	1557.76
615.61	1549.30
615.96	1541.11
616.31	1533.26
616.65	1525.79
617.00	1518.23
617.35	1510.41
617.70	1502.07
618.04	1493.44
618.39	1485.04
618.74	1477.45
619.08	1469.05
619.43	1461.34
619.78	1454.31
620.12	1447.29
620.47	1439.70
620.82	1431.31
621.16	1423.68
621.51	1415.97
621.85	1408.28
622.20	1399.59
622.55	1390.99
622.89	1382.82
623.24	1374.94
623.59	1367.29
623.93	1359.65
624.28	1352.22
624.62	1344.63
624.97	1337.39
625.32	1330.39
625.66	1323.24
626.01	1315.90
626.35	1308.57
626.70	1300.69
627.04	1292.96
627.39	1285.02
627.73	1277.44
628.08	1270.47
628.43	1263.17
628.77	1255.90
629.12	1248.29
629.46	1241.10
629.81	1233.51
630.15	1226.31
630.50	1219.02
630.84	1210.97
631.19	1202.85
631.53	1195.20
631.88	1187.53
632.22	1179.81
632.57	1172.40
632.91	1164.75
633.26	1157.35
633.60	1149.80
633.95	1142.51
634.29	1135.22
634.64	1128.32
634.98	1121.04
635.32	1113.93
635.67	1107.25
636.01	1100.46
636.36	1093.74
636.70	1087.14
637.05	1080.59
637.39	1074.03
637.73	1067.47
638.08	1061.52
638.42	1055.65
638.77	1049.26
639.11	1042.75
639.45	1036.30
639.80	1029.77
640.14	1023.45
640.49	1016.84
640.83	1010.59
641.17	1004.43
641.52	998.20
641.86	991.82
642.20	985.87
642.55	979.38
642.89	972.89
643.23	966.22
643.58	960.41
643.92	954.26
644.26	948.29
644.61	942.26
644.95	936.18
645.29	929.64
645.64	922.84
645.98	916.49
646.32	910.36
646.66	904.33
647.01	898.41
647.35	892.71
647.69	886.85
648.04	881.20
648.38	875.40
648.72	869.50
649.06	863.47
649.41	857.53
649.75	851.64
650.09	845.65
650.43	839.97
650.78	833.74
651.12	827.80
651.46	821.98
651.80	816.38
652.14	810.94
652.49	805.56
652.83	800.29
653.17	794.74
653.51	789.25
653.85	783.81
654.20	778.26
654.54	772.21
654.88	766.41
655.22	760.52
655.56	754.72
655.90	749.14
656.25	743.80
656.59	738.51
656.93	733.44
657.27	728.34
657.61	722.81
657.95	717.66
658.29	712.56
658.64	707.24
658.98	701.70
659.32	696.27
659.66	690.99
660.00	685.72
660.34	680.75
660.68	675.78
661.02	670.71
661.36	665.98
661.70	661.53
662.05	657.18
662.39	652.89
662.73	648.45
663.07	644.07
663.41	639.60
663.75	635.09
664.09	630.49
664.43	626.09
664.77	622.01
665.11	617.78
665.45	613.53
665.79	609.46
666.13	605.43
666.47	601.27
666.81	597.04
667.15	592.92
667.49	588.81
667.83	584.89
668.17	580.96
668.51	576.84
668.85	572.73
669.19	568.82
669.53	564.92
669.87	561.10
670.21	557.40
670.55	553.75
670.89	550.25
671.23	546.79
671.57	543.17
671.91	539.65
672.25	536.14
672.58	532.70
672.92	529.29
673.26	526.03
673.60	522.87
673.94	519.79
674.28	516.81
674.62	513.93
674.96	510.90
675.30	508.01
675.64	505.09
675.97	502.32
676.31	499.45
676.65	496.50
676.99	493.77
677.33	490.83
677.67	488.02
678.01	485.01
678.34	482.05
678.68	479.16
679.02	476.31
679.36	473.51
679.70	470.75
680.04	467.99
680.37	465.16
680.71	462.33
681.05	459.72
681.39	457.01
681.73	454.25
682.06	451.67
682.40	449.06
682.74	446.51
683.08	443.91
683.42	441.32
683.75	438.83
684.09	436.15
684.43	433.66
684.77	431.19
685.10	428.82
685.44	426.48
685.78	424.17
686.12	421.91
686.45	419.54
686.79	417.20
687.13	414.95
687.46	412.79
687.80	410.65
688.14	408.34
688.48	406.28
688.81	404.18
689.15	401.99
689.49	399.84
689.82	397.74
690.16	395.58
690.50	393.56
690.83	391.62
691.17	389.66
691.51	387.75
691.84	385.88
692.18	383.96
692.52	382.03
692.85	380.11
693.19	378.20
693.52	376.39
693.86	374.51
694.20	372.72
694.53	370.86
694.87	368.98
695.21	367.17
695.54	365.29
695.88	363.45
696.21	361.74
696.55	359.99
696.88	358.25
697.22	356.60
697.56	354.90
697.89	353.22
698.23	351.64
698.56	350.02
698.90	348.46
699.23	346.78
699.57	345.17
699.90	343.56
700.24	341.95
700.58	340.40
700.91	338.97
701.25	337.48
701.58	336.08
701.92	334.71
702.25	333.36
702.59	331.96
702.92	330.67
703.26	329.31
703.59	328.05
703.93	326.87
704.26	325.61
704.60	324.36
704.93	323.03
705.26	321.76
705.60	320.49
705.93	319.27
706.27	318.24
706.60	317.15
706.94	316.07
707.27	314.94
707.61	313.84
707.94	312.71
708.27	311.59
708.61	310.49
708.94	309.42
709.28	308.39
709.61	307.43
709.94	306.44
710.28	305.39
710.61	304.39
710.95	303.24
711.28	302.27
711.61	301.29
711.95	300.33
712.28	299.34
712.61	298.35
712.95	297.41
713.28	296.47
713.61	295.51
713.95	294.60
714.28	293.74
714.61	292.84
714.95	292.01
715.28	291.11
715.61	290.21
715.95	289.34
716.28	288.46
716.61	287.59
716.95	286.73
717.28	285.98
717.61	285.20
717.94	284.45
718.28	283.65
718.61	282.91
718.94	282.26
719.27	281.64
719.61	281.03
719.94	280.34
720.27	279.61
720.60	278.97
720.94	278.33
721.27	277.70
721.60	277.15
721.93	276.55
722.27	276.03
722.60	275.50
722.93	274.93
723.26	274.43
723.59	273.87
723.93	273.33
724.26	272.75
724.59	272.13
724.92	271.62
725.25	271.19
725.59	270.67
725.92	270.12
726.25	269.58
726.58	269.09
726.91	268.58
727.24	268.13
727.57	267.63
727.91	267.11
728.24	266.65
728.57	266.16
728.90	265.72
729.23	265.21
729.56	264.75
729.89	264.29
730.22	263.77
730.55	263.30
730.89	262.84
731.22	262.40
731.55	262.01
731.88	261.55
732.21	261.06
732.54	260.61
732.87	260.18
733.20	259.75
733.53	259.31
733.86	258.88
734.19	258.45
734.52	258.10
734.85	257.79
735.18	257.36
735.51	256.98
735.84	256.60
736.17	256.26
736.50	255.86
736.83	255.63
737.16	255.29
737.49	254.97
737.82	254.59
738.15	254.27
738.48	253.91
738.81	253.59
739.14	253.25
739.47	252.94
739.80	252.64
740.13	252.32
740.46	252.01
740.79	251.72
741.12	251.43
741.45	251.08
741.78	250.71
742.11	250.44
742.44	250.09
742.77	249.77
743.10	249.44
743.43	249.12
743.75	248.74
744.08	248.61
744.41	248.29
744.74	248.04
745.07	247.76
745.40	247.51
745.73	247.30
746.06	247.03
746.39	246.76
746.71	246.48
747.04	246.22
747.37	245.98
747.70	245.73
748.03	245.47
748.36	245.23
748.68	244.98
749.01	244.73
749.34	244.54
749.67	244.31
750.00	244.08
750.33	243.90
750.65	243.66
750.98	243.29
751.31	243.11
751.64	242.93
751.97	242.76
752.29	242.52
752.62	242.23
752.95	242.06
753.28	241.82
753.60	241.61
753.93	241.46
754.26	241.23
754.59	241.01
754.91	240.77
755.24	240.55
755.57	240.37
755.90	240.15
756.22	239.93
756.55	239.73
756.88	239.53
757.20	239.33
757.53	239.14
757.86	238.99
758.19	238.77
758.51	238.55
758.84	238.32
759.17	238.18
759.49	238.05
759.82	237.90
760.15	237.78
760.47	237.65
760.80	237.45
761.13	237.33
761.45	237.18
761.78	237.07
762.11	236.93
762.43	236.79
762.76	236.64
763.08	236.49
763.41	236.36
763.74	236.24
764.06	236.10
764.39	235.92
764.71	235.78
765.04	235.63
765.37	235.52
765.69	235.37
766.02	235.23
766.34	235.10
766.67	234.94
767.00	234.81
767.32	234.72
767.65	234.65
767.97	234.55
768.30	234.42
768.62	234.29
768.95	234.17
769.27	234.05
769.60	233.98
769.92	233.85
770.25	233.73
770.57	233.61
770.90	233.52
771.22	233.43
771.55	233.29
771.87	233.23
772.20	233.09
772.52	233.10
772.85	233.13
773.17	233.02
773.50	232.92
773.82	232.80
774.15	232.63
774.47	232.52
774.80	232.42
775.12	232.35
775.45	232.26
775.77	232.18
776.09	232.09
776.42	232.01
776.74	231.96
777.07	231.90
777.39	231.83
777.72	231.72
778.04	231.69
778.36	231.65
778.69	231.55
779.01	231.51
779.33	231.35
779.66	231.17
779.98	231.08
780.31	231.02
780.63	231.02
780.95	230.97
781.28	230.88
781.60	230.76
781.92	230.71
782.25	230.64
782.57	230.59
782.89	230.52
783.22	230.45
783.54	230.40
783.86	230.35
784.19	230.28
784.51	230.24
784.83	230.14
785.16	230.09
785.48	230.05
785.80	229.99
786.12	229.93
786.45	229.85
786.77	229.80
787.09	229.73
