SpectraSuite Data File
++++++++++++++++++++++++++++++++++++
Date: Fri Feb 01 16:16:28 EST 2013
User: group
Dark Spectrum Present: No
Reference Spectrum Present: No
Number of Sampled Component Spectra: 1
Spectrometers: USB2E7196
Integration Time (usec): 35000 (USB2E7196)
Spectra Averaged: 100 (USB2E7196)
Boxcar Smoothing: 10 (USB2E7196)
Correct for Electrical Dark: No (USB2E7196)
Strobe/Lamp Enabled: No (USB2E7196)
Correct for Detector Non-linearity: No (USB2E7196)
Correct for Stray Light: No (USB2E7196)
Number of Pixels in Processed Spectrum: 2048
>>>>>Begin Processed Spectral Data<<<<<
339.09	0.00
339.48	215.04
339.86	215.87
340.24	216.81
340.63	218.10
341.01	221.50
341.39	220.95
341.78	223.15
342.16	224.00
342.54	223.83
342.93	212.62
343.31	223.36
343.69	223.88
344.07	224.33
344.46	224.79
344.84	225.19
345.22	225.41
345.60	225.67
345.99	225.82
346.37	225.93
346.75	226.04
347.13	226.15
347.52	226.16
347.90	226.24
348.28	226.26
348.66	226.33
349.05	226.29
349.43	226.35
349.81	226.38
350.19	226.44
350.57	226.48
350.96	226.57
351.34	226.65
351.72	226.69
352.10	226.79
352.48	226.82
352.87	226.89
353.25	226.96
353.63	227.05
354.01	227.11
354.39	227.20
354.77	227.24
355.15	227.29
355.54	227.39
355.92	227.42
356.30	227.51
356.68	227.60
357.06	227.67
357.44	227.71
357.82	227.77
358.20	227.86
358.58	227.91
358.97	227.95
359.35	228.02
359.73	228.12
360.11	228.16
360.49	228.21
360.87	228.21
361.25	228.26
361.63	228.30
362.01	228.34
362.39	228.35
362.77	228.40
363.15	228.44
363.53	228.44
363.91	228.46
364.29	228.47
364.67	228.41
365.05	228.44
365.43	228.45
365.81	228.45
366.19	228.49
366.57	228.50
366.95	228.51
367.33	228.47
367.71	228.45
368.09	228.47
368.47	228.47
368.85	228.45
369.23	228.43
369.61	228.35
369.99	228.34
370.37	228.32
370.75	228.34
371.13	228.29
371.51	228.27
371.89	228.26
372.27	228.19
372.65	228.14
373.03	228.09
373.41	228.04
373.78	227.98
374.16	227.85
374.54	227.76
374.92	227.70
375.30	227.66
375.68	227.55
376.06	227.46
376.44	227.41
376.82	227.34
377.19	227.28
377.57	227.25
377.95	227.15
378.33	227.09
378.71	226.96
379.09	226.94
379.47	226.89
379.84	226.80
380.22	226.74
380.60	226.68
380.98	226.63
381.36	226.57
381.73	226.52
382.11	226.51
382.49	226.48
382.87	226.40
383.25	226.35
383.62	226.41
384.00	226.34
384.38	226.26
384.76	226.23
385.13	226.22
385.51	226.18
385.89	226.13
386.27	226.08
386.64	226.08
387.02	225.98
387.40	225.93
387.78	225.90
388.15	225.85
388.53	225.86
388.91	225.80
389.29	225.78
389.66	225.77
390.04	225.73
390.42	225.74
390.79	225.74
391.17	225.71
391.55	225.60
391.92	225.62
392.30	225.61
392.68	225.64
393.05	225.63
393.43	225.63
393.81	225.66
394.18	225.68
394.56	225.65
394.94	225.71
395.31	225.70
395.69	225.75
396.06	225.80
396.44	225.82
396.82	225.85
397.19	225.93
397.57	225.95
397.95	226.01
398.32	225.99
398.70	226.03
399.07	226.14
399.45	226.19
399.82	226.24
400.20	226.31
400.58	226.32
400.95	226.37
401.33	226.42
401.70	226.53
402.08	226.61
402.45	226.71
402.83	226.84
403.20	226.95
403.58	227.03
403.95	227.16
404.33	227.29
404.71	227.41
405.08	227.57
405.46	227.70
405.83	227.82
406.21	227.95
406.58	228.12
406.96	228.25
407.33	228.43
407.70	228.60
408.08	228.89
408.45	229.10
408.83	229.34
409.20	229.61
409.58	229.79
409.95	230.03
410.33	230.32
410.70	230.51
411.08	230.78
411.45	231.07
411.82	231.36
412.20	231.66
412.57	232.04
412.95	232.31
413.32	232.71
413.69	233.11
414.07	233.57
414.44	234.05
414.82	234.48
415.19	235.00
415.56	235.55
415.94	236.06
416.31	236.68
416.68	237.30
417.06	237.97
417.43	238.69
417.81	239.51
418.18	240.25
418.55	241.11
418.93	241.97
419.30	242.86
419.67	243.82
420.04	244.79
420.42	245.80
420.79	247.02
421.16	248.16
421.54	249.37
421.91	250.60
422.28	251.86
422.66	253.20
423.03	254.55
423.40	255.90
423.77	257.32
424.15	258.77
424.52	260.26
424.89	261.90
425.26	263.42
425.64	264.84
426.01	266.42
426.38	268.04
426.75	269.73
427.13	271.46
427.50	273.28
427.87	275.15
428.24	277.02
428.61	278.74
428.99	280.74
429.36	282.85
429.73	284.87
430.10	286.89
430.47	288.97
430.85	291.09
431.22	293.37
431.59	295.74
431.96	297.96
432.33	300.43
432.70	302.79
433.08	305.59
433.45	308.25
433.82	310.85
434.19	313.77
434.56	316.60
434.93	319.30
435.30	321.88
435.68	324.78
436.05	327.65
436.42	330.50
436.79	333.00
437.16	335.70
437.53	338.55
437.90	341.35
438.27	344.07
438.64	346.87
439.01	349.44
439.38	351.63
439.75	353.83
440.13	356.32
440.50	358.68
440.87	360.53
441.24	362.50
441.61	364.66
441.98	366.16
442.35	367.98
442.72	369.81
443.09	371.62
443.46	372.60
443.83	373.20
444.20	373.66
444.57	374.45
444.94	374.76
445.31	375.11
445.68	375.48
446.05	375.61
446.42	375.27
446.79	374.84
447.16	374.42
447.53	374.09
447.90	372.95
448.27	371.78
448.64	370.21
449.01	369.01
449.37	367.05
449.74	365.18
450.11	362.88
450.48	360.41
450.85	357.89
451.22	355.77
451.59	353.69
451.96	351.71
452.33	349.16
452.70	346.78
453.07	343.97
453.43	341.07
453.80	338.28
454.17	335.59
454.54	333.05
454.91	330.34
455.28	327.65
455.65	325.13
456.02	322.68
456.38	320.52
456.75	317.88
457.12	315.67
457.49	313.42
457.86	311.28
458.23	309.42
458.59	307.36
458.96	305.30
459.33	303.45
459.70	301.58
460.07	300.09
460.43	298.35
460.80	296.69
461.17	295.25
461.54	293.72
461.91	292.30
462.27	290.87
462.64	289.63
463.01	288.28
463.38	287.01
463.74	285.63
464.11	284.48
464.48	283.43
464.85	282.30
465.21	281.43
465.58	280.50
465.95	279.40
466.32	278.50
466.68	277.58
467.05	276.68
467.42	275.82
467.78	274.84
468.15	273.96
468.52	273.33
468.88	272.45
469.25	271.72
469.62	271.09
469.98	270.43
470.35	269.82
470.72	269.23
471.08	268.61
471.45	268.07
471.82	267.52
472.18	266.91
472.55	266.47
472.92	265.97
473.28	265.49
473.65	265.03
474.02	264.60
474.38	264.21
474.75	263.91
475.11	263.56
475.48	263.32
475.85	263.12
476.21	262.88
476.58	262.73
476.94	262.57
477.31	262.39
477.67	262.22
478.04	262.11
478.41	262.06
478.77	262.08
479.14	262.03
479.50	262.03
479.87	262.15
480.23	262.22
480.60	262.29
480.96	262.41
481.33	262.62
481.69	262.80
482.06	263.04
482.42	263.28
482.79	263.60
483.15	263.93
483.52	264.29
483.88	264.65
484.25	265.05
484.61	265.49
484.98	265.95
485.34	266.55
485.71	267.16
486.07	267.77
486.44	268.36
486.80	269.10
487.17	269.87
487.53	270.69
487.90	271.56
488.26	272.50
488.62	273.51
488.99	274.50
489.35	275.59
489.72	276.72
490.08	277.92
490.44	279.10
490.81	280.44
491.17	281.79
491.54	283.30
491.90	284.83
492.26	286.51
492.63	288.22
492.99	289.98
493.36	291.85
493.72	293.94
494.08	296.03
494.45	298.26
494.81	300.61
495.17	303.05
495.54	305.61
495.90	308.34
496.26	311.16
496.63	314.15
496.99	317.29
497.35	320.55
497.72	323.97
498.08	327.52
498.44	331.20
498.80	335.09
499.17	339.11
499.53	343.29
499.89	347.65
500.26	352.15
500.62	356.85
500.98	361.82
501.34	366.84
501.71	372.23
502.07	377.71
502.43	383.35
502.79	389.16
503.16	395.27
503.52	401.52
503.88	407.92
504.24	414.56
504.60	421.42
504.97	428.56
505.33	435.87
505.69	443.57
506.05	451.38
506.41	459.32
506.78	467.48
507.14	475.92
507.50	484.66
507.86	493.69
508.22	502.88
508.59	512.09
508.95	521.69
509.31	531.46
509.67	541.51
510.03	551.79
510.39	562.44
510.75	573.22
511.12	584.14
511.48	595.46
511.84	606.91
512.20	618.45
512.56	630.47
512.92	642.57
513.28	654.87
513.64	667.24
514.00	680.01
514.37	692.97
514.73	706.02
515.09	719.05
515.45	732.40
515.81	745.99
516.17	760.00
516.53	774.15
516.89	788.34
517.25	802.51
517.61	816.88
517.97	831.19
518.33	845.62
518.69	860.38
519.05	875.32
519.41	890.50
519.77	906.04
520.13	921.38
520.49	936.85
520.85	952.27
521.21	967.98
521.57	984.15
521.93	999.82
522.29	1016.19
522.65	1032.40
523.01	1048.60
523.37	1064.59
523.73	1080.70
524.09	1096.71
524.45	1113.01
524.81	1129.65
525.17	1146.45
525.53	1163.37
525.89	1180.25
526.25	1197.07
526.61	1213.35
526.97	1230.03
527.33	1246.41
527.68	1262.91
528.04	1279.33
528.40	1295.82
528.76	1312.87
529.12	1329.43
529.48	1346.39
529.84	1362.31
530.20	1378.99
530.56	1395.94
530.91	1413.24
531.27	1429.98
531.63	1446.44
531.99	1462.95
532.35	1478.84
532.71	1494.64
533.07	1510.91
533.42	1526.78
533.78	1542.80
534.14	1559.12
534.50	1574.37
534.86	1590.19
535.21	1605.24
535.57	1620.99
535.93	1636.51
536.29	1651.19
536.65	1666.14
537.00	1680.80
537.36	1695.97
537.72	1710.25
538.08	1724.53
538.44	1738.32
538.79	1752.12
539.15	1765.61
539.51	1779.29
539.87	1793.62
540.22	1807.36
540.58	1820.96
540.94	1834.12
541.29	1846.90
541.65	1859.62
542.01	1872.73
542.37	1884.94
542.72	1897.48
543.08	1909.30
543.44	1921.65
543.79	1932.91
544.15	1943.79
544.51	1955.35
544.87	1966.26
545.22	1977.05
545.58	1987.15
545.94	1996.91
546.29	2006.70
546.65	2016.67
547.01	2025.87
547.36	2034.41
547.72	2042.77
548.07	2050.58
548.43	2058.65
548.79	2066.64
549.14	2074.05
549.50	2081.46
549.86	2089.12
550.21	2096.36
550.57	2103.49
550.92	2109.98
551.28	2117.02
551.64	2124.16
551.99	2130.65
552.35	2136.76
552.70	2143.02
553.06	2149.01
553.41	2155.25
553.77	2161.30
554.13	2167.25
554.48	2173.51
554.84	2179.06
555.19	2184.35
555.55	2189.52
555.90	2193.98
556.26	2198.85
556.61	2203.62
556.97	2207.85
557.32	2212.08
557.68	2216.23
558.03	2220.59
558.39	2224.27
558.74	2228.84
559.10	2232.73
559.45	2236.28
559.81	2240.73
560.16	2244.43
560.52	2247.68
560.87	2251.09
561.23	2253.77
561.58	2256.71
561.94	2259.05
562.29	2261.41
562.64	2264.10
563.00	2266.57
563.35	2270.12
563.71	2273.15
564.06	2276.29
564.42	2279.21
564.77	2281.63
565.12	2283.84
565.48	2285.72
565.83	2287.61
566.19	2289.01
566.54	2289.81
566.89	2291.05
567.25	2291.58
567.60	2292.89
567.96	2294.74
568.31	2295.66
568.66	2296.78
569.02	2297.42
569.37	2297.78
569.72	2298.66
570.08	2298.84
570.43	2299.08
570.78	2298.68
571.14	2297.33
571.49	2295.91
571.84	2295.65
572.20	2294.71
572.55	2293.75
572.90	2292.24
573.26	2291.00
573.61	2289.26
573.96	2287.66
574.31	2284.75
574.67	2281.76
575.02	2278.33
575.37	2274.92
575.72	2271.12
576.08	2267.72
576.43	2264.37
576.78	2260.78
577.13	2257.70
577.49	2254.58
577.84	2251.08
578.19	2247.33
578.54	2243.72
578.90	2239.66
579.25	2234.14
579.60	2229.02
579.95	2223.99
580.30	2218.97
580.66	2213.75
581.01	2208.97
581.36	2204.04
581.71	2199.85
582.06	2195.48
582.42	2191.07
582.77	2185.95
583.12	2181.46
583.47	2176.87
583.82	2171.96
584.17	2166.77
584.53	2161.25
584.88	2155.69
585.23	2150.04
585.58	2144.55
585.93	2139.09
586.28	2134.34
586.63	2129.23
586.98	2124.26
587.34	2119.54
587.69	2114.66
588.04	2109.50
588.39	2103.81
588.74	2097.39
589.09	2091.32
589.44	2084.54
589.79	2078.50
590.14	2072.80
590.49	2066.29
590.84	2059.86
591.19	2053.99
591.54	2047.60
591.89	2040.25
592.25	2033.39
592.60	2026.14
592.95	2018.59
593.30	2011.14
593.65	2003.55
594.00	1996.49
594.35	1989.26
594.70	1981.33
595.05	1974.14
595.40	1966.76
595.75	1959.19
596.10	1953.03
596.45	1946.31
596.80	1940.35
597.15	1933.77
597.50	1926.86
597.85	1920.38
598.19	1913.90
598.54	1906.73
598.89	1899.92
599.24	1894.15
599.59	1887.58
599.94	1881.40
600.29	1874.97
600.64	1868.53
600.99	1861.17
601.34	1854.46
601.69	1847.59
602.04	1840.78
602.39	1833.52
602.74	1826.78
603.08	1820.06
603.43	1813.31
603.78	1805.92
604.13	1798.58
604.48	1791.25
604.83	1784.26
605.18	1777.37
605.53	1769.35
605.87	1761.42
606.22	1754.21
606.57	1746.29
606.92	1739.05
607.27	1731.91
607.62	1725.24
607.96	1717.99
608.31	1711.43
608.66	1703.75
609.01	1696.22
609.36	1688.72
609.70	1680.76
610.05	1672.84
610.40	1665.20
610.75	1656.79
611.10	1649.21
611.44	1640.93
611.79	1632.98
612.14	1624.27
612.49	1615.09
612.83	1606.69
613.18	1598.59
613.53	1590.60
613.88	1582.06
614.22	1573.71
614.57	1565.11
614.92	1557.03
615.27	1549.49
615.61	1541.07
615.96	1533.05
616.31	1525.39
616.65	1518.07
617.00	1510.37
617.35	1502.61
617.70	1494.30
618.04	1485.81
618.39	1477.52
618.74	1469.90
619.08	1461.66
619.43	1454.15
619.78	1447.26
620.12	1440.05
620.47	1432.44
620.82	1424.19
621.16	1416.76
621.51	1409.22
621.85	1401.62
622.20	1393.01
622.55	1384.57
622.89	1376.79
623.24	1369.09
623.59	1361.75
623.93	1354.06
624.28	1346.86
624.62	1339.35
624.97	1332.16
625.32	1325.37
625.66	1318.43
626.01	1311.17
626.35	1303.69
626.70	1295.87
627.04	1288.10
627.39	1280.32
627.73	1272.85
628.08	1266.02
628.43	1258.73
628.77	1251.33
629.12	1243.69
629.46	1236.55
629.81	1229.15
630.15	1221.80
630.50	1214.50
630.84	1206.24
631.19	1198.32
631.53	1190.85
631.88	1183.28
632.22	1175.61
632.57	1168.33
632.91	1160.78
633.26	1153.36
633.60	1145.89
633.95	1138.80
634.29	1131.74
634.64	1125.12
634.98	1117.75
635.32	1110.50
635.67	1103.84
636.01	1097.18
636.36	1090.41
636.70	1083.93
637.05	1077.39
637.39	1071.03
637.73	1064.45
638.08	1058.55
638.42	1052.58
638.77	1046.08
639.11	1039.50
639.45	1033.12
639.80	1026.49
640.14	1020.07
640.49	1013.54
640.83	1007.21
641.17	1000.94
641.52	994.57
641.86	988.01
642.20	982.21
642.55	975.90
642.89	969.45
643.23	962.88
643.58	957.17
643.92	950.99
644.26	944.88
644.61	938.81
644.95	932.86
645.29	926.34
645.64	919.54
645.98	913.19
646.32	907.21
646.66	901.21
647.01	895.41
647.35	889.66
647.69	883.76
648.04	878.22
648.38	872.45
648.72	866.47
649.06	860.50
649.41	854.63
649.75	848.76
650.09	842.74
650.43	836.96
650.78	830.65
651.12	824.62
651.46	818.94
651.80	813.22
652.14	807.73
652.49	802.30
652.83	797.12
653.17	791.44
653.51	785.79
653.85	780.29
654.20	774.73
654.54	768.70
654.88	762.97
655.22	757.07
655.56	751.42
655.90	745.98
656.25	740.66
656.59	735.27
656.93	730.13
657.27	725.01
657.61	719.52
657.95	714.55
658.29	709.56
658.64	704.24
658.98	698.89
659.32	693.45
659.66	688.24
660.00	682.94
660.34	677.95
660.68	673.00
661.02	668.05
661.36	663.24
661.70	658.73
662.05	654.42
662.39	650.14
662.73	645.64
663.07	641.25
663.41	636.78
663.75	632.25
664.09	627.63
664.43	623.18
664.77	619.08
665.11	614.75
665.45	610.52
665.79	606.51
666.13	602.34
666.47	598.21
666.81	594.04
667.15	589.95
667.49	586.15
667.83	582.42
668.17	578.44
668.51	574.32
668.85	570.27
669.19	566.37
669.53	562.52
669.87	558.62
670.21	554.87
670.55	551.25
670.89	547.84
671.23	544.40
671.57	540.94
671.91	537.42
672.25	533.92
672.58	530.40
672.92	526.93
673.26	523.80
673.60	520.63
673.94	517.48
674.28	514.56
674.62	511.57
674.96	508.40
675.30	505.51
675.64	502.65
675.97	499.91
676.31	497.06
676.65	494.14
676.99	491.45
677.33	488.63
677.67	485.79
678.01	482.72
678.34	479.76
678.68	476.84
679.02	473.98
679.36	471.26
679.70	468.56
680.04	465.80
680.37	462.93
680.71	460.16
681.05	457.61
681.39	454.92
681.73	452.22
682.06	449.75
682.40	447.21
682.74	444.66
683.08	442.05
683.42	439.46
683.75	436.96
684.09	434.36
684.43	431.85
684.77	429.41
685.10	427.07
685.44	424.79
685.78	422.47
686.12	420.19
686.45	417.86
686.79	415.53
687.13	413.33
687.46	411.14
687.80	409.00
688.14	406.73
688.48	404.64
688.81	402.38
689.15	400.17
689.49	397.99
689.82	395.91
690.16	393.87
690.50	391.90
690.83	389.97
691.17	388.02
691.51	386.13
691.84	384.23
692.18	382.32
692.52	380.29
692.85	378.36
693.19	376.50
693.52	374.70
693.86	372.87
694.20	371.11
694.53	369.31
694.87	367.44
695.21	365.61
695.54	363.81
695.88	362.17
696.21	360.44
696.55	358.74
696.88	357.05
697.22	355.38
697.56	353.72
697.89	352.04
698.23	350.46
698.56	348.84
698.90	347.26
699.23	345.61
699.57	344.08
699.90	342.58
700.24	341.04
700.58	339.48
700.91	338.01
701.25	336.57
701.58	335.21
701.92	333.89
702.25	332.53
702.59	331.16
702.92	329.79
703.26	328.52
703.59	327.25
703.93	326.07
704.26	324.82
704.60	323.50
704.93	322.21
705.26	320.94
705.60	319.75
705.93	318.59
706.27	317.56
706.60	316.50
706.94	315.44
707.27	314.32
707.61	313.25
707.94	312.21
708.27	311.08
708.61	309.98
708.94	308.95
709.28	307.96
709.61	306.96
709.94	305.99
710.28	304.94
710.61	303.98
710.95	302.90
711.28	302.03
711.61	301.14
711.95	300.18
712.28	299.23
712.61	298.30
712.95	297.38
713.28	296.48
713.61	295.60
713.95	294.70
714.28	293.90
714.61	293.01
714.95	292.18
715.28	291.36
715.61	290.47
715.95	289.62
716.28	288.82
716.61	288.02
716.95	287.21
717.28	286.48
717.61	285.68
717.94	284.97
718.28	284.14
718.61	283.40
718.94	282.76
719.27	282.13
719.61	281.47
719.94	280.79
720.27	280.11
720.60	279.44
720.94	278.80
721.27	278.15
721.60	277.61
721.93	277.01
722.27	276.49
722.60	275.95
722.93	275.36
723.26	274.80
723.59	274.23
723.93	273.66
724.26	273.11
724.59	272.56
724.92	272.01
725.25	271.46
725.59	270.94
725.92	270.38
726.25	269.88
726.58	269.40
726.91	268.89
727.24	268.40
727.57	267.94
727.91	267.39
728.24	266.98
728.57	266.49
728.90	266.04
729.23	265.54
729.56	265.12
729.89	264.67
730.22	264.20
730.55	263.74
730.89	263.32
731.22	262.86
731.55	262.43
731.88	262.01
732.21	261.61
732.54	261.17
732.87	260.81
733.20	260.40
733.53	260.00
733.86	259.66
734.19	259.27
734.52	258.90
734.85	258.63
735.18	258.19
735.51	257.80
735.84	257.39
736.17	257.03
736.50	256.62
736.83	256.41
737.16	256.07
737.49	255.74
737.82	255.38
738.15	255.07
738.48	254.74
738.81	254.41
739.14	254.10
739.47	253.80
739.80	253.44
740.13	253.14
740.46	252.81
740.79	252.43
741.12	252.13
741.45	251.80
741.78	251.46
742.11	251.19
742.44	250.87
742.77	250.57
743.10	250.25
743.43	249.95
743.75	249.53
744.08	249.39
744.41	249.12
744.74	248.86
745.07	248.54
745.40	248.32
745.73	248.09
746.06	247.81
746.39	247.52
746.71	247.29
747.04	247.02
747.37	246.75
747.70	246.51
748.03	246.28
748.36	246.06
748.68	245.81
749.01	245.56
749.34	245.36
749.67	245.16
750.00	244.94
750.33	244.79
750.65	244.57
750.98	244.22
751.31	244.01
751.64	243.78
751.97	243.64
752.29	243.39
752.62	243.17
752.95	242.93
753.28	242.76
753.60	242.52
753.93	242.33
754.26	242.15
754.59	241.93
754.91	241.70
755.24	241.50
755.57	241.30
755.90	241.10
756.22	240.90
756.55	240.66
756.88	240.43
757.20	240.17
757.53	239.99
757.86	239.80
758.19	239.64
758.51	239.50
758.84	239.27
759.17	239.09
759.49	238.92
759.82	238.83
760.15	238.66
760.47	238.53
760.80	238.30
761.13	238.17
761.45	238.06
761.78	237.92
762.11	237.77
762.43	237.62
762.76	237.47
763.08	237.35
763.41	237.26
763.74	237.18
764.06	237.04
764.39	236.90
764.71	236.77
765.04	236.60
765.37	236.45
765.69	236.36
766.02	236.23
766.34	236.13
766.67	235.96
767.00	235.88
767.32	235.81
767.65	235.79
767.97	235.69
768.30	235.53
768.62	235.42
768.95	235.33
769.27	235.24
769.60	235.15
769.92	235.01
770.25	234.89
770.57	234.76
770.90	234.66
771.22	234.54
771.55	234.44
771.87	234.36
772.20	234.22
772.52	234.18
772.85	234.20
773.17	234.08
773.50	233.96
773.82	233.83
774.15	233.69
774.47	233.54
774.80	233.41
775.12	233.35
775.45	233.25
775.77	233.13
776.09	233.04
776.42	232.96
776.74	232.93
777.07	232.83
777.39	232.75
777.72	232.67
778.04	232.59
778.36	232.52
778.69	232.48
779.01	232.43
779.33	232.28
779.66	232.12
779.98	232.02
780.31	232.00
780.63	231.98
780.95	231.94
781.28	231.86
781.60	231.81
781.92	231.74
782.25	231.69
782.57	231.61
782.89	231.57
783.22	231.49
783.54	231.40
783.86	231.38
784.19	231.34
784.51	231.31
784.83	231.25
785.16	231.20
785.48	231.13
785.80	231.10
786.12	231.06
786.45	231.01
786.77	230.93
787.09	230.89
