SpectraSuite Data File
++++++++++++++++++++++++++++++++++++
Date: Fri Feb 01 15:39:38 EST 2013
User: group
Dark Spectrum Present: No
Reference Spectrum Present: No
Number of Sampled Component Spectra: 1
Spectrometers: USB2E7196
Integration Time (usec): 35000 (USB2E7196)
Spectra Averaged: 100 (USB2E7196)
Boxcar Smoothing: 10 (USB2E7196)
Correct for Electrical Dark: No (USB2E7196)
Strobe/Lamp Enabled: No (USB2E7196)
Correct for Detector Non-linearity: No (USB2E7196)
Correct for Stray Light: No (USB2E7196)
Number of Pixels in Processed Spectrum: 2048
>>>>>Begin Processed Spectral Data<<<<<
339.09	0.00
339.48	215.22
339.86	215.83
340.24	217.94
340.63	218.65
341.01	221.16
341.39	221.92
341.78	222.88
342.16	223.90
342.54	225.37
342.93	213.16
343.31	223.92
343.69	224.46
344.07	224.97
344.46	225.41
344.84	225.81
345.22	226.09
345.60	226.34
345.99	226.52
346.37	226.66
346.75	226.74
347.13	226.80
347.52	226.85
347.90	226.95
348.28	227.01
348.66	227.10
349.05	227.05
349.43	227.07
349.81	227.14
350.19	227.18
350.57	227.23
350.96	227.32
351.34	227.44
351.72	227.53
352.10	227.63
352.48	227.67
352.87	227.73
353.25	227.78
353.63	227.82
354.01	227.90
354.39	227.99
354.77	228.07
355.15	228.18
355.54	228.24
355.92	228.28
356.30	228.34
356.68	228.47
357.06	228.55
357.44	228.63
357.82	228.71
358.20	228.80
358.58	228.85
358.97	228.88
359.35	228.93
359.73	229.00
360.11	229.00
360.49	229.08
360.87	229.11
361.25	229.17
361.63	229.27
362.01	229.29
362.39	229.31
362.77	229.35
363.15	229.37
363.53	229.38
363.91	229.36
364.29	229.37
364.67	229.28
365.05	229.29
365.43	229.28
365.81	229.26
366.19	229.30
366.57	229.35
366.95	229.36
367.33	229.34
367.71	229.30
368.09	229.33
368.47	229.28
368.85	229.27
369.23	229.25
369.61	229.18
369.99	229.20
370.37	229.17
370.75	229.16
371.13	229.08
371.51	229.03
371.89	229.01
372.27	228.99
372.65	228.94
373.03	228.88
373.41	228.88
373.78	228.79
374.16	228.67
374.54	228.59
374.92	228.51
375.30	228.45
375.68	228.42
376.06	228.37
376.44	228.31
376.82	228.26
377.19	228.18
377.57	228.14
377.95	228.03
378.33	227.97
378.71	227.83
379.09	227.80
379.47	227.75
379.84	227.68
380.22	227.60
380.60	227.52
380.98	227.46
381.36	227.36
381.73	227.30
382.11	227.25
382.49	227.20
382.87	227.09
383.25	227.03
383.62	227.04
384.00	226.97
384.38	226.91
384.76	226.86
385.13	226.85
385.51	226.80
385.89	226.72
386.27	226.66
386.64	226.67
387.02	226.60
387.40	226.58
387.78	226.53
388.15	226.48
388.53	226.45
388.91	226.38
389.29	226.37
389.66	226.35
390.04	226.32
390.42	226.29
390.79	226.31
391.17	226.27
391.55	226.13
391.92	226.11
392.30	226.13
392.68	226.14
393.05	226.14
393.43	226.13
393.81	226.17
394.18	226.17
394.56	226.16
394.94	226.21
395.31	226.20
395.69	226.26
396.06	226.33
396.44	226.34
396.82	226.36
397.19	226.43
397.57	226.49
397.95	226.56
398.32	226.58
398.70	226.64
399.07	226.71
399.45	226.79
399.82	226.84
400.20	226.88
400.58	226.92
400.95	226.99
401.33	227.08
401.70	227.24
402.08	227.34
402.45	227.45
402.83	227.56
403.20	227.68
403.58	227.79
403.95	227.89
404.33	228.03
404.71	228.21
405.08	228.38
405.46	228.49
405.83	228.63
406.21	228.76
406.58	228.92
406.96	229.09
407.33	229.29
407.70	229.51
408.08	229.81
408.45	230.03
408.83	230.25
409.20	230.46
409.58	230.64
409.95	230.90
410.33	231.16
410.70	231.40
411.08	231.68
411.45	231.97
411.82	232.29
412.20	232.66
412.57	233.04
412.95	233.34
413.32	233.77
413.69	234.17
414.07	234.64
414.44	235.11
414.82	235.62
415.19	236.15
415.56	236.66
415.94	237.16
416.31	237.80
416.68	238.41
417.06	239.15
417.43	239.82
417.81	240.62
418.18	241.43
418.55	242.28
418.93	243.21
419.30	244.11
419.67	245.06
420.04	246.02
420.42	247.02
420.79	248.21
421.16	249.37
421.54	250.58
421.91	251.79
422.28	253.06
422.66	254.38
423.03	255.69
423.40	257.07
423.77	258.47
424.15	259.87
424.52	261.37
424.89	262.99
425.26	264.55
425.64	265.94
426.01	267.49
426.38	269.17
426.75	270.83
427.13	272.58
427.50	274.38
427.87	276.29
428.24	278.18
428.61	279.95
428.99	281.88
429.36	283.95
429.73	286.04
430.10	288.06
430.47	290.14
430.85	292.29
431.22	294.53
431.59	296.97
431.96	299.23
432.33	301.72
432.70	304.09
433.08	306.95
433.45	309.62
433.82	312.26
434.19	315.13
434.56	317.96
434.93	320.59
435.30	323.24
435.68	326.08
436.05	328.92
436.42	331.69
436.79	334.28
437.16	336.98
437.53	339.84
437.90	342.64
438.27	345.36
438.64	348.14
439.01	350.70
439.38	352.94
439.75	355.16
440.13	357.66
440.50	359.99
440.87	361.78
441.24	363.72
441.61	365.88
441.98	367.35
442.35	369.13
442.72	371.00
443.09	372.79
443.46	373.83
443.83	374.38
444.20	374.91
444.57	375.70
444.94	376.01
445.31	376.34
445.68	376.71
446.05	376.79
446.42	376.45
446.79	376.04
447.16	375.55
447.53	375.19
447.90	374.03
448.27	372.84
448.64	371.28
449.01	370.11
449.37	368.18
449.74	366.29
450.11	364.03
450.48	361.53
450.85	359.00
451.22	356.83
451.59	354.79
451.96	352.81
452.33	350.15
452.70	347.75
453.07	344.89
453.43	341.97
453.80	339.19
454.17	336.51
454.54	333.96
454.91	331.26
455.28	328.58
455.65	326.06
456.02	323.66
456.38	321.51
456.75	318.84
457.12	316.59
457.49	314.36
457.86	312.21
458.23	310.34
458.59	308.25
458.96	306.17
459.33	304.35
459.70	302.53
460.07	301.05
460.43	299.39
460.80	297.77
461.17	296.33
461.54	294.80
461.91	293.38
462.27	291.89
462.64	290.63
463.01	289.27
463.38	288.01
463.74	286.61
464.11	285.43
464.48	284.41
464.85	283.28
465.21	282.44
465.58	281.52
465.95	280.44
466.32	279.56
466.68	278.65
467.05	277.73
467.42	276.82
467.78	275.93
468.15	275.02
468.52	274.34
468.88	273.48
469.25	272.74
469.62	272.09
469.98	271.46
470.35	270.82
470.72	270.23
471.08	269.53
471.45	268.98
471.82	268.43
472.18	267.83
472.55	267.40
472.92	266.85
473.28	266.37
473.65	265.93
474.02	265.45
474.38	265.09
474.75	264.80
475.11	264.45
475.48	264.17
475.85	263.92
476.21	263.71
476.58	263.53
476.94	263.39
477.31	263.24
477.67	263.09
478.04	263.02
478.41	262.96
478.77	262.99
479.14	262.92
479.50	262.92
479.87	263.00
480.23	263.06
480.60	263.09
480.96	263.17
481.33	263.37
481.69	263.59
482.06	263.76
482.42	263.90
482.79	264.18
483.15	264.49
483.52	264.88
483.88	265.19
484.25	265.58
484.61	265.99
484.98	266.41
485.34	267.01
485.71	267.58
486.07	268.17
486.44	268.76
486.80	269.49
487.17	270.23
487.53	271.07
487.90	271.93
488.26	272.92
488.62	273.90
488.99	274.87
489.35	275.96
489.72	277.09
490.08	278.31
490.44	279.51
490.81	280.85
491.17	282.19
491.54	283.71
491.90	285.24
492.26	286.92
492.63	288.67
492.99	290.42
493.36	292.30
493.72	294.37
494.08	296.47
494.45	298.71
494.81	301.05
495.17	303.44
495.54	306.05
495.90	308.74
496.26	311.52
496.63	314.48
496.99	317.58
497.35	320.86
497.72	324.27
498.08	327.81
498.44	331.45
498.80	335.35
499.17	339.30
499.53	343.46
499.89	347.79
500.26	352.28
500.62	356.98
500.98	361.98
501.34	367.02
501.71	372.38
502.07	377.80
502.43	383.44
502.79	389.26
503.16	395.29
503.52	401.57
503.88	408.07
504.24	414.67
504.60	421.55
504.97	428.67
505.33	436.00
505.69	443.71
506.05	451.53
506.41	459.45
506.78	467.62
507.14	476.08
507.50	484.85
507.86	493.88
508.22	502.99
508.59	512.19
508.95	521.74
509.31	531.56
509.67	541.65
510.03	551.98
510.39	562.52
510.75	573.33
511.12	584.25
511.48	595.50
511.84	607.01
512.20	618.47
512.56	630.42
512.92	642.58
513.28	654.84
513.64	667.31
514.00	680.01
514.37	693.00
514.73	706.04
515.09	719.11
515.45	732.40
515.81	746.08
516.17	760.02
516.53	774.15
516.89	788.29
517.25	802.45
517.61	816.87
517.97	831.40
518.33	845.80
518.69	860.59
519.05	875.61
519.41	890.70
519.77	906.37
520.13	921.82
520.49	937.17
520.85	952.68
521.21	968.40
521.57	984.62
521.93	1000.36
522.29	1016.86
522.65	1033.14
523.01	1049.37
523.37	1065.30
523.73	1081.48
524.09	1097.63
524.45	1113.99
524.81	1130.68
525.17	1147.55
525.53	1164.42
525.89	1181.28
526.25	1198.15
526.61	1214.60
526.97	1231.45
527.33	1247.82
527.68	1264.47
528.04	1281.09
528.40	1297.75
528.76	1314.90
529.12	1331.58
529.48	1348.55
529.84	1364.53
530.20	1381.18
530.56	1398.38
530.91	1415.83
531.27	1432.65
531.63	1449.13
531.99	1465.72
532.35	1481.75
532.71	1497.62
533.07	1513.89
533.42	1529.84
533.78	1545.83
534.14	1562.10
534.50	1577.47
534.86	1593.35
535.21	1608.48
535.57	1624.42
535.93	1639.93
536.29	1654.69
536.65	1669.79
537.00	1684.49
537.36	1699.86
537.72	1714.30
538.08	1728.61
538.44	1742.55
538.79	1756.47
539.15	1770.28
539.51	1784.02
539.87	1798.33
540.22	1812.10
540.58	1826.00
540.94	1839.46
541.29	1852.51
541.65	1865.22
542.01	1878.47
542.37	1890.93
542.72	1903.33
543.08	1915.03
543.44	1927.45
543.79	1938.68
544.15	1949.72
544.51	1961.27
544.87	1972.16
545.22	1983.00
545.58	1993.11
545.94	2002.88
546.29	2012.69
546.65	2022.40
547.01	2031.64
547.36	2040.36
547.72	2048.78
548.07	2056.56
548.43	2064.59
548.79	2072.55
549.14	2080.10
549.50	2087.47
549.86	2095.25
550.21	2102.73
550.57	2109.91
550.92	2116.52
551.28	2123.62
551.64	2130.73
551.99	2137.36
552.35	2143.53
552.70	2149.71
553.06	2155.78
553.41	2161.97
553.77	2168.04
554.13	2174.24
554.48	2180.62
554.84	2186.06
555.19	2191.44
555.55	2196.59
555.90	2201.10
556.26	2205.96
556.61	2210.61
556.97	2214.69
557.32	2218.72
557.68	2222.69
558.03	2227.03
558.39	2230.73
558.74	2235.31
559.10	2238.96
559.45	2242.69
559.81	2247.05
560.16	2250.89
560.52	2254.07
560.87	2257.51
561.23	2260.14
561.58	2263.04
561.94	2265.32
562.29	2267.69
562.64	2270.23
563.00	2272.72
563.35	2276.19
563.71	2279.29
564.06	2282.51
564.42	2285.39
564.77	2287.83
565.12	2290.09
565.48	2291.82
565.83	2293.59
566.19	2294.94
566.54	2295.99
566.89	2297.02
567.25	2297.64
567.60	2298.82
567.96	2300.51
568.31	2301.40
568.66	2302.59
569.02	2303.16
569.37	2303.53
569.72	2304.43
570.08	2304.66
570.43	2304.75
570.78	2304.14
571.14	2302.60
571.49	2301.30
571.84	2300.99
572.20	2299.77
572.55	2298.82
572.90	2297.36
573.26	2295.98
573.61	2294.27
573.96	2292.32
574.31	2289.39
574.67	2286.36
575.02	2282.75
575.37	2279.42
575.72	2275.55
576.08	2272.12
576.43	2268.73
576.78	2264.86
577.13	2261.73
577.49	2258.52
577.84	2255.03
578.19	2251.40
578.54	2247.61
578.90	2243.27
579.25	2237.75
579.60	2232.75
579.95	2227.65
580.30	2222.63
580.66	2217.42
581.01	2212.36
581.36	2207.42
581.71	2203.09
582.06	2198.45
582.42	2193.83
582.77	2188.51
583.12	2184.06
583.47	2179.23
583.82	2174.21
584.17	2169.06
584.53	2163.38
584.88	2157.66
585.23	2151.85
585.58	2146.21
585.93	2140.78
586.28	2135.85
586.63	2130.78
586.98	2125.69
587.34	2121.03
587.69	2116.16
588.04	2110.70
588.39	2104.99
588.74	2098.54
589.09	2092.38
589.44	2085.67
589.79	2079.85
590.14	2074.31
590.49	2067.52
590.84	2061.09
591.19	2055.06
591.54	2048.55
591.89	2041.17
592.25	2034.31
592.60	2027.09
592.95	2019.56
593.30	2012.21
593.65	2004.78
594.00	1997.72
594.35	1990.61
594.70	1982.46
595.05	1975.17
595.40	1968.00
595.75	1960.55
596.10	1954.27
596.45	1947.46
596.80	1941.14
597.15	1934.39
597.50	1927.07
597.85	1920.64
598.19	1913.98
598.54	1906.77
598.89	1900.21
599.24	1894.45
599.59	1887.82
599.94	1881.68
600.29	1875.31
600.64	1868.78
600.99	1861.29
601.34	1854.50
601.69	1847.36
602.04	1840.52
602.39	1833.09
602.74	1826.14
603.08	1819.44
603.43	1812.77
603.78	1805.48
604.13	1798.29
604.48	1790.94
604.83	1784.23
605.18	1777.10
605.53	1769.10
605.87	1761.17
606.22	1753.74
606.57	1745.68
606.92	1738.36
607.27	1730.97
607.62	1724.01
607.96	1716.63
608.31	1709.92
608.66	1702.13
609.01	1694.54
609.36	1686.84
609.70	1678.81
610.05	1670.75
610.40	1662.90
610.75	1654.50
611.10	1646.89
611.44	1638.49
611.79	1630.57
612.14	1621.71
612.49	1612.65
612.83	1604.37
613.18	1596.25
613.53	1588.15
613.88	1579.54
614.22	1571.27
614.57	1562.75
614.92	1554.61
615.27	1547.16
615.61	1538.85
615.96	1530.90
616.31	1523.45
616.65	1516.19
617.00	1508.62
617.35	1501.00
617.70	1492.71
618.04	1484.22
618.39	1475.96
618.74	1468.38
619.08	1460.05
619.43	1452.63
619.78	1445.75
620.12	1438.54
620.47	1430.91
620.82	1422.77
621.16	1415.43
621.51	1407.86
621.85	1400.29
622.20	1391.75
622.55	1383.33
622.89	1375.37
623.24	1367.85
623.59	1360.44
623.93	1352.86
624.28	1345.72
624.62	1338.27
624.97	1331.16
625.32	1324.42
625.66	1317.46
626.01	1310.18
626.35	1302.72
626.70	1294.91
627.04	1287.15
627.39	1279.37
627.73	1272.05
628.08	1265.19
628.43	1257.77
628.77	1250.30
629.12	1242.68
629.46	1235.53
629.81	1228.16
630.15	1221.00
630.50	1213.45
630.84	1205.20
631.19	1197.36
631.53	1189.88
631.88	1182.24
632.22	1174.55
632.57	1167.30
632.91	1159.79
633.26	1152.45
633.60	1145.13
633.95	1138.10
634.29	1131.10
634.64	1124.37
634.98	1116.96
635.32	1109.80
635.67	1103.35
636.01	1096.73
636.36	1089.87
636.70	1083.50
637.05	1076.84
637.39	1070.37
637.73	1063.84
638.08	1057.99
638.42	1051.92
638.77	1045.40
639.11	1038.76
639.45	1032.36
639.80	1025.60
640.14	1019.16
640.49	1012.63
640.83	1006.27
641.17	999.89
641.52	993.55
641.86	987.20
642.20	981.34
642.55	975.08
642.89	968.57
643.23	962.12
643.58	956.44
643.92	950.09
644.26	944.02
644.61	938.05
644.95	931.99
645.29	925.34
645.64	918.60
645.98	912.27
646.32	906.48
646.66	900.48
647.01	894.80
647.35	889.02
647.69	883.14
648.04	877.68
648.38	871.92
648.72	865.94
649.06	859.84
649.41	853.92
649.75	847.88
650.09	841.84
650.43	835.97
650.78	829.78
651.12	823.92
651.46	818.29
651.80	812.50
652.14	807.18
652.49	801.77
652.83	796.64
653.17	790.91
653.51	785.16
653.85	779.76
654.20	774.03
654.54	768.05
654.88	762.39
655.22	756.48
655.56	750.78
655.90	745.35
656.25	740.04
656.59	734.72
656.93	729.70
657.27	724.61
657.61	719.19
657.95	714.08
658.29	708.93
658.64	703.63
658.98	698.38
659.32	692.97
659.66	687.79
660.00	682.41
660.34	677.53
660.68	672.67
661.02	667.62
661.36	662.89
661.70	658.40
662.05	653.97
662.39	649.64
662.73	645.21
663.07	640.79
663.41	636.37
663.75	631.87
664.09	627.28
664.43	622.89
664.77	618.79
665.11	614.57
665.45	610.54
665.79	606.47
666.13	602.33
666.47	598.14
666.81	593.99
667.15	589.90
667.49	586.00
667.83	582.23
668.17	578.29
668.51	574.24
668.85	570.15
669.19	566.34
669.53	562.50
669.87	558.66
670.21	555.00
670.55	551.37
670.89	547.97
671.23	544.57
671.57	541.07
671.91	537.54
672.25	534.02
672.58	530.46
672.92	527.09
673.26	523.95
673.60	520.83
673.94	517.74
674.28	514.90
674.62	511.94
674.96	508.82
675.30	505.95
675.64	502.98
675.97	500.29
676.31	497.40
676.65	494.47
676.99	491.78
677.33	488.88
677.67	486.06
678.01	483.01
678.34	480.01
678.68	477.13
679.02	474.28
679.36	471.50
679.70	468.85
680.04	466.06
680.37	463.15
680.71	460.37
681.05	457.76
681.39	454.95
681.73	452.32
682.06	449.77
682.40	447.24
682.74	444.74
683.08	442.25
683.42	439.75
683.75	437.23
684.09	434.66
684.43	432.16
684.77	429.72
685.10	427.40
685.44	425.09
685.78	422.81
686.12	420.56
686.45	418.34
686.79	415.96
687.13	413.78
687.46	411.62
687.80	409.49
688.14	407.29
688.48	405.24
688.81	402.96
689.15	400.81
689.49	398.62
689.82	396.54
690.16	394.39
690.50	392.37
690.83	390.46
691.17	388.46
691.51	386.60
691.84	384.75
692.18	382.77
692.52	380.75
692.85	378.83
693.19	376.99
693.52	375.12
693.86	373.30
694.20	371.49
694.53	369.64
694.87	367.76
695.21	365.93
695.54	364.12
695.88	362.43
696.21	360.71
696.55	358.99
696.88	357.32
697.22	355.61
697.56	354.00
697.89	352.30
698.23	350.70
698.56	349.08
698.90	347.47
699.23	345.83
699.57	344.35
699.90	342.81
700.24	341.24
700.58	339.71
700.91	338.22
701.25	336.84
701.58	335.47
701.92	334.16
702.25	332.81
702.59	331.46
702.92	330.10
703.26	328.79
703.59	327.55
703.93	326.40
704.26	325.18
704.60	323.90
704.93	322.66
705.26	321.46
705.60	320.29
705.93	319.14
706.27	318.14
706.60	317.08
706.94	315.97
707.27	314.82
707.61	313.78
707.94	312.79
708.27	311.67
708.61	310.64
708.94	309.61
709.28	308.63
709.61	307.68
709.94	306.75
710.28	305.74
710.61	304.78
710.95	303.71
711.28	302.82
711.61	301.87
711.95	300.94
712.28	299.98
712.61	298.99
712.95	298.07
713.28	297.17
713.61	296.25
713.95	295.39
714.28	294.57
714.61	293.72
714.95	292.86
715.28	292.01
715.61	291.15
715.95	290.32
716.28	289.46
716.61	288.61
716.95	287.80
717.28	287.03
717.61	286.26
717.94	285.50
718.28	284.72
718.61	284.01
718.94	283.31
719.27	282.64
719.61	282.03
719.94	281.33
720.27	280.62
720.60	279.95
720.94	279.32
721.27	278.77
721.60	278.19
721.93	277.55
722.27	277.01
722.60	276.50
722.93	275.93
723.26	275.41
723.59	274.85
723.93	274.31
724.26	273.80
724.59	273.25
724.92	272.75
725.25	272.25
725.59	271.70
725.92	271.20
726.25	270.69
726.58	270.19
726.91	269.74
727.24	269.28
727.57	268.82
727.91	268.30
728.24	267.80
728.57	267.29
728.90	266.87
729.23	266.34
729.56	265.87
729.89	265.41
730.22	264.90
730.55	264.44
730.89	263.96
731.22	263.52
731.55	263.07
731.88	262.63
732.21	262.17
732.54	261.77
732.87	261.32
733.20	260.91
733.53	260.53
733.86	260.14
734.19	259.75
734.52	259.38
734.85	259.07
735.18	258.68
735.51	258.31
735.84	257.93
736.17	257.60
736.50	257.17
736.83	256.95
737.16	256.62
737.49	256.28
737.82	255.95
738.15	255.58
738.48	255.25
738.81	254.92
739.14	254.62
739.47	254.29
739.80	254.00
740.13	253.69
740.46	253.32
740.79	252.99
741.12	252.66
741.45	252.37
741.78	252.03
742.11	251.76
742.44	251.44
742.77	251.19
743.10	250.89
743.43	250.61
743.75	250.22
744.08	250.08
744.41	249.81
744.74	249.59
745.07	249.34
745.40	249.09
745.73	248.87
746.06	248.57
746.39	248.32
746.71	248.08
747.04	247.84
747.37	247.61
747.70	247.36
748.03	247.14
748.36	246.90
748.68	246.65
749.01	246.40
749.34	246.16
749.67	245.92
750.00	245.69
750.33	245.55
750.65	245.34
750.98	245.00
751.31	244.82
751.64	244.60
751.97	244.45
752.29	244.22
752.62	243.96
752.95	243.75
753.28	243.55
753.60	243.31
753.93	243.14
754.26	242.93
754.59	242.73
754.91	242.52
755.24	242.30
755.57	242.10
755.90	241.91
756.22	241.70
756.55	241.51
756.88	241.33
757.20	241.09
757.53	240.90
757.86	240.72
758.19	240.52
758.51	240.35
758.84	240.13
759.17	239.98
759.49	239.82
759.82	239.70
760.15	239.57
760.47	239.44
760.80	239.24
761.13	239.15
761.45	238.97
761.78	238.80
762.11	238.67
762.43	238.55
762.76	238.36
763.08	238.27
763.41	238.13
763.74	238.00
764.06	237.88
764.39	237.70
764.71	237.58
765.04	237.43
765.37	237.29
765.69	237.15
766.02	237.04
766.34	236.94
766.67	236.81
767.00	236.69
767.32	236.57
767.65	236.49
767.97	236.33
768.30	236.23
768.62	236.13
768.95	236.03
769.27	235.87
769.60	235.81
769.92	235.69
770.25	235.57
770.57	235.43
770.90	235.31
771.22	235.22
771.55	235.12
771.87	235.03
772.20	234.91
772.52	234.90
772.85	234.91
773.17	234.80
773.50	234.71
773.82	234.59
774.15	234.51
774.47	234.37
774.80	234.24
775.12	234.14
775.45	234.02
775.77	233.92
776.09	233.87
776.42	233.77
776.74	233.71
777.07	233.59
777.39	233.51
777.72	233.43
778.04	233.36
778.36	233.24
778.69	233.18
779.01	233.11
779.33	232.97
779.66	232.78
779.98	232.68
780.31	232.60
780.63	232.56
780.95	232.49
781.28	232.43
781.60	232.43
781.92	232.39
782.25	232.33
782.57	232.26
782.89	232.19
783.22	232.11
783.54	232.04
783.86	231.99
784.19	231.95
784.51	231.92
784.83	231.85
785.16	231.82
785.48	231.76
785.80	231.73
786.12	231.68
786.45	231.63
786.77	231.60
787.09	231.54
