SpectraSuite Data File
++++++++++++++++++++++++++++++++++++
Date: Fri Feb 01 15:18:56 EST 2013
User: group
Dark Spectrum Present: No
Reference Spectrum Present: No
Number of Sampled Component Spectra: 1
Spectrometers: USB2E7196
Integration Time (usec): 35000 (USB2E7196)
Spectra Averaged: 100 (USB2E7196)
Boxcar Smoothing: 10 (USB2E7196)
Correct for Electrical Dark: No (USB2E7196)
Strobe/Lamp Enabled: No (USB2E7196)
Correct for Detector Non-linearity: No (USB2E7196)
Correct for Stray Light: No (USB2E7196)
Number of Pixels in Processed Spectrum: 2048
>>>>>Begin Processed Spectral Data<<<<<
339.09	0.00
339.48	215.59
339.86	216.72
340.24	218.42
340.63	219.41
341.01	222.22
341.39	221.94
341.78	223.59
342.16	225.02
342.54	224.76
342.93	213.48
343.31	224.28
343.69	224.82
344.07	225.31
344.46	225.71
344.84	226.10
345.22	226.32
345.60	226.59
345.99	226.77
346.37	226.87
346.75	226.98
347.13	227.03
347.52	227.08
347.90	227.15
348.28	227.20
348.66	227.25
349.05	227.25
349.43	227.32
349.81	227.36
350.19	227.42
350.57	227.45
350.96	227.52
351.34	227.59
351.72	227.64
352.10	227.70
352.48	227.78
352.87	227.80
353.25	227.88
353.63	227.93
354.01	228.00
354.39	228.06
354.77	228.14
355.15	228.24
355.54	228.32
355.92	228.37
356.30	228.44
356.68	228.58
357.06	228.67
357.44	228.71
357.82	228.77
358.20	228.84
358.58	228.91
358.97	228.98
359.35	229.06
359.73	229.15
360.11	229.18
360.49	229.24
360.87	229.31
361.25	229.34
361.63	229.43
362.01	229.45
362.39	229.50
362.77	229.53
363.15	229.54
363.53	229.56
363.91	229.57
364.29	229.57
364.67	229.48
365.05	229.44
365.43	229.47
365.81	229.49
366.19	229.53
366.57	229.58
366.95	229.54
367.33	229.51
367.71	229.49
368.09	229.49
368.47	229.47
368.85	229.42
369.23	229.43
369.61	229.35
369.99	229.35
370.37	229.35
370.75	229.35
371.13	229.26
371.51	229.23
371.89	229.21
372.27	229.14
372.65	229.09
373.03	229.07
373.41	229.00
373.78	228.96
374.16	228.87
374.54	228.76
374.92	228.70
375.30	228.63
375.68	228.55
376.06	228.48
376.44	228.41
376.82	228.36
377.19	228.31
377.57	228.22
377.95	228.11
378.33	228.00
378.71	227.91
379.09	227.88
379.47	227.75
379.84	227.68
380.22	227.63
380.60	227.54
380.98	227.48
381.36	227.40
381.73	227.28
382.11	227.20
382.49	227.14
382.87	227.05
383.25	226.97
383.62	227.01
384.00	226.93
384.38	226.86
384.76	226.81
385.13	226.74
385.51	226.71
385.89	226.65
386.27	226.60
386.64	226.51
387.02	226.43
387.40	226.41
387.78	226.35
388.15	226.31
388.53	226.29
388.91	226.28
389.29	226.22
389.66	226.24
390.04	226.20
390.42	226.19
390.79	226.19
391.17	226.21
391.55	226.11
391.92	226.11
392.30	226.13
392.68	226.09
393.05	226.09
393.43	226.10
393.81	226.12
394.18	226.13
394.56	226.15
394.94	226.21
395.31	226.24
395.69	226.30
396.06	226.34
396.44	226.41
396.82	226.42
397.19	226.55
397.57	226.59
397.95	226.65
398.32	226.63
398.70	226.72
399.07	226.76
399.45	226.82
399.82	226.91
400.20	226.96
400.58	227.07
400.95	227.11
401.33	227.22
401.70	227.34
402.08	227.44
402.45	227.57
402.83	227.68
403.20	227.81
403.58	227.95
403.95	228.08
404.33	228.18
404.71	228.30
405.08	228.44
405.46	228.58
405.83	228.78
406.21	228.97
406.58	229.12
406.96	229.35
407.33	229.53
407.70	229.71
408.08	229.99
408.45	230.24
408.83	230.51
409.20	230.72
409.58	230.94
409.95	231.21
410.33	231.49
410.70	231.75
411.08	232.05
411.45	232.34
411.82	232.66
412.20	233.04
412.57	233.48
412.95	233.81
413.32	234.22
413.69	234.59
414.07	235.01
414.44	235.45
414.82	235.90
415.19	236.46
415.56	237.01
415.94	237.56
416.31	238.14
416.68	238.77
417.06	239.51
417.43	240.20
417.81	241.00
418.18	241.77
418.55	242.62
418.93	243.49
419.30	244.40
419.67	245.37
420.04	246.34
420.42	247.33
420.79	248.53
421.16	249.65
421.54	250.90
421.91	252.14
422.28	253.42
422.66	254.77
423.03	256.10
423.40	257.42
423.77	258.84
424.15	260.30
424.52	261.76
424.89	263.33
425.26	264.90
425.64	266.32
426.01	267.90
426.38	269.61
426.75	271.27
427.13	273.00
427.50	274.76
427.87	276.65
428.24	278.50
428.61	280.20
428.99	282.19
429.36	284.32
429.73	286.38
430.10	288.39
430.47	290.45
430.85	292.54
431.22	294.76
431.59	297.15
431.96	299.37
432.33	301.91
432.70	304.32
433.08	307.13
433.45	309.81
433.82	312.46
434.19	315.32
434.56	318.13
434.93	320.76
435.30	323.44
435.68	326.28
436.05	329.10
436.42	331.89
436.79	334.40
437.16	337.03
437.53	339.90
437.90	342.70
438.27	345.44
438.64	348.29
439.01	350.92
439.38	353.18
439.75	355.36
440.13	357.88
440.50	360.20
440.87	362.02
441.24	363.91
441.61	366.03
441.98	367.50
442.35	369.26
442.72	371.16
443.09	372.92
443.46	373.95
443.83	374.51
444.20	375.03
444.57	375.86
444.94	376.16
445.31	376.47
445.68	376.83
446.05	376.92
446.42	376.53
446.79	376.07
447.16	375.60
447.53	375.28
447.90	374.06
448.27	372.89
448.64	371.32
449.01	370.18
449.37	368.23
449.74	366.34
450.11	364.13
450.48	361.60
450.85	359.06
451.22	356.86
451.59	354.85
451.96	352.88
452.33	350.21
452.70	347.84
453.07	345.01
453.43	342.10
453.80	339.28
454.17	336.60
454.54	334.06
454.91	331.32
455.28	328.63
455.65	326.16
456.02	323.70
456.38	321.55
456.75	318.93
457.12	316.68
457.49	314.41
457.86	312.23
458.23	310.40
458.59	308.36
458.96	306.31
459.33	304.50
459.70	302.64
460.07	301.20
460.43	299.52
460.80	297.91
461.17	296.49
461.54	295.00
461.91	293.60
462.27	292.15
462.64	290.93
463.01	289.57
463.38	288.29
463.74	286.90
464.11	285.71
464.48	284.65
464.85	283.54
465.21	282.68
465.58	281.74
465.95	280.63
466.32	279.77
466.68	278.85
467.05	277.93
467.42	277.03
467.78	276.09
468.15	275.19
468.52	274.51
468.88	273.63
469.25	272.88
469.62	272.20
469.98	271.52
470.35	270.88
470.72	270.24
471.08	269.55
471.45	269.06
471.82	268.54
472.18	267.96
472.55	267.54
472.92	267.02
473.28	266.59
473.65	266.12
474.02	265.62
474.38	265.27
474.75	264.96
475.11	264.62
475.48	264.33
475.85	264.09
476.21	263.86
476.58	263.70
476.94	263.55
477.31	263.40
477.67	263.27
478.04	263.11
478.41	263.07
478.77	263.11
479.14	263.03
479.50	263.01
479.87	263.06
480.23	263.13
480.60	263.17
480.96	263.25
481.33	263.48
481.69	263.73
482.06	263.90
482.42	264.11
482.79	264.36
483.15	264.69
483.52	265.07
483.88	265.41
484.25	265.78
484.61	266.20
484.98	266.63
485.34	267.19
485.71	267.80
486.07	268.37
486.44	268.94
486.80	269.63
487.17	270.37
487.53	271.18
487.90	272.01
488.26	272.95
488.62	273.90
488.99	274.85
489.35	275.85
489.72	276.98
490.08	278.20
490.44	279.43
490.81	280.74
491.17	282.10
491.54	283.58
491.90	285.12
492.26	286.74
492.63	288.48
492.99	290.24
493.36	292.20
493.72	294.25
494.08	296.34
494.45	298.57
494.81	300.90
495.17	303.31
495.54	305.85
495.90	308.56
496.26	311.36
496.63	314.35
496.99	317.48
497.35	320.72
497.72	324.10
498.08	327.61
498.44	331.25
498.80	335.15
499.17	339.20
499.53	343.39
499.89	347.80
500.26	352.27
500.62	356.96
500.98	361.82
501.34	366.93
501.71	372.29
502.07	377.73
502.43	383.38
502.79	389.23
503.16	395.25
503.52	401.47
503.88	407.91
504.24	414.50
504.60	421.39
504.97	428.50
505.33	435.80
505.69	443.50
506.05	451.33
506.41	459.20
506.78	467.34
507.14	475.81
507.50	484.46
507.86	493.52
508.22	502.69
508.59	511.97
508.95	521.54
509.31	531.32
509.67	541.46
510.03	551.73
510.39	562.28
510.75	573.13
511.12	584.11
511.48	595.41
511.84	606.88
512.20	618.41
512.56	630.41
512.92	642.63
513.28	654.99
513.64	667.51
514.00	680.30
514.37	693.19
514.73	706.24
515.09	719.43
515.45	732.65
515.81	746.25
516.17	760.18
516.53	774.30
516.89	788.48
517.25	802.75
517.61	817.26
517.97	831.77
518.33	846.29
518.69	861.14
519.05	876.19
519.41	891.36
519.77	906.92
520.13	922.42
520.49	937.79
520.85	953.26
521.21	969.00
521.57	985.21
521.93	1001.19
522.29	1017.65
522.65	1033.78
523.01	1050.32
523.37	1066.44
523.73	1082.66
524.09	1098.77
524.45	1115.18
524.81	1131.82
525.17	1148.62
525.53	1165.59
525.89	1182.47
526.25	1199.21
526.61	1215.63
526.97	1232.49
527.33	1249.03
527.68	1265.61
528.04	1282.12
528.40	1298.82
528.76	1315.96
529.12	1332.69
529.48	1349.59
529.84	1365.76
530.20	1382.50
530.56	1399.45
530.91	1416.89
531.27	1433.81
531.63	1450.39
531.99	1467.11
532.35	1483.10
532.71	1499.14
533.07	1515.31
533.42	1531.28
533.78	1547.47
534.14	1563.82
534.50	1579.21
534.86	1595.16
535.21	1610.45
535.57	1626.61
535.93	1642.14
536.29	1657.01
536.65	1672.21
537.00	1686.95
537.36	1702.22
537.72	1716.81
538.08	1731.22
538.44	1745.07
538.79	1759.06
539.15	1772.76
539.51	1786.47
539.87	1800.99
540.22	1814.80
540.58	1828.80
540.94	1842.29
541.29	1855.28
541.65	1868.00
542.01	1881.35
542.37	1893.60
542.72	1906.27
543.08	1918.05
543.44	1930.59
543.79	1941.94
544.15	1952.88
544.51	1964.55
544.87	1975.45
545.22	1986.26
545.58	1996.60
545.94	2006.39
546.29	2016.19
546.65	2026.05
547.01	2035.22
547.36	2043.92
547.72	2052.41
548.07	2060.30
548.43	2068.55
548.79	2076.67
549.14	2084.25
549.50	2091.52
549.86	2099.40
550.21	2106.61
550.57	2113.75
550.92	2120.26
551.28	2127.32
551.64	2134.36
551.99	2140.98
552.35	2147.35
552.70	2153.60
553.06	2159.58
553.41	2165.92
553.77	2172.05
554.13	2178.17
554.48	2184.35
554.84	2189.77
555.19	2195.03
555.55	2200.16
555.90	2204.56
556.26	2209.37
556.61	2214.16
556.97	2218.36
557.32	2222.43
557.68	2226.61
558.03	2230.87
558.39	2234.60
558.74	2239.27
559.10	2243.20
559.45	2246.73
559.81	2250.95
560.16	2254.69
560.52	2257.73
560.87	2261.25
561.23	2263.94
561.58	2267.01
561.94	2269.64
562.29	2272.04
562.64	2274.64
563.00	2277.18
563.35	2280.66
563.71	2283.73
564.06	2286.87
564.42	2289.81
564.77	2292.23
565.12	2294.30
565.48	2296.05
565.83	2297.87
566.19	2298.98
566.54	2299.79
566.89	2300.74
567.25	2301.16
567.60	2302.57
567.96	2304.29
568.31	2305.06
568.66	2305.91
569.02	2306.39
569.37	2306.60
569.72	2307.39
570.08	2307.52
570.43	2307.49
570.78	2306.66
571.14	2305.03
571.49	2303.58
571.84	2303.13
572.20	2301.88
572.55	2300.82
572.90	2299.43
573.26	2297.91
573.61	2296.09
573.96	2294.22
574.31	2291.43
574.67	2288.39
575.02	2284.61
575.37	2281.07
575.72	2277.14
576.08	2273.87
576.43	2270.50
576.78	2266.72
577.13	2263.49
577.49	2260.29
577.84	2256.66
578.19	2253.05
578.54	2249.33
578.90	2244.98
579.25	2239.40
579.60	2234.41
579.95	2229.32
580.30	2224.30
580.66	2218.99
581.01	2213.97
581.36	2208.95
581.71	2204.55
582.06	2199.95
582.42	2195.35
582.77	2190.21
583.12	2185.52
583.47	2180.65
583.82	2175.38
584.17	2170.06
584.53	2164.43
584.88	2158.72
585.23	2152.84
585.58	2147.28
585.93	2141.85
586.28	2137.13
586.63	2132.00
586.98	2126.81
587.34	2122.04
587.69	2116.91
588.04	2111.54
588.39	2105.66
588.74	2099.21
589.09	2092.92
589.44	2086.12
589.79	2079.98
590.14	2074.21
590.49	2067.70
590.84	2061.13
591.19	2055.09
591.54	2048.59
591.89	2040.94
592.25	2034.01
592.60	2026.79
592.95	2018.94
593.30	2011.40
593.65	2003.64
594.00	1996.54
594.35	1989.37
594.70	1981.26
595.05	1973.90
595.40	1966.62
595.75	1959.24
596.10	1952.75
596.45	1945.93
596.80	1939.59
597.15	1932.86
597.50	1925.67
597.85	1919.01
598.19	1912.36
598.54	1905.20
598.89	1898.58
599.24	1892.81
599.59	1885.99
599.94	1879.73
600.29	1873.43
600.64	1867.00
600.99	1859.36
601.34	1852.43
601.69	1845.43
602.04	1838.46
602.39	1830.98
602.74	1824.13
603.08	1817.43
603.43	1810.82
603.78	1803.49
604.13	1796.35
604.48	1789.00
604.83	1782.23
605.18	1775.26
605.53	1767.23
605.87	1759.14
606.22	1751.81
606.57	1743.85
606.92	1736.61
607.27	1729.29
607.62	1722.35
607.96	1714.90
608.31	1708.33
608.66	1700.73
609.01	1692.98
609.36	1685.48
609.70	1677.57
610.05	1669.51
610.40	1661.62
610.75	1653.24
611.10	1645.71
611.44	1637.32
611.79	1629.53
612.14	1620.68
612.49	1611.58
612.83	1603.20
613.18	1595.11
613.53	1587.04
613.88	1578.53
614.22	1570.35
614.57	1561.85
614.92	1553.81
615.27	1546.17
615.61	1537.83
615.96	1529.81
616.31	1522.16
616.65	1514.75
617.00	1507.28
617.35	1499.66
617.70	1491.36
618.04	1482.87
618.39	1474.57
618.74	1467.01
619.08	1458.57
619.43	1451.04
619.78	1444.19
620.12	1437.05
620.47	1429.58
620.82	1421.32
621.16	1413.85
621.51	1406.16
621.85	1398.64
622.20	1390.04
622.55	1381.70
622.89	1373.89
623.24	1366.31
623.59	1358.93
623.93	1351.47
624.28	1344.16
624.62	1336.51
624.97	1329.35
625.32	1322.72
625.66	1315.62
626.01	1308.30
626.35	1300.89
626.70	1293.13
627.04	1285.23
627.39	1277.46
627.73	1269.98
628.08	1263.10
628.43	1255.80
628.77	1248.38
629.12	1240.68
629.46	1233.57
629.81	1226.29
630.15	1219.08
630.50	1211.69
630.84	1203.60
631.19	1195.69
631.53	1188.27
631.88	1180.77
632.22	1173.20
632.57	1165.87
632.91	1158.29
633.26	1151.00
633.60	1143.63
633.95	1136.64
634.29	1129.72
634.64	1123.07
634.98	1115.76
635.32	1108.62
635.67	1102.06
636.01	1095.47
636.36	1088.75
636.70	1082.22
637.05	1075.63
637.39	1069.16
637.73	1062.59
638.08	1056.80
638.42	1050.74
638.77	1044.20
639.11	1037.57
639.45	1031.17
639.80	1024.45
640.14	1018.13
640.49	1011.59
640.83	1005.33
641.17	999.05
641.52	992.71
641.86	986.27
642.20	980.48
642.55	974.18
642.89	967.60
643.23	961.05
643.58	955.28
643.92	949.13
644.26	943.09
644.61	937.16
644.95	931.06
645.29	924.38
645.64	917.69
645.98	911.38
646.32	905.63
646.66	899.64
647.01	893.84
647.35	888.13
647.69	882.33
648.04	876.79
648.38	871.02
648.72	864.93
649.06	858.86
649.41	852.94
649.75	846.88
650.09	840.95
650.43	835.16
650.78	829.00
651.12	823.03
651.46	817.27
651.80	811.43
652.14	806.09
652.49	800.74
652.83	795.54
653.17	789.84
653.51	784.04
653.85	778.66
654.20	773.01
654.54	767.02
654.88	761.32
655.22	755.48
655.56	749.81
655.90	744.48
656.25	739.23
656.59	733.90
656.93	728.92
657.27	723.74
657.61	718.26
657.95	713.16
658.29	708.08
658.64	702.82
658.98	697.55
659.32	692.13
659.66	686.91
660.00	681.60
660.34	676.75
660.68	671.88
661.02	666.88
661.36	662.14
661.70	657.74
662.05	653.35
662.39	649.02
662.73	644.57
663.07	640.17
663.41	635.69
663.75	631.27
664.09	626.78
664.43	622.49
664.77	618.45
665.11	614.25
665.45	610.20
665.79	606.19
666.13	602.11
666.47	598.00
666.81	593.79
667.15	589.72
667.49	585.87
667.83	582.10
668.17	578.09
668.51	574.08
668.85	570.05
669.19	566.23
669.53	562.38
669.87	558.42
670.21	554.69
670.55	551.09
670.89	547.64
671.23	544.17
671.57	540.65
671.91	537.12
672.25	533.63
672.58	530.12
672.92	526.64
673.26	523.49
673.60	520.38
673.94	517.33
674.28	514.43
674.62	511.38
674.96	508.22
675.30	505.32
675.64	502.40
675.97	499.64
676.31	496.76
676.65	493.80
676.99	491.09
677.33	488.27
677.67	485.46
678.01	482.35
678.34	479.40
678.68	476.53
679.02	473.75
679.36	470.97
679.70	468.20
680.04	465.48
680.37	462.56
680.71	459.73
681.05	457.12
681.39	454.42
681.73	451.82
682.06	449.31
682.40	446.79
682.74	444.27
683.08	441.72
683.42	439.19
683.75	436.69
684.09	434.24
684.43	431.78
684.77	429.29
685.10	427.00
685.44	424.70
685.78	422.46
686.12	420.21
686.45	417.92
686.79	415.63
687.13	413.47
687.46	411.34
687.80	409.23
688.14	407.05
688.48	405.00
688.81	402.75
689.15	400.61
689.49	398.45
689.82	396.36
690.16	394.23
690.50	392.23
690.83	390.29
691.17	388.29
691.51	386.37
691.84	384.62
692.18	382.68
692.52	380.68
692.85	378.73
693.19	376.86
693.52	375.07
693.86	373.28
694.20	371.49
694.53	369.67
694.87	367.86
695.21	366.05
695.54	364.21
695.88	362.51
696.21	360.81
696.55	359.15
696.88	357.49
697.22	355.89
697.56	354.28
697.89	352.62
698.23	351.03
698.56	349.46
698.90	347.85
699.23	346.22
699.57	344.69
699.90	343.15
700.24	341.63
700.58	340.12
700.91	338.64
701.25	337.18
701.58	335.83
701.92	334.43
702.25	333.10
702.59	331.73
702.92	330.41
703.26	329.13
703.59	327.87
703.93	326.69
704.26	325.46
704.60	324.17
704.93	322.97
705.26	321.70
705.60	320.55
705.93	319.35
706.27	318.35
706.60	317.33
706.94	316.27
707.27	315.09
707.61	314.04
707.94	313.06
708.27	311.98
708.61	310.91
708.94	309.96
709.28	308.93
709.61	308.00
709.94	307.02
710.28	305.99
710.61	304.98
710.95	303.92
711.28	302.98
711.61	302.04
711.95	301.09
712.28	300.19
712.61	299.17
712.95	298.25
713.28	297.37
713.61	296.45
713.95	295.58
714.28	294.79
714.61	293.90
714.95	293.01
715.28	292.16
715.61	291.28
715.95	290.40
716.28	289.61
716.61	288.76
716.95	287.97
717.28	287.24
717.61	286.53
717.94	285.82
718.28	285.00
718.61	284.28
718.94	283.59
719.27	282.90
719.61	282.29
719.94	281.63
720.27	280.88
720.60	280.21
720.94	279.56
721.27	278.92
721.60	278.36
721.93	277.76
722.27	277.23
722.60	276.72
722.93	276.12
723.26	275.57
723.59	275.01
723.93	274.46
724.26	273.86
724.59	273.27
724.92	272.74
725.25	272.23
725.59	271.70
725.92	271.18
726.25	270.69
726.58	270.19
726.91	269.67
727.24	269.21
727.57	268.74
727.91	268.21
728.24	267.75
728.57	267.25
728.90	266.81
729.23	266.30
729.56	265.84
729.89	265.36
730.22	264.85
730.55	264.41
730.89	263.96
731.22	263.52
731.55	263.04
731.88	262.60
732.21	262.20
732.54	261.77
732.87	261.34
733.20	260.94
733.53	260.55
733.86	260.18
734.19	259.76
734.52	259.36
734.85	259.09
735.18	258.68
735.51	258.32
735.84	257.94
736.17	257.62
736.50	257.18
736.83	256.95
737.16	256.62
737.49	256.26
737.82	255.92
738.15	255.61
738.48	255.29
738.81	254.94
739.14	254.60
739.47	254.29
739.80	254.01
740.13	253.70
740.46	253.35
740.79	253.04
741.12	252.75
741.45	252.45
741.78	252.08
742.11	251.82
742.44	251.48
742.77	251.20
743.10	250.87
743.43	250.59
743.75	250.22
744.08	250.09
744.41	249.84
744.74	249.55
745.07	249.25
745.40	249.02
745.73	248.77
746.06	248.48
746.39	248.23
746.71	247.94
747.04	247.65
747.37	247.39
747.70	247.13
748.03	246.87
748.36	246.65
748.68	246.42
749.01	246.17
749.34	245.94
749.67	245.70
750.00	245.48
750.33	245.35
750.65	245.12
750.98	244.76
751.31	244.54
751.64	244.36
751.97	244.23
752.29	244.02
752.62	243.79
752.95	243.60
753.28	243.35
753.60	243.15
753.93	242.96
754.26	242.79
754.59	242.59
754.91	242.37
755.24	242.18
755.57	241.99
755.90	241.81
756.22	241.64
756.55	241.44
756.88	241.25
757.20	241.01
757.53	240.83
757.86	240.68
758.19	240.53
758.51	240.35
758.84	240.11
759.17	239.92
759.49	239.81
759.82	239.71
760.15	239.60
760.47	239.45
760.80	239.30
761.13	239.17
761.45	239.02
761.78	238.88
762.11	238.74
762.43	238.59
762.76	238.47
763.08	238.33
763.41	238.22
763.74	238.10
764.06	237.96
764.39	237.84
764.71	237.69
765.04	237.56
765.37	237.43
765.69	237.33
766.02	237.21
766.34	237.05
766.67	236.87
767.00	236.78
767.32	236.75
767.65	236.69
767.97	236.57
768.30	236.47
768.62	236.39
768.95	236.28
769.27	236.14
769.60	236.05
769.92	235.90
770.25	235.74
770.57	235.66
770.90	235.56
771.22	235.45
771.55	235.37
771.87	235.24
772.20	235.14
772.52	235.14
772.85	235.14
773.17	235.03
773.50	234.91
773.82	234.78
774.15	234.62
774.47	234.48
774.80	234.37
775.12	234.26
775.45	234.17
775.77	234.11
776.09	234.06
776.42	233.97
776.74	233.95
777.07	233.87
777.39	233.77
777.72	233.68
778.04	233.60
778.36	233.50
778.69	233.47
779.01	233.40
779.33	233.23
779.66	233.06
779.98	233.05
780.31	233.03
780.63	233.01
780.95	232.93
781.28	232.90
781.60	232.84
781.92	232.82
782.25	232.73
782.57	232.64
782.89	232.55
783.22	232.48
783.54	232.40
783.86	232.37
784.19	232.33
784.51	232.30
784.83	232.23
785.16	232.17
785.48	232.10
785.80	232.08
786.12	232.03
786.45	232.01
786.77	231.91
787.09	231.84
