SpectraSuite Data File
++++++++++++++++++++++++++++++++++++
Date: Fri Feb 01 17:25:40 EST 2013
User: group
Dark Spectrum Present: No
Reference Spectrum Present: No
Number of Sampled Component Spectra: 1
Spectrometers: USB2E7196
Integration Time (usec): 35000 (USB2E7196)
Spectra Averaged: 100 (USB2E7196)
Boxcar Smoothing: 10 (USB2E7196)
Correct for Electrical Dark: No (USB2E7196)
Strobe/Lamp Enabled: No (USB2E7196)
Correct for Detector Non-linearity: No (USB2E7196)
Correct for Stray Light: No (USB2E7196)
Number of Pixels in Processed Spectrum: 2048
>>>>>Begin Processed Spectral Data<<<<<
339.09	0.00
339.48	213.12
339.86	213.95
340.24	215.54
340.63	217.48
341.01	219.73
341.39	219.26
341.78	220.82
342.16	222.43
342.54	222.21
342.93	211.14
343.31	221.83
343.69	222.35
344.07	222.82
344.46	223.26
344.84	223.60
345.22	223.85
345.60	224.12
345.99	224.31
346.37	224.40
346.75	224.50
347.13	224.57
347.52	224.64
347.90	224.71
348.28	224.75
348.66	224.76
349.05	224.76
349.43	224.76
349.81	224.83
350.19	224.87
350.57	224.88
350.96	224.95
351.34	225.01
351.72	225.08
352.10	225.19
352.48	225.23
352.87	225.28
353.25	225.33
353.63	225.36
354.01	225.42
354.39	225.51
354.77	225.60
355.15	225.74
355.54	225.79
355.92	225.81
356.30	225.87
356.68	226.06
357.06	226.13
357.44	226.18
357.82	226.24
358.20	226.33
358.58	226.41
358.97	226.47
359.35	226.57
359.73	226.64
360.11	226.70
360.49	226.79
360.87	226.87
361.25	226.93
361.63	227.04
362.01	227.10
362.39	227.13
362.77	227.18
363.15	227.17
363.53	227.20
363.91	227.26
364.29	227.25
364.67	227.19
365.05	227.22
365.43	227.25
365.81	227.27
366.19	227.32
366.57	227.38
366.95	227.42
367.33	227.41
367.71	227.40
368.09	227.40
368.47	227.38
368.85	227.37
369.23	227.39
369.61	227.33
369.99	227.34
370.37	227.35
370.75	227.39
371.13	227.36
371.51	227.31
371.89	227.27
372.27	227.29
372.65	227.24
373.03	227.18
373.41	227.11
373.78	227.06
374.16	226.96
374.54	226.89
374.92	226.83
375.30	226.75
375.68	226.72
376.06	226.66
376.44	226.59
376.82	226.53
377.19	226.43
377.57	226.38
377.95	226.27
378.33	226.20
378.71	226.09
379.09	226.03
379.47	225.99
379.84	225.93
380.22	225.88
380.60	225.83
380.98	225.75
381.36	225.71
381.73	225.66
382.11	225.61
382.49	225.55
382.87	225.47
383.25	225.43
383.62	225.48
384.00	225.41
384.38	225.35
384.76	225.34
385.13	225.33
385.51	225.29
385.89	225.28
386.27	225.23
386.64	225.18
387.02	225.15
387.40	225.09
387.78	225.04
388.15	224.97
388.53	224.92
388.91	224.92
389.29	224.87
389.66	224.87
390.04	224.82
390.42	224.81
390.79	224.81
391.17	224.80
391.55	224.65
391.92	224.63
392.30	224.66
392.68	224.61
393.05	224.60
393.43	224.57
393.81	224.53
394.18	224.51
394.56	224.54
394.94	224.58
395.31	224.63
395.69	224.69
396.06	224.72
396.44	224.73
396.82	224.76
397.19	224.87
397.57	224.89
397.95	224.95
398.32	224.96
398.70	225.00
399.07	225.06
399.45	225.12
399.82	225.15
400.20	225.19
400.58	225.25
400.95	225.26
401.33	225.36
401.70	225.51
402.08	225.62
402.45	225.69
402.83	225.75
403.20	225.82
403.58	225.90
403.95	226.03
404.33	226.16
404.71	226.27
405.08	226.42
405.46	226.55
405.83	226.68
406.21	226.83
406.58	226.98
406.96	227.10
407.33	227.29
407.70	227.50
408.08	227.77
408.45	227.98
408.83	228.23
409.20	228.48
409.58	228.62
409.95	228.85
410.33	229.11
410.70	229.42
411.08	229.72
411.45	230.04
411.82	230.32
412.20	230.69
412.57	231.13
412.95	231.42
413.32	231.86
413.69	232.28
414.07	232.73
414.44	233.23
414.82	233.74
415.19	234.34
415.56	234.94
415.94	235.54
416.31	236.20
416.68	236.85
417.06	237.57
417.43	238.33
417.81	239.14
418.18	239.96
418.55	240.82
418.93	241.77
419.30	242.71
419.67	243.71
420.04	244.69
420.42	245.71
420.79	246.95
421.16	248.13
421.54	249.33
421.91	250.60
422.28	251.91
422.66	253.31
423.03	254.64
423.40	256.05
423.77	257.52
424.15	258.99
424.52	260.55
424.89	262.24
425.26	263.87
425.64	265.40
426.01	267.03
426.38	268.75
426.75	270.50
427.13	272.26
427.50	274.16
427.87	276.13
428.24	278.06
428.61	279.85
428.99	281.90
429.36	284.09
429.73	286.23
430.10	288.35
430.47	290.45
430.85	292.64
431.22	294.94
431.59	297.40
431.96	299.73
432.33	302.29
432.70	304.71
433.08	307.62
433.45	310.34
433.82	313.07
434.19	316.06
434.56	318.91
434.93	321.68
435.30	324.38
435.68	327.34
436.05	330.28
436.42	333.20
436.79	335.75
437.16	338.56
437.53	341.44
437.90	344.31
438.27	347.19
438.64	350.09
439.01	352.75
439.38	355.07
439.75	357.34
440.13	359.91
440.50	362.32
440.87	364.21
441.24	366.18
441.61	368.37
441.98	369.90
442.35	371.84
442.72	373.79
443.09	375.64
443.46	376.72
443.83	377.34
444.20	377.85
444.57	378.76
444.94	379.04
445.31	379.48
445.68	379.84
446.05	379.95
446.42	379.65
446.79	379.25
447.16	378.76
447.53	378.42
447.90	377.23
448.27	376.08
448.64	374.46
449.01	373.33
449.37	371.31
449.74	369.39
450.11	367.01
450.48	364.43
450.85	361.83
451.22	359.59
451.59	357.51
451.96	355.53
452.33	352.82
452.70	350.40
453.07	347.44
453.43	344.46
453.80	341.56
454.17	338.76
454.54	336.13
454.91	333.35
455.28	330.59
455.65	328.03
456.02	325.50
456.38	323.26
456.75	320.51
457.12	318.26
457.49	315.91
457.86	313.67
458.23	311.74
458.59	309.61
458.96	307.46
459.33	305.52
459.70	303.59
460.07	302.04
460.43	300.26
460.80	298.59
461.17	297.12
461.54	295.59
461.91	294.08
462.27	292.59
462.64	291.29
463.01	289.90
463.38	288.57
463.74	287.15
464.11	285.98
464.48	284.95
464.85	283.79
465.21	282.90
465.58	281.99
465.95	280.88
466.32	279.94
466.68	279.00
467.05	278.05
467.42	277.16
467.78	276.19
468.15	275.32
468.52	274.64
468.88	273.75
469.25	272.99
469.62	272.39
469.98	271.70
470.35	271.05
470.72	270.40
471.08	269.72
471.45	269.16
471.82	268.58
472.18	267.92
472.55	267.43
472.92	266.91
473.28	266.42
473.65	265.91
474.02	265.47
474.38	265.10
474.75	264.80
475.11	264.43
475.48	264.15
475.85	263.91
476.21	263.67
476.58	263.47
476.94	263.29
477.31	263.06
477.67	262.89
478.04	262.75
478.41	262.72
478.77	262.76
479.14	262.69
479.50	262.69
479.87	262.77
480.23	262.86
480.60	262.89
480.96	262.96
481.33	263.20
481.69	263.40
482.06	263.58
482.42	263.77
482.79	263.99
483.15	264.31
483.52	264.64
483.88	264.95
484.25	265.32
484.61	265.70
484.98	266.15
485.34	266.69
485.71	267.27
486.07	267.88
486.44	268.40
486.80	269.09
487.17	269.82
487.53	270.64
487.90	271.44
488.26	272.40
488.62	273.42
488.99	274.38
489.35	275.41
489.72	276.52
490.08	277.70
490.44	278.94
490.81	280.24
491.17	281.63
491.54	283.14
491.90	284.66
492.26	286.32
492.63	288.03
492.99	289.78
493.36	291.67
493.72	293.65
494.08	295.72
494.45	297.99
494.81	300.36
495.17	302.78
495.54	305.36
495.90	308.02
496.26	310.79
496.63	313.77
496.99	316.85
497.35	320.10
497.72	323.47
498.08	326.94
498.44	330.60
498.80	334.47
499.17	338.47
499.53	342.60
499.89	346.88
500.26	351.40
500.62	356.06
500.98	360.96
501.34	365.98
501.71	371.28
502.07	376.63
502.43	382.16
502.79	387.89
503.16	393.87
503.52	400.04
503.88	406.33
504.24	412.88
504.60	419.68
504.97	426.72
505.33	433.96
505.69	441.57
506.05	449.28
506.41	457.09
506.78	465.06
507.14	473.40
507.50	481.94
507.86	490.80
508.22	499.87
508.59	509.00
508.95	518.42
509.31	528.10
509.67	538.01
510.03	548.09
510.39	558.55
510.75	569.11
511.12	579.84
511.48	590.92
511.84	602.15
512.20	613.40
512.56	625.05
512.92	637.01
513.28	649.11
513.64	661.29
514.00	673.71
514.37	686.41
514.73	699.23
515.09	711.99
515.45	724.99
515.81	738.22
516.17	751.81
516.53	765.70
516.89	779.56
517.25	793.33
517.61	807.40
517.97	821.41
518.33	835.52
518.69	849.84
519.05	864.40
519.41	879.09
519.77	894.26
520.13	909.39
520.49	924.30
520.85	939.26
521.21	954.54
521.57	970.24
521.93	985.59
522.29	1001.46
522.65	1017.32
523.01	1033.04
523.37	1048.71
523.73	1064.35
524.09	1079.93
524.45	1095.74
524.81	1111.98
525.17	1128.22
525.53	1144.56
525.89	1160.95
526.25	1177.47
526.61	1193.49
526.97	1209.81
527.33	1225.88
527.68	1241.91
528.04	1257.99
528.40	1274.04
528.76	1290.67
529.12	1306.86
529.48	1323.40
529.84	1338.88
530.20	1355.10
530.56	1371.55
530.91	1388.42
531.27	1404.83
531.63	1420.92
531.99	1437.14
532.35	1452.79
532.71	1468.53
533.07	1484.49
533.42	1500.05
533.78	1515.68
534.14	1531.48
534.50	1546.46
534.86	1561.88
535.21	1576.79
535.57	1592.34
535.93	1607.67
536.29	1622.14
536.65	1636.85
537.00	1651.07
537.36	1666.18
537.72	1680.42
538.08	1694.61
538.44	1708.18
538.79	1721.92
539.15	1735.22
539.51	1748.62
539.87	1762.70
540.22	1776.12
540.58	1789.73
540.94	1802.87
541.29	1815.44
541.65	1828.01
542.01	1841.14
542.37	1853.41
542.72	1865.74
543.08	1877.48
543.44	1889.80
543.79	1901.12
544.15	1912.14
544.51	1923.82
544.87	1934.86
545.22	1945.75
545.58	1956.12
545.94	1965.92
546.29	1975.77
546.65	1985.91
547.01	1995.29
547.36	2004.02
547.72	2012.62
548.07	2020.60
548.43	2028.77
548.79	2036.91
549.14	2044.70
549.50	2051.98
549.86	2059.73
550.21	2067.19
550.57	2074.68
550.92	2081.45
551.28	2088.67
551.64	2095.88
551.99	2102.56
552.35	2108.87
552.70	2115.18
553.06	2121.52
553.41	2128.14
553.77	2134.39
554.13	2140.41
554.48	2146.75
554.84	2152.78
555.19	2158.17
555.55	2163.72
555.90	2168.55
556.26	2173.94
556.61	2178.92
556.97	2183.79
557.32	2188.40
557.68	2192.79
558.03	2197.19
558.39	2201.14
558.74	2205.96
559.10	2210.23
559.45	2214.19
559.81	2218.73
560.16	2222.88
560.52	2226.34
560.87	2230.00
561.23	2233.06
561.58	2236.36
561.94	2239.48
562.29	2241.93
562.64	2245.20
563.00	2248.12
563.35	2252.12
563.71	2255.55
564.06	2259.08
564.42	2262.20
564.77	2265.16
565.12	2268.12
565.48	2270.59
565.83	2272.96
566.19	2274.78
566.54	2276.00
566.89	2277.73
567.25	2278.94
567.60	2280.47
567.96	2282.68
568.31	2283.91
568.66	2285.37
569.02	2286.49
569.37	2287.18
569.72	2288.45
570.08	2289.04
570.43	2289.44
570.78	2289.28
571.14	2288.05
571.49	2287.04
571.84	2287.01
572.20	2286.26
572.55	2285.34
572.90	2284.04
573.26	2282.89
573.61	2281.32
573.96	2280.13
574.31	2277.50
574.67	2274.87
575.02	2271.73
575.37	2268.59
575.72	2265.27
576.08	2262.22
576.43	2259.17
576.78	2255.92
577.13	2252.97
577.49	2249.96
577.84	2246.76
578.19	2243.18
578.54	2240.11
578.90	2236.32
579.25	2231.19
579.60	2226.66
579.95	2222.05
580.30	2217.38
580.66	2212.51
581.01	2207.83
581.36	2203.09
581.71	2199.28
582.06	2195.20
582.42	2191.09
582.77	2186.24
583.12	2181.98
583.47	2177.78
583.82	2173.25
584.17	2168.21
584.53	2163.26
584.88	2158.08
585.23	2152.75
585.58	2147.63
585.93	2142.26
586.28	2137.64
586.63	2132.94
586.98	2127.85
587.34	2123.53
587.69	2118.79
588.04	2113.97
588.39	2108.81
588.74	2102.52
589.09	2096.60
589.44	2090.01
589.79	2084.07
590.14	2078.59
590.49	2072.22
590.84	2065.84
591.19	2059.98
591.54	2053.79
591.89	2046.69
592.25	2040.19
592.60	2032.99
592.95	2025.66
593.30	2018.59
593.65	2011.22
594.00	2004.28
594.35	1997.32
594.70	1989.17
595.05	1982.37
595.40	1975.13
595.75	1967.62
596.10	1961.78
596.45	1955.20
596.80	1949.12
597.15	1942.85
597.50	1936.06
597.85	1929.63
598.19	1923.19
598.54	1916.27
598.89	1909.72
599.24	1903.81
599.59	1897.34
599.94	1891.25
600.29	1885.02
600.64	1878.37
600.99	1871.21
601.34	1864.63
601.69	1857.72
602.04	1851.12
602.39	1843.79
602.74	1837.13
603.08	1830.64
603.43	1823.91
603.78	1816.62
604.13	1809.48
604.48	1802.33
604.83	1795.43
605.18	1788.90
605.53	1781.09
605.87	1773.09
606.22	1765.82
606.57	1757.87
606.92	1750.31
607.27	1743.29
607.62	1736.46
607.96	1729.40
608.31	1722.98
608.66	1715.35
609.01	1707.81
609.36	1700.35
609.70	1692.30
610.05	1684.32
610.40	1676.73
610.75	1668.44
611.10	1660.89
611.44	1652.41
611.79	1644.32
612.14	1635.67
612.49	1626.36
612.83	1617.78
613.18	1609.60
613.53	1601.51
613.88	1592.99
614.22	1584.74
614.57	1576.04
614.92	1567.95
615.27	1560.32
615.61	1551.83
615.96	1543.68
616.31	1535.94
616.65	1528.43
617.00	1520.80
617.35	1512.98
617.70	1504.57
618.04	1495.88
618.39	1487.39
618.74	1479.73
619.08	1471.27
619.43	1463.50
619.78	1456.30
620.12	1449.07
620.47	1441.50
620.82	1433.20
621.16	1425.55
621.51	1417.73
621.85	1410.02
622.20	1401.36
622.55	1392.88
622.89	1384.85
623.24	1377.03
623.59	1369.53
623.93	1361.90
624.28	1354.55
624.62	1347.05
624.97	1339.65
625.32	1332.80
625.66	1325.71
626.01	1318.58
626.35	1311.17
626.70	1303.28
627.04	1295.57
627.39	1287.66
627.73	1280.03
628.08	1272.98
628.43	1265.71
628.77	1258.46
629.12	1250.85
629.46	1243.64
629.81	1236.02
630.15	1228.60
630.50	1221.19
630.84	1212.96
631.19	1204.82
631.53	1197.17
631.88	1189.39
632.22	1181.77
632.57	1174.34
632.91	1166.72
633.26	1159.19
633.60	1151.60
633.95	1144.36
634.29	1137.19
634.64	1130.44
634.98	1123.09
635.32	1115.84
635.67	1109.17
636.01	1102.38
636.36	1095.52
636.70	1088.83
637.05	1082.31
637.39	1075.91
637.73	1069.40
638.08	1063.44
638.42	1057.43
638.77	1050.94
639.11	1044.35
639.45	1037.79
639.80	1031.15
640.14	1024.75
640.49	1018.12
640.83	1011.82
641.17	1005.66
641.52	999.29
641.86	992.79
642.20	986.87
642.55	980.48
642.89	973.94
643.23	967.23
643.58	961.40
643.92	955.23
644.26	949.24
644.61	942.98
644.95	936.98
645.29	930.43
645.64	923.78
645.98	917.39
646.32	911.38
646.66	905.37
647.01	899.54
647.35	893.79
647.69	887.93
648.04	882.35
648.38	876.55
648.72	870.66
649.06	864.63
649.41	858.72
649.75	852.92
650.09	847.00
650.43	841.31
650.78	835.13
651.12	829.18
651.46	823.34
651.80	817.83
652.14	812.36
652.49	806.97
652.83	801.69
653.17	796.11
653.51	790.54
653.85	785.05
654.20	779.39
654.54	773.38
654.88	767.53
655.22	761.56
655.56	755.81
655.90	750.25
656.25	744.98
656.59	739.55
656.93	734.38
657.27	729.20
657.61	723.65
657.95	718.51
658.29	713.38
658.64	708.05
658.98	702.53
659.32	697.00
659.66	691.75
660.00	686.41
660.34	681.32
660.68	676.29
661.02	671.26
661.36	666.48
661.70	661.97
662.05	657.68
662.39	653.40
662.73	648.82
663.07	644.39
663.41	639.94
663.75	635.55
664.09	630.86
664.43	626.43
664.77	622.36
665.11	618.10
665.45	613.96
665.79	609.86
666.13	605.75
666.47	601.63
666.81	597.43
667.15	593.30
667.49	589.33
667.83	585.45
668.17	581.50
668.51	577.48
668.85	573.36
669.19	569.41
669.53	565.54
669.87	561.71
670.21	558.01
670.55	554.33
670.89	550.82
671.23	547.42
671.57	543.81
671.91	540.21
672.25	536.67
672.58	533.12
672.92	529.70
673.26	526.46
673.60	523.23
673.94	520.10
674.28	517.11
674.62	514.20
674.96	511.17
675.30	508.24
675.64	505.25
675.97	502.45
676.31	499.57
676.65	496.60
676.99	493.88
677.33	490.96
677.67	488.11
678.01	485.06
678.34	482.09
678.68	479.18
679.02	476.42
679.36	473.65
679.70	470.88
680.04	468.10
680.37	465.26
680.71	462.50
681.05	459.84
681.39	457.10
681.73	454.42
682.06	451.85
682.40	449.29
682.74	446.74
683.08	444.20
683.42	441.57
683.75	439.06
684.09	436.45
684.43	433.96
684.77	431.46
685.10	429.09
685.44	426.75
685.78	424.46
686.12	422.11
686.45	419.75
686.79	417.45
687.13	415.21
687.46	413.06
687.80	410.87
688.14	408.59
688.48	406.55
688.81	404.30
689.15	402.14
689.49	399.89
689.82	397.77
690.16	395.57
690.50	393.64
690.83	391.72
691.17	389.70
691.51	387.81
691.84	385.95
692.18	384.00
692.52	382.01
692.85	380.05
693.19	378.19
693.52	376.32
693.86	374.50
694.20	372.71
694.53	370.86
694.87	368.98
695.21	367.19
695.54	365.34
695.88	363.58
696.21	361.79
696.55	360.12
696.88	358.42
697.22	356.75
697.56	355.03
697.89	353.34
698.23	351.74
698.56	350.08
698.90	348.47
699.23	346.85
699.57	345.24
699.90	343.67
700.24	342.12
700.58	340.61
700.91	339.09
701.25	337.64
701.58	336.24
701.92	334.84
702.25	333.48
702.59	332.06
702.92	330.71
703.26	329.41
703.59	328.19
703.93	326.98
704.26	325.72
704.60	324.41
704.93	323.10
705.26	321.84
705.60	320.60
705.93	319.41
706.27	318.31
706.60	317.26
706.94	316.23
707.27	315.04
707.61	313.92
707.94	312.83
708.27	311.65
708.61	310.54
708.94	309.55
709.28	308.51
709.61	307.55
709.94	306.58
710.28	305.53
710.61	304.52
710.95	303.40
711.28	302.51
711.61	301.55
711.95	300.65
712.28	299.69
712.61	298.72
712.95	297.78
713.28	296.86
713.61	295.92
713.95	294.96
714.28	294.09
714.61	293.23
714.95	292.36
715.28	291.54
715.61	290.63
715.95	289.72
716.28	288.85
716.61	287.93
716.95	287.07
717.28	286.34
717.61	285.51
717.94	284.81
718.28	283.95
718.61	283.20
718.94	282.51
719.27	281.86
719.61	281.23
719.94	280.55
720.27	279.83
720.60	279.13
720.94	278.51
721.27	277.93
721.60	277.34
721.93	276.76
722.27	276.20
722.60	275.66
722.93	275.07
723.26	274.54
723.59	274.06
723.93	273.54
724.26	272.94
724.59	272.38
724.92	271.84
725.25	271.36
725.59	270.83
725.92	270.29
726.25	269.77
726.58	269.24
726.91	268.75
727.24	268.26
727.57	267.82
727.91	267.33
728.24	266.83
728.57	266.31
728.90	265.85
729.23	265.35
729.56	264.91
729.89	264.43
730.22	263.95
730.55	263.46
730.89	263.05
731.22	262.60
731.55	262.14
731.88	261.65
732.21	261.22
732.54	260.79
732.87	260.33
733.20	259.93
733.53	259.53
733.86	259.13
734.19	258.78
734.52	258.37
734.85	258.04
735.18	257.63
735.51	257.30
735.84	256.94
736.17	256.57
736.50	256.17
736.83	255.96
737.16	255.61
737.49	255.29
737.82	254.88
738.15	254.58
738.48	254.25
738.81	253.97
739.14	253.62
739.47	253.28
739.80	252.97
740.13	252.64
740.46	252.30
740.79	251.96
741.12	251.62
741.45	251.33
741.78	250.91
742.11	250.61
742.44	250.24
742.77	249.94
743.10	249.64
743.43	249.36
743.75	248.95
744.08	248.78
744.41	248.48
744.74	248.21
745.07	247.89
745.40	247.63
745.73	247.36
746.06	247.06
746.39	246.79
746.71	246.50
747.04	246.22
747.37	245.94
747.70	245.68
748.03	245.40
748.36	245.14
748.68	244.94
749.01	244.71
749.34	244.49
749.67	244.26
750.00	244.03
750.33	243.84
750.65	243.63
750.98	243.27
751.31	243.06
751.64	242.84
751.97	242.69
752.29	242.45
752.62	242.18
752.95	242.01
753.28	241.78
753.60	241.56
753.93	241.37
754.26	241.20
754.59	240.98
754.91	240.73
755.24	240.54
755.57	240.36
755.90	240.15
756.22	239.96
756.55	239.72
756.88	239.54
757.20	239.28
757.53	239.05
757.86	238.87
758.19	238.70
758.51	238.53
758.84	238.29
759.17	238.14
759.49	238.02
759.82	237.89
760.15	237.74
760.47	237.60
760.80	237.44
761.13	237.30
761.45	237.15
761.78	237.03
762.11	236.88
762.43	236.71
762.76	236.57
763.08	236.42
763.41	236.30
763.74	236.11
764.06	235.98
764.39	235.86
764.71	235.70
765.04	235.55
765.37	235.39
765.69	235.27
766.02	235.12
766.34	235.01
766.67	234.83
767.00	234.71
767.32	234.64
767.65	234.61
767.97	234.51
768.30	234.37
768.62	234.26
768.95	234.15
769.27	234.05
769.60	233.98
769.92	233.85
770.25	233.75
770.57	233.67
770.90	233.58
771.22	233.49
771.55	233.42
771.87	233.33
772.20	233.25
772.52	233.22
772.85	233.24
773.17	233.11
773.50	233.02
773.82	232.93
774.15	232.83
774.47	232.66
774.80	232.56
775.12	232.50
775.45	232.46
775.77	232.40
776.09	232.31
776.42	232.24
776.74	232.20
777.07	232.10
777.39	232.04
777.72	231.95
778.04	231.87
778.36	231.79
778.69	231.73
779.01	231.68
779.33	231.59
779.66	231.38
779.98	231.33
780.31	231.29
780.63	231.26
780.95	231.19
781.28	231.13
781.60	231.04
781.92	230.96
782.25	230.86
782.57	230.77
782.89	230.70
783.22	230.63
783.54	230.56
783.86	230.50
784.19	230.48
784.51	230.48
784.83	230.40
785.16	230.35
785.48	230.31
785.80	230.24
786.12	230.19
786.45	230.20
786.77	230.13
787.09	230.06
