SpectraSuite Data File
++++++++++++++++++++++++++++++++++++
Date: Fri Feb 01 15:56:49 EST 2013
User: group
Dark Spectrum Present: No
Reference Spectrum Present: No
Number of Sampled Component Spectra: 1
Spectrometers: USB2E7196
Integration Time (usec): 35000 (USB2E7196)
Spectra Averaged: 100 (USB2E7196)
Boxcar Smoothing: 10 (USB2E7196)
Correct for Electrical Dark: No (USB2E7196)
Strobe/Lamp Enabled: No (USB2E7196)
Correct for Detector Non-linearity: No (USB2E7196)
Correct for Stray Light: No (USB2E7196)
Number of Pixels in Processed Spectrum: 2048
>>>>>Begin Processed Spectral Data<<<<<
339.09	0.00
339.48	214.80
339.86	215.97
340.24	217.28
340.63	218.78
341.01	221.62
341.39	221.20
341.78	222.63
342.16	224.47
342.54	224.22
342.93	213.14
343.31	223.91
343.69	224.44
344.07	224.90
344.46	225.34
344.84	225.72
345.22	225.95
345.60	226.20
345.99	226.44
346.37	226.54
346.75	226.66
347.13	226.69
347.52	226.72
347.90	226.79
348.28	226.78
348.66	226.83
349.05	226.84
349.43	226.86
349.81	226.87
350.19	226.92
350.57	226.97
350.96	227.01
351.34	227.10
351.72	227.18
352.10	227.29
352.48	227.36
352.87	227.43
353.25	227.48
353.63	227.56
354.01	227.61
354.39	227.72
354.77	227.79
355.15	227.93
355.54	228.03
355.92	228.07
356.30	228.19
356.68	228.33
357.06	228.42
357.44	228.49
357.82	228.58
358.20	228.64
358.58	228.72
358.97	228.81
359.35	228.88
359.73	228.97
360.11	229.03
360.49	229.11
360.87	229.18
361.25	229.27
361.63	229.36
362.01	229.38
362.39	229.38
362.77	229.44
363.15	229.45
363.53	229.49
363.91	229.50
364.29	229.51
364.67	229.42
365.05	229.41
365.43	229.42
365.81	229.41
366.19	229.47
366.57	229.47
366.95	229.45
367.33	229.40
367.71	229.38
368.09	229.37
368.47	229.32
368.85	229.27
369.23	229.24
369.61	229.17
369.99	229.18
370.37	229.16
370.75	229.14
371.13	229.07
371.51	228.99
371.89	228.93
372.27	228.91
372.65	228.87
373.03	228.81
373.41	228.75
373.78	228.69
374.16	228.58
374.54	228.49
374.92	228.46
375.30	228.43
375.68	228.36
376.06	228.30
376.44	228.26
376.82	228.20
377.19	228.17
377.57	228.10
377.95	227.98
378.33	227.88
378.71	227.76
379.09	227.70
379.47	227.65
379.84	227.56
380.22	227.45
380.60	227.36
380.98	227.28
381.36	227.19
381.73	227.14
382.11	227.06
382.49	226.98
382.87	226.87
383.25	226.76
383.62	226.81
384.00	226.69
384.38	226.60
384.76	226.53
385.13	226.49
385.51	226.42
385.89	226.38
386.27	226.32
386.64	226.29
387.02	226.22
387.40	226.12
387.78	226.12
388.15	226.11
388.53	226.08
388.91	226.06
389.29	226.04
389.66	226.01
390.04	226.00
390.42	225.99
390.79	226.01
391.17	226.03
391.55	225.90
391.92	225.90
392.30	225.90
392.68	225.90
393.05	225.85
393.43	225.88
393.81	225.90
394.18	225.92
394.56	225.93
394.94	225.99
395.31	226.03
395.69	226.08
396.06	226.13
396.44	226.17
396.82	226.18
397.19	226.29
397.57	226.33
397.95	226.37
398.32	226.41
398.70	226.46
399.07	226.51
399.45	226.59
399.82	226.67
400.20	226.74
400.58	226.84
400.95	226.93
401.33	226.99
401.70	227.13
402.08	227.25
402.45	227.36
402.83	227.44
403.20	227.58
403.58	227.68
403.95	227.80
404.33	227.93
404.71	228.08
405.08	228.26
405.46	228.40
405.83	228.59
406.21	228.75
406.58	228.94
406.96	229.12
407.33	229.31
407.70	229.50
408.08	229.79
408.45	230.01
408.83	230.27
409.20	230.50
409.58	230.68
409.95	230.94
410.33	231.22
410.70	231.51
411.08	231.79
411.45	232.09
411.82	232.38
412.20	232.75
412.57	233.17
412.95	233.44
413.32	233.87
413.69	234.27
414.07	234.70
414.44	235.15
414.82	235.65
415.19	236.16
415.56	236.74
415.94	237.31
416.31	237.93
416.68	238.56
417.06	239.29
417.43	239.99
417.81	240.77
418.18	241.56
418.55	242.39
418.93	243.29
419.30	244.21
419.67	245.15
420.04	246.04
420.42	247.02
420.79	248.20
421.16	249.33
421.54	250.53
421.91	251.74
422.28	252.97
422.66	254.31
423.03	255.61
423.40	256.95
423.77	258.32
424.15	259.74
424.52	261.20
424.89	262.83
425.26	264.37
425.64	265.83
426.01	267.41
426.38	269.06
426.75	270.70
427.13	272.42
427.50	274.21
427.87	276.09
428.24	277.98
428.61	279.72
428.99	281.67
429.36	283.72
429.73	285.79
430.10	287.82
430.47	289.89
430.85	292.01
431.22	294.22
431.59	296.56
431.96	298.78
432.33	301.24
432.70	303.59
433.08	306.38
433.45	309.02
433.82	311.65
434.19	314.56
434.56	317.38
434.93	320.03
435.30	322.65
435.68	325.57
436.05	328.38
436.42	331.16
436.79	333.63
437.16	336.36
437.53	339.13
437.90	341.92
438.27	344.58
438.64	347.38
439.01	349.95
439.38	352.20
439.75	354.39
440.13	356.91
440.50	359.20
440.87	361.02
441.24	362.94
441.61	365.03
441.98	366.48
442.35	368.27
442.72	370.11
443.09	371.93
443.46	372.92
443.83	373.50
444.20	373.99
444.57	374.86
444.94	375.13
445.31	375.53
445.68	375.86
446.05	375.93
446.42	375.56
446.79	375.15
447.16	374.70
447.53	374.37
447.90	373.20
448.27	372.08
448.64	370.53
449.01	369.38
449.37	367.44
449.74	365.60
450.11	363.36
450.48	360.88
450.85	358.34
451.22	356.21
451.59	354.22
451.96	352.29
452.33	349.64
452.70	347.30
453.07	344.47
453.43	341.61
453.80	338.85
454.17	336.20
454.54	333.67
454.91	330.95
455.28	328.23
455.65	325.75
456.02	323.31
456.38	321.14
456.75	318.53
457.12	316.31
457.49	314.05
457.86	311.93
458.23	310.04
458.59	308.04
458.96	305.99
459.33	304.11
459.70	302.27
460.07	300.82
460.43	299.08
460.80	297.50
461.17	296.07
461.54	294.62
461.91	293.19
462.27	291.74
462.64	290.51
463.01	289.20
463.38	287.92
463.74	286.58
464.11	285.48
464.48	284.40
464.85	283.26
465.21	282.39
465.58	281.40
465.95	280.37
466.32	279.42
466.68	278.46
467.05	277.57
467.42	276.67
467.78	275.69
468.15	274.84
468.52	274.13
468.88	273.28
469.25	272.49
469.62	271.88
469.98	271.23
470.35	270.58
470.72	269.96
471.08	269.31
471.45	268.73
471.82	268.14
472.18	267.55
472.55	267.15
472.92	266.62
473.28	266.20
473.65	265.73
474.02	265.27
474.38	264.98
474.75	264.64
475.11	264.31
475.48	264.09
475.85	263.83
476.21	263.59
476.58	263.41
476.94	263.29
477.31	263.12
477.67	262.99
478.04	262.88
478.41	262.84
478.77	262.87
479.14	262.83
479.50	262.82
479.87	262.92
480.23	262.97
480.60	263.08
480.96	263.14
481.33	263.36
481.69	263.57
482.06	263.75
482.42	263.97
482.79	264.22
483.15	264.52
483.52	264.89
483.88	265.25
484.25	265.63
484.61	266.00
484.98	266.43
485.34	266.96
485.71	267.55
486.07	268.16
486.44	268.71
486.80	269.42
487.17	270.17
487.53	270.95
487.90	271.81
488.26	272.71
488.62	273.72
488.99	274.65
489.35	275.71
489.72	276.80
490.08	277.96
490.44	279.20
490.81	280.51
491.17	281.90
491.54	283.41
491.90	284.88
492.26	286.57
492.63	288.30
492.99	290.07
493.36	291.99
493.72	294.03
494.08	296.12
494.45	298.39
494.81	300.76
495.17	303.21
495.54	305.79
495.90	308.47
496.26	311.27
496.63	314.28
496.99	317.40
497.35	320.71
497.72	324.13
498.08	327.67
498.44	331.35
498.80	335.24
499.17	339.23
499.53	343.45
499.89	347.78
500.26	352.32
500.62	357.02
500.98	362.03
501.34	367.13
501.71	372.49
502.07	377.94
502.43	383.59
502.79	389.41
503.16	395.44
503.52	401.77
503.88	408.15
504.24	414.81
504.60	421.65
504.97	428.73
505.33	436.12
505.69	443.84
506.05	451.61
506.41	459.49
506.78	467.66
507.14	476.14
507.50	484.96
507.86	494.01
508.22	503.24
508.59	512.42
508.95	521.98
509.31	531.75
509.67	541.89
510.03	552.15
510.39	562.69
510.75	573.52
511.12	584.46
511.48	595.74
511.84	607.12
512.20	618.70
512.56	630.70
512.92	642.76
513.28	655.06
513.64	667.54
514.00	680.30
514.37	693.31
514.73	706.33
515.09	719.31
515.45	732.58
515.81	746.20
516.17	760.23
516.53	774.38
516.89	788.59
517.25	802.68
517.61	817.09
517.97	831.51
518.33	845.87
518.69	860.57
519.05	875.58
519.41	890.78
519.77	906.27
520.13	921.61
520.49	937.04
520.85	952.40
521.21	968.19
521.57	984.36
521.93	1000.07
522.29	1016.46
522.65	1032.73
523.01	1048.93
523.37	1064.79
523.73	1080.96
524.09	1097.01
524.45	1113.27
524.81	1129.91
525.17	1146.70
525.53	1163.59
525.89	1180.46
526.25	1197.26
526.61	1213.61
526.97	1230.34
527.33	1246.78
527.68	1263.45
528.04	1279.91
528.40	1296.56
528.76	1313.52
529.12	1330.12
529.48	1346.94
529.84	1362.92
530.20	1379.56
530.56	1396.53
530.91	1413.92
531.27	1430.55
531.63	1446.96
531.99	1463.60
532.35	1479.36
532.71	1495.17
533.07	1511.48
533.42	1527.39
533.78	1543.42
534.14	1559.66
534.50	1574.92
534.86	1590.83
535.21	1605.95
535.57	1621.81
535.93	1637.16
536.29	1651.96
536.65	1666.77
537.00	1681.67
537.36	1696.80
537.72	1711.19
538.08	1725.46
538.44	1739.28
538.79	1753.08
539.15	1766.65
539.51	1780.37
539.87	1794.80
540.22	1808.62
540.58	1822.28
540.94	1835.47
541.29	1848.26
541.65	1860.86
542.01	1874.13
542.37	1886.36
542.72	1898.69
543.08	1910.41
543.44	1922.79
543.79	1933.95
544.15	1945.20
544.51	1956.60
544.87	1967.67
545.22	1978.45
545.58	1988.72
545.94	1998.27
546.29	2008.22
546.65	2018.13
547.01	2027.19
547.36	2035.98
547.72	2044.29
548.07	2052.11
548.43	2060.30
548.79	2068.26
549.14	2075.91
549.50	2083.16
549.86	2090.76
550.21	2098.12
550.57	2105.22
550.92	2111.72
551.28	2118.72
551.64	2125.65
551.99	2132.16
552.35	2138.25
552.70	2144.29
553.06	2150.26
553.41	2156.74
553.77	2162.76
554.13	2168.80
554.48	2174.97
554.84	2180.33
555.19	2185.71
555.55	2190.86
555.90	2195.35
556.26	2200.33
556.61	2205.04
556.97	2209.32
557.32	2213.53
557.68	2217.63
558.03	2222.02
558.39	2225.90
558.74	2230.63
559.10	2234.48
559.45	2238.19
559.81	2242.51
560.16	2246.43
560.52	2249.78
560.87	2253.18
561.23	2255.70
561.58	2258.68
561.94	2261.21
562.29	2263.56
562.64	2266.19
563.00	2268.71
563.35	2272.21
563.71	2275.42
564.06	2278.54
564.42	2281.49
564.77	2283.91
565.12	2286.07
565.48	2287.96
565.83	2289.82
566.19	2291.01
566.54	2291.87
566.89	2293.03
567.25	2293.59
567.60	2294.91
567.96	2296.47
568.31	2297.28
568.66	2298.46
569.02	2299.10
569.37	2299.45
569.72	2300.31
570.08	2300.46
570.43	2300.58
570.78	2299.99
571.14	2298.36
571.49	2297.10
571.84	2296.73
572.20	2295.63
572.55	2294.78
572.90	2293.21
573.26	2291.85
573.61	2290.18
573.96	2288.55
574.31	2285.47
574.67	2282.59
575.02	2279.00
575.37	2275.62
575.72	2272.02
576.08	2268.80
576.43	2265.55
576.78	2261.81
577.13	2258.70
577.49	2255.67
577.84	2252.18
578.19	2248.54
578.54	2244.97
578.90	2240.75
579.25	2235.20
579.60	2230.20
579.95	2225.06
580.30	2220.08
580.66	2214.80
581.01	2209.92
581.36	2204.97
581.71	2200.82
582.06	2196.17
582.42	2191.79
582.77	2186.62
583.12	2181.85
583.47	2177.03
583.82	2171.76
584.17	2166.54
584.53	2161.04
584.88	2155.38
585.23	2149.59
585.58	2144.05
585.93	2138.63
586.28	2133.91
586.63	2128.84
586.98	2123.78
587.34	2119.14
587.69	2114.14
588.04	2108.93
588.39	2103.25
588.74	2096.84
589.09	2090.67
589.44	2083.96
589.79	2077.89
590.14	2072.28
590.49	2065.74
590.84	2059.37
591.19	2053.49
591.54	2047.04
591.89	2039.66
592.25	2032.85
592.60	2025.64
592.95	2018.13
593.30	2010.65
593.65	2003.07
594.00	1996.14
594.35	1988.99
594.70	1980.96
595.05	1973.78
595.40	1966.50
595.75	1959.01
596.10	1952.64
596.45	1945.96
596.80	1939.92
597.15	1933.20
597.50	1926.12
597.85	1919.68
598.19	1913.06
598.54	1905.86
598.89	1899.33
599.24	1893.54
599.59	1886.83
599.94	1880.72
600.29	1874.36
600.64	1867.80
600.99	1860.26
601.34	1853.32
601.69	1846.34
602.04	1839.49
602.39	1832.23
602.74	1825.37
603.08	1818.64
603.43	1812.08
603.78	1804.76
604.13	1797.50
604.48	1790.23
604.83	1783.35
605.18	1776.37
605.53	1768.32
605.87	1760.46
606.22	1753.09
606.57	1745.00
606.92	1737.79
607.27	1730.55
607.62	1723.61
607.96	1716.36
608.31	1709.73
608.66	1702.10
609.01	1694.46
609.36	1686.97
609.70	1678.98
610.05	1670.99
610.40	1663.28
610.75	1654.72
611.10	1647.03
611.44	1638.58
611.79	1630.61
612.14	1621.83
612.49	1612.76
612.83	1604.43
613.18	1596.29
613.53	1588.31
613.88	1579.76
614.22	1571.41
614.57	1562.75
614.92	1554.72
615.27	1547.16
615.61	1538.88
615.96	1530.87
616.31	1523.36
616.65	1515.97
617.00	1508.29
617.35	1500.65
617.70	1492.31
618.04	1484.05
618.39	1475.93
618.74	1468.36
619.08	1460.12
619.43	1452.62
619.78	1445.75
620.12	1438.62
620.47	1431.08
620.82	1422.84
621.16	1415.53
621.51	1407.94
621.85	1400.35
622.20	1391.86
622.55	1383.55
622.89	1375.64
623.24	1368.03
623.59	1360.56
623.93	1352.88
624.28	1345.76
624.62	1338.20
624.97	1331.07
625.32	1324.23
625.66	1317.05
626.01	1309.97
626.35	1302.47
626.70	1294.72
627.04	1287.00
627.39	1279.21
627.73	1271.82
628.08	1264.97
628.43	1257.66
628.77	1250.20
629.12	1242.68
629.46	1235.52
629.81	1228.09
630.15	1220.96
630.50	1213.50
630.84	1205.28
631.19	1197.48
631.53	1190.02
631.88	1182.39
632.22	1174.74
632.57	1167.43
632.91	1159.95
633.26	1152.35
633.60	1145.03
633.95	1137.88
634.29	1130.79
634.64	1124.09
634.98	1116.61
635.32	1109.49
635.67	1102.95
636.01	1096.50
636.36	1089.68
636.70	1083.11
637.05	1076.55
637.39	1070.02
637.73	1063.55
638.08	1057.79
638.42	1051.75
638.77	1045.25
639.11	1038.74
639.45	1032.38
639.80	1025.69
640.14	1019.28
640.49	1012.92
640.83	1006.61
641.17	1000.32
641.52	993.92
641.86	987.44
642.20	981.68
642.55	975.34
642.89	968.82
643.23	962.22
643.58	956.41
643.92	950.24
644.26	944.15
644.61	938.17
644.95	932.15
645.29	925.47
645.64	918.83
645.98	912.50
646.32	906.65
646.66	900.59
647.01	894.78
647.35	889.03
647.69	883.14
648.04	877.60
648.38	871.80
648.72	865.89
649.06	859.83
649.41	853.96
649.75	847.98
650.09	842.03
650.43	836.09
650.78	829.99
651.12	824.03
651.46	818.28
651.80	812.41
652.14	807.06
652.49	801.73
652.83	796.40
653.17	790.67
653.51	784.93
653.85	779.53
654.20	773.92
654.54	768.02
654.88	762.25
655.22	756.35
655.56	750.76
655.90	745.26
656.25	740.02
656.59	734.66
656.93	729.53
657.27	724.37
657.61	719.00
657.95	713.91
658.29	708.90
658.64	703.63
658.98	698.43
659.32	693.01
659.66	687.81
660.00	682.55
660.34	677.65
660.68	672.77
661.02	667.74
661.36	663.07
661.70	658.52
662.05	654.18
662.39	649.85
662.73	645.38
663.07	641.04
663.41	636.65
663.75	632.14
664.09	627.59
664.43	623.17
664.77	619.10
665.11	614.82
665.45	610.69
665.79	606.65
666.13	602.48
666.47	598.32
666.81	594.09
667.15	590.03
667.49	586.07
667.83	582.28
668.17	578.29
668.51	574.22
668.85	570.20
669.19	566.42
669.53	562.58
669.87	558.65
670.21	554.90
670.55	551.23
670.89	547.79
671.23	544.42
671.57	540.91
671.91	537.33
672.25	533.81
672.58	530.26
672.92	526.87
673.26	523.70
673.60	520.60
673.94	517.58
674.28	514.66
674.62	511.76
674.96	508.62
675.30	505.80
675.64	502.85
675.97	500.16
676.31	497.25
676.65	494.27
676.99	491.62
677.33	488.77
677.67	485.92
678.01	482.94
678.34	479.91
678.68	477.05
679.02	474.29
679.36	471.54
679.70	468.82
680.04	466.03
680.37	463.13
680.71	460.29
681.05	457.62
681.39	454.89
681.73	452.22
682.06	449.68
682.40	447.09
682.74	444.59
683.08	442.00
683.42	439.36
683.75	436.92
684.09	434.37
684.43	431.93
684.77	429.51
685.10	427.10
685.44	424.83
685.78	422.50
686.12	420.20
686.45	417.93
686.79	415.62
687.13	413.42
687.46	411.28
687.80	409.16
688.14	406.95
688.48	404.89
688.81	402.67
689.15	400.52
689.49	398.37
689.82	396.24
690.16	394.17
690.50	392.30
690.83	390.36
691.17	388.37
691.51	386.42
691.84	384.56
692.18	382.68
692.52	380.70
692.85	378.79
693.19	376.93
693.52	375.08
693.86	373.27
694.20	371.49
694.53	369.71
694.87	367.89
695.21	366.10
695.54	364.26
695.88	362.54
696.21	360.83
696.55	359.18
696.88	357.52
697.22	355.78
697.56	354.13
697.89	352.48
698.23	350.89
698.56	349.31
698.90	347.72
699.23	346.05
699.57	344.49
699.90	342.98
700.24	341.46
700.58	339.92
700.91	338.44
701.25	337.00
701.58	335.64
701.92	334.28
702.25	332.92
702.59	331.59
702.92	330.25
703.26	328.95
703.59	327.67
703.93	326.47
704.26	325.29
704.60	323.97
704.93	322.69
705.26	321.43
705.60	320.29
705.93	319.11
706.27	318.05
706.60	316.98
706.94	315.92
707.27	314.74
707.61	313.71
707.94	312.71
708.27	311.63
708.61	310.57
708.94	309.55
709.28	308.58
709.61	307.60
709.94	306.68
710.28	305.69
710.61	304.73
710.95	303.68
711.28	302.75
711.61	301.82
711.95	300.90
712.28	299.98
712.61	298.96
712.95	298.03
713.28	297.14
713.61	296.25
713.95	295.32
714.28	294.47
714.61	293.63
714.95	292.75
715.28	291.90
715.61	291.01
715.95	290.16
716.28	289.31
716.61	288.49
716.95	287.70
717.28	286.94
717.61	286.18
717.94	285.41
718.28	284.59
718.61	283.89
718.94	283.17
719.27	282.49
719.61	281.88
719.94	281.24
720.27	280.58
720.60	279.93
720.94	279.32
721.27	278.75
721.60	278.17
721.93	277.59
722.27	277.04
722.60	276.48
722.93	275.92
723.26	275.38
723.59	274.80
723.93	274.23
724.26	273.65
724.59	273.08
724.92	272.58
725.25	272.08
725.59	271.58
725.92	271.09
726.25	270.59
726.58	270.07
726.91	269.57
727.24	269.08
727.57	268.59
727.91	268.11
728.24	267.66
728.57	267.18
728.90	266.75
729.23	266.24
729.56	265.82
729.89	265.33
730.22	264.83
730.55	264.36
730.89	263.89
731.22	263.46
731.55	263.05
731.88	262.64
732.21	262.20
732.54	261.73
732.87	261.29
733.20	260.88
733.53	260.49
733.86	260.07
734.19	259.64
734.52	259.29
734.85	258.98
735.18	258.57
735.51	258.18
735.84	257.77
736.17	257.43
736.50	257.01
736.83	256.78
737.16	256.47
737.49	256.15
737.82	255.81
738.15	255.48
738.48	255.16
738.81	254.82
739.14	254.53
739.47	254.22
739.80	253.92
740.13	253.62
740.46	253.30
740.79	253.01
741.12	252.74
741.45	252.41
741.78	252.05
742.11	251.79
742.44	251.44
742.77	251.15
743.10	250.86
743.43	250.57
743.75	250.17
744.08	250.00
744.41	249.70
744.74	249.45
745.07	249.16
745.40	248.86
745.73	248.65
746.06	248.37
746.39	248.07
746.71	247.82
747.04	247.52
747.37	247.24
747.70	247.00
748.03	246.75
748.36	246.53
748.68	246.29
749.01	245.98
749.34	245.80
749.67	245.56
750.00	245.30
750.33	245.15
750.65	244.95
750.98	244.59
751.31	244.40
751.64	244.19
751.97	244.02
752.29	243.80
752.62	243.53
752.95	243.32
753.28	243.17
753.60	242.94
753.93	242.76
754.26	242.57
754.59	242.34
754.91	242.11
755.24	241.90
755.57	241.70
755.90	241.53
756.22	241.31
756.55	241.10
756.88	240.93
757.20	240.69
757.53	240.48
757.86	240.32
758.19	240.17
758.51	239.99
758.84	239.78
759.17	239.63
759.49	239.47
759.82	239.35
760.15	239.17
760.47	239.06
760.80	238.91
761.13	238.80
761.45	238.68
761.78	238.55
762.11	238.43
762.43	238.28
762.76	238.14
763.08	238.02
763.41	237.92
763.74	237.80
764.06	237.65
764.39	237.51
764.71	237.39
765.04	237.27
765.37	237.13
765.69	237.01
766.02	236.88
766.34	236.77
766.67	236.62
767.00	236.52
767.32	236.45
767.65	236.39
767.97	236.26
768.30	236.12
768.62	236.00
768.95	235.88
769.27	235.78
769.60	235.71
769.92	235.62
770.25	235.48
770.57	235.36
770.90	235.30
771.22	235.28
771.55	235.15
771.87	235.03
772.20	234.93
772.52	234.91
772.85	234.94
773.17	234.81
773.50	234.72
773.82	234.64
774.15	234.52
774.47	234.39
774.80	234.31
775.12	234.23
775.45	234.15
775.77	234.06
776.09	233.98
776.42	233.91
776.74	233.84
777.07	233.75
777.39	233.69
777.72	233.59
778.04	233.51
778.36	233.43
778.69	233.36
779.01	233.31
779.33	233.15
779.66	232.94
779.98	232.86
780.31	232.79
780.63	232.74
780.95	232.66
781.28	232.58
781.60	232.49
781.92	232.42
782.25	232.35
782.57	232.26
782.89	232.21
783.22	232.11
783.54	232.05
783.86	232.02
784.19	231.94
784.51	231.87
784.83	231.80
785.16	231.72
785.48	231.66
785.80	231.61
786.12	231.56
786.45	231.51
786.77	231.45
787.09	231.36
