SpectraSuite Data File
++++++++++++++++++++++++++++++++++++
Date: Fri Feb 01 15:08:43 EST 2013
User: group
Dark Spectrum Present: No
Reference Spectrum Present: No
Number of Sampled Component Spectra: 1
Spectrometers: USB2E7196
Integration Time (usec): 35000 (USB2E7196)
Spectra Averaged: 100 (USB2E7196)
Boxcar Smoothing: 10 (USB2E7196)
Correct for Electrical Dark: No (USB2E7196)
Strobe/Lamp Enabled: No (USB2E7196)
Correct for Detector Non-linearity: No (USB2E7196)
Correct for Stray Light: No (USB2E7196)
Number of Pixels in Processed Spectrum: 2048
>>>>>Begin Processed Spectral Data<<<<<
339.09	0.00
339.48	215.19
339.86	216.91
340.24	218.12
340.63	219.38
341.01	222.25
341.39	222.24
341.78	223.44
342.16	224.42
342.54	225.20
342.93	213.47
343.31	224.26
343.69	224.81
344.07	225.25
344.46	225.68
344.84	226.07
345.22	226.29
345.60	226.52
345.99	226.71
346.37	226.86
346.75	226.92
347.13	226.96
347.52	227.00
347.90	227.06
348.28	227.09
348.66	227.11
349.05	227.13
349.43	227.18
349.81	227.22
350.19	227.26
350.57	227.33
350.96	227.41
351.34	227.50
351.72	227.55
352.10	227.63
352.48	227.68
352.87	227.73
353.25	227.79
353.63	227.86
354.01	227.92
354.39	227.97
354.77	228.09
355.15	228.22
355.54	228.27
355.92	228.29
356.30	228.37
356.68	228.51
357.06	228.58
357.44	228.61
357.82	228.68
358.20	228.73
358.58	228.78
358.97	228.86
359.35	228.92
359.73	229.00
360.11	229.07
360.49	229.12
360.87	229.14
361.25	229.21
361.63	229.31
362.01	229.34
362.39	229.39
362.77	229.38
363.15	229.35
363.53	229.37
363.91	229.41
364.29	229.40
364.67	229.33
365.05	229.34
365.43	229.34
365.81	229.36
366.19	229.39
366.57	229.43
366.95	229.40
367.33	229.39
367.71	229.37
368.09	229.33
368.47	229.34
368.85	229.34
369.23	229.30
369.61	229.20
369.99	229.21
370.37	229.15
370.75	229.19
371.13	229.16
371.51	229.12
371.89	229.07
372.27	229.06
372.65	229.02
373.03	228.94
373.41	228.90
373.78	228.84
374.16	228.74
374.54	228.68
374.92	228.59
375.30	228.52
375.68	228.43
376.06	228.40
376.44	228.30
376.82	228.23
377.19	228.19
377.57	228.13
377.95	228.04
378.33	228.01
378.71	227.89
379.09	227.85
379.47	227.80
379.84	227.70
380.22	227.63
380.60	227.56
380.98	227.53
381.36	227.43
381.73	227.33
382.11	227.31
382.49	227.25
382.87	227.21
383.25	227.13
383.62	227.21
384.00	227.10
384.38	227.06
384.76	227.00
385.13	227.00
385.51	226.95
385.89	226.89
386.27	226.84
386.64	226.82
387.02	226.75
387.40	226.70
387.78	226.68
388.15	226.66
388.53	226.58
388.91	226.54
389.29	226.51
389.66	226.52
390.04	226.47
390.42	226.44
390.79	226.42
391.17	226.42
391.55	226.30
391.92	226.33
392.30	226.36
392.68	226.37
393.05	226.35
393.43	226.34
393.81	226.39
394.18	226.36
394.56	226.40
394.94	226.45
395.31	226.47
395.69	226.53
396.06	226.56
396.44	226.65
396.82	226.66
397.19	226.79
397.57	226.84
397.95	226.93
398.32	226.99
398.70	227.08
399.07	227.18
399.45	227.27
399.82	227.36
400.20	227.41
400.58	227.52
400.95	227.59
401.33	227.69
401.70	227.85
402.08	227.98
402.45	228.05
402.83	228.20
403.20	228.33
403.58	228.49
403.95	228.61
404.33	228.76
404.71	228.93
405.08	229.09
405.46	229.23
405.83	229.37
406.21	229.50
406.58	229.65
406.96	229.80
407.33	229.97
407.70	230.17
408.08	230.46
408.45	230.67
408.83	230.92
409.20	231.15
409.58	231.30
409.95	231.59
410.33	231.90
410.70	232.10
411.08	232.38
411.45	232.65
411.82	232.96
412.20	233.28
412.57	233.69
412.95	233.98
413.32	234.38
413.69	234.81
414.07	235.26
414.44	235.74
414.82	236.24
415.19	236.79
415.56	237.33
415.94	237.86
416.31	238.51
416.68	239.12
417.06	239.83
417.43	240.51
417.81	241.25
418.18	242.03
418.55	242.89
418.93	243.79
419.30	244.69
419.67	245.64
420.04	246.61
420.42	247.62
420.79	248.84
421.16	250.01
421.54	251.19
421.91	252.41
422.28	253.66
422.66	255.02
423.03	256.37
423.40	257.69
423.77	259.12
424.15	260.49
424.52	261.97
424.89	263.58
425.26	265.17
425.64	266.63
426.01	268.18
426.38	269.83
426.75	271.51
427.13	273.23
427.50	275.08
427.87	276.95
428.24	278.79
428.61	280.53
428.99	282.46
429.36	284.59
429.73	286.63
430.10	288.67
430.47	290.73
430.85	292.82
431.22	295.08
431.59	297.45
431.96	299.74
432.33	302.25
432.70	304.64
433.08	307.42
433.45	310.07
433.82	312.69
434.19	315.59
434.56	318.41
434.93	321.09
435.30	323.67
435.68	326.58
436.05	329.45
436.42	332.25
436.79	334.78
437.16	337.45
437.53	340.37
437.90	343.15
438.27	345.85
438.64	348.70
439.01	351.25
439.38	353.51
439.75	355.70
440.13	358.18
440.50	360.56
440.87	362.43
441.24	364.33
441.61	366.54
441.98	368.07
442.35	369.89
442.72	371.74
443.09	373.58
443.46	374.57
443.83	375.13
444.20	375.57
444.57	376.39
444.94	376.69
445.31	376.97
445.68	377.37
446.05	377.47
446.42	377.08
446.79	376.72
447.16	376.27
447.53	375.95
447.90	374.79
448.27	373.59
448.64	371.99
449.01	370.94
449.37	368.91
449.74	367.01
450.11	364.72
450.48	362.23
450.85	359.65
451.22	357.46
451.59	355.42
451.96	353.52
452.33	350.93
452.70	348.56
453.07	345.70
453.43	342.80
453.80	339.99
454.17	337.27
454.54	334.71
454.91	331.97
455.28	329.27
455.65	326.75
456.02	324.25
456.38	322.09
456.75	319.36
457.12	317.11
457.49	314.84
457.86	312.64
458.23	310.80
458.59	308.76
458.96	306.69
459.33	304.87
459.70	302.97
460.07	301.49
460.43	299.72
460.80	298.11
461.17	296.63
461.54	295.14
461.91	293.69
462.27	292.22
462.64	290.94
463.01	289.56
463.38	288.26
463.74	286.92
464.11	285.74
464.48	284.73
464.85	283.62
465.21	282.74
465.58	281.84
465.95	280.68
466.32	279.82
466.68	278.91
467.05	278.00
467.42	277.12
467.78	276.11
468.15	275.27
468.52	274.58
468.88	273.73
469.25	272.95
469.62	272.35
469.98	271.66
470.35	271.01
470.72	270.40
471.08	269.75
471.45	269.18
471.82	268.65
472.18	268.01
472.55	267.59
472.92	267.09
473.28	266.59
473.65	266.19
474.02	265.69
474.38	265.29
474.75	264.96
475.11	264.60
475.48	264.39
475.85	264.13
476.21	263.87
476.58	263.66
476.94	263.50
477.31	263.29
477.67	263.15
478.04	263.06
478.41	263.01
478.77	263.03
479.14	262.97
479.50	262.98
479.87	263.04
480.23	263.09
480.60	263.14
480.96	263.22
481.33	263.42
481.69	263.64
482.06	263.85
482.42	264.04
482.79	264.30
483.15	264.61
483.52	265.00
483.88	265.36
484.25	265.74
484.61	266.14
484.98	266.63
485.34	267.16
485.71	267.72
486.07	268.32
486.44	268.90
486.80	269.61
487.17	270.34
487.53	271.19
487.90	272.01
488.26	272.94
488.62	273.91
488.99	274.86
489.35	275.91
489.72	277.05
490.08	278.28
490.44	279.50
490.81	280.78
491.17	282.10
491.54	283.62
491.90	285.17
492.26	286.86
492.63	288.59
492.99	290.37
493.36	292.23
493.72	294.25
494.08	296.39
494.45	298.62
494.81	300.93
495.17	303.33
495.54	305.87
495.90	308.53
496.26	311.33
496.63	314.27
496.99	317.30
497.35	320.55
497.72	323.87
498.08	327.42
498.44	331.10
498.80	335.05
499.17	339.04
499.53	343.19
499.89	347.55
500.26	352.00
500.62	356.68
500.98	361.63
501.34	366.70
501.71	371.94
502.07	377.35
502.43	382.94
502.79	388.69
503.16	394.79
503.52	401.06
503.88	407.46
504.24	414.08
504.60	420.99
504.97	428.04
505.33	435.35
505.69	443.03
506.05	450.83
506.41	458.67
506.78	466.83
507.14	475.24
507.50	483.95
507.86	492.94
508.22	502.12
508.59	511.33
508.95	520.90
509.31	530.70
509.67	540.78
510.03	551.06
510.39	561.63
510.75	572.40
511.12	583.33
511.48	594.58
511.84	606.01
512.20	617.55
512.56	629.53
512.92	641.75
513.28	653.94
513.64	666.38
514.00	679.04
514.37	692.00
514.73	705.06
515.09	718.03
515.45	731.42
515.81	744.96
516.17	758.96
516.53	773.02
516.89	787.25
517.25	801.46
517.61	815.98
517.97	830.54
518.33	844.96
518.69	859.80
519.05	874.93
519.41	890.16
519.77	905.73
520.13	921.13
520.49	936.50
520.85	952.04
521.21	967.81
521.57	984.19
521.93	999.99
522.29	1016.40
522.65	1032.76
523.01	1048.99
523.37	1065.08
523.73	1081.27
524.09	1097.51
524.45	1113.82
524.81	1130.48
525.17	1147.34
525.53	1164.32
525.89	1181.38
526.25	1198.15
526.61	1214.55
526.97	1231.33
527.33	1247.95
527.68	1264.63
528.04	1281.27
528.40	1297.98
528.76	1315.05
529.12	1331.70
529.48	1348.63
529.84	1364.85
530.20	1381.49
530.56	1398.55
530.91	1416.13
531.27	1432.98
531.63	1449.47
531.99	1466.25
532.35	1482.31
532.71	1498.30
533.07	1514.56
533.42	1530.42
533.78	1546.65
534.14	1563.03
534.50	1578.49
534.86	1594.34
535.21	1609.65
535.57	1625.66
535.93	1641.37
536.29	1656.28
536.65	1671.45
537.00	1686.38
537.36	1701.74
537.72	1716.50
538.08	1730.97
538.44	1744.78
538.79	1758.78
539.15	1772.63
539.51	1786.31
539.87	1800.75
540.22	1814.53
540.58	1828.49
540.94	1841.99
541.29	1855.02
541.65	1867.73
542.01	1881.02
542.37	1893.45
542.72	1906.04
543.08	1917.88
543.44	1930.18
543.79	1941.51
544.15	1952.57
544.51	1964.20
544.87	1975.28
545.22	1986.06
545.58	1996.30
545.94	2006.17
546.29	2016.09
546.65	2025.87
547.01	2035.22
547.36	2043.94
547.72	2052.39
548.07	2060.21
548.43	2068.32
548.79	2076.38
549.14	2083.90
549.50	2091.36
549.86	2099.05
550.21	2106.43
550.57	2113.63
550.92	2120.20
551.28	2127.26
551.64	2134.32
551.99	2140.86
552.35	2146.96
552.70	2153.04
553.06	2158.98
553.41	2165.33
553.77	2171.30
554.13	2177.42
554.48	2183.61
554.84	2189.08
555.19	2194.51
555.55	2199.47
555.90	2203.88
556.26	2208.49
556.61	2213.26
556.97	2217.33
557.32	2221.51
557.68	2225.41
558.03	2229.70
558.39	2233.39
558.74	2237.99
559.10	2241.69
559.45	2245.21
559.81	2249.52
560.16	2253.28
560.52	2256.53
560.87	2259.84
561.23	2262.63
561.58	2265.47
561.94	2267.90
562.29	2270.20
562.64	2272.76
563.00	2275.45
563.35	2279.03
563.71	2282.20
564.06	2285.33
564.42	2288.22
564.77	2290.46
565.12	2292.75
565.48	2294.46
565.83	2296.34
566.19	2297.51
566.54	2298.59
566.89	2299.66
567.25	2300.12
567.60	2301.46
567.96	2303.04
568.31	2303.76
568.66	2304.54
569.02	2305.15
569.37	2305.37
569.72	2306.11
570.08	2305.96
570.43	2305.90
570.78	2305.09
571.14	2303.61
571.49	2302.14
571.84	2301.61
572.20	2300.31
572.55	2299.10
572.90	2297.53
573.26	2296.00
573.61	2294.26
573.96	2292.19
574.31	2289.08
574.67	2286.02
575.02	2282.25
575.37	2278.83
575.72	2274.96
576.08	2271.60
576.43	2268.17
576.78	2264.40
577.13	2261.21
577.49	2258.07
577.84	2254.31
578.19	2250.54
578.54	2246.60
578.90	2242.16
579.25	2236.59
579.60	2231.58
579.95	2226.58
580.30	2221.41
580.66	2216.05
581.01	2210.96
581.36	2205.97
581.71	2201.66
582.06	2196.97
582.42	2192.33
582.77	2187.03
583.12	2182.34
583.47	2177.53
583.82	2172.35
584.17	2166.81
584.53	2161.21
584.88	2155.63
585.23	2149.76
585.58	2144.30
585.93	2138.86
586.28	2134.17
586.63	2128.97
586.98	2123.89
587.34	2119.02
587.69	2114.01
588.04	2108.66
588.39	2102.90
588.74	2096.28
589.09	2090.03
589.44	2083.22
589.79	2077.14
590.14	2071.41
590.49	2064.79
590.84	2058.21
591.19	2052.01
591.54	2045.62
591.89	2037.95
592.25	2030.91
592.60	2023.79
592.95	2016.00
593.30	2008.55
593.65	2000.82
594.00	1993.73
594.35	1986.37
594.70	1978.20
595.05	1970.99
595.40	1963.65
595.75	1956.06
596.10	1949.68
596.45	1942.85
596.80	1936.56
597.15	1929.79
597.50	1922.37
597.85	1915.78
598.19	1909.09
598.54	1902.07
598.89	1895.46
599.24	1889.60
599.59	1882.81
599.94	1876.56
600.29	1870.24
600.64	1863.69
600.99	1856.14
601.34	1849.19
601.69	1842.21
602.04	1835.26
602.39	1827.70
602.74	1820.81
603.08	1814.14
603.43	1807.44
603.78	1800.14
604.13	1792.86
604.48	1785.55
604.83	1778.87
605.18	1771.80
605.53	1763.58
605.87	1755.47
606.22	1748.14
606.57	1740.30
606.92	1732.98
607.27	1725.66
607.62	1718.58
607.96	1711.16
608.31	1704.52
608.66	1696.93
609.01	1689.27
609.36	1681.70
609.70	1673.79
610.05	1665.71
610.40	1657.93
610.75	1649.67
611.10	1642.06
611.44	1633.75
611.79	1625.80
612.14	1617.05
612.49	1608.06
612.83	1599.97
613.18	1591.87
613.53	1583.76
613.88	1575.09
614.22	1566.93
614.57	1558.53
614.92	1550.60
615.27	1543.11
615.61	1534.79
615.96	1526.78
616.31	1519.28
616.65	1512.01
617.00	1504.46
617.35	1496.86
617.70	1488.44
618.04	1479.80
618.39	1471.54
618.74	1463.86
619.08	1455.58
619.43	1448.09
619.78	1441.16
620.12	1433.94
620.47	1426.35
620.82	1418.27
621.16	1410.93
621.51	1403.34
621.85	1395.58
622.20	1387.05
622.55	1378.62
622.89	1370.90
623.24	1363.34
623.59	1356.02
623.93	1348.50
624.28	1341.29
624.62	1333.79
624.97	1326.75
625.32	1320.28
625.66	1313.20
626.01	1306.00
626.35	1298.61
626.70	1290.86
627.04	1283.11
627.39	1275.42
627.73	1268.11
628.08	1261.19
628.43	1253.89
628.77	1246.48
629.12	1238.98
629.46	1231.88
629.81	1224.53
630.15	1217.25
630.50	1209.82
630.84	1201.58
631.19	1193.74
631.53	1186.32
631.88	1178.74
632.22	1171.11
632.57	1163.72
632.91	1156.21
633.26	1148.95
633.60	1141.60
633.95	1134.59
634.29	1127.67
634.64	1121.04
634.98	1113.70
635.32	1106.65
635.67	1100.05
636.01	1093.39
636.36	1086.63
636.70	1080.24
637.05	1073.64
637.39	1067.23
637.73	1060.79
638.08	1055.03
638.42	1049.06
638.77	1042.59
639.11	1036.06
639.45	1029.81
639.80	1023.16
640.14	1016.75
640.49	1010.19
640.83	1003.91
641.17	997.62
641.52	991.20
641.86	984.82
642.20	979.05
642.55	972.79
642.89	966.38
643.23	959.90
643.58	954.11
643.92	947.74
644.26	941.66
644.61	935.66
644.95	929.72
645.29	923.09
645.64	916.26
645.98	909.94
646.32	904.17
646.66	898.09
647.01	892.30
647.35	886.67
647.69	880.92
648.04	875.48
648.38	869.73
648.72	863.74
649.06	857.63
649.41	851.76
649.75	845.69
650.09	839.73
650.43	833.94
650.78	827.84
651.12	821.92
651.46	816.27
651.80	810.48
652.14	804.98
652.49	799.61
652.83	794.54
653.17	788.89
653.51	783.11
653.85	777.71
654.20	772.00
654.54	766.08
654.88	760.33
655.22	754.43
655.56	748.76
655.90	743.35
656.25	738.09
656.59	732.77
656.93	727.72
657.27	722.61
657.61	717.19
657.95	712.06
658.29	707.08
658.64	701.96
658.98	696.71
659.32	691.24
659.66	685.98
660.00	680.68
660.34	675.70
660.68	670.84
661.02	665.84
661.36	661.26
661.70	656.73
662.05	652.36
662.39	648.04
662.73	643.63
663.07	639.27
663.41	634.83
663.75	630.29
664.09	625.82
664.43	621.45
664.77	617.38
665.11	613.24
665.45	609.11
665.79	605.04
666.13	600.99
666.47	596.98
666.81	592.92
667.15	588.85
667.49	585.03
667.83	581.24
668.17	577.37
668.51	573.33
668.85	569.34
669.19	565.56
669.53	561.73
669.87	557.82
670.21	554.18
670.55	550.64
670.89	547.24
671.23	543.74
671.57	540.30
671.91	536.84
672.25	533.30
672.58	529.84
672.92	526.41
673.26	523.25
673.60	520.12
673.94	517.00
674.28	514.10
674.62	511.12
674.96	508.01
675.30	505.06
675.64	502.12
675.97	499.41
676.31	496.50
676.65	493.59
676.99	490.90
677.33	488.07
677.67	485.23
678.01	482.18
678.34	479.19
678.68	476.32
679.02	473.48
679.36	470.74
679.70	468.01
680.04	465.22
680.37	462.36
680.71	459.58
681.05	456.97
681.39	454.26
681.73	451.64
682.06	449.13
682.40	446.59
682.74	444.08
683.08	441.52
683.42	438.97
683.75	436.48
684.09	433.96
684.43	431.46
684.77	428.98
685.10	426.66
685.44	424.42
685.78	422.13
686.12	419.87
686.45	417.64
686.79	415.31
687.13	413.15
687.46	410.99
687.80	408.81
688.14	406.60
688.48	404.52
688.81	402.23
689.15	400.09
689.49	397.96
689.82	395.85
690.16	393.75
690.50	391.78
690.83	389.86
691.17	387.92
691.51	386.04
691.84	384.23
692.18	382.31
692.52	380.33
692.85	378.41
693.19	376.52
693.52	374.69
693.86	372.93
694.20	371.15
694.53	369.38
694.87	367.60
695.21	365.83
695.54	364.05
695.88	362.41
696.21	360.70
696.55	359.08
696.88	357.43
697.22	355.81
697.56	354.19
697.89	352.49
698.23	350.87
698.56	349.28
698.90	347.67
699.23	346.04
699.57	344.49
699.90	342.98
700.24	341.48
700.58	339.94
700.91	338.47
701.25	337.04
701.58	335.63
701.92	334.28
702.25	332.92
702.59	331.56
702.92	330.22
703.26	328.91
703.59	327.60
703.93	326.43
704.26	325.18
704.60	323.88
704.93	322.67
705.26	321.43
705.60	320.24
705.93	319.08
706.27	318.05
706.60	317.01
706.94	315.90
707.27	314.79
707.61	313.73
707.94	312.69
708.27	311.62
708.61	310.55
708.94	309.55
709.28	308.56
709.61	307.63
709.94	306.65
710.28	305.70
710.61	304.71
710.95	303.66
711.28	302.75
711.61	301.85
711.95	300.93
712.28	299.98
712.61	299.05
712.95	298.13
713.28	297.27
713.61	296.36
713.95	295.50
714.28	294.68
714.61	293.79
714.95	292.94
715.28	292.09
715.61	291.26
715.95	290.40
716.28	289.56
716.61	288.73
716.95	287.96
717.28	287.18
717.61	286.46
717.94	285.73
718.28	284.91
718.61	284.17
718.94	283.50
719.27	282.86
719.61	282.19
719.94	281.54
720.27	280.86
720.60	280.20
720.94	279.57
721.27	278.97
721.60	278.41
721.93	277.80
722.27	277.26
722.60	276.69
722.93	276.11
723.26	275.55
723.59	274.95
723.93	274.42
724.26	273.85
724.59	273.29
724.92	272.77
725.25	272.30
725.59	271.79
725.92	271.25
726.25	270.76
726.58	270.29
726.91	269.80
727.24	269.32
727.57	268.84
727.91	268.32
728.24	267.85
728.57	267.38
728.90	266.95
729.23	266.46
729.56	266.00
729.89	265.56
730.22	265.09
730.55	264.70
730.89	264.25
731.22	263.80
731.55	263.35
731.88	262.93
732.21	262.49
732.54	262.06
732.87	261.66
733.20	261.26
733.53	260.87
733.86	260.48
734.19	260.07
734.52	259.70
734.85	259.42
735.18	259.00
735.51	258.64
735.84	258.25
736.17	257.88
736.50	257.51
736.83	257.26
737.16	256.95
737.49	256.61
737.82	256.20
738.15	255.90
738.48	255.59
738.81	255.24
739.14	254.91
739.47	254.59
739.80	254.25
740.13	253.94
740.46	253.65
740.79	253.32
741.12	253.00
741.45	252.70
741.78	252.34
742.11	252.05
742.44	251.70
742.77	251.45
743.10	251.19
743.43	250.88
743.75	250.53
744.08	250.39
744.41	250.09
744.74	249.85
745.07	249.55
745.40	249.34
745.73	249.10
746.06	248.83
746.39	248.57
746.71	248.34
747.04	248.06
747.37	247.77
747.70	247.57
748.03	247.33
748.36	247.12
748.68	246.93
749.01	246.68
749.34	246.51
749.67	246.30
750.00	246.05
750.33	245.88
750.65	245.66
750.98	245.32
751.31	245.12
751.64	244.92
751.97	244.80
752.29	244.55
752.62	244.33
752.95	244.10
753.28	243.90
753.60	243.69
753.93	243.54
754.26	243.37
754.59	243.11
754.91	242.91
755.24	242.70
755.57	242.50
755.90	242.31
756.22	242.11
756.55	241.90
756.88	241.73
757.20	241.53
757.53	241.31
757.86	241.15
758.19	241.02
758.51	240.87
758.84	240.63
759.17	240.42
759.49	240.26
759.82	240.17
760.15	240.03
760.47	239.87
760.80	239.71
761.13	239.53
761.45	239.44
761.78	239.31
762.11	239.17
762.43	239.02
762.76	238.88
763.08	238.71
763.41	238.55
763.74	238.41
764.06	238.27
764.39	238.17
764.71	238.02
765.04	237.84
765.37	237.70
765.69	237.57
766.02	237.47
766.34	237.35
766.67	237.22
767.00	237.09
767.32	237.01
767.65	236.95
767.97	236.86
768.30	236.72
768.62	236.57
768.95	236.44
769.27	236.34
769.60	236.23
769.92	236.14
770.25	236.02
770.57	235.89
770.90	235.78
771.22	235.63
771.55	235.51
771.87	235.43
772.20	235.29
772.52	235.30
772.85	235.30
773.17	235.22
773.50	235.11
773.82	235.01
774.15	234.89
774.47	234.72
774.80	234.61
775.12	234.49
775.45	234.40
775.77	234.32
776.09	234.20
776.42	234.13
776.74	234.05
777.07	233.97
777.39	233.93
777.72	233.84
778.04	233.78
778.36	233.72
778.69	233.66
779.01	233.63
779.33	233.47
779.66	233.30
779.98	233.20
780.31	233.13
780.63	233.10
780.95	233.02
781.28	232.97
781.60	232.90
781.92	232.88
782.25	232.85
782.57	232.78
782.89	232.74
783.22	232.67
783.54	232.61
783.86	232.59
784.19	232.52
784.51	232.50
784.83	232.45
785.16	232.40
785.48	232.34
785.80	232.28
786.12	232.25
786.45	232.21
786.77	232.18
787.09	232.13
