SpectraSuite Data File
++++++++++++++++++++++++++++++++++++
Date: Fri Feb 01 15:18:12 EST 2013
User: group
Dark Spectrum Present: No
Reference Spectrum Present: No
Number of Sampled Component Spectra: 1
Spectrometers: USB2E7196
Integration Time (usec): 35000 (USB2E7196)
Spectra Averaged: 100 (USB2E7196)
Boxcar Smoothing: 10 (USB2E7196)
Correct for Electrical Dark: No (USB2E7196)
Strobe/Lamp Enabled: No (USB2E7196)
Correct for Detector Non-linearity: No (USB2E7196)
Correct for Stray Light: No (USB2E7196)
Number of Pixels in Processed Spectrum: 2048
>>>>>Begin Processed Spectral Data<<<<<
339.09	0.00
339.48	214.57
339.86	216.00
340.24	217.40
340.63	219.33
341.01	221.53
341.39	221.60
341.78	223.12
342.16	224.57
342.54	224.89
342.93	213.13
343.31	223.90
343.69	224.45
344.07	224.93
344.46	225.37
344.84	225.73
345.22	225.97
345.60	226.21
345.99	226.39
346.37	226.51
346.75	226.61
347.13	226.66
347.52	226.72
347.90	226.79
348.28	226.80
348.66	226.86
349.05	226.86
349.43	226.88
349.81	226.91
350.19	226.95
350.57	227.00
350.96	227.07
351.34	227.15
351.72	227.24
352.10	227.35
352.48	227.45
352.87	227.48
353.25	227.56
353.63	227.66
354.01	227.74
354.39	227.83
354.77	227.91
355.15	228.02
355.54	228.09
355.92	228.12
356.30	228.21
356.68	228.36
357.06	228.45
357.44	228.54
357.82	228.63
358.20	228.71
358.58	228.77
358.97	228.87
359.35	228.98
359.73	229.03
360.11	229.09
360.49	229.14
360.87	229.21
361.25	229.26
361.63	229.33
362.01	229.39
362.39	229.42
362.77	229.47
363.15	229.51
363.53	229.51
363.91	229.58
364.29	229.58
364.67	229.49
365.05	229.51
365.43	229.54
365.81	229.54
366.19	229.61
366.57	229.66
366.95	229.63
367.33	229.59
367.71	229.59
368.09	229.58
368.47	229.57
368.85	229.57
369.23	229.58
369.61	229.53
369.99	229.51
370.37	229.47
370.75	229.49
371.13	229.42
371.51	229.40
371.89	229.34
372.27	229.36
372.65	229.29
373.03	229.24
373.41	229.19
373.78	229.14
374.16	229.02
374.54	228.88
374.92	228.81
375.30	228.73
375.68	228.66
376.06	228.60
376.44	228.52
376.82	228.44
377.19	228.39
377.57	228.30
377.95	228.19
378.33	228.13
378.71	227.98
379.09	227.93
379.47	227.87
379.84	227.79
380.22	227.70
380.60	227.63
380.98	227.53
381.36	227.43
381.73	227.36
382.11	227.31
382.49	227.25
382.87	227.18
383.25	227.12
383.62	227.15
384.00	227.09
384.38	227.01
384.76	226.94
385.13	226.93
385.51	226.88
385.89	226.83
386.27	226.75
386.64	226.70
387.02	226.64
387.40	226.58
387.78	226.53
388.15	226.51
388.53	226.49
388.91	226.46
389.29	226.43
389.66	226.42
390.04	226.38
390.42	226.38
390.79	226.35
391.17	226.33
391.55	226.21
391.92	226.15
392.30	226.17
392.68	226.18
393.05	226.15
393.43	226.14
393.81	226.18
394.18	226.21
394.56	226.22
394.94	226.26
395.31	226.24
395.69	226.30
396.06	226.30
396.44	226.34
396.82	226.37
397.19	226.46
397.57	226.49
397.95	226.57
398.32	226.62
398.70	226.71
399.07	226.78
399.45	226.84
399.82	226.93
400.20	226.97
400.58	227.04
400.95	227.09
401.33	227.20
401.70	227.31
402.08	227.39
402.45	227.52
402.83	227.65
403.20	227.82
403.58	227.92
403.95	228.09
404.33	228.22
404.71	228.41
405.08	228.63
405.46	228.77
405.83	228.92
406.21	229.07
406.58	229.25
406.96	229.43
407.33	229.64
407.70	229.85
408.08	230.14
408.45	230.39
408.83	230.65
409.20	230.90
409.58	231.10
409.95	231.41
410.33	231.69
410.70	231.95
411.08	232.24
411.45	232.57
411.82	232.86
412.20	233.22
412.57	233.59
412.95	233.87
413.32	234.29
413.69	234.72
414.07	235.18
414.44	235.64
414.82	236.13
415.19	236.68
415.56	237.25
415.94	237.81
416.31	238.44
416.68	239.06
417.06	239.76
417.43	240.46
417.81	241.22
418.18	242.00
418.55	242.87
418.93	243.76
419.30	244.66
419.67	245.62
420.04	246.59
420.42	247.61
420.79	248.83
421.16	249.97
421.54	251.15
421.91	252.37
422.28	253.65
422.66	254.98
423.03	256.32
423.40	257.66
423.77	259.07
424.15	260.49
424.52	262.00
424.89	263.62
425.26	265.16
425.64	266.64
426.01	268.22
426.38	269.85
426.75	271.51
427.13	273.25
427.50	275.04
427.87	276.92
428.24	278.74
428.61	280.47
428.99	282.42
429.36	284.52
429.73	286.59
430.10	288.64
430.47	290.73
430.85	292.82
431.22	295.04
431.59	297.44
431.96	299.71
432.33	302.19
432.70	304.57
433.08	307.38
433.45	309.95
433.82	312.52
434.19	315.43
434.56	318.22
434.93	320.83
435.30	323.46
435.68	326.39
436.05	329.28
436.42	332.05
436.79	334.57
437.16	337.28
437.53	340.11
437.90	342.84
438.27	345.58
438.64	348.38
439.01	350.97
439.38	353.19
439.75	355.37
440.13	357.83
440.50	360.16
440.87	362.01
441.24	363.96
441.61	366.16
441.98	367.63
442.35	369.47
442.72	371.37
443.09	373.15
443.46	374.08
443.83	374.63
444.20	375.12
444.57	375.92
444.94	376.21
445.31	376.50
445.68	376.83
446.05	376.84
446.42	376.46
446.79	376.01
447.16	375.56
447.53	375.19
447.90	374.03
448.27	372.83
448.64	371.23
449.01	370.09
449.37	368.10
449.74	366.23
450.11	363.99
450.48	361.48
450.85	358.96
451.22	356.82
451.59	354.81
451.96	352.85
452.33	350.26
452.70	347.91
453.07	345.11
453.43	342.26
453.80	339.54
454.17	336.92
454.54	334.41
454.91	331.67
455.28	329.04
455.65	326.57
456.02	324.16
456.38	322.05
456.75	319.39
457.12	317.13
457.49	314.89
457.86	312.71
458.23	310.86
458.59	308.81
458.96	306.68
459.33	304.80
459.70	302.95
460.07	301.44
460.43	299.70
460.80	298.08
461.17	296.63
461.54	295.14
461.91	293.67
462.27	292.26
462.64	291.02
463.01	289.67
463.38	288.32
463.74	286.92
464.11	285.72
464.48	284.69
464.85	283.59
465.21	282.72
465.58	281.74
465.95	280.61
466.32	279.72
466.68	278.87
467.05	277.94
467.42	277.03
467.78	276.11
468.15	275.21
468.52	274.53
468.88	273.66
469.25	272.91
469.62	272.29
469.98	271.55
470.35	270.85
470.72	270.21
471.08	269.56
471.45	269.02
471.82	268.43
472.18	267.84
472.55	267.40
472.92	266.85
473.28	266.40
473.65	265.96
474.02	265.49
474.38	265.09
474.75	264.78
475.11	264.45
475.48	264.19
475.85	263.93
476.21	263.67
476.58	263.46
476.94	263.24
477.31	263.06
477.67	262.91
478.04	262.81
478.41	262.73
478.77	262.74
479.14	262.69
479.50	262.72
479.87	262.75
480.23	262.80
480.60	262.88
480.96	262.94
481.33	263.11
481.69	263.29
482.06	263.44
482.42	263.65
482.79	263.92
483.15	264.22
483.52	264.60
483.88	264.93
484.25	265.32
484.61	265.76
484.98	266.21
485.34	266.79
485.71	267.38
486.07	268.00
486.44	268.58
486.80	269.25
487.17	269.98
487.53	270.81
487.90	271.68
488.26	272.61
488.62	273.62
488.99	274.63
489.35	275.68
489.72	276.83
490.08	278.02
490.44	279.24
490.81	280.58
491.17	281.92
491.54	283.43
491.90	284.97
492.26	286.60
492.63	288.32
492.99	290.10
493.36	292.02
493.72	294.07
494.08	296.18
494.45	298.46
494.81	300.82
495.17	303.22
495.54	305.76
495.90	308.38
496.26	311.14
496.63	314.08
496.99	317.20
497.35	320.44
497.72	323.84
498.08	327.39
498.44	331.01
498.80	334.97
499.17	338.98
499.53	343.15
499.89	347.53
500.26	352.00
500.62	356.66
500.98	361.60
501.34	366.67
501.71	372.00
502.07	377.42
502.43	383.06
502.79	388.98
503.16	395.11
503.52	401.44
503.88	407.91
504.24	414.59
504.60	421.47
504.97	428.63
505.33	436.01
505.69	443.68
506.05	451.53
506.41	459.41
506.78	467.58
507.14	476.03
507.50	484.78
507.86	493.85
508.22	503.04
508.59	512.20
508.95	521.85
509.31	531.59
509.67	541.74
510.03	552.06
510.39	562.59
510.75	573.37
511.12	584.31
511.48	595.61
511.84	607.04
512.20	618.59
512.56	630.55
512.92	642.72
513.28	655.02
513.64	667.50
514.00	680.20
514.37	693.12
514.73	706.32
515.09	719.33
515.45	732.66
515.81	746.20
516.17	760.25
516.53	774.34
516.89	788.61
517.25	802.80
517.61	817.26
517.97	831.73
518.33	846.15
518.69	861.00
519.05	876.11
519.41	891.28
519.77	906.90
520.13	922.41
520.49	937.84
520.85	953.41
521.21	969.11
521.57	985.38
521.93	1001.27
522.29	1017.63
522.65	1033.96
523.01	1050.21
523.37	1066.33
523.73	1082.60
524.09	1098.64
524.45	1115.02
524.81	1131.61
525.17	1148.48
525.53	1165.32
525.89	1182.21
526.25	1198.98
526.61	1215.28
526.97	1232.10
527.33	1248.54
527.68	1265.22
528.04	1281.77
528.40	1298.32
528.76	1315.50
529.12	1332.10
529.48	1349.02
529.84	1365.11
530.20	1381.75
530.56	1398.84
530.91	1416.36
531.27	1433.02
531.63	1449.61
531.99	1466.19
532.35	1482.28
532.71	1498.12
533.07	1514.51
533.42	1530.47
533.78	1546.53
534.14	1562.88
534.50	1578.15
534.86	1594.18
535.21	1609.38
535.57	1625.33
535.93	1640.95
536.29	1655.72
536.65	1670.93
537.00	1685.78
537.36	1701.22
537.72	1715.83
538.08	1730.29
538.44	1744.14
538.79	1758.20
539.15	1772.04
539.51	1785.87
539.87	1800.34
540.22	1814.25
540.58	1828.15
540.94	1841.71
541.29	1854.82
541.65	1867.61
542.01	1881.00
542.37	1893.34
542.72	1905.83
543.08	1917.68
543.44	1930.17
543.79	1941.48
544.15	1952.52
544.51	1964.17
544.87	1975.10
545.22	1985.91
545.58	1996.16
545.94	2005.98
546.29	2015.88
546.65	2025.75
547.01	2035.03
547.36	2043.73
547.72	2052.27
548.07	2060.11
548.43	2068.23
548.79	2076.32
549.14	2083.86
549.50	2091.16
549.86	2099.00
550.21	2106.22
550.57	2113.37
550.92	2120.00
551.28	2127.21
551.64	2134.14
551.99	2140.68
552.35	2146.91
552.70	2153.07
553.06	2159.09
553.41	2165.40
553.77	2171.47
554.13	2177.55
554.48	2183.66
554.84	2189.04
555.19	2194.38
555.55	2199.46
555.90	2203.87
556.26	2208.54
556.61	2213.33
556.97	2217.58
557.32	2221.52
557.68	2225.68
558.03	2230.03
558.39	2233.66
558.74	2238.16
559.10	2242.11
559.45	2245.61
559.81	2249.80
560.16	2253.57
560.52	2256.56
560.87	2260.01
561.23	2262.69
561.58	2265.53
561.94	2268.11
562.29	2270.67
562.64	2273.26
563.00	2275.98
563.35	2279.59
563.71	2282.82
564.06	2286.02
564.42	2288.95
564.77	2291.56
565.12	2293.82
565.48	2295.59
565.83	2297.43
566.19	2298.69
566.54	2299.81
566.89	2301.11
567.25	2301.63
567.60	2302.96
567.96	2304.77
568.31	2305.57
568.66	2306.40
569.02	2307.12
569.37	2307.38
569.72	2307.94
570.08	2307.81
570.43	2307.63
570.78	2306.85
571.14	2305.20
571.49	2303.76
571.84	2303.31
572.20	2301.87
572.55	2300.79
572.90	2299.32
573.26	2297.83
573.61	2296.17
573.96	2293.98
574.31	2290.81
574.67	2287.70
575.02	2284.13
575.37	2280.55
575.72	2276.54
576.08	2273.21
576.43	2269.53
576.78	2265.78
577.13	2262.68
577.49	2259.65
577.84	2256.04
578.19	2252.33
578.54	2248.73
578.90	2244.30
579.25	2238.72
579.60	2233.66
579.95	2228.43
580.30	2223.20
580.66	2217.88
581.01	2212.81
581.36	2207.91
581.71	2203.64
582.06	2199.20
582.42	2194.50
582.77	2189.21
583.12	2184.50
583.47	2179.62
583.82	2174.60
584.17	2169.31
584.53	2163.59
584.88	2157.80
585.23	2152.00
585.58	2146.39
585.93	2140.74
586.28	2136.02
586.63	2130.86
586.98	2125.85
587.34	2121.16
587.69	2116.26
588.04	2110.97
588.39	2105.01
588.74	2098.48
589.09	2092.25
589.44	2085.32
589.79	2079.25
590.14	2073.69
590.49	2067.12
590.84	2060.83
591.19	2054.71
591.54	2048.14
591.89	2040.69
592.25	2033.86
592.60	2026.64
592.95	2018.94
593.30	2011.52
593.65	2003.82
594.00	1996.78
594.35	1989.40
594.70	1981.31
595.05	1973.95
595.40	1966.67
595.75	1959.35
596.10	1953.09
596.45	1946.23
596.80	1939.99
597.15	1933.25
597.50	1925.93
597.85	1919.64
598.19	1912.82
598.54	1905.80
598.89	1899.15
599.24	1893.25
599.59	1886.50
599.94	1880.17
600.29	1873.73
600.64	1867.20
600.99	1859.64
601.34	1852.59
601.69	1845.60
602.04	1838.72
602.39	1831.35
602.74	1824.47
603.08	1817.54
603.43	1810.77
603.78	1803.47
604.13	1796.17
604.48	1788.80
604.83	1782.04
605.18	1774.72
605.53	1766.65
605.87	1758.52
606.22	1751.23
606.57	1743.44
606.92	1736.18
607.27	1728.99
607.62	1722.04
607.96	1714.63
608.31	1708.02
608.66	1700.50
609.01	1692.89
609.36	1685.25
609.70	1677.17
610.05	1669.06
610.40	1661.38
610.75	1652.93
611.10	1645.22
611.44	1636.97
611.79	1629.10
612.14	1620.21
612.49	1611.28
612.83	1602.86
613.18	1594.73
613.53	1586.66
613.88	1577.90
614.22	1569.57
614.57	1560.98
614.92	1553.00
615.27	1545.37
615.61	1537.00
615.96	1529.02
616.31	1521.50
616.65	1514.14
617.00	1506.65
617.35	1499.06
617.70	1490.61
618.04	1482.16
618.39	1473.93
618.74	1466.28
619.08	1458.01
619.43	1450.60
619.78	1443.51
620.12	1436.39
620.47	1428.86
620.82	1420.65
621.16	1413.32
621.51	1405.73
621.85	1398.09
622.20	1389.56
622.55	1381.36
622.89	1373.59
623.24	1365.97
623.59	1358.56
623.93	1351.02
624.28	1343.83
624.62	1336.20
624.97	1329.23
625.32	1322.49
625.66	1315.52
626.01	1308.30
626.35	1300.71
626.70	1292.94
627.04	1285.34
627.39	1277.68
627.73	1270.33
628.08	1263.32
628.43	1255.91
628.77	1248.47
629.12	1240.96
629.46	1233.72
629.81	1226.27
630.15	1219.07
630.50	1211.58
630.84	1203.33
631.19	1195.39
631.53	1187.82
631.88	1180.31
632.22	1172.61
632.57	1165.33
632.91	1157.79
633.26	1150.45
633.60	1143.21
633.95	1136.17
634.29	1129.15
634.64	1122.47
634.98	1115.11
635.32	1108.02
635.67	1101.57
636.01	1095.05
636.36	1088.21
636.70	1081.81
637.05	1075.21
637.39	1068.75
637.73	1062.29
638.08	1056.46
638.42	1050.51
638.77	1044.07
639.11	1037.41
639.45	1031.07
639.80	1024.39
640.14	1018.00
640.49	1011.40
640.83	1005.04
641.17	998.74
641.52	992.47
641.86	986.08
642.20	980.21
642.55	973.95
642.89	967.41
643.23	960.78
643.58	955.07
643.92	948.76
644.26	942.70
644.61	936.60
644.95	930.56
645.29	923.96
645.64	917.23
645.98	910.86
646.32	905.15
646.66	899.01
647.01	893.34
647.35	887.65
647.69	881.86
648.04	876.39
648.38	870.69
648.72	864.61
649.06	858.50
649.41	852.69
649.75	846.65
650.09	840.76
650.43	835.00
650.78	828.85
651.12	822.96
651.46	817.30
651.80	811.61
652.14	806.19
652.49	800.86
652.83	795.73
653.17	790.03
653.51	784.26
653.85	778.93
654.20	773.12
654.54	767.08
654.88	761.36
655.22	755.46
655.56	749.82
655.90	744.41
656.25	739.13
656.59	733.75
656.93	728.74
657.27	723.55
657.61	718.10
657.95	713.00
658.29	707.96
658.64	702.67
658.98	697.38
659.32	691.97
659.66	686.79
660.00	681.40
660.34	676.51
660.68	671.65
661.02	666.68
661.36	662.05
661.70	657.57
662.05	653.21
662.39	648.84
662.73	644.32
663.07	639.96
663.41	635.56
663.75	631.04
664.09	626.48
664.43	622.11
664.77	618.00
665.11	613.74
665.45	609.64
665.79	605.53
666.13	601.42
666.47	597.38
666.81	593.19
667.15	589.18
667.49	585.30
667.83	581.52
668.17	577.59
668.51	573.54
668.85	569.53
669.19	565.66
669.53	561.80
669.87	557.87
670.21	554.14
670.55	550.48
670.89	547.04
671.23	543.68
671.57	540.15
671.91	536.64
672.25	533.24
672.58	529.73
672.92	526.43
673.26	523.25
673.60	520.14
673.94	517.04
674.28	514.17
674.62	511.26
674.96	508.10
675.30	505.16
675.64	502.24
675.97	499.48
676.31	496.63
676.65	493.71
676.99	491.06
677.33	488.26
677.67	485.51
678.01	482.52
678.34	479.46
678.68	476.66
679.02	473.85
679.36	471.08
679.70	468.36
680.04	465.57
680.37	462.75
680.71	459.90
681.05	457.27
681.39	454.54
681.73	451.92
682.06	449.42
682.40	446.90
682.74	444.41
683.08	441.92
683.42	439.40
683.75	436.94
684.09	434.43
684.43	431.99
684.77	429.51
685.10	427.17
685.44	424.89
685.78	422.57
686.12	420.38
686.45	418.07
686.79	415.78
687.13	413.59
687.46	411.41
687.80	409.32
688.14	407.13
688.48	405.04
688.81	402.74
689.15	400.62
689.49	398.51
689.82	396.37
690.16	394.25
690.50	392.26
690.83	390.37
691.17	388.41
691.51	386.45
691.84	384.63
692.18	382.69
692.52	380.70
692.85	378.79
693.19	376.88
693.52	375.11
693.86	373.31
694.20	371.55
694.53	369.75
694.87	367.92
695.21	366.17
695.54	364.36
695.88	362.66
696.21	360.90
696.55	359.20
696.88	357.54
697.22	355.91
697.56	354.32
697.89	352.65
698.23	351.00
698.56	349.43
698.90	347.82
699.23	346.20
699.57	344.68
699.90	343.13
700.24	341.62
700.58	340.01
700.91	338.55
701.25	337.04
701.58	335.67
701.92	334.31
702.25	332.91
702.59	331.52
702.92	330.18
703.26	328.88
703.59	327.60
703.93	326.45
704.26	325.17
704.60	323.84
704.93	322.55
705.26	321.33
705.60	320.15
705.93	319.00
706.27	317.97
706.60	316.94
706.94	315.89
707.27	314.74
707.61	313.71
707.94	312.66
708.27	311.61
708.61	310.53
708.94	309.55
709.28	308.57
709.61	307.65
709.94	306.73
710.28	305.69
710.61	304.73
710.95	303.64
711.28	302.76
711.61	301.81
711.95	300.91
712.28	299.96
712.61	298.97
712.95	298.04
713.28	297.18
713.61	296.26
713.95	295.38
714.28	294.56
714.61	293.67
714.95	292.87
715.28	292.04
715.61	291.17
715.95	290.30
716.28	289.42
716.61	288.60
716.95	287.76
717.28	287.05
717.61	286.28
717.94	285.54
718.28	284.72
718.61	284.04
718.94	283.33
719.27	282.69
719.61	282.02
719.94	281.36
720.27	280.63
720.60	279.94
720.94	279.31
721.27	278.70
721.60	278.15
721.93	277.54
722.27	276.96
722.60	276.43
722.93	275.87
723.26	275.38
723.59	274.82
723.93	274.28
724.26	273.76
724.59	273.21
724.92	272.72
725.25	272.20
725.59	271.68
725.92	271.18
726.25	270.67
726.58	270.24
726.91	269.75
727.24	269.31
727.57	268.86
727.91	268.40
728.24	267.97
728.57	267.50
728.90	267.06
729.23	266.62
729.56	266.23
729.89	265.78
730.22	265.31
730.55	264.85
730.89	264.44
731.22	263.99
731.55	263.55
731.88	263.12
732.21	262.76
732.54	262.31
732.87	261.92
733.20	261.56
733.53	261.13
733.86	260.75
734.19	260.34
734.52	259.96
734.85	259.63
735.18	259.18
735.51	258.80
735.84	258.42
736.17	258.05
736.50	257.59
736.83	257.34
737.16	257.00
737.49	256.64
737.82	256.28
738.15	255.96
738.48	255.63
738.81	255.29
739.14	254.96
739.47	254.63
739.80	254.28
740.13	253.94
740.46	253.62
740.79	253.28
741.12	252.97
741.45	252.63
741.78	252.29
742.11	251.99
742.44	251.65
742.77	251.35
743.10	251.02
743.43	250.73
743.75	250.33
744.08	250.16
744.41	249.90
744.74	249.57
745.07	249.28
745.40	249.03
745.73	248.79
746.06	248.47
746.39	248.21
746.71	247.95
747.04	247.67
747.37	247.41
747.70	247.15
748.03	246.91
748.36	246.67
748.68	246.38
749.01	246.16
749.34	245.93
749.67	245.69
750.00	245.45
750.33	245.31
750.65	245.08
750.98	244.74
751.31	244.52
751.64	244.34
751.97	244.13
752.29	243.90
752.62	243.70
752.95	243.49
753.28	243.26
753.60	243.05
753.93	242.86
754.26	242.67
754.59	242.45
754.91	242.24
755.24	242.08
755.57	241.91
755.90	241.72
756.22	241.51
756.55	241.32
756.88	241.13
757.20	240.89
757.53	240.71
757.86	240.53
758.19	240.34
758.51	240.18
758.84	240.02
759.17	239.86
759.49	239.67
759.82	239.61
760.15	239.50
760.47	239.39
760.80	239.20
761.13	239.09
761.45	238.93
761.78	238.80
762.11	238.66
762.43	238.56
762.76	238.43
763.08	238.36
763.41	238.24
763.74	238.14
764.06	238.03
764.39	237.91
764.71	237.78
765.04	237.69
765.37	237.55
765.69	237.40
766.02	237.24
766.34	237.13
766.67	236.92
767.00	236.81
767.32	236.74
767.65	236.72
767.97	236.58
768.30	236.51
768.62	236.41
768.95	236.30
769.27	236.17
769.60	236.08
769.92	235.94
770.25	235.82
770.57	235.70
770.90	235.59
771.22	235.52
771.55	235.46
771.87	235.38
772.20	235.30
772.52	235.33
772.85	235.39
773.17	235.30
773.50	235.21
773.82	235.08
774.15	234.95
774.47	234.81
774.80	234.74
775.12	234.67
775.45	234.55
775.77	234.49
776.09	234.42
776.42	234.34
776.74	234.29
777.07	234.26
777.39	234.18
777.72	234.10
778.04	234.03
778.36	233.93
778.69	233.87
779.01	233.83
779.33	233.63
779.66	233.44
779.98	233.34
780.31	233.27
780.63	233.28
780.95	233.22
781.28	233.15
781.60	233.07
781.92	232.95
782.25	232.91
782.57	232.81
782.89	232.74
783.22	232.67
783.54	232.60
783.86	232.51
784.19	232.46
784.51	232.42
784.83	232.31
785.16	232.24
785.48	232.17
785.80	232.09
786.12	232.06
786.45	232.02
786.77	231.95
787.09	231.89
