SpectraSuite Data File
++++++++++++++++++++++++++++++++++++
Date: Fri Feb 01 16:25:47 EST 2013
User: group
Dark Spectrum Present: No
Reference Spectrum Present: No
Number of Sampled Component Spectra: 1
Spectrometers: USB2E7196
Integration Time (usec): 35000 (USB2E7196)
Spectra Averaged: 100 (USB2E7196)
Boxcar Smoothing: 10 (USB2E7196)
Correct for Electrical Dark: No (USB2E7196)
Strobe/Lamp Enabled: No (USB2E7196)
Correct for Detector Non-linearity: No (USB2E7196)
Correct for Stray Light: No (USB2E7196)
Number of Pixels in Processed Spectrum: 2048
>>>>>Begin Processed Spectral Data<<<<<
339.09	0.00
339.48	214.15
339.86	215.74
340.24	217.02
340.63	218.30
341.01	221.72
341.39	221.28
341.78	222.67
342.16	223.75
342.54	224.59
342.93	212.57
343.31	223.32
343.69	223.84
344.07	224.29
344.46	224.69
344.84	225.06
345.22	225.26
345.60	225.52
345.99	225.67
346.37	225.78
346.75	225.83
347.13	225.85
347.52	225.88
347.90	225.93
348.28	225.94
348.66	225.97
349.05	225.97
349.43	226.03
349.81	226.05
350.19	226.08
350.57	226.15
350.96	226.21
351.34	226.28
351.72	226.37
352.10	226.45
352.48	226.51
352.87	226.55
353.25	226.60
353.63	226.64
354.01	226.70
354.39	226.80
354.77	226.89
355.15	227.02
355.54	227.10
355.92	227.09
356.30	227.18
356.68	227.32
357.06	227.40
357.44	227.43
357.82	227.49
358.20	227.56
358.58	227.61
358.97	227.67
359.35	227.74
359.73	227.82
360.11	227.88
360.49	227.96
360.87	228.02
361.25	228.08
361.63	228.16
362.01	228.19
362.39	228.18
362.77	228.21
363.15	228.24
363.53	228.25
363.91	228.33
364.29	228.34
364.67	228.25
365.05	228.26
365.43	228.31
365.81	228.35
366.19	228.44
366.57	228.47
366.95	228.47
367.33	228.46
367.71	228.47
368.09	228.49
368.47	228.45
368.85	228.46
369.23	228.45
369.61	228.38
369.99	228.42
370.37	228.43
370.75	228.47
371.13	228.42
371.51	228.41
371.89	228.36
372.27	228.32
372.65	228.31
373.03	228.28
373.41	228.22
373.78	228.16
374.16	228.02
374.54	227.93
374.92	227.87
375.30	227.78
375.68	227.70
376.06	227.62
376.44	227.61
376.82	227.55
377.19	227.47
377.57	227.42
377.95	227.33
378.33	227.26
378.71	227.12
379.09	227.06
379.47	226.97
379.84	226.86
380.22	226.81
380.60	226.72
380.98	226.64
381.36	226.56
381.73	226.47
382.11	226.39
382.49	226.36
382.87	226.27
383.25	226.23
383.62	226.28
384.00	226.20
384.38	226.14
384.76	226.09
385.13	226.10
385.51	226.04
385.89	225.95
386.27	225.91
386.64	225.89
387.02	225.86
387.40	225.80
387.78	225.78
388.15	225.74
388.53	225.73
388.91	225.69
389.29	225.65
389.66	225.65
390.04	225.64
390.42	225.60
390.79	225.61
391.17	225.60
391.55	225.49
391.92	225.48
392.30	225.47
392.68	225.43
393.05	225.39
393.43	225.38
393.81	225.38
394.18	225.37
394.56	225.38
394.94	225.41
395.31	225.45
395.69	225.51
396.06	225.52
396.44	225.54
396.82	225.55
397.19	225.65
397.57	225.64
397.95	225.68
398.32	225.71
398.70	225.75
399.07	225.80
399.45	225.82
399.82	225.91
400.20	225.96
400.58	226.03
400.95	226.08
401.33	226.19
401.70	226.34
402.08	226.43
402.45	226.51
402.83	226.63
403.20	226.73
403.58	226.85
403.95	226.98
404.33	227.12
404.71	227.25
405.08	227.40
405.46	227.56
405.83	227.68
406.21	227.83
406.58	227.95
406.96	228.13
407.33	228.30
407.70	228.43
408.08	228.72
408.45	228.93
408.83	229.15
409.20	229.37
409.58	229.56
409.95	229.80
410.33	230.05
410.70	230.28
411.08	230.54
411.45	230.86
411.82	231.14
412.20	231.51
412.57	231.93
412.95	232.23
413.32	232.64
413.69	233.06
414.07	233.50
414.44	234.00
414.82	234.48
415.19	235.04
415.56	235.61
415.94	236.13
416.31	236.77
416.68	237.43
417.06	238.14
417.43	238.81
417.81	239.58
418.18	240.34
418.55	241.19
418.93	242.08
419.30	242.93
419.67	243.84
420.04	244.78
420.42	245.77
420.79	246.98
421.16	248.09
421.54	249.30
421.91	250.52
422.28	251.80
422.66	253.12
423.03	254.41
423.40	255.71
423.77	257.12
424.15	258.56
424.52	260.04
424.89	261.66
425.26	263.19
425.64	264.62
426.01	266.24
426.38	267.89
426.75	269.58
427.13	271.33
427.50	273.15
427.87	275.06
428.24	276.94
428.61	278.65
428.99	280.63
429.36	282.71
429.73	284.79
430.10	286.76
430.47	288.79
430.85	290.90
431.22	293.15
431.59	295.54
431.96	297.77
432.33	300.23
432.70	302.60
433.08	305.47
433.45	308.12
433.82	310.69
434.19	313.54
434.56	316.32
434.93	318.99
435.30	321.59
435.68	324.43
436.05	327.24
436.42	330.02
436.79	332.53
437.16	335.20
437.53	338.01
437.90	340.83
438.27	343.54
438.64	346.36
439.01	348.95
439.38	351.18
439.75	353.30
440.13	355.77
440.50	358.09
440.87	359.86
441.24	361.79
441.61	363.97
441.98	365.45
442.35	367.24
442.72	369.02
443.09	370.80
443.46	371.80
443.83	372.37
444.20	372.88
444.57	373.70
444.94	373.97
445.31	374.25
445.68	374.60
446.05	374.74
446.42	374.37
446.79	373.93
447.16	373.45
447.53	373.19
447.90	372.07
448.27	370.89
448.64	369.35
449.01	368.25
449.37	366.31
449.74	364.47
450.11	362.28
450.48	359.81
450.85	357.34
451.22	355.20
451.59	353.19
451.96	351.25
452.33	348.69
452.70	346.36
453.07	343.57
453.43	340.67
453.80	337.86
454.17	335.16
454.54	332.64
454.91	329.93
455.28	327.24
455.65	324.75
456.02	322.33
456.38	320.19
456.75	317.51
457.12	315.27
457.49	313.04
457.86	310.81
458.23	308.99
458.59	306.91
458.96	304.84
459.33	302.99
459.70	301.15
460.07	299.66
460.43	297.94
460.80	296.38
461.17	295.00
461.54	293.49
461.91	292.10
462.27	290.66
462.64	289.46
463.01	288.17
463.38	286.85
463.74	285.49
464.11	284.33
464.48	283.30
464.85	282.20
465.21	281.33
465.58	280.44
465.95	279.35
466.32	278.50
466.68	277.60
467.05	276.72
467.42	275.87
467.78	274.93
468.15	274.11
468.52	273.45
468.88	272.58
469.25	271.87
469.62	271.25
469.98	270.60
470.35	269.97
470.72	269.31
471.08	268.68
471.45	268.16
471.82	267.63
472.18	267.04
472.55	266.59
472.92	266.07
473.28	265.62
473.65	265.20
474.02	264.76
474.38	264.39
474.75	264.02
475.11	263.65
475.48	263.37
475.85	263.15
476.21	262.90
476.58	262.72
476.94	262.57
477.31	262.41
477.67	262.25
478.04	262.15
478.41	262.11
478.77	262.17
479.14	262.09
479.50	262.10
479.87	262.18
480.23	262.26
480.60	262.33
480.96	262.46
481.33	262.67
481.69	262.86
482.06	263.10
482.42	263.34
482.79	263.57
483.15	263.91
483.52	264.30
483.88	264.66
484.25	265.09
484.61	265.54
484.98	265.98
485.34	266.57
485.71	267.18
486.07	267.83
486.44	268.39
486.80	269.12
487.17	269.84
487.53	270.71
487.90	271.55
488.26	272.51
488.62	273.47
488.99	274.47
489.35	275.50
489.72	276.61
490.08	277.84
490.44	279.10
490.81	280.46
491.17	281.80
491.54	283.29
491.90	284.81
492.26	286.44
492.63	288.20
492.99	289.97
493.36	291.82
493.72	293.84
494.08	295.92
494.45	298.14
494.81	300.52
495.17	302.89
495.54	305.47
495.90	308.12
496.26	310.95
496.63	313.86
496.99	317.00
497.35	320.24
497.72	323.62
498.08	327.15
498.44	330.81
498.80	334.71
499.17	338.74
499.53	342.91
499.89	347.28
500.26	351.83
500.62	356.51
500.98	361.48
501.34	366.56
501.71	371.96
502.07	377.47
502.43	383.08
502.79	388.99
503.16	395.13
503.52	401.46
503.88	407.85
504.24	414.50
504.60	421.37
504.97	428.57
505.33	435.88
505.69	443.62
506.05	451.36
506.41	459.29
506.78	467.51
507.14	475.93
507.50	484.65
507.86	493.63
508.22	502.80
508.59	512.04
508.95	521.62
509.31	531.43
509.67	541.48
510.03	551.72
510.39	562.22
510.75	573.02
511.12	583.92
511.48	595.23
511.84	606.71
512.20	618.18
512.56	630.14
512.92	642.35
513.28	654.71
513.64	667.23
514.00	679.87
514.37	692.72
514.73	705.78
515.09	718.85
515.45	732.12
515.81	745.71
516.17	759.65
516.53	773.78
516.89	787.91
517.25	802.09
517.61	816.59
517.97	831.05
518.33	845.32
518.69	860.07
519.05	874.98
519.41	890.01
519.77	905.59
520.13	920.89
520.49	936.19
520.85	951.47
521.21	967.16
521.57	983.41
521.93	999.11
522.29	1015.47
522.65	1031.60
523.01	1047.73
523.37	1063.72
523.73	1079.88
524.09	1095.79
524.45	1112.01
524.81	1128.57
525.17	1145.28
525.53	1162.14
525.89	1179.15
526.25	1195.86
526.61	1212.16
526.97	1228.95
527.33	1245.33
527.68	1261.93
528.04	1278.34
528.40	1294.81
528.76	1311.73
529.12	1328.24
529.48	1345.10
529.84	1361.05
530.20	1377.62
530.56	1394.73
530.91	1412.01
531.27	1428.56
531.63	1444.99
531.99	1461.51
532.35	1477.40
532.71	1493.17
533.07	1509.34
533.42	1525.07
533.78	1541.03
534.14	1557.31
534.50	1572.61
534.86	1588.38
535.21	1603.40
535.57	1619.20
535.93	1634.68
536.29	1649.41
536.65	1664.26
537.00	1678.93
537.36	1694.14
537.72	1708.61
538.08	1722.87
538.44	1736.68
538.79	1750.52
539.15	1764.15
539.51	1777.70
539.87	1791.93
540.22	1805.69
540.58	1819.34
540.94	1832.56
541.29	1845.38
541.65	1857.90
542.01	1870.93
542.37	1883.10
542.72	1895.39
543.08	1907.00
543.44	1919.31
543.79	1930.59
544.15	1941.49
544.51	1952.95
544.87	1963.78
545.22	1974.48
545.58	1984.55
545.94	1994.10
546.29	2003.95
546.65	2013.71
547.01	2023.10
547.36	2031.73
547.72	2040.04
548.07	2047.72
548.43	2055.66
548.79	2063.64
549.14	2071.15
549.50	2078.32
549.86	2086.03
550.21	2093.39
550.57	2100.65
550.92	2107.17
551.28	2114.02
551.64	2121.22
551.99	2127.64
552.35	2133.70
552.70	2139.87
553.06	2145.80
553.41	2152.13
553.77	2158.05
554.13	2164.05
554.48	2170.06
554.84	2175.54
555.19	2180.76
555.55	2185.99
555.90	2190.51
556.26	2195.46
556.61	2200.19
556.97	2204.55
557.32	2208.64
557.68	2212.79
558.03	2217.11
558.39	2220.76
558.74	2225.42
559.10	2229.24
559.45	2232.93
559.81	2237.39
560.16	2241.21
560.52	2244.44
560.87	2247.90
561.23	2250.57
561.58	2253.60
561.94	2256.04
562.29	2258.38
562.64	2261.19
563.00	2263.83
563.35	2267.49
563.71	2270.56
564.06	2273.93
564.42	2276.86
564.77	2279.41
565.12	2281.72
565.48	2283.67
565.83	2285.49
566.19	2286.87
566.54	2287.77
566.89	2288.94
567.25	2289.54
567.60	2290.82
567.96	2292.63
568.31	2293.54
568.66	2294.67
569.02	2295.18
569.37	2295.69
569.72	2296.54
570.08	2296.75
570.43	2296.82
570.78	2296.31
571.14	2294.79
571.49	2293.30
571.84	2293.12
572.20	2292.07
572.55	2291.01
572.90	2289.37
573.26	2288.17
573.61	2286.50
573.96	2284.85
574.31	2282.07
574.67	2279.01
575.02	2275.45
575.37	2272.02
575.72	2268.26
576.08	2264.91
576.43	2261.77
576.78	2258.11
577.13	2254.99
577.49	2251.82
577.84	2248.40
578.19	2244.56
578.54	2241.09
578.90	2236.93
579.25	2231.32
579.60	2226.43
579.95	2221.45
580.30	2216.59
580.66	2211.51
581.01	2206.52
581.36	2201.64
581.71	2197.54
582.06	2193.20
582.42	2188.86
582.77	2183.78
583.12	2179.22
583.47	2174.84
583.82	2169.87
584.17	2164.70
584.53	2159.39
584.88	2153.89
585.23	2148.18
585.58	2142.84
585.93	2137.43
586.28	2132.86
586.63	2127.83
586.98	2122.83
587.34	2118.22
587.69	2113.35
588.04	2108.08
588.39	2102.57
588.74	2096.10
589.09	2089.91
589.44	2083.19
589.79	2077.17
590.14	2071.63
590.49	2065.13
590.84	2058.63
591.19	2052.64
591.54	2046.28
591.89	2038.94
592.25	2032.21
592.60	2025.02
592.95	2017.49
593.30	2010.11
593.65	2002.49
594.00	1995.53
594.35	1988.27
594.70	1980.24
595.05	1973.18
595.40	1966.03
595.75	1958.48
596.10	1952.35
596.45	1945.75
596.80	1939.79
597.15	1933.21
597.50	1926.00
597.85	1919.67
598.19	1913.14
598.54	1906.03
598.89	1899.23
599.24	1893.39
599.59	1886.69
599.94	1880.59
600.29	1874.28
600.64	1867.78
600.99	1860.30
601.34	1853.54
601.69	1846.61
602.04	1839.94
602.39	1832.57
602.74	1825.67
603.08	1819.00
603.43	1812.28
603.78	1804.86
604.13	1797.57
604.48	1790.30
604.83	1783.49
605.18	1776.52
605.53	1768.51
605.87	1760.55
606.22	1753.48
606.57	1745.55
606.92	1738.30
607.27	1731.10
607.62	1724.17
607.96	1717.07
608.31	1710.54
608.66	1702.96
609.01	1695.46
609.36	1687.92
609.70	1679.86
610.05	1671.84
610.40	1664.15
610.75	1655.91
611.10	1648.29
611.44	1639.98
611.79	1631.88
612.14	1623.21
612.49	1614.01
612.83	1605.64
613.18	1597.41
613.53	1589.26
613.88	1580.63
614.22	1572.33
614.57	1563.75
614.92	1555.73
615.27	1548.01
615.61	1539.65
615.96	1531.68
616.31	1524.05
616.65	1516.54
617.00	1508.98
617.35	1501.33
617.70	1492.97
618.04	1484.39
618.39	1476.26
618.74	1468.56
619.08	1460.35
619.43	1452.88
619.78	1445.96
620.12	1438.72
620.47	1431.31
620.82	1423.17
621.16	1415.75
621.51	1408.10
621.85	1400.50
622.20	1392.06
622.55	1383.67
622.89	1375.81
623.24	1368.04
623.59	1360.66
623.93	1353.16
624.28	1346.07
624.62	1338.58
624.97	1331.49
625.32	1324.81
625.66	1317.76
626.01	1310.55
626.35	1303.17
626.70	1295.34
627.04	1287.69
627.39	1279.92
627.73	1272.50
628.08	1265.59
628.43	1258.32
628.77	1250.93
629.12	1243.35
629.46	1236.14
629.81	1228.75
630.15	1221.49
630.50	1214.15
630.84	1205.84
631.19	1197.81
631.53	1190.19
631.88	1182.57
632.22	1174.98
632.57	1167.57
632.91	1160.02
633.26	1152.52
633.60	1145.11
633.95	1137.99
634.29	1130.83
634.64	1124.20
634.98	1116.87
635.32	1109.70
635.67	1103.19
636.01	1096.51
636.36	1089.63
636.70	1083.01
637.05	1076.48
637.39	1070.01
637.73	1063.47
638.08	1057.72
638.42	1051.75
638.77	1045.35
639.11	1038.81
639.45	1032.41
639.80	1025.83
640.14	1019.41
640.49	1012.97
640.83	1006.57
641.17	1000.30
641.52	993.97
641.86	987.47
642.20	981.60
642.55	975.29
642.89	968.72
643.23	962.17
643.58	956.44
643.92	950.36
644.26	944.26
644.61	938.33
644.95	932.37
645.29	925.80
645.64	919.11
645.98	912.71
646.32	906.90
646.66	900.85
647.01	895.04
647.35	889.28
647.69	883.43
648.04	878.05
648.38	872.29
648.72	866.33
649.06	860.32
649.41	854.38
649.75	848.47
650.09	842.59
650.43	836.93
650.78	830.81
651.12	824.78
651.46	819.01
651.80	813.16
652.14	807.70
652.49	802.25
652.83	797.02
653.17	791.36
653.51	785.63
653.85	780.24
654.20	774.53
654.54	768.57
654.88	762.83
655.22	756.85
655.56	751.20
655.90	745.80
656.25	740.55
656.59	735.19
656.93	730.08
657.27	724.89
657.61	719.41
657.95	714.24
658.29	709.17
658.64	703.95
658.98	698.68
659.32	693.19
659.66	687.98
660.00	682.67
660.34	677.73
660.68	672.77
661.02	667.68
661.36	663.01
661.70	658.48
662.05	654.05
662.39	649.66
662.73	645.15
663.07	640.79
663.41	636.36
663.75	631.90
664.09	627.25
664.43	622.85
664.77	618.69
665.11	614.46
665.45	610.36
665.79	606.25
666.13	602.10
666.47	598.08
666.81	593.91
667.15	589.84
667.49	585.92
667.83	582.13
668.17	578.17
668.51	574.02
668.85	569.95
669.19	566.21
669.53	562.47
669.87	558.60
670.21	554.82
670.55	551.11
670.89	547.70
671.23	544.33
671.57	540.79
671.91	537.22
672.25	533.72
672.58	530.21
672.92	526.79
673.26	523.64
673.60	520.44
673.94	517.42
674.28	514.51
674.62	511.53
674.96	508.45
675.30	505.59
675.64	502.72
675.97	500.00
676.31	497.09
676.65	494.13
676.99	491.44
677.33	488.61
677.67	485.81
678.01	482.78
678.34	479.75
678.68	476.87
679.02	474.09
679.36	471.34
679.70	468.63
680.04	465.83
680.37	462.91
680.71	460.08
681.05	457.35
681.39	454.59
681.73	451.99
682.06	449.38
682.40	446.80
682.74	444.28
683.08	441.69
683.42	439.08
683.75	436.56
684.09	434.07
684.43	431.58
684.77	429.18
685.10	426.79
685.44	424.50
685.78	422.23
686.12	419.92
686.45	417.59
686.79	415.21
687.13	413.06
687.46	410.97
687.80	408.81
688.14	406.66
688.48	404.62
688.81	402.33
689.15	400.23
689.49	398.08
689.82	396.04
690.16	393.98
690.50	392.06
690.83	390.12
691.17	388.05
691.51	386.18
691.84	384.26
692.18	382.36
692.52	380.39
692.85	378.43
693.19	376.61
693.52	374.83
693.86	373.03
694.20	371.26
694.53	369.42
694.87	367.60
695.21	365.75
695.54	363.89
695.88	362.15
696.21	360.40
696.55	358.72
696.88	356.95
697.22	355.24
697.56	353.61
697.89	351.93
698.23	350.31
698.56	348.66
698.90	347.12
699.23	345.48
699.57	343.95
699.90	342.43
700.24	340.90
700.58	339.38
700.91	337.89
701.25	336.43
701.58	335.07
701.92	333.72
702.25	332.36
702.59	331.02
702.92	329.68
703.26	328.34
703.59	327.06
703.93	325.90
704.26	324.67
704.60	323.32
704.93	322.04
705.26	320.83
705.60	319.64
705.93	318.44
706.27	317.37
706.60	316.28
706.94	315.19
707.27	314.03
707.61	312.92
707.94	311.89
708.27	310.76
708.61	309.67
708.94	308.62
709.28	307.62
709.61	306.66
709.94	305.75
710.28	304.72
710.61	303.73
710.95	302.63
711.28	301.74
711.61	300.82
711.95	299.88
712.28	298.90
712.61	297.95
712.95	297.02
713.28	296.13
713.61	295.24
713.95	294.36
714.28	293.51
714.61	292.66
714.95	291.85
715.28	291.03
715.61	290.17
715.95	289.37
716.28	288.53
716.61	287.72
716.95	286.88
717.28	286.18
717.61	285.44
717.94	284.71
718.28	283.86
718.61	283.15
718.94	282.50
719.27	281.90
719.61	281.24
719.94	280.61
720.27	279.90
720.60	279.25
720.94	278.62
721.27	278.07
721.60	277.50
721.93	276.87
722.27	276.34
722.60	275.79
722.93	275.23
723.26	274.74
723.59	274.19
723.93	273.64
724.26	273.08
724.59	272.49
724.92	272.00
725.25	271.58
725.59	271.05
725.92	270.56
726.25	270.02
726.58	269.56
726.91	269.07
727.24	268.64
727.57	268.18
727.91	267.66
728.24	267.18
728.57	266.69
728.90	266.26
729.23	265.80
729.56	265.36
729.89	264.86
730.22	264.32
730.55	263.88
730.89	263.47
731.22	263.00
731.55	262.60
731.88	262.17
732.21	261.74
732.54	261.32
732.87	260.87
733.20	260.50
733.53	260.14
733.86	259.78
734.19	259.36
734.52	258.96
734.85	258.68
735.18	258.27
735.51	257.93
735.84	257.55
736.17	257.19
736.50	256.82
736.83	256.60
737.16	256.30
737.49	255.94
737.82	255.57
738.15	255.25
738.48	254.94
738.81	254.59
739.14	254.25
739.47	253.93
739.80	253.64
740.13	253.30
740.46	252.91
740.79	252.57
741.12	252.23
741.45	251.94
741.78	251.58
742.11	251.29
742.44	250.97
742.77	250.67
743.10	250.35
743.43	249.99
743.75	249.63
744.08	249.44
744.41	249.18
744.74	248.91
745.07	248.64
745.40	248.38
745.73	248.13
746.06	247.87
746.39	247.59
746.71	247.32
747.04	247.02
747.37	246.78
747.70	246.52
748.03	246.28
748.36	246.06
748.68	245.82
749.01	245.54
749.34	245.29
749.67	245.07
750.00	244.84
750.33	244.68
750.65	244.46
750.98	244.15
751.31	243.90
751.64	243.68
751.97	243.51
752.29	243.32
752.62	243.06
752.95	242.80
753.28	242.59
753.60	242.35
753.93	242.21
754.26	241.98
754.59	241.76
754.91	241.56
755.24	241.32
755.57	241.09
755.90	240.90
756.22	240.71
756.55	240.49
756.88	240.31
757.20	240.09
757.53	239.86
757.86	239.67
758.19	239.52
758.51	239.38
758.84	239.14
759.17	238.94
759.49	238.78
759.82	238.68
760.15	238.53
760.47	238.41
760.80	238.23
761.13	238.10
761.45	237.96
761.78	237.83
762.11	237.68
762.43	237.57
762.76	237.44
763.08	237.33
763.41	237.19
763.74	237.05
764.06	236.93
764.39	236.80
764.71	236.64
765.04	236.47
765.37	236.33
765.69	236.24
766.02	236.12
766.34	236.01
766.67	235.89
767.00	235.81
767.32	235.74
767.65	235.68
767.97	235.58
768.30	235.47
768.62	235.34
768.95	235.23
769.27	235.12
769.60	235.05
769.92	234.92
770.25	234.84
770.57	234.75
770.90	234.63
771.22	234.54
771.55	234.46
771.87	234.44
772.20	234.36
772.52	234.35
772.85	234.37
773.17	234.29
773.50	234.19
773.82	234.09
774.15	233.94
774.47	233.81
774.80	233.72
775.12	233.62
775.45	233.56
775.77	233.49
776.09	233.44
776.42	233.34
776.74	233.31
777.07	233.20
777.39	233.12
777.72	233.03
778.04	233.00
778.36	232.92
778.69	232.81
779.01	232.76
779.33	232.57
779.66	232.39
779.98	232.32
780.31	232.25
780.63	232.22
780.95	232.19
781.28	232.11
781.60	232.04
781.92	231.98
782.25	231.90
782.57	231.85
782.89	231.78
783.22	231.71
783.54	231.60
783.86	231.55
784.19	231.48
784.51	231.44
784.83	231.32
785.16	231.27
785.48	231.21
785.80	231.11
786.12	231.08
786.45	231.00
786.77	230.96
787.09	230.89
