SpectraSuite Data File
++++++++++++++++++++++++++++++++++++
Date: Fri Feb 01 16:07:14 EST 2013
User: group
Dark Spectrum Present: No
Reference Spectrum Present: No
Number of Sampled Component Spectra: 1
Spectrometers: USB2E7196
Integration Time (usec): 35000 (USB2E7196)
Spectra Averaged: 100 (USB2E7196)
Boxcar Smoothing: 10 (USB2E7196)
Correct for Electrical Dark: No (USB2E7196)
Strobe/Lamp Enabled: No (USB2E7196)
Correct for Detector Non-linearity: No (USB2E7196)
Correct for Stray Light: No (USB2E7196)
Number of Pixels in Processed Spectrum: 2048
>>>>>Begin Processed Spectral Data<<<<<
339.09	0.00
339.48	214.37
339.86	215.83
340.24	217.04
340.63	218.51
341.01	221.60
341.39	221.75
341.78	222.87
342.16	223.78
342.54	224.12
342.93	212.90
343.31	223.69
343.69	224.27
344.07	224.73
344.46	225.15
344.84	225.55
345.22	225.78
345.60	226.03
345.99	226.22
346.37	226.38
346.75	226.48
347.13	226.55
347.52	226.62
347.90	226.69
348.28	226.71
348.66	226.78
349.05	226.77
349.43	226.79
349.81	226.82
350.19	226.86
350.57	226.91
350.96	226.96
351.34	227.06
351.72	227.12
352.10	227.24
352.48	227.35
352.87	227.41
353.25	227.51
353.63	227.57
354.01	227.63
354.39	227.70
354.77	227.76
355.15	227.84
355.54	227.92
355.92	227.98
356.30	228.04
356.68	228.17
357.06	228.26
357.44	228.30
357.82	228.37
358.20	228.48
358.58	228.53
358.97	228.61
359.35	228.64
359.73	228.70
360.11	228.74
360.49	228.79
360.87	228.82
361.25	228.85
361.63	228.92
362.01	228.96
362.39	228.98
362.77	229.06
363.15	229.10
363.53	229.11
363.91	229.13
364.29	229.17
364.67	229.06
365.05	229.10
365.43	229.17
365.81	229.17
366.19	229.18
366.57	229.20
366.95	229.19
367.33	229.17
367.71	229.17
368.09	229.19
368.47	229.17
368.85	229.17
369.23	229.18
369.61	229.13
369.99	229.14
370.37	229.10
370.75	229.08
371.13	229.01
371.51	228.96
371.89	228.92
372.27	228.87
372.65	228.86
373.03	228.77
373.41	228.64
373.78	228.59
374.16	228.51
374.54	228.41
374.92	228.39
375.30	228.34
375.68	228.26
376.06	228.18
376.44	228.10
376.82	228.00
377.19	227.90
377.57	227.83
377.95	227.74
378.33	227.68
378.71	227.58
379.09	227.52
379.47	227.44
379.84	227.36
380.22	227.29
380.60	227.17
380.98	227.11
381.36	227.11
381.73	227.01
382.11	226.96
382.49	226.92
382.87	226.84
383.25	226.75
383.62	226.78
384.00	226.71
384.38	226.66
384.76	226.63
385.13	226.63
385.51	226.55
385.89	226.50
386.27	226.47
386.64	226.46
387.02	226.43
387.40	226.43
387.78	226.38
388.15	226.38
388.53	226.36
388.91	226.37
389.29	226.32
389.66	226.34
390.04	226.34
390.42	226.34
390.79	226.32
391.17	226.34
391.55	226.23
391.92	226.24
392.30	226.28
392.68	226.25
393.05	226.27
393.43	226.31
393.81	226.34
394.18	226.36
394.56	226.38
394.94	226.43
395.31	226.44
395.69	226.52
396.06	226.53
396.44	226.58
396.82	226.60
397.19	226.68
397.57	226.70
397.95	226.76
398.32	226.81
398.70	226.91
399.07	226.96
399.45	227.05
399.82	227.12
400.20	227.17
400.58	227.28
400.95	227.29
401.33	227.38
401.70	227.52
402.08	227.58
402.45	227.68
402.83	227.79
403.20	227.91
403.58	228.00
403.95	228.13
404.33	228.27
404.71	228.39
405.08	228.55
405.46	228.68
405.83	228.83
406.21	228.96
406.58	229.11
406.96	229.27
407.33	229.44
407.70	229.59
408.08	229.82
408.45	230.04
408.83	230.29
409.20	230.49
409.58	230.65
409.95	230.90
410.33	231.15
410.70	231.37
411.08	231.65
411.45	231.96
411.82	232.24
412.20	232.58
412.57	233.01
412.95	233.30
413.32	233.68
413.69	234.09
414.07	234.50
414.44	234.94
414.82	235.39
415.19	235.91
415.56	236.47
415.94	237.02
416.31	237.62
416.68	238.26
417.06	238.95
417.43	239.63
417.81	240.37
418.18	241.17
418.55	242.02
418.93	242.87
419.30	243.74
419.67	244.66
420.04	245.58
420.42	246.56
420.79	247.75
421.16	248.91
421.54	250.10
421.91	251.29
422.28	252.56
422.66	253.89
423.03	255.21
423.40	256.51
423.77	257.91
424.15	259.35
424.52	260.82
424.89	262.40
425.26	263.95
425.64	265.43
426.01	266.97
426.38	268.61
426.75	270.30
427.13	271.99
427.50	273.82
427.87	275.72
428.24	277.57
428.61	279.31
428.99	281.23
429.36	283.30
429.73	285.37
430.10	287.38
430.47	289.47
430.85	291.57
431.22	293.83
431.59	296.21
431.96	298.45
432.33	300.90
432.70	303.27
433.08	306.04
433.45	308.66
433.82	311.30
434.19	314.18
434.56	316.98
434.93	319.65
435.30	322.26
435.68	325.17
436.05	327.99
436.42	330.80
436.79	333.34
437.16	336.05
437.53	338.87
437.90	341.67
438.27	344.39
438.64	347.25
439.01	349.85
439.38	352.08
439.75	354.22
440.13	356.76
440.50	359.12
440.87	361.01
441.24	362.93
441.61	365.05
441.98	366.55
442.35	368.33
442.72	370.22
443.09	372.05
443.46	373.00
443.83	373.59
444.20	374.08
444.57	374.89
444.94	375.17
445.31	375.50
445.68	375.86
446.05	375.95
446.42	375.50
446.79	375.05
447.16	374.59
447.53	374.31
447.90	373.11
448.27	371.95
448.64	370.41
449.01	369.32
449.37	367.37
449.74	365.48
450.11	363.25
450.48	360.75
450.85	358.21
451.22	356.08
451.59	354.07
451.96	352.10
452.33	349.55
452.70	347.19
453.07	344.42
453.43	341.52
453.80	338.75
454.17	336.15
454.54	333.62
454.91	330.91
455.28	328.21
455.65	325.75
456.02	323.30
456.38	321.10
456.75	318.43
457.12	316.16
457.49	313.94
457.86	311.79
458.23	309.93
458.59	307.85
458.96	305.78
459.33	303.95
459.70	302.13
460.07	300.61
460.43	298.86
460.80	297.25
461.17	295.78
461.54	294.31
461.91	292.84
462.27	291.39
462.64	290.13
463.01	288.82
463.38	287.51
463.74	286.14
464.11	284.98
464.48	283.96
464.85	282.89
465.21	282.03
465.58	281.09
465.95	280.01
466.32	279.12
466.68	278.18
467.05	277.23
467.42	276.32
467.78	275.38
468.15	274.52
468.52	273.85
468.88	273.02
469.25	272.23
469.62	271.62
469.98	270.96
470.35	270.35
470.72	269.78
471.08	269.12
471.45	268.61
471.82	268.09
472.18	267.47
472.55	267.03
472.92	266.47
473.28	265.97
473.65	265.50
474.02	265.11
474.38	264.76
474.75	264.46
475.11	264.12
475.48	263.87
475.85	263.66
476.21	263.45
476.58	263.24
476.94	263.13
477.31	262.97
477.67	262.79
478.04	262.67
478.41	262.56
478.77	262.64
479.14	262.53
479.50	262.53
479.87	262.62
480.23	262.69
480.60	262.78
480.96	262.92
481.33	263.15
481.69	263.30
482.06	263.52
482.42	263.71
482.79	263.96
483.15	264.28
483.52	264.63
483.88	264.93
484.25	265.33
484.61	265.76
484.98	266.21
485.34	266.80
485.71	267.40
486.07	268.02
486.44	268.59
486.80	269.31
487.17	270.03
487.53	270.85
487.90	271.71
488.26	272.64
488.62	273.61
488.99	274.56
489.35	275.64
489.72	276.73
490.08	277.96
490.44	279.21
490.81	280.56
491.17	281.91
491.54	283.44
491.90	284.99
492.26	286.63
492.63	288.42
492.99	290.18
493.36	292.10
493.72	294.20
494.08	296.30
494.45	298.58
494.81	301.02
495.17	303.48
495.54	306.05
495.90	308.81
496.26	311.63
496.63	314.62
496.99	317.76
497.35	321.05
497.72	324.47
498.08	327.99
498.44	331.67
498.80	335.63
499.17	339.68
499.53	343.84
499.89	348.27
500.26	352.74
500.62	357.43
500.98	362.38
501.34	367.46
501.71	372.81
502.07	378.27
502.43	383.84
502.79	389.70
503.16	395.84
503.52	402.05
503.88	408.47
504.24	415.12
504.60	421.97
504.97	429.10
505.33	436.42
505.69	444.15
506.05	451.96
506.41	459.85
506.78	468.01
507.14	476.43
507.50	485.13
507.86	494.16
508.22	503.37
508.59	512.61
508.95	522.16
509.31	531.96
509.67	542.02
510.03	552.34
510.39	562.83
510.75	573.56
511.12	584.53
511.48	595.79
511.84	607.24
512.20	618.74
512.56	630.68
512.92	642.94
513.28	655.27
513.64	667.75
514.00	680.49
514.37	693.46
514.73	706.55
515.09	719.51
515.45	732.80
515.81	746.35
516.17	760.31
516.53	774.44
516.89	788.58
517.25	802.80
517.61	817.25
517.97	831.73
518.33	846.16
518.69	860.94
519.05	875.91
519.41	891.06
519.77	906.49
520.13	921.88
520.49	937.18
520.85	952.56
521.21	968.19
521.57	984.40
521.93	1000.13
522.29	1016.46
522.65	1032.68
523.01	1048.81
523.37	1064.90
523.73	1081.14
524.09	1097.19
524.45	1113.44
524.81	1130.09
525.17	1146.74
525.53	1163.52
525.89	1180.36
526.25	1197.10
526.61	1213.48
526.97	1230.26
527.33	1246.83
527.68	1263.43
528.04	1279.87
528.40	1296.42
528.76	1313.47
529.12	1329.92
529.48	1346.66
529.84	1362.69
530.20	1379.33
530.56	1396.25
530.91	1413.53
531.27	1430.14
531.63	1446.51
531.99	1463.12
532.35	1478.94
532.71	1494.84
533.07	1511.07
533.42	1526.92
533.78	1542.95
534.14	1559.09
534.50	1574.24
534.86	1590.04
535.21	1605.14
535.57	1621.04
535.93	1636.41
536.29	1651.14
536.65	1666.15
537.00	1680.80
537.36	1695.96
537.72	1710.20
538.08	1724.48
538.44	1738.09
538.79	1751.71
539.15	1765.21
539.51	1778.69
539.87	1793.07
540.22	1806.58
540.58	1820.05
540.94	1833.17
541.29	1845.76
541.65	1858.41
542.01	1871.49
542.37	1883.62
542.72	1895.94
543.08	1907.57
543.44	1919.91
543.79	1931.08
544.15	1941.96
544.51	1953.49
544.87	1964.33
545.22	1975.20
545.58	1985.49
545.94	1995.25
546.29	2005.25
546.65	2015.26
547.01	2024.56
547.36	2033.14
547.72	2041.68
548.07	2049.80
548.43	2058.07
548.79	2066.18
549.14	2073.78
549.50	2081.15
549.86	2088.76
550.21	2096.17
550.57	2103.39
550.92	2110.07
551.28	2117.13
551.64	2124.20
551.99	2130.81
552.35	2137.00
552.70	2143.20
553.06	2149.19
553.41	2155.63
553.77	2161.68
554.13	2167.66
554.48	2173.69
554.84	2179.17
555.19	2184.50
555.55	2189.67
555.90	2194.16
556.26	2199.19
556.61	2203.86
556.97	2208.38
557.32	2212.58
557.68	2216.59
558.03	2220.69
558.39	2224.37
558.74	2229.07
559.10	2233.03
559.45	2236.55
559.81	2240.91
560.16	2244.76
560.52	2248.01
560.87	2251.47
561.23	2254.03
561.58	2256.88
561.94	2259.39
562.29	2261.67
562.64	2264.40
563.00	2267.08
563.35	2270.53
563.71	2273.55
564.06	2276.77
564.42	2279.56
564.77	2282.11
565.12	2284.73
565.48	2286.82
565.83	2288.68
566.19	2289.93
566.54	2290.83
566.89	2292.16
567.25	2292.85
567.60	2294.14
567.96	2295.85
568.31	2296.60
568.66	2297.83
569.02	2298.50
569.37	2299.00
569.72	2299.97
570.08	2300.12
570.43	2299.97
570.78	2299.48
571.14	2297.94
571.49	2296.61
571.84	2296.35
572.20	2295.32
572.55	2294.02
572.90	2292.38
573.26	2290.95
573.61	2289.23
573.96	2287.44
574.31	2284.55
574.67	2281.56
575.02	2277.93
575.37	2274.56
575.72	2270.71
576.08	2267.31
576.43	2263.94
576.78	2260.16
577.13	2256.98
577.49	2253.79
577.84	2250.43
578.19	2246.71
578.54	2243.15
578.90	2238.84
579.25	2233.17
579.60	2228.26
579.95	2223.27
580.30	2218.29
580.66	2213.17
581.01	2208.26
581.36	2203.41
581.71	2199.23
582.06	2194.73
582.42	2190.42
582.77	2185.11
583.12	2180.63
583.47	2175.99
583.82	2171.24
584.17	2166.13
584.53	2160.58
584.88	2155.01
585.23	2149.27
585.58	2143.66
585.93	2138.18
586.28	2133.36
586.63	2128.39
586.98	2123.28
587.34	2118.54
587.69	2113.70
588.04	2108.59
588.39	2102.86
588.74	2096.33
589.09	2090.08
589.44	2083.34
589.79	2077.10
590.14	2071.61
590.49	2065.00
590.84	2058.53
591.19	2052.46
591.54	2046.05
591.89	2038.74
592.25	2032.07
592.60	2024.87
592.95	2017.42
593.30	2010.18
593.65	2002.80
594.00	1995.74
594.35	1988.51
594.70	1980.48
595.05	1973.40
595.40	1965.99
595.75	1958.52
596.10	1952.47
596.45	1945.81
596.80	1939.62
597.15	1933.18
597.50	1926.18
597.85	1919.80
598.19	1913.31
598.54	1906.21
598.89	1899.50
599.24	1893.64
599.59	1886.88
599.94	1880.66
600.29	1874.32
600.64	1867.57
600.99	1860.16
601.34	1853.36
601.69	1846.31
602.04	1839.59
602.39	1832.14
602.74	1825.30
603.08	1818.66
603.43	1811.86
603.78	1804.59
604.13	1797.39
604.48	1790.16
604.83	1783.19
605.18	1776.24
605.53	1768.21
605.87	1760.09
606.22	1752.85
606.57	1744.80
606.92	1737.36
607.27	1730.17
607.62	1723.18
607.96	1715.98
608.31	1709.38
608.66	1701.65
609.01	1694.14
609.36	1686.41
609.70	1678.44
610.05	1670.43
610.40	1662.72
610.75	1654.42
611.10	1646.78
611.44	1638.31
611.79	1630.12
612.14	1621.50
612.49	1612.41
612.83	1603.98
613.18	1595.95
613.53	1587.95
613.88	1579.59
614.22	1571.35
614.57	1562.58
614.92	1554.79
615.27	1547.36
615.61	1539.06
615.96	1531.12
616.31	1523.57
616.65	1516.20
617.00	1508.61
617.35	1500.92
617.70	1492.62
618.04	1484.09
618.39	1475.75
618.74	1468.28
619.08	1460.03
619.43	1452.42
619.78	1445.52
620.12	1438.48
620.47	1431.00
620.82	1422.76
621.16	1415.30
621.51	1407.83
621.85	1400.40
622.20	1391.82
622.55	1383.41
622.89	1375.50
623.24	1367.89
623.59	1360.44
623.93	1353.08
624.28	1345.89
624.62	1338.42
624.97	1331.22
625.32	1324.52
625.66	1317.54
626.01	1310.41
626.35	1303.07
626.70	1295.31
627.04	1287.62
627.39	1279.78
627.73	1272.37
628.08	1265.51
628.43	1258.32
628.77	1250.97
629.12	1243.37
629.46	1236.22
629.81	1228.72
630.15	1221.48
630.50	1214.05
630.84	1205.90
631.19	1197.85
631.53	1190.30
631.88	1182.78
632.22	1175.20
632.57	1167.85
632.91	1160.40
633.26	1152.91
633.60	1145.52
633.95	1138.39
634.29	1131.25
634.64	1124.55
634.98	1117.22
635.32	1110.05
635.67	1103.31
636.01	1096.66
636.36	1089.82
636.70	1083.33
637.05	1076.80
637.39	1070.41
637.73	1063.91
638.08	1057.99
638.42	1052.04
638.77	1045.65
639.11	1039.07
639.45	1032.58
639.80	1025.95
640.14	1019.46
640.49	1012.94
640.83	1006.67
641.17	1000.49
641.52	994.20
641.86	987.71
642.20	981.81
642.55	975.48
642.89	969.10
643.23	962.48
643.58	956.82
643.92	950.61
644.26	944.66
644.61	938.53
644.95	932.55
645.29	926.09
645.64	919.36
645.98	912.93
646.32	907.01
646.66	901.05
647.01	895.25
647.35	889.61
647.69	883.77
648.04	878.18
648.38	872.36
648.72	866.35
649.06	860.33
649.41	854.51
649.75	848.62
650.09	842.65
650.43	836.92
650.78	830.79
651.12	824.74
651.46	818.92
651.80	813.30
652.14	807.92
652.49	802.49
652.83	797.29
653.17	791.69
653.51	786.04
653.85	780.71
654.20	775.09
654.54	768.97
654.88	763.26
655.22	757.39
655.56	751.74
655.90	746.32
656.25	741.10
656.59	735.68
656.93	730.54
657.27	725.38
657.61	719.91
657.95	714.77
658.29	709.74
658.64	704.53
658.98	699.18
659.32	693.65
659.66	688.42
660.00	683.18
660.34	678.23
660.68	673.32
661.02	668.26
661.36	663.51
661.70	659.13
662.05	654.74
662.39	650.46
662.73	645.96
663.07	641.46
663.41	636.95
663.75	632.41
664.09	627.91
664.43	623.49
664.77	619.44
665.11	615.22
665.45	611.05
665.79	606.96
666.13	602.86
666.47	598.83
666.81	594.71
667.15	590.60
667.49	586.65
667.83	582.85
668.17	578.89
668.51	574.87
668.85	570.77
669.19	566.90
669.53	563.05
669.87	559.22
670.21	555.68
670.55	552.04
670.89	548.65
671.23	545.19
671.57	541.68
671.91	538.07
672.25	534.52
672.58	531.02
672.92	527.57
673.26	524.38
673.60	521.16
673.94	518.06
674.28	515.13
674.62	512.18
674.96	509.03
675.30	506.09
675.64	503.14
675.97	500.41
676.31	497.55
676.65	494.57
676.99	491.85
677.33	488.90
677.67	486.14
678.01	483.07
678.34	480.05
678.68	477.18
679.02	474.38
679.36	471.59
679.70	468.86
680.04	466.10
680.37	463.22
680.71	460.42
681.05	457.75
681.39	454.96
681.73	452.28
682.06	449.77
682.40	447.28
682.74	444.70
683.08	442.13
683.42	439.52
683.75	437.04
684.09	434.49
684.43	432.05
684.77	429.58
685.10	427.23
685.44	424.91
685.78	422.57
686.12	420.31
686.45	418.04
686.79	415.75
687.13	413.51
687.46	411.31
687.80	409.20
688.14	406.98
688.48	404.92
688.81	402.70
689.15	400.60
689.49	398.40
689.82	396.34
690.16	394.24
690.50	392.30
690.83	390.36
691.17	388.39
691.51	386.51
691.84	384.70
692.18	382.80
692.52	380.86
692.85	378.99
693.19	377.14
693.52	375.27
693.86	373.45
694.20	371.68
694.53	369.93
694.87	368.07
695.21	366.30
695.54	364.48
695.88	362.78
696.21	361.02
696.55	359.32
696.88	357.64
697.22	355.96
697.56	354.33
697.89	352.67
698.23	351.07
698.56	349.50
698.90	347.90
699.23	346.24
699.57	344.71
699.90	343.18
700.24	341.60
700.58	340.12
700.91	338.67
701.25	337.26
701.58	335.89
701.92	334.56
702.25	333.22
702.59	331.87
702.92	330.53
703.26	329.21
703.59	327.94
703.93	326.73
704.26	325.50
704.60	324.21
704.93	322.96
705.26	321.72
705.60	320.47
705.93	319.32
706.27	318.29
706.60	317.22
706.94	316.13
707.27	315.03
707.61	313.99
707.94	312.91
708.27	311.85
708.61	310.71
708.94	309.68
709.28	308.67
709.61	307.74
709.94	306.80
710.28	305.78
710.61	304.84
710.95	303.79
711.28	302.91
711.61	301.97
711.95	301.08
712.28	300.13
712.61	299.14
712.95	298.17
713.28	297.29
713.61	296.40
713.95	295.53
714.28	294.67
714.61	293.77
714.95	292.93
715.28	292.07
715.61	291.18
715.95	290.35
716.28	289.51
716.61	288.67
716.95	287.85
717.28	287.13
717.61	286.37
717.94	285.61
718.28	284.77
718.61	284.05
718.94	283.34
719.27	282.65
719.61	282.02
719.94	281.35
720.27	280.61
720.60	279.96
720.94	279.29
721.27	278.69
721.60	278.14
721.93	277.56
722.27	277.01
722.60	276.47
722.93	275.89
723.26	275.35
723.59	274.80
723.93	274.23
724.26	273.64
724.59	273.07
724.92	272.54
725.25	272.07
725.59	271.51
725.92	270.99
726.25	270.47
726.58	269.99
726.91	269.51
727.24	269.03
727.57	268.55
727.91	268.04
728.24	267.55
728.57	267.02
728.90	266.54
729.23	266.03
729.56	265.59
729.89	265.12
730.22	264.62
730.55	264.13
730.89	263.71
731.22	263.30
731.55	262.87
731.88	262.46
732.21	262.02
732.54	261.62
732.87	261.18
733.20	260.80
733.53	260.42
733.86	260.03
734.19	259.67
734.52	259.28
734.85	258.98
735.18	258.56
735.51	258.26
735.84	257.87
736.17	257.51
736.50	257.14
736.83	256.90
737.16	256.59
737.49	256.26
737.82	255.89
738.15	255.56
738.48	255.21
738.81	254.89
739.14	254.58
739.47	254.27
739.80	254.01
740.13	253.71
740.46	253.41
740.79	253.09
741.12	252.75
741.45	252.43
741.78	252.09
742.11	251.87
742.44	251.51
742.77	251.22
743.10	250.93
743.43	250.63
743.75	250.22
744.08	250.08
744.41	249.82
744.74	249.53
745.07	249.24
745.40	249.01
745.73	248.75
746.06	248.49
746.39	248.22
746.71	247.94
747.04	247.67
747.37	247.38
747.70	247.16
748.03	246.93
748.36	246.68
748.68	246.45
749.01	246.18
749.34	245.98
749.67	245.76
750.00	245.54
750.33	245.39
750.65	245.20
750.98	244.85
751.31	244.61
751.64	244.43
751.97	244.25
752.29	244.02
752.62	243.77
752.95	243.53
753.28	243.32
753.60	243.10
753.93	242.89
754.26	242.68
754.59	242.41
754.91	242.21
755.24	242.05
755.57	241.85
755.90	241.66
756.22	241.45
756.55	241.23
756.88	241.02
757.20	240.77
757.53	240.55
757.86	240.36
758.19	240.21
758.51	240.04
758.84	239.84
759.17	239.65
759.49	239.51
759.82	239.43
760.15	239.27
760.47	239.10
760.80	238.92
761.13	238.79
761.45	238.67
761.78	238.49
762.11	238.35
762.43	238.20
762.76	238.04
763.08	237.94
763.41	237.86
763.74	237.73
764.06	237.62
764.39	237.49
764.71	237.39
765.04	237.23
765.37	237.09
765.69	236.97
766.02	236.85
766.34	236.72
766.67	236.52
767.00	236.41
767.32	236.36
767.65	236.34
767.97	236.17
768.30	236.08
768.62	235.98
768.95	235.83
769.27	235.71
769.60	235.61
769.92	235.46
770.25	235.32
770.57	235.18
770.90	235.09
771.22	234.98
771.55	234.86
771.87	234.77
772.20	234.69
772.52	234.64
772.85	234.71
773.17	234.61
773.50	234.52
773.82	234.44
774.15	234.28
774.47	234.11
774.80	234.04
775.12	233.92
775.45	233.85
775.77	233.75
776.09	233.67
776.42	233.57
776.74	233.52
777.07	233.43
777.39	233.36
777.72	233.26
778.04	233.23
778.36	233.12
778.69	233.06
779.01	233.02
779.33	232.87
779.66	232.64
779.98	232.57
780.31	232.53
780.63	232.49
780.95	232.45
781.28	232.37
781.60	232.31
781.92	232.25
782.25	232.15
782.57	232.10
782.89	232.03
783.22	231.97
783.54	231.86
783.86	231.82
784.19	231.73
784.51	231.69
784.83	231.61
785.16	231.59
785.48	231.54
785.80	231.43
786.12	231.42
786.45	231.41
786.77	231.36
787.09	231.29
