SpectraSuite Data File
++++++++++++++++++++++++++++++++++++
Date: Fri Feb 01 15:03:20 EST 2013
User: group
Dark Spectrum Present: No
Reference Spectrum Present: No
Number of Sampled Component Spectra: 1
Spectrometers: USB2E7196
Integration Time (usec): 35000 (USB2E7196)
Spectra Averaged: 100 (USB2E7196)
Boxcar Smoothing: 10 (USB2E7196)
Correct for Electrical Dark: No (USB2E7196)
Strobe/Lamp Enabled: No (USB2E7196)
Correct for Detector Non-linearity: No (USB2E7196)
Correct for Stray Light: No (USB2E7196)
Number of Pixels in Processed Spectrum: 2048
>>>>>Begin Processed Spectral Data<<<<<
339.09	0.00
339.48	215.41
339.86	216.69
340.24	218.24
340.63	219.02
341.01	221.81
341.39	222.53
341.78	223.57
342.16	224.48
342.54	224.79
342.93	213.60
343.31	224.38
343.69	224.94
344.07	225.38
344.46	225.79
344.84	226.22
345.22	226.49
345.60	226.72
345.99	226.89
346.37	227.02
346.75	227.17
347.13	227.26
347.52	227.30
347.90	227.36
348.28	227.35
348.66	227.37
349.05	227.34
349.43	227.38
349.81	227.41
350.19	227.45
350.57	227.50
350.96	227.56
351.34	227.64
351.72	227.70
352.10	227.80
352.48	227.88
352.87	227.87
353.25	227.95
353.63	228.02
354.01	228.09
354.39	228.15
354.77	228.17
355.15	228.25
355.54	228.33
355.92	228.35
356.30	228.42
356.68	228.57
357.06	228.64
357.44	228.68
357.82	228.74
358.20	228.81
358.58	228.88
358.97	228.94
359.35	229.02
359.73	229.09
360.11	229.11
360.49	229.15
360.87	229.21
361.25	229.25
361.63	229.29
362.01	229.34
362.39	229.37
362.77	229.43
363.15	229.46
363.53	229.47
363.91	229.54
364.29	229.56
364.67	229.45
365.05	229.46
365.43	229.47
365.81	229.48
366.19	229.52
366.57	229.55
366.95	229.52
367.33	229.48
367.71	229.44
368.09	229.45
368.47	229.42
368.85	229.39
369.23	229.36
369.61	229.33
369.99	229.28
370.37	229.25
370.75	229.24
371.13	229.16
371.51	229.11
371.89	229.02
372.27	228.94
372.65	228.92
373.03	228.84
373.41	228.78
373.78	228.71
374.16	228.58
374.54	228.46
374.92	228.41
375.30	228.34
375.68	228.23
376.06	228.17
376.44	228.10
376.82	228.06
377.19	227.95
377.57	227.86
377.95	227.72
378.33	227.66
378.71	227.54
379.09	227.46
379.47	227.38
379.84	227.32
380.22	227.26
380.60	227.17
380.98	227.09
381.36	226.98
381.73	226.90
382.11	226.88
382.49	226.80
382.87	226.70
383.25	226.61
383.62	226.67
384.00	226.62
384.38	226.58
384.76	226.52
385.13	226.51
385.51	226.46
385.89	226.45
386.27	226.40
386.64	226.35
387.02	226.32
387.40	226.25
387.78	226.22
388.15	226.18
388.53	226.11
388.91	226.09
389.29	226.07
389.66	226.08
390.04	226.01
390.42	226.03
390.79	226.04
391.17	226.05
391.55	225.94
391.92	225.93
392.30	225.92
392.68	225.92
393.05	225.95
393.43	225.97
393.81	225.98
394.18	226.01
394.56	226.06
394.94	226.10
395.31	226.15
395.69	226.23
396.06	226.28
396.44	226.35
396.82	226.40
397.19	226.52
397.57	226.54
397.95	226.62
398.32	226.64
398.70	226.75
399.07	226.82
399.45	226.90
399.82	226.97
400.20	227.06
400.58	227.16
400.95	227.19
401.33	227.28
401.70	227.46
402.08	227.55
402.45	227.66
402.83	227.79
403.20	227.95
403.58	228.01
403.95	228.15
404.33	228.28
404.71	228.41
405.08	228.60
405.46	228.75
405.83	228.91
406.21	229.10
406.58	229.25
406.96	229.42
407.33	229.62
407.70	229.83
408.08	230.11
408.45	230.34
408.83	230.59
409.20	230.82
409.58	231.00
409.95	231.27
410.33	231.56
410.70	231.84
411.08	232.12
411.45	232.48
411.82	232.80
412.20	233.15
412.57	233.59
412.95	233.87
413.32	234.31
413.69	234.74
414.07	235.16
414.44	235.65
414.82	236.17
415.19	236.68
415.56	237.22
415.94	237.77
416.31	238.38
416.68	239.00
417.06	239.74
417.43	240.44
417.81	241.17
418.18	241.94
418.55	242.72
418.93	243.58
419.30	244.44
419.67	245.39
420.04	246.33
420.42	247.29
420.79	248.48
421.16	249.61
421.54	250.79
421.91	252.02
422.28	253.24
422.66	254.54
423.03	255.86
423.40	257.19
423.77	258.57
424.15	260.01
424.52	261.51
424.89	263.11
425.26	264.67
425.64	266.13
426.01	267.70
426.38	269.35
426.75	271.04
427.13	272.74
427.50	274.56
427.87	276.45
428.24	278.35
428.61	280.10
428.99	282.07
429.36	284.17
429.73	286.18
430.10	288.25
430.47	290.29
430.85	292.37
431.22	294.64
431.59	297.02
431.96	299.25
432.33	301.76
432.70	304.16
433.08	307.00
433.45	309.64
433.82	312.30
434.19	315.22
434.56	317.96
434.93	320.65
435.30	323.24
435.68	326.17
436.05	329.00
436.42	331.82
436.79	334.30
437.16	336.98
437.53	339.83
437.90	342.68
438.27	345.43
438.64	348.29
439.01	350.87
439.38	353.13
439.75	355.28
440.13	357.76
440.50	360.08
440.87	361.90
441.24	363.88
441.61	366.03
441.98	367.53
442.35	369.37
442.72	371.21
443.09	373.06
443.46	374.05
443.83	374.62
444.20	375.11
444.57	375.96
444.94	376.31
445.31	376.68
445.68	376.98
446.05	377.09
446.42	376.72
446.79	376.34
447.16	375.92
447.53	375.65
447.90	374.49
448.27	373.32
448.64	371.73
449.01	370.57
449.37	368.60
449.74	366.70
450.11	364.51
450.48	362.06
450.85	359.50
451.22	357.35
451.59	355.34
451.96	353.43
452.33	350.84
452.70	348.44
453.07	345.62
453.43	342.75
453.80	340.01
454.17	337.36
454.54	334.79
454.91	332.02
455.28	329.33
455.65	326.84
456.02	324.39
456.38	322.24
456.75	319.57
457.12	317.30
457.49	315.09
457.86	312.89
458.23	311.03
458.59	309.02
458.96	306.92
459.33	305.03
459.70	303.12
460.07	301.61
460.43	299.90
460.80	298.24
461.17	296.76
461.54	295.21
461.91	293.75
462.27	292.28
462.64	291.05
463.01	289.71
463.38	288.41
463.74	287.01
464.11	285.85
464.48	284.84
464.85	283.76
465.21	282.85
465.58	281.92
465.95	280.78
466.32	279.85
466.68	278.96
467.05	278.07
467.42	277.20
467.78	276.24
468.15	275.36
468.52	274.71
468.88	273.87
469.25	273.10
469.62	272.49
469.98	271.82
470.35	271.13
470.72	270.49
471.08	269.79
471.45	269.27
471.82	268.71
472.18	268.09
472.55	267.61
472.92	267.12
473.28	266.68
473.65	266.27
474.02	265.83
474.38	265.46
474.75	265.12
475.11	264.77
475.48	264.52
475.85	264.28
476.21	264.03
476.58	263.83
476.94	263.68
477.31	263.49
477.67	263.32
478.04	263.21
478.41	263.19
478.77	263.26
479.14	263.18
479.50	263.18
479.87	263.23
480.23	263.32
480.60	263.36
480.96	263.41
481.33	263.58
481.69	263.75
482.06	263.88
482.42	264.08
482.79	264.29
483.15	264.58
483.52	264.93
483.88	265.29
484.25	265.68
484.61	266.11
484.98	266.50
485.34	267.07
485.71	267.68
486.07	268.24
486.44	268.78
486.80	269.46
487.17	270.14
487.53	270.95
487.90	271.77
488.26	272.66
488.62	273.66
488.99	274.64
489.35	275.67
489.72	276.81
490.08	278.06
490.44	279.31
490.81	280.62
491.17	281.96
491.54	283.40
491.90	284.90
492.26	286.53
492.63	288.32
492.99	290.07
493.36	291.90
493.72	293.89
494.08	295.99
494.45	298.23
494.81	300.60
495.17	303.04
495.54	305.61
495.90	308.27
496.26	311.04
496.63	313.98
496.99	317.04
497.35	320.27
497.72	323.57
498.08	327.06
498.44	330.74
498.80	334.62
499.17	338.66
499.53	342.80
499.89	347.15
500.26	351.60
500.62	356.26
500.98	361.24
501.34	366.34
501.71	371.64
502.07	377.01
502.43	382.57
502.79	388.34
503.16	394.36
503.52	400.60
503.88	406.98
504.24	413.56
504.60	420.46
504.97	427.57
505.33	434.89
505.69	442.58
506.05	450.33
506.41	458.19
506.78	466.30
507.14	474.74
507.50	483.45
507.86	492.44
508.22	501.62
508.59	510.78
508.95	520.36
509.31	530.08
509.67	540.23
510.03	550.55
510.39	561.17
510.75	571.97
511.12	582.92
511.48	594.19
511.84	605.66
512.20	617.24
512.56	629.19
512.92	641.34
513.28	653.71
513.64	666.18
514.00	678.89
514.37	691.86
514.73	704.92
515.09	718.04
515.45	731.32
515.81	744.91
516.17	758.86
516.53	772.92
516.89	787.16
517.25	801.35
517.61	815.83
517.97	830.29
518.33	844.76
518.69	859.62
519.05	874.71
519.41	889.90
519.77	905.39
520.13	920.86
520.49	936.33
520.85	951.80
521.21	967.54
521.57	983.84
521.93	999.64
522.29	1016.10
522.65	1032.30
523.01	1048.61
523.37	1064.78
523.73	1081.11
524.09	1097.32
524.45	1113.73
524.81	1130.37
525.17	1147.23
525.53	1164.16
525.89	1181.11
526.25	1197.97
526.61	1214.31
526.97	1231.18
527.33	1247.70
527.68	1264.37
528.04	1280.92
528.40	1297.62
528.76	1314.76
529.12	1331.49
529.48	1348.51
529.84	1364.69
530.20	1381.40
530.56	1398.60
530.91	1416.01
531.27	1432.89
531.63	1449.48
531.99	1466.07
532.35	1482.15
532.71	1498.11
533.07	1514.51
533.42	1530.38
533.78	1546.31
534.14	1562.77
534.50	1578.16
534.86	1594.19
535.21	1609.50
535.57	1625.61
535.93	1641.19
536.29	1655.98
536.65	1671.00
537.00	1685.95
537.36	1701.26
537.72	1715.92
538.08	1730.35
538.44	1744.30
538.79	1758.19
539.15	1772.04
539.51	1785.88
539.87	1800.37
540.22	1814.22
540.58	1828.04
540.94	1841.71
541.29	1854.92
541.65	1867.67
542.01	1881.06
542.37	1893.43
542.72	1905.95
543.08	1917.77
543.44	1930.21
543.79	1941.64
544.15	1952.69
544.51	1964.21
544.87	1975.25
545.22	1986.07
545.58	1996.26
545.94	2005.94
546.29	2015.85
546.65	2025.44
547.01	2034.88
547.36	2043.59
547.72	2052.06
548.07	2059.97
548.43	2068.00
548.79	2075.92
549.14	2083.38
549.50	2090.67
549.86	2098.48
550.21	2105.63
550.57	2112.76
550.92	2119.20
551.28	2126.22
551.64	2133.47
551.99	2140.01
552.35	2146.08
552.70	2152.31
553.06	2158.25
553.41	2164.57
553.77	2170.77
554.13	2177.07
554.48	2183.00
554.84	2188.38
555.19	2193.76
555.55	2198.73
555.90	2203.20
556.26	2208.05
556.61	2212.78
556.97	2216.88
557.32	2220.85
557.68	2225.20
558.03	2229.47
558.39	2233.33
558.74	2237.94
559.10	2241.62
559.45	2245.08
559.81	2249.31
560.16	2252.91
560.52	2256.04
560.87	2259.50
561.23	2261.96
561.58	2264.82
561.94	2267.28
562.29	2269.63
562.64	2272.16
563.00	2274.82
563.35	2278.32
563.71	2281.46
564.06	2284.58
564.42	2287.44
564.77	2289.88
565.12	2291.92
565.48	2293.61
565.83	2295.29
566.19	2296.41
566.54	2297.35
566.89	2298.39
567.25	2298.90
567.60	2300.18
567.96	2301.89
568.31	2302.67
568.66	2303.60
569.02	2304.05
569.37	2304.42
569.72	2305.03
570.08	2304.86
570.43	2304.59
570.78	2303.76
571.14	2302.05
571.49	2300.53
571.84	2300.05
572.20	2298.71
572.55	2297.59
572.90	2296.09
573.26	2294.63
573.61	2292.85
573.96	2290.88
574.31	2287.68
574.67	2284.56
575.02	2280.93
575.37	2277.26
575.72	2273.27
576.08	2269.94
576.43	2266.51
576.78	2262.67
577.13	2259.70
577.49	2256.66
577.84	2253.19
578.19	2249.42
578.54	2245.59
578.90	2241.36
579.25	2235.62
579.60	2230.50
579.95	2225.20
580.30	2219.98
580.66	2214.68
581.01	2209.64
581.36	2204.51
581.71	2200.34
582.06	2195.81
582.42	2191.18
582.77	2185.85
583.12	2180.98
583.47	2176.02
583.82	2170.90
584.17	2165.49
584.53	2159.62
584.88	2153.89
585.23	2147.94
585.58	2142.29
585.93	2136.88
586.28	2132.01
586.63	2127.04
586.98	2122.08
587.34	2117.43
587.69	2112.40
588.04	2106.86
588.39	2100.94
588.74	2094.46
589.09	2088.27
589.44	2081.34
589.79	2075.18
590.14	2069.64
590.49	2063.06
590.84	2056.60
591.19	2050.51
591.54	2043.95
591.89	2036.49
592.25	2029.50
592.60	2022.24
592.95	2014.41
593.30	2006.87
593.65	1999.14
594.00	1992.00
594.35	1984.49
594.70	1976.44
595.05	1969.09
595.40	1961.85
595.75	1954.42
596.10	1947.98
596.45	1940.97
596.80	1934.79
597.15	1927.96
597.50	1920.58
597.85	1914.21
598.19	1907.48
598.54	1900.15
598.89	1893.49
599.24	1887.56
599.59	1880.78
599.94	1874.54
600.29	1868.29
600.64	1861.77
600.99	1854.25
601.34	1847.22
601.69	1840.28
602.04	1833.19
602.39	1825.86
602.74	1819.03
603.08	1812.20
603.43	1805.46
603.78	1798.25
604.13	1790.85
604.48	1783.68
604.83	1776.92
605.18	1769.67
605.53	1761.50
605.87	1753.41
606.22	1746.11
606.57	1738.17
606.92	1730.90
607.27	1723.70
607.62	1716.75
607.96	1709.27
608.31	1702.57
608.66	1694.94
609.01	1687.37
609.36	1679.82
609.70	1671.77
610.05	1663.64
610.40	1656.04
610.75	1647.82
611.10	1640.23
611.44	1631.92
611.79	1623.93
612.14	1615.24
612.49	1606.31
612.83	1598.10
613.18	1590.09
613.53	1582.09
613.88	1573.56
614.22	1565.28
614.57	1556.63
614.92	1548.73
615.27	1541.26
615.61	1533.02
615.96	1525.21
616.31	1517.54
616.65	1510.16
617.00	1502.64
617.35	1495.00
617.70	1486.59
618.04	1478.09
618.39	1469.94
618.74	1462.39
619.08	1454.01
619.43	1446.53
619.78	1439.51
620.12	1432.39
620.47	1424.94
620.82	1416.82
621.16	1409.48
621.51	1401.92
621.85	1394.35
622.20	1385.82
622.55	1377.51
622.89	1369.78
623.24	1362.12
623.59	1354.85
623.93	1347.36
624.28	1340.16
624.62	1332.70
624.97	1325.60
625.32	1318.96
625.66	1311.79
626.01	1304.54
626.35	1297.16
626.70	1289.40
627.04	1281.71
627.39	1273.96
627.73	1266.59
628.08	1259.66
628.43	1252.23
628.77	1244.81
629.12	1237.26
629.46	1230.00
629.81	1222.67
630.15	1215.44
630.50	1207.98
630.84	1199.86
631.19	1192.09
631.53	1184.59
631.88	1177.11
632.22	1169.48
632.57	1162.17
632.91	1154.83
633.26	1147.52
633.60	1140.29
633.95	1133.27
634.29	1126.31
634.64	1119.61
634.98	1112.25
635.32	1105.15
635.67	1098.76
636.01	1092.28
636.36	1085.60
636.70	1079.19
637.05	1072.64
637.39	1066.19
637.73	1059.80
638.08	1053.91
638.42	1047.99
638.77	1041.64
639.11	1034.98
639.45	1028.64
639.80	1022.03
640.14	1015.59
640.49	1009.12
640.83	1002.78
641.17	996.52
641.52	990.32
641.86	984.07
642.20	978.32
642.55	971.99
642.89	965.48
643.23	958.96
643.58	953.16
643.92	947.05
644.26	940.96
644.61	935.01
644.95	928.95
645.29	922.36
645.64	915.52
645.98	909.16
646.32	903.42
646.66	897.53
647.01	891.77
647.35	886.08
647.69	880.29
648.04	874.80
648.38	869.05
648.72	863.02
649.06	856.83
649.41	850.91
649.75	844.99
650.09	839.06
650.43	833.28
650.78	827.13
651.12	821.14
651.46	815.43
651.80	809.63
652.14	804.34
652.49	798.98
652.83	793.86
653.17	788.23
653.51	782.50
653.85	777.10
654.20	771.33
654.54	765.32
654.88	759.60
655.22	753.75
655.56	748.05
655.90	742.65
656.25	737.41
656.59	732.12
656.93	727.04
657.27	721.87
657.61	716.47
657.95	711.47
658.29	706.43
658.64	701.24
658.98	696.03
659.32	690.53
659.66	685.38
660.00	680.12
660.34	675.13
660.68	670.23
661.02	665.19
661.36	660.60
661.70	656.18
662.05	651.82
662.39	647.49
662.73	643.13
663.07	638.80
663.41	634.40
663.75	629.85
664.09	625.27
664.43	620.95
664.77	616.81
665.11	612.54
665.45	608.45
665.79	604.36
666.13	600.19
666.47	596.09
666.81	591.90
667.15	587.82
667.49	583.97
667.83	580.22
668.17	576.31
668.51	572.25
668.85	568.25
669.19	564.41
669.53	560.58
669.87	556.64
670.21	552.92
670.55	549.28
670.89	545.90
671.23	542.53
671.57	539.06
671.91	535.60
672.25	532.14
672.58	528.64
672.92	525.30
673.26	522.19
673.60	519.12
673.94	516.04
674.28	513.13
674.62	510.22
674.96	507.14
675.30	504.24
675.64	501.37
675.97	498.63
676.31	495.85
676.65	492.93
676.99	490.31
677.33	487.46
677.67	484.67
678.01	481.72
678.34	478.73
678.68	475.95
679.02	473.12
679.36	470.41
679.70	467.75
680.04	464.99
680.37	462.15
680.71	459.38
681.05	456.79
681.39	454.10
681.73	451.51
682.06	448.98
682.40	446.45
682.74	443.97
683.08	441.43
683.42	438.87
683.75	436.45
684.09	433.93
684.43	431.54
684.77	429.10
685.10	426.76
685.44	424.50
685.78	422.24
686.12	420.05
686.45	417.78
686.79	415.47
687.13	413.32
687.46	411.18
687.80	409.07
688.14	406.91
688.48	404.88
688.81	402.62
689.15	400.48
689.49	398.37
689.82	396.25
690.16	394.17
690.50	392.19
690.83	390.22
691.17	388.23
691.51	386.33
691.84	384.51
692.18	382.53
692.52	380.56
692.85	378.58
693.19	376.71
693.52	374.88
693.86	373.06
694.20	371.27
694.53	369.48
694.87	367.63
695.21	365.88
695.54	364.05
695.88	362.33
696.21	360.60
696.55	358.92
696.88	357.29
697.22	355.66
697.56	354.05
697.89	352.37
698.23	350.76
698.56	349.11
698.90	347.50
699.23	345.84
699.57	344.29
699.90	342.77
700.24	341.22
700.58	339.66
700.91	338.18
701.25	336.76
701.58	335.42
701.92	334.02
702.25	332.62
702.59	331.28
702.92	329.99
703.26	328.73
703.59	327.44
703.93	326.21
704.26	324.97
704.60	323.66
704.93	322.40
705.26	321.19
705.60	320.03
705.93	318.89
706.27	317.89
706.60	316.83
706.94	315.74
707.27	314.60
707.61	313.54
707.94	312.53
708.27	311.41
708.61	310.28
708.94	309.29
709.28	308.33
709.61	307.35
709.94	306.39
710.28	305.37
710.61	304.43
710.95	303.37
711.28	302.43
711.61	301.54
711.95	300.63
712.28	299.70
712.61	298.73
712.95	297.80
713.28	296.94
713.61	296.06
713.95	295.16
714.28	294.35
714.61	293.53
714.95	292.71
715.28	291.89
715.61	291.02
715.95	290.17
716.28	289.30
716.61	288.49
716.95	287.66
717.28	286.96
717.61	286.23
717.94	285.53
718.28	284.72
718.61	284.01
718.94	283.35
719.27	282.66
719.61	282.02
719.94	281.40
720.27	280.73
720.60	280.08
720.94	279.49
721.27	278.93
721.60	278.35
721.93	277.75
722.27	277.22
722.60	276.68
722.93	276.16
723.26	275.67
723.59	275.13
723.93	274.63
724.26	274.07
724.59	273.52
724.92	273.01
725.25	272.54
725.59	272.01
725.92	271.52
726.25	271.03
726.58	270.55
726.91	270.04
727.24	269.54
727.57	269.08
727.91	268.51
728.24	268.03
728.57	267.56
728.90	267.12
729.23	266.60
729.56	266.21
729.89	265.75
730.22	265.26
730.55	264.77
730.89	264.31
731.22	263.86
731.55	263.38
731.88	262.95
732.21	262.51
732.54	262.05
732.87	261.62
733.20	261.23
733.53	260.80
733.86	260.42
734.19	260.03
734.52	259.63
734.85	259.33
735.18	258.95
735.51	258.58
735.84	258.22
736.17	257.88
736.50	257.47
736.83	257.19
737.16	256.86
737.49	256.55
737.82	256.17
738.15	255.80
738.48	255.50
738.81	255.16
739.14	254.85
739.47	254.54
739.80	254.23
740.13	253.92
740.46	253.61
740.79	253.27
741.12	252.94
741.45	252.61
741.78	252.30
742.11	251.95
742.44	251.60
742.77	251.29
743.10	250.97
743.43	250.64
743.75	250.25
744.08	250.09
744.41	249.77
744.74	249.51
745.07	249.21
745.40	248.91
745.73	248.66
746.06	248.37
746.39	248.10
746.71	247.84
747.04	247.54
747.37	247.25
747.70	246.99
748.03	246.77
748.36	246.55
748.68	246.30
749.01	246.06
749.34	245.84
749.67	245.60
750.00	245.39
750.33	245.24
750.65	245.02
750.98	244.67
751.31	244.49
751.64	244.30
751.97	244.19
752.29	243.97
752.62	243.74
752.95	243.53
753.28	243.34
753.60	243.10
753.93	242.94
754.26	242.78
754.59	242.59
754.91	242.37
755.24	242.17
755.57	241.96
755.90	241.82
756.22	241.63
756.55	241.43
756.88	241.24
757.20	241.02
757.53	240.84
757.86	240.66
758.19	240.50
758.51	240.33
758.84	240.09
759.17	239.95
759.49	239.78
759.82	239.67
760.15	239.53
760.47	239.39
760.80	239.24
761.13	239.12
761.45	238.97
761.78	238.84
762.11	238.75
762.43	238.63
762.76	238.47
763.08	238.36
763.41	238.26
763.74	238.11
764.06	238.00
764.39	237.87
764.71	237.76
765.04	237.62
765.37	237.48
765.69	237.36
766.02	237.23
766.34	237.12
766.67	236.95
767.00	236.83
767.32	236.76
767.65	236.72
767.97	236.61
768.30	236.51
768.62	236.41
768.95	236.26
769.27	236.16
769.60	236.05
769.92	235.94
770.25	235.83
770.57	235.72
770.90	235.64
771.22	235.53
771.55	235.42
771.87	235.37
772.20	235.29
772.52	235.30
772.85	235.33
773.17	235.23
773.50	235.15
773.82	235.05
774.15	234.92
774.47	234.75
774.80	234.65
775.12	234.58
775.45	234.48
775.77	234.40
776.09	234.29
776.42	234.23
776.74	234.18
777.07	234.06
777.39	233.99
777.72	233.90
778.04	233.86
778.36	233.77
778.69	233.67
779.01	233.57
779.33	233.42
779.66	233.23
779.98	233.18
780.31	233.09
780.63	233.09
780.95	233.03
781.28	232.95
781.60	232.91
781.92	232.83
782.25	232.79
782.57	232.70
782.89	232.63
783.22	232.57
783.54	232.48
783.86	232.43
784.19	232.35
784.51	232.31
784.83	232.23
785.16	232.16
785.48	232.11
785.80	232.05
786.12	231.97
786.45	231.93
786.77	231.88
787.09	231.84
