SpectraSuite Data File
++++++++++++++++++++++++++++++++++++
Date: Fri Feb 01 17:07:39 EST 2013
User: group
Dark Spectrum Present: No
Reference Spectrum Present: No
Number of Sampled Component Spectra: 1
Spectrometers: USB2E7196
Integration Time (usec): 35000 (USB2E7196)
Spectra Averaged: 100 (USB2E7196)
Boxcar Smoothing: 10 (USB2E7196)
Correct for Electrical Dark: No (USB2E7196)
Strobe/Lamp Enabled: No (USB2E7196)
Correct for Detector Non-linearity: No (USB2E7196)
Correct for Stray Light: No (USB2E7196)
Number of Pixels in Processed Spectrum: 2048
>>>>>Begin Processed Spectral Data<<<<<
339.09	0.00
339.48	213.75
339.86	214.61
340.24	216.33
340.63	217.50
341.01	220.78
341.39	220.29
341.78	221.79
342.16	223.08
342.54	222.93
342.93	211.92
343.31	222.64
343.69	223.17
344.07	223.66
344.46	224.10
344.84	224.51
345.22	224.71
345.60	224.96
345.99	225.15
346.37	225.25
346.75	225.36
347.13	225.44
347.52	225.47
347.90	225.53
348.28	225.54
348.66	225.61
349.05	225.61
349.43	225.60
349.81	225.66
350.19	225.67
350.57	225.71
350.96	225.75
351.34	225.81
351.72	225.90
352.10	225.96
352.48	225.98
352.87	226.03
353.25	226.11
353.63	226.19
354.01	226.24
354.39	226.34
354.77	226.42
355.15	226.54
355.54	226.58
355.92	226.62
356.30	226.71
356.68	226.83
357.06	226.89
357.44	226.95
357.82	226.98
358.20	227.07
358.58	227.12
358.97	227.17
359.35	227.27
359.73	227.32
360.11	227.38
360.49	227.44
360.87	227.43
361.25	227.48
361.63	227.51
362.01	227.56
362.39	227.60
362.77	227.64
363.15	227.63
363.53	227.68
363.91	227.69
364.29	227.68
364.67	227.60
365.05	227.61
365.43	227.64
365.81	227.68
366.19	227.71
366.57	227.76
366.95	227.79
367.33	227.73
367.71	227.73
368.09	227.75
368.47	227.74
368.85	227.75
369.23	227.75
369.61	227.70
369.99	227.70
370.37	227.68
370.75	227.70
371.13	227.67
371.51	227.64
371.89	227.61
372.27	227.62
372.65	227.56
373.03	227.52
373.41	227.44
373.78	227.41
374.16	227.31
374.54	227.24
374.92	227.17
375.30	227.12
375.68	227.05
376.06	227.02
376.44	226.99
376.82	226.92
377.19	226.87
377.57	226.82
377.95	226.77
378.33	226.70
378.71	226.56
379.09	226.52
379.47	226.47
379.84	226.38
380.22	226.28
380.60	226.20
380.98	226.17
381.36	226.12
381.73	226.02
382.11	225.97
382.49	225.94
382.87	225.87
383.25	225.82
383.62	225.86
384.00	225.77
384.38	225.72
384.76	225.68
385.13	225.68
385.51	225.62
385.89	225.54
386.27	225.50
386.64	225.47
387.02	225.40
387.40	225.37
387.78	225.36
388.15	225.33
388.53	225.32
388.91	225.30
389.29	225.27
389.66	225.30
390.04	225.26
390.42	225.22
390.79	225.23
391.17	225.22
391.55	225.14
391.92	225.12
392.30	225.10
392.68	225.10
393.05	225.06
393.43	225.08
393.81	225.09
394.18	225.10
394.56	225.12
394.94	225.15
395.31	225.14
395.69	225.19
396.06	225.23
396.44	225.24
396.82	225.25
397.19	225.31
397.57	225.28
397.95	225.37
398.32	225.37
398.70	225.40
399.07	225.49
399.45	225.51
399.82	225.56
400.20	225.61
400.58	225.65
400.95	225.67
401.33	225.77
401.70	225.89
402.08	225.95
402.45	226.02
402.83	226.11
403.20	226.20
403.58	226.24
403.95	226.36
404.33	226.47
404.71	226.56
405.08	226.74
405.46	226.87
405.83	226.98
406.21	227.14
406.58	227.32
406.96	227.43
407.33	227.59
407.70	227.78
408.08	228.05
408.45	228.29
408.83	228.53
409.20	228.69
409.58	228.88
409.95	229.13
410.33	229.40
410.70	229.63
411.08	229.92
411.45	230.24
411.82	230.53
412.20	230.87
412.57	231.29
412.95	231.58
413.32	232.00
413.69	232.40
414.07	232.84
414.44	233.27
414.82	233.78
415.19	234.33
415.56	234.90
415.94	235.41
416.31	236.03
416.68	236.63
417.06	237.36
417.43	238.01
417.81	238.79
418.18	239.58
418.55	240.44
418.93	241.30
419.30	242.21
419.67	243.14
420.04	244.14
420.42	245.11
420.79	246.31
421.16	247.49
421.54	248.68
421.91	249.89
422.28	251.17
422.66	252.45
423.03	253.74
423.40	255.02
423.77	256.43
424.15	257.84
424.52	259.37
424.89	260.97
425.26	262.54
425.64	264.00
426.01	265.57
426.38	267.19
426.75	268.86
427.13	270.57
427.50	272.35
427.87	274.16
428.24	276.03
428.61	277.72
428.99	279.63
429.36	281.71
429.73	283.75
430.10	285.75
430.47	287.83
430.85	289.97
431.22	292.23
431.59	294.64
431.96	296.87
432.33	299.30
432.70	301.65
433.08	304.44
433.45	307.06
433.82	309.65
434.19	312.50
434.56	315.31
434.93	317.91
435.30	320.55
435.68	323.46
436.05	326.27
436.42	329.05
436.79	331.54
437.16	334.23
437.53	337.05
437.90	339.83
438.27	342.55
438.64	345.33
439.01	347.88
439.38	350.09
439.75	352.28
440.13	354.76
440.50	357.13
440.87	358.91
441.24	360.80
441.61	362.98
441.98	364.46
442.35	366.25
442.72	368.12
443.09	369.88
443.46	370.86
443.83	371.43
444.20	371.92
444.57	372.76
444.94	373.03
445.31	373.38
445.68	373.79
446.05	373.87
446.42	373.48
446.79	373.09
447.16	372.61
447.53	372.28
447.90	371.16
448.27	369.98
448.64	368.47
449.01	367.40
449.37	365.45
449.74	363.59
450.11	361.38
450.48	358.98
450.85	356.55
451.22	354.47
451.59	352.53
451.96	350.66
452.33	348.12
452.70	345.78
453.07	342.96
453.43	340.04
453.80	337.31
454.17	334.67
454.54	332.15
454.91	329.44
455.28	326.77
455.65	324.31
456.02	321.90
456.38	319.76
456.75	317.12
457.12	314.83
457.49	312.63
457.86	310.48
458.23	308.59
458.59	306.54
458.96	304.45
459.33	302.57
459.70	300.70
460.07	299.21
460.43	297.50
460.80	295.90
461.17	294.47
461.54	292.96
461.91	291.53
462.27	290.06
462.64	288.88
463.01	287.56
463.38	286.27
463.74	284.88
464.11	283.69
464.48	282.66
464.85	281.61
465.21	280.76
465.58	279.89
465.95	278.81
466.32	277.90
466.68	277.00
467.05	276.13
467.42	275.24
467.78	274.29
468.15	273.46
468.52	272.80
468.88	271.96
469.25	271.21
469.62	270.62
469.98	269.99
470.35	269.35
470.72	268.78
471.08	268.12
471.45	267.58
471.82	267.07
472.18	266.47
472.55	266.05
472.92	265.52
473.28	265.04
473.65	264.62
474.02	264.19
474.38	263.85
474.75	263.53
475.11	263.18
475.48	262.93
475.85	262.65
476.21	262.41
476.58	262.25
476.94	262.14
477.31	261.97
477.67	261.83
478.04	261.72
478.41	261.67
478.77	261.74
479.14	261.74
479.50	261.76
479.87	261.85
480.23	261.93
480.60	262.04
480.96	262.14
481.33	262.34
481.69	262.55
482.06	262.75
482.42	262.96
482.79	263.24
483.15	263.56
483.52	263.94
483.88	264.29
484.25	264.66
484.61	265.09
484.98	265.56
485.34	266.14
485.71	266.76
486.07	267.38
486.44	267.93
486.80	268.61
487.17	269.33
487.53	270.11
487.90	270.95
488.26	271.86
488.62	272.84
488.99	273.86
489.35	274.88
489.72	275.99
490.08	277.19
490.44	278.40
490.81	279.72
491.17	281.09
491.54	282.58
491.90	284.10
492.26	285.73
492.63	287.48
492.99	289.23
493.36	291.10
493.72	293.12
494.08	295.22
494.45	297.43
494.81	299.84
495.17	302.27
495.54	304.82
495.90	307.48
496.26	310.26
496.63	313.17
496.99	316.26
497.35	319.48
497.72	322.90
498.08	326.42
498.44	330.07
498.80	333.99
499.17	338.00
499.53	342.16
499.89	346.51
500.26	350.93
500.62	355.61
500.98	360.52
501.34	365.57
501.71	370.86
502.07	376.35
502.43	381.85
502.79	387.60
503.16	393.64
503.52	399.85
503.88	406.19
504.24	412.77
504.60	419.56
504.97	426.63
505.33	433.84
505.69	441.53
506.05	449.26
506.41	457.07
506.78	465.16
507.14	473.52
507.50	482.11
507.86	491.07
508.22	500.12
508.59	509.21
508.95	518.60
509.31	528.31
509.67	538.26
510.03	548.45
510.39	558.90
510.75	569.55
511.12	580.37
511.48	591.51
511.84	602.82
512.20	614.21
512.56	625.94
512.92	637.87
513.28	649.99
513.64	662.25
514.00	674.80
514.37	687.53
514.73	700.37
515.09	713.23
515.45	726.27
515.81	739.61
516.17	753.37
516.53	767.29
516.89	781.12
517.25	795.01
517.61	809.19
517.97	823.43
518.33	837.52
518.69	851.94
519.05	866.56
519.41	881.34
519.77	896.46
520.13	911.62
520.49	926.76
520.85	941.83
521.21	957.18
521.57	972.95
521.93	988.33
522.29	1004.26
522.65	1020.15
523.01	1035.89
523.37	1051.64
523.73	1067.40
524.09	1083.05
524.45	1099.06
524.81	1115.30
525.17	1131.68
525.53	1148.08
525.89	1164.58
526.25	1181.10
526.61	1197.18
526.97	1213.60
527.33	1229.78
527.68	1245.98
528.04	1262.04
528.40	1278.21
528.76	1294.80
529.12	1311.08
529.48	1327.52
529.84	1343.26
530.20	1359.53
530.56	1376.21
530.91	1393.12
531.27	1409.51
531.63	1425.60
531.99	1441.74
532.35	1457.34
532.71	1472.90
533.07	1488.85
533.42	1504.43
533.78	1519.97
534.14	1535.83
534.50	1550.80
534.86	1566.27
535.21	1581.08
535.57	1596.63
535.93	1611.76
536.29	1626.28
536.65	1640.92
537.00	1655.34
537.36	1670.32
537.72	1684.39
538.08	1698.48
538.44	1711.99
538.79	1725.55
539.15	1738.76
539.51	1752.19
539.87	1766.19
540.22	1779.44
540.58	1792.74
540.94	1805.72
541.29	1818.26
541.65	1830.69
542.01	1843.54
542.37	1855.57
542.72	1867.68
543.08	1879.10
543.44	1891.22
543.79	1902.23
544.15	1912.94
544.51	1924.38
544.87	1935.02
545.22	1945.61
545.58	1955.54
545.94	1965.02
546.29	1974.65
546.65	1984.47
547.01	1993.63
547.36	2002.04
547.72	2010.54
548.07	2018.25
548.43	2026.26
548.79	2034.13
549.14	2041.50
549.50	2048.67
549.86	2056.18
550.21	2063.40
550.57	2070.57
550.92	2077.06
551.28	2083.91
551.64	2090.93
551.99	2097.24
552.35	2103.38
552.70	2109.53
553.06	2115.61
553.41	2121.88
553.77	2127.80
554.13	2133.87
554.48	2139.92
554.84	2145.61
555.19	2150.65
555.55	2155.97
555.90	2160.49
556.26	2165.53
556.61	2170.21
556.97	2174.73
557.32	2178.78
557.68	2183.03
558.03	2187.38
558.39	2191.10
558.74	2195.80
559.10	2199.70
559.45	2203.43
559.81	2207.62
560.16	2211.50
560.52	2214.81
560.87	2218.26
561.23	2221.04
561.58	2223.97
561.94	2226.58
562.29	2228.83
562.64	2231.66
563.00	2234.12
563.35	2237.53
563.71	2240.67
564.06	2243.96
564.42	2246.86
564.77	2249.70
565.12	2252.15
565.48	2254.24
565.83	2256.38
566.19	2257.86
566.54	2258.89
566.89	2260.23
567.25	2261.04
567.60	2262.38
567.96	2264.16
568.31	2265.09
568.66	2266.50
569.02	2267.23
569.37	2267.71
569.72	2268.82
570.08	2269.12
570.43	2269.47
570.78	2269.17
571.14	2267.90
571.49	2266.81
571.84	2266.70
572.20	2265.84
572.55	2264.99
572.90	2263.53
573.26	2262.36
573.61	2260.93
573.96	2259.43
574.31	2256.68
574.67	2254.06
575.02	2250.72
575.37	2247.59
575.72	2244.25
576.08	2240.93
576.43	2237.80
576.78	2234.33
577.13	2231.37
577.49	2228.59
577.84	2225.33
578.19	2222.00
578.54	2218.67
578.90	2214.73
579.25	2209.40
579.60	2204.64
579.95	2199.74
580.30	2194.86
580.66	2189.81
581.01	2185.02
581.36	2180.36
581.71	2176.55
582.06	2172.36
582.42	2168.15
582.77	2163.13
583.12	2158.81
583.47	2154.49
583.82	2149.83
584.17	2144.88
584.53	2139.68
584.88	2134.29
585.23	2128.89
585.58	2123.56
585.93	2118.30
586.28	2113.72
586.63	2108.87
586.98	2104.13
587.34	2099.69
587.69	2095.05
588.04	2090.00
588.39	2084.63
588.74	2078.33
589.09	2072.34
589.44	2065.61
589.79	2059.93
590.14	2054.48
590.49	2048.00
590.84	2041.71
591.19	2035.85
591.54	2029.72
591.89	2022.72
592.25	2016.24
592.60	2009.12
592.95	2001.79
593.30	1994.74
593.65	1987.30
594.00	1980.46
594.35	1973.40
594.70	1965.58
595.05	1958.69
595.40	1951.66
595.75	1944.34
596.10	1938.45
596.45	1931.93
596.80	1926.10
597.15	1919.56
597.50	1912.78
597.85	1906.67
598.19	1900.29
598.54	1893.42
598.89	1886.91
599.24	1881.06
599.59	1874.50
599.94	1868.38
600.29	1862.29
600.64	1855.75
600.99	1848.53
601.34	1841.85
601.69	1834.86
602.04	1828.12
602.39	1820.96
602.74	1814.22
603.08	1807.58
603.43	1800.97
603.78	1793.68
604.13	1786.49
604.48	1779.39
604.83	1772.59
605.18	1765.74
605.53	1757.90
605.87	1750.00
606.22	1742.77
606.57	1734.84
606.92	1727.69
607.27	1720.82
607.62	1713.91
607.96	1706.75
608.31	1700.32
608.66	1692.91
609.01	1685.51
609.36	1678.06
609.70	1670.07
610.05	1662.19
610.40	1654.69
610.75	1646.51
611.10	1639.08
611.44	1630.73
611.79	1622.73
612.14	1614.19
612.49	1605.12
612.83	1596.85
613.18	1588.81
613.53	1580.85
613.88	1572.51
614.22	1564.20
614.57	1555.55
614.92	1547.54
615.27	1540.10
615.61	1531.83
615.96	1523.80
616.31	1516.18
616.65	1508.93
617.00	1501.53
617.35	1493.93
617.70	1485.62
618.04	1477.15
618.39	1468.86
618.74	1461.44
619.08	1453.28
619.43	1445.63
619.78	1438.78
620.12	1431.61
620.47	1424.20
620.82	1416.08
621.16	1408.66
621.51	1401.17
621.85	1393.57
622.20	1385.16
622.55	1376.85
622.89	1368.97
623.24	1361.35
623.59	1353.99
623.93	1346.48
624.28	1339.34
624.62	1331.86
624.97	1324.73
625.32	1317.92
625.66	1310.92
626.01	1303.76
626.35	1296.38
626.70	1288.70
627.04	1281.05
627.39	1273.33
627.73	1265.87
628.08	1258.90
628.43	1251.62
628.77	1244.26
629.12	1236.78
629.46	1229.66
629.81	1222.25
630.15	1214.92
630.50	1207.65
630.84	1199.50
631.19	1191.63
631.53	1184.06
631.88	1176.48
632.22	1168.85
632.57	1161.64
632.91	1154.18
633.26	1146.85
633.60	1139.49
633.95	1132.36
634.29	1125.28
634.64	1118.58
634.98	1111.28
635.32	1104.17
635.67	1097.57
636.01	1090.94
636.36	1084.30
636.70	1077.76
637.05	1071.31
637.39	1065.10
637.73	1058.53
638.08	1052.65
638.42	1046.64
638.77	1040.26
639.11	1033.75
639.45	1027.48
639.80	1020.79
640.14	1014.45
640.49	1007.93
640.83	1001.63
641.17	995.54
641.52	989.23
641.86	982.75
642.20	976.95
642.55	970.72
642.89	964.34
643.23	957.87
643.58	952.10
643.92	946.02
644.26	939.92
644.61	933.95
644.95	928.06
645.29	921.56
645.64	914.85
645.98	908.57
646.32	902.77
646.66	896.78
647.01	891.08
647.35	885.37
647.69	879.61
648.04	874.08
648.38	868.33
648.72	862.38
649.06	856.52
649.41	850.73
649.75	844.84
650.09	838.98
650.43	833.28
650.78	827.08
651.12	821.20
651.46	815.56
651.80	809.86
652.14	804.49
652.49	799.21
652.83	794.11
653.17	788.50
653.51	782.88
653.85	777.48
654.20	771.94
654.54	766.04
654.88	760.26
655.22	754.49
655.56	748.84
655.90	743.42
656.25	738.20
656.59	732.88
656.93	727.79
657.27	722.69
657.61	717.24
657.95	712.27
658.29	707.23
658.64	701.98
658.98	696.63
659.32	691.21
659.66	686.00
660.00	680.73
660.34	675.73
660.68	670.78
661.02	665.74
661.36	661.01
661.70	656.53
662.05	652.23
662.39	647.92
662.73	643.48
663.07	639.09
663.41	634.63
663.75	630.14
664.09	625.61
664.43	621.14
664.77	617.01
665.11	612.71
665.45	608.50
665.79	604.44
666.13	600.35
666.47	596.27
666.81	592.18
667.15	588.09
667.49	584.21
667.83	580.36
668.17	576.43
668.51	572.37
668.85	568.33
669.19	564.46
669.53	560.63
669.87	556.77
670.21	553.10
670.55	549.46
670.89	546.02
671.23	542.56
671.57	539.14
671.91	535.65
672.25	532.20
672.58	528.75
672.92	525.32
673.26	522.09
673.60	518.90
673.94	515.72
674.28	512.80
674.62	509.87
674.96	506.80
675.30	503.93
675.64	500.99
675.97	498.18
676.31	495.34
676.65	492.38
676.99	489.66
677.33	486.75
677.67	483.99
678.01	480.99
678.34	478.06
678.68	475.18
679.02	472.38
679.36	469.58
679.70	466.86
680.04	464.12
680.37	461.32
680.71	458.53
681.05	455.97
681.39	453.25
681.73	450.62
682.06	448.09
682.40	445.59
682.74	443.10
683.08	440.64
683.42	438.06
683.75	435.62
684.09	433.09
684.43	430.67
684.77	428.21
685.10	425.85
685.44	423.54
685.78	421.30
686.12	419.06
686.45	416.82
686.79	414.54
687.13	412.40
687.46	410.21
687.80	408.08
688.14	405.83
688.48	403.79
688.81	401.55
689.15	399.44
689.49	397.25
689.82	395.17
690.16	393.06
690.50	391.08
690.83	389.13
691.17	387.18
691.51	385.25
691.84	383.42
692.18	381.52
692.52	379.60
692.85	377.57
693.19	375.72
693.52	373.85
693.86	372.03
694.20	370.24
694.53	368.50
694.87	366.64
695.21	364.89
695.54	363.06
695.88	361.34
696.21	359.57
696.55	357.92
696.88	356.23
697.22	354.61
697.56	353.00
697.89	351.35
698.23	349.77
698.56	348.21
698.90	346.62
699.23	345.03
699.57	343.45
699.90	341.94
700.24	340.38
700.58	338.84
700.91	337.34
701.25	335.92
701.58	334.54
701.92	333.20
702.25	331.82
702.59	330.49
702.92	329.15
703.26	327.89
703.59	326.60
703.93	325.44
704.26	324.18
704.60	322.88
704.93	321.61
705.26	320.29
705.60	319.11
705.93	317.94
706.27	316.81
706.60	315.74
706.94	314.70
707.27	313.57
707.61	312.56
707.94	311.53
708.27	310.39
708.61	309.25
708.94	308.25
709.28	307.28
709.61	306.29
709.94	305.35
710.28	304.30
710.61	303.30
710.95	302.23
711.28	301.31
711.61	300.37
711.95	299.46
712.28	298.57
712.61	297.58
712.95	296.65
713.28	295.82
713.61	294.92
713.95	294.03
714.28	293.17
714.61	292.28
714.95	291.40
715.28	290.56
715.61	289.73
715.95	288.87
716.28	287.98
716.61	287.12
716.95	286.28
717.28	285.55
717.61	284.81
717.94	284.05
718.28	283.24
718.61	282.50
718.94	281.79
719.27	281.12
719.61	280.46
719.94	279.79
720.27	279.04
720.60	278.43
720.94	277.79
721.27	277.22
721.60	276.65
721.93	276.10
722.27	275.54
722.60	274.98
722.93	274.42
723.26	273.87
723.59	273.33
723.93	272.78
724.26	272.25
724.59	271.68
724.92	271.17
725.25	270.67
725.59	270.20
725.92	269.69
726.25	269.20
726.58	268.72
726.91	268.23
727.24	267.77
727.57	267.24
727.91	266.72
728.24	266.26
728.57	265.78
728.90	265.34
729.23	264.84
729.56	264.43
729.89	263.95
730.22	263.50
730.55	263.11
730.89	262.69
731.22	262.22
731.55	261.81
731.88	261.36
732.21	260.92
732.54	260.45
732.87	260.02
733.20	259.61
733.53	259.22
733.86	258.87
734.19	258.49
734.52	258.12
734.85	257.84
735.18	257.42
735.51	257.08
735.84	256.67
736.17	256.37
736.50	255.94
736.83	255.70
737.16	255.38
737.49	255.00
737.82	254.63
738.15	254.32
738.48	253.99
738.81	253.69
739.14	253.39
739.47	253.08
739.80	252.77
740.13	252.45
740.46	252.12
740.79	251.79
741.12	251.45
741.45	251.13
741.78	250.75
742.11	250.45
742.44	250.10
742.77	249.85
743.10	249.49
743.43	249.23
743.75	248.87
744.08	248.68
744.41	248.41
744.74	248.18
745.07	247.90
745.40	247.66
745.73	247.39
746.06	247.12
746.39	246.89
746.71	246.63
747.04	246.35
747.37	246.10
747.70	245.86
748.03	245.65
748.36	245.42
748.68	245.18
749.01	244.93
749.34	244.73
749.67	244.52
750.00	244.33
750.33	244.16
750.65	243.93
750.98	243.61
751.31	243.41
751.64	243.12
751.97	242.96
752.29	242.76
752.62	242.53
752.95	242.31
753.28	242.09
753.60	241.88
753.93	241.71
754.26	241.52
754.59	241.24
754.91	241.04
755.24	240.80
755.57	240.62
755.90	240.45
756.22	240.21
756.55	239.99
756.88	239.74
757.20	239.47
757.53	239.29
757.86	239.13
758.19	238.96
758.51	238.86
758.84	238.60
759.17	238.41
759.49	238.25
759.82	238.15
760.15	237.99
760.47	237.86
760.80	237.69
761.13	237.55
761.45	237.45
761.78	237.29
762.11	237.20
762.43	237.07
762.76	236.94
763.08	236.82
763.41	236.67
763.74	236.59
764.06	236.44
764.39	236.29
764.71	236.15
765.04	236.02
765.37	235.87
765.69	235.76
766.02	235.62
766.34	235.48
766.67	235.29
767.00	235.19
767.32	235.13
767.65	235.02
767.97	234.90
768.30	234.78
768.62	234.65
768.95	234.52
769.27	234.40
769.60	234.28
769.92	234.16
770.25	234.04
770.57	233.92
770.90	233.85
771.22	233.76
771.55	233.67
771.87	233.60
772.20	233.48
772.52	233.48
772.85	233.52
773.17	233.43
773.50	233.31
773.82	233.19
774.15	233.06
774.47	232.93
774.80	232.85
775.12	232.76
775.45	232.68
775.77	232.61
776.09	232.53
776.42	232.46
776.74	232.44
777.07	232.38
777.39	232.30
777.72	232.22
778.04	232.15
778.36	232.04
778.69	231.96
779.01	231.92
779.33	231.77
779.66	231.58
779.98	231.52
780.31	231.49
780.63	231.49
780.95	231.40
781.28	231.33
781.60	231.26
781.92	231.23
782.25	231.19
782.57	231.13
782.89	231.06
783.22	230.98
783.54	230.88
783.86	230.82
784.19	230.76
784.51	230.73
784.83	230.65
785.16	230.60
785.48	230.53
785.80	230.46
786.12	230.40
786.45	230.35
786.77	230.28
787.09	230.23
