SpectraSuite Data File
++++++++++++++++++++++++++++++++++++
Date: Fri Feb 01 18:01:41 EST 2013
User: group
Dark Spectrum Present: No
Reference Spectrum Present: No
Number of Sampled Component Spectra: 1
Spectrometers: USB2E7196
Integration Time (usec): 35000 (USB2E7196)
Spectra Averaged: 100 (USB2E7196)
Boxcar Smoothing: 10 (USB2E7196)
Correct for Electrical Dark: No (USB2E7196)
Strobe/Lamp Enabled: No (USB2E7196)
Correct for Detector Non-linearity: No (USB2E7196)
Correct for Stray Light: No (USB2E7196)
Number of Pixels in Processed Spectrum: 2048
>>>>>Begin Processed Spectral Data<<<<<
339.09	0.00
339.48	211.95
339.86	214.28
340.24	215.66
340.63	217.41
341.01	219.57
341.39	219.63
341.78	221.25
342.16	221.73
342.54	223.16
342.93	211.21
343.31	221.89
343.69	222.47
344.07	222.97
344.46	223.42
344.84	223.81
345.22	224.08
345.60	224.35
345.99	224.53
346.37	224.69
346.75	224.78
347.13	224.85
347.52	224.91
347.90	224.99
348.28	225.03
348.66	225.07
349.05	225.08
349.43	225.12
349.81	225.16
350.19	225.25
350.57	225.30
350.96	225.33
351.34	225.41
351.72	225.52
352.10	225.60
352.48	225.64
352.87	225.67
353.25	225.71
353.63	225.78
354.01	225.85
354.39	225.93
354.77	226.01
355.15	226.10
355.54	226.17
355.92	226.23
356.30	226.30
356.68	226.45
357.06	226.54
357.44	226.61
357.82	226.70
358.20	226.76
358.58	226.81
358.97	226.88
359.35	226.96
359.73	227.03
360.11	227.06
360.49	227.08
360.87	227.13
361.25	227.22
361.63	227.29
362.01	227.34
362.39	227.37
362.77	227.41
363.15	227.46
363.53	227.49
363.91	227.51
364.29	227.51
364.67	227.42
365.05	227.42
365.43	227.44
365.81	227.42
366.19	227.48
366.57	227.55
366.95	227.58
367.33	227.55
367.71	227.53
368.09	227.53
368.47	227.57
368.85	227.54
369.23	227.53
369.61	227.48
369.99	227.48
370.37	227.45
370.75	227.48
371.13	227.42
371.51	227.34
371.89	227.32
372.27	227.30
372.65	227.24
373.03	227.18
373.41	227.09
373.78	227.05
374.16	226.92
374.54	226.82
374.92	226.75
375.30	226.69
375.68	226.64
376.06	226.61
376.44	226.53
376.82	226.50
377.19	226.40
377.57	226.32
377.95	226.21
378.33	226.14
378.71	226.00
379.09	225.94
379.47	225.94
379.84	225.86
380.22	225.79
380.60	225.75
380.98	225.71
381.36	225.67
381.73	225.61
382.11	225.59
382.49	225.57
382.87	225.52
383.25	225.48
383.62	225.53
384.00	225.46
384.38	225.43
384.76	225.42
385.13	225.42
385.51	225.37
385.89	225.35
386.27	225.34
386.64	225.31
387.02	225.27
387.40	225.19
387.78	225.16
388.15	225.14
388.53	225.12
388.91	225.07
389.29	225.08
389.66	225.07
390.04	225.02
390.42	225.00
390.79	224.97
391.17	224.95
391.55	224.82
391.92	224.81
392.30	224.83
392.68	224.78
393.05	224.79
393.43	224.83
393.81	224.80
394.18	224.78
394.56	224.81
394.94	224.85
395.31	224.87
395.69	224.94
396.06	224.94
396.44	224.96
396.82	225.00
397.19	225.07
397.57	225.10
397.95	225.16
398.32	225.21
398.70	225.27
399.07	225.33
399.45	225.36
399.82	225.42
400.20	225.46
400.58	225.50
400.95	225.52
401.33	225.58
401.70	225.75
402.08	225.85
402.45	225.94
402.83	226.07
403.20	226.19
403.58	226.33
403.95	226.52
404.33	226.66
404.71	226.82
405.08	227.01
405.46	227.16
405.83	227.32
406.21	227.46
406.58	227.65
406.96	227.86
407.33	228.09
407.70	228.33
408.08	228.63
408.45	228.94
408.83	229.21
409.20	229.49
409.58	229.73
409.95	230.07
410.33	230.39
410.70	230.68
411.08	231.03
411.45	231.37
411.82	231.74
412.20	232.17
412.57	232.66
412.95	233.04
413.32	233.54
413.69	234.07
414.07	234.66
414.44	235.30
414.82	235.91
415.19	236.63
415.56	237.36
415.94	238.07
416.31	238.90
416.68	239.76
417.06	240.70
417.43	241.58
417.81	242.55
418.18	243.63
418.55	244.77
418.93	245.97
419.30	247.18
419.67	248.43
420.04	249.73
420.42	251.12
420.79	252.70
421.16	254.25
421.54	255.86
421.91	257.48
422.28	259.20
422.66	261.00
423.03	262.75
423.40	264.52
423.77	266.47
424.15	268.38
424.52	270.39
424.89	272.54
425.26	274.66
425.64	276.64
426.01	278.81
426.38	281.06
426.75	283.30
427.13	285.65
427.50	288.10
427.87	290.64
428.24	293.14
428.61	295.52
428.99	298.16
429.36	300.98
429.73	303.79
430.10	306.51
430.47	309.33
430.85	312.20
431.22	315.24
431.59	318.44
431.96	321.47
432.33	324.84
432.70	328.08
433.08	331.89
433.45	335.49
433.82	338.98
434.19	342.90
434.56	346.69
434.93	350.28
435.30	353.83
435.68	357.74
436.05	361.59
436.42	365.34
436.79	368.75
437.16	372.47
437.53	376.32
437.90	380.10
438.27	383.74
438.64	387.56
439.01	391.13
439.38	394.19
439.75	397.14
440.13	400.56
440.50	403.74
440.87	406.25
441.24	408.89
441.61	411.84
441.98	413.84
442.35	416.34
442.72	418.83
443.09	421.32
443.46	422.64
443.83	423.44
444.20	424.12
444.57	425.28
444.94	425.61
445.31	426.10
445.68	426.57
446.05	426.70
446.42	426.17
446.79	425.52
447.16	424.91
447.53	424.51
447.90	422.91
448.27	421.33
448.64	419.20
449.01	417.61
449.37	414.93
449.74	412.33
450.11	409.21
450.48	405.89
450.85	402.41
451.22	399.53
451.59	396.78
451.96	394.20
452.33	390.67
452.70	387.50
453.07	383.65
453.43	379.75
453.80	376.07
454.17	372.52
454.54	369.13
454.91	365.44
455.28	361.85
455.65	358.45
456.02	355.06
456.38	352.13
456.75	348.57
457.12	345.53
457.49	342.52
457.86	339.60
458.23	337.03
458.59	334.26
458.96	331.40
459.33	328.89
459.70	326.34
460.07	324.26
460.43	321.88
460.80	319.64
461.17	317.62
461.54	315.53
461.91	313.52
462.27	311.53
462.64	309.81
463.01	307.92
463.38	306.12
463.74	304.34
464.11	302.78
464.48	301.34
464.85	299.80
465.21	298.60
465.58	297.33
465.95	295.88
466.32	294.64
466.68	293.45
467.05	292.22
467.42	290.97
467.78	289.70
468.15	288.53
468.52	287.62
468.88	286.49
469.25	285.40
469.62	284.55
469.98	283.62
470.35	282.74
470.72	281.90
471.08	281.03
471.45	280.27
471.82	279.51
472.18	278.69
472.55	278.08
472.92	277.37
473.28	276.72
473.65	276.08
474.02	275.47
474.38	274.89
474.75	274.44
475.11	273.94
475.48	273.56
475.85	273.17
476.21	272.83
476.58	272.53
476.94	272.30
477.31	272.05
477.67	271.82
478.04	271.66
478.41	271.52
478.77	271.48
479.14	271.32
479.50	271.22
479.87	271.23
480.23	271.27
480.60	271.26
480.96	271.31
481.33	271.46
481.69	271.63
482.06	271.81
482.42	271.96
482.79	272.19
483.15	272.49
483.52	272.87
483.88	273.18
484.25	273.55
484.61	273.97
484.98	274.37
485.34	274.90
485.71	275.47
486.07	276.06
486.44	276.59
486.80	277.29
487.17	278.06
487.53	278.90
487.90	279.74
488.26	280.72
488.62	281.71
488.99	282.77
489.35	283.83
489.72	285.02
490.08	286.25
490.44	287.55
490.81	288.98
491.17	290.39
491.54	291.97
491.90	293.58
492.26	295.33
492.63	297.16
492.99	299.02
493.36	301.00
493.72	303.19
494.08	305.46
494.45	307.83
494.81	310.31
495.17	312.87
495.54	315.56
495.90	318.43
496.26	321.39
496.63	324.49
496.99	327.81
497.35	331.26
497.72	334.85
498.08	338.55
498.44	342.43
498.80	346.62
499.17	350.89
499.53	355.30
499.89	359.95
500.26	364.71
500.62	369.62
500.98	374.88
501.34	380.26
501.71	385.92
502.07	391.73
502.43	397.70
502.79	403.86
503.16	410.32
503.52	416.96
503.88	423.80
504.24	430.79
504.60	438.02
504.97	445.57
505.33	453.38
505.69	461.62
506.05	469.86
506.41	478.20
506.78	486.81
507.14	495.80
507.50	505.08
507.86	514.65
508.22	524.50
508.59	534.31
508.95	544.55
509.31	555.06
509.67	565.78
510.03	576.82
510.39	588.14
510.75	599.72
511.12	611.46
511.48	623.62
511.84	636.02
512.20	648.44
512.56	661.24
512.92	674.27
513.28	687.49
513.64	700.96
514.00	714.69
514.37	728.69
514.73	742.79
515.09	756.78
515.45	771.11
515.81	785.72
516.17	800.81
516.53	816.04
516.89	831.29
517.25	846.70
517.61	862.34
517.97	878.00
518.33	893.57
518.69	909.56
519.05	925.70
519.41	942.14
519.77	958.96
520.13	975.82
520.49	992.59
520.85	1009.37
521.21	1026.41
521.57	1044.01
521.93	1061.16
522.29	1079.14
522.65	1096.95
523.01	1114.75
523.37	1132.39
523.73	1150.14
524.09	1167.83
524.45	1185.78
524.81	1204.06
525.17	1222.38
525.53	1240.95
525.89	1259.61
526.25	1278.32
526.61	1296.54
526.97	1315.04
527.33	1333.41
527.68	1351.79
528.04	1370.14
528.40	1388.63
528.76	1407.64
529.12	1426.15
529.48	1445.05
529.84	1462.80
530.20	1481.43
530.56	1500.30
530.91	1519.75
531.27	1538.63
531.63	1557.09
531.99	1575.72
532.35	1593.78
532.71	1611.83
533.07	1630.15
533.42	1648.15
533.78	1666.29
534.14	1684.68
534.50	1702.13
534.86	1720.07
535.21	1737.38
535.57	1755.53
535.93	1773.19
536.29	1790.11
536.65	1807.38
537.00	1824.24
537.36	1841.76
537.72	1858.32
538.08	1875.14
538.44	1891.01
538.79	1907.13
539.15	1922.82
539.51	1938.78
539.87	1955.37
540.22	1971.15
540.58	1987.33
540.94	2002.84
541.29	2017.96
541.65	2032.88
542.01	2048.40
542.37	2062.93
542.72	2077.55
543.08	2091.63
543.44	2106.31
543.79	2119.83
544.15	2132.93
544.51	2146.78
544.87	2160.08
545.22	2173.25
545.58	2185.67
545.94	2197.66
546.29	2209.53
546.65	2221.76
547.01	2233.19
547.36	2243.92
547.72	2254.72
548.07	2264.56
548.43	2274.93
548.79	2284.85
549.14	2294.50
549.50	2303.67
549.86	2313.56
550.21	2322.94
550.57	2332.00
550.92	2340.58
551.28	2349.62
551.64	2358.74
551.99	2367.32
552.35	2375.32
552.70	2383.46
553.06	2391.40
553.41	2399.85
553.77	2407.77
554.13	2415.87
554.48	2423.98
554.84	2431.53
555.19	2438.54
555.55	2445.46
555.90	2451.62
556.26	2458.43
556.61	2464.82
556.97	2471.24
557.32	2476.94
557.68	2482.79
558.03	2488.72
558.39	2493.86
558.74	2500.10
559.10	2505.77
559.45	2510.88
559.81	2516.70
560.16	2522.13
560.52	2526.81
560.87	2531.57
561.23	2535.70
561.58	2540.04
561.94	2543.89
562.29	2547.41
562.64	2551.56
563.00	2555.54
563.35	2560.47
563.71	2564.84
564.06	2569.31
564.42	2573.35
564.77	2577.14
565.12	2580.66
565.48	2583.87
565.83	2587.08
566.19	2589.68
566.54	2591.54
566.89	2593.92
567.25	2595.70
567.60	2597.92
567.96	2600.74
568.31	2602.49
568.66	2604.52
569.02	2605.92
569.37	2607.07
569.72	2608.81
570.08	2609.86
570.43	2610.65
570.78	2610.75
571.14	2609.86
571.49	2608.99
571.84	2609.26
572.20	2608.77
572.55	2608.32
572.90	2607.09
573.26	2606.23
573.61	2604.73
573.96	2603.35
574.31	2600.49
574.67	2597.84
575.02	2594.32
575.37	2590.89
575.72	2587.34
576.08	2584.09
576.43	2580.86
576.78	2577.28
577.13	2574.20
577.49	2571.06
577.84	2567.65
578.19	2563.88
578.54	2560.23
578.90	2556.16
579.25	2550.30
579.60	2545.02
579.95	2539.85
580.30	2534.49
580.66	2528.94
581.01	2523.79
581.36	2518.60
581.71	2514.21
582.06	2509.53
582.42	2504.89
582.77	2499.42
583.12	2494.50
583.47	2489.57
583.82	2484.18
584.17	2478.46
584.53	2472.41
584.88	2466.27
585.23	2460.12
585.58	2454.13
585.93	2448.22
586.28	2442.92
586.63	2437.51
586.98	2432.12
587.34	2426.85
587.69	2421.61
588.04	2415.96
588.39	2409.66
588.74	2402.52
589.09	2395.83
589.44	2388.06
589.79	2381.15
590.14	2374.93
590.49	2367.49
590.84	2360.36
591.19	2353.65
591.54	2346.51
591.89	2338.42
592.25	2330.86
592.60	2322.63
592.95	2314.15
593.30	2305.87
593.65	2297.29
594.00	2289.17
594.35	2280.92
594.70	2271.65
595.05	2263.56
595.40	2255.24
595.75	2246.62
596.10	2239.45
596.45	2231.70
596.80	2224.72
597.15	2217.23
597.50	2209.19
597.85	2201.79
598.19	2194.06
598.54	2186.15
598.89	2178.48
599.24	2171.55
599.59	2164.01
599.94	2156.81
600.29	2149.45
600.64	2141.75
600.99	2133.16
601.34	2125.32
601.69	2116.96
602.04	2109.32
602.39	2100.69
602.74	2092.76
603.08	2085.06
603.43	2077.39
603.78	2068.81
604.13	2060.51
604.48	2052.19
604.83	2044.18
605.18	2036.36
605.53	2027.18
605.87	2017.56
606.22	2009.07
606.57	1999.80
606.92	1990.91
607.27	1982.61
607.62	1974.59
607.96	1966.19
608.31	1958.60
608.66	1949.62
609.01	1941.11
609.36	1932.08
609.70	1922.74
610.05	1913.19
610.40	1904.15
610.75	1894.43
611.10	1885.52
611.44	1875.55
611.79	1866.13
612.14	1855.95
612.49	1845.00
612.83	1835.05
613.18	1825.63
613.53	1816.09
613.88	1806.13
614.22	1796.38
614.57	1786.03
614.92	1776.64
615.27	1767.65
615.61	1757.72
615.96	1748.32
616.31	1739.17
616.65	1730.55
617.00	1721.70
617.35	1712.75
617.70	1702.95
618.04	1692.79
618.39	1683.15
618.74	1674.20
619.08	1664.29
619.43	1655.20
619.78	1647.05
620.12	1638.61
620.47	1629.83
620.82	1620.16
621.16	1611.36
621.51	1602.49
621.85	1593.58
622.20	1583.53
622.55	1573.71
622.89	1564.55
623.24	1555.51
623.59	1546.68
623.93	1537.78
624.28	1529.19
624.62	1520.34
624.97	1511.81
625.32	1503.83
625.66	1495.47
626.01	1487.02
626.35	1478.39
626.70	1469.28
627.04	1460.22
627.39	1451.03
627.73	1442.24
628.08	1434.18
628.43	1425.70
628.77	1417.07
629.12	1408.25
629.46	1399.76
629.81	1391.01
630.15	1382.39
630.50	1373.72
630.84	1364.25
631.19	1354.87
631.53	1345.98
631.88	1337.05
632.22	1328.20
632.57	1319.57
632.91	1310.71
633.26	1301.91
633.60	1293.16
633.95	1284.76
634.29	1276.47
634.64	1268.62
634.98	1259.89
635.32	1251.45
635.67	1243.57
636.01	1235.71
636.36	1227.69
636.70	1219.85
637.05	1212.16
637.39	1204.48
637.73	1196.85
638.08	1189.88
638.42	1182.75
638.77	1175.22
639.11	1167.55
639.45	1160.02
639.80	1152.28
640.14	1144.82
640.49	1137.29
640.83	1129.96
641.17	1122.68
641.52	1115.21
641.86	1107.57
642.20	1100.71
642.55	1093.29
642.89	1085.82
643.23	1078.16
643.58	1071.41
643.92	1064.37
644.26	1057.29
644.61	1050.33
644.95	1043.35
645.29	1035.76
645.64	1028.01
645.98	1020.57
646.32	1013.63
646.66	1006.62
647.01	999.91
647.35	993.21
647.69	986.39
648.04	979.92
648.38	973.24
648.72	966.41
649.06	959.49
649.41	952.66
649.75	945.84
650.09	938.95
650.43	932.26
650.78	925.18
651.12	918.31
651.46	911.65
651.80	904.98
652.14	898.71
652.49	892.36
652.83	886.27
653.17	879.74
653.51	873.22
653.85	866.94
654.20	860.38
654.54	853.43
654.88	846.67
655.22	839.82
655.56	833.17
655.90	826.74
656.25	820.70
656.59	814.47
656.93	808.51
657.27	802.57
657.61	796.32
657.95	790.42
658.29	784.44
658.64	778.36
658.98	772.21
659.32	765.79
659.66	759.78
660.00	753.73
660.34	748.01
660.68	742.28
661.02	736.42
661.36	730.90
661.70	725.68
662.05	720.69
662.39	715.69
662.73	710.57
663.07	705.48
663.41	700.31
663.75	695.12
664.09	689.80
664.43	684.67
664.77	679.94
665.11	674.99
665.45	670.22
665.79	665.52
666.13	660.77
666.47	656.15
666.81	651.48
667.15	646.77
667.49	642.22
667.83	637.84
668.17	633.38
668.51	628.76
668.85	624.08
669.19	619.65
669.53	615.32
669.87	610.90
670.21	606.64
670.55	602.44
670.89	598.46
671.23	594.53
671.57	590.49
671.91	586.40
672.25	582.38
672.58	578.30
672.92	574.35
673.26	570.63
673.60	566.86
673.94	563.19
674.28	559.74
674.62	556.41
674.96	552.82
675.30	549.44
675.64	546.06
675.97	542.84
676.31	539.56
676.65	536.14
676.99	532.94
677.33	529.66
677.67	526.37
678.01	522.91
678.34	519.49
678.68	516.16
679.02	512.85
679.36	509.62
679.70	506.50
680.04	503.30
680.37	500.03
680.71	496.93
681.05	493.95
681.39	490.87
681.73	487.80
682.06	484.89
682.40	481.91
682.74	478.89
683.08	475.95
683.42	472.91
683.75	469.93
684.09	466.96
684.43	464.08
684.77	461.24
685.10	458.47
685.44	455.77
685.78	453.10
686.12	450.47
686.45	447.78
686.79	445.09
687.13	442.54
687.46	439.95
687.80	437.37
688.14	434.72
688.48	432.26
688.81	429.60
689.15	427.03
689.49	424.49
689.82	422.12
690.16	419.68
690.50	417.37
690.83	415.14
691.17	412.80
691.51	410.60
691.84	408.44
692.18	406.21
692.52	403.91
692.85	401.65
693.19	399.49
693.52	397.33
693.86	395.23
694.20	393.14
694.53	391.11
694.87	388.92
695.21	386.83
695.54	384.73
695.88	382.72
696.21	380.74
696.55	378.84
696.88	376.84
697.22	374.89
697.56	373.00
697.89	371.11
698.23	369.31
698.56	367.41
698.90	365.61
699.23	363.72
699.57	361.94
699.90	360.12
700.24	358.33
700.58	356.63
700.91	354.94
701.25	353.25
701.58	351.65
701.92	350.12
702.25	348.57
702.59	346.98
702.92	345.46
703.26	343.96
703.59	342.43
703.93	341.13
704.26	339.75
704.60	338.30
704.93	336.79
705.26	335.31
705.60	333.94
705.93	332.60
706.27	331.36
706.60	330.13
706.94	328.88
707.27	327.56
707.61	326.27
707.94	325.07
708.27	323.82
708.61	322.54
708.94	321.35
709.28	320.17
709.61	319.03
709.94	317.90
710.28	316.72
710.61	315.57
710.95	314.29
711.28	313.21
711.61	312.08
711.95	311.00
712.28	309.94
712.61	308.82
712.95	307.67
713.28	306.65
713.61	305.59
713.95	304.58
714.28	303.57
714.61	302.56
714.95	301.55
715.28	300.52
715.61	299.53
715.95	298.53
716.28	297.52
716.61	296.59
716.95	295.62
717.28	294.74
717.61	293.88
717.94	293.02
718.28	292.04
718.61	291.23
718.94	290.45
719.27	289.69
719.61	288.93
719.94	288.17
720.27	287.31
720.60	286.55
720.94	285.80
721.27	285.14
721.60	284.46
721.93	283.75
722.27	283.13
722.60	282.43
722.93	281.78
723.26	281.17
723.59	280.50
723.93	279.88
724.26	279.24
724.59	278.59
724.92	277.95
725.25	277.37
725.59	276.74
725.92	276.11
726.25	275.46
726.58	274.86
726.91	274.29
727.24	273.75
727.57	273.21
727.91	272.57
728.24	272.00
728.57	271.45
728.90	270.91
729.23	270.32
729.56	269.83
729.89	269.26
730.22	268.71
730.55	268.16
730.89	267.64
731.22	267.13
731.55	266.59
731.88	266.09
732.21	265.58
732.54	265.08
732.87	264.57
733.20	264.13
733.53	263.68
733.86	263.27
734.19	262.82
734.52	262.35
734.85	262.04
735.18	261.57
735.51	261.12
735.84	260.67
736.17	260.26
736.50	259.80
736.83	259.50
737.16	259.13
737.49	258.75
737.82	258.34
738.15	257.93
738.48	257.56
738.81	257.22
739.14	256.86
739.47	256.52
739.80	256.20
740.13	255.86
740.46	255.49
740.79	255.09
741.12	254.73
741.45	254.38
741.78	253.97
742.11	253.63
742.44	253.28
742.77	252.98
743.10	252.63
743.43	252.29
743.75	251.88
744.08	251.70
744.41	251.35
744.74	251.04
745.07	250.71
745.40	250.43
745.73	250.13
746.06	249.80
746.39	249.46
746.71	249.11
747.04	248.81
747.37	248.48
747.70	248.18
748.03	247.87
748.36	247.63
748.68	247.33
749.01	247.05
749.34	246.80
749.67	246.51
750.00	246.27
750.33	246.06
750.65	245.81
750.98	245.42
751.31	245.21
751.64	245.00
751.97	244.82
752.29	244.59
752.62	244.30
752.95	244.03
753.28	243.80
753.60	243.56
753.93	243.36
754.26	243.09
754.59	242.89
754.91	242.62
755.24	242.37
755.57	242.14
755.90	241.93
756.22	241.69
756.55	241.44
756.88	241.21
757.20	240.98
757.53	240.74
757.86	240.54
758.19	240.33
758.51	240.09
758.84	239.85
759.17	239.64
759.49	239.43
759.82	239.32
760.15	239.15
760.47	238.98
760.80	238.77
761.13	238.66
761.45	238.47
761.78	238.34
762.11	238.16
762.43	238.03
762.76	237.90
763.08	237.75
763.41	237.63
763.74	237.50
764.06	237.33
764.39	237.16
764.71	237.02
765.04	236.88
765.37	236.74
765.69	236.57
766.02	236.44
766.34	236.32
766.67	236.14
767.00	236.01
767.32	235.97
767.65	235.88
767.97	235.74
768.30	235.64
768.62	235.51
768.95	235.39
769.27	235.24
769.60	235.10
769.92	234.99
770.25	234.87
770.57	234.74
770.90	234.63
771.22	234.56
771.55	234.44
771.87	234.30
772.20	234.18
772.52	234.19
772.85	234.21
773.17	234.11
773.50	234.01
773.82	233.89
774.15	233.75
774.47	233.58
774.80	233.48
775.12	233.38
775.45	233.31
775.77	233.23
776.09	233.12
776.42	233.05
776.74	232.97
777.07	232.86
777.39	232.76
777.72	232.68
778.04	232.58
778.36	232.49
778.69	232.43
779.01	232.38
779.33	232.19
779.66	232.00
779.98	231.89
780.31	231.83
780.63	231.82
780.95	231.75
781.28	231.68
781.60	231.60
781.92	231.51
782.25	231.42
782.57	231.34
782.89	231.28
783.22	231.20
783.54	231.09
783.86	231.06
784.19	230.97
784.51	230.92
784.83	230.87
785.16	230.78
785.48	230.72
785.80	230.64
786.12	230.60
786.45	230.50
