SpectraSuite Data File
++++++++++++++++++++++++++++++++++++
Date: Fri Feb 01 18:03:59 EST 2013
User: group
Dark Spectrum Present: No
Reference Spectrum Present: No
Number of Sampled Component Spectra: 1
Spectrometers: USB2E7196
Integration Time (usec): 35000 (USB2E7196)
Spectra Averaged: 100 (USB2E7196)
Boxcar Smoothing: 10 (USB2E7196)
Correct for Electrical Dark: No (USB2E7196)
Strobe/Lamp Enabled: No (USB2E7196)
Correct for Detector Non-linearity: No (USB2E7196)
Correct for Stray Light: No (USB2E7196)
Number of Pixels in Processed Spectrum: 2048
>>>>>Begin Processed Spectral Data<<<<<
339.09	0.00
339.48	213.52
339.86	214.31
340.24	215.58
340.63	217.21
341.01	219.99
341.39	219.48
341.78	221.18
342.16	222.52
342.54	222.28
342.93	211.31
343.31	222.01
343.69	222.55
344.07	223.01
344.46	223.46
344.84	223.87
345.22	224.12
345.60	224.40
345.99	224.60
346.37	224.74
346.75	224.87
347.13	224.94
347.52	225.00
347.90	225.08
348.28	225.11
348.66	225.18
349.05	225.22
349.43	225.30
349.81	225.34
350.19	225.43
350.57	225.50
350.96	225.58
351.34	225.68
351.72	225.74
352.10	225.86
352.48	225.94
352.87	225.98
353.25	226.03
353.63	226.11
354.01	226.16
354.39	226.24
354.77	226.32
355.15	226.43
355.54	226.52
355.92	226.56
356.30	226.66
356.68	226.80
357.06	226.85
357.44	226.92
357.82	226.96
358.20	227.02
358.58	227.07
358.97	227.16
359.35	227.24
359.73	227.33
360.11	227.40
360.49	227.47
360.87	227.51
361.25	227.59
361.63	227.66
362.01	227.70
362.39	227.73
362.77	227.79
363.15	227.82
363.53	227.84
363.91	227.88
364.29	227.89
364.67	227.82
365.05	227.84
365.43	227.90
365.81	227.92
366.19	227.97
366.57	228.02
366.95	228.01
367.33	227.97
367.71	227.96
368.09	227.92
368.47	227.90
368.85	227.88
369.23	227.87
369.61	227.81
369.99	227.85
370.37	227.83
370.75	227.85
371.13	227.80
371.51	227.75
371.89	227.76
372.27	227.72
372.65	227.72
373.03	227.68
373.41	227.58
373.78	227.55
374.16	227.45
374.54	227.36
374.92	227.31
375.30	227.26
375.68	227.18
376.06	227.15
376.44	227.10
376.82	227.07
377.19	226.99
377.57	226.93
377.95	226.83
378.33	226.77
378.71	226.63
379.09	226.58
379.47	226.53
379.84	226.44
380.22	226.37
380.60	226.26
380.98	226.17
381.36	226.11
381.73	226.04
382.11	226.03
382.49	226.01
382.87	225.91
383.25	225.88
383.62	225.94
384.00	225.87
384.38	225.81
384.76	225.77
385.13	225.78
385.51	225.74
385.89	225.67
386.27	225.61
386.64	225.58
387.02	225.50
387.40	225.44
387.78	225.40
388.15	225.38
388.53	225.37
388.91	225.37
389.29	225.33
389.66	225.34
390.04	225.30
390.42	225.27
390.79	225.25
391.17	225.22
391.55	225.11
391.92	225.11
392.30	225.08
392.68	225.08
393.05	225.05
393.43	225.03
393.81	225.04
394.18	225.04
394.56	225.03
394.94	225.10
395.31	225.09
395.69	225.11
396.06	225.11
396.44	225.12
396.82	225.12
397.19	225.21
397.57	225.20
397.95	225.24
398.32	225.25
398.70	225.30
399.07	225.36
399.45	225.40
399.82	225.44
400.20	225.51
400.58	225.56
400.95	225.58
401.33	225.67
401.70	225.81
402.08	225.92
402.45	226.04
402.83	226.12
403.20	226.25
403.58	226.33
403.95	226.49
404.33	226.62
404.71	226.76
405.08	226.94
405.46	227.08
405.83	227.21
406.21	227.39
406.58	227.54
406.96	227.71
407.33	227.91
407.70	228.13
408.08	228.48
408.45	228.75
408.83	229.04
409.20	229.32
409.58	229.56
409.95	229.86
410.33	230.18
410.70	230.50
411.08	230.87
411.45	231.28
411.82	231.64
412.20	232.09
412.57	232.61
412.95	233.00
413.32	233.55
413.69	234.09
414.07	234.64
414.44	235.32
414.82	235.94
415.19	236.66
415.56	237.38
415.94	238.10
416.31	238.95
416.68	239.81
417.06	240.75
417.43	241.65
417.81	242.65
418.18	243.73
418.55	244.86
418.93	246.03
419.30	247.27
419.67	248.55
420.04	249.88
420.42	251.22
420.79	252.84
421.16	254.37
421.54	255.99
421.91	257.67
422.28	259.40
422.66	261.22
423.03	262.93
423.40	264.74
423.77	266.64
424.15	268.60
424.52	270.61
424.89	272.79
425.26	274.91
425.64	276.93
426.01	279.07
426.38	281.31
426.75	283.57
427.13	285.93
427.50	288.39
427.87	290.92
428.24	293.45
428.61	295.83
428.99	298.48
429.36	301.37
429.73	304.20
430.10	306.92
430.47	309.72
430.85	312.69
431.22	315.75
431.59	318.97
431.96	322.00
432.33	325.38
432.70	328.62
433.08	332.44
433.45	336.02
433.82	339.54
434.19	343.48
434.56	347.30
434.93	350.88
435.30	354.45
435.68	358.38
436.05	362.23
436.42	366.02
436.79	369.48
437.16	373.12
437.53	376.95
437.90	380.74
438.27	384.48
438.64	388.30
439.01	391.84
439.38	394.92
439.75	397.84
440.13	401.22
440.50	404.36
440.87	406.91
441.24	409.54
441.61	412.46
441.98	414.50
442.35	417.03
442.72	419.51
443.09	421.97
443.46	423.33
443.83	424.15
444.20	424.83
444.57	425.96
444.94	426.37
445.31	426.86
445.68	427.31
446.05	427.43
446.42	426.85
446.79	426.24
447.16	425.62
447.53	425.21
447.90	423.67
448.27	422.15
448.64	419.99
449.01	418.44
449.37	415.79
449.74	413.20
450.11	410.06
450.48	406.73
450.85	403.28
451.22	400.37
451.59	397.57
451.96	394.95
452.33	391.41
452.70	388.18
453.07	384.31
453.43	380.40
453.80	376.62
454.17	373.08
454.54	369.62
454.91	365.93
455.28	362.30
455.65	358.93
456.02	355.51
456.38	352.55
456.75	348.88
457.12	345.83
457.49	342.80
457.86	339.90
458.23	337.36
458.59	334.61
458.96	331.76
459.33	329.28
459.70	326.70
460.07	324.62
460.43	322.26
460.80	320.05
461.17	318.09
461.54	316.05
461.91	314.05
462.27	312.08
462.64	310.36
463.01	308.48
463.38	306.64
463.74	304.86
464.11	303.30
464.48	301.94
464.85	300.43
465.21	299.22
465.58	297.90
465.95	296.39
466.32	295.11
466.68	293.85
467.05	292.58
467.42	291.38
467.78	290.10
468.15	288.91
468.52	287.99
468.88	286.78
469.25	285.71
469.62	284.85
469.98	283.92
470.35	283.06
470.72	282.24
471.08	281.38
471.45	280.57
471.82	279.80
472.18	278.98
472.55	278.36
472.92	277.64
473.28	277.03
473.65	276.41
474.02	275.81
474.38	275.30
474.75	274.85
475.11	274.37
475.48	274.01
475.85	273.64
476.21	273.27
476.58	273.01
476.94	272.74
477.31	272.48
477.67	272.18
478.04	271.94
478.41	271.79
478.77	271.72
479.14	271.58
479.50	271.49
479.87	271.53
480.23	271.54
480.60	271.52
480.96	271.53
481.33	271.71
481.69	271.88
482.06	272.02
482.42	272.17
482.79	272.36
483.15	272.61
483.52	272.99
483.88	273.28
484.25	273.64
484.61	274.07
484.98	274.49
485.34	275.08
485.71	275.69
486.07	276.32
486.44	276.87
486.80	277.58
487.17	278.36
487.53	279.14
487.90	280.00
488.26	280.97
488.62	282.01
488.99	283.01
489.35	284.05
489.72	285.21
490.08	286.44
490.44	287.73
490.81	289.09
491.17	290.51
491.54	292.09
491.90	293.64
492.26	295.32
492.63	297.16
492.99	299.00
493.36	301.00
493.72	303.14
494.08	305.39
494.45	307.76
494.81	310.26
495.17	312.85
495.54	315.58
495.90	318.42
496.26	321.38
496.63	324.50
496.99	327.81
497.35	331.27
497.72	334.87
498.08	338.59
498.44	342.45
498.80	346.60
499.17	350.88
499.53	355.37
499.89	360.04
500.26	364.81
500.62	369.76
500.98	375.01
501.34	380.38
501.71	386.01
502.07	391.81
502.43	397.74
502.79	403.90
503.16	410.35
503.52	417.00
503.88	423.76
504.24	430.79
504.60	438.05
504.97	445.65
505.33	453.49
505.69	461.77
506.05	470.08
506.41	478.48
506.78	487.16
507.14	496.21
507.50	505.48
507.86	515.18
508.22	525.01
508.59	534.89
508.95	545.12
509.31	555.59
509.67	566.42
510.03	577.45
510.39	588.85
510.75	600.39
511.12	612.20
511.48	624.35
511.84	636.70
512.20	649.14
512.56	662.03
512.92	675.10
513.28	688.28
513.64	701.76
514.00	715.48
514.37	729.46
514.73	743.51
515.09	757.55
515.45	771.84
515.81	786.56
516.17	801.59
516.53	816.94
516.89	832.35
517.25	847.63
517.61	863.28
517.97	878.80
518.33	894.46
518.69	910.46
519.05	926.76
519.41	943.26
519.77	960.25
520.13	977.00
520.49	993.86
520.85	1010.63
521.21	1027.74
521.57	1045.41
521.93	1062.68
522.29	1080.53
522.65	1098.41
523.01	1116.15
523.37	1133.68
523.73	1151.62
524.09	1169.36
524.45	1187.32
524.81	1205.80
525.17	1224.28
525.53	1243.04
525.89	1261.74
526.25	1280.43
526.61	1298.54
526.97	1317.01
527.33	1335.20
527.68	1353.54
528.04	1371.76
528.40	1390.32
528.76	1409.31
529.12	1427.91
529.48	1446.71
529.84	1464.74
530.20	1483.24
530.56	1502.25
530.91	1521.90
531.27	1540.67
531.63	1559.06
531.99	1577.65
532.35	1595.57
532.71	1613.55
533.07	1631.84
533.42	1649.81
533.78	1667.96
534.14	1686.45
534.50	1704.00
534.86	1722.05
535.21	1739.54
535.57	1757.75
535.93	1775.40
536.29	1792.19
536.65	1809.40
537.00	1826.39
537.36	1843.98
537.72	1860.68
538.08	1877.33
538.44	1893.22
538.79	1909.26
539.15	1924.93
539.51	1940.87
539.87	1957.56
540.22	1973.44
540.58	1989.47
540.94	2004.85
541.29	2019.89
541.65	2034.75
542.01	2050.25
542.37	2064.84
542.72	2079.44
543.08	2093.55
543.44	2108.25
543.79	2121.91
544.15	2135.10
544.51	2149.00
544.87	2162.05
545.22	2175.34
545.58	2187.99
545.94	2199.93
546.29	2212.08
546.65	2224.49
547.01	2236.17
547.36	2247.00
547.72	2257.74
548.07	2267.82
548.43	2278.25
548.79	2288.39
549.14	2298.20
549.50	2307.49
549.86	2317.18
550.21	2326.58
550.57	2335.78
550.92	2344.31
551.28	2353.36
551.64	2362.45
551.99	2370.83
552.35	2379.02
552.70	2387.03
553.06	2394.85
553.41	2403.11
553.77	2410.96
554.13	2418.84
554.48	2426.80
554.84	2434.26
555.19	2441.32
555.55	2448.25
555.90	2454.64
556.26	2461.41
556.61	2467.68
556.97	2473.94
557.32	2479.90
557.68	2485.75
558.03	2491.73
558.39	2496.91
558.74	2503.17
559.10	2508.84
559.45	2514.18
559.81	2520.07
560.16	2525.43
560.52	2530.14
560.87	2535.09
561.23	2539.18
561.58	2543.37
561.94	2547.29
562.29	2550.72
562.64	2554.92
563.00	2558.85
563.35	2563.59
563.71	2568.05
564.06	2572.73
564.42	2576.79
564.77	2580.53
565.12	2584.17
565.48	2587.30
565.83	2590.75
566.19	2593.46
566.54	2595.17
566.89	2597.42
567.25	2599.17
567.60	2601.53
567.96	2604.38
568.31	2606.17
568.66	2608.35
569.02	2609.98
569.37	2611.17
569.72	2613.10
570.08	2613.93
570.43	2614.87
570.78	2615.11
571.14	2614.00
571.49	2613.12
571.84	2613.42
572.20	2612.90
572.55	2612.25
572.90	2610.95
573.26	2609.87
573.61	2608.42
573.96	2607.27
574.31	2604.56
574.67	2601.59
575.02	2598.05
575.37	2594.93
575.72	2591.32
576.08	2587.86
576.43	2584.68
576.78	2581.16
577.13	2578.16
577.49	2575.00
577.84	2571.43
578.19	2567.68
578.54	2564.16
578.90	2559.97
579.25	2554.20
579.60	2549.09
579.95	2543.75
580.30	2538.47
580.66	2533.00
581.01	2527.72
581.36	2522.42
581.71	2518.03
582.06	2513.41
582.42	2508.80
582.77	2502.96
583.12	2498.12
583.47	2493.26
583.82	2487.93
584.17	2482.15
584.53	2476.02
584.88	2469.95
585.23	2463.86
585.58	2457.75
585.93	2451.77
586.28	2446.51
586.63	2440.96
586.98	2435.37
587.34	2430.34
587.69	2425.07
588.04	2419.42
588.39	2413.28
588.74	2405.99
589.09	2399.28
589.44	2391.83
589.79	2384.98
590.14	2378.73
590.49	2371.27
590.84	2364.17
591.19	2357.53
591.54	2350.39
591.89	2342.32
592.25	2334.80
592.60	2326.50
592.95	2318.06
593.30	2309.75
593.65	2301.13
594.00	2293.12
594.35	2284.61
594.70	2275.42
595.05	2267.45
595.40	2259.07
595.75	2250.40
596.10	2243.42
596.45	2235.64
596.80	2228.61
597.15	2221.20
597.50	2213.18
597.85	2205.79
598.19	2198.02
598.54	2189.84
598.89	2182.04
599.24	2175.16
599.59	2167.60
599.94	2160.47
600.29	2153.06
600.64	2145.52
600.99	2136.91
601.34	2129.02
601.69	2121.16
602.04	2113.32
602.39	2104.55
602.74	2096.58
603.08	2088.73
603.43	2080.90
603.78	2072.31
604.13	2063.86
604.48	2055.35
604.83	2047.26
605.18	2039.21
605.53	2030.05
605.87	2020.63
606.22	2012.22
606.57	2002.78
606.92	1993.85
607.27	1985.43
607.62	1977.45
607.96	1968.84
608.31	1961.19
608.66	1952.20
609.01	1943.33
609.36	1934.40
609.70	1925.00
610.05	1915.64
610.40	1906.55
610.75	1896.68
611.10	1887.70
611.44	1877.73
611.79	1868.23
612.14	1858.10
612.49	1847.27
612.83	1837.17
613.18	1827.57
613.53	1817.95
613.88	1807.98
614.22	1798.35
614.57	1788.12
614.92	1778.68
615.27	1769.79
615.61	1759.91
615.96	1750.42
616.31	1741.38
616.65	1732.59
617.00	1723.71
617.35	1714.59
617.70	1704.97
618.04	1695.01
618.39	1685.18
618.74	1676.22
619.08	1666.57
619.43	1657.51
619.78	1649.19
620.12	1640.98
620.47	1632.12
620.82	1622.50
621.16	1613.53
621.51	1604.60
621.85	1595.62
622.20	1585.55
622.55	1575.62
622.89	1566.33
623.24	1557.27
623.59	1548.45
623.93	1539.62
624.28	1531.11
624.62	1522.13
624.97	1513.59
625.32	1505.45
625.66	1497.23
626.01	1488.77
626.35	1480.10
626.70	1470.91
627.04	1461.91
627.39	1452.52
627.73	1443.81
628.08	1435.53
628.43	1427.13
628.77	1418.45
629.12	1409.52
629.46	1401.01
629.81	1392.12
630.15	1383.63
630.50	1374.94
630.84	1365.36
631.19	1356.03
631.53	1347.09
631.88	1338.16
632.22	1329.10
632.57	1320.59
632.91	1311.69
633.26	1302.99
633.60	1293.94
633.95	1285.58
634.29	1277.28
634.64	1269.56
634.98	1260.86
635.32	1252.55
635.67	1244.72
636.01	1236.97
636.36	1229.09
636.70	1221.37
637.05	1213.77
637.39	1206.16
637.73	1198.60
638.08	1191.68
638.42	1184.59
638.77	1177.06
639.11	1169.47
639.45	1161.96
639.80	1154.23
640.14	1146.87
640.49	1139.23
640.83	1132.00
641.17	1124.69
641.52	1117.31
641.86	1109.62
642.20	1102.77
642.55	1095.31
642.89	1087.76
643.23	1079.92
643.58	1073.21
643.92	1066.03
644.26	1059.05
644.61	1051.94
644.95	1044.93
645.29	1037.23
645.64	1029.41
645.98	1021.95
646.32	1015.06
646.66	1008.02
647.01	1001.11
647.35	994.31
647.69	987.43
648.04	980.94
648.38	974.25
648.72	967.37
649.06	960.43
649.41	953.48
649.75	946.61
650.09	939.70
650.43	933.07
650.78	925.85
651.12	918.93
651.46	912.24
651.80	905.66
652.14	899.36
652.49	893.13
652.83	887.05
653.17	880.55
653.51	873.96
653.85	867.75
654.20	861.36
654.54	854.44
654.88	847.80
655.22	841.05
655.56	834.47
655.90	828.04
656.25	821.95
656.59	815.80
656.93	809.85
657.27	803.90
657.61	797.57
657.95	791.63
658.29	785.74
658.64	779.63
658.98	773.43
659.32	767.11
659.66	761.15
660.00	755.07
660.34	749.30
660.68	743.59
661.02	737.76
661.36	732.22
661.70	726.99
662.05	721.94
662.39	716.89
662.73	711.66
663.07	706.55
663.41	701.33
663.75	696.26
664.09	691.01
664.43	685.91
664.77	681.23
665.11	676.31
665.45	671.47
665.79	666.75
666.13	661.96
666.47	657.24
666.81	652.37
667.15	647.64
667.49	643.13
667.83	638.71
668.17	634.11
668.51	629.46
668.85	624.77
669.19	620.28
669.53	615.90
669.87	611.46
670.21	607.20
670.55	603.01
670.89	598.90
671.23	594.97
671.57	590.89
671.91	586.75
672.25	582.66
672.58	578.64
672.92	574.62
673.26	570.98
673.60	567.32
673.94	563.68
674.28	560.25
674.62	556.85
674.96	553.28
675.30	549.91
675.64	546.57
675.97	543.32
676.31	540.03
676.65	536.63
676.99	533.46
677.33	530.12
677.67	526.85
678.01	523.39
678.34	519.93
678.68	516.60
679.02	513.34
679.36	510.16
679.70	507.03
680.04	503.92
680.37	500.59
680.71	497.32
681.05	494.34
681.39	491.22
681.73	488.10
682.06	485.22
682.40	482.29
682.74	479.27
683.08	476.29
683.42	473.22
683.75	470.24
684.09	467.26
684.43	464.45
684.77	461.62
685.10	458.86
685.44	456.14
685.78	453.45
686.12	450.75
686.45	448.08
686.79	445.40
687.13	442.79
687.46	440.27
687.80	437.72
688.14	435.09
688.48	432.65
688.81	430.07
689.15	427.51
689.49	425.00
689.82	422.58
690.16	420.18
690.50	417.93
690.83	415.68
691.17	413.35
691.51	411.07
691.84	408.87
692.18	406.64
692.52	404.34
692.85	402.09
693.19	399.99
693.52	397.83
693.86	395.73
694.20	393.64
694.53	391.54
694.87	389.40
695.21	387.29
695.54	385.13
695.88	383.08
696.21	381.06
696.55	379.10
696.88	377.15
697.22	375.17
697.56	373.27
697.89	371.32
698.23	369.44
698.56	367.57
698.90	365.76
699.23	363.88
699.57	362.11
699.90	360.27
700.24	358.44
700.58	356.69
700.91	354.89
701.25	353.24
701.58	351.63
701.92	350.05
702.25	348.48
702.59	346.96
702.92	345.40
703.26	343.88
703.59	342.37
703.93	340.95
704.26	339.59
704.60	338.11
704.93	336.67
705.26	335.24
705.60	333.84
705.93	332.47
706.27	331.23
706.60	329.96
706.94	328.74
707.27	327.40
707.61	326.16
707.94	324.97
708.27	323.68
708.61	322.42
708.94	321.24
709.28	320.10
709.61	319.00
709.94	317.93
710.28	316.73
710.61	315.56
710.95	314.31
711.28	313.24
711.61	312.09
711.95	311.01
712.28	309.92
712.61	308.81
712.95	307.76
713.28	306.71
713.61	305.69
713.95	304.64
714.28	303.70
714.61	302.71
714.95	301.74
715.28	300.79
715.61	299.77
715.95	298.78
716.28	297.77
716.61	296.80
716.95	295.85
717.28	294.97
717.61	294.11
717.94	293.26
718.28	292.30
718.61	291.50
718.94	290.71
719.27	289.96
719.61	289.22
719.94	288.41
720.27	287.58
720.60	286.82
720.94	286.09
721.27	285.38
721.60	284.69
721.93	284.00
722.27	283.31
722.60	282.69
722.93	282.03
723.26	281.40
723.59	280.70
723.93	280.04
724.26	279.41
724.59	278.77
724.92	278.16
725.25	277.61
725.59	277.02
725.92	276.41
726.25	275.80
726.58	275.22
726.91	274.67
727.24	274.15
727.57	273.59
727.91	273.03
728.24	272.56
728.57	271.98
728.90	271.49
729.23	270.93
729.56	270.43
729.89	269.88
730.22	269.36
730.55	268.84
730.89	268.34
731.22	267.84
731.55	267.35
731.88	266.85
732.21	266.33
732.54	265.79
732.87	265.33
733.20	264.89
733.53	264.40
733.86	263.92
734.19	263.46
734.52	263.00
734.85	262.62
735.18	262.06
735.51	261.68
735.84	261.21
736.17	260.83
736.50	260.34
736.83	260.10
737.16	259.73
737.49	259.34
737.82	258.87
738.15	258.49
738.48	258.08
738.81	257.70
739.14	257.31
739.47	256.96
739.80	256.57
740.13	256.18
740.46	255.80
740.79	255.45
741.12	255.07
741.45	254.70
741.78	254.28
742.11	253.99
742.44	253.59
742.77	253.28
743.10	252.92
743.43	252.58
743.75	252.08
744.08	251.86
744.41	251.54
744.74	251.25
745.07	250.92
745.40	250.65
745.73	250.37
746.06	250.03
746.39	249.70
746.71	249.37
747.04	249.05
747.37	248.76
747.70	248.46
748.03	248.18
748.36	247.92
748.68	247.62
749.01	247.33
749.34	247.07
749.67	246.79
750.00	246.52
750.33	246.34
750.65	246.14
750.98	245.74
751.31	245.45
751.64	245.20
751.97	244.98
752.29	244.71
752.62	244.43
752.95	244.20
753.28	243.96
753.60	243.74
753.93	243.51
754.26	243.26
754.59	243.00
754.91	242.77
755.24	242.54
755.57	242.34
755.90	242.12
756.22	241.89
756.55	241.65
756.88	241.41
757.20	241.14
757.53	240.88
757.86	240.69
758.19	240.53
758.51	240.36
758.84	240.12
759.17	239.92
759.49	239.73
759.82	239.62
760.15	239.46
760.47	239.29
760.80	239.11
761.13	238.98
761.45	238.82
761.78	238.67
762.11	238.52
762.43	238.35
762.76	238.18
763.08	238.05
763.41	237.89
763.74	237.75
764.06	237.58
764.39	237.41
764.71	237.27
765.04	237.11
765.37	236.95
765.69	236.82
766.02	236.67
766.34	236.51
766.67	236.32
767.00	236.19
767.32	236.10
767.65	236.03
767.97	235.91
768.30	235.79
768.62	235.63
768.95	235.50
769.27	235.39
769.60	235.29
769.92	235.13
770.25	235.02
770.57	234.92
770.90	234.80
771.22	234.69
771.55	234.54
771.87	234.43
772.20	234.30
772.52	234.27
772.85	234.28
773.17	234.16
773.50	234.02
773.82	233.90
774.15	233.75
774.47	233.57
774.80	233.46
775.12	233.35
775.45	233.23
775.77	233.12
776.09	233.04
776.42	232.96
776.74	232.90
777.07	232.78
777.39	232.64
777.72	232.53
778.04	232.49
778.36	232.39
778.69	232.35
779.01	232.30
779.33	232.16
779.66	231.97
779.98	231.91
780.31	231.86
780.63	231.81
780.95	231.77
781.28	231.74
781.60	231.63
781.92	231.57
782.25	231.52
782.57	231.44
782.89	231.34
783.22	231.26
783.54	231.19
783.86	231.16
784.19	231.13
784.51	231.16
784.83	231.07
785.16	231.01
785.48	230.93
785.80	230.86
786.12	230.79
786.45	230.75
