SpectraSuite Data File
++++++++++++++++++++++++++++++++++++
Date: Fri Feb 01 15:35:38 EST 2013
User: group
Dark Spectrum Present: No
Reference Spectrum Present: No
Number of Sampled Component Spectra: 1
Spectrometers: USB2E7196
Integration Time (usec): 35000 (USB2E7196)
Spectra Averaged: 100 (USB2E7196)
Boxcar Smoothing: 10 (USB2E7196)
Correct for Electrical Dark: No (USB2E7196)
Strobe/Lamp Enabled: No (USB2E7196)
Correct for Detector Non-linearity: No (USB2E7196)
Correct for Stray Light: No (USB2E7196)
Number of Pixels in Processed Spectrum: 2048
>>>>>Begin Processed Spectral Data<<<<<
339.09	0.00
339.48	214.89
339.86	216.44
340.24	218.35
340.63	218.86
341.01	221.88
341.39	222.02
341.78	223.55
342.16	224.29
342.54	224.79
342.93	213.28
343.31	224.08
343.69	224.63
344.07	225.11
344.46	225.48
344.84	225.89
345.22	226.16
345.60	226.41
345.99	226.58
346.37	226.71
346.75	226.82
347.13	226.90
347.52	226.97
347.90	227.07
348.28	227.09
348.66	227.14
349.05	227.12
349.43	227.18
349.81	227.22
350.19	227.30
350.57	227.37
350.96	227.48
351.34	227.55
351.72	227.62
352.10	227.70
352.48	227.78
352.87	227.82
353.25	227.86
353.63	227.93
354.01	227.98
354.39	228.07
354.77	228.15
355.15	228.27
355.54	228.33
355.92	228.36
356.30	228.42
356.68	228.55
357.06	228.59
357.44	228.60
357.82	228.68
358.20	228.73
358.58	228.76
358.97	228.82
359.35	228.86
359.73	228.95
360.11	229.00
360.49	229.08
360.87	229.13
361.25	229.20
361.63	229.25
362.01	229.33
362.39	229.34
362.77	229.37
363.15	229.39
363.53	229.43
363.91	229.46
364.29	229.49
364.67	229.38
365.05	229.42
365.43	229.48
365.81	229.52
366.19	229.54
366.57	229.57
366.95	229.55
367.33	229.53
367.71	229.51
368.09	229.50
368.47	229.46
368.85	229.43
369.23	229.42
369.61	229.38
369.99	229.38
370.37	229.38
370.75	229.36
371.13	229.25
371.51	229.20
371.89	229.16
372.27	229.11
372.65	229.06
373.03	228.99
373.41	228.92
373.78	228.83
374.16	228.75
374.54	228.66
374.92	228.57
375.30	228.54
375.68	228.42
376.06	228.36
376.44	228.29
376.82	228.24
377.19	228.13
377.57	228.09
377.95	227.95
378.33	227.86
378.71	227.74
379.09	227.70
379.47	227.61
379.84	227.52
380.22	227.43
380.60	227.35
380.98	227.32
381.36	227.22
381.73	227.15
382.11	227.09
382.49	227.04
382.87	226.97
383.25	226.89
383.62	226.96
384.00	226.87
384.38	226.82
384.76	226.77
385.13	226.75
385.51	226.69
385.89	226.64
386.27	226.57
386.64	226.54
387.02	226.48
387.40	226.46
387.78	226.41
388.15	226.41
388.53	226.33
388.91	226.24
389.29	226.21
389.66	226.18
390.04	226.14
390.42	226.14
390.79	226.17
391.17	226.14
391.55	226.05
391.92	226.08
392.30	226.11
392.68	226.08
393.05	226.06
393.43	226.06
393.81	226.10
394.18	226.12
394.56	226.14
394.94	226.20
395.31	226.22
395.69	226.32
396.06	226.33
396.44	226.42
396.82	226.49
397.19	226.61
397.57	226.66
397.95	226.71
398.32	226.73
398.70	226.75
399.07	226.85
399.45	226.90
399.82	226.97
400.20	227.00
400.58	227.07
400.95	227.13
401.33	227.23
401.70	227.39
402.08	227.50
402.45	227.62
402.83	227.74
403.20	227.85
403.58	227.95
403.95	228.10
404.33	228.24
404.71	228.39
405.08	228.56
405.46	228.72
405.83	228.90
406.21	229.04
406.58	229.23
406.96	229.39
407.33	229.59
407.70	229.79
408.08	230.08
408.45	230.32
408.83	230.60
409.20	230.81
409.58	230.96
409.95	231.22
410.33	231.50
410.70	231.75
411.08	232.06
411.45	232.38
411.82	232.67
412.20	233.04
412.57	233.41
412.95	233.71
413.32	234.13
413.69	234.53
414.07	234.97
414.44	235.45
414.82	235.95
415.19	236.48
415.56	237.01
415.94	237.55
416.31	238.20
416.68	238.80
417.06	239.51
417.43	240.24
417.81	241.00
418.18	241.75
418.55	242.59
418.93	243.44
419.30	244.32
419.67	245.27
420.04	246.19
420.42	247.23
420.79	248.40
421.16	249.53
421.54	250.74
421.91	251.96
422.28	253.21
422.66	254.56
423.03	255.88
423.40	257.25
423.77	258.67
424.15	260.07
424.52	261.57
424.89	263.17
425.26	264.69
425.64	266.14
426.01	267.75
426.38	269.41
426.75	271.07
427.13	272.79
427.50	274.58
427.87	276.47
428.24	278.30
428.61	280.04
428.99	282.00
429.36	284.13
429.73	286.21
430.10	288.22
430.47	290.23
430.85	292.31
431.22	294.52
431.59	296.94
431.96	299.16
432.33	301.63
432.70	304.02
433.08	306.83
433.45	309.50
433.82	312.11
434.19	315.03
434.56	317.84
434.93	320.51
435.30	323.14
435.68	326.02
436.05	328.88
436.42	331.65
436.79	334.15
437.16	336.80
437.53	339.60
437.90	342.43
438.27	345.16
438.64	348.01
439.01	350.61
439.38	352.82
439.75	355.02
440.13	357.49
440.50	359.82
440.87	361.65
441.24	363.58
441.61	365.75
441.98	367.19
442.35	369.02
442.72	370.85
443.09	372.62
443.46	373.62
443.83	374.22
444.20	374.75
444.57	375.56
444.94	375.86
445.31	376.26
445.68	376.61
446.05	376.67
446.42	376.27
446.79	375.86
447.16	375.41
447.53	375.11
447.90	373.98
448.27	372.81
448.64	371.25
449.01	370.08
449.37	368.12
449.74	366.27
450.11	364.05
450.48	361.60
450.85	359.10
451.22	356.93
451.59	354.89
451.96	352.98
452.33	350.39
452.70	348.06
453.07	345.17
453.43	342.27
453.80	339.55
454.17	336.88
454.54	334.31
454.91	331.58
455.28	328.88
455.65	326.37
456.02	323.95
456.38	321.77
456.75	319.09
457.12	316.83
457.49	314.57
457.86	312.34
458.23	310.49
458.59	308.45
458.96	306.38
459.33	304.53
459.70	302.63
460.07	301.13
460.43	299.32
460.80	297.73
461.17	296.28
461.54	294.77
461.91	293.37
462.27	291.94
462.64	290.68
463.01	289.36
463.38	288.05
463.74	286.64
464.11	285.49
464.48	284.51
464.85	283.40
465.21	282.52
465.58	281.60
465.95	280.50
466.32	279.59
466.68	278.67
467.05	277.77
467.42	276.90
467.78	275.96
468.15	275.12
468.52	274.43
468.88	273.58
469.25	272.79
469.62	272.14
469.98	271.45
470.35	270.79
470.72	270.17
471.08	269.52
471.45	269.02
471.82	268.48
472.18	267.88
472.55	267.42
472.92	266.89
473.28	266.41
473.65	265.97
474.02	265.51
474.38	265.14
474.75	264.82
475.11	264.49
475.48	264.23
475.85	263.99
476.21	263.74
476.58	263.55
476.94	263.43
477.31	263.28
477.67	263.15
478.04	263.06
478.41	263.00
478.77	263.07
479.14	262.96
479.50	262.96
479.87	263.01
480.23	263.09
480.60	263.16
480.96	263.29
481.33	263.49
481.69	263.71
482.06	263.91
482.42	264.10
482.79	264.36
483.15	264.68
483.52	265.06
483.88	265.44
484.25	265.83
484.61	266.23
484.98	266.68
485.34	267.23
485.71	267.81
486.07	268.44
486.44	269.01
486.80	269.72
487.17	270.44
487.53	271.26
487.90	272.13
488.26	273.08
488.62	274.03
488.99	275.01
489.35	276.03
489.72	277.17
490.08	278.37
490.44	279.57
490.81	280.90
491.17	282.25
491.54	283.72
491.90	285.27
492.26	286.92
492.63	288.62
492.99	290.41
493.36	292.31
493.72	294.31
494.08	296.41
494.45	298.66
494.81	301.02
495.17	303.45
495.54	306.02
495.90	308.73
496.26	311.55
496.63	314.49
496.99	317.61
497.35	320.85
497.72	324.26
498.08	327.81
498.44	331.48
498.80	335.41
499.17	339.44
499.53	343.61
499.89	348.00
500.26	352.54
500.62	357.19
500.98	362.14
501.34	367.23
501.71	372.53
502.07	378.00
502.43	383.61
502.79	389.46
503.16	395.53
503.52	401.78
503.88	408.17
504.24	414.84
504.60	421.76
504.97	428.89
505.33	436.23
505.69	443.92
506.05	451.73
506.41	459.60
506.78	467.75
507.14	476.19
507.50	484.87
507.86	493.84
508.22	503.03
508.59	512.27
508.95	521.88
509.31	531.74
509.67	541.82
510.03	552.14
510.39	562.71
510.75	573.49
511.12	584.40
511.48	595.69
511.84	607.11
512.20	618.61
512.56	630.55
512.92	642.72
513.28	655.04
513.64	667.54
514.00	680.31
514.37	693.30
514.73	706.43
515.09	719.50
515.45	732.81
515.81	746.38
516.17	760.36
516.53	774.44
516.89	788.56
517.25	802.74
517.61	817.20
517.97	831.67
518.33	846.08
518.69	860.87
519.05	875.83
519.41	891.03
519.77	906.66
520.13	922.08
520.49	937.54
520.85	953.00
521.21	968.71
521.57	984.95
521.93	1000.74
522.29	1017.11
522.65	1033.33
523.01	1049.55
523.37	1065.71
523.73	1081.96
524.09	1098.06
524.45	1114.51
524.81	1131.19
525.17	1148.04
525.53	1165.02
525.89	1181.97
526.25	1198.87
526.61	1215.31
526.97	1232.02
527.33	1248.44
527.68	1265.21
528.04	1281.68
528.40	1298.39
528.76	1315.43
529.12	1332.05
529.48	1348.88
529.84	1365.01
530.20	1381.68
530.56	1398.77
530.91	1416.18
531.27	1432.90
531.63	1449.47
531.99	1465.98
532.35	1481.92
532.71	1497.69
533.07	1514.02
533.42	1529.89
533.78	1545.85
534.14	1562.18
534.50	1577.61
534.86	1593.63
535.21	1608.76
535.57	1624.73
535.93	1640.14
536.29	1655.01
536.65	1670.09
537.00	1685.07
537.36	1700.41
537.72	1715.13
538.08	1729.62
538.44	1743.35
538.79	1757.35
539.15	1771.19
539.51	1785.03
539.87	1799.54
540.22	1813.45
540.58	1827.06
540.94	1840.39
541.29	1853.36
541.65	1866.14
542.01	1879.48
542.37	1891.73
542.72	1904.14
543.08	1915.87
543.44	1928.37
543.79	1939.60
544.15	1950.65
544.51	1962.06
544.87	1973.17
545.22	1983.97
545.58	1994.18
545.94	2003.94
546.29	2013.72
546.65	2023.41
547.01	2032.56
547.36	2041.21
547.72	2049.66
548.07	2057.57
548.43	2065.89
548.79	2073.97
549.14	2081.43
549.50	2088.71
549.86	2096.44
550.21	2103.77
550.57	2110.99
550.92	2117.42
551.28	2124.54
551.64	2131.61
551.99	2138.07
552.35	2143.96
552.70	2150.01
553.06	2156.04
553.41	2162.55
553.77	2168.55
554.13	2174.70
554.48	2180.94
554.84	2186.37
555.19	2191.74
555.55	2196.87
555.90	2201.27
556.26	2206.16
556.61	2211.05
556.97	2215.28
557.32	2219.34
557.68	2223.54
558.03	2227.84
558.39	2231.65
558.74	2236.26
559.10	2240.14
559.45	2244.00
559.81	2248.48
560.16	2252.33
560.52	2255.55
560.87	2258.83
561.23	2261.51
561.58	2264.35
561.94	2266.92
562.29	2269.28
562.64	2271.90
563.00	2274.60
563.35	2278.14
563.71	2281.28
564.06	2284.39
564.42	2287.28
564.77	2289.76
565.12	2292.00
565.48	2293.99
565.83	2295.84
566.19	2297.02
566.54	2298.05
566.89	2299.08
567.25	2299.49
567.60	2300.84
567.96	2302.33
568.31	2303.16
568.66	2304.36
569.02	2305.00
569.37	2305.19
569.72	2306.04
570.08	2306.17
570.43	2306.14
570.78	2305.49
571.14	2303.98
571.49	2302.61
571.84	2302.23
572.20	2301.13
572.55	2300.00
572.90	2298.29
573.26	2296.82
573.61	2295.18
573.96	2293.20
574.31	2290.17
574.67	2287.18
575.02	2283.48
575.37	2280.11
575.72	2276.27
576.08	2272.87
576.43	2269.43
576.78	2265.68
577.13	2262.51
577.49	2259.46
577.84	2255.88
578.19	2252.08
578.54	2248.29
578.90	2243.94
579.25	2238.34
579.60	2233.30
579.95	2228.40
580.30	2223.42
580.66	2218.26
581.01	2213.30
581.36	2208.34
581.71	2204.09
582.06	2199.48
582.42	2195.00
582.77	2189.77
583.12	2185.24
583.47	2180.38
583.82	2175.32
584.17	2169.98
584.53	2164.42
584.88	2158.58
585.23	2152.71
585.58	2147.25
585.93	2141.78
586.28	2136.96
586.63	2131.77
586.98	2126.69
587.34	2121.85
587.69	2116.75
588.04	2111.41
588.39	2105.61
588.74	2099.12
589.09	2093.00
589.44	2086.15
589.79	2080.16
590.14	2074.54
590.49	2067.87
590.84	2061.44
591.19	2055.48
591.54	2049.11
591.89	2041.61
592.25	2034.81
592.60	2027.51
592.95	2019.91
593.30	2012.45
593.65	2004.90
594.00	1997.93
594.35	1990.66
594.70	1982.55
595.05	1975.44
595.40	1968.12
595.75	1960.56
596.10	1954.33
596.45	1947.46
596.80	1941.35
597.15	1934.58
597.50	1927.28
597.85	1920.94
598.19	1914.24
598.54	1907.03
598.89	1900.38
599.24	1894.60
599.59	1887.72
599.94	1881.61
600.29	1875.16
600.64	1868.59
600.99	1861.06
601.34	1854.07
601.69	1847.08
602.04	1840.12
602.39	1832.74
602.74	1825.92
603.08	1819.25
603.43	1812.35
603.78	1805.19
604.13	1797.97
604.48	1790.51
604.83	1783.74
605.18	1776.54
605.53	1768.56
605.87	1760.46
606.22	1753.24
606.57	1745.22
606.92	1738.09
607.27	1730.71
607.62	1723.75
607.96	1716.35
608.31	1709.75
608.66	1702.15
609.01	1694.44
609.36	1687.00
609.70	1678.87
610.05	1670.68
610.40	1662.87
610.75	1654.57
611.10	1646.81
611.44	1638.45
611.79	1630.56
612.14	1621.79
612.49	1612.80
612.83	1604.35
613.18	1596.16
613.53	1587.95
613.88	1579.32
614.22	1570.97
614.57	1562.57
614.92	1554.53
615.27	1547.05
615.61	1538.66
615.96	1530.73
616.31	1523.18
616.65	1515.70
617.00	1508.10
617.35	1500.54
617.70	1492.12
618.04	1483.61
618.39	1475.36
618.74	1467.62
619.08	1459.33
619.43	1451.84
619.78	1444.81
620.12	1437.72
620.47	1430.24
620.82	1422.13
621.16	1414.81
621.51	1407.21
621.85	1399.49
622.20	1390.91
622.55	1382.49
622.89	1374.65
623.24	1367.07
623.59	1359.71
623.93	1352.26
624.28	1345.08
624.62	1337.57
624.97	1330.54
625.32	1323.84
625.66	1316.85
626.01	1309.63
626.35	1302.16
626.70	1294.38
627.04	1286.65
627.39	1278.80
627.73	1271.49
628.08	1264.47
628.43	1257.14
628.77	1249.71
629.12	1242.17
629.46	1235.03
629.81	1227.65
630.15	1220.35
630.50	1212.76
630.84	1204.51
631.19	1196.55
631.53	1189.12
631.88	1181.53
632.22	1173.89
632.57	1166.63
632.91	1158.98
633.26	1151.61
633.60	1144.30
633.95	1137.20
634.29	1130.18
634.64	1123.52
634.98	1116.06
635.32	1108.91
635.67	1102.26
636.01	1095.57
636.36	1088.81
636.70	1082.40
637.05	1075.85
637.39	1069.47
637.73	1063.02
638.08	1057.16
638.42	1051.16
638.77	1044.63
639.11	1038.00
639.45	1031.66
639.80	1024.92
640.14	1018.61
640.49	1012.12
640.83	1005.76
641.17	999.53
641.52	993.20
641.86	986.78
642.20	981.06
642.55	974.78
642.89	968.32
643.23	961.91
643.58	956.15
643.92	949.86
644.26	943.79
644.61	937.78
644.95	931.84
645.29	925.26
645.64	918.57
645.98	912.30
646.32	906.52
646.66	900.40
647.01	894.64
647.35	888.94
647.69	883.13
648.04	877.60
648.38	871.81
648.72	865.74
649.06	859.68
649.41	853.74
649.75	847.80
650.09	841.90
650.43	836.03
650.78	829.90
651.12	824.01
651.46	818.26
651.80	812.54
652.14	807.06
652.49	801.65
652.83	796.50
653.17	790.74
653.51	785.01
653.85	779.68
654.20	774.07
654.54	768.02
654.88	762.31
655.22	756.45
655.56	750.86
655.90	745.47
656.25	740.26
656.59	734.93
656.93	729.84
657.27	724.71
657.61	719.31
657.95	714.23
658.29	709.16
658.64	704.01
658.98	698.64
659.32	693.25
659.66	688.05
660.00	682.65
660.34	677.72
660.68	672.79
661.02	667.77
661.36	663.01
661.70	658.51
662.05	654.06
662.39	649.72
662.73	645.16
663.07	640.82
663.41	636.33
663.75	631.82
664.09	627.29
664.43	622.83
664.77	618.71
665.11	614.37
665.45	610.18
665.79	606.10
666.13	601.98
666.47	597.88
666.81	593.68
667.15	589.60
667.49	585.69
667.83	581.93
668.17	577.95
668.51	573.90
668.85	569.86
669.19	566.02
669.53	562.16
669.87	558.24
670.21	554.54
670.55	550.94
670.89	547.52
671.23	544.05
671.57	540.60
671.91	537.05
672.25	533.56
672.58	530.11
672.92	526.75
673.26	523.60
673.60	520.47
673.94	517.45
674.28	514.56
674.62	511.63
674.96	508.47
675.30	505.59
675.64	502.65
675.97	499.92
676.31	497.14
676.65	494.16
676.99	491.50
677.33	488.65
677.67	485.79
678.01	482.76
678.34	479.76
678.68	476.89
679.02	474.11
679.36	471.39
679.70	468.65
680.04	465.85
680.37	462.98
680.71	460.17
681.05	457.51
681.39	454.75
681.73	452.13
682.06	449.60
682.40	447.05
682.74	444.56
683.08	442.04
683.42	439.40
683.75	436.95
684.09	434.40
684.43	431.90
684.77	429.46
685.10	427.14
685.44	424.89
685.78	422.59
686.12	420.34
686.45	418.07
686.79	415.78
687.13	413.57
687.46	411.46
687.80	409.32
688.14	407.13
688.48	405.12
688.81	402.88
689.15	400.74
689.49	398.59
689.82	396.54
690.16	394.45
690.50	392.57
690.83	390.66
691.17	388.69
691.51	386.84
691.84	384.98
692.18	383.04
692.52	381.10
692.85	379.18
693.19	377.31
693.52	375.47
693.86	373.68
694.20	371.87
694.53	370.06
694.87	368.25
695.21	366.49
695.54	364.61
695.88	362.87
696.21	361.21
696.55	359.53
696.88	357.80
697.22	356.12
697.56	354.46
697.89	352.78
698.23	351.21
698.56	349.57
698.90	347.98
699.23	346.34
699.57	344.78
699.90	343.24
700.24	341.69
700.58	340.16
700.91	338.68
701.25	337.28
701.58	335.88
701.92	334.48
702.25	333.12
702.59	331.84
702.92	330.53
703.26	329.19
703.59	327.95
703.93	326.76
704.26	325.53
704.60	324.23
704.93	322.93
705.26	321.68
705.60	320.49
705.93	319.31
706.27	318.28
706.60	317.23
706.94	316.19
707.27	315.04
707.61	313.96
707.94	312.91
708.27	311.82
708.61	310.76
708.94	309.77
709.28	308.81
709.61	307.80
709.94	306.87
710.28	305.85
710.61	304.86
710.95	303.83
711.28	302.94
711.61	302.01
711.95	301.11
712.28	300.14
712.61	299.19
712.95	298.25
713.28	297.38
713.61	296.46
713.95	295.55
714.28	294.77
714.61	293.92
714.95	293.07
715.28	292.20
715.61	291.31
715.95	290.45
716.28	289.55
716.61	288.74
716.95	287.90
717.28	287.16
717.61	286.42
717.94	285.62
718.28	284.77
718.61	284.01
718.94	283.33
719.27	282.68
719.61	282.05
719.94	281.38
720.27	280.66
720.60	279.99
720.94	279.37
721.27	278.74
721.60	278.15
721.93	277.56
722.27	277.03
722.60	276.47
722.93	275.90
723.26	275.41
723.59	274.80
723.93	274.27
724.26	273.71
724.59	273.12
724.92	272.60
725.25	272.11
725.59	271.66
725.92	271.14
726.25	270.64
726.58	270.14
726.91	269.65
727.24	269.18
727.57	268.73
727.91	268.18
728.24	267.74
728.57	267.27
728.90	266.79
729.23	266.27
729.56	265.86
729.89	265.39
730.22	264.87
730.55	264.43
730.89	263.99
731.22	263.55
731.55	263.13
731.88	262.74
732.21	262.32
732.54	261.88
732.87	261.47
733.20	261.05
733.53	260.62
733.86	260.25
734.19	259.83
734.52	259.46
734.85	259.18
735.18	258.74
735.51	258.37
735.84	258.05
736.17	257.70
736.50	257.32
736.83	257.09
737.16	256.79
737.49	256.45
737.82	256.10
738.15	255.74
738.48	255.42
738.81	255.05
739.14	254.71
739.47	254.36
739.80	254.01
740.13	253.70
740.46	253.39
740.79	253.07
741.12	252.78
741.45	252.44
741.78	252.08
742.11	251.80
742.44	251.46
742.77	251.17
743.10	250.86
743.43	250.57
743.75	250.13
744.08	249.98
744.41	249.70
744.74	249.41
745.07	249.14
745.40	248.87
745.73	248.69
746.06	248.44
746.39	248.20
746.71	247.98
747.04	247.71
747.37	247.47
747.70	247.21
748.03	246.97
748.36	246.77
748.68	246.50
749.01	246.27
749.34	246.05
749.67	245.83
750.00	245.59
750.33	245.43
750.65	245.23
750.98	244.87
751.31	244.67
751.64	244.47
751.97	244.31
752.29	244.11
752.62	243.84
752.95	243.63
753.28	243.42
753.60	243.21
753.93	243.05
754.26	242.85
754.59	242.64
754.91	242.42
755.24	242.21
755.57	242.03
755.90	241.80
756.22	241.58
756.55	241.39
756.88	241.18
757.20	240.95
757.53	240.76
757.86	240.59
758.19	240.43
758.51	240.26
758.84	240.06
759.17	239.86
759.49	239.70
759.82	239.57
760.15	239.46
760.47	239.30
760.80	239.13
761.13	239.00
761.45	238.84
761.78	238.74
762.11	238.57
762.43	238.44
762.76	238.33
763.08	238.25
763.41	238.11
763.74	237.98
764.06	237.83
764.39	237.68
764.71	237.54
765.04	237.39
765.37	237.25
765.69	237.11
766.02	236.98
766.34	236.87
766.67	236.72
767.00	236.59
767.32	236.55
767.65	236.51
767.97	236.39
768.30	236.28
768.62	236.16
768.95	236.06
769.27	235.93
769.60	235.85
769.92	235.73
770.25	235.61
770.57	235.51
770.90	235.39
771.22	235.33
771.55	235.22
771.87	235.14
772.20	235.04
772.52	235.01
772.85	235.00
773.17	234.92
773.50	234.81
773.82	234.69
774.15	234.52
774.47	234.39
774.80	234.27
775.12	234.16
775.45	234.05
775.77	233.94
776.09	233.87
776.42	233.75
776.74	233.71
777.07	233.63
777.39	233.56
777.72	233.52
778.04	233.44
778.36	233.42
778.69	233.37
779.01	233.33
779.33	233.22
779.66	233.10
779.98	233.03
780.31	232.97
780.63	232.93
780.95	232.86
781.28	232.77
781.60	232.71
781.92	232.65
782.25	232.62
782.57	232.56
782.89	232.51
783.22	232.42
783.54	232.34
783.86	232.31
784.19	232.25
784.51	232.22
784.83	232.19
785.16	232.09
785.48	232.04
785.80	231.98
786.12	231.94
786.45	231.87
786.77	231.83
787.09	231.80
