SpectraSuite Data File
++++++++++++++++++++++++++++++++++++
Date: Fri Feb 01 16:50:16 EST 2013
User: group
Dark Spectrum Present: No
Reference Spectrum Present: No
Number of Sampled Component Spectra: 1
Spectrometers: USB2E7196
Integration Time (usec): 35000 (USB2E7196)
Spectra Averaged: 100 (USB2E7196)
Boxcar Smoothing: 10 (USB2E7196)
Correct for Electrical Dark: No (USB2E7196)
Strobe/Lamp Enabled: No (USB2E7196)
Correct for Detector Non-linearity: No (USB2E7196)
Correct for Stray Light: No (USB2E7196)
Number of Pixels in Processed Spectrum: 2048
>>>>>Begin Processed Spectral Data<<<<<
339.09	0.00
339.48	212.99
339.86	214.68
340.24	216.17
340.63	216.95
341.01	220.37
341.39	219.60
341.78	221.23
342.16	223.18
342.54	222.97
342.93	211.55
343.31	222.23
343.69	222.77
344.07	223.21
344.46	223.60
344.84	223.98
345.22	224.17
345.60	224.42
345.99	224.60
346.37	224.68
346.75	224.75
347.13	224.77
347.52	224.77
347.90	224.84
348.28	224.85
348.66	224.91
349.05	224.93
349.43	224.93
349.81	224.95
350.19	224.99
350.57	225.05
350.96	225.10
351.34	225.19
351.72	225.28
352.10	225.39
352.48	225.47
352.87	225.55
353.25	225.61
353.63	225.68
354.01	225.76
354.39	225.82
354.77	225.91
355.15	226.01
355.54	226.10
355.92	226.13
356.30	226.21
356.68	226.32
357.06	226.41
357.44	226.47
357.82	226.50
358.20	226.59
358.58	226.67
358.97	226.77
359.35	226.85
359.73	226.89
360.11	226.95
360.49	227.00
360.87	227.04
361.25	227.10
361.63	227.18
362.01	227.20
362.39	227.24
362.77	227.29
363.15	227.33
363.53	227.37
363.91	227.38
364.29	227.41
364.67	227.33
365.05	227.32
365.43	227.34
365.81	227.41
366.19	227.45
366.57	227.50
366.95	227.51
367.33	227.47
367.71	227.49
368.09	227.48
368.47	227.49
368.85	227.49
369.23	227.53
369.61	227.49
369.99	227.53
370.37	227.56
370.75	227.59
371.13	227.55
371.51	227.51
371.89	227.50
372.27	227.48
372.65	227.47
373.03	227.43
373.41	227.41
373.78	227.36
374.16	227.26
374.54	227.18
374.92	227.13
375.30	227.08
375.68	227.01
376.06	226.98
376.44	226.92
376.82	226.87
377.19	226.82
377.57	226.81
377.95	226.71
378.33	226.63
378.71	226.53
379.09	226.50
379.47	226.48
379.84	226.41
380.22	226.35
380.60	226.28
380.98	226.21
381.36	226.12
381.73	226.08
382.11	226.07
382.49	226.03
382.87	225.92
383.25	225.90
383.62	225.97
384.00	225.88
384.38	225.83
384.76	225.81
385.13	225.75
385.51	225.67
385.89	225.62
386.27	225.56
386.64	225.51
387.02	225.48
387.40	225.38
387.78	225.39
388.15	225.36
388.53	225.31
388.91	225.30
389.29	225.27
389.66	225.25
390.04	225.19
390.42	225.16
390.79	225.16
391.17	225.14
391.55	225.00
391.92	224.99
392.30	224.96
392.68	224.91
393.05	224.90
393.43	224.88
393.81	224.91
394.18	224.89
394.56	224.91
394.94	224.91
395.31	224.91
395.69	224.96
396.06	224.98
396.44	225.02
396.82	225.04
397.19	225.12
397.57	225.11
397.95	225.14
398.32	225.15
398.70	225.20
399.07	225.22
399.45	225.29
399.82	225.36
400.20	225.46
400.58	225.50
400.95	225.50
401.33	225.58
401.70	225.67
402.08	225.77
402.45	225.84
402.83	225.95
403.20	226.04
403.58	226.09
403.95	226.19
404.33	226.26
404.71	226.37
405.08	226.53
405.46	226.65
405.83	226.78
406.21	226.92
406.58	227.08
406.96	227.26
407.33	227.40
407.70	227.58
408.08	227.83
408.45	228.04
408.83	228.27
409.20	228.49
409.58	228.67
409.95	228.90
410.33	229.16
410.70	229.36
411.08	229.70
411.45	229.99
411.82	230.29
412.20	230.64
412.57	231.02
412.95	231.32
413.32	231.73
413.69	232.14
414.07	232.56
414.44	233.01
414.82	233.45
415.19	233.99
415.56	234.53
415.94	235.05
416.31	235.73
416.68	236.40
417.06	237.14
417.43	237.82
417.81	238.62
418.18	239.41
418.55	240.28
418.93	241.13
419.30	242.02
419.67	242.96
420.04	243.93
420.42	244.93
420.79	246.08
421.16	247.24
421.54	248.44
421.91	249.63
422.28	250.88
422.66	252.22
423.03	253.54
423.40	254.86
423.77	256.28
424.15	257.69
424.52	259.16
424.89	260.75
425.26	262.30
425.64	263.75
426.01	265.34
426.38	267.02
426.75	268.70
427.13	270.45
427.50	272.27
427.87	274.15
428.24	276.05
428.61	277.81
428.99	279.70
429.36	281.81
429.73	283.91
430.10	285.93
430.47	288.00
430.85	290.09
431.22	292.34
431.59	294.72
431.96	296.92
432.33	299.40
432.70	301.77
433.08	304.55
433.45	307.14
433.82	309.72
434.19	312.56
434.56	315.35
434.93	317.96
435.30	320.52
435.68	323.37
436.05	326.14
436.42	328.91
436.79	331.40
437.16	334.08
437.53	336.84
437.90	339.64
438.27	342.30
438.64	345.08
439.01	347.63
439.38	349.79
439.75	351.92
440.13	354.35
440.50	356.65
440.87	358.50
441.24	360.44
441.61	362.58
441.98	364.04
442.35	365.83
442.72	367.65
443.09	369.44
443.46	370.43
443.83	371.04
444.20	371.56
444.57	372.42
444.94	372.75
445.31	373.15
445.68	373.53
446.05	373.68
446.42	373.33
446.79	372.92
447.16	372.51
447.53	372.21
447.90	371.14
448.27	369.94
448.64	368.36
449.01	367.30
449.37	365.35
449.74	363.47
450.11	361.20
450.48	358.76
450.85	356.26
451.22	354.12
451.59	352.11
451.96	350.17
452.33	347.63
452.70	345.26
453.07	342.44
453.43	339.52
453.80	336.72
454.17	334.11
454.54	331.59
454.91	328.87
455.28	326.24
455.65	323.73
456.02	321.36
456.38	319.22
456.75	316.53
457.12	314.29
457.49	312.11
457.86	309.96
458.23	308.12
458.59	306.09
458.96	304.01
459.33	302.17
459.70	300.34
460.07	298.82
460.43	297.10
460.80	295.49
461.17	294.10
461.54	292.63
461.91	291.18
462.27	289.74
462.64	288.49
463.01	287.18
463.38	285.92
463.74	284.56
464.11	283.41
464.48	282.39
464.85	281.27
465.21	280.43
465.58	279.55
465.95	278.51
466.32	277.63
466.68	276.77
467.05	275.86
467.42	274.96
467.78	274.06
468.15	273.23
468.52	272.54
468.88	271.67
469.25	270.92
469.62	270.34
469.98	269.72
470.35	269.15
470.72	268.55
471.08	267.91
471.45	267.35
471.82	266.82
472.18	266.26
472.55	265.86
472.92	265.35
473.28	264.90
473.65	264.42
474.02	264.00
474.38	263.63
474.75	263.31
475.11	262.98
475.48	262.74
475.85	262.50
476.21	262.32
476.58	262.18
476.94	262.08
477.31	261.88
477.67	261.73
478.04	261.63
478.41	261.60
478.77	261.66
479.14	261.66
479.50	261.69
479.87	261.80
480.23	261.91
480.60	261.96
480.96	262.06
481.33	262.31
481.69	262.51
482.06	262.74
482.42	262.97
482.79	263.22
483.15	263.55
483.52	263.91
483.88	264.27
484.25	264.65
484.61	265.06
484.98	265.55
485.34	266.10
485.71	266.66
486.07	267.26
486.44	267.81
486.80	268.54
487.17	269.27
487.53	270.05
487.90	270.86
488.26	271.81
488.62	272.76
488.99	273.75
489.35	274.78
489.72	275.92
490.08	277.11
490.44	278.36
490.81	279.67
491.17	281.01
491.54	282.52
491.90	284.03
492.26	285.66
492.63	287.35
492.99	289.12
493.36	290.98
493.72	293.03
494.08	295.11
494.45	297.33
494.81	299.68
495.17	302.09
495.54	304.64
495.90	307.30
496.26	310.11
496.63	313.04
496.99	316.16
497.35	319.33
497.72	322.74
498.08	326.21
498.44	329.86
498.80	333.79
499.17	337.78
499.53	341.89
499.89	346.23
500.26	350.70
500.62	355.38
500.98	360.35
501.34	365.37
501.71	370.66
502.07	376.05
502.43	381.59
502.79	387.38
503.16	393.42
503.52	399.64
503.88	405.99
504.24	412.55
504.60	419.39
504.97	426.53
505.33	433.78
505.69	441.45
506.05	449.17
506.41	456.96
506.78	465.00
507.14	473.42
507.50	482.05
507.86	491.09
508.22	500.22
508.59	509.41
508.95	518.91
509.31	528.64
509.67	538.72
510.03	549.00
510.39	559.48
510.75	570.19
511.12	581.06
511.48	592.33
511.84	603.71
512.20	615.20
512.56	627.00
512.92	639.10
513.28	651.40
513.64	663.77
514.00	676.36
514.37	689.28
514.73	702.25
515.09	715.27
515.45	728.40
515.81	741.82
516.17	755.71
516.53	769.69
516.89	783.75
517.25	797.87
517.61	812.09
517.97	826.38
518.33	840.67
518.69	855.33
519.05	870.23
519.41	885.27
519.77	900.54
520.13	915.90
520.49	931.20
520.85	946.47
521.21	962.00
521.57	978.00
521.93	993.59
522.29	1009.77
522.65	1025.89
523.01	1041.80
523.37	1057.79
523.73	1073.64
524.09	1089.59
524.45	1105.67
524.81	1121.99
525.17	1138.61
525.53	1155.31
525.89	1172.04
526.25	1188.66
526.61	1204.73
526.97	1221.27
527.33	1237.54
527.68	1253.89
528.04	1270.10
528.40	1286.38
528.76	1303.24
529.12	1319.68
529.48	1336.42
529.84	1352.28
530.20	1368.65
530.56	1385.50
530.91	1402.57
531.27	1419.22
531.63	1435.55
531.99	1452.00
532.35	1467.88
532.71	1483.69
533.07	1499.85
533.42	1515.55
533.78	1531.40
534.14	1547.45
534.50	1562.55
534.86	1578.25
535.21	1593.22
535.57	1608.94
535.93	1624.18
536.29	1638.75
536.65	1653.58
537.00	1668.09
537.36	1683.14
537.72	1697.34
538.08	1711.70
538.44	1725.29
538.79	1738.98
539.15	1752.33
539.51	1765.82
539.87	1779.84
540.22	1793.24
540.58	1806.59
540.94	1819.62
541.29	1832.10
541.65	1844.57
542.01	1857.57
542.37	1869.72
542.72	1881.88
543.08	1893.46
543.44	1905.67
543.79	1916.82
544.15	1927.68
544.51	1939.02
544.87	1949.73
545.22	1960.38
545.58	1970.32
545.94	1979.95
546.29	1989.58
546.65	1999.37
547.01	2008.52
547.36	2017.09
547.72	2025.55
548.07	2033.53
548.43	2041.55
548.79	2049.55
549.14	2057.00
549.50	2064.31
549.86	2071.76
550.21	2079.06
550.57	2086.30
550.92	2092.82
551.28	2099.79
551.64	2106.82
551.99	2113.26
552.35	2119.46
552.70	2125.62
553.06	2131.62
553.41	2137.96
553.77	2143.98
554.13	2149.94
554.48	2156.01
554.84	2161.64
555.19	2166.76
555.55	2171.85
555.90	2176.43
556.26	2181.37
556.61	2186.12
556.97	2190.40
557.32	2194.73
557.68	2198.89
558.03	2202.99
558.39	2206.75
558.74	2211.45
559.10	2215.23
559.45	2218.98
559.81	2223.32
560.16	2227.28
560.52	2230.56
560.87	2234.03
561.23	2236.67
561.58	2239.50
561.94	2242.06
562.29	2244.38
562.64	2247.31
563.00	2249.99
563.35	2253.55
563.71	2256.80
564.06	2259.97
564.42	2263.01
564.77	2265.58
565.12	2268.08
565.48	2270.20
565.83	2272.20
566.19	2273.64
566.54	2274.64
566.89	2276.02
567.25	2276.71
567.60	2277.96
567.96	2279.84
568.31	2280.60
568.66	2281.92
569.02	2282.76
569.37	2283.21
569.72	2284.21
570.08	2284.47
570.43	2284.45
570.78	2284.00
571.14	2282.59
571.49	2281.41
571.84	2281.03
572.20	2280.10
572.55	2278.88
572.90	2277.27
573.26	2276.10
573.61	2274.31
573.96	2272.84
574.31	2269.83
574.67	2266.96
575.02	2263.42
575.37	2260.06
575.72	2256.62
576.08	2253.19
576.43	2249.88
576.78	2246.47
577.13	2243.39
577.49	2240.24
577.84	2237.03
578.19	2233.34
578.54	2229.94
578.90	2226.02
579.25	2220.76
579.60	2216.02
579.95	2211.38
580.30	2206.62
580.66	2201.53
581.01	2196.76
581.36	2192.02
581.71	2188.18
582.06	2184.04
582.42	2179.81
582.77	2174.80
583.12	2170.48
583.47	2166.20
583.82	2161.58
584.17	2156.50
584.53	2151.04
584.88	2145.56
585.23	2139.98
585.58	2134.76
585.93	2129.32
586.28	2124.55
586.63	2119.50
586.98	2114.39
587.34	2109.67
587.69	2104.87
588.04	2099.77
588.39	2094.17
588.74	2087.67
589.09	2081.53
589.44	2074.82
589.79	2068.78
590.14	2063.21
590.49	2056.60
590.84	2050.10
591.19	2044.11
591.54	2037.62
591.89	2030.62
592.25	2024.21
592.60	2017.01
592.95	2009.55
593.30	2002.34
593.65	1994.78
594.00	1987.87
594.35	1980.71
594.70	1972.78
595.05	1965.82
595.40	1958.57
595.75	1951.33
596.10	1945.36
596.45	1938.80
596.80	1932.77
597.15	1926.43
597.50	1919.60
597.85	1913.20
598.19	1906.82
598.54	1899.94
598.89	1893.49
599.24	1887.56
599.59	1880.99
599.94	1874.94
600.29	1868.74
600.64	1862.08
600.99	1854.90
601.34	1848.24
601.69	1841.36
602.04	1834.77
602.39	1827.48
602.74	1820.78
603.08	1814.16
603.43	1807.45
603.78	1800.17
604.13	1793.03
604.48	1786.00
604.83	1779.12
605.18	1772.40
605.53	1764.53
605.87	1756.57
606.22	1749.34
606.57	1741.36
606.92	1733.92
607.27	1726.86
607.62	1720.04
607.96	1713.02
608.31	1706.63
608.66	1699.23
609.01	1691.80
609.36	1684.21
609.70	1676.25
610.05	1668.31
610.40	1660.69
610.75	1652.49
611.10	1644.94
611.44	1636.41
611.79	1628.29
612.14	1619.68
612.49	1610.58
612.83	1602.12
613.18	1594.03
613.53	1586.01
613.88	1577.66
614.22	1569.40
614.57	1560.74
614.92	1552.74
615.27	1545.28
615.61	1536.88
615.96	1528.74
616.31	1521.11
616.65	1513.80
617.00	1506.35
617.35	1498.63
617.70	1490.31
618.04	1481.87
618.39	1473.54
618.74	1466.09
619.08	1457.74
619.43	1450.10
619.78	1443.08
620.12	1436.07
620.47	1428.50
620.82	1420.31
621.16	1412.85
621.51	1405.32
621.85	1397.72
622.20	1389.18
622.55	1380.71
622.89	1372.91
623.24	1365.26
623.59	1357.83
623.93	1350.21
624.28	1342.91
624.62	1335.51
624.97	1328.28
625.32	1321.52
625.66	1314.51
626.01	1307.39
626.35	1300.11
626.70	1292.39
627.04	1284.70
627.39	1276.81
627.73	1269.43
628.08	1262.60
628.43	1255.46
628.77	1248.12
629.12	1240.62
629.46	1233.56
629.81	1226.05
630.15	1218.78
630.50	1211.39
630.84	1203.30
631.19	1195.42
631.53	1187.80
631.88	1180.10
632.22	1172.54
632.57	1165.20
632.91	1157.68
633.26	1150.31
633.60	1142.84
633.95	1135.62
634.29	1128.58
634.64	1121.93
634.98	1114.63
635.32	1107.43
635.67	1100.60
636.01	1093.82
636.36	1087.00
636.70	1080.29
637.05	1073.90
637.39	1067.38
637.73	1060.99
638.08	1055.06
638.42	1049.15
638.77	1042.90
639.11	1036.49
639.45	1030.10
639.80	1023.44
640.14	1017.18
640.49	1010.64
640.83	1004.35
641.17	998.29
641.52	992.02
641.86	985.56
642.20	979.75
642.55	973.46
642.89	967.08
643.23	960.59
643.58	954.90
643.92	948.77
644.26	942.75
644.61	936.70
644.95	930.62
645.29	924.15
645.64	917.43
645.98	911.05
646.32	905.10
646.66	899.09
647.01	893.36
647.35	887.56
647.69	881.70
648.04	876.13
648.38	870.33
648.72	864.46
649.06	858.42
649.41	852.50
649.75	846.52
650.09	840.67
650.43	834.96
650.78	828.79
651.12	822.91
651.46	817.19
651.80	811.59
652.14	806.23
652.49	800.86
652.83	795.74
653.17	790.12
653.51	784.50
653.85	779.09
654.20	773.46
654.54	767.44
654.88	761.63
655.22	755.78
655.56	750.09
655.90	744.49
656.25	739.34
656.59	733.94
656.93	728.92
657.27	723.79
657.61	718.29
657.95	713.26
658.29	708.19
658.64	702.87
658.98	697.48
659.32	692.01
659.66	686.80
660.00	681.55
660.34	676.53
660.68	671.59
661.02	666.53
661.36	661.79
661.70	657.37
662.05	653.09
662.39	648.80
662.73	644.29
663.07	640.00
663.41	635.48
663.75	631.03
664.09	626.40
664.43	622.02
664.77	617.97
665.11	613.70
665.45	609.44
665.79	605.42
666.13	601.31
666.47	597.23
666.81	593.09
667.15	588.84
667.49	584.90
667.83	581.03
668.17	577.09
668.51	573.04
668.85	568.99
669.19	565.09
669.53	561.24
669.87	557.44
670.21	553.68
670.55	550.03
670.89	546.60
671.23	543.20
671.57	539.64
671.91	536.17
672.25	532.60
672.58	529.23
672.92	525.81
673.26	522.60
673.60	519.44
673.94	516.32
674.28	513.43
674.62	510.52
674.96	507.44
675.30	504.58
675.64	501.58
675.97	498.80
676.31	496.04
676.65	493.14
676.99	490.40
677.33	487.51
677.67	484.71
678.01	481.70
678.34	478.76
678.68	475.90
679.02	473.03
679.36	470.29
679.70	467.54
680.04	464.78
680.37	462.01
680.71	459.15
681.05	456.51
681.39	453.80
681.73	451.11
682.06	448.59
682.40	446.04
682.74	443.54
683.08	440.95
683.42	438.28
683.75	435.78
684.09	433.26
684.43	430.86
684.77	428.38
685.10	425.99
685.44	423.69
685.78	421.38
686.12	419.13
686.45	416.78
686.79	414.47
687.13	412.26
687.46	410.08
687.80	407.98
688.14	405.79
688.48	403.75
688.81	401.56
689.15	399.43
689.49	397.28
689.82	395.16
690.16	393.08
690.50	391.12
690.83	389.17
691.17	387.14
691.51	385.23
691.84	383.39
692.18	381.51
692.52	379.54
692.85	377.56
693.19	375.68
693.52	373.90
693.86	372.07
694.20	370.26
694.53	368.47
694.87	366.63
695.21	364.83
695.54	363.01
695.88	361.28
696.21	359.55
696.55	357.93
696.88	356.31
697.22	354.66
697.56	353.02
697.89	351.41
698.23	349.80
698.56	348.18
698.90	346.63
699.23	345.03
699.57	343.47
699.90	341.94
700.24	340.39
700.58	338.87
700.91	337.42
701.25	336.00
701.58	334.66
701.92	333.27
702.25	331.89
702.59	330.53
702.92	329.17
703.26	327.83
703.59	326.50
703.93	325.30
704.26	324.10
704.60	322.85
704.93	321.53
705.26	320.32
705.60	319.11
705.93	317.90
706.27	316.82
706.60	315.75
706.94	314.70
707.27	313.59
707.61	312.54
707.94	311.46
708.27	310.39
708.61	309.30
708.94	308.30
709.28	307.35
709.61	306.39
709.94	305.48
710.28	304.48
710.61	303.49
710.95	302.40
711.28	301.48
711.61	300.52
711.95	299.65
712.28	298.69
712.61	297.74
712.95	296.82
713.28	295.93
713.61	295.04
713.95	294.15
714.28	293.31
714.61	292.44
714.95	291.62
715.28	290.77
715.61	289.84
715.95	288.97
716.28	288.09
716.61	287.23
716.95	286.40
717.28	285.62
717.61	284.87
717.94	284.15
718.28	283.31
718.61	282.53
718.94	281.82
719.27	281.22
719.61	280.56
719.94	279.90
720.27	279.16
720.60	278.48
720.94	277.84
721.27	277.22
721.60	276.64
721.93	276.03
722.27	275.46
722.60	274.93
722.93	274.37
723.26	273.82
723.59	273.24
723.93	272.69
724.26	272.08
724.59	271.49
724.92	270.94
725.25	270.48
725.59	269.98
725.92	269.46
726.25	268.89
726.58	268.37
726.91	267.85
727.24	267.38
727.57	266.89
727.91	266.38
728.24	265.90
728.57	265.40
728.90	264.93
729.23	264.43
729.56	263.98
729.89	263.50
730.22	263.02
730.55	262.58
730.89	262.10
731.22	261.71
731.55	261.29
731.88	260.86
732.21	260.42
732.54	259.98
732.87	259.54
733.20	259.14
733.53	258.75
733.86	258.38
734.19	258.01
734.52	257.67
734.85	257.35
735.18	256.94
735.51	256.56
735.84	256.19
736.17	255.84
736.50	255.42
736.83	255.20
737.16	254.83
737.49	254.48
737.82	254.17
738.15	253.83
738.48	253.50
738.81	253.15
739.14	252.80
739.47	252.51
739.80	252.19
740.13	251.90
740.46	251.55
740.79	251.24
741.12	250.92
741.45	250.60
741.78	250.21
742.11	249.95
742.44	249.65
742.77	249.39
743.10	249.11
743.43	248.81
743.75	248.42
744.08	248.33
744.41	248.09
744.74	247.80
745.07	247.54
745.40	247.32
745.73	247.09
746.06	246.81
746.39	246.58
746.71	246.30
747.04	246.04
747.37	245.83
747.70	245.60
748.03	245.38
748.36	245.15
748.68	244.97
749.01	244.71
749.34	244.48
749.67	244.23
750.00	243.96
750.33	243.81
750.65	243.60
750.98	243.24
751.31	243.01
751.64	242.83
751.97	242.68
752.29	242.43
752.62	242.22
752.95	242.02
753.28	241.80
753.60	241.62
753.93	241.44
754.26	241.22
754.59	240.98
754.91	240.73
755.24	240.49
755.57	240.28
755.90	240.08
756.22	239.87
756.55	239.70
756.88	239.55
757.20	239.35
757.53	239.16
757.86	238.97
758.19	238.83
758.51	238.65
758.84	238.43
759.17	238.28
759.49	238.12
759.82	238.01
760.15	237.84
760.47	237.69
760.80	237.52
761.13	237.40
761.45	237.27
761.78	237.11
762.11	237.00
762.43	236.86
762.76	236.73
763.08	236.62
763.41	236.47
763.74	236.32
764.06	236.17
764.39	236.02
764.71	235.86
765.04	235.73
765.37	235.58
765.69	235.42
766.02	235.29
766.34	235.13
766.67	234.96
767.00	234.85
767.32	234.78
767.65	234.70
767.97	234.57
768.30	234.46
768.62	234.36
768.95	234.25
769.27	234.12
769.60	234.02
769.92	233.87
770.25	233.73
770.57	233.59
770.90	233.47
771.22	233.37
771.55	233.30
771.87	233.18
772.20	233.07
772.52	233.08
772.85	233.12
773.17	233.05
773.50	232.97
773.82	232.84
774.15	232.73
774.47	232.59
774.80	232.51
775.12	232.43
775.45	232.33
775.77	232.27
776.09	232.18
776.42	232.12
776.74	232.08
777.07	232.02
777.39	231.94
777.72	231.88
778.04	231.81
778.36	231.73
778.69	231.67
779.01	231.61
779.33	231.44
779.66	231.23
779.98	231.16
780.31	231.09
780.63	231.07
780.95	230.98
781.28	230.91
781.60	230.79
781.92	230.74
782.25	230.69
782.57	230.61
782.89	230.57
783.22	230.48
783.54	230.42
783.86	230.39
784.19	230.34
784.51	230.29
784.83	230.23
785.16	230.15
785.48	230.09
785.80	230.05
786.12	230.01
786.45	230.00
786.77	229.95
787.09	229.90
