SpectraSuite Data File
++++++++++++++++++++++++++++++++++++
Date: Fri Feb 01 16:31:14 EST 2013
User: group
Dark Spectrum Present: No
Reference Spectrum Present: No
Number of Sampled Component Spectra: 1
Spectrometers: USB2E7196
Integration Time (usec): 35000 (USB2E7196)
Spectra Averaged: 100 (USB2E7196)
Boxcar Smoothing: 10 (USB2E7196)
Correct for Electrical Dark: No (USB2E7196)
Strobe/Lamp Enabled: No (USB2E7196)
Correct for Detector Non-linearity: No (USB2E7196)
Correct for Stray Light: No (USB2E7196)
Number of Pixels in Processed Spectrum: 2048
>>>>>Begin Processed Spectral Data<<<<<
339.09	0.00
339.48	214.59
339.86	215.76
340.24	216.85
340.63	218.89
341.01	221.29
341.39	221.48
341.78	222.43
342.16	223.91
342.54	224.37
342.93	212.65
343.31	223.39
343.69	223.89
344.07	224.35
344.46	224.78
344.84	225.13
345.22	225.38
345.60	225.60
345.99	225.77
346.37	225.88
346.75	225.98
347.13	226.04
347.52	226.10
347.90	226.17
348.28	226.17
348.66	226.22
349.05	226.19
349.43	226.24
349.81	226.28
350.19	226.29
350.57	226.36
350.96	226.39
351.34	226.45
351.72	226.55
352.10	226.62
352.48	226.69
352.87	226.72
353.25	226.77
353.63	226.85
354.01	226.92
354.39	226.99
354.77	227.02
355.15	227.10
355.54	227.16
355.92	227.20
356.30	227.30
356.68	227.40
357.06	227.46
357.44	227.52
357.82	227.56
358.20	227.61
358.58	227.64
358.97	227.71
359.35	227.77
359.73	227.82
360.11	227.87
360.49	227.92
360.87	228.01
361.25	228.05
361.63	228.11
362.01	228.16
362.39	228.20
362.77	228.25
363.15	228.29
363.53	228.29
363.91	228.30
364.29	228.30
364.67	228.23
365.05	228.25
365.43	228.25
365.81	228.26
366.19	228.33
366.57	228.41
366.95	228.40
367.33	228.38
367.71	228.40
368.09	228.44
368.47	228.41
368.85	228.34
369.23	228.31
369.61	228.23
369.99	228.23
370.37	228.22
370.75	228.23
371.13	228.16
371.51	228.12
371.89	228.11
372.27	228.07
372.65	228.04
373.03	228.01
373.41	227.93
373.78	227.87
374.16	227.74
374.54	227.62
374.92	227.57
375.30	227.51
375.68	227.41
376.06	227.34
376.44	227.29
376.82	227.25
377.19	227.22
377.57	227.15
377.95	227.04
378.33	226.93
378.71	226.84
379.09	226.82
379.47	226.76
379.84	226.65
380.22	226.58
380.60	226.49
380.98	226.44
381.36	226.40
381.73	226.35
382.11	226.33
382.49	226.26
382.87	226.19
383.25	226.14
383.62	226.20
384.00	226.12
384.38	226.07
384.76	226.08
385.13	226.03
385.51	226.03
385.89	225.96
386.27	225.96
386.64	225.94
387.02	225.86
387.40	225.82
387.78	225.83
388.15	225.81
388.53	225.78
388.91	225.72
389.29	225.69
389.66	225.67
390.04	225.65
390.42	225.64
390.79	225.64
391.17	225.63
391.55	225.53
391.92	225.52
392.30	225.51
392.68	225.46
393.05	225.48
393.43	225.48
393.81	225.52
394.18	225.48
394.56	225.49
394.94	225.51
395.31	225.51
395.69	225.56
396.06	225.59
396.44	225.65
396.82	225.68
397.19	225.74
397.57	225.74
397.95	225.83
398.32	225.87
398.70	225.92
399.07	225.99
399.45	226.04
399.82	226.09
400.20	226.15
400.58	226.21
400.95	226.24
401.33	226.32
401.70	226.47
402.08	226.58
402.45	226.66
402.83	226.80
403.20	226.93
403.58	227.02
403.95	227.15
404.33	227.26
404.71	227.39
405.08	227.57
405.46	227.75
405.83	227.86
406.21	228.00
406.58	228.14
406.96	228.31
407.33	228.49
407.70	228.69
408.08	228.97
408.45	229.19
408.83	229.42
409.20	229.62
409.58	229.74
409.95	230.01
410.33	230.30
410.70	230.51
411.08	230.78
411.45	231.09
411.82	231.39
412.20	231.70
412.57	232.09
412.95	232.37
413.32	232.75
413.69	233.15
414.07	233.61
414.44	234.10
414.82	234.56
415.19	235.10
415.56	235.66
415.94	236.21
416.31	236.83
416.68	237.43
417.06	238.16
417.43	238.88
417.81	239.63
418.18	240.38
418.55	241.22
418.93	242.09
419.30	242.93
419.67	243.87
420.04	244.87
420.42	245.86
420.79	247.04
421.16	248.18
421.54	249.37
421.91	250.57
422.28	251.81
422.66	253.13
423.03	254.42
423.40	255.72
423.77	257.09
424.15	258.48
424.52	259.94
424.89	261.55
425.26	263.08
425.64	264.52
426.01	266.13
426.38	267.79
426.75	269.42
427.13	271.14
427.50	272.93
427.87	274.79
428.24	276.64
428.61	278.36
428.99	280.29
429.36	282.36
429.73	284.44
430.10	286.44
430.47	288.51
430.85	290.63
431.22	292.87
431.59	295.25
431.96	297.49
432.33	299.99
432.70	302.32
433.08	305.12
433.45	307.75
433.82	310.35
434.19	313.19
434.56	316.06
434.93	318.73
435.30	321.34
435.68	324.21
436.05	327.04
436.42	329.84
436.79	332.36
437.16	335.02
437.53	337.81
437.90	340.66
438.27	343.35
438.64	346.16
439.01	348.73
439.38	350.94
439.75	353.12
440.13	355.56
440.50	357.88
440.87	359.70
441.24	361.62
441.61	363.74
441.98	365.28
442.35	367.07
442.72	368.92
443.09	370.73
443.46	371.72
443.83	372.29
444.20	372.81
444.57	373.63
444.94	373.97
445.31	374.29
445.68	374.58
446.05	374.70
446.42	374.29
446.79	373.85
447.16	373.47
447.53	373.16
447.90	372.05
448.27	370.87
448.64	369.30
449.01	368.16
449.37	366.28
449.74	364.37
450.11	362.11
450.48	359.64
450.85	357.12
451.22	354.99
451.59	352.98
451.96	351.03
452.33	348.45
452.70	346.09
453.07	343.33
453.43	340.48
453.80	337.71
454.17	335.09
454.54	332.57
454.91	329.82
455.28	327.18
455.65	324.72
456.02	322.33
456.38	320.21
456.75	317.58
457.12	315.26
457.49	313.04
457.86	310.88
458.23	309.03
458.59	307.03
458.96	304.95
459.33	303.11
459.70	301.26
460.07	299.77
460.43	298.05
460.80	296.39
461.17	294.97
461.54	293.48
461.91	292.07
462.27	290.68
462.64	289.48
463.01	288.10
463.38	286.80
463.74	285.44
464.11	284.30
464.48	283.30
464.85	282.21
465.21	281.38
465.58	280.45
465.95	279.37
466.32	278.47
466.68	277.54
467.05	276.65
467.42	275.77
467.78	274.84
468.15	273.98
468.52	273.32
468.88	272.45
469.25	271.67
469.62	271.05
469.98	270.37
470.35	269.72
470.72	269.14
471.08	268.49
471.45	267.99
471.82	267.44
472.18	266.82
472.55	266.37
472.92	265.86
473.28	265.47
473.65	265.03
474.02	264.58
474.38	264.27
474.75	263.96
475.11	263.58
475.48	263.31
475.85	263.11
476.21	262.90
476.58	262.75
476.94	262.61
477.31	262.46
477.67	262.30
478.04	262.18
478.41	262.13
478.77	262.18
479.14	262.11
479.50	262.14
479.87	262.23
480.23	262.36
480.60	262.44
480.96	262.52
481.33	262.72
481.69	262.92
482.06	263.11
482.42	263.34
482.79	263.66
483.15	264.01
483.52	264.39
483.88	264.76
484.25	265.14
484.61	265.55
484.98	265.98
485.34	266.53
485.71	267.12
486.07	267.71
486.44	268.27
486.80	268.98
487.17	269.69
487.53	270.50
487.90	271.36
488.26	272.27
488.62	273.24
488.99	274.20
489.35	275.27
489.72	276.39
490.08	277.56
490.44	278.80
490.81	280.14
491.17	281.46
491.54	282.92
491.90	284.43
492.26	286.11
492.63	287.83
492.99	289.64
493.36	291.54
493.72	293.61
494.08	295.70
494.45	297.96
494.81	300.30
495.17	302.72
495.54	305.24
495.90	307.95
496.26	310.72
496.63	313.71
496.99	316.82
497.35	320.10
497.72	323.49
498.08	326.97
498.44	330.63
498.80	334.56
499.17	338.56
499.53	342.72
499.89	347.07
500.26	351.51
500.62	356.19
500.98	361.17
501.34	366.24
501.71	371.55
502.07	376.96
502.43	382.61
502.79	388.46
503.16	394.56
503.52	400.84
503.88	407.24
504.24	413.93
504.60	420.84
504.97	427.97
505.33	435.32
505.69	443.06
506.05	450.86
506.41	458.81
506.78	467.03
507.14	475.57
507.50	484.31
507.86	493.41
508.22	502.61
508.59	511.86
508.95	521.45
509.31	531.28
509.67	541.42
510.03	551.74
510.39	562.29
510.75	573.07
511.12	583.99
511.48	595.27
511.84	606.70
512.20	618.17
512.56	630.15
512.92	642.35
513.28	654.74
513.64	667.25
514.00	679.98
514.37	692.92
514.73	705.91
515.09	718.94
515.45	732.26
515.81	745.81
516.17	759.71
516.53	773.81
516.89	788.04
517.25	802.22
517.61	816.57
517.97	831.09
518.33	845.51
518.69	860.27
519.05	875.20
519.41	890.33
519.77	905.86
520.13	921.22
520.49	936.54
520.85	951.78
521.21	967.44
521.57	983.54
521.93	999.28
522.29	1015.68
522.65	1031.85
523.01	1048.04
523.37	1064.05
523.73	1080.18
524.09	1096.24
524.45	1112.41
524.81	1128.89
525.17	1145.64
525.53	1162.41
525.89	1179.26
526.25	1196.08
526.61	1212.58
526.97	1229.28
527.33	1245.75
527.68	1262.26
528.04	1278.74
528.40	1295.30
528.76	1312.15
529.12	1328.73
529.48	1345.45
529.84	1361.40
530.20	1378.02
530.56	1394.90
530.91	1412.22
531.27	1428.87
531.63	1445.21
531.99	1461.74
532.35	1477.64
532.71	1493.51
533.07	1509.65
533.42	1525.48
533.78	1541.41
534.14	1557.49
534.50	1572.67
534.86	1588.31
535.21	1603.34
535.57	1619.03
535.93	1634.51
536.29	1649.25
536.65	1664.01
537.00	1678.67
537.36	1693.78
537.72	1708.17
538.08	1722.43
538.44	1736.06
538.79	1749.95
539.15	1763.51
539.51	1777.02
539.87	1791.18
540.22	1804.81
540.58	1818.44
540.94	1831.61
541.29	1844.23
541.65	1856.70
542.01	1869.73
542.37	1882.00
542.72	1894.33
543.08	1906.07
543.44	1918.27
543.79	1929.49
544.15	1940.48
544.51	1952.05
544.87	1963.00
545.22	1973.61
545.58	1983.78
545.94	1993.40
546.29	2003.13
546.65	2012.87
547.01	2022.14
547.36	2030.85
547.72	2039.18
548.07	2047.09
548.43	2055.10
548.79	2063.25
549.14	2070.71
549.50	2077.99
549.86	2085.55
550.21	2092.90
550.57	2100.04
550.92	2106.53
551.28	2113.41
551.64	2120.47
551.99	2126.95
552.35	2133.02
552.70	2139.24
553.06	2145.01
553.41	2151.35
553.77	2157.38
554.13	2163.51
554.48	2169.73
554.84	2175.24
555.19	2180.55
555.55	2185.59
555.90	2190.08
556.26	2194.78
556.61	2199.54
556.97	2203.82
557.32	2208.08
557.68	2212.14
558.03	2216.40
558.39	2220.13
558.74	2224.81
559.10	2228.63
559.45	2232.21
559.81	2236.50
560.16	2240.40
560.52	2243.82
560.87	2247.27
561.23	2249.88
561.58	2252.89
561.94	2255.33
562.29	2257.62
562.64	2260.35
563.00	2262.88
563.35	2266.37
563.71	2269.62
564.06	2272.95
564.42	2275.99
564.77	2278.52
565.12	2280.90
565.48	2282.75
565.83	2284.76
566.19	2286.05
566.54	2286.96
566.89	2288.15
567.25	2288.80
567.60	2289.97
567.96	2291.63
568.31	2292.55
568.66	2293.69
569.02	2294.28
569.37	2294.72
569.72	2295.65
570.08	2295.74
570.43	2295.97
570.78	2295.53
571.14	2294.01
571.49	2292.68
571.84	2292.32
572.20	2291.24
572.55	2290.20
572.90	2288.80
573.26	2287.58
573.61	2286.02
573.96	2284.51
574.31	2281.62
574.67	2278.75
575.02	2275.29
575.37	2272.01
575.72	2268.24
576.08	2264.87
576.43	2261.58
576.78	2257.98
577.13	2254.94
577.49	2252.00
577.84	2248.32
578.19	2244.69
578.54	2241.11
578.90	2236.95
579.25	2231.55
579.60	2226.68
579.95	2221.74
580.30	2216.84
580.66	2211.45
581.01	2206.57
581.36	2201.59
581.71	2197.55
582.06	2193.05
582.42	2188.59
582.77	2183.48
583.12	2179.09
583.47	2174.50
583.82	2169.62
584.17	2164.41
584.53	2158.92
584.88	2153.29
585.23	2147.73
585.58	2142.27
585.93	2136.92
586.28	2132.18
586.63	2127.10
586.98	2122.07
587.34	2117.44
587.69	2112.47
588.04	2107.36
588.39	2101.76
588.74	2095.34
589.09	2089.22
589.44	2082.56
589.79	2076.72
590.14	2071.12
590.49	2064.56
590.84	2058.32
591.19	2052.32
591.54	2045.98
591.89	2038.63
592.25	2031.90
592.60	2024.81
592.95	2017.30
593.30	2009.99
593.65	2002.54
594.00	1995.68
594.35	1988.44
594.70	1980.55
595.05	1973.54
595.40	1966.36
595.75	1958.89
596.10	1952.86
596.45	1946.25
596.80	1940.22
597.15	1933.64
597.50	1926.58
597.85	1920.11
598.19	1913.55
598.54	1906.42
598.89	1899.76
599.24	1893.98
599.59	1887.28
599.94	1881.11
600.29	1874.82
600.64	1868.22
600.99	1860.74
601.34	1853.86
601.69	1846.88
602.04	1840.02
602.39	1832.64
602.74	1825.85
603.08	1819.13
603.43	1812.36
603.78	1804.99
604.13	1797.63
604.48	1790.33
604.83	1783.48
605.18	1776.64
605.53	1768.53
605.87	1760.64
606.22	1753.37
606.57	1745.49
606.92	1738.24
607.27	1731.07
607.62	1724.21
607.96	1717.06
608.31	1710.50
608.66	1702.91
609.01	1695.41
609.36	1687.74
609.70	1679.76
610.05	1671.73
610.40	1664.01
610.75	1655.68
611.10	1648.08
611.44	1639.76
611.79	1631.78
612.14	1623.05
612.49	1613.79
612.83	1605.53
613.18	1597.38
613.53	1589.26
613.88	1580.67
614.22	1572.38
614.57	1563.78
614.92	1555.72
615.27	1548.13
615.61	1539.85
615.96	1531.87
616.31	1524.28
616.65	1516.89
617.00	1509.35
617.35	1501.72
617.70	1493.47
618.04	1484.98
618.39	1476.66
618.74	1469.07
619.08	1460.88
619.43	1453.41
619.78	1446.57
620.12	1439.40
620.47	1431.96
620.82	1423.87
621.16	1416.58
621.51	1409.06
621.85	1401.42
622.20	1393.01
622.55	1384.59
622.89	1376.71
623.24	1368.96
623.59	1361.55
623.93	1354.03
624.28	1346.88
624.62	1339.19
624.97	1332.06
625.32	1325.28
625.66	1318.33
626.01	1311.12
626.35	1303.60
626.70	1295.83
627.04	1288.08
627.39	1280.22
627.73	1272.76
628.08	1265.81
628.43	1258.40
628.77	1250.95
629.12	1243.41
629.46	1236.15
629.81	1228.88
630.15	1221.56
630.50	1214.17
630.84	1205.96
631.19	1198.14
631.53	1190.47
631.88	1183.00
632.22	1175.25
632.57	1167.91
632.91	1160.30
633.26	1152.85
633.60	1145.36
633.95	1138.21
634.29	1131.21
634.64	1124.56
634.98	1117.11
635.32	1109.92
635.67	1103.30
636.01	1096.70
636.36	1089.91
636.70	1083.32
637.05	1076.61
637.39	1070.26
637.73	1063.76
638.08	1057.88
638.42	1051.86
638.77	1045.48
639.11	1038.91
639.45	1032.56
639.80	1025.93
640.14	1019.61
640.49	1013.12
640.83	1006.88
641.17	1000.62
641.52	994.18
641.86	987.79
642.20	981.95
642.55	975.65
642.89	969.13
643.23	962.54
643.58	956.76
643.92	950.65
644.26	944.55
644.61	938.46
644.95	932.44
645.29	925.82
645.64	919.05
645.98	912.70
646.32	906.78
646.66	900.75
647.01	894.93
647.35	889.21
647.69	883.41
648.04	877.88
648.38	872.09
648.72	866.15
649.06	860.02
649.41	854.14
649.75	848.17
650.09	842.29
650.43	836.51
650.78	830.38
651.12	824.44
651.46	818.79
651.80	813.05
652.14	807.67
652.49	802.37
652.83	797.23
653.17	791.53
653.51	785.90
653.85	780.53
654.20	774.93
654.54	768.83
654.88	763.06
655.22	757.21
655.56	751.56
655.90	746.13
656.25	740.91
656.59	735.51
656.93	730.44
657.27	725.27
657.61	719.87
657.95	714.74
658.29	709.59
658.64	704.29
658.98	698.99
659.32	693.52
659.66	688.31
660.00	682.94
660.34	678.00
660.68	673.07
661.02	668.02
661.36	663.27
661.70	658.83
662.05	654.46
662.39	650.07
662.73	645.56
663.07	641.19
663.41	636.65
663.75	632.10
664.09	627.54
664.43	623.16
664.77	619.00
665.11	614.72
665.45	610.54
665.79	606.54
666.13	602.41
666.47	598.31
666.81	594.12
667.15	590.05
667.49	586.18
667.83	582.31
668.17	578.35
668.51	574.24
668.85	570.22
669.19	566.42
669.53	562.58
669.87	558.71
670.21	554.95
670.55	551.38
670.89	548.00
671.23	544.62
671.57	541.07
671.91	537.52
672.25	534.03
672.58	530.57
672.92	527.11
673.26	523.90
673.60	520.72
673.94	517.60
674.28	514.68
674.62	511.68
674.96	508.57
675.30	505.69
675.64	502.82
675.97	499.99
676.31	497.05
676.65	494.16
676.99	491.46
677.33	488.65
677.67	485.79
678.01	482.80
678.34	479.81
678.68	476.94
679.02	474.18
679.36	471.44
679.70	468.70
680.04	465.95
680.37	463.10
680.71	460.31
681.05	457.66
681.39	454.96
681.73	452.32
682.06	449.81
682.40	447.24
682.74	444.72
683.08	442.20
683.42	439.61
683.75	437.08
684.09	434.55
684.43	432.09
684.77	429.66
685.10	427.32
685.44	424.97
685.78	422.70
686.12	420.41
686.45	418.08
686.79	415.77
687.13	413.54
687.46	411.35
687.80	409.23
688.14	407.00
688.48	404.89
688.81	402.62
689.15	400.45
689.49	398.36
689.82	396.24
690.16	394.11
690.50	392.18
690.83	390.25
691.17	388.24
691.51	386.30
691.84	384.42
692.18	382.48
692.52	380.51
692.85	378.54
693.19	376.67
693.52	374.85
693.86	373.04
694.20	371.24
694.53	369.45
694.87	367.58
695.21	365.85
695.54	364.03
695.88	362.32
696.21	360.55
696.55	358.86
696.88	357.17
697.22	355.51
697.56	353.83
697.89	352.16
698.23	350.54
698.56	348.92
698.90	347.34
699.23	345.67
699.57	344.12
699.90	342.61
700.24	341.09
700.58	339.55
700.91	338.05
701.25	336.64
701.58	335.26
701.92	333.89
702.25	332.49
702.59	331.12
702.92	329.79
703.26	328.53
703.59	327.18
703.93	326.01
704.26	324.76
704.60	323.49
704.93	322.23
705.26	320.97
705.60	319.78
705.93	318.61
706.27	317.57
706.60	316.51
706.94	315.37
707.27	314.17
707.61	313.09
707.94	312.05
708.27	310.94
708.61	309.88
708.94	308.89
709.28	307.92
709.61	306.91
709.94	305.99
710.28	304.97
710.61	303.99
710.95	302.86
711.28	301.98
711.61	301.00
711.95	300.05
712.28	299.09
712.61	298.11
712.95	297.18
713.28	296.30
713.61	295.40
713.95	294.58
714.28	293.79
714.61	292.93
714.95	292.06
715.28	291.21
715.61	290.33
715.95	289.44
716.28	288.56
716.61	287.76
716.95	286.92
717.28	286.16
717.61	285.41
717.94	284.70
718.28	283.86
718.61	283.17
718.94	282.50
719.27	281.84
719.61	281.20
719.94	280.58
720.27	279.85
720.60	279.16
720.94	278.50
721.27	277.86
721.60	277.31
721.93	276.72
722.27	276.16
722.60	275.62
722.93	275.06
723.26	274.56
723.59	273.99
723.93	273.44
724.26	272.90
724.59	272.39
724.92	271.91
725.25	271.44
725.59	270.89
725.92	270.39
726.25	269.92
726.58	269.40
726.91	268.89
727.24	268.45
727.57	268.02
727.91	267.54
728.24	267.10
728.57	266.60
728.90	266.15
729.23	265.68
729.56	265.25
729.89	264.78
730.22	264.22
730.55	263.77
730.89	263.33
731.22	262.90
731.55	262.44
731.88	261.97
732.21	261.53
732.54	261.16
732.87	260.71
733.20	260.28
733.53	259.89
733.86	259.50
734.19	259.10
734.52	258.73
734.85	258.42
735.18	257.97
735.51	257.61
735.84	257.23
736.17	256.91
736.50	256.48
736.83	256.25
737.16	255.98
737.49	255.66
737.82	255.29
738.15	254.92
738.48	254.60
738.81	254.27
739.14	253.96
739.47	253.59
739.80	253.26
740.13	252.95
740.46	252.64
740.79	252.30
741.12	251.98
741.45	251.67
741.78	251.31
742.11	251.06
742.44	250.73
742.77	250.42
743.10	250.07
743.43	249.77
743.75	249.39
744.08	249.25
744.41	248.94
744.74	248.70
745.07	248.44
745.40	248.17
745.73	247.95
746.06	247.68
746.39	247.40
746.71	247.18
747.04	246.88
747.37	246.63
747.70	246.38
748.03	246.11
748.36	245.80
748.68	245.52
749.01	245.26
749.34	245.02
749.67	244.83
750.00	244.59
750.33	244.46
750.65	244.24
750.98	243.87
751.31	243.68
751.64	243.47
751.97	243.29
752.29	243.04
752.62	242.75
752.95	242.53
753.28	242.32
753.60	242.08
753.93	241.93
754.26	241.70
754.59	241.47
754.91	241.28
755.24	241.12
755.57	240.97
755.90	240.78
756.22	240.60
756.55	240.38
756.88	240.21
757.20	239.95
757.53	239.77
757.86	239.61
758.19	239.43
758.51	239.25
758.84	239.04
759.17	238.90
759.49	238.77
759.82	238.64
760.15	238.56
760.47	238.42
760.80	238.25
761.13	238.14
761.45	238.03
761.78	237.87
762.11	237.73
762.43	237.57
762.76	237.41
763.08	237.31
763.41	237.19
763.74	237.06
764.06	236.91
764.39	236.81
764.71	236.68
765.04	236.56
765.37	236.42
765.69	236.26
766.02	236.14
766.34	236.01
766.67	235.86
767.00	235.70
767.32	235.66
767.65	235.62
767.97	235.50
768.30	235.39
768.62	235.31
768.95	235.21
769.27	235.12
769.60	235.02
769.92	234.88
770.25	234.76
770.57	234.64
770.90	234.56
771.22	234.42
771.55	234.35
771.87	234.25
772.20	234.18
772.52	234.19
772.85	234.20
773.17	234.11
773.50	234.01
773.82	233.93
774.15	233.74
774.47	233.59
774.80	233.49
775.12	233.39
775.45	233.31
775.77	233.24
776.09	233.15
776.42	233.10
776.74	233.05
777.07	232.96
777.39	232.88
777.72	232.81
778.04	232.72
778.36	232.62
778.69	232.53
779.01	232.47
779.33	232.32
779.66	232.14
779.98	232.07
780.31	232.03
780.63	231.97
780.95	231.98
781.28	231.90
781.60	231.84
781.92	231.75
782.25	231.69
782.57	231.60
782.89	231.57
783.22	231.49
783.54	231.42
783.86	231.37
784.19	231.29
784.51	231.25
784.83	231.19
785.16	231.10
785.48	231.05
785.80	231.01
786.12	230.98
786.45	230.94
786.77	230.88
787.09	230.81
