SpectraSuite Data File
++++++++++++++++++++++++++++++++++++
Date: Fri Feb 01 16:23:43 EST 2013
User: group
Dark Spectrum Present: No
Reference Spectrum Present: No
Number of Sampled Component Spectra: 1
Spectrometers: USB2E7196
Integration Time (usec): 35000 (USB2E7196)
Spectra Averaged: 100 (USB2E7196)
Boxcar Smoothing: 10 (USB2E7196)
Correct for Electrical Dark: No (USB2E7196)
Strobe/Lamp Enabled: No (USB2E7196)
Correct for Detector Non-linearity: No (USB2E7196)
Correct for Stray Light: No (USB2E7196)
Number of Pixels in Processed Spectrum: 2048
>>>>>Begin Processed Spectral Data<<<<<
339.09	0.00
339.48	214.02
339.86	215.25
340.24	216.30
340.63	218.54
341.01	220.68
341.39	220.15
341.78	222.01
342.16	223.03
342.54	223.81
342.93	212.13
343.31	222.86
343.69	223.40
344.07	223.84
344.46	224.30
344.84	224.67
345.22	224.91
345.60	225.16
345.99	225.37
346.37	225.56
346.75	225.67
347.13	225.77
347.52	225.83
347.90	225.90
348.28	225.95
348.66	226.00
349.05	226.06
349.43	226.10
349.81	226.20
350.19	226.23
350.57	226.29
350.96	226.36
351.34	226.44
351.72	226.53
352.10	226.66
352.48	226.71
352.87	226.78
353.25	226.85
353.63	226.96
354.01	227.01
354.39	227.04
354.77	227.11
355.15	227.19
355.54	227.27
355.92	227.35
356.30	227.41
356.68	227.54
357.06	227.58
357.44	227.65
357.82	227.71
358.20	227.83
358.58	227.86
358.97	227.93
359.35	228.00
359.73	228.09
360.11	228.13
360.49	228.17
360.87	228.20
361.25	228.29
361.63	228.36
362.01	228.42
362.39	228.47
362.77	228.52
363.15	228.55
363.53	228.58
363.91	228.61
364.29	228.63
364.67	228.56
365.05	228.59
365.43	228.61
365.81	228.61
366.19	228.66
366.57	228.73
366.95	228.71
367.33	228.70
367.71	228.67
368.09	228.68
368.47	228.69
368.85	228.70
369.23	228.67
369.61	228.61
369.99	228.63
370.37	228.63
370.75	228.64
371.13	228.58
371.51	228.57
371.89	228.51
372.27	228.50
372.65	228.45
373.03	228.42
373.41	228.38
373.78	228.32
374.16	228.20
374.54	228.09
374.92	228.02
375.30	227.94
375.68	227.87
376.06	227.80
376.44	227.69
376.82	227.60
377.19	227.53
377.57	227.49
377.95	227.38
378.33	227.25
378.71	227.11
379.09	227.07
379.47	226.97
379.84	226.87
380.22	226.77
380.60	226.70
380.98	226.59
381.36	226.51
381.73	226.42
382.11	226.39
382.49	226.32
382.87	226.28
383.25	226.23
383.62	226.27
384.00	226.17
384.38	226.16
384.76	226.13
385.13	226.10
385.51	226.05
385.89	225.97
386.27	225.96
386.64	225.91
387.02	225.84
387.40	225.83
387.78	225.84
388.15	225.80
388.53	225.75
388.91	225.71
389.29	225.68
389.66	225.68
390.04	225.64
390.42	225.65
390.79	225.62
391.17	225.60
391.55	225.47
391.92	225.49
392.30	225.50
392.68	225.46
393.05	225.47
393.43	225.46
393.81	225.48
394.18	225.46
394.56	225.51
394.94	225.54
395.31	225.55
395.69	225.54
396.06	225.58
396.44	225.63
396.82	225.66
397.19	225.74
397.57	225.76
397.95	225.84
398.32	225.86
398.70	225.94
399.07	226.01
399.45	226.06
399.82	226.12
400.20	226.19
400.58	226.28
400.95	226.32
401.33	226.42
401.70	226.54
402.08	226.63
402.45	226.72
402.83	226.83
403.20	226.94
403.58	227.05
403.95	227.19
404.33	227.30
404.71	227.40
405.08	227.55
405.46	227.70
405.83	227.80
406.21	227.96
406.58	228.11
406.96	228.27
407.33	228.46
407.70	228.69
408.08	228.94
408.45	229.15
408.83	229.35
409.20	229.56
409.58	229.75
409.95	230.01
410.33	230.27
410.70	230.50
411.08	230.80
411.45	231.11
411.82	231.41
412.20	231.75
412.57	232.17
412.95	232.46
413.32	232.85
413.69	233.24
414.07	233.65
414.44	234.08
414.82	234.53
415.19	235.08
415.56	235.60
415.94	236.14
416.31	236.78
416.68	237.39
417.06	238.12
417.43	238.83
417.81	239.60
418.18	240.37
418.55	241.21
418.93	242.06
419.30	242.92
419.67	243.89
420.04	244.87
420.42	245.86
420.79	247.04
421.16	248.18
421.54	249.38
421.91	250.59
422.28	251.88
422.66	253.22
423.03	254.53
423.40	255.83
423.77	257.21
424.15	258.62
424.52	260.12
424.89	261.72
425.26	263.24
425.64	264.71
426.01	266.30
426.38	267.96
426.75	269.61
427.13	271.35
427.50	273.12
427.87	274.99
428.24	276.86
428.61	278.62
428.99	280.56
429.36	282.65
429.73	284.74
430.10	286.73
430.47	288.80
430.85	290.91
431.22	293.18
431.59	295.53
431.96	297.78
432.33	300.24
432.70	302.63
433.08	305.40
433.45	308.02
433.82	310.61
434.19	313.43
434.56	316.24
434.93	318.88
435.30	321.48
435.68	324.30
436.05	327.13
436.42	329.90
436.79	332.46
437.16	335.16
437.53	338.01
437.90	340.82
438.27	343.51
438.64	346.30
439.01	348.87
439.38	351.12
439.75	353.30
440.13	355.78
440.50	358.03
440.87	359.85
441.24	361.78
441.61	363.92
441.98	365.45
442.35	367.25
442.72	369.10
443.09	370.88
443.46	371.92
443.83	372.49
444.20	373.02
444.57	373.78
444.94	374.08
445.31	374.37
445.68	374.74
446.05	374.82
446.42	374.45
446.79	374.04
447.16	373.58
447.53	373.24
447.90	372.10
448.27	370.98
448.64	369.43
449.01	368.32
449.37	366.36
449.74	364.46
450.11	362.22
450.48	359.74
450.85	357.21
451.22	355.06
451.59	353.04
451.96	351.09
452.33	348.55
452.70	346.15
453.07	343.26
453.43	340.38
453.80	337.60
454.17	334.94
454.54	332.39
454.91	329.71
455.28	327.05
455.65	324.59
456.02	322.13
456.38	320.00
456.75	317.32
457.12	315.11
457.49	312.92
457.86	310.75
458.23	308.92
458.59	306.90
458.96	304.82
459.33	302.99
459.70	301.08
460.07	299.57
460.43	297.87
460.80	296.32
461.17	294.88
461.54	293.42
461.91	291.99
462.27	290.56
462.64	289.30
463.01	287.93
463.38	286.64
463.74	285.30
464.11	284.09
464.48	283.06
464.85	281.97
465.21	281.11
465.58	280.22
465.95	279.15
466.32	278.23
466.68	277.35
467.05	276.45
467.42	275.59
467.78	274.65
468.15	273.79
468.52	273.14
468.88	272.28
469.25	271.48
469.62	270.89
469.98	270.22
470.35	269.60
470.72	269.01
471.08	268.35
471.45	267.83
471.82	267.34
472.18	266.75
472.55	266.32
472.92	265.80
473.28	265.33
473.65	264.88
474.02	264.47
474.38	264.12
474.75	263.83
475.11	263.50
475.48	263.26
475.85	263.05
476.21	262.78
476.58	262.63
476.94	262.55
477.31	262.36
477.67	262.23
478.04	262.16
478.41	262.13
478.77	262.21
479.14	262.15
479.50	262.14
479.87	262.24
480.23	262.29
480.60	262.40
480.96	262.48
481.33	262.70
481.69	262.91
482.06	263.10
482.42	263.33
482.79	263.62
483.15	263.97
483.52	264.35
483.88	264.72
484.25	265.13
484.61	265.55
484.98	266.01
485.34	266.60
485.71	267.17
486.07	267.78
486.44	268.33
486.80	269.07
487.17	269.84
487.53	270.70
487.90	271.57
488.26	272.50
488.62	273.53
488.99	274.51
489.35	275.57
489.72	276.73
490.08	277.95
490.44	279.19
490.81	280.47
491.17	281.82
491.54	283.33
491.90	284.85
492.26	286.48
492.63	288.27
492.99	290.06
493.36	291.98
493.72	293.98
494.08	296.08
494.45	298.33
494.81	300.70
495.17	303.08
495.54	305.66
495.90	308.32
496.26	311.13
496.63	314.10
496.99	317.17
497.35	320.39
497.72	323.75
498.08	327.30
498.44	331.01
498.80	334.95
499.17	338.99
499.53	343.17
499.89	347.58
500.26	352.06
500.62	356.70
500.98	361.68
501.34	366.76
501.71	372.11
502.07	377.55
502.43	383.15
502.79	388.95
503.16	394.98
503.52	401.28
503.88	407.71
504.24	414.33
504.60	421.28
504.97	428.45
505.33	435.74
505.69	443.42
506.05	451.17
506.41	459.10
506.78	467.28
507.14	475.70
507.50	484.36
507.86	493.39
508.22	502.55
508.59	511.76
508.95	521.45
509.31	531.21
509.67	541.35
510.03	551.66
510.39	562.20
510.75	572.97
511.12	583.88
511.48	595.14
511.84	606.61
512.20	618.07
512.56	629.98
512.92	642.23
513.28	654.57
513.64	667.07
514.00	679.73
514.37	692.61
514.73	705.78
515.09	718.69
515.45	731.86
515.81	745.40
516.17	759.39
516.53	773.40
516.89	787.55
517.25	801.66
517.61	816.03
517.97	830.48
518.33	844.91
518.69	859.71
519.05	874.62
519.41	889.73
519.77	905.27
520.13	920.72
520.49	936.06
520.85	951.44
521.21	967.14
521.57	983.29
521.93	999.04
522.29	1015.23
522.65	1031.56
523.01	1047.72
523.37	1063.90
523.73	1080.05
524.09	1096.07
524.45	1112.31
524.81	1128.87
525.17	1145.70
525.53	1162.57
525.89	1179.48
526.25	1196.21
526.61	1212.58
526.97	1229.22
527.33	1245.53
527.68	1262.02
528.04	1278.41
528.40	1294.84
528.76	1311.90
529.12	1328.49
529.48	1345.33
529.84	1361.35
530.20	1377.92
530.56	1394.94
530.91	1412.11
531.27	1428.71
531.63	1445.15
531.99	1461.74
532.35	1477.56
532.71	1493.36
533.07	1509.56
533.42	1525.25
533.78	1541.22
534.14	1557.32
534.50	1572.61
534.86	1588.38
535.21	1603.50
535.57	1619.43
535.93	1635.02
536.29	1649.68
536.65	1664.55
537.00	1679.13
537.36	1694.31
537.72	1708.83
538.08	1723.16
538.44	1736.78
538.79	1750.53
539.15	1764.26
539.51	1777.94
539.87	1792.21
540.22	1805.83
540.58	1819.38
540.94	1832.66
541.29	1845.46
541.65	1858.06
542.01	1871.19
542.37	1883.45
542.72	1895.75
543.08	1907.34
543.44	1919.54
543.79	1930.70
544.15	1941.55
544.51	1953.17
544.87	1964.15
545.22	1974.85
545.58	1985.01
545.94	1994.82
546.29	2004.73
546.65	2014.38
547.01	2023.49
547.36	2032.15
547.72	2040.64
548.07	2048.55
548.43	2056.72
548.79	2064.61
549.14	2072.23
549.50	2079.56
549.86	2087.25
550.21	2094.66
550.57	2101.73
550.92	2108.38
551.28	2115.44
551.64	2122.50
551.99	2129.05
552.35	2135.14
552.70	2141.29
553.06	2147.25
553.41	2153.65
553.77	2159.71
554.13	2165.73
554.48	2171.98
554.84	2177.44
555.19	2182.62
555.55	2187.76
555.90	2192.17
556.26	2197.13
556.61	2201.72
556.97	2205.95
557.32	2210.11
557.68	2214.08
558.03	2218.46
558.39	2222.09
558.74	2226.66
559.10	2230.67
559.45	2234.27
559.81	2238.46
560.16	2242.29
560.52	2245.63
560.87	2248.93
561.23	2251.49
561.58	2254.47
561.94	2256.96
562.29	2259.32
562.64	2262.04
563.00	2264.52
563.35	2267.97
563.71	2270.95
564.06	2274.21
564.42	2277.08
564.77	2279.51
565.12	2281.87
565.48	2283.67
565.83	2285.53
566.19	2286.78
566.54	2287.61
566.89	2288.74
567.25	2289.44
567.60	2290.67
567.96	2292.30
568.31	2293.33
568.66	2294.48
569.02	2295.00
569.37	2295.34
569.72	2296.30
570.08	2296.42
570.43	2296.59
570.78	2296.24
571.14	2294.84
571.49	2293.54
571.84	2293.26
572.20	2292.34
572.55	2291.36
572.90	2289.93
573.26	2288.60
573.61	2287.03
573.96	2285.40
574.31	2282.53
574.67	2279.66
575.02	2276.07
575.37	2272.65
575.72	2268.81
576.08	2265.55
576.43	2262.42
576.78	2258.65
577.13	2255.52
577.49	2252.52
577.84	2249.09
578.19	2245.33
578.54	2241.80
578.90	2237.77
579.25	2232.23
579.60	2227.18
579.95	2222.16
580.30	2217.29
580.66	2212.18
581.01	2207.34
581.36	2202.48
581.71	2198.37
582.06	2193.94
582.42	2189.68
582.77	2184.58
583.12	2180.09
583.47	2175.33
583.82	2170.34
584.17	2165.40
584.53	2159.91
584.88	2154.30
585.23	2148.64
585.58	2143.20
585.93	2137.88
586.28	2133.14
586.63	2128.27
586.98	2123.27
587.34	2118.69
587.69	2113.83
588.04	2108.57
588.39	2102.84
588.74	2096.39
589.09	2090.34
589.44	2083.49
589.79	2077.50
590.14	2071.96
590.49	2065.35
590.84	2059.12
591.19	2053.03
591.54	2046.53
591.89	2039.36
592.25	2032.58
592.60	2025.44
592.95	2017.92
593.30	2010.56
593.65	2002.96
594.00	1995.93
594.35	1988.71
594.70	1980.76
595.05	1973.57
595.40	1966.38
595.75	1958.95
596.10	1952.81
596.45	1945.96
596.80	1939.94
597.15	1933.30
597.50	1926.29
597.85	1919.91
598.19	1913.18
598.54	1906.22
598.89	1899.50
599.24	1893.52
599.59	1886.86
599.94	1880.63
600.29	1874.33
600.64	1867.78
600.99	1860.40
601.34	1853.68
601.69	1846.83
602.04	1839.94
602.39	1832.52
602.74	1825.69
603.08	1818.93
603.43	1812.21
603.78	1804.89
604.13	1797.63
604.48	1790.34
604.83	1783.54
605.18	1776.64
605.53	1768.73
605.87	1760.70
606.22	1753.53
606.57	1745.76
606.92	1738.41
607.27	1731.26
607.62	1724.36
607.96	1717.09
608.31	1710.52
608.66	1702.70
609.01	1695.22
609.36	1687.49
609.70	1679.52
610.05	1671.52
610.40	1663.91
610.75	1655.59
611.10	1647.97
611.44	1639.51
611.79	1631.49
612.14	1622.67
612.49	1613.47
612.83	1605.08
613.18	1596.96
613.53	1588.86
613.88	1580.16
614.22	1571.98
614.57	1563.32
614.92	1555.26
615.27	1547.76
615.61	1539.29
615.96	1531.47
616.31	1523.82
616.65	1516.59
617.00	1509.00
617.35	1501.32
617.70	1492.96
618.04	1484.40
618.39	1476.21
618.74	1468.71
619.08	1460.49
619.43	1453.02
619.78	1446.13
620.12	1439.05
620.47	1431.52
620.82	1423.38
621.16	1415.99
621.51	1408.36
621.85	1400.76
622.20	1392.27
622.55	1383.87
622.89	1376.14
623.24	1368.37
623.59	1360.86
623.93	1353.32
624.28	1346.22
624.62	1338.71
624.97	1331.61
625.32	1324.84
625.66	1317.78
626.01	1310.65
626.35	1303.20
626.70	1295.44
627.04	1287.71
627.39	1279.82
627.73	1272.47
628.08	1265.50
628.43	1258.29
628.77	1250.96
629.12	1243.45
629.46	1236.37
629.81	1228.94
630.15	1221.69
630.50	1214.35
630.84	1206.25
631.19	1198.46
631.53	1190.88
631.88	1183.31
632.22	1175.68
632.57	1168.47
632.91	1160.98
633.26	1153.48
633.60	1146.12
633.95	1138.98
634.29	1131.92
634.64	1125.27
634.98	1117.90
635.32	1110.83
635.67	1104.19
636.01	1097.51
636.36	1090.69
636.70	1084.08
637.05	1077.45
637.39	1070.93
637.73	1064.33
638.08	1058.43
638.42	1052.35
638.77	1045.93
639.11	1039.31
639.45	1032.96
639.80	1026.25
640.14	1019.76
640.49	1013.25
640.83	1006.86
641.17	1000.51
641.52	994.09
641.86	987.64
642.20	981.72
642.55	975.36
642.89	968.91
643.23	962.36
643.58	956.61
643.92	950.49
644.26	944.50
644.61	938.55
644.95	932.53
645.29	925.95
645.64	919.19
645.98	912.87
646.32	906.99
646.66	900.77
647.01	894.96
647.35	889.27
647.69	883.41
648.04	877.87
648.38	872.13
648.72	866.24
649.06	860.20
649.41	854.33
649.75	848.37
650.09	842.39
650.43	836.62
650.78	830.39
651.12	824.34
651.46	818.58
651.80	812.70
652.14	807.29
652.49	801.91
652.83	796.64
653.17	790.94
653.51	785.30
653.85	779.99
654.20	774.39
654.54	768.34
654.88	762.62
655.22	756.69
655.56	751.07
655.90	745.57
656.25	740.27
656.59	734.82
656.93	729.73
657.27	724.53
657.61	719.07
657.95	713.97
658.29	708.89
658.64	703.62
658.98	698.37
659.32	692.94
659.66	687.69
660.00	682.44
660.34	677.47
660.68	672.54
661.02	667.48
661.36	662.79
661.70	658.35
662.05	653.93
662.39	649.64
662.73	645.16
663.07	640.83
663.41	636.37
663.75	632.03
664.09	627.49
664.43	623.13
664.77	619.04
665.11	614.80
665.45	610.74
665.79	606.59
666.13	602.48
666.47	598.43
666.81	594.27
667.15	590.15
667.49	586.23
667.83	582.38
668.17	578.47
668.51	574.39
668.85	570.36
669.19	566.58
669.53	562.76
669.87	558.88
670.21	555.18
670.55	551.64
670.89	548.20
671.23	544.79
671.57	541.25
671.91	537.71
672.25	534.23
672.58	530.68
672.92	527.39
673.26	524.26
673.60	521.05
673.94	517.97
674.28	515.07
674.62	512.19
674.96	509.07
675.30	506.16
675.64	503.19
675.97	500.44
676.31	497.55
676.65	494.59
676.99	491.87
677.33	488.96
677.67	486.12
678.01	483.02
678.34	480.01
678.68	477.13
679.02	474.24
679.36	471.48
679.70	468.76
680.04	465.93
680.37	463.06
680.71	460.29
681.05	457.64
681.39	454.91
681.73	452.19
682.06	449.67
682.40	447.08
682.74	444.50
683.08	441.91
683.42	439.29
683.75	436.79
684.09	434.24
684.43	431.75
684.77	429.21
685.10	426.87
685.44	424.53
685.78	422.22
686.12	419.97
686.45	417.65
686.79	415.34
687.13	413.16
687.46	410.90
687.80	408.76
688.14	406.51
688.48	404.44
688.81	402.14
689.15	399.98
689.49	397.82
689.82	395.77
690.16	393.63
690.50	391.64
690.83	389.69
691.17	387.69
691.51	385.79
691.84	383.93
692.18	381.99
692.52	379.99
692.85	378.06
693.19	376.20
693.52	374.34
693.86	372.50
694.20	370.72
694.53	368.97
694.87	367.07
695.21	365.29
695.54	363.48
695.88	361.81
696.21	360.06
696.55	358.39
696.88	356.69
697.22	355.08
697.56	353.50
697.89	351.89
698.23	350.26
698.56	348.64
698.90	347.07
699.23	345.42
699.57	343.92
699.90	342.39
700.24	340.84
700.58	339.35
700.91	337.86
701.25	336.41
701.58	335.03
701.92	333.71
702.25	332.37
702.59	331.01
702.92	329.70
703.26	328.43
703.59	327.13
703.93	325.99
704.26	324.77
704.60	323.42
704.93	322.16
705.26	320.91
705.60	319.74
705.93	318.56
706.27	317.55
706.60	316.52
706.94	315.46
707.27	314.33
707.61	313.27
707.94	312.23
708.27	311.12
708.61	310.04
708.94	309.02
709.28	308.02
709.61	307.05
709.94	306.12
710.28	305.10
710.61	304.20
710.95	303.15
711.28	302.24
711.61	301.37
711.95	300.45
712.28	299.52
712.61	298.54
712.95	297.63
713.28	296.75
713.61	295.85
713.95	294.94
714.28	294.15
714.61	293.25
714.95	292.44
715.28	291.59
715.61	290.69
715.95	289.86
716.28	289.01
716.61	288.20
716.95	287.38
717.28	286.61
717.61	285.82
717.94	285.04
718.28	284.22
718.61	283.45
718.94	282.77
719.27	282.12
719.61	281.47
719.94	280.79
720.27	280.09
720.60	279.42
720.94	278.79
721.27	278.17
721.60	277.62
721.93	277.00
722.27	276.46
722.60	275.93
722.93	275.34
723.26	274.77
723.59	274.17
723.93	273.59
724.26	273.04
724.59	272.45
724.92	271.87
725.25	271.35
725.59	270.83
725.92	270.27
726.25	269.75
726.58	269.27
726.91	268.78
727.24	268.29
727.57	267.80
727.91	267.28
728.24	266.79
728.57	266.26
728.90	265.78
729.23	265.24
729.56	264.77
729.89	264.28
730.22	263.82
730.55	263.37
730.89	262.95
731.22	262.46
731.55	262.01
731.88	261.61
732.21	261.20
732.54	260.77
732.87	260.33
733.20	259.88
733.53	259.45
733.86	259.07
734.19	258.63
734.52	258.21
734.85	257.89
735.18	257.48
735.51	257.13
735.84	256.76
736.17	256.43
736.50	256.01
736.83	255.80
737.16	255.43
737.49	255.07
737.82	254.70
738.15	254.39
738.48	254.08
738.81	253.74
739.14	253.40
739.47	253.08
739.80	252.79
740.13	252.52
740.46	252.23
740.79	251.91
741.12	251.63
741.45	251.31
741.78	250.96
742.11	250.67
742.44	250.37
742.77	250.11
743.10	249.83
743.43	249.62
743.75	249.24
744.08	249.12
744.41	248.83
744.74	248.57
745.07	248.30
745.40	248.04
745.73	247.83
746.06	247.56
746.39	247.29
746.71	247.01
747.04	246.75
747.37	246.52
747.70	246.29
748.03	246.07
748.36	245.87
748.68	245.66
749.01	245.44
749.34	245.21
749.67	244.97
750.00	244.74
750.33	244.57
750.65	244.36
750.98	244.05
751.31	243.89
751.64	243.68
751.97	243.54
752.29	243.37
752.62	243.13
752.95	242.93
753.28	242.74
753.60	242.53
753.93	242.36
754.26	242.16
754.59	241.93
754.91	241.72
755.24	241.55
755.57	241.35
755.90	241.16
756.22	240.96
756.55	240.79
756.88	240.61
757.20	240.37
757.53	240.15
757.86	239.96
758.19	239.80
758.51	239.64
758.84	239.40
759.17	239.18
759.49	239.00
759.82	238.89
760.15	238.78
760.47	238.64
760.80	238.45
761.13	238.32
761.45	238.18
761.78	238.04
762.11	237.86
762.43	237.69
762.76	237.54
763.08	237.44
763.41	237.31
763.74	237.16
764.06	236.99
764.39	236.86
764.71	236.74
765.04	236.54
765.37	236.38
765.69	236.25
766.02	236.14
766.34	236.02
766.67	235.84
767.00	235.70
767.32	235.63
767.65	235.57
767.97	235.44
768.30	235.30
768.62	235.18
768.95	235.06
769.27	234.96
769.60	234.86
769.92	234.70
770.25	234.53
770.57	234.40
770.90	234.30
771.22	234.16
771.55	234.04
771.87	233.96
772.20	233.85
772.52	233.83
772.85	233.85
773.17	233.75
773.50	233.64
773.82	233.55
774.15	233.41
774.47	233.27
774.80	233.13
775.12	233.03
775.45	232.95
775.77	232.86
776.09	232.78
776.42	232.70
776.74	232.64
777.07	232.58
777.39	232.49
777.72	232.44
778.04	232.40
778.36	232.34
778.69	232.28
779.01	232.21
779.33	232.06
779.66	231.88
779.98	231.82
780.31	231.78
780.63	231.74
780.95	231.69
781.28	231.63
781.60	231.60
781.92	231.57
782.25	231.50
782.57	231.46
782.89	231.37
783.22	231.33
783.54	231.28
783.86	231.27
784.19	231.26
784.51	231.22
784.83	231.16
785.16	231.12
785.48	231.10
785.80	231.09
786.12	231.09
786.45	231.07
786.77	231.04
787.09	230.99
