SpectraSuite Data File
++++++++++++++++++++++++++++++++++++
Date: Fri Feb 01 17:08:10 EST 2013
User: group
Dark Spectrum Present: No
Reference Spectrum Present: No
Number of Sampled Component Spectra: 1
Spectrometers: USB2E7196
Integration Time (usec): 35000 (USB2E7196)
Spectra Averaged: 100 (USB2E7196)
Boxcar Smoothing: 10 (USB2E7196)
Correct for Electrical Dark: No (USB2E7196)
Strobe/Lamp Enabled: No (USB2E7196)
Correct for Detector Non-linearity: No (USB2E7196)
Correct for Stray Light: No (USB2E7196)
Number of Pixels in Processed Spectrum: 2048
>>>>>Begin Processed Spectral Data<<<<<
339.09	0.00
339.48	213.31
339.86	214.94
340.24	216.17
340.63	217.39
341.01	220.58
341.39	220.52
341.78	221.60
342.16	223.20
342.54	223.25
342.93	211.77
343.31	222.48
343.69	223.02
344.07	223.49
344.46	223.88
344.84	224.27
345.22	224.51
345.60	224.76
345.99	224.93
346.37	225.03
346.75	225.16
347.13	225.23
347.52	225.24
347.90	225.37
348.28	225.39
348.66	225.46
349.05	225.43
349.43	225.51
349.81	225.57
350.19	225.63
350.57	225.67
350.96	225.73
351.34	225.78
351.72	225.88
352.10	225.95
352.48	226.04
352.87	226.07
353.25	226.12
353.63	226.16
354.01	226.26
354.39	226.36
354.77	226.39
355.15	226.48
355.54	226.56
355.92	226.58
356.30	226.66
356.68	226.79
357.06	226.88
357.44	226.90
357.82	226.96
358.20	227.00
358.58	227.06
358.97	227.13
359.35	227.25
359.73	227.28
360.11	227.36
360.49	227.41
360.87	227.50
361.25	227.54
361.63	227.65
362.01	227.67
362.39	227.70
362.77	227.74
363.15	227.77
363.53	227.77
363.91	227.77
364.29	227.79
364.67	227.71
365.05	227.75
365.43	227.79
365.81	227.81
366.19	227.85
366.57	227.92
366.95	227.91
367.33	227.89
367.71	227.90
368.09	227.91
368.47	227.91
368.85	227.89
369.23	227.87
369.61	227.80
369.99	227.83
370.37	227.82
370.75	227.86
371.13	227.81
371.51	227.79
371.89	227.75
372.27	227.74
372.65	227.68
373.03	227.64
373.41	227.56
373.78	227.52
374.16	227.44
374.54	227.34
374.92	227.30
375.30	227.22
375.68	227.16
376.06	227.10
376.44	227.01
376.82	226.92
377.19	226.89
377.57	226.79
377.95	226.65
378.33	226.54
378.71	226.41
379.09	226.38
379.47	226.31
379.84	226.26
380.22	226.18
380.60	226.09
380.98	226.02
381.36	225.97
381.73	225.88
382.11	225.80
382.49	225.77
382.87	225.68
383.25	225.63
383.62	225.68
384.00	225.59
384.38	225.55
384.76	225.52
385.13	225.48
385.51	225.46
385.89	225.45
386.27	225.43
386.64	225.40
387.02	225.34
387.40	225.26
387.78	225.23
388.15	225.18
388.53	225.19
388.91	225.16
389.29	225.10
389.66	225.06
390.04	225.04
390.42	224.99
390.79	224.99
391.17	224.97
391.55	224.87
391.92	224.87
392.30	224.88
392.68	224.85
393.05	224.87
393.43	224.87
393.81	224.89
394.18	224.86
394.56	224.88
394.94	224.92
395.31	224.97
395.69	225.00
396.06	225.04
396.44	225.08
396.82	225.09
397.19	225.17
397.57	225.20
397.95	225.27
398.32	225.35
398.70	225.39
399.07	225.45
399.45	225.48
399.82	225.54
400.20	225.61
400.58	225.68
400.95	225.66
401.33	225.76
401.70	225.87
402.08	225.98
402.45	226.08
402.83	226.19
403.20	226.30
403.58	226.40
403.95	226.50
404.33	226.61
404.71	226.75
405.08	226.94
405.46	227.08
405.83	227.21
406.21	227.29
406.58	227.44
406.96	227.61
407.33	227.79
407.70	227.99
408.08	228.22
408.45	228.43
408.83	228.69
409.20	228.88
409.58	229.06
409.95	229.31
410.33	229.55
410.70	229.79
411.08	230.08
411.45	230.38
411.82	230.69
412.20	231.03
412.57	231.46
412.95	231.71
413.32	232.10
413.69	232.50
414.07	232.96
414.44	233.42
414.82	233.87
415.19	234.38
415.56	234.93
415.94	235.45
416.31	236.09
416.68	236.71
417.06	237.44
417.43	238.11
417.81	238.86
418.18	239.63
418.55	240.45
418.93	241.29
419.30	242.19
419.67	243.09
420.04	244.04
420.42	244.97
420.79	246.20
421.16	247.36
421.54	248.54
421.91	249.75
422.28	250.99
422.66	252.30
423.03	253.63
423.40	254.94
423.77	256.37
424.15	257.75
424.52	259.22
424.89	260.81
425.26	262.33
425.64	263.77
426.01	265.38
426.38	267.00
426.75	268.67
427.13	270.39
427.50	272.21
427.87	274.10
428.24	275.95
428.61	277.66
428.99	279.58
429.36	281.68
429.73	283.70
430.10	285.70
430.47	287.79
430.85	289.88
431.22	292.09
431.59	294.48
431.96	296.71
432.33	299.21
432.70	301.53
433.08	304.33
433.45	306.98
433.82	309.53
434.19	312.41
434.56	315.18
434.93	317.79
435.30	320.39
435.68	323.24
436.05	326.08
436.42	328.80
436.79	331.29
437.16	333.96
437.53	336.76
437.90	339.53
438.27	342.26
438.64	345.07
439.01	347.68
439.38	349.89
439.75	352.06
440.13	354.53
440.50	356.89
440.87	358.75
441.24	360.67
441.61	362.83
441.98	364.36
442.35	366.16
442.72	368.00
443.09	369.82
443.46	370.83
443.83	371.40
444.20	371.95
444.57	372.81
444.94	373.14
445.31	373.50
445.68	373.88
446.05	373.95
446.42	373.60
446.79	373.22
447.16	372.73
447.53	372.44
447.90	371.27
448.27	370.15
448.64	368.55
449.01	367.42
449.37	365.48
449.74	363.58
450.11	361.36
450.48	358.96
450.85	356.44
451.22	354.32
451.59	352.33
451.96	350.41
452.33	347.81
452.70	345.44
453.07	342.65
453.43	339.75
453.80	336.98
454.17	334.28
454.54	331.73
454.91	329.08
455.28	326.42
455.65	323.99
456.02	321.52
456.38	319.40
456.75	316.76
457.12	314.49
457.49	312.30
457.86	310.17
458.23	308.30
458.59	306.27
458.96	304.18
459.33	302.34
459.70	300.49
460.07	299.02
460.43	297.32
460.80	295.72
461.17	294.31
461.54	292.83
461.91	291.45
462.27	290.02
462.64	288.76
463.01	287.40
463.38	286.06
463.74	284.75
464.11	283.61
464.48	282.61
464.85	281.55
465.21	280.67
465.58	279.73
465.95	278.68
466.32	277.76
466.68	276.86
467.05	275.96
467.42	275.06
467.78	274.11
468.15	273.23
468.52	272.56
468.88	271.72
469.25	270.96
469.62	270.32
469.98	269.69
470.35	269.05
470.72	268.44
471.08	267.85
471.45	267.32
471.82	266.77
472.18	266.16
472.55	265.72
472.92	265.19
473.28	264.74
473.65	264.26
474.02	263.85
474.38	263.48
474.75	263.17
475.11	262.86
475.48	262.60
475.85	262.39
476.21	262.17
476.58	262.02
476.94	261.90
477.31	261.74
477.67	261.56
478.04	261.46
478.41	261.42
478.77	261.42
479.14	261.33
479.50	261.32
479.87	261.38
480.23	261.44
480.60	261.53
480.96	261.59
481.33	261.82
481.69	262.00
482.06	262.20
482.42	262.42
482.79	262.64
483.15	262.97
483.52	263.34
483.88	263.70
484.25	264.08
484.61	264.47
484.98	264.97
485.34	265.53
485.71	266.15
486.07	266.78
486.44	267.34
486.80	268.07
487.17	268.84
487.53	269.67
487.90	270.55
488.26	271.50
488.62	272.55
488.99	273.55
489.35	274.63
489.72	275.78
490.08	276.97
490.44	278.24
490.81	279.60
491.17	280.95
491.54	282.45
491.90	283.99
492.26	285.68
492.63	287.40
492.99	289.13
493.36	290.97
493.72	293.02
494.08	295.09
494.45	297.32
494.81	299.65
495.17	302.09
495.54	304.67
495.90	307.32
496.26	310.12
496.63	313.04
496.99	316.11
497.35	319.37
497.72	322.76
498.08	326.32
498.44	329.94
498.80	333.84
499.17	337.83
499.53	341.92
499.89	346.24
500.26	350.70
500.62	355.39
500.98	360.33
501.34	365.40
501.71	370.72
502.07	376.10
502.43	381.73
502.79	387.51
503.16	393.52
503.52	399.76
503.88	406.12
504.24	412.71
504.60	419.57
504.97	426.64
505.33	433.87
505.69	441.46
506.05	449.18
506.41	457.03
506.78	465.11
507.14	473.50
507.50	482.09
507.86	491.01
508.22	500.10
508.59	509.29
508.95	518.71
509.31	528.44
509.67	538.44
510.03	548.51
510.39	558.95
510.75	569.59
511.12	580.35
511.48	591.49
511.84	602.78
512.20	614.08
512.56	625.84
512.92	637.85
513.28	650.04
513.64	662.34
514.00	674.81
514.37	687.51
514.73	700.43
515.09	713.30
515.45	726.39
515.81	739.74
516.17	753.34
516.53	767.21
516.89	781.14
517.25	795.01
517.61	809.20
517.97	823.34
518.33	837.45
518.69	852.02
519.05	866.67
519.41	881.54
519.77	896.81
520.13	911.97
520.49	927.02
520.85	942.11
521.21	957.40
521.57	973.35
521.93	988.83
522.29	1004.76
522.65	1020.67
523.01	1036.50
523.37	1052.18
523.73	1068.13
524.09	1083.88
524.45	1099.75
524.81	1116.05
525.17	1132.49
525.53	1149.00
525.89	1165.46
526.25	1181.83
526.61	1197.86
526.97	1214.18
527.33	1230.29
527.68	1246.52
528.04	1262.64
528.40	1278.69
528.76	1295.38
529.12	1311.46
529.48	1327.90
529.84	1343.49
530.20	1359.67
530.56	1376.30
530.91	1393.26
531.27	1409.60
531.63	1425.73
531.99	1441.84
532.35	1457.39
532.71	1472.94
533.07	1488.84
533.42	1504.43
533.78	1520.12
534.14	1535.93
534.50	1550.94
534.86	1566.23
535.21	1580.96
535.57	1596.44
535.93	1611.66
536.29	1626.10
536.65	1640.71
537.00	1655.13
537.36	1670.18
537.72	1684.45
538.08	1698.46
538.44	1711.95
538.79	1725.57
539.15	1738.90
539.51	1752.44
539.87	1766.42
540.22	1779.76
540.58	1793.17
540.94	1806.18
541.29	1818.65
541.65	1831.09
542.01	1843.87
542.37	1856.05
542.72	1868.25
543.08	1879.82
543.44	1891.94
543.79	1902.98
544.15	1913.81
544.51	1925.28
544.87	1935.94
545.22	1946.45
545.58	1956.57
545.94	1966.12
546.29	1975.68
546.65	1985.31
547.01	1994.47
547.36	2003.08
547.72	2011.45
548.07	2019.15
548.43	2027.15
548.79	2035.05
549.14	2042.55
549.50	2049.77
549.86	2057.31
550.21	2064.48
550.57	2071.56
550.92	2078.08
551.28	2085.07
551.64	2092.11
551.99	2098.46
552.35	2104.66
552.70	2110.79
553.06	2116.67
553.41	2123.06
553.77	2129.02
554.13	2134.99
554.48	2140.98
554.84	2146.54
555.19	2151.65
555.55	2156.81
555.90	2161.36
556.26	2166.44
556.61	2171.04
556.97	2175.47
557.32	2179.63
557.68	2183.74
558.03	2188.11
558.39	2191.72
558.74	2196.35
559.10	2200.29
559.45	2204.07
559.81	2208.11
560.16	2211.89
560.52	2215.33
560.87	2218.70
561.23	2221.41
561.58	2224.39
561.94	2227.05
562.29	2229.28
562.64	2232.31
563.00	2235.02
563.35	2238.55
563.71	2241.65
564.06	2244.98
564.42	2248.00
564.77	2250.74
565.12	2253.45
565.48	2255.48
565.83	2257.65
566.19	2259.09
566.54	2260.00
566.89	2261.33
567.25	2262.36
567.60	2263.87
567.96	2265.62
568.31	2266.63
568.66	2268.08
569.02	2268.89
569.37	2269.38
569.72	2270.52
570.08	2270.85
570.43	2271.11
570.78	2270.86
571.14	2269.49
571.49	2268.34
571.84	2268.11
572.20	2267.07
572.55	2266.16
572.90	2264.74
573.26	2263.66
573.61	2262.15
573.96	2260.84
574.31	2258.10
574.67	2255.38
575.02	2252.02
575.37	2248.78
575.72	2245.26
576.08	2241.94
576.43	2238.75
576.78	2235.35
577.13	2232.39
577.49	2229.29
577.84	2226.07
578.19	2222.47
578.54	2219.21
578.90	2215.27
579.25	2210.05
579.60	2205.42
579.95	2200.50
580.30	2195.80
580.66	2190.71
581.01	2186.00
581.36	2181.29
581.71	2177.28
582.06	2173.08
582.42	2169.02
582.77	2164.09
583.12	2159.75
583.47	2155.31
583.82	2150.62
584.17	2145.58
584.53	2140.35
584.88	2135.14
585.23	2129.56
585.58	2124.28
585.93	2118.95
586.28	2114.43
586.63	2109.62
586.98	2104.78
587.34	2100.28
587.69	2095.51
588.04	2090.59
588.39	2085.20
588.74	2078.78
589.09	2072.82
589.44	2066.09
589.79	2060.14
590.14	2054.90
590.49	2048.50
590.84	2042.36
591.19	2036.52
591.54	2030.32
591.89	2023.33
592.25	2016.77
592.60	2009.82
592.95	2002.50
593.30	1995.33
593.65	1987.98
594.00	1981.12
594.35	1974.06
594.70	1966.30
595.05	1959.51
595.40	1952.35
595.75	1944.99
596.10	1939.12
596.45	1932.53
596.80	1926.68
597.15	1920.26
597.50	1913.25
597.85	1906.95
598.19	1900.53
598.54	1893.71
598.89	1887.17
599.24	1881.32
599.59	1874.95
599.94	1868.87
600.29	1862.79
600.64	1856.27
600.99	1848.94
601.34	1842.27
601.69	1835.35
602.04	1828.63
602.39	1821.32
602.74	1814.54
603.08	1807.96
603.43	1801.35
603.78	1794.16
604.13	1787.04
604.48	1779.90
604.83	1773.13
605.18	1766.45
605.53	1758.62
605.87	1750.77
606.22	1743.70
606.57	1735.88
606.92	1728.44
607.27	1721.52
607.62	1714.70
607.96	1707.80
608.31	1701.38
608.66	1693.95
609.01	1686.71
609.36	1679.24
609.70	1671.24
610.05	1663.40
610.40	1655.79
610.75	1647.65
611.10	1640.08
611.44	1631.75
611.79	1623.85
612.14	1615.34
612.49	1606.17
612.83	1597.84
613.18	1589.73
613.53	1581.76
613.88	1573.32
614.22	1565.13
614.57	1556.46
614.92	1548.43
615.27	1540.80
615.61	1532.56
615.96	1524.54
616.31	1516.88
616.65	1509.57
617.00	1502.14
617.35	1494.48
617.70	1486.28
618.04	1477.89
618.39	1469.65
618.74	1462.21
619.08	1453.88
619.43	1446.29
619.78	1439.44
620.12	1432.31
620.47	1424.90
620.82	1416.65
621.16	1409.13
621.51	1401.45
621.85	1393.90
622.20	1385.36
622.55	1377.07
622.89	1369.14
623.24	1361.48
623.59	1354.00
623.93	1346.47
624.28	1339.21
624.62	1331.76
624.97	1324.63
625.32	1317.75
625.66	1310.84
626.01	1303.75
626.35	1296.39
626.70	1288.62
627.04	1280.97
627.39	1273.24
627.73	1265.83
628.08	1259.04
628.43	1251.99
628.77	1244.76
629.12	1237.26
629.46	1230.28
629.81	1222.81
630.15	1215.64
630.50	1208.34
630.84	1200.34
631.19	1192.43
631.53	1184.98
631.88	1177.40
632.22	1169.75
632.57	1162.42
632.91	1154.98
633.26	1147.50
633.60	1140.11
633.95	1132.97
634.29	1125.86
634.64	1119.23
634.98	1111.96
635.32	1104.72
635.67	1098.07
636.01	1091.50
636.36	1084.81
636.70	1078.17
637.05	1071.73
637.39	1065.30
637.73	1058.71
638.08	1052.78
638.42	1046.78
638.77	1040.44
639.11	1034.02
639.45	1027.72
639.80	1021.17
640.14	1014.88
640.49	1008.34
640.83	1002.11
641.17	996.01
641.52	989.70
641.86	983.24
642.20	977.41
642.55	971.20
642.89	964.72
643.23	958.20
643.58	952.26
643.92	946.19
644.26	940.23
644.61	934.27
644.95	928.46
645.29	921.93
645.64	915.22
645.98	908.86
646.32	903.00
646.66	896.98
647.01	891.21
647.35	885.43
647.69	879.61
648.04	874.11
648.38	868.32
648.72	862.40
649.06	856.40
649.41	850.44
649.75	844.52
650.09	838.64
650.43	832.88
650.78	826.90
651.12	820.98
651.46	815.29
651.80	809.58
652.14	804.20
652.49	798.86
652.83	793.79
653.17	788.30
653.51	782.62
653.85	777.30
654.20	771.69
654.54	765.76
654.88	760.06
655.22	754.16
655.56	748.52
655.90	743.09
656.25	737.87
656.59	732.58
656.93	727.55
657.27	722.45
657.61	717.00
657.95	711.83
658.29	706.81
658.64	701.53
658.98	696.21
659.32	690.74
659.66	685.54
660.00	680.30
660.34	675.20
660.68	670.28
661.02	665.26
661.36	660.54
661.70	656.03
662.05	651.71
662.39	647.45
662.73	643.09
663.07	638.74
663.41	634.31
663.75	629.89
664.09	625.33
664.43	620.88
664.77	616.83
665.11	612.64
665.45	608.42
665.79	604.33
666.13	600.20
666.47	596.12
666.81	592.00
667.15	587.89
667.49	584.07
667.83	580.27
668.17	576.34
668.51	572.32
668.85	568.31
669.19	564.47
669.53	560.62
669.87	556.76
670.21	553.09
670.55	549.45
670.89	546.00
671.23	542.59
671.57	539.13
671.91	535.63
672.25	532.15
672.58	528.67
672.92	525.30
673.26	522.13
673.60	518.99
673.94	515.89
674.28	512.99
674.62	510.06
674.96	506.99
675.30	504.08
675.64	501.16
675.97	498.43
676.31	495.55
676.65	492.64
676.99	489.93
677.33	487.09
677.67	484.29
678.01	481.33
678.34	478.39
678.68	475.49
679.02	472.64
679.36	469.87
679.70	467.16
680.04	464.46
680.37	461.69
680.71	458.88
681.05	456.27
681.39	453.55
681.73	450.83
682.06	448.33
682.40	445.83
682.74	443.29
683.08	440.70
683.42	438.14
683.75	435.64
684.09	433.05
684.43	430.62
684.77	428.17
685.10	425.80
685.44	423.47
685.78	421.21
686.12	418.97
686.45	416.71
686.79	414.44
687.13	412.23
687.46	410.06
687.80	407.90
688.14	405.66
688.48	403.57
688.81	401.36
689.15	399.17
689.49	397.00
689.82	394.91
690.16	392.86
690.50	390.93
690.83	389.07
691.17	387.11
691.51	385.20
691.84	383.35
692.18	381.47
692.52	379.53
692.85	377.60
693.19	375.76
693.52	373.90
693.86	372.10
694.20	370.28
694.53	368.46
694.87	366.62
695.21	364.84
695.54	363.05
695.88	361.34
696.21	359.67
696.55	357.95
696.88	356.29
697.22	354.62
697.56	352.95
697.89	351.27
698.23	349.65
698.56	348.03
698.90	346.42
699.23	344.79
699.57	343.22
699.90	341.67
700.24	340.11
700.58	338.61
700.91	337.15
701.25	335.73
701.58	334.39
701.92	333.04
702.25	331.71
702.59	330.36
702.92	329.04
703.26	327.73
703.59	326.52
703.93	325.35
704.26	324.13
704.60	322.86
704.93	321.61
705.26	320.35
705.60	319.16
705.93	318.01
706.27	316.95
706.60	315.89
706.94	314.82
707.27	313.70
707.61	312.64
707.94	311.58
708.27	310.52
708.61	309.43
708.94	308.44
709.28	307.46
709.61	306.45
709.94	305.51
710.28	304.49
710.61	303.51
710.95	302.40
711.28	301.44
711.61	300.50
711.95	299.57
712.28	298.65
712.61	297.66
712.95	296.72
713.28	295.82
713.61	294.92
713.95	294.05
714.28	293.20
714.61	292.34
714.95	291.46
715.28	290.58
715.61	289.68
715.95	288.78
716.28	287.91
716.61	287.10
716.95	286.26
717.28	285.50
717.61	284.70
717.94	283.99
718.28	283.19
718.61	282.45
718.94	281.72
719.27	281.06
719.61	280.43
719.94	279.77
720.27	279.03
720.60	278.35
720.94	277.71
721.27	277.09
721.60	276.47
721.93	275.94
722.27	275.37
722.60	274.82
722.93	274.26
723.26	273.75
723.59	273.18
723.93	272.61
724.26	272.08
724.59	271.53
724.92	271.01
725.25	270.56
725.59	270.04
725.92	269.57
726.25	269.03
726.58	268.53
726.91	268.07
727.24	267.61
727.57	267.14
727.91	266.64
728.24	266.16
728.57	265.68
728.90	265.20
729.23	264.71
729.56	264.28
729.89	263.81
730.22	263.32
730.55	262.82
730.89	262.41
731.22	261.96
731.55	261.50
731.88	261.05
732.21	260.58
732.54	260.16
732.87	259.75
733.20	259.36
733.53	258.99
733.86	258.58
734.19	258.19
734.52	257.85
734.85	257.54
735.18	257.17
735.51	256.82
735.84	256.42
736.17	256.09
736.50	255.69
736.83	255.48
737.16	255.13
737.49	254.79
737.82	254.42
738.15	254.09
738.48	253.79
738.81	253.45
739.14	253.15
739.47	252.85
739.80	252.54
740.13	252.22
740.46	251.89
740.79	251.58
741.12	251.29
741.45	250.96
741.78	250.61
742.11	250.31
742.44	250.00
742.77	249.71
743.10	249.42
743.43	249.14
743.75	248.74
744.08	248.60
744.41	248.36
744.74	248.08
745.07	247.81
745.40	247.53
745.73	247.33
746.06	247.01
746.39	246.72
746.71	246.42
747.04	246.15
747.37	245.88
747.70	245.61
748.03	245.32
748.36	245.12
748.68	244.87
749.01	244.61
749.34	244.41
749.67	244.19
750.00	243.96
750.33	243.76
750.65	243.53
750.98	243.12
751.31	242.88
751.64	242.67
751.97	242.50
752.29	242.30
752.62	242.04
752.95	241.86
753.28	241.64
753.60	241.45
753.93	241.27
754.26	241.08
754.59	240.87
754.91	240.69
755.24	240.47
755.57	240.26
755.90	240.09
756.22	239.84
756.55	239.62
756.88	239.41
757.20	239.18
757.53	238.99
757.86	238.87
758.19	238.73
758.51	238.61
758.84	238.37
759.17	238.19
759.49	238.00
759.82	237.85
760.15	237.71
760.47	237.54
760.80	237.39
761.13	237.29
761.45	237.14
761.78	236.97
762.11	236.85
762.43	236.74
762.76	236.58
763.08	236.49
763.41	236.36
763.74	236.24
764.06	236.13
764.39	235.98
764.71	235.82
765.04	235.67
765.37	235.51
765.69	235.39
766.02	235.25
766.34	235.15
766.67	235.02
767.00	234.93
767.32	234.84
767.65	234.76
767.97	234.65
768.30	234.53
768.62	234.43
768.95	234.31
769.27	234.17
769.60	234.05
769.92	233.92
770.25	233.81
770.57	233.72
770.90	233.63
771.22	233.56
771.55	233.50
771.87	233.42
772.20	233.32
772.52	233.33
772.85	233.38
773.17	233.25
773.50	233.16
773.82	233.05
774.15	232.95
774.47	232.82
774.80	232.70
775.12	232.67
775.45	232.57
775.77	232.48
776.09	232.42
776.42	232.38
776.74	232.31
777.07	232.24
777.39	232.15
777.72	232.04
778.04	231.98
778.36	231.91
778.69	231.83
779.01	231.76
779.33	231.62
779.66	231.44
779.98	231.40
780.31	231.33
780.63	231.29
780.95	231.28
781.28	231.23
781.60	231.16
781.92	231.08
782.25	231.04
782.57	230.99
782.89	230.93
783.22	230.89
783.54	230.82
783.86	230.77
784.19	230.71
784.51	230.68
784.83	230.62
785.16	230.54
785.48	230.47
785.80	230.43
786.12	230.39
786.45	230.34
786.77	230.29
787.09	230.23
