SpectraSuite Data File
++++++++++++++++++++++++++++++++++++
Date: Fri Feb 01 15:32:18 EST 2013
User: group
Dark Spectrum Present: No
Reference Spectrum Present: No
Number of Sampled Component Spectra: 1
Spectrometers: USB2E7196
Integration Time (usec): 35000 (USB2E7196)
Spectra Averaged: 100 (USB2E7196)
Boxcar Smoothing: 10 (USB2E7196)
Correct for Electrical Dark: No (USB2E7196)
Strobe/Lamp Enabled: No (USB2E7196)
Correct for Detector Non-linearity: No (USB2E7196)
Correct for Stray Light: No (USB2E7196)
Number of Pixels in Processed Spectrum: 2048
>>>>>Begin Processed Spectral Data<<<<<
339.09	0.00
339.48	215.03
339.86	216.79
340.24	218.53
340.63	218.68
341.01	222.54
341.39	221.86
341.78	223.24
342.16	224.78
342.54	225.25
342.93	213.46
343.31	224.29
343.69	224.85
344.07	225.32
344.46	225.71
344.84	226.15
345.22	226.36
345.60	226.59
345.99	226.77
346.37	226.87
346.75	226.94
347.13	227.01
347.52	227.08
347.90	227.15
348.28	227.18
348.66	227.16
349.05	227.16
349.43	227.21
349.81	227.22
350.19	227.28
350.57	227.35
350.96	227.43
351.34	227.46
351.72	227.49
352.10	227.57
352.48	227.63
352.87	227.64
353.25	227.70
353.63	227.79
354.01	227.86
354.39	227.94
354.77	228.01
355.15	228.07
355.54	228.13
355.92	228.12
356.30	228.16
356.68	228.29
357.06	228.35
357.44	228.41
357.82	228.49
358.20	228.54
358.58	228.56
358.97	228.59
359.35	228.67
359.73	228.73
360.11	228.78
360.49	228.83
360.87	228.88
361.25	228.90
361.63	228.94
362.01	228.98
362.39	228.99
362.77	229.04
363.15	229.06
363.53	229.07
363.91	229.09
364.29	229.13
364.67	229.07
365.05	229.08
365.43	229.05
365.81	229.05
366.19	229.09
366.57	229.14
366.95	229.13
367.33	229.11
367.71	229.11
368.09	229.10
368.47	229.11
368.85	229.07
369.23	229.11
369.61	229.05
369.99	229.04
370.37	229.01
370.75	229.03
371.13	228.97
371.51	228.94
371.89	228.94
372.27	228.90
372.65	228.86
373.03	228.79
373.41	228.72
373.78	228.65
374.16	228.55
374.54	228.46
374.92	228.41
375.30	228.32
375.68	228.26
376.06	228.19
376.44	228.11
376.82	228.05
377.19	227.97
377.57	227.92
377.95	227.85
378.33	227.79
378.71	227.67
379.09	227.62
379.47	227.55
379.84	227.45
380.22	227.36
380.60	227.29
380.98	227.25
381.36	227.21
381.73	227.13
382.11	227.06
382.49	227.02
382.87	226.94
383.25	226.88
383.62	226.88
384.00	226.81
384.38	226.77
384.76	226.72
385.13	226.67
385.51	226.60
385.89	226.49
386.27	226.47
386.64	226.45
387.02	226.42
387.40	226.38
387.78	226.37
388.15	226.37
388.53	226.30
388.91	226.27
389.29	226.23
389.66	226.23
390.04	226.18
390.42	226.15
390.79	226.13
391.17	226.12
391.55	225.99
391.92	225.99
392.30	225.97
392.68	225.97
393.05	226.01
393.43	226.05
393.81	226.11
394.18	226.06
394.56	226.08
394.94	226.11
395.31	226.13
395.69	226.21
396.06	226.22
396.44	226.30
396.82	226.34
397.19	226.44
397.57	226.50
397.95	226.57
398.32	226.62
398.70	226.69
399.07	226.79
399.45	226.87
399.82	226.93
400.20	227.02
400.58	227.09
400.95	227.09
401.33	227.19
401.70	227.32
402.08	227.43
402.45	227.50
402.83	227.64
403.20	227.76
403.58	227.80
403.95	227.95
404.33	228.09
404.71	228.22
405.08	228.42
405.46	228.55
405.83	228.74
406.21	228.91
406.58	229.07
406.96	229.24
407.33	229.41
407.70	229.63
408.08	229.92
408.45	230.14
408.83	230.41
409.20	230.62
409.58	230.82
409.95	231.07
410.33	231.36
410.70	231.58
411.08	231.89
411.45	232.21
411.82	232.51
412.20	232.84
412.57	233.26
412.95	233.55
413.32	233.95
413.69	234.35
414.07	234.79
414.44	235.28
414.82	235.73
415.19	236.29
415.56	236.84
415.94	237.31
416.31	237.95
416.68	238.56
417.06	239.25
417.43	239.94
417.81	240.68
418.18	241.46
418.55	242.29
418.93	243.14
419.30	244.07
419.67	245.00
420.04	245.95
420.42	246.90
420.79	248.05
421.16	249.17
421.54	250.34
421.91	251.54
422.28	252.79
422.66	254.11
423.03	255.39
423.40	256.75
423.77	258.20
424.15	259.59
424.52	261.04
424.89	262.65
425.26	264.22
425.64	265.72
426.01	267.30
426.38	268.97
426.75	270.68
427.13	272.39
427.50	274.20
427.87	276.06
428.24	277.94
428.61	279.71
428.99	281.69
429.36	283.84
429.73	285.89
430.10	287.89
430.47	290.00
430.85	292.13
431.22	294.38
431.59	296.78
431.96	299.05
432.33	301.57
432.70	303.97
433.08	306.79
433.45	309.43
433.82	312.06
434.19	314.93
434.56	317.73
434.93	320.37
435.30	322.99
435.68	325.99
436.05	328.87
436.42	331.65
436.79	334.21
437.16	336.88
437.53	339.78
437.90	342.62
438.27	345.31
438.64	348.18
439.01	350.71
439.38	352.96
439.75	355.14
440.13	357.63
440.50	359.94
440.87	361.79
441.24	363.73
441.61	365.93
441.98	367.43
442.35	369.21
442.72	371.09
443.09	372.94
443.46	373.88
443.83	374.44
444.20	374.97
444.57	375.76
444.94	376.07
445.31	376.38
445.68	376.75
446.05	376.92
446.42	376.55
446.79	376.17
447.16	375.71
447.53	375.45
447.90	374.34
448.27	373.20
448.64	371.57
449.01	370.42
449.37	368.41
449.74	366.52
450.11	364.29
450.48	361.79
450.85	359.25
451.22	357.05
451.59	355.04
451.96	353.06
452.33	350.48
452.70	348.10
453.07	345.26
453.43	342.34
453.80	339.50
454.17	336.78
454.54	334.20
454.91	331.49
455.28	328.76
455.65	326.27
456.02	323.78
456.38	321.64
456.75	319.01
457.12	316.77
457.49	314.56
457.86	312.41
458.23	310.56
458.59	308.54
458.96	306.50
459.33	304.63
459.70	302.80
460.07	301.29
460.43	299.56
460.80	297.91
461.17	296.43
461.54	294.89
461.91	293.50
462.27	292.06
462.64	290.81
463.01	289.43
463.38	288.08
463.74	286.74
464.11	285.54
464.48	284.47
464.85	283.34
465.21	282.46
465.58	281.51
465.95	280.41
466.32	279.43
466.68	278.47
467.05	277.56
467.42	276.62
467.78	275.66
468.15	274.80
468.52	274.16
468.88	273.32
469.25	272.58
469.62	271.91
469.98	271.25
470.35	270.56
470.72	269.96
471.08	269.30
471.45	268.72
471.82	268.20
472.18	267.61
472.55	267.14
472.92	266.60
473.28	266.14
473.65	265.69
474.02	265.23
474.38	264.88
474.75	264.56
475.11	264.21
475.48	263.93
475.85	263.69
476.21	263.44
476.58	263.27
476.94	263.15
477.31	263.00
477.67	262.81
478.04	262.78
478.41	262.72
478.77	262.81
479.14	262.77
479.50	262.76
479.87	262.81
480.23	262.89
480.60	262.99
480.96	263.07
481.33	263.26
481.69	263.45
482.06	263.67
482.42	263.87
482.79	264.12
483.15	264.47
483.52	264.86
483.88	265.19
484.25	265.57
484.61	266.00
484.98	266.45
485.34	267.02
485.71	267.59
486.07	268.17
486.44	268.73
486.80	269.46
487.17	270.21
487.53	271.04
487.90	271.91
488.26	272.86
488.62	273.85
488.99	274.84
489.35	275.90
489.72	277.01
490.08	278.25
490.44	279.51
490.81	280.87
491.17	282.22
491.54	283.72
491.90	285.24
492.26	286.90
492.63	288.65
492.99	290.45
493.36	292.32
493.72	294.36
494.08	296.46
494.45	298.71
494.81	301.11
495.17	303.55
495.54	306.14
495.90	308.83
496.26	311.64
496.63	314.63
496.99	317.74
497.35	321.02
497.72	324.41
498.08	327.93
498.44	331.56
498.80	335.49
499.17	339.55
499.53	343.74
499.89	348.10
500.26	352.57
500.62	357.28
500.98	362.29
501.34	367.37
501.71	372.70
502.07	378.12
502.43	383.70
502.79	389.50
503.16	395.57
503.52	401.81
503.88	408.21
504.24	414.86
504.60	421.81
504.97	428.96
505.33	436.26
505.69	443.99
506.05	451.77
506.41	459.63
506.78	467.80
507.14	476.26
507.50	484.99
507.86	494.00
508.22	503.14
508.59	512.26
508.95	521.90
509.31	531.77
509.67	541.88
510.03	552.16
510.39	562.70
510.75	573.46
511.12	584.36
511.48	595.67
511.84	607.06
512.20	618.55
512.56	630.47
512.92	642.71
513.28	655.03
513.64	667.56
514.00	680.30
514.37	693.21
514.73	706.27
515.09	719.35
515.45	732.69
515.81	746.30
516.17	760.35
516.53	774.43
516.89	788.61
517.25	802.78
517.61	817.26
517.97	831.81
518.33	846.28
518.69	861.07
519.05	876.00
519.41	891.23
519.77	906.75
520.13	922.23
520.49	937.56
520.85	952.99
521.21	968.71
521.57	984.94
521.93	1000.75
522.29	1017.16
522.65	1033.42
523.01	1049.66
523.37	1065.72
523.73	1081.98
524.09	1098.16
524.45	1114.40
524.81	1131.10
525.17	1147.93
525.53	1164.89
525.89	1181.85
526.25	1198.69
526.61	1215.15
526.97	1231.85
527.33	1248.39
527.68	1265.07
528.04	1281.68
528.40	1298.28
528.76	1315.33
529.12	1331.94
529.48	1348.84
529.84	1364.89
530.20	1381.55
530.56	1398.66
530.91	1416.14
531.27	1432.96
531.63	1449.53
531.99	1466.15
532.35	1482.17
532.71	1498.10
533.07	1514.32
533.42	1530.27
533.78	1546.55
534.14	1562.86
534.50	1578.39
534.86	1594.31
535.21	1609.53
535.57	1625.54
535.93	1641.19
536.29	1656.09
536.65	1671.34
537.00	1686.29
537.36	1701.65
537.72	1716.20
538.08	1730.59
538.44	1744.44
538.79	1758.33
539.15	1772.09
539.51	1785.92
539.87	1800.34
540.22	1814.22
540.58	1828.02
540.94	1841.39
541.29	1854.23
541.65	1866.98
542.01	1880.24
542.37	1892.58
542.72	1905.02
543.08	1916.80
543.44	1929.30
543.79	1940.59
544.15	1951.64
544.51	1963.26
544.87	1974.31
545.22	1985.26
545.58	1995.51
545.94	2005.38
546.29	2015.37
546.65	2025.16
547.01	2034.43
547.36	2043.08
547.72	2051.47
548.07	2059.27
548.43	2067.50
548.79	2075.61
549.14	2083.31
549.50	2090.70
549.86	2098.55
550.21	2105.86
550.57	2113.13
550.92	2119.55
551.28	2126.54
551.64	2133.48
551.99	2139.99
552.35	2145.96
552.70	2152.09
553.06	2158.13
553.41	2164.46
553.77	2170.43
554.13	2176.46
554.48	2182.62
554.84	2187.99
555.19	2193.40
555.55	2198.62
555.90	2203.07
556.26	2207.86
556.61	2212.59
556.97	2216.69
557.32	2220.81
557.68	2224.95
558.03	2229.10
558.39	2232.88
558.74	2237.51
559.10	2241.28
559.45	2244.84
559.81	2249.33
560.16	2253.20
560.52	2256.41
560.87	2259.75
561.23	2262.18
561.58	2265.15
561.94	2267.60
562.29	2270.18
562.64	2272.83
563.00	2275.49
563.35	2279.00
563.71	2282.13
564.06	2285.31
564.42	2288.21
564.77	2290.65
565.12	2292.93
565.48	2294.70
565.83	2296.50
566.19	2297.75
566.54	2298.80
566.89	2299.96
567.25	2300.37
567.60	2301.65
567.96	2303.29
568.31	2304.12
568.66	2305.24
569.02	2305.74
569.37	2306.07
569.72	2306.84
570.08	2306.88
570.43	2306.96
570.78	2306.30
571.14	2304.78
571.49	2303.41
571.84	2303.13
572.20	2301.94
572.55	2300.85
572.90	2299.52
573.26	2298.07
573.61	2296.47
573.96	2294.59
574.31	2291.54
574.67	2288.65
575.02	2284.98
575.37	2281.51
575.72	2277.65
576.08	2274.41
576.43	2271.24
576.78	2267.54
577.13	2264.32
577.49	2261.16
577.84	2257.57
578.19	2253.80
578.54	2250.09
578.90	2245.73
579.25	2240.10
579.60	2235.03
579.95	2230.00
580.30	2224.64
580.66	2219.50
581.01	2214.48
581.36	2209.54
581.71	2205.25
582.06	2200.68
582.42	2196.13
582.77	2190.87
583.12	2186.17
583.47	2181.30
583.82	2176.09
584.17	2170.75
584.53	2165.19
584.88	2159.51
585.23	2153.63
585.58	2148.17
585.93	2142.66
586.28	2137.93
586.63	2132.75
586.98	2127.77
587.34	2123.03
587.69	2118.25
588.04	2112.90
588.39	2107.17
588.74	2100.65
589.09	2094.48
589.44	2087.62
589.79	2081.60
590.14	2075.93
590.49	2069.39
590.84	2062.99
591.19	2057.04
591.54	2050.50
591.89	2043.01
592.25	2036.28
592.60	2029.04
592.95	2021.20
593.30	2013.69
593.65	2005.91
594.00	1998.75
594.35	1991.34
594.70	1983.23
595.05	1975.91
595.40	1968.55
595.75	1960.91
596.10	1954.53
596.45	1947.73
596.80	1941.58
597.15	1934.79
597.50	1927.64
597.85	1921.19
598.19	1914.47
598.54	1907.18
598.89	1900.55
599.24	1894.68
599.59	1887.76
599.94	1881.48
600.29	1875.22
600.64	1868.62
600.99	1861.03
601.34	1854.21
601.69	1847.15
602.04	1840.16
602.39	1832.80
602.74	1825.95
603.08	1819.31
603.43	1812.57
603.78	1805.31
604.13	1798.05
604.48	1790.69
604.83	1783.80
605.18	1776.68
605.53	1768.68
605.87	1760.72
606.22	1753.44
606.57	1745.41
606.92	1738.15
607.27	1730.92
607.62	1723.84
607.96	1716.62
608.31	1710.04
608.66	1702.47
609.01	1694.92
609.36	1687.35
609.70	1679.27
610.05	1671.21
610.40	1663.28
610.75	1654.92
611.10	1647.20
611.44	1638.81
611.79	1630.80
612.14	1622.09
612.49	1612.89
612.83	1604.36
613.18	1596.06
613.53	1588.00
613.88	1579.50
614.22	1571.19
614.57	1562.61
614.92	1554.66
615.27	1547.10
615.61	1538.77
615.96	1530.64
616.31	1522.93
616.65	1515.51
617.00	1508.07
617.35	1500.35
617.70	1492.12
618.04	1483.55
618.39	1475.38
618.74	1467.64
619.08	1459.36
619.43	1451.83
619.78	1445.01
620.12	1437.94
620.47	1430.55
620.82	1422.41
621.16	1415.01
621.51	1407.45
621.85	1399.86
622.20	1391.40
622.55	1382.93
622.89	1375.12
623.24	1367.61
623.59	1360.27
623.93	1352.77
624.28	1345.49
624.62	1337.93
624.97	1330.74
625.32	1324.16
625.66	1317.16
626.01	1310.01
626.35	1302.63
626.70	1294.87
627.04	1287.12
627.39	1279.37
627.73	1271.99
628.08	1265.01
628.43	1257.56
628.77	1250.08
629.12	1242.50
629.46	1235.22
629.81	1227.86
630.15	1220.55
630.50	1213.09
630.84	1204.98
631.19	1197.11
631.53	1189.61
631.88	1182.22
632.22	1174.62
632.57	1167.28
632.91	1159.65
633.26	1152.22
633.60	1144.86
633.95	1137.84
634.29	1130.84
634.64	1124.07
634.98	1116.77
635.32	1109.59
635.67	1103.12
636.01	1096.55
636.36	1089.72
636.70	1083.30
637.05	1076.76
637.39	1070.35
637.73	1063.79
638.08	1057.90
638.42	1051.84
638.77	1045.43
639.11	1038.72
639.45	1032.32
639.80	1025.58
640.14	1019.19
640.49	1012.69
640.83	1006.33
641.17	999.99
641.52	993.68
641.86	987.36
642.20	981.42
642.55	975.18
642.89	968.68
643.23	962.12
643.58	956.34
643.92	950.06
644.26	944.02
644.61	938.00
644.95	932.00
645.29	925.36
645.64	918.70
645.98	912.30
646.32	906.42
646.66	900.48
647.01	894.71
647.35	888.94
647.69	883.11
648.04	877.57
648.38	871.75
648.72	865.71
649.06	859.61
649.41	853.68
649.75	847.68
650.09	841.71
650.43	835.91
650.78	829.76
651.12	823.82
651.46	818.05
651.80	812.29
652.14	806.90
652.49	801.54
652.83	796.32
653.17	790.58
653.51	784.89
653.85	779.39
654.20	773.65
654.54	767.68
654.88	761.91
655.22	755.99
655.56	750.38
655.90	744.93
656.25	739.65
656.59	734.27
656.93	729.18
657.27	723.97
657.61	718.52
657.95	713.43
658.29	708.39
658.64	703.09
658.98	697.81
659.32	692.36
659.66	687.10
660.00	681.77
660.34	676.90
660.68	672.01
661.02	666.97
661.36	662.35
661.70	657.78
662.05	653.40
662.39	649.10
662.73	644.55
663.07	640.18
663.41	635.71
663.75	631.23
664.09	626.71
664.43	622.40
664.77	618.29
665.11	614.06
665.45	609.93
665.79	605.90
666.13	601.77
666.47	597.70
666.81	593.57
667.15	589.52
667.49	585.64
667.83	581.89
668.17	578.01
668.51	573.96
668.85	569.99
669.19	566.17
669.53	562.33
669.87	558.47
670.21	554.79
670.55	551.18
670.89	547.81
671.23	544.35
671.57	540.86
671.91	537.34
672.25	533.86
672.58	530.39
672.92	526.99
673.26	523.85
673.60	520.71
673.94	517.60
674.28	514.65
674.62	511.70
674.96	508.50
675.30	505.63
675.64	502.71
675.97	499.99
676.31	497.15
676.65	494.22
676.99	491.57
677.33	488.71
677.67	485.90
678.01	482.81
678.34	479.83
678.68	476.97
679.02	474.14
679.36	471.34
679.70	468.61
680.04	465.85
680.37	462.96
680.71	460.13
681.05	457.54
681.39	454.75
681.73	452.08
682.06	449.60
682.40	446.98
682.74	444.44
683.08	441.93
683.42	439.37
683.75	436.90
684.09	434.29
684.43	431.84
684.77	429.40
685.10	427.08
685.44	424.80
685.78	422.51
686.12	420.28
686.45	418.00
686.79	415.66
687.13	413.43
687.46	411.31
687.80	409.18
688.14	406.95
688.48	404.94
688.81	402.70
689.15	400.55
689.49	398.40
689.82	396.31
690.16	394.18
690.50	392.17
690.83	390.23
691.17	388.29
691.51	386.36
691.84	384.53
692.18	382.61
692.52	380.64
692.85	378.69
693.19	376.80
693.52	374.97
693.86	373.21
694.20	371.44
694.53	369.62
694.87	367.77
695.21	366.02
695.54	364.23
695.88	362.51
696.21	360.80
696.55	359.14
696.88	357.44
697.22	355.81
697.56	354.22
697.89	352.55
698.23	350.92
698.56	349.31
698.90	347.66
699.23	346.04
699.57	344.44
699.90	342.89
700.24	341.36
700.58	339.82
700.91	338.32
701.25	336.88
701.58	335.51
701.92	334.12
702.25	332.77
702.59	331.42
702.92	330.11
703.26	328.77
703.59	327.50
703.93	326.32
704.26	325.06
704.60	323.77
704.93	322.51
705.26	321.27
705.60	320.13
705.93	318.99
706.27	317.92
706.60	316.90
706.94	315.83
707.27	314.71
707.61	313.69
707.94	312.69
708.27	311.62
708.61	310.54
708.94	309.57
709.28	308.62
709.61	307.64
709.94	306.67
710.28	305.67
710.61	304.70
710.95	303.65
711.28	302.76
711.61	301.80
711.95	300.87
712.28	299.92
712.61	298.92
712.95	297.99
713.28	297.10
713.61	296.22
713.95	295.33
714.28	294.45
714.61	293.55
714.95	292.70
715.28	291.85
715.61	290.96
715.95	290.10
716.28	289.20
716.61	288.39
716.95	287.56
717.28	286.84
717.61	286.05
717.94	285.30
718.28	284.52
718.61	283.81
718.94	283.12
719.27	282.45
719.61	281.85
719.94	281.20
720.27	280.50
720.60	279.81
720.94	279.16
721.27	278.58
721.60	278.00
721.93	277.37
722.27	276.82
722.60	276.25
722.93	275.67
723.26	275.16
723.59	274.57
723.93	274.08
724.26	273.50
724.59	272.95
724.92	272.49
725.25	271.97
725.59	271.45
725.92	270.93
726.25	270.41
726.58	269.88
726.91	269.40
727.24	268.91
727.57	268.46
727.91	267.96
728.24	267.49
728.57	267.01
728.90	266.56
729.23	266.08
729.56	265.69
729.89	265.23
730.22	264.73
730.55	264.28
730.89	263.80
731.22	263.37
731.55	262.93
731.88	262.43
732.21	261.98
732.54	261.51
732.87	261.10
733.20	260.75
733.53	260.36
733.86	260.00
734.19	259.59
734.52	259.21
734.85	258.94
735.18	258.56
735.51	258.20
735.84	257.81
736.17	257.41
736.50	256.99
736.83	256.73
737.16	256.38
737.49	256.04
737.82	255.71
738.15	255.36
738.48	255.04
738.81	254.74
739.14	254.40
739.47	254.11
739.80	253.76
740.13	253.44
740.46	253.10
740.79	252.73
741.12	252.43
741.45	252.10
741.78	251.71
742.11	251.44
742.44	251.13
742.77	250.86
743.10	250.57
743.43	250.26
743.75	249.93
744.08	249.79
744.41	249.53
744.74	249.26
745.07	248.98
745.40	248.70
745.73	248.47
746.06	248.19
746.39	247.93
746.71	247.69
747.04	247.42
747.37	247.18
747.70	246.94
748.03	246.69
748.36	246.49
748.68	246.25
749.01	245.98
749.34	245.73
749.67	245.46
750.00	245.28
750.33	245.20
750.65	244.97
750.98	244.62
751.31	244.41
751.64	244.16
751.97	244.01
752.29	243.81
752.62	243.58
752.95	243.40
753.28	243.22
753.60	243.01
753.93	242.84
754.26	242.63
754.59	242.40
754.91	242.24
755.24	242.03
755.57	241.87
755.90	241.70
756.22	241.53
756.55	241.38
756.88	241.17
757.20	240.90
757.53	240.69
757.86	240.52
758.19	240.38
758.51	240.22
758.84	240.01
759.17	239.82
759.49	239.69
759.82	239.57
760.15	239.40
760.47	239.25
760.80	239.07
761.13	238.94
761.45	238.80
761.78	238.64
762.11	238.51
762.43	238.35
762.76	238.24
763.08	238.12
763.41	237.99
763.74	237.87
764.06	237.75
764.39	237.63
764.71	237.49
765.04	237.34
765.37	237.21
765.69	237.07
766.02	236.96
766.34	236.80
766.67	236.65
767.00	236.54
767.32	236.51
767.65	236.45
767.97	236.34
768.30	236.25
768.62	236.13
768.95	235.99
769.27	235.87
769.60	235.74
769.92	235.59
770.25	235.47
770.57	235.35
770.90	235.22
771.22	235.10
771.55	235.03
771.87	234.96
772.20	234.86
772.52	234.87
772.85	234.88
773.17	234.77
773.50	234.68
773.82	234.60
774.15	234.43
774.47	234.30
774.80	234.22
775.12	234.13
775.45	234.08
775.77	234.00
776.09	233.97
776.42	233.93
776.74	233.90
777.07	233.79
777.39	233.70
777.72	233.63
778.04	233.58
778.36	233.47
778.69	233.41
779.01	233.36
779.33	233.21
779.66	233.03
779.98	233.02
780.31	232.96
780.63	232.93
780.95	232.90
781.28	232.84
781.60	232.75
781.92	232.67
782.25	232.58
782.57	232.53
782.89	232.43
783.22	232.36
783.54	232.26
783.86	232.25
784.19	232.23
784.51	232.19
784.83	232.10
785.16	232.07
785.48	232.01
785.80	231.96
786.12	231.94
786.45	231.91
786.77	231.82
787.09	231.80
