SpectraSuite Data File
++++++++++++++++++++++++++++++++++++
Date: Fri Feb 01 15:34:03 EST 2013
User: group
Dark Spectrum Present: No
Reference Spectrum Present: No
Number of Sampled Component Spectra: 1
Spectrometers: USB2E7196
Integration Time (usec): 35000 (USB2E7196)
Spectra Averaged: 100 (USB2E7196)
Boxcar Smoothing: 10 (USB2E7196)
Correct for Electrical Dark: No (USB2E7196)
Strobe/Lamp Enabled: No (USB2E7196)
Correct for Detector Non-linearity: No (USB2E7196)
Correct for Stray Light: No (USB2E7196)
Number of Pixels in Processed Spectrum: 2048
>>>>>Begin Processed Spectral Data<<<<<
339.09	0.00
339.48	214.58
339.86	215.98
340.24	217.47
340.63	218.82
341.01	222.04
341.39	221.70
341.78	223.27
342.16	224.55
342.54	224.49
342.93	213.10
343.31	223.90
343.69	224.47
344.07	224.94
344.46	225.37
344.84	225.77
345.22	226.00
345.60	226.24
345.99	226.42
346.37	226.54
346.75	226.65
347.13	226.74
347.52	226.77
347.90	226.85
348.28	226.92
348.66	226.99
349.05	226.97
349.43	226.99
349.81	227.03
350.19	227.06
350.57	227.12
350.96	227.19
351.34	227.25
351.72	227.32
352.10	227.41
352.48	227.49
352.87	227.56
353.25	227.63
353.63	227.71
354.01	227.78
354.39	227.87
354.77	227.98
355.15	228.08
355.54	228.14
355.92	228.21
356.30	228.30
356.68	228.42
357.06	228.50
357.44	228.58
357.82	228.66
358.20	228.77
358.58	228.83
358.97	228.90
359.35	228.99
359.73	229.06
360.11	229.12
360.49	229.17
360.87	229.21
361.25	229.26
361.63	229.31
362.01	229.34
362.39	229.38
362.77	229.41
363.15	229.43
363.53	229.50
363.91	229.52
364.29	229.52
364.67	229.45
365.05	229.48
365.43	229.51
365.81	229.53
366.19	229.55
366.57	229.61
366.95	229.60
367.33	229.56
367.71	229.56
368.09	229.56
368.47	229.57
368.85	229.55
369.23	229.55
369.61	229.52
369.99	229.54
370.37	229.49
370.75	229.48
371.13	229.42
371.51	229.36
371.89	229.32
372.27	229.27
372.65	229.25
373.03	229.15
373.41	229.06
373.78	229.01
374.16	228.93
374.54	228.83
374.92	228.75
375.30	228.70
375.68	228.61
376.06	228.55
376.44	228.44
376.82	228.35
377.19	228.23
377.57	228.15
377.95	228.01
378.33	227.94
378.71	227.79
379.09	227.75
379.47	227.66
379.84	227.56
380.22	227.49
380.60	227.37
380.98	227.33
381.36	227.28
381.73	227.18
382.11	227.12
382.49	227.07
382.87	226.98
383.25	226.91
383.62	226.95
384.00	226.88
384.38	226.82
384.76	226.80
385.13	226.83
385.51	226.78
385.89	226.73
386.27	226.70
386.64	226.71
387.02	226.62
387.40	226.60
387.78	226.57
388.15	226.52
388.53	226.49
388.91	226.47
389.29	226.43
389.66	226.42
390.04	226.34
390.42	226.34
390.79	226.33
391.17	226.31
391.55	226.23
391.92	226.23
392.30	226.24
392.68	226.22
393.05	226.20
393.43	226.22
393.81	226.26
394.18	226.24
394.56	226.24
394.94	226.30
395.31	226.28
395.69	226.34
396.06	226.41
396.44	226.45
396.82	226.49
397.19	226.60
397.57	226.65
397.95	226.75
398.32	226.79
398.70	226.89
399.07	226.97
399.45	227.01
399.82	227.09
400.20	227.15
400.58	227.23
400.95	227.29
401.33	227.37
401.70	227.52
402.08	227.60
402.45	227.71
402.83	227.82
403.20	227.95
403.58	228.07
403.95	228.22
404.33	228.38
404.71	228.53
405.08	228.70
405.46	228.82
405.83	228.97
406.21	229.11
406.58	229.29
406.96	229.47
407.33	229.66
407.70	229.87
408.08	230.19
408.45	230.41
408.83	230.66
409.20	230.90
409.58	231.08
409.95	231.41
410.33	231.68
410.70	231.93
411.08	232.23
411.45	232.51
411.82	232.79
412.20	233.10
412.57	233.48
412.95	233.75
413.32	234.20
413.69	234.57
414.07	235.01
414.44	235.46
414.82	235.91
415.19	236.43
415.56	236.99
415.94	237.49
416.31	238.10
416.68	238.73
417.06	239.47
417.43	240.14
417.81	240.87
418.18	241.66
418.55	242.53
418.93	243.40
419.30	244.30
419.67	245.25
420.04	246.21
420.42	247.22
420.79	248.41
421.16	249.56
421.54	250.79
421.91	251.99
422.28	253.23
422.66	254.57
423.03	255.89
423.40	257.20
423.77	258.61
424.15	260.04
424.52	261.47
424.89	263.06
425.26	264.65
425.64	266.09
426.01	267.65
426.38	269.27
426.75	270.98
427.13	272.72
427.50	274.51
427.87	276.41
428.24	278.27
428.61	280.03
428.99	281.97
429.36	284.06
429.73	286.14
430.10	288.17
430.47	290.24
430.85	292.37
431.22	294.59
431.59	297.00
431.96	299.28
432.33	301.82
432.70	304.20
433.08	307.00
433.45	309.66
433.82	312.26
434.19	315.18
434.56	317.98
434.93	320.59
435.30	323.22
435.68	326.12
436.05	328.99
436.42	331.81
436.79	334.33
437.16	337.03
437.53	339.86
437.90	342.68
438.27	345.42
438.64	348.25
439.01	350.87
439.38	353.07
439.75	355.17
440.13	357.68
440.50	360.05
440.87	361.90
441.24	363.84
441.61	366.01
441.98	367.54
442.35	369.36
442.72	371.23
443.09	373.01
443.46	374.00
443.83	374.53
444.20	375.03
444.57	375.86
444.94	376.18
445.31	376.56
445.68	376.92
446.05	377.00
446.42	376.57
446.79	376.15
447.16	375.72
447.53	375.41
447.90	374.22
448.27	373.03
448.64	371.41
449.01	370.26
449.37	368.31
449.74	366.35
450.11	364.05
450.48	361.59
450.85	359.09
451.22	356.95
451.59	354.95
451.96	353.00
452.33	350.36
452.70	347.96
453.07	345.09
453.43	342.17
453.80	339.38
454.17	336.71
454.54	334.13
454.91	331.38
455.28	328.72
455.65	326.23
456.02	323.77
456.38	321.59
456.75	318.91
457.12	316.62
457.49	314.38
457.86	312.21
458.23	310.33
458.59	308.25
458.96	306.13
459.33	304.25
459.70	302.33
460.07	300.85
460.43	299.10
460.80	297.45
461.17	296.00
461.54	294.49
461.91	293.07
462.27	291.62
462.64	290.41
463.01	289.04
463.38	287.71
463.74	286.31
464.11	285.17
464.48	284.16
464.85	283.06
465.21	282.18
465.58	281.25
465.95	280.17
466.32	279.29
466.68	278.37
467.05	277.47
467.42	276.56
467.78	275.58
468.15	274.72
468.52	274.04
468.88	273.16
469.25	272.43
469.62	271.79
469.98	271.13
470.35	270.46
470.72	269.85
471.08	269.19
471.45	268.66
471.82	268.10
472.18	267.50
472.55	267.04
472.92	266.51
473.28	266.06
473.65	265.61
474.02	265.11
474.38	264.74
474.75	264.42
475.11	264.13
475.48	263.86
475.85	263.64
476.21	263.40
476.58	263.24
476.94	263.09
477.31	262.94
477.67	262.82
478.04	262.74
478.41	262.70
478.77	262.77
479.14	262.71
479.50	262.72
479.87	262.81
480.23	262.93
480.60	263.03
480.96	263.13
481.33	263.35
481.69	263.64
482.06	263.86
482.42	264.08
482.79	264.33
483.15	264.67
483.52	265.04
483.88	265.42
484.25	265.83
484.61	266.25
484.98	266.70
485.34	267.28
485.71	267.87
486.07	268.50
486.44	269.05
486.80	269.77
487.17	270.56
487.53	271.36
487.90	272.24
488.26	273.17
488.62	274.17
488.99	275.14
489.35	276.13
489.72	277.27
490.08	278.49
490.44	279.75
490.81	281.09
491.17	282.49
491.54	283.98
491.90	285.56
492.26	287.24
492.63	289.00
492.99	290.75
493.36	292.65
493.72	294.72
494.08	296.84
494.45	299.10
494.81	301.46
495.17	303.89
495.54	306.43
495.90	309.12
496.26	311.91
496.63	314.87
496.99	317.99
497.35	321.23
497.72	324.60
498.08	328.13
498.44	331.78
498.80	335.65
499.17	339.68
499.53	343.84
499.89	348.19
500.26	352.66
500.62	357.32
500.98	362.25
501.34	367.29
501.71	372.60
502.07	378.05
502.43	383.63
502.79	389.44
503.16	395.51
503.52	401.82
503.88	408.22
504.24	414.85
504.60	421.73
504.97	428.87
505.33	436.20
505.69	443.83
506.05	451.60
506.41	459.53
506.78	467.71
507.14	476.18
507.50	484.86
507.86	493.82
508.22	503.01
508.59	512.22
508.95	521.84
509.31	531.65
509.67	541.78
510.03	552.11
510.39	562.58
510.75	573.39
511.12	584.33
511.48	595.67
511.84	607.10
512.20	618.60
512.56	630.46
512.92	642.64
513.28	655.01
513.64	667.55
514.00	680.18
514.37	693.05
514.73	706.02
515.09	719.12
515.45	732.48
515.81	746.14
516.17	760.20
516.53	774.23
516.89	788.40
517.25	802.59
517.61	817.07
517.97	831.63
518.33	846.10
518.69	860.86
519.05	875.87
519.41	891.09
519.77	906.66
520.13	922.22
520.49	937.62
520.85	953.04
521.21	968.83
521.57	985.09
521.93	1001.02
522.29	1017.42
522.65	1033.62
523.01	1049.88
523.37	1065.97
523.73	1082.15
524.09	1098.31
524.45	1114.70
524.81	1131.29
525.17	1148.12
525.53	1165.12
525.89	1181.92
526.25	1198.81
526.61	1215.31
526.97	1232.21
527.33	1248.72
527.68	1265.37
528.04	1281.90
528.40	1298.61
528.76	1315.71
529.12	1332.34
529.48	1349.17
529.84	1365.30
530.20	1382.10
530.56	1399.11
530.91	1416.52
531.27	1433.30
531.63	1449.89
531.99	1466.61
532.35	1482.69
532.71	1498.53
533.07	1514.79
533.42	1530.78
533.78	1546.95
534.14	1563.11
534.50	1578.42
534.86	1594.31
535.21	1609.59
535.57	1625.56
535.93	1641.13
536.29	1655.94
536.65	1671.23
537.00	1686.13
537.36	1701.54
537.72	1716.02
538.08	1730.48
538.44	1744.36
538.79	1758.28
539.15	1772.04
539.51	1785.60
539.87	1800.09
540.22	1813.87
540.58	1827.67
540.94	1841.19
541.29	1854.24
541.65	1867.03
542.01	1880.41
542.37	1892.83
542.72	1905.19
543.08	1917.15
543.44	1929.48
543.79	1940.73
544.15	1951.68
544.51	1963.24
544.87	1974.25
545.22	1985.12
545.58	1995.32
545.94	2005.07
546.29	2014.93
546.65	2024.64
547.01	2034.06
547.36	2042.63
547.72	2051.13
548.07	2059.09
548.43	2067.11
548.79	2075.09
549.14	2082.59
549.50	2089.88
549.86	2097.64
550.21	2105.03
550.57	2112.17
550.92	2118.77
551.28	2125.90
551.64	2133.00
551.99	2139.59
552.35	2145.70
552.70	2151.96
553.06	2158.05
553.41	2164.51
553.77	2170.75
554.13	2176.95
554.48	2182.99
554.84	2188.52
555.19	2193.94
555.55	2199.00
555.90	2203.60
556.26	2208.29
556.61	2213.20
556.97	2217.32
557.32	2221.33
557.68	2225.50
558.03	2229.70
558.39	2233.55
558.74	2238.06
559.10	2241.90
559.45	2245.48
559.81	2249.85
560.16	2253.57
560.52	2256.85
560.87	2260.07
561.23	2262.69
561.58	2265.65
561.94	2268.33
562.29	2270.76
562.64	2273.36
563.00	2275.87
563.35	2279.38
563.71	2282.59
564.06	2285.86
564.42	2288.69
564.77	2291.12
565.12	2293.27
565.48	2295.18
565.83	2296.93
566.19	2298.17
566.54	2299.08
566.89	2300.17
567.25	2300.48
567.60	2301.85
567.96	2303.35
568.31	2304.31
568.66	2305.19
569.02	2305.65
569.37	2305.84
569.72	2306.57
570.08	2306.71
570.43	2306.75
570.78	2306.01
571.14	2304.46
571.49	2303.04
571.84	2302.71
572.20	2301.60
572.55	2300.70
572.90	2299.14
573.26	2297.83
573.61	2296.10
573.96	2294.28
574.31	2291.41
574.67	2288.53
575.02	2284.71
575.37	2281.44
575.72	2277.49
576.08	2274.25
576.43	2270.91
576.78	2267.22
577.13	2264.08
577.49	2260.95
577.84	2257.43
578.19	2253.75
578.54	2249.91
578.90	2245.52
579.25	2239.97
579.60	2234.98
579.95	2229.80
580.30	2224.69
580.66	2219.30
581.01	2214.44
581.36	2209.38
581.71	2205.07
582.06	2200.59
582.42	2196.16
582.77	2190.74
583.12	2186.15
583.47	2181.21
583.82	2176.20
584.17	2170.83
584.53	2165.22
584.88	2159.43
585.23	2153.59
585.58	2148.01
585.93	2142.52
586.28	2137.71
586.63	2132.67
586.98	2127.54
587.34	2122.79
587.69	2117.84
588.04	2112.52
588.39	2106.72
588.74	2100.36
589.09	2094.18
589.44	2087.33
589.79	2081.32
590.14	2075.69
590.49	2069.08
590.84	2062.70
591.19	2056.63
591.54	2050.15
591.89	2042.65
592.25	2035.82
592.60	2028.58
592.95	2020.98
593.30	2013.67
593.65	2006.00
594.00	1998.83
594.35	1991.68
594.70	1983.55
595.05	1976.22
595.40	1968.95
595.75	1961.41
596.10	1954.88
596.45	1947.98
596.80	1941.77
597.15	1935.01
597.50	1927.76
597.85	1921.33
598.19	1914.63
598.54	1907.37
598.89	1900.70
599.24	1894.88
599.59	1888.09
599.94	1881.80
600.29	1875.49
600.64	1868.86
600.99	1861.40
601.34	1854.55
601.69	1847.48
602.04	1840.51
602.39	1833.12
602.74	1826.26
603.08	1819.55
603.43	1812.92
603.78	1805.59
604.13	1798.28
604.48	1791.01
604.83	1784.21
605.18	1777.11
605.53	1769.01
605.87	1760.93
606.22	1753.72
606.57	1745.74
606.92	1738.50
607.27	1731.32
607.62	1724.35
607.96	1717.04
608.31	1710.27
608.66	1702.62
609.01	1695.06
609.36	1687.48
609.70	1679.52
610.05	1671.41
610.40	1663.58
610.75	1655.21
611.10	1647.61
611.44	1639.17
611.79	1631.12
612.14	1622.46
612.49	1613.32
612.83	1605.07
613.18	1597.07
613.53	1588.91
613.88	1580.36
614.22	1572.03
614.57	1563.46
614.92	1555.34
615.27	1547.75
615.61	1539.51
615.96	1531.45
616.31	1523.72
616.65	1516.42
617.00	1508.85
617.35	1501.14
617.70	1492.83
618.04	1484.39
618.39	1476.06
618.74	1468.56
619.08	1460.23
619.43	1452.70
619.78	1445.83
620.12	1438.55
620.47	1431.01
620.82	1422.88
621.16	1415.47
621.51	1407.92
621.85	1400.33
622.20	1391.78
622.55	1383.32
622.89	1375.45
623.24	1367.88
623.59	1360.56
623.93	1353.06
624.28	1345.80
624.62	1338.36
624.97	1331.20
625.32	1324.44
625.66	1317.50
626.01	1310.17
626.35	1302.71
626.70	1295.00
627.04	1287.21
627.39	1279.53
627.73	1272.17
628.08	1265.22
628.43	1257.85
628.77	1250.39
629.12	1242.75
629.46	1235.63
629.81	1228.39
630.15	1221.20
630.50	1213.76
630.84	1205.57
631.19	1197.61
631.53	1190.15
631.88	1182.42
632.22	1174.84
632.57	1167.55
632.91	1159.99
633.26	1152.65
633.60	1145.39
633.95	1138.19
634.29	1131.20
634.64	1124.43
634.98	1116.98
635.32	1109.93
635.67	1103.42
636.01	1096.81
636.36	1090.01
636.70	1083.52
637.05	1076.90
637.39	1070.41
637.73	1063.94
638.08	1058.05
638.42	1052.04
638.77	1045.56
639.11	1039.06
639.45	1032.61
639.80	1025.90
640.14	1019.41
640.49	1012.86
640.83	1006.54
641.17	1000.27
641.52	993.85
641.86	987.47
642.20	981.62
642.55	975.29
642.89	968.82
643.23	962.28
643.58	956.53
643.92	950.24
644.26	944.09
644.61	938.06
644.95	932.00
645.29	925.30
645.64	918.59
645.98	912.25
646.32	906.47
646.66	900.51
647.01	894.70
647.35	889.08
647.69	883.27
648.04	877.73
648.38	871.94
648.72	865.96
649.06	859.94
649.41	854.04
649.75	848.01
650.09	842.01
650.43	836.19
650.78	829.95
651.12	824.06
651.46	818.39
651.80	812.60
652.14	807.15
652.49	801.88
652.83	796.63
653.17	790.89
653.51	785.07
653.85	779.66
654.20	773.98
654.54	767.92
654.88	762.20
655.22	756.23
655.56	750.55
655.90	745.14
656.25	739.81
656.59	734.47
656.93	729.41
657.27	724.27
657.61	718.89
657.95	713.83
658.29	708.63
658.64	703.35
658.98	698.09
659.32	692.66
659.66	687.39
660.00	682.13
660.34	677.25
660.68	672.39
661.02	667.32
661.36	662.68
661.70	658.22
662.05	653.88
662.39	649.60
662.73	645.16
663.07	640.80
663.41	636.33
663.75	631.81
664.09	627.26
664.43	622.83
664.77	618.75
665.11	614.48
665.45	610.48
665.79	606.46
666.13	602.32
666.47	598.28
666.81	594.18
667.15	590.04
667.49	586.13
667.83	582.42
668.17	578.58
668.51	574.49
668.85	570.47
669.19	566.62
669.53	562.77
669.87	558.85
670.21	555.15
670.55	551.61
670.89	548.23
671.23	544.78
671.57	541.29
671.91	537.75
672.25	534.33
672.58	530.79
672.92	527.34
673.26	524.17
673.60	521.04
673.94	517.87
674.28	515.04
674.62	512.13
674.96	508.99
675.30	506.09
675.64	503.11
675.97	500.35
676.31	497.47
676.65	494.54
676.99	491.87
677.33	489.00
677.67	486.15
678.01	483.13
678.34	480.14
678.68	477.23
679.02	474.32
679.36	471.58
679.70	468.87
680.04	466.15
680.37	463.32
680.71	460.51
681.05	457.97
681.39	455.25
681.73	452.54
682.06	450.04
682.40	447.41
682.74	444.84
683.08	442.30
683.42	439.65
683.75	437.18
684.09	434.69
684.43	432.22
684.77	429.67
685.10	427.31
685.44	424.97
685.78	422.70
686.12	420.48
686.45	418.19
686.79	415.87
687.13	413.68
687.46	411.47
687.80	409.33
688.14	407.11
688.48	405.01
688.81	402.77
689.15	400.60
689.49	398.44
689.82	396.46
690.16	394.36
690.50	392.46
690.83	390.49
691.17	388.46
691.51	386.56
691.84	384.75
692.18	382.84
692.52	380.88
692.85	378.96
693.19	377.05
693.52	375.20
693.86	373.42
694.20	371.61
694.53	369.80
694.87	367.94
695.21	366.13
695.54	364.33
695.88	362.65
696.21	360.91
696.55	359.24
696.88	357.52
697.22	355.87
697.56	354.21
697.89	352.55
698.23	350.95
698.56	349.31
698.90	347.75
699.23	346.10
699.57	344.57
699.90	343.02
700.24	341.49
700.58	339.99
700.91	338.45
701.25	337.00
701.58	335.64
701.92	334.26
702.25	332.91
702.59	331.52
702.92	330.13
703.26	328.85
703.59	327.54
703.93	326.37
704.26	325.14
704.60	323.87
704.93	322.64
705.26	321.40
705.60	320.26
705.93	319.07
706.27	318.03
706.60	316.94
706.94	315.91
707.27	314.78
707.61	313.72
707.94	312.74
708.27	311.69
708.61	310.63
708.94	309.67
709.28	308.68
709.61	307.76
709.94	306.87
710.28	305.87
710.61	304.98
710.95	303.91
711.28	303.03
711.61	302.07
711.95	301.13
712.28	300.18
712.61	299.17
712.95	298.28
713.28	297.44
713.61	296.61
713.95	295.71
714.28	294.89
714.61	294.02
714.95	293.18
715.28	292.32
715.61	291.41
715.95	290.51
716.28	289.67
716.61	288.85
716.95	288.06
717.28	287.33
717.61	286.53
717.94	285.82
718.28	285.00
718.61	284.31
718.94	283.62
719.27	282.95
719.61	282.36
719.94	281.70
720.27	280.95
720.60	280.24
720.94	279.66
721.27	279.08
721.60	278.50
721.93	277.89
722.27	277.33
722.60	276.83
722.93	276.28
723.26	275.74
723.59	275.16
723.93	274.57
724.26	273.98
724.59	273.43
724.92	272.90
725.25	272.38
725.59	271.85
725.92	271.33
726.25	270.82
726.58	270.32
726.91	269.82
727.24	269.36
727.57	268.89
727.91	268.34
728.24	267.85
728.57	267.35
728.90	266.89
729.23	266.40
729.56	265.95
729.89	265.49
730.22	264.98
730.55	264.51
730.89	264.04
731.22	263.61
731.55	263.18
731.88	262.70
732.21	262.27
732.54	261.85
732.87	261.44
733.20	261.03
733.53	260.62
733.86	260.23
734.19	259.80
734.52	259.42
734.85	259.09
735.18	258.68
735.51	258.29
735.84	257.90
736.17	257.54
736.50	257.10
736.83	256.84
737.16	256.51
737.49	256.15
737.82	255.83
738.15	255.45
738.48	255.11
738.81	254.83
739.14	254.49
739.47	254.14
739.80	253.82
740.13	253.52
740.46	253.16
740.79	252.82
741.12	252.53
741.45	252.21
741.78	251.85
742.11	251.56
742.44	251.29
742.77	251.00
743.10	250.70
743.43	250.41
743.75	250.04
744.08	249.86
744.41	249.62
744.74	249.34
745.07	249.09
745.40	248.82
745.73	248.58
746.06	248.34
746.39	248.10
746.71	247.83
747.04	247.53
747.37	247.30
747.70	247.09
748.03	246.86
748.36	246.65
748.68	246.41
749.01	246.19
749.34	245.96
749.67	245.77
750.00	245.54
750.33	245.43
750.65	245.23
750.98	244.92
751.31	244.70
751.64	244.51
751.97	244.36
752.29	244.14
752.62	243.90
752.95	243.67
753.28	243.49
753.60	243.30
753.93	243.17
754.26	242.98
754.59	242.75
754.91	242.54
755.24	242.34
755.57	242.20
755.90	241.99
756.22	241.81
756.55	241.61
756.88	241.46
757.20	241.22
757.53	241.03
757.86	240.89
758.19	240.76
758.51	240.58
758.84	240.38
759.17	240.24
759.49	240.08
759.82	239.97
760.15	239.80
760.47	239.65
760.80	239.48
761.13	239.36
761.45	239.19
761.78	239.08
762.11	238.93
762.43	238.77
762.76	238.65
763.08	238.46
763.41	238.34
763.74	238.20
764.06	238.04
764.39	237.89
764.71	237.74
765.04	237.57
765.37	237.46
765.69	237.31
766.02	237.18
766.34	237.08
766.67	236.94
767.00	236.83
767.32	236.77
767.65	236.72
767.97	236.56
768.30	236.47
768.62	236.33
768.95	236.18
769.27	236.07
769.60	235.96
769.92	235.84
770.25	235.70
770.57	235.54
770.90	235.44
771.22	235.35
771.55	235.25
771.87	235.12
772.20	234.96
772.52	234.98
772.85	234.95
773.17	234.83
773.50	234.71
773.82	234.61
774.15	234.44
774.47	234.30
774.80	234.22
775.12	234.12
775.45	234.02
775.77	233.99
776.09	233.91
776.42	233.80
776.74	233.79
777.07	233.72
777.39	233.73
777.72	233.65
778.04	233.56
778.36	233.47
778.69	233.43
779.01	233.39
779.33	233.20
779.66	233.03
779.98	232.94
780.31	232.89
780.63	232.86
780.95	232.78
781.28	232.73
781.60	232.64
781.92	232.56
782.25	232.51
782.57	232.45
782.89	232.34
783.22	232.28
783.54	232.17
783.86	232.10
784.19	231.98
784.51	231.95
784.83	231.86
785.16	231.81
785.48	231.75
785.80	231.73
786.12	231.70
786.45	231.65
786.77	231.63
787.09	231.56
