SpectraSuite Data File
++++++++++++++++++++++++++++++++++++
Date: Fri Feb 01 17:30:34 EST 2013
User: group
Dark Spectrum Present: No
Reference Spectrum Present: No
Number of Sampled Component Spectra: 1
Spectrometers: USB2E7196
Integration Time (usec): 35000 (USB2E7196)
Spectra Averaged: 100 (USB2E7196)
Boxcar Smoothing: 10 (USB2E7196)
Correct for Electrical Dark: No (USB2E7196)
Strobe/Lamp Enabled: No (USB2E7196)
Correct for Detector Non-linearity: No (USB2E7196)
Correct for Stray Light: No (USB2E7196)
Number of Pixels in Processed Spectrum: 2048
>>>>>Begin Processed Spectral Data<<<<<
339.09	0.00
339.48	212.88
339.86	214.33
340.24	215.84
340.63	217.00
341.01	219.97
341.39	220.14
341.78	221.04
342.16	222.62
342.54	222.81
342.93	211.41
343.31	222.09
343.69	222.64
344.07	223.11
344.46	223.54
344.84	223.94
345.22	224.18
345.60	224.42
345.99	224.60
346.37	224.72
346.75	224.83
347.13	224.86
347.52	224.91
347.90	225.00
348.28	225.02
348.66	225.04
349.05	225.03
349.43	225.10
349.81	225.13
350.19	225.18
350.57	225.23
350.96	225.30
351.34	225.39
351.72	225.48
352.10	225.59
352.48	225.64
352.87	225.68
353.25	225.72
353.63	225.79
354.01	225.86
354.39	225.94
354.77	226.00
355.15	226.13
355.54	226.18
355.92	226.22
356.30	226.30
356.68	226.44
357.06	226.52
357.44	226.56
357.82	226.60
358.20	226.67
358.58	226.74
358.97	226.76
359.35	226.81
359.73	226.85
360.11	226.91
360.49	226.96
360.87	227.00
361.25	227.06
361.63	227.11
362.01	227.15
362.39	227.16
362.77	227.19
363.15	227.20
363.53	227.21
363.91	227.24
364.29	227.27
364.67	227.18
365.05	227.16
365.43	227.18
365.81	227.21
366.19	227.24
366.57	227.28
366.95	227.30
367.33	227.29
367.71	227.29
368.09	227.27
368.47	227.29
368.85	227.26
369.23	227.25
369.61	227.19
369.99	227.19
370.37	227.18
370.75	227.22
371.13	227.17
371.51	227.16
371.89	227.13
372.27	227.10
372.65	227.09
373.03	227.09
373.41	227.05
373.78	226.97
374.16	226.87
374.54	226.82
374.92	226.73
375.30	226.65
375.68	226.57
376.06	226.52
376.44	226.43
376.82	226.37
377.19	226.30
377.57	226.24
377.95	226.13
378.33	226.06
378.71	225.92
379.09	225.87
379.47	225.82
379.84	225.73
380.22	225.61
380.60	225.52
380.98	225.43
381.36	225.33
381.73	225.29
382.11	225.22
382.49	225.13
382.87	225.09
383.25	225.06
383.62	225.11
384.00	225.01
384.38	224.97
384.76	224.96
385.13	224.95
385.51	224.91
385.89	224.89
386.27	224.85
386.64	224.84
387.02	224.77
387.40	224.73
387.78	224.71
388.15	224.72
388.53	224.69
388.91	224.67
389.29	224.66
389.66	224.65
390.04	224.63
390.42	224.65
390.79	224.63
391.17	224.63
391.55	224.52
391.92	224.51
392.30	224.50
392.68	224.46
393.05	224.44
393.43	224.47
393.81	224.47
394.18	224.44
394.56	224.44
394.94	224.49
395.31	224.46
395.69	224.49
396.06	224.52
396.44	224.53
396.82	224.56
397.19	224.63
397.57	224.64
397.95	224.69
398.32	224.70
398.70	224.76
399.07	224.83
399.45	224.90
399.82	224.98
400.20	225.05
400.58	225.12
400.95	225.18
401.33	225.27
401.70	225.44
402.08	225.55
402.45	225.63
402.83	225.73
403.20	225.85
403.58	225.97
403.95	226.09
404.33	226.27
404.71	226.37
405.08	226.55
405.46	226.68
405.83	226.85
406.21	226.99
406.58	227.16
406.96	227.31
407.33	227.50
407.70	227.72
408.08	227.99
408.45	228.21
408.83	228.45
409.20	228.67
409.58	228.82
409.95	229.10
410.33	229.40
410.70	229.64
411.08	229.97
411.45	230.27
411.82	230.58
412.20	230.92
412.57	231.37
412.95	231.68
413.32	232.11
413.69	232.52
414.07	232.97
414.44	233.45
414.82	233.94
415.19	234.50
415.56	235.04
415.94	235.61
416.31	236.30
416.68	236.94
417.06	237.66
417.43	238.35
417.81	239.12
418.18	239.92
418.55	240.79
418.93	241.68
419.30	242.64
419.67	243.59
420.04	244.57
420.42	245.61
420.79	246.81
421.16	247.97
421.54	249.23
421.91	250.45
422.28	251.74
422.66	253.14
423.03	254.48
423.40	255.86
423.77	257.31
424.15	258.77
424.52	260.33
424.89	262.05
425.26	263.66
425.64	265.17
426.01	266.83
426.38	268.54
426.75	270.25
427.13	272.03
427.50	273.95
427.87	275.89
428.24	277.80
428.61	279.63
428.99	281.68
429.36	283.85
429.73	286.00
430.10	288.11
430.47	290.26
430.85	292.46
431.22	294.79
431.59	297.25
431.96	299.56
432.33	302.13
432.70	304.57
433.08	307.49
433.45	310.22
433.82	312.92
434.19	315.98
434.56	318.92
434.93	321.66
435.30	324.32
435.68	327.32
436.05	330.27
436.42	333.14
436.79	335.76
437.16	338.58
437.53	341.57
437.90	344.48
438.27	347.36
438.64	350.28
439.01	352.95
439.38	355.24
439.75	357.56
440.13	360.14
440.50	362.59
440.87	364.53
441.24	366.59
441.61	368.87
441.98	370.41
442.35	372.30
442.72	374.26
443.09	376.21
443.46	377.29
443.83	377.97
444.20	378.59
444.57	379.49
444.94	379.80
445.31	380.18
445.68	380.64
446.05	380.68
446.42	380.34
446.79	380.00
447.16	379.63
447.53	379.29
447.90	378.13
448.27	376.93
448.64	375.35
449.01	374.21
449.37	372.18
449.74	370.23
450.11	367.93
450.48	365.40
450.85	362.78
451.22	360.63
451.59	358.50
451.96	356.46
452.33	353.79
452.70	351.36
453.07	348.42
453.43	345.39
453.80	342.58
454.17	339.80
454.54	337.11
454.91	334.26
455.28	331.47
455.65	328.89
456.02	326.36
456.38	324.10
456.75	321.31
457.12	318.98
457.49	316.68
457.86	314.41
458.23	312.45
458.59	310.29
458.96	308.06
459.33	306.12
459.70	304.17
460.07	302.57
460.43	300.74
460.80	299.04
461.17	297.51
461.54	295.90
461.91	294.44
462.27	292.97
462.64	291.63
463.01	290.26
463.38	288.91
463.74	287.49
464.11	286.26
464.48	285.20
464.85	284.03
465.21	283.12
465.58	282.13
465.95	281.01
466.32	280.07
466.68	279.13
467.05	278.21
467.42	277.25
467.78	276.28
468.15	275.39
468.52	274.69
468.88	273.77
469.25	273.00
469.62	272.31
469.98	271.57
470.35	270.93
470.72	270.29
471.08	269.59
471.45	268.98
471.82	268.42
472.18	267.78
472.55	267.32
472.92	266.75
473.28	266.28
473.65	265.77
474.02	265.29
474.38	264.89
474.75	264.54
475.11	264.19
475.48	263.88
475.85	263.60
476.21	263.36
476.58	263.18
476.94	263.00
477.31	262.82
477.67	262.67
478.04	262.54
478.41	262.47
478.77	262.52
479.14	262.48
479.50	262.50
479.87	262.57
480.23	262.64
480.60	262.69
480.96	262.76
481.33	262.97
481.69	263.20
482.06	263.41
482.42	263.60
482.79	263.88
483.15	264.19
483.52	264.56
483.88	264.91
484.25	265.33
484.61	265.73
484.98	266.19
485.34	266.77
485.71	267.40
486.07	268.00
486.44	268.57
486.80	269.27
487.17	269.98
487.53	270.78
487.90	271.65
488.26	272.61
488.62	273.64
488.99	274.62
489.35	275.66
489.72	276.77
490.08	277.99
490.44	279.23
490.81	280.58
491.17	281.99
491.54	283.46
491.90	284.99
492.26	286.65
492.63	288.39
492.99	290.15
493.36	292.01
493.72	294.04
494.08	296.14
494.45	298.42
494.81	300.82
495.17	303.25
495.54	305.79
495.90	308.47
496.26	311.26
496.63	314.22
496.99	317.33
497.35	320.55
497.72	323.92
498.08	327.41
498.44	331.05
498.80	334.93
499.17	338.96
499.53	343.07
499.89	347.40
500.26	351.86
500.62	356.43
500.98	361.32
501.34	366.36
501.71	371.57
502.07	376.93
502.43	382.43
502.79	388.15
503.16	394.12
503.52	400.28
503.88	406.56
504.24	413.10
504.60	419.86
504.97	426.91
505.33	434.08
505.69	441.68
506.05	449.36
506.41	457.13
506.78	465.11
507.14	473.44
507.50	482.03
507.86	490.86
508.22	499.91
508.59	509.00
508.95	518.34
509.31	527.99
509.67	537.83
510.03	547.85
510.39	558.24
510.75	568.82
511.12	579.42
511.48	590.43
511.84	601.63
512.20	612.82
512.56	624.49
512.92	636.39
513.28	648.46
513.64	660.60
514.00	672.95
514.37	685.58
514.73	698.30
515.09	710.90
515.45	723.83
515.81	737.01
516.17	750.47
516.53	764.27
516.89	778.02
517.25	791.84
517.61	806.00
517.97	820.00
518.33	834.05
518.69	848.49
519.05	863.05
519.41	877.74
519.77	892.81
520.13	907.75
520.49	922.73
520.85	937.56
521.21	952.76
521.57	968.49
521.93	983.71
522.29	999.53
522.65	1015.41
523.01	1031.08
523.37	1046.55
523.73	1062.24
524.09	1077.75
524.45	1093.54
524.81	1109.62
525.17	1125.76
525.53	1142.14
525.89	1158.50
526.25	1174.88
526.61	1190.81
526.97	1207.06
527.33	1223.09
527.68	1239.10
528.04	1255.07
528.40	1271.21
528.76	1287.79
529.12	1303.97
529.48	1320.44
529.84	1336.01
530.20	1352.19
530.56	1368.85
530.91	1385.87
531.27	1402.26
531.63	1418.32
531.99	1434.50
532.35	1450.14
532.71	1465.68
533.07	1481.58
533.42	1497.15
533.78	1512.79
534.14	1528.63
534.50	1543.59
534.86	1559.12
535.21	1574.10
535.57	1589.64
535.93	1604.74
536.29	1619.21
536.65	1633.93
537.00	1648.35
537.36	1663.34
537.72	1677.48
538.08	1691.57
538.44	1705.17
538.79	1718.89
539.15	1732.25
539.51	1745.78
539.87	1759.86
540.22	1773.31
540.58	1786.80
540.94	1799.75
541.29	1812.37
541.65	1824.85
542.01	1837.94
542.37	1850.22
542.72	1862.60
543.08	1874.30
543.44	1886.61
543.79	1897.95
544.15	1908.85
544.51	1920.36
544.87	1931.35
545.22	1942.22
545.58	1952.52
545.94	1962.29
546.29	1972.25
546.65	1982.23
547.01	1991.59
547.36	2000.34
547.72	2009.04
548.07	2017.07
548.43	2025.34
548.79	2033.25
549.14	2041.17
549.50	2048.62
549.86	2056.24
550.21	2063.60
550.57	2070.87
550.92	2077.73
551.28	2084.83
551.64	2092.07
551.99	2098.74
552.35	2105.17
552.70	2111.63
553.06	2117.90
553.41	2124.54
553.77	2130.63
554.13	2136.92
554.48	2143.15
554.84	2149.13
555.19	2154.57
555.55	2160.14
555.90	2165.00
556.26	2170.63
556.61	2175.57
556.97	2180.28
557.32	2184.91
557.68	2189.34
558.03	2193.97
558.39	2197.99
558.74	2202.97
559.10	2207.17
559.45	2211.30
559.81	2215.91
560.16	2219.89
560.52	2223.49
560.87	2227.19
561.23	2230.24
561.58	2233.41
561.94	2236.46
562.29	2238.98
562.64	2242.24
563.00	2245.03
563.35	2249.00
563.71	2252.41
564.06	2255.85
564.42	2259.25
564.77	2262.28
565.12	2265.20
565.48	2267.53
565.83	2269.94
566.19	2271.74
566.54	2273.03
566.89	2274.70
567.25	2275.79
567.60	2277.64
567.96	2279.63
568.31	2280.90
568.66	2282.58
569.02	2283.54
569.37	2284.27
569.72	2285.63
570.08	2286.25
570.43	2286.80
570.78	2286.62
571.14	2285.39
571.49	2284.32
571.84	2284.16
572.20	2283.40
572.55	2282.64
572.90	2281.38
573.26	2280.28
573.61	2278.83
573.96	2277.61
574.31	2274.98
574.67	2272.43
575.02	2269.09
575.37	2266.01
575.72	2262.81
576.08	2259.60
576.43	2256.74
576.78	2253.57
577.13	2250.64
577.49	2247.64
577.84	2244.51
578.19	2241.02
578.54	2237.99
578.90	2234.47
579.25	2229.39
579.60	2224.86
579.95	2220.25
580.30	2215.81
580.66	2210.96
581.01	2206.40
581.36	2201.68
581.71	2197.86
582.06	2193.78
582.42	2189.74
582.77	2184.94
583.12	2180.61
583.47	2176.53
583.82	2171.97
584.17	2167.04
584.53	2161.96
584.88	2156.78
585.23	2151.32
585.58	2146.10
585.93	2140.87
586.28	2136.16
586.63	2131.33
586.98	2126.46
587.34	2121.95
587.69	2117.24
588.04	2112.39
588.39	2107.08
588.74	2100.96
589.09	2094.98
589.44	2088.35
589.79	2082.38
590.14	2077.00
590.49	2070.62
590.84	2064.27
591.19	2058.50
591.54	2052.25
591.89	2045.20
592.25	2038.76
592.60	2031.87
592.95	2024.68
593.30	2017.51
593.65	2010.15
594.00	2003.29
594.35	1996.19
594.70	1988.25
595.05	1981.37
595.40	1974.24
595.75	1966.96
596.10	1961.14
596.45	1954.65
596.80	1948.55
597.15	1942.30
597.50	1935.68
597.85	1929.38
598.19	1922.90
598.54	1916.01
598.89	1909.40
599.24	1903.52
599.59	1896.97
599.94	1890.65
600.29	1884.42
600.64	1877.79
600.99	1870.58
601.34	1863.91
601.69	1856.96
602.04	1850.36
602.39	1843.02
602.74	1836.25
603.08	1829.58
603.43	1822.64
603.78	1815.34
604.13	1808.24
604.48	1801.07
604.83	1793.95
605.18	1787.13
605.53	1779.22
605.87	1771.10
606.22	1763.90
606.57	1755.97
606.92	1748.44
607.27	1741.48
607.62	1734.70
607.96	1727.61
608.31	1721.27
608.66	1713.74
609.01	1706.22
609.36	1698.63
609.70	1690.60
610.05	1682.69
610.40	1674.94
610.75	1666.75
611.10	1659.26
611.44	1650.78
611.79	1642.60
612.14	1633.99
612.49	1624.67
612.83	1616.21
613.18	1607.98
613.53	1599.92
613.88	1591.39
614.22	1583.20
614.57	1574.39
614.92	1566.21
615.27	1558.73
615.61	1550.17
615.96	1542.01
616.31	1534.17
616.65	1526.66
617.00	1519.03
617.35	1511.14
617.70	1502.72
618.04	1494.07
618.39	1485.62
618.74	1478.07
619.08	1469.71
619.43	1461.99
619.78	1455.00
620.12	1447.77
620.47	1440.32
620.82	1432.01
621.16	1424.30
621.51	1416.51
621.85	1408.73
622.20	1400.13
622.55	1391.52
622.89	1383.58
623.24	1375.79
623.59	1368.37
623.93	1360.88
624.28	1353.57
624.62	1346.03
624.97	1338.80
625.32	1331.88
625.66	1324.80
626.01	1317.44
626.35	1310.09
626.70	1302.17
627.04	1294.40
627.39	1286.59
627.73	1279.02
628.08	1272.01
628.43	1264.91
628.77	1257.69
629.12	1250.17
629.46	1242.88
629.81	1235.33
630.15	1227.96
630.50	1220.64
630.84	1212.45
631.19	1204.27
631.53	1196.65
631.88	1188.95
632.22	1181.25
632.57	1173.91
632.91	1166.21
633.26	1158.78
633.60	1151.11
633.95	1143.93
634.29	1136.75
634.64	1129.87
634.98	1122.61
635.32	1115.42
635.67	1108.52
636.01	1101.62
636.36	1094.84
636.70	1088.33
637.05	1081.75
637.39	1075.29
637.73	1068.58
638.08	1062.62
638.42	1056.71
638.77	1050.22
639.11	1043.68
639.45	1037.25
639.80	1030.56
640.14	1024.22
640.49	1017.73
640.83	1011.45
641.17	1005.26
641.52	998.99
641.86	992.50
642.20	986.54
642.55	980.13
642.89	973.76
643.23	967.12
643.58	961.26
643.92	954.91
644.26	948.88
644.61	942.69
644.95	936.78
645.29	930.26
645.64	923.48
645.98	917.07
646.32	911.05
646.66	904.99
647.01	899.14
647.35	893.38
647.69	887.39
648.04	881.75
648.38	875.98
648.72	869.92
649.06	863.90
649.41	857.94
649.75	852.03
650.09	845.98
650.43	840.24
650.78	834.08
651.12	828.11
651.46	822.35
651.80	816.65
652.14	811.12
652.49	805.73
652.83	800.55
653.17	794.92
653.51	789.24
653.85	783.79
654.20	778.20
654.54	772.16
654.88	766.33
655.22	760.45
655.56	754.69
655.90	749.18
656.25	743.88
656.59	738.53
656.93	733.43
657.27	728.38
657.61	722.92
657.95	717.78
658.29	712.68
658.64	707.31
658.98	701.97
659.32	696.45
659.66	691.20
660.00	685.83
660.34	680.81
660.68	675.84
661.02	670.82
661.36	666.06
661.70	661.54
662.05	657.23
662.39	653.02
662.73	648.53
663.07	644.13
663.41	639.70
663.75	635.25
664.09	630.61
664.43	626.18
664.77	622.06
665.11	617.81
665.45	613.60
665.79	609.62
666.13	605.49
666.47	601.39
666.81	597.19
667.15	593.01
667.49	589.10
667.83	585.21
668.17	581.28
668.51	577.28
668.85	573.26
669.19	569.37
669.53	565.47
669.87	561.61
670.21	557.94
670.55	554.26
670.89	550.77
671.23	547.30
671.57	543.76
671.91	540.28
672.25	536.70
672.58	533.21
672.92	529.71
673.26	526.49
673.60	523.29
673.94	520.27
674.28	517.41
674.62	514.47
674.96	511.41
675.30	508.47
675.64	505.49
675.97	502.68
676.31	499.82
676.65	496.89
676.99	494.19
677.33	491.23
677.67	488.40
678.01	485.41
678.34	482.53
678.68	479.60
679.02	476.76
679.36	473.99
679.70	471.31
680.04	468.55
680.37	465.69
680.71	462.90
681.05	460.21
681.39	457.43
681.73	454.73
682.06	452.22
682.40	449.62
682.74	447.04
683.08	444.45
683.42	441.82
683.75	439.24
684.09	436.55
684.43	434.05
684.77	431.59
685.10	429.15
685.44	426.78
685.78	424.44
686.12	422.09
686.45	419.82
686.79	417.52
687.13	415.26
687.46	413.06
687.80	410.83
688.14	408.51
688.48	406.46
688.81	404.25
689.15	402.03
689.49	399.80
689.82	397.67
690.16	395.51
690.50	393.50
690.83	391.59
691.17	389.64
691.51	387.73
691.84	385.83
692.18	383.87
692.52	381.84
692.85	379.87
693.19	378.00
693.52	376.07
693.86	374.18
694.20	372.34
694.53	370.52
694.87	368.69
695.21	366.90
695.54	364.99
695.88	363.22
696.21	361.45
696.55	359.78
696.88	358.09
697.22	356.40
697.56	354.73
697.89	352.99
698.23	351.37
698.56	349.75
698.90	348.18
699.23	346.53
699.57	344.95
699.90	343.40
700.24	341.80
700.58	340.31
700.91	338.80
701.25	337.36
701.58	335.93
701.92	334.54
702.25	333.15
702.59	331.78
702.92	330.42
703.26	329.10
703.59	327.83
703.93	326.60
704.26	325.36
704.60	324.06
704.93	322.78
705.26	321.52
705.60	320.34
705.93	319.15
706.27	318.08
706.60	317.04
706.94	315.95
707.27	314.81
707.61	313.66
707.94	312.61
708.27	311.50
708.61	310.41
708.94	309.34
709.28	308.37
709.61	307.40
709.94	306.45
710.28	305.41
710.61	304.39
710.95	303.31
711.28	302.38
711.61	301.42
711.95	300.51
712.28	299.54
712.61	298.51
712.95	297.57
713.28	296.69
713.61	295.75
713.95	294.86
714.28	294.02
714.61	293.17
714.95	292.33
715.28	291.48
715.61	290.61
715.95	289.76
716.28	288.85
716.61	288.02
716.95	287.19
717.28	286.43
717.61	285.64
717.94	284.89
718.28	284.06
718.61	283.34
718.94	282.66
719.27	282.01
719.61	281.37
719.94	280.69
720.27	279.96
720.60	279.27
720.94	278.62
721.27	278.04
721.60	277.46
721.93	276.87
722.27	276.35
722.60	275.77
722.93	275.19
723.26	274.65
723.59	274.04
723.93	273.45
724.26	272.87
724.59	272.31
724.92	271.78
725.25	271.30
725.59	270.76
725.92	270.18
726.25	269.62
726.58	269.09
726.91	268.55
727.24	268.04
727.57	267.58
727.91	267.07
728.24	266.54
728.57	266.04
728.90	265.54
729.23	265.03
729.56	264.60
729.89	264.16
730.22	263.69
730.55	263.24
730.89	262.82
731.22	262.36
731.55	261.91
731.88	261.46
732.21	261.02
732.54	260.60
732.87	260.19
733.20	259.80
733.53	259.40
733.86	259.04
734.19	258.65
734.52	258.24
734.85	257.92
735.18	257.53
735.51	257.16
735.84	256.78
736.17	256.38
736.50	255.95
736.83	255.69
737.16	255.32
737.49	254.98
737.82	254.59
738.15	254.31
738.48	253.94
738.81	253.60
739.14	253.23
739.47	252.91
739.80	252.62
740.13	252.33
740.46	252.01
740.79	251.67
741.12	251.35
741.45	251.06
741.78	250.71
742.11	250.43
742.44	250.10
742.77	249.83
743.10	249.53
743.43	249.23
743.75	248.83
744.08	248.69
744.41	248.42
744.74	248.19
745.07	247.86
745.40	247.63
745.73	247.40
746.06	247.14
746.39	246.87
746.71	246.58
747.04	246.31
747.37	246.04
747.70	245.80
748.03	245.53
748.36	245.28
748.68	245.07
749.01	244.80
749.34	244.60
749.67	244.33
750.00	244.12
750.33	243.98
750.65	243.79
750.98	243.43
751.31	243.18
751.64	242.92
751.97	242.73
752.29	242.51
752.62	242.26
752.95	242.04
753.28	241.79
753.60	241.57
753.93	241.38
754.26	241.14
754.59	240.90
754.91	240.68
755.24	240.45
755.57	240.21
755.90	240.03
756.22	239.81
756.55	239.63
756.88	239.44
757.20	239.18
757.53	238.96
757.86	238.80
758.19	238.64
758.51	238.47
758.84	238.27
759.17	238.11
759.49	237.94
759.82	237.85
760.15	237.71
760.47	237.57
760.80	237.39
761.13	237.26
761.45	237.18
761.78	237.05
762.11	236.93
762.43	236.81
762.76	236.63
763.08	236.49
763.41	236.35
763.74	236.22
764.06	236.10
764.39	235.97
764.71	235.82
765.04	235.68
765.37	235.58
765.69	235.47
766.02	235.32
766.34	235.21
766.67	235.04
767.00	234.95
767.32	234.89
767.65	234.82
767.97	234.72
768.30	234.58
768.62	234.46
768.95	234.32
769.27	234.21
769.60	234.14
769.92	233.97
770.25	233.84
770.57	233.72
770.90	233.62
771.22	233.52
771.55	233.39
771.87	233.34
772.20	233.22
772.52	233.21
772.85	233.27
773.17	233.15
773.50	233.03
773.82	232.91
774.15	232.75
774.47	232.59
774.80	232.52
775.12	232.41
775.45	232.31
775.77	232.25
776.09	232.16
776.42	232.07
776.74	232.05
777.07	232.00
777.39	231.90
777.72	231.80
778.04	231.72
778.36	231.65
778.69	231.57
779.01	231.49
779.33	231.37
779.66	231.16
779.98	231.09
780.31	231.02
780.63	230.99
780.95	230.96
781.28	230.90
781.60	230.84
781.92	230.79
782.25	230.72
782.57	230.66
782.89	230.61
783.22	230.51
783.54	230.44
783.86	230.36
784.19	230.28
784.51	230.25
784.83	230.18
785.16	230.12
785.48	230.07
785.80	230.03
786.12	229.95
786.45	229.90
786.77	229.88
787.09	229.84
