SpectraSuite Data File
++++++++++++++++++++++++++++++++++++
Date: Fri Feb 01 15:34:21 EST 2013
User: group
Dark Spectrum Present: No
Reference Spectrum Present: No
Number of Sampled Component Spectra: 1
Spectrometers: USB2E7196
Integration Time (usec): 35000 (USB2E7196)
Spectra Averaged: 100 (USB2E7196)
Boxcar Smoothing: 10 (USB2E7196)
Correct for Electrical Dark: No (USB2E7196)
Strobe/Lamp Enabled: No (USB2E7196)
Correct for Detector Non-linearity: No (USB2E7196)
Correct for Stray Light: No (USB2E7196)
Number of Pixels in Processed Spectrum: 2048
>>>>>Begin Processed Spectral Data<<<<<
339.09	0.00
339.48	215.42
339.86	216.39
340.24	217.87
340.63	218.83
341.01	221.97
341.39	221.93
341.78	223.35
342.16	224.46
342.54	225.03
342.93	213.35
343.31	224.11
343.69	224.62
344.07	225.08
344.46	225.50
344.84	225.89
345.22	226.09
345.60	226.35
345.99	226.54
346.37	226.65
346.75	226.75
347.13	226.83
347.52	226.89
347.90	226.94
348.28	226.98
348.66	227.01
349.05	226.98
349.43	227.00
349.81	227.05
350.19	227.10
350.57	227.14
350.96	227.18
351.34	227.30
351.72	227.38
352.10	227.47
352.48	227.53
352.87	227.59
353.25	227.67
353.63	227.70
354.01	227.77
354.39	227.88
354.77	227.92
355.15	228.04
355.54	228.11
355.92	228.15
356.30	228.19
356.68	228.30
357.06	228.40
357.44	228.46
357.82	228.50
358.20	228.60
358.58	228.66
358.97	228.76
359.35	228.80
359.73	228.88
360.11	228.92
360.49	229.01
360.87	229.06
361.25	229.13
361.63	229.23
362.01	229.26
362.39	229.26
362.77	229.33
363.15	229.35
363.53	229.35
363.91	229.40
364.29	229.42
364.67	229.34
365.05	229.33
365.43	229.34
365.81	229.36
366.19	229.37
366.57	229.41
366.95	229.38
367.33	229.37
367.71	229.34
368.09	229.39
368.47	229.38
368.85	229.36
369.23	229.32
369.61	229.24
369.99	229.22
370.37	229.22
370.75	229.23
371.13	229.17
371.51	229.12
371.89	229.07
372.27	229.06
372.65	229.05
373.03	229.03
373.41	228.98
373.78	228.91
374.16	228.82
374.54	228.75
374.92	228.69
375.30	228.62
375.68	228.55
376.06	228.48
376.44	228.39
376.82	228.34
377.19	228.27
377.57	228.24
377.95	228.16
378.33	228.09
378.71	227.93
379.09	227.88
379.47	227.85
379.84	227.74
380.22	227.64
380.60	227.54
380.98	227.48
381.36	227.44
381.73	227.38
382.11	227.32
382.49	227.26
382.87	227.15
383.25	227.11
383.62	227.20
384.00	227.09
384.38	227.00
384.76	226.97
385.13	226.99
385.51	226.92
385.89	226.85
386.27	226.81
386.64	226.78
387.02	226.71
387.40	226.65
387.78	226.65
388.15	226.62
388.53	226.56
388.91	226.52
389.29	226.44
389.66	226.45
390.04	226.40
390.42	226.42
390.79	226.45
391.17	226.41
391.55	226.28
391.92	226.30
392.30	226.32
392.68	226.28
393.05	226.27
393.43	226.30
393.81	226.31
394.18	226.34
394.56	226.37
394.94	226.44
395.31	226.45
395.69	226.52
396.06	226.58
396.44	226.63
396.82	226.66
397.19	226.78
397.57	226.82
397.95	226.90
398.32	226.91
398.70	226.99
399.07	227.05
399.45	227.12
399.82	227.18
400.20	227.25
400.58	227.36
400.95	227.39
401.33	227.47
401.70	227.64
402.08	227.72
402.45	227.82
402.83	227.95
403.20	228.06
403.58	228.12
403.95	228.24
404.33	228.40
404.71	228.59
405.08	228.76
405.46	228.89
405.83	229.04
406.21	229.20
406.58	229.33
406.96	229.54
407.33	229.73
407.70	229.93
408.08	230.18
408.45	230.38
408.83	230.63
409.20	230.85
409.58	231.00
409.95	231.23
410.33	231.52
410.70	231.73
411.08	232.05
411.45	232.39
411.82	232.69
412.20	233.01
412.57	233.38
412.95	233.68
413.32	234.09
413.69	234.51
414.07	234.93
414.44	235.39
414.82	235.81
415.19	236.37
415.56	236.93
415.94	237.46
416.31	238.10
416.68	238.72
417.06	239.44
417.43	240.14
417.81	240.95
418.18	241.69
418.55	242.54
418.93	243.39
419.30	244.25
419.67	245.16
420.04	246.11
420.42	247.11
420.79	248.26
421.16	249.43
421.54	250.60
421.91	251.81
422.28	253.10
422.66	254.44
423.03	255.73
423.40	257.05
423.77	258.46
424.15	259.88
424.52	261.36
424.89	263.00
425.26	264.53
425.64	265.96
426.01	267.56
426.38	269.23
426.75	270.86
427.13	272.61
427.50	274.44
427.87	276.34
428.24	278.18
428.61	279.93
428.99	281.80
429.36	283.88
429.73	285.98
430.10	287.97
430.47	290.11
430.85	292.22
431.22	294.42
431.59	296.83
431.96	299.04
432.33	301.52
432.70	303.88
433.08	306.74
433.45	309.36
433.82	312.02
434.19	314.89
434.56	317.75
434.93	320.40
435.30	323.01
435.68	325.88
436.05	328.72
436.42	331.53
436.79	334.10
437.16	336.82
437.53	339.68
437.90	342.52
438.27	345.21
438.64	348.05
439.01	350.63
439.38	352.88
439.75	355.07
440.13	357.59
440.50	359.89
440.87	361.69
441.24	363.67
441.61	365.79
441.98	367.31
442.35	369.15
442.72	371.01
443.09	372.83
443.46	373.83
443.83	374.46
444.20	374.98
444.57	375.78
444.94	376.04
445.31	376.38
445.68	376.71
446.05	376.79
446.42	376.41
446.79	376.05
447.16	375.60
447.53	375.35
447.90	374.15
448.27	373.01
448.64	371.44
449.01	370.29
449.37	368.34
449.74	366.42
450.11	364.17
450.48	361.74
450.85	359.22
451.22	357.11
451.59	355.06
451.96	353.09
452.33	350.56
452.70	348.27
453.07	345.41
453.43	342.55
453.80	339.80
454.17	337.11
454.54	334.57
454.91	331.83
455.28	329.06
455.65	326.55
456.02	324.09
456.38	321.98
456.75	319.35
457.12	317.09
457.49	314.86
457.86	312.64
458.23	310.76
458.59	308.72
458.96	306.64
459.33	304.80
459.70	302.96
460.07	301.39
460.43	299.62
460.80	298.00
461.17	296.51
461.54	295.00
461.91	293.55
462.27	292.06
462.64	290.83
463.01	289.52
463.38	288.26
463.74	286.86
464.11	285.68
464.48	284.60
464.85	283.47
465.21	282.58
465.58	281.68
465.95	280.56
466.32	279.64
466.68	278.73
467.05	277.79
467.42	276.88
467.78	275.94
468.15	275.06
468.52	274.41
468.88	273.56
469.25	272.81
469.62	272.21
469.98	271.58
470.35	270.92
470.72	270.31
471.08	269.61
471.45	269.10
471.82	268.53
472.18	267.94
472.55	267.52
472.92	267.01
473.28	266.54
473.65	266.08
474.02	265.64
474.38	265.27
474.75	264.97
475.11	264.61
475.48	264.38
475.85	264.14
476.21	263.91
476.58	263.71
476.94	263.52
477.31	263.33
477.67	263.14
478.04	263.06
478.41	262.98
478.77	263.08
479.14	263.03
479.50	263.02
479.87	263.11
480.23	263.19
480.60	263.26
480.96	263.37
481.33	263.58
481.69	263.76
482.06	263.95
482.42	264.13
482.79	264.39
483.15	264.69
483.52	265.10
483.88	265.46
484.25	265.85
484.61	266.28
484.98	266.74
485.34	267.31
485.71	267.87
486.07	268.47
486.44	269.04
486.80	269.71
487.17	270.46
487.53	271.26
487.90	272.10
488.26	273.03
488.62	273.99
488.99	274.96
489.35	276.02
489.72	277.13
490.08	278.35
490.44	279.60
490.81	280.95
491.17	282.28
491.54	283.77
491.90	285.29
492.26	286.95
492.63	288.63
492.99	290.44
493.36	292.31
493.72	294.36
494.08	296.47
494.45	298.72
494.81	301.11
495.17	303.57
495.54	306.16
495.90	308.87
496.26	311.67
496.63	314.64
496.99	317.73
497.35	320.99
497.72	324.38
498.08	327.91
498.44	331.59
498.80	335.51
499.17	339.58
499.53	343.76
499.89	348.13
500.26	352.71
500.62	357.39
500.98	362.38
501.34	367.40
501.71	372.73
502.07	378.23
502.43	383.83
502.79	389.63
503.16	395.75
503.52	402.02
503.88	408.44
504.24	415.12
504.60	422.07
504.97	429.22
505.33	436.55
505.69	444.23
506.05	451.98
506.41	459.91
506.78	467.99
507.14	476.45
507.50	485.16
507.86	494.13
508.22	503.32
508.59	512.52
508.95	522.13
509.31	531.87
509.67	541.94
510.03	552.21
510.39	562.75
510.75	573.48
511.12	584.36
511.48	595.69
511.84	607.08
512.20	618.55
512.56	630.47
512.92	642.67
513.28	655.00
513.64	667.51
514.00	680.22
514.37	693.22
514.73	706.32
515.09	719.38
515.45	732.70
515.81	746.32
516.17	760.31
516.53	774.45
516.89	788.68
517.25	802.79
517.61	817.25
517.97	831.74
518.33	846.22
518.69	861.07
519.05	876.05
519.41	891.28
519.77	906.89
520.13	922.30
520.49	937.70
520.85	953.15
521.21	968.95
521.57	985.22
521.93	1001.05
522.29	1017.47
522.65	1033.78
523.01	1050.07
523.37	1066.14
523.73	1082.33
524.09	1098.45
524.45	1114.87
524.81	1131.66
525.17	1148.49
525.53	1165.45
525.89	1182.29
526.25	1199.10
526.61	1215.51
526.97	1232.28
527.33	1248.66
527.68	1265.48
528.04	1281.93
528.40	1298.58
528.76	1315.56
529.12	1332.14
529.48	1349.08
529.84	1365.17
530.20	1381.84
530.56	1398.91
530.91	1416.29
531.27	1433.15
531.63	1449.64
531.99	1466.11
532.35	1481.98
532.71	1497.83
533.07	1514.06
533.42	1530.13
533.78	1546.26
534.14	1562.68
534.50	1578.12
534.86	1594.13
535.21	1609.24
535.57	1625.46
535.93	1641.00
536.29	1655.86
536.65	1670.90
537.00	1685.73
537.36	1701.02
537.72	1715.66
538.08	1730.08
538.44	1743.95
538.79	1757.79
539.15	1771.53
539.51	1785.37
539.87	1799.86
540.22	1813.64
540.58	1827.60
540.94	1840.95
541.29	1853.93
541.65	1866.56
542.01	1879.62
542.37	1892.05
542.72	1904.55
543.08	1916.15
543.44	1928.64
543.79	1939.97
544.15	1951.10
544.51	1962.47
544.87	1973.48
545.22	1984.29
545.58	1994.43
545.94	2004.12
546.29	2014.07
546.65	2024.01
547.01	2033.32
547.36	2042.02
547.72	2050.53
548.07	2058.30
548.43	2066.54
548.79	2074.64
549.14	2082.21
549.50	2089.87
549.86	2097.48
550.21	2104.79
550.57	2112.06
550.92	2118.56
551.28	2125.64
551.64	2132.78
551.99	2139.52
552.35	2145.74
552.70	2151.76
553.06	2157.86
553.41	2164.33
553.77	2170.41
554.13	2176.51
554.48	2182.72
554.84	2188.25
555.19	2193.61
555.55	2198.62
555.90	2203.03
556.26	2207.80
556.61	2212.54
556.97	2216.62
557.32	2220.80
557.68	2224.94
558.03	2229.17
558.39	2232.87
558.74	2237.44
559.10	2241.27
559.45	2244.82
559.81	2249.11
560.16	2253.01
560.52	2256.31
560.87	2259.68
561.23	2262.25
561.58	2265.13
561.94	2267.69
562.29	2270.07
562.64	2272.70
563.00	2275.51
563.35	2279.02
563.71	2282.17
564.06	2285.28
564.42	2288.00
564.77	2290.42
565.12	2292.54
565.48	2294.47
565.83	2296.36
566.19	2297.58
566.54	2298.45
566.89	2299.59
567.25	2300.23
567.60	2301.60
567.96	2303.10
568.31	2303.82
568.66	2304.89
569.02	2305.34
569.37	2305.54
569.72	2306.39
570.08	2306.46
570.43	2306.35
570.78	2305.72
571.14	2304.14
571.49	2302.80
571.84	2302.51
572.20	2301.35
572.55	2300.30
572.90	2298.74
573.26	2297.26
573.61	2295.58
573.96	2293.58
574.31	2290.58
574.67	2287.27
575.02	2283.50
575.37	2280.14
575.72	2276.41
576.08	2273.04
576.43	2269.78
576.78	2266.03
577.13	2262.75
577.49	2259.76
577.84	2256.21
578.19	2252.35
578.54	2248.53
578.90	2244.26
579.25	2238.73
579.60	2233.66
579.95	2228.64
580.30	2223.51
580.66	2218.35
581.01	2213.49
581.36	2208.70
581.71	2204.38
582.06	2200.02
582.42	2195.54
582.77	2190.20
583.12	2185.62
583.47	2180.84
583.82	2175.81
584.17	2170.43
584.53	2164.82
584.88	2159.04
585.23	2153.24
585.58	2147.78
585.93	2142.33
586.28	2137.51
586.63	2132.45
586.98	2127.45
587.34	2122.68
587.69	2117.78
588.04	2112.35
588.39	2106.46
588.74	2099.95
589.09	2093.84
589.44	2086.94
589.79	2080.84
590.14	2075.23
590.49	2068.56
590.84	2062.16
591.19	2056.09
591.54	2049.61
591.89	2042.10
592.25	2035.22
592.60	2027.93
592.95	2020.36
593.30	2013.01
593.65	2005.49
594.00	1998.38
594.35	1990.98
594.70	1983.04
595.05	1975.77
595.40	1968.68
595.75	1961.03
596.10	1954.70
596.45	1947.88
596.80	1941.84
597.15	1935.15
597.50	1927.90
597.85	1921.56
598.19	1914.79
598.54	1907.55
598.89	1900.94
599.24	1895.18
599.59	1888.40
599.94	1882.25
600.29	1875.91
600.64	1869.28
600.99	1861.74
601.34	1854.70
601.69	1847.79
602.04	1840.74
602.39	1833.34
602.74	1826.35
603.08	1819.81
603.43	1812.95
603.78	1805.61
604.13	1798.26
604.48	1790.87
604.83	1784.03
605.18	1776.84
605.53	1768.91
605.87	1761.02
606.22	1753.79
606.57	1745.79
606.92	1738.51
607.27	1731.22
607.62	1724.23
607.96	1717.02
608.31	1710.32
608.66	1702.81
609.01	1695.34
609.36	1687.89
609.70	1679.86
610.05	1671.63
610.40	1663.84
610.75	1655.60
611.10	1647.92
611.44	1639.60
611.79	1631.74
612.14	1623.10
612.49	1613.95
612.83	1605.48
613.18	1597.22
613.53	1589.05
613.88	1580.49
614.22	1572.26
614.57	1563.66
614.92	1555.47
615.27	1547.79
615.61	1539.46
615.96	1531.51
616.31	1523.75
616.65	1516.31
617.00	1508.76
617.35	1501.25
617.70	1492.93
618.04	1484.44
618.39	1476.24
618.74	1468.50
619.08	1460.22
619.43	1452.64
619.78	1445.83
620.12	1438.74
620.47	1431.31
620.82	1423.19
621.16	1415.76
621.51	1408.14
621.85	1400.51
622.20	1392.04
622.55	1383.63
622.89	1375.78
623.24	1368.11
623.59	1360.66
623.93	1353.04
624.28	1345.84
624.62	1338.21
624.97	1331.03
625.32	1324.28
625.66	1317.31
626.01	1310.05
626.35	1302.48
626.70	1294.71
627.04	1286.80
627.39	1278.93
627.73	1271.54
628.08	1264.61
628.43	1257.35
628.77	1249.90
629.12	1242.30
629.46	1235.17
629.81	1227.81
630.15	1220.57
630.50	1213.08
630.84	1204.89
631.19	1196.96
631.53	1189.36
631.88	1181.86
632.22	1174.18
632.57	1166.90
632.91	1159.33
633.26	1152.02
633.60	1144.77
633.95	1137.70
634.29	1130.75
634.64	1124.16
634.98	1116.74
635.32	1109.57
635.67	1102.95
636.01	1096.32
636.36	1089.55
636.70	1083.07
637.05	1076.55
637.39	1070.17
637.73	1063.74
638.08	1057.94
638.42	1052.01
638.77	1045.55
639.11	1038.88
639.45	1032.54
639.80	1025.86
640.14	1019.33
640.49	1012.67
640.83	1006.30
641.17	1000.02
641.52	993.75
641.86	987.32
642.20	981.40
642.55	975.14
642.89	968.66
643.23	962.14
643.58	956.48
643.92	950.25
644.26	944.11
644.61	938.02
644.95	931.97
645.29	925.35
645.64	918.51
645.98	912.23
646.32	906.46
646.66	900.38
647.01	894.60
647.35	888.99
647.69	883.26
648.04	877.74
648.38	871.97
648.72	865.94
649.06	859.89
649.41	854.06
649.75	848.05
650.09	842.08
650.43	836.31
650.78	830.07
651.12	824.06
651.46	818.32
651.80	812.56
652.14	807.22
652.49	801.84
652.83	796.79
653.17	791.08
653.51	785.32
653.85	779.94
654.20	774.22
654.54	768.19
654.88	762.43
655.22	756.52
655.56	750.82
655.90	745.36
656.25	740.03
656.59	734.70
656.93	729.61
657.27	724.49
657.61	719.05
657.95	713.96
658.29	708.83
658.64	703.60
658.98	698.30
659.32	692.75
659.66	687.48
660.00	682.07
660.34	677.19
660.68	672.35
661.02	667.32
661.36	662.67
661.70	658.14
662.05	653.82
662.39	649.48
662.73	645.02
663.07	640.61
663.41	636.21
663.75	631.67
664.09	627.10
664.43	622.58
664.77	618.46
665.11	614.19
665.45	610.17
665.79	606.12
666.13	601.95
666.47	597.91
666.81	593.78
667.15	589.65
667.49	585.73
667.83	581.92
668.17	578.02
668.51	573.93
668.85	569.99
669.19	566.10
669.53	562.23
669.87	558.32
670.21	554.64
670.55	550.95
670.89	547.50
671.23	544.08
671.57	540.61
671.91	537.11
672.25	533.67
672.58	530.18
672.92	526.78
673.26	523.68
673.60	520.53
673.94	517.46
674.28	514.58
674.62	511.63
674.96	508.41
675.30	505.46
675.64	502.54
675.97	499.73
676.31	496.90
676.65	493.97
676.99	491.30
677.33	488.49
677.67	485.72
678.01	482.66
678.34	479.68
678.68	476.81
679.02	473.98
679.36	471.21
679.70	468.48
680.04	465.74
680.37	462.83
680.71	460.04
681.05	457.48
681.39	454.77
681.73	452.11
682.06	449.66
682.40	447.14
682.74	444.63
683.08	442.09
683.42	439.48
683.75	436.94
684.09	434.36
684.43	431.88
684.77	429.43
685.10	427.20
685.44	424.94
685.78	422.71
686.12	420.48
686.45	418.17
686.79	415.80
687.13	413.63
687.46	411.51
687.80	409.39
688.14	407.13
688.48	405.08
688.81	402.78
689.15	400.64
689.49	398.49
689.82	396.41
690.16	394.35
690.50	392.41
690.83	390.55
691.17	388.58
691.51	386.70
691.84	384.84
692.18	382.90
692.52	380.87
692.85	378.92
693.19	377.04
693.52	375.20
693.86	373.48
694.20	371.67
694.53	369.87
694.87	368.07
695.21	366.33
695.54	364.51
695.88	362.88
696.21	361.17
696.55	359.49
696.88	357.85
697.22	356.18
697.56	354.56
697.89	352.87
698.23	351.30
698.56	349.65
698.90	348.06
699.23	346.43
699.57	344.92
699.90	343.38
700.24	341.84
700.58	340.29
700.91	338.76
701.25	337.27
701.58	335.89
701.92	334.50
702.25	333.08
702.59	331.75
702.92	330.47
703.26	329.14
703.59	327.85
703.93	326.64
704.26	325.39
704.60	324.10
704.93	322.86
705.26	321.61
705.60	320.45
705.93	319.29
706.27	318.24
706.60	317.17
706.94	316.10
707.27	314.96
707.61	313.90
707.94	312.86
708.27	311.79
708.61	310.75
708.94	309.73
709.28	308.76
709.61	307.81
709.94	306.80
710.28	305.79
710.61	304.80
710.95	303.70
711.28	302.77
711.61	301.83
711.95	300.92
712.28	300.00
712.61	298.99
712.95	298.06
713.28	297.21
713.61	296.30
713.95	295.46
714.28	294.61
714.61	293.78
714.95	292.92
715.28	292.10
715.61	291.19
715.95	290.34
716.28	289.51
716.61	288.64
716.95	287.83
717.28	287.13
717.61	286.40
717.94	285.66
718.28	284.88
718.61	284.15
718.94	283.46
719.27	282.78
719.61	282.16
719.94	281.48
720.27	280.71
720.60	280.05
720.94	279.40
721.27	278.81
721.60	278.21
721.93	277.62
722.27	277.07
722.60	276.54
722.93	275.93
723.26	275.40
723.59	274.88
723.93	274.38
724.26	273.80
724.59	273.26
724.92	272.75
725.25	272.26
725.59	271.76
725.92	271.23
726.25	270.72
726.58	270.24
726.91	269.78
727.24	269.33
727.57	268.89
727.91	268.37
728.24	267.95
728.57	267.47
728.90	267.06
729.23	266.54
729.56	266.09
729.89	265.65
730.22	265.13
730.55	264.63
730.89	264.12
731.22	263.62
731.55	263.17
731.88	262.76
732.21	262.31
732.54	261.86
732.87	261.45
733.20	261.04
733.53	260.66
733.86	260.26
734.19	259.85
734.52	259.42
734.85	259.12
735.18	258.69
735.51	258.36
735.84	257.97
736.17	257.68
736.50	257.30
736.83	257.05
737.16	256.75
737.49	256.45
737.82	256.11
738.15	255.81
738.48	255.47
738.81	255.13
739.14	254.82
739.47	254.52
739.80	254.19
740.13	253.88
740.46	253.51
740.79	253.17
741.12	252.86
741.45	252.58
741.78	252.23
742.11	251.96
742.44	251.64
742.77	251.35
743.10	251.02
743.43	250.71
743.75	250.34
744.08	250.15
744.41	249.84
744.74	249.57
745.07	249.30
745.40	249.06
745.73	248.84
746.06	248.55
746.39	248.28
746.71	248.05
747.04	247.81
747.37	247.57
747.70	247.35
748.03	247.14
748.36	246.93
748.68	246.69
749.01	246.39
749.34	246.15
749.67	245.89
750.00	245.63
750.33	245.48
750.65	245.25
750.98	244.89
751.31	244.66
751.64	244.46
751.97	244.31
752.29	244.09
752.62	243.85
752.95	243.65
753.28	243.45
753.60	243.22
753.93	242.98
754.26	242.81
754.59	242.58
754.91	242.35
755.24	242.13
755.57	241.93
755.90	241.75
756.22	241.57
756.55	241.39
756.88	241.21
757.20	240.97
757.53	240.78
757.86	240.63
758.19	240.48
758.51	240.30
758.84	240.07
759.17	239.90
759.49	239.75
759.82	239.63
760.15	239.47
760.47	239.32
760.80	239.18
761.13	239.01
761.45	238.84
761.78	238.66
762.11	238.52
762.43	238.39
762.76	238.27
763.08	238.12
763.41	237.98
763.74	237.85
764.06	237.69
764.39	237.55
764.71	237.42
765.04	237.28
765.37	237.15
765.69	237.02
766.02	236.90
766.34	236.75
766.67	236.57
767.00	236.46
767.32	236.41
767.65	236.36
767.97	236.24
768.30	236.16
768.62	236.06
768.95	235.92
769.27	235.77
769.60	235.67
769.92	235.58
770.25	235.45
770.57	235.33
770.90	235.24
771.22	235.13
771.55	235.04
771.87	234.94
772.20	234.85
772.52	234.85
772.85	234.90
773.17	234.81
773.50	234.74
773.82	234.63
774.15	234.52
774.47	234.36
774.80	234.29
775.12	234.21
775.45	234.14
775.77	234.08
776.09	234.02
776.42	233.94
776.74	233.88
777.07	233.81
777.39	233.75
777.72	233.71
778.04	233.64
778.36	233.59
778.69	233.55
779.01	233.46
779.33	233.30
779.66	233.08
779.98	233.02
780.31	232.94
780.63	232.93
780.95	232.86
781.28	232.80
781.60	232.72
781.92	232.66
782.25	232.58
782.57	232.48
782.89	232.42
783.22	232.36
783.54	232.30
783.86	232.27
784.19	232.23
784.51	232.17
784.83	232.15
785.16	232.08
785.48	232.00
785.80	231.99
786.12	231.95
786.45	231.93
786.77	231.86
787.09	231.82
