SpectraSuite Data File
++++++++++++++++++++++++++++++++++++
Date: Fri Feb 01 16:57:07 EST 2013
User: group
Dark Spectrum Present: No
Reference Spectrum Present: No
Number of Sampled Component Spectra: 1
Spectrometers: USB2E7196
Integration Time (usec): 35000 (USB2E7196)
Spectra Averaged: 100 (USB2E7196)
Boxcar Smoothing: 10 (USB2E7196)
Correct for Electrical Dark: No (USB2E7196)
Strobe/Lamp Enabled: No (USB2E7196)
Correct for Detector Non-linearity: No (USB2E7196)
Correct for Stray Light: No (USB2E7196)
Number of Pixels in Processed Spectrum: 2048
>>>>>Begin Processed Spectral Data<<<<<
339.09	0.00
339.48	212.73
339.86	215.15
340.24	215.85
340.63	217.76
341.01	220.47
341.39	220.13
341.78	221.64
342.16	222.27
342.54	222.93
342.93	211.42
343.31	222.13
343.69	222.71
344.07	223.15
344.46	223.59
344.84	223.92
345.22	224.15
345.60	224.38
345.99	224.55
346.37	224.70
346.75	224.79
347.13	224.87
347.52	224.96
347.90	225.01
348.28	225.00
348.66	225.05
349.05	225.04
349.43	225.07
349.81	225.12
350.19	225.20
350.57	225.28
350.96	225.37
351.34	225.41
351.72	225.46
352.10	225.53
352.48	225.60
352.87	225.67
353.25	225.72
353.63	225.80
354.01	225.85
354.39	225.91
354.77	226.00
355.15	226.12
355.54	226.16
355.92	226.24
356.30	226.34
356.68	226.49
357.06	226.58
357.44	226.66
357.82	226.76
358.20	226.86
358.58	226.93
358.97	226.99
359.35	227.11
359.73	227.20
360.11	227.29
360.49	227.35
360.87	227.43
361.25	227.54
361.63	227.65
362.01	227.74
362.39	227.81
362.77	227.88
363.15	227.90
363.53	227.97
363.91	227.99
364.29	228.03
364.67	228.00
365.05	228.06
365.43	228.10
365.81	228.12
366.19	228.14
366.57	228.21
366.95	228.25
367.33	228.23
367.71	228.24
368.09	228.25
368.47	228.25
368.85	228.22
369.23	228.22
369.61	228.17
369.99	228.19
370.37	228.19
370.75	228.22
371.13	228.19
371.51	228.14
371.89	228.16
372.27	228.15
372.65	228.12
373.03	228.07
373.41	228.02
373.78	227.95
374.16	227.88
374.54	227.77
374.92	227.68
375.30	227.63
375.68	227.58
376.06	227.50
376.44	227.43
376.82	227.38
377.19	227.31
377.57	227.23
377.95	227.14
378.33	227.05
378.71	226.94
379.09	226.89
379.47	226.87
379.84	226.74
380.22	226.66
380.60	226.56
380.98	226.46
381.36	226.41
381.73	226.32
382.11	226.25
382.49	226.18
382.87	226.10
383.25	226.04
383.62	226.08
384.00	225.99
384.38	225.93
384.76	225.88
385.13	225.81
385.51	225.73
385.89	225.64
386.27	225.59
386.64	225.53
387.02	225.46
387.40	225.36
387.78	225.35
388.15	225.32
388.53	225.28
388.91	225.25
389.29	225.18
389.66	225.17
390.04	225.11
390.42	225.12
390.79	225.10
391.17	225.06
391.55	224.94
391.92	224.94
392.30	224.96
392.68	224.95
393.05	224.95
393.43	224.97
393.81	224.97
394.18	224.96
394.56	224.99
394.94	225.00
395.31	224.98
395.69	225.01
396.06	225.02
396.44	225.04
396.82	225.07
397.19	225.12
397.57	225.14
397.95	225.18
398.32	225.18
398.70	225.22
399.07	225.32
399.45	225.34
399.82	225.41
400.20	225.42
400.58	225.46
400.95	225.48
401.33	225.58
401.70	225.74
402.08	225.82
402.45	225.87
402.83	225.96
403.20	226.09
403.58	226.17
403.95	226.29
404.33	226.39
404.71	226.52
405.08	226.72
405.46	226.86
405.83	227.02
406.21	227.17
406.58	227.32
406.96	227.43
407.33	227.60
407.70	227.79
408.08	228.09
408.45	228.32
408.83	228.58
409.20	228.78
409.58	228.93
409.95	229.19
410.33	229.47
410.70	229.74
411.08	230.00
411.45	230.33
411.82	230.64
412.20	231.04
412.57	231.45
412.95	231.72
413.32	232.13
413.69	232.54
414.07	233.01
414.44	233.51
414.82	234.01
415.19	234.60
415.56	235.15
415.94	235.67
416.31	236.30
416.68	236.90
417.06	237.60
417.43	238.30
417.81	239.10
418.18	239.88
418.55	240.70
418.93	241.59
419.30	242.49
419.67	243.41
420.04	244.36
420.42	245.33
420.79	246.54
421.16	247.67
421.54	248.86
421.91	250.05
422.28	251.30
422.66	252.63
423.03	253.90
423.40	255.19
423.77	256.60
424.15	258.02
424.52	259.47
424.89	261.08
425.26	262.61
425.64	264.02
426.01	265.58
426.38	267.23
426.75	268.90
427.13	270.64
427.50	272.43
427.87	274.28
428.24	276.16
428.61	277.86
428.99	279.76
429.36	281.85
429.73	283.91
430.10	285.93
430.47	287.99
430.85	290.11
431.22	292.37
431.59	294.76
431.96	296.99
432.33	299.47
432.70	301.82
433.08	304.65
433.45	307.25
433.82	309.89
434.19	312.78
434.56	315.52
434.93	318.12
435.30	320.69
435.68	323.56
436.05	326.33
436.42	329.14
436.79	331.64
437.16	334.33
437.53	337.11
437.90	339.86
438.27	342.58
438.64	345.38
439.01	347.94
439.38	350.16
439.75	352.37
440.13	354.85
440.50	357.15
440.87	358.94
441.24	360.88
441.61	362.97
441.98	364.46
442.35	366.29
442.72	368.13
443.09	369.96
443.46	370.96
443.83	371.54
444.20	372.01
444.57	372.87
444.94	373.15
445.31	373.50
445.68	373.88
446.05	373.95
446.42	373.57
446.79	373.17
447.16	372.69
447.53	372.31
447.90	371.19
448.27	370.04
448.64	368.53
449.01	367.42
449.37	365.49
449.74	363.61
450.11	361.37
450.48	358.91
450.85	356.43
451.22	354.32
451.59	352.35
451.96	350.41
452.33	347.81
452.70	345.49
453.07	342.69
453.43	339.80
453.80	337.02
454.17	334.35
454.54	331.80
454.91	329.13
455.28	326.51
455.65	324.03
456.02	321.59
456.38	319.45
456.75	316.77
457.12	314.55
457.49	312.32
457.86	310.18
458.23	308.38
458.59	306.29
458.96	304.19
459.33	302.35
459.70	300.52
460.07	299.04
460.43	297.28
460.80	295.66
461.17	294.24
461.54	292.79
461.91	291.39
462.27	289.98
462.64	288.72
463.01	287.38
463.38	286.10
463.74	284.79
464.11	283.62
464.48	282.63
464.85	281.52
465.21	280.68
465.58	279.77
465.95	278.68
466.32	277.81
466.68	276.92
467.05	276.03
467.42	275.13
467.78	274.22
468.15	273.38
468.52	272.77
468.88	271.93
469.25	271.14
469.62	270.55
469.98	269.86
470.35	269.23
470.72	268.67
471.08	268.01
471.45	267.46
471.82	266.93
472.18	266.32
472.55	265.89
472.92	265.36
473.28	264.88
473.65	264.46
474.02	264.00
474.38	263.63
474.75	263.32
475.11	262.99
475.48	262.75
475.85	262.55
476.21	262.30
476.58	262.14
476.94	262.03
477.31	261.84
477.67	261.70
478.04	261.61
478.41	261.52
478.77	261.58
479.14	261.55
479.50	261.56
479.87	261.64
480.23	261.72
480.60	261.84
480.96	261.95
481.33	262.11
481.69	262.33
482.06	262.53
482.42	262.75
482.79	263.06
483.15	263.38
483.52	263.74
483.88	264.08
484.25	264.44
484.61	264.90
484.98	265.37
485.34	265.93
485.71	266.51
486.07	267.12
486.44	267.68
486.80	268.38
487.17	269.13
487.53	269.95
487.90	270.82
488.26	271.71
488.62	272.70
488.99	273.69
489.35	274.75
489.72	275.85
490.08	277.05
490.44	278.24
490.81	279.54
491.17	280.89
491.54	282.41
491.90	283.92
492.26	285.52
492.63	287.23
492.99	288.98
493.36	290.87
493.72	292.92
494.08	295.01
494.45	297.24
494.81	299.59
495.17	302.00
495.54	304.57
495.90	307.23
496.26	309.98
496.63	312.87
496.99	315.95
497.35	319.27
497.72	322.57
498.08	326.06
498.44	329.75
498.80	333.68
499.17	337.66
499.53	341.81
499.89	346.16
500.26	350.60
500.62	355.26
500.98	360.25
501.34	365.23
501.71	370.54
502.07	375.95
502.43	381.54
502.79	387.32
503.16	393.33
503.52	399.60
503.88	405.99
504.24	412.64
504.60	419.44
504.97	426.50
505.33	433.83
505.69	441.56
506.05	449.23
506.41	457.07
506.78	465.17
507.14	473.57
507.50	482.24
507.86	491.25
508.22	500.42
508.59	509.52
508.95	519.12
509.31	528.82
509.67	538.88
510.03	549.06
510.39	559.53
510.75	570.25
511.12	581.09
511.48	592.29
511.84	603.69
512.20	615.12
512.56	626.85
512.92	638.92
513.28	651.13
513.64	663.48
514.00	675.99
514.37	688.79
514.73	701.70
515.09	714.60
515.45	727.80
515.81	741.23
516.17	754.96
516.53	768.87
516.89	782.94
517.25	796.85
517.61	811.02
517.97	825.34
518.33	839.58
518.69	854.12
519.05	868.83
519.41	883.80
519.77	899.10
520.13	914.33
520.49	929.44
520.85	944.59
521.21	959.98
521.57	975.96
521.93	991.47
522.29	1007.62
522.65	1023.55
523.01	1039.41
523.37	1055.09
523.73	1070.97
524.09	1086.70
524.45	1102.61
524.81	1118.99
525.17	1135.47
525.53	1152.01
525.89	1168.51
526.25	1185.12
526.61	1201.24
526.97	1217.57
527.33	1233.81
527.68	1250.12
528.04	1266.47
528.40	1282.72
528.76	1299.62
529.12	1315.93
529.48	1332.54
529.84	1348.24
530.20	1364.61
530.56	1381.27
530.91	1398.39
531.27	1414.84
531.63	1430.99
531.99	1447.32
532.35	1463.00
532.71	1478.70
533.07	1494.68
533.42	1510.41
533.78	1526.11
534.14	1542.14
534.50	1557.23
534.86	1572.70
535.21	1587.72
535.57	1603.12
535.93	1618.25
536.29	1632.68
536.65	1647.41
537.00	1661.83
537.36	1676.84
537.72	1690.99
538.08	1705.33
538.44	1718.85
538.79	1732.63
539.15	1746.10
539.51	1759.54
539.87	1773.60
540.22	1786.96
540.58	1800.48
540.94	1813.49
541.29	1826.14
541.65	1838.45
542.01	1851.40
542.37	1863.60
542.72	1875.61
543.08	1887.22
543.44	1899.43
543.79	1910.48
544.15	1921.24
544.51	1932.62
544.87	1943.35
545.22	1954.06
545.58	1963.97
545.94	1973.72
546.29	1983.26
546.65	1993.05
547.01	2002.16
547.36	2010.82
547.72	2019.25
548.07	2026.99
548.43	2035.00
548.79	2042.90
549.14	2050.44
549.50	2057.65
549.86	2065.10
550.21	2072.50
550.57	2079.57
550.92	2086.11
551.28	2093.15
551.64	2100.22
551.99	2106.71
552.35	2112.81
552.70	2118.97
553.06	2124.91
553.41	2131.03
553.77	2137.04
554.13	2143.09
554.48	2149.31
554.84	2154.80
555.19	2160.06
555.55	2165.30
555.90	2169.76
556.26	2174.67
556.61	2179.35
556.97	2183.82
557.32	2188.14
557.68	2192.22
558.03	2196.63
558.39	2200.21
558.74	2204.74
559.10	2208.76
559.45	2212.47
559.81	2216.87
560.16	2220.67
560.52	2224.03
560.87	2227.48
561.23	2230.31
561.58	2233.15
561.94	2235.74
562.29	2238.07
562.64	2240.85
563.00	2243.28
563.35	2246.90
563.71	2249.97
564.06	2253.23
564.42	2256.18
564.77	2258.73
565.12	2261.25
565.48	2263.28
565.83	2265.47
566.19	2267.03
566.54	2267.91
566.89	2269.18
567.25	2269.96
567.60	2271.41
567.96	2273.22
568.31	2274.23
568.66	2275.45
569.02	2276.16
569.37	2276.55
569.72	2277.69
570.08	2278.10
570.43	2278.38
570.78	2277.97
571.14	2276.87
571.49	2275.75
571.84	2275.63
572.20	2274.84
572.55	2273.96
572.90	2272.45
573.26	2271.23
573.61	2269.66
573.96	2268.25
574.31	2265.52
574.67	2262.69
575.02	2259.37
575.37	2256.26
575.72	2252.80
576.08	2249.61
576.43	2246.50
576.78	2243.05
577.13	2239.97
577.49	2236.98
577.84	2233.78
578.19	2230.38
578.54	2226.85
578.90	2222.98
579.25	2217.44
579.60	2212.64
579.95	2207.85
580.30	2202.99
580.66	2198.00
581.01	2193.23
581.36	2188.48
581.71	2184.55
582.06	2180.40
582.42	2176.08
582.77	2170.95
583.12	2166.54
583.47	2162.22
583.82	2157.49
584.17	2152.43
584.53	2147.11
584.88	2141.60
585.23	2136.06
585.58	2130.63
585.93	2125.32
586.28	2120.58
586.63	2115.80
586.98	2111.02
587.34	2106.38
587.69	2101.78
588.04	2096.67
588.39	2091.27
588.74	2084.87
589.09	2078.71
589.44	2072.03
589.79	2066.07
590.14	2060.67
590.49	2054.30
590.84	2047.93
591.19	2042.11
591.54	2035.79
591.89	2028.63
592.25	2022.03
592.60	2014.94
592.95	2007.49
593.30	2000.35
593.65	1992.95
594.00	1986.05
594.35	1978.64
594.70	1970.74
595.05	1963.76
595.40	1956.68
595.75	1949.27
596.10	1943.36
596.45	1936.80
596.80	1930.79
597.15	1924.41
597.50	1917.48
597.85	1911.07
598.19	1904.53
598.54	1897.53
598.89	1891.08
599.24	1885.36
599.59	1878.77
599.94	1872.61
600.29	1866.51
600.64	1859.93
600.99	1852.64
601.34	1845.94
601.69	1839.21
602.04	1832.56
602.39	1825.21
602.74	1818.39
603.08	1811.68
603.43	1804.95
603.78	1797.66
604.13	1790.48
604.48	1783.29
604.83	1776.42
605.18	1769.70
605.53	1761.95
605.87	1754.02
606.22	1746.87
606.57	1738.87
606.92	1731.66
607.27	1724.76
607.62	1717.92
607.96	1710.79
608.31	1704.30
608.66	1696.80
609.01	1689.38
609.36	1681.84
609.70	1674.02
610.05	1666.18
610.40	1658.65
610.75	1650.47
611.10	1643.02
611.44	1634.64
611.79	1626.73
612.14	1618.14
612.49	1608.95
612.83	1600.62
613.18	1592.62
613.53	1584.50
613.88	1576.11
614.22	1567.93
614.57	1559.30
614.92	1551.36
615.27	1543.90
615.61	1535.56
615.96	1527.53
616.31	1519.84
616.65	1512.51
617.00	1504.95
617.35	1497.32
617.70	1489.06
618.04	1480.59
618.39	1472.34
618.74	1464.87
619.08	1456.51
619.43	1448.89
619.78	1441.93
620.12	1434.67
620.47	1427.12
620.82	1418.97
621.16	1411.63
621.51	1404.00
621.85	1396.39
622.20	1387.90
622.55	1379.45
622.89	1371.74
623.24	1364.04
623.59	1356.55
623.93	1349.02
624.28	1341.84
624.62	1334.33
624.97	1327.16
625.32	1320.39
625.66	1313.43
626.01	1306.24
626.35	1298.91
626.70	1291.25
627.04	1283.72
627.39	1275.92
627.73	1268.55
628.08	1261.77
628.43	1254.47
628.77	1247.17
629.12	1239.52
629.46	1232.30
629.81	1224.92
630.15	1217.60
630.50	1210.34
630.84	1202.37
631.19	1194.50
631.53	1186.91
631.88	1179.43
632.22	1171.82
632.57	1164.46
632.91	1156.91
633.26	1149.56
633.60	1142.14
633.95	1134.93
634.29	1127.81
634.64	1121.14
634.98	1113.85
635.32	1106.67
635.67	1100.11
636.01	1093.43
636.36	1086.74
636.70	1080.18
637.05	1073.73
637.39	1067.33
637.73	1060.81
638.08	1054.82
638.42	1048.84
638.77	1042.58
639.11	1035.99
639.45	1029.57
639.80	1022.95
640.14	1016.65
640.49	1010.11
640.83	1003.79
641.17	997.59
641.52	991.30
641.86	984.80
642.20	978.89
642.55	972.59
642.89	966.05
643.23	959.52
643.58	953.76
643.92	947.63
644.26	941.52
644.61	935.40
644.95	929.41
645.29	922.88
645.64	916.12
645.98	909.70
646.32	903.81
646.66	897.88
647.01	892.13
647.35	886.38
647.69	880.56
648.04	875.10
648.38	869.39
648.72	863.36
649.06	857.43
649.41	851.58
649.75	845.62
650.09	839.81
650.43	833.99
650.78	827.83
651.12	821.87
651.46	816.21
651.80	810.58
652.14	805.17
652.49	799.82
652.83	794.70
653.17	789.08
653.51	783.36
653.85	777.84
654.20	772.27
654.54	766.35
654.88	760.60
655.22	754.66
655.56	748.96
655.90	743.56
656.25	738.41
656.59	733.09
656.93	728.07
657.27	722.88
657.61	717.50
657.95	712.40
658.29	707.36
658.64	702.09
658.98	696.75
659.32	691.36
659.66	686.19
660.00	680.88
660.34	675.90
660.68	671.03
661.02	666.11
661.36	661.27
661.70	656.71
662.05	652.48
662.39	648.28
662.73	643.93
663.07	639.58
663.41	635.06
663.75	630.66
664.09	626.12
664.43	621.75
664.77	617.76
665.11	613.57
665.45	609.48
665.79	605.41
666.13	601.34
666.47	597.28
666.81	593.20
667.15	589.09
667.49	585.28
667.83	581.46
668.17	577.51
668.51	573.52
668.85	569.50
669.19	565.58
669.53	561.65
669.87	557.77
670.21	554.05
670.55	550.42
670.89	546.96
671.23	543.56
671.57	540.03
671.91	536.41
672.25	532.88
672.58	529.38
672.92	525.97
673.26	522.73
673.60	519.56
673.94	516.43
674.28	513.54
674.62	510.51
674.96	507.38
675.30	504.49
675.64	501.60
675.97	498.81
676.31	495.94
676.65	493.07
676.99	490.35
677.33	487.47
677.67	484.61
678.01	481.59
678.34	478.54
678.68	475.69
679.02	472.91
679.36	470.16
679.70	467.40
680.04	464.65
680.37	461.85
680.71	458.99
681.05	456.32
681.39	453.59
681.73	450.95
682.06	448.47
682.40	445.97
682.74	443.41
683.08	440.86
683.42	438.25
683.75	435.71
684.09	433.13
684.43	430.65
684.77	428.22
685.10	425.85
685.44	423.55
685.78	421.28
686.12	419.07
686.45	416.76
686.79	414.44
687.13	412.24
687.46	410.05
687.80	407.96
688.14	405.76
688.48	403.70
688.81	401.50
689.15	399.33
689.49	397.17
689.82	395.08
690.16	393.00
690.50	391.07
690.83	389.16
691.17	387.17
691.51	385.30
691.84	383.46
692.18	381.51
692.52	379.57
692.85	377.55
693.19	375.63
693.52	373.80
693.86	372.00
694.20	370.21
694.53	368.39
694.87	366.45
695.21	364.66
695.54	362.83
695.88	361.03
696.21	359.31
696.55	357.62
696.88	355.96
697.22	354.30
697.56	352.68
697.89	350.97
698.23	349.42
698.56	347.81
698.90	346.22
699.23	344.58
699.57	343.05
699.90	341.55
700.24	340.04
700.58	338.58
700.91	337.14
701.25	335.71
701.58	334.38
701.92	333.08
702.25	331.73
702.59	330.38
702.92	329.12
703.26	327.83
703.59	326.57
703.93	325.41
704.26	324.22
704.60	322.91
704.93	321.71
705.26	320.45
705.60	319.27
705.93	318.15
706.27	317.17
706.60	316.13
706.94	315.08
707.27	313.97
707.61	312.87
707.94	311.86
708.27	310.75
708.61	309.67
708.94	308.67
709.28	307.67
709.61	306.72
709.94	305.75
710.28	304.73
710.61	303.75
710.95	302.66
711.28	301.73
711.61	300.81
711.95	299.92
712.28	299.00
712.61	298.04
712.95	297.11
713.28	296.20
713.61	295.28
713.95	294.38
714.28	293.52
714.61	292.71
714.95	291.86
715.28	291.01
715.61	290.16
715.95	289.28
716.28	288.41
716.61	287.57
716.95	286.79
717.28	286.05
717.61	285.24
717.94	284.51
718.28	283.71
718.61	283.00
718.94	282.30
719.27	281.64
719.61	281.00
719.94	280.33
720.27	279.60
720.60	278.95
720.94	278.32
721.27	277.71
721.60	277.06
721.93	276.46
722.27	275.96
722.60	275.38
722.93	274.81
723.26	274.29
723.59	273.70
723.93	273.12
724.26	272.56
724.59	272.02
724.92	271.49
725.25	270.98
725.59	270.41
725.92	269.89
726.25	269.32
726.58	268.77
726.91	268.26
727.24	267.81
727.57	267.32
727.91	266.76
728.24	266.26
728.57	265.80
728.90	265.32
729.23	264.79
729.56	264.34
729.89	263.86
730.22	263.34
730.55	262.87
730.89	262.43
731.22	261.98
731.55	261.53
731.88	261.08
732.21	260.61
732.54	260.19
732.87	259.74
733.20	259.34
733.53	258.97
733.86	258.59
734.19	258.18
734.52	257.80
734.85	257.52
735.18	257.13
735.51	256.73
735.84	256.34
736.17	255.99
736.50	255.63
736.83	255.42
737.16	255.13
737.49	254.82
737.82	254.48
738.15	254.12
738.48	253.78
738.81	253.48
739.14	253.18
739.47	252.87
739.80	252.53
740.13	252.25
740.46	251.94
740.79	251.60
741.12	251.27
741.45	250.93
741.78	250.55
742.11	250.28
742.44	249.96
742.77	249.68
743.10	249.38
743.43	249.04
743.75	248.65
744.08	248.48
744.41	248.21
744.74	247.95
745.07	247.69
745.40	247.45
745.73	247.19
746.06	246.92
746.39	246.68
746.71	246.43
747.04	246.14
747.37	245.89
747.70	245.66
748.03	245.45
748.36	245.22
748.68	245.02
749.01	244.78
749.34	244.57
749.67	244.33
750.00	244.14
750.33	243.99
750.65	243.82
750.98	243.48
751.31	243.24
751.64	243.04
751.97	242.88
752.29	242.66
752.62	242.41
752.95	242.24
753.28	242.00
753.60	241.80
753.93	241.67
754.26	241.47
754.59	241.24
754.91	241.03
755.24	240.84
755.57	240.66
755.90	240.45
756.22	240.28
756.55	240.09
756.88	239.92
757.20	239.70
757.53	239.46
757.86	239.30
758.19	239.17
758.51	238.97
758.84	238.81
759.17	238.67
759.49	238.48
759.82	238.32
760.15	238.18
760.47	238.04
760.80	237.83
761.13	237.72
761.45	237.58
761.78	237.42
762.11	237.28
762.43	237.13
762.76	236.99
763.08	236.89
763.41	236.76
763.74	236.59
764.06	236.43
764.39	236.28
764.71	236.15
765.04	235.99
765.37	235.85
765.69	235.69
766.02	235.55
766.34	235.45
766.67	235.26
767.00	235.16
767.32	235.08
767.65	235.01
767.97	234.88
768.30	234.77
768.62	234.64
768.95	234.51
769.27	234.36
769.60	234.27
769.92	234.10
770.25	233.98
770.57	233.83
770.90	233.71
771.22	233.64
771.55	233.53
771.87	233.42
772.20	233.35
772.52	233.33
772.85	233.35
773.17	233.23
773.50	233.14
773.82	233.05
774.15	232.88
774.47	232.76
774.80	232.67
775.12	232.55
775.45	232.47
775.77	232.41
776.09	232.37
776.42	232.25
776.74	232.23
777.07	232.15
777.39	232.12
777.72	232.06
778.04	231.98
778.36	231.89
778.69	231.85
779.01	231.79
779.33	231.64
779.66	231.45
779.98	231.39
780.31	231.34
780.63	231.31
780.95	231.30
781.28	231.22
781.60	231.13
781.92	231.07
782.25	230.98
782.57	230.91
782.89	230.82
783.22	230.80
783.54	230.70
783.86	230.63
784.19	230.56
784.51	230.54
784.83	230.49
785.16	230.42
785.48	230.37
785.80	230.31
786.12	230.27
786.45	230.22
786.77	230.18
787.09	230.16
