SpectraSuite Data File
++++++++++++++++++++++++++++++++++++
Date: Fri Feb 01 16:49:53 EST 2013
User: group
Dark Spectrum Present: No
Reference Spectrum Present: No
Number of Sampled Component Spectra: 1
Spectrometers: USB2E7196
Integration Time (usec): 35000 (USB2E7196)
Spectra Averaged: 100 (USB2E7196)
Boxcar Smoothing: 10 (USB2E7196)
Correct for Electrical Dark: No (USB2E7196)
Strobe/Lamp Enabled: No (USB2E7196)
Correct for Detector Non-linearity: No (USB2E7196)
Correct for Stray Light: No (USB2E7196)
Number of Pixels in Processed Spectrum: 2048
>>>>>Begin Processed Spectral Data<<<<<
339.09	0.00
339.48	213.35
339.86	214.80
340.24	216.42
340.63	217.15
341.01	219.94
341.39	219.92
341.78	221.14
342.16	222.47
342.54	223.84
342.93	211.58
343.31	222.31
343.69	222.85
344.07	223.30
344.46	223.72
344.84	224.10
345.22	224.36
345.60	224.61
345.99	224.82
346.37	224.93
346.75	225.01
347.13	225.04
347.52	225.09
347.90	225.15
348.28	225.21
348.66	225.29
349.05	225.29
349.43	225.33
349.81	225.38
350.19	225.44
350.57	225.50
350.96	225.57
351.34	225.58
351.72	225.64
352.10	225.75
352.48	225.82
352.87	225.90
353.25	225.96
353.63	226.04
354.01	226.09
354.39	226.18
354.77	226.27
355.15	226.41
355.54	226.48
355.92	226.51
356.30	226.56
356.68	226.68
357.06	226.75
357.44	226.78
357.82	226.85
358.20	226.95
358.58	227.05
358.97	227.13
359.35	227.24
359.73	227.36
360.11	227.43
360.49	227.47
360.87	227.50
361.25	227.55
361.63	227.63
362.01	227.70
362.39	227.76
362.77	227.79
363.15	227.78
363.53	227.82
363.91	227.85
364.29	227.89
364.67	227.79
365.05	227.81
365.43	227.87
365.81	227.89
366.19	227.94
366.57	227.97
366.95	227.95
367.33	227.93
367.71	227.90
368.09	227.90
368.47	227.87
368.85	227.86
369.23	227.87
369.61	227.81
369.99	227.83
370.37	227.80
370.75	227.82
371.13	227.81
371.51	227.77
371.89	227.75
372.27	227.70
372.65	227.68
373.03	227.65
373.41	227.57
373.78	227.53
374.16	227.42
374.54	227.31
374.92	227.27
375.30	227.24
375.68	227.15
376.06	227.08
376.44	227.02
376.82	226.97
377.19	226.89
377.57	226.81
377.95	226.69
378.33	226.63
378.71	226.52
379.09	226.44
379.47	226.37
379.84	226.30
380.22	226.22
380.60	226.13
380.98	226.08
381.36	226.04
381.73	225.94
382.11	225.89
382.49	225.86
382.87	225.77
383.25	225.67
383.62	225.74
384.00	225.67
384.38	225.65
384.76	225.61
385.13	225.61
385.51	225.57
385.89	225.53
386.27	225.50
386.64	225.44
387.02	225.39
387.40	225.32
387.78	225.30
388.15	225.29
388.53	225.29
388.91	225.20
389.29	225.16
389.66	225.15
390.04	225.13
390.42	225.10
390.79	225.09
391.17	225.10
391.55	224.94
391.92	224.93
392.30	224.90
392.68	224.85
393.05	224.85
393.43	224.84
393.81	224.85
394.18	224.81
394.56	224.83
394.94	224.87
395.31	224.90
395.69	224.92
396.06	224.92
396.44	224.94
396.82	224.97
397.19	225.02
397.57	225.06
397.95	225.08
398.32	225.10
398.70	225.15
399.07	225.17
399.45	225.25
399.82	225.30
400.20	225.37
400.58	225.48
400.95	225.51
401.33	225.56
401.70	225.68
402.08	225.76
402.45	225.82
402.83	225.92
403.20	226.04
403.58	226.14
403.95	226.28
404.33	226.39
404.71	226.51
405.08	226.69
405.46	226.83
405.83	226.97
406.21	227.10
406.58	227.25
406.96	227.42
407.33	227.61
407.70	227.76
408.08	228.03
408.45	228.20
408.83	228.42
409.20	228.69
409.58	228.85
409.95	229.12
410.33	229.38
410.70	229.62
411.08	229.92
411.45	230.23
411.82	230.52
412.20	230.87
412.57	231.31
412.95	231.60
413.32	231.99
413.69	232.38
414.07	232.80
414.44	233.27
414.82	233.75
415.19	234.29
415.56	234.84
415.94	235.37
416.31	236.01
416.68	236.63
417.06	237.29
417.43	237.97
417.81	238.73
418.18	239.50
418.55	240.34
418.93	241.18
419.30	242.07
419.67	243.01
420.04	243.97
420.42	244.92
420.79	246.11
421.16	247.26
421.54	248.44
421.91	249.66
422.28	250.89
422.66	252.17
423.03	253.46
423.40	254.82
423.77	256.23
424.15	257.64
424.52	259.14
424.89	260.74
425.26	262.27
425.64	263.71
426.01	265.32
426.38	266.94
426.75	268.61
427.13	270.31
427.50	272.11
427.87	273.99
428.24	275.84
428.61	277.58
428.99	279.49
429.36	281.61
429.73	283.71
430.10	285.74
430.47	287.86
430.85	289.97
431.22	292.18
431.59	294.52
431.96	296.71
432.33	299.18
432.70	301.59
433.08	304.38
433.45	307.02
433.82	309.58
434.19	312.46
434.56	315.24
434.93	317.91
435.30	320.54
435.68	323.36
436.05	326.18
436.42	328.90
436.79	331.40
437.16	334.07
437.53	336.83
437.90	339.62
438.27	342.30
438.64	345.09
439.01	347.65
439.38	349.87
439.75	352.03
440.13	354.48
440.50	356.71
440.87	358.56
441.24	360.45
441.61	362.59
441.98	364.04
442.35	365.82
442.72	367.65
443.09	369.43
443.46	370.42
443.83	371.00
444.20	371.57
444.57	372.45
444.94	372.71
445.31	373.08
445.68	373.46
446.05	373.56
446.42	373.15
446.79	372.74
447.16	372.29
447.53	372.00
447.90	370.85
448.27	369.78
448.64	368.22
449.01	367.12
449.37	365.22
449.74	363.36
450.11	361.17
450.48	358.72
450.85	356.20
451.22	354.10
451.59	352.09
451.96	350.15
452.33	347.53
452.70	345.20
453.07	342.36
453.43	339.46
453.80	336.71
454.17	334.10
454.54	331.58
454.91	328.87
455.28	326.21
455.65	323.73
456.02	321.31
456.38	319.14
456.75	316.50
457.12	314.27
457.49	312.06
457.86	309.85
458.23	308.00
458.59	305.97
458.96	303.89
459.33	302.06
459.70	300.21
460.07	298.74
460.43	297.08
460.80	295.50
461.17	294.05
461.54	292.53
461.91	291.12
462.27	289.69
462.64	288.50
463.01	287.19
463.38	286.00
463.74	284.62
464.11	283.49
464.48	282.48
464.85	281.38
465.21	280.53
465.58	279.68
465.95	278.62
466.32	277.72
466.68	276.85
467.05	276.00
467.42	275.10
467.78	274.20
468.15	273.32
468.52	272.66
468.88	271.85
469.25	271.14
469.62	270.54
469.98	269.91
470.35	269.28
470.72	268.69
471.08	268.00
471.45	267.47
471.82	266.98
472.18	266.39
472.55	265.98
472.92	265.50
473.28	265.05
473.65	264.61
474.02	264.19
474.38	263.81
474.75	263.52
475.11	263.21
475.48	262.99
475.85	262.75
476.21	262.54
476.58	262.36
476.94	262.23
477.31	262.06
477.67	261.90
478.04	261.79
478.41	261.76
478.77	261.82
479.14	261.78
479.50	261.75
479.87	261.84
480.23	261.89
480.60	261.97
480.96	262.05
481.33	262.27
481.69	262.49
482.06	262.72
482.42	262.91
482.79	263.16
483.15	263.46
483.52	263.86
483.88	264.20
484.25	264.59
484.61	265.03
484.98	265.49
485.34	266.10
485.71	266.67
486.07	267.26
486.44	267.86
486.80	268.55
487.17	269.35
487.53	270.15
487.90	271.00
488.26	271.92
488.62	272.94
488.99	273.89
489.35	274.94
489.72	276.05
490.08	277.22
490.44	278.48
490.81	279.76
491.17	281.10
491.54	282.57
491.90	284.06
492.26	285.69
492.63	287.40
492.99	289.15
493.36	291.07
493.72	293.15
494.08	295.21
494.45	297.43
494.81	299.74
495.17	302.15
495.54	304.70
495.90	307.41
496.26	310.17
496.63	313.15
496.99	316.26
497.35	319.52
497.72	322.94
498.08	326.43
498.44	330.13
498.80	334.05
499.17	338.07
499.53	342.27
499.89	346.62
500.26	351.08
500.62	355.72
500.98	360.68
501.34	365.68
501.71	370.97
502.07	376.44
502.43	382.09
502.79	387.90
503.16	393.93
503.52	400.15
503.88	406.55
504.24	413.15
504.60	419.99
504.97	427.03
505.33	434.30
505.69	441.98
506.05	449.71
506.41	457.57
506.78	465.61
507.14	474.02
507.50	482.71
507.86	491.71
508.22	500.85
508.59	510.03
508.95	519.59
509.31	529.42
509.67	539.40
510.03	549.61
510.39	560.08
510.75	570.88
511.12	581.76
511.48	592.94
511.84	604.33
512.20	615.78
512.56	627.70
512.92	639.77
513.28	652.00
513.64	664.39
514.00	677.03
514.37	689.93
514.73	702.89
515.09	715.78
515.45	728.90
515.81	742.46
516.17	756.28
516.53	770.31
516.89	784.37
517.25	798.46
517.61	812.72
517.97	827.03
518.33	841.28
518.69	855.87
519.05	870.74
519.41	885.87
519.77	901.19
520.13	916.48
520.49	931.78
520.85	947.00
521.21	962.60
521.57	978.65
521.93	994.26
522.29	1010.45
522.65	1026.64
523.01	1042.76
523.37	1058.54
523.73	1074.49
524.09	1090.36
524.45	1106.39
524.81	1122.79
525.17	1139.32
525.53	1156.01
525.89	1172.67
526.25	1189.40
526.61	1205.58
526.97	1222.00
527.33	1238.27
527.68	1254.62
528.04	1270.81
528.40	1287.09
528.76	1303.91
529.12	1320.30
529.48	1336.99
529.84	1352.75
530.20	1369.04
530.56	1385.77
530.91	1402.90
531.27	1419.40
531.63	1435.58
531.99	1451.98
532.35	1467.84
532.71	1483.61
533.07	1499.73
533.42	1515.67
533.78	1531.60
534.14	1547.62
534.50	1562.70
534.86	1578.40
535.21	1593.41
535.57	1609.06
535.93	1624.52
536.29	1639.05
536.65	1653.83
537.00	1668.31
537.36	1683.40
537.72	1697.71
538.08	1711.92
538.44	1725.56
538.79	1739.45
539.15	1752.86
539.51	1766.31
539.87	1780.39
540.22	1793.88
540.58	1807.32
540.94	1820.09
541.29	1832.52
541.65	1845.00
542.01	1857.91
542.37	1870.00
542.72	1882.12
543.08	1893.86
543.44	1906.01
543.79	1917.12
544.15	1927.87
544.51	1939.35
544.87	1950.24
545.22	1961.06
545.58	1971.13
545.94	1980.75
546.29	1990.31
546.65	2000.11
547.01	2009.35
547.36	2017.88
547.72	2026.29
548.07	2034.20
548.43	2042.37
548.79	2050.36
549.14	2057.98
549.50	2065.25
549.86	2072.80
550.21	2080.11
550.57	2087.29
550.92	2093.81
551.28	2100.81
551.64	2107.88
551.99	2114.30
552.35	2120.44
552.70	2126.51
553.06	2132.63
553.41	2139.08
553.77	2145.04
554.13	2151.05
554.48	2157.04
554.84	2162.68
555.19	2167.83
555.55	2172.92
555.90	2177.43
556.26	2182.42
556.61	2186.90
556.97	2191.61
557.32	2195.88
557.68	2200.13
558.03	2204.32
558.39	2208.11
558.74	2212.72
559.10	2216.63
559.45	2220.41
559.81	2224.57
560.16	2228.44
560.52	2231.56
560.87	2234.86
561.23	2237.61
561.58	2240.59
561.94	2243.18
562.29	2245.40
562.64	2248.48
563.00	2251.06
563.35	2254.59
563.71	2257.70
564.06	2261.04
564.42	2263.79
564.77	2266.39
565.12	2268.82
565.48	2270.91
565.83	2272.87
566.19	2274.39
566.54	2275.36
566.89	2276.63
567.25	2277.42
567.60	2278.73
567.96	2280.55
568.31	2281.50
568.66	2282.79
569.02	2283.41
569.37	2283.97
569.72	2285.05
570.08	2285.25
570.43	2285.41
570.78	2285.07
571.14	2283.57
571.49	2282.36
571.84	2282.10
572.20	2281.12
572.55	2280.07
572.90	2278.36
573.26	2277.16
573.61	2275.44
573.96	2274.02
574.31	2271.13
574.67	2268.25
575.02	2264.70
575.37	2261.45
575.72	2257.94
576.08	2254.60
576.43	2251.41
576.78	2248.04
577.13	2244.82
577.49	2241.49
577.84	2238.11
578.19	2234.40
578.54	2231.13
578.90	2227.23
579.25	2221.64
579.60	2216.82
579.95	2212.10
580.30	2207.25
580.66	2202.25
581.01	2197.39
581.36	2192.39
581.71	2188.48
582.06	2184.40
582.42	2180.23
582.77	2175.15
583.12	2170.71
583.47	2166.36
583.82	2161.74
584.17	2156.50
584.53	2151.15
584.88	2145.88
585.23	2140.38
585.58	2134.88
585.93	2129.41
586.28	2124.38
586.63	2119.58
586.98	2114.69
587.34	2110.08
587.69	2105.37
588.04	2100.13
588.39	2094.67
588.74	2088.38
589.09	2082.17
589.44	2075.39
589.79	2069.31
590.14	2063.79
590.49	2057.23
590.84	2050.68
591.19	2044.64
591.54	2038.28
591.89	2031.30
592.25	2024.67
592.60	2017.55
592.95	2010.21
593.30	2003.00
593.65	1995.76
594.00	1988.68
594.35	1981.53
594.70	1973.41
595.05	1966.50
595.40	1959.27
595.75	1951.82
596.10	1945.82
596.45	1939.18
596.80	1933.22
597.15	1926.85
597.50	1920.07
597.85	1913.72
598.19	1907.34
598.54	1900.55
598.89	1894.04
599.24	1888.16
599.59	1881.62
599.94	1875.34
600.29	1869.09
600.64	1862.46
600.99	1855.18
601.34	1848.61
601.69	1841.57
602.04	1834.96
602.39	1827.63
602.74	1821.03
603.08	1814.42
603.43	1807.71
603.78	1800.57
604.13	1793.28
604.48	1786.08
604.83	1779.15
605.18	1772.38
605.53	1764.58
605.87	1756.51
606.22	1749.20
606.57	1741.22
606.92	1733.87
607.27	1727.04
607.62	1720.39
607.96	1713.43
608.31	1707.05
608.66	1699.66
609.01	1692.38
609.36	1684.92
609.70	1677.01
610.05	1669.13
610.40	1661.51
610.75	1653.28
611.10	1645.80
611.44	1637.45
611.79	1629.38
612.14	1620.82
612.49	1611.52
612.83	1603.03
613.18	1594.90
613.53	1586.88
613.88	1578.52
614.22	1570.34
614.57	1561.72
614.92	1553.58
615.27	1546.05
615.61	1537.65
615.96	1529.48
616.31	1521.65
616.65	1514.13
617.00	1506.65
617.35	1498.76
617.70	1490.58
618.04	1482.19
618.39	1473.78
618.74	1466.26
619.08	1457.96
619.43	1450.28
619.78	1443.43
620.12	1436.35
620.47	1428.86
620.82	1420.69
621.16	1413.21
621.51	1405.47
621.85	1397.64
622.20	1389.22
622.55	1380.76
622.89	1372.85
623.24	1365.22
623.59	1357.83
623.93	1350.37
624.28	1342.99
624.62	1335.55
624.97	1328.32
625.32	1321.43
625.66	1314.44
626.01	1307.22
626.35	1300.03
626.70	1292.26
627.04	1284.52
627.39	1276.60
627.73	1269.19
628.08	1262.35
628.43	1255.09
628.77	1247.85
629.12	1240.48
629.46	1233.32
629.81	1225.90
630.15	1218.62
630.50	1211.23
630.84	1203.07
631.19	1195.16
631.53	1187.60
631.88	1180.04
632.22	1172.39
632.57	1165.05
632.91	1157.52
633.26	1150.09
633.60	1142.53
633.95	1135.45
634.29	1128.39
634.64	1121.85
634.98	1114.64
635.32	1107.55
635.67	1100.90
636.01	1094.29
636.36	1087.56
636.70	1080.95
637.05	1074.43
637.39	1068.03
637.73	1061.61
638.08	1055.75
638.42	1049.75
638.77	1043.37
639.11	1036.89
639.45	1030.53
639.80	1023.94
640.14	1017.67
640.49	1011.21
640.83	1004.92
641.17	998.75
641.52	992.53
641.86	986.02
642.20	980.13
642.55	973.75
642.89	967.32
643.23	960.63
643.58	954.86
643.92	948.81
644.26	942.80
644.61	936.71
644.95	930.79
645.29	924.34
645.64	917.65
645.98	911.31
646.32	905.37
646.66	899.35
647.01	893.51
647.35	887.74
647.69	881.94
648.04	876.49
648.38	870.71
648.72	864.83
649.06	858.82
649.41	852.90
649.75	847.00
650.09	841.09
650.43	835.43
650.78	829.28
651.12	823.26
651.46	817.56
651.80	811.96
652.14	806.57
652.49	801.19
652.83	796.04
653.17	790.44
653.51	784.81
653.85	779.39
654.20	773.86
654.54	767.85
654.88	761.98
655.22	756.14
655.56	750.40
655.90	744.86
656.25	739.68
656.59	734.33
656.93	729.24
657.27	724.04
657.61	718.59
657.95	713.47
658.29	708.40
658.64	703.06
658.98	697.71
659.32	692.15
659.66	686.97
660.00	681.70
660.34	676.77
660.68	671.87
661.02	666.84
661.36	662.13
661.70	657.67
662.05	653.38
662.39	648.94
662.73	644.49
663.07	640.12
663.41	635.61
663.75	631.10
664.09	626.52
664.43	622.18
664.77	618.12
665.11	613.89
665.45	609.72
665.79	605.70
666.13	601.59
666.47	597.51
666.81	593.29
667.15	589.13
667.49	585.21
667.83	581.31
668.17	577.39
668.51	573.33
668.85	569.35
669.19	565.49
669.53	561.75
669.87	557.92
670.21	554.20
670.55	550.56
670.89	547.18
671.23	543.74
671.57	540.19
671.91	536.67
672.25	533.08
672.58	529.62
672.92	526.11
673.26	522.89
673.60	519.69
673.94	516.61
674.28	513.68
674.62	510.73
674.96	507.66
675.30	504.78
675.64	501.84
675.97	498.94
676.31	496.09
676.65	493.12
676.99	490.45
677.33	487.59
677.67	484.76
678.01	481.69
678.34	478.75
678.68	475.90
679.02	473.06
679.36	470.28
679.70	467.52
680.04	464.82
680.37	462.00
680.71	459.23
681.05	456.60
681.39	453.90
681.73	451.20
682.06	448.68
682.40	446.10
682.74	443.54
683.08	440.97
683.42	438.37
683.75	435.87
684.09	433.27
684.43	430.77
684.77	428.34
685.10	426.01
685.44	423.68
685.78	421.36
686.12	419.08
686.45	416.84
686.79	414.58
687.13	412.40
687.46	410.19
687.80	408.07
688.14	405.87
688.48	403.80
688.81	401.61
689.15	399.48
689.49	397.40
689.82	395.34
690.16	393.27
690.50	391.32
690.83	389.43
691.17	387.42
691.51	385.53
691.84	383.71
692.18	381.84
692.52	379.85
692.85	377.91
693.19	376.06
693.52	374.23
693.86	372.38
694.20	370.56
694.53	368.77
694.87	366.90
695.21	365.10
695.54	363.25
695.88	361.52
696.21	359.79
696.55	358.11
696.88	356.38
697.22	354.76
697.56	353.11
697.89	351.43
698.23	349.90
698.56	348.30
698.90	346.66
699.23	345.02
699.57	343.50
699.90	342.00
700.24	340.45
700.58	338.94
700.91	337.47
701.25	336.01
701.58	334.69
701.92	333.34
702.25	331.96
702.59	330.64
702.92	329.31
703.26	327.99
703.59	326.66
703.93	325.50
704.26	324.30
704.60	322.98
704.93	321.68
705.26	320.43
705.60	319.22
705.93	318.06
706.27	316.97
706.60	315.94
706.94	314.84
707.27	313.68
707.61	312.61
707.94	311.55
708.27	310.46
708.61	309.33
708.94	308.32
709.28	307.30
709.61	306.32
709.94	305.35
710.28	304.29
710.61	303.30
710.95	302.21
711.28	301.23
711.61	300.35
711.95	299.40
712.28	298.37
712.61	297.41
712.95	296.49
713.28	295.61
713.61	294.66
713.95	293.78
714.28	292.93
714.61	292.06
714.95	291.22
715.28	290.39
715.61	289.53
715.95	288.63
716.28	287.76
716.61	286.89
716.95	286.06
717.28	285.30
717.61	284.52
717.94	283.79
718.28	282.95
718.61	282.18
718.94	281.54
719.27	280.95
719.61	280.31
719.94	279.69
720.27	278.93
720.60	278.27
720.94	277.63
721.27	277.04
721.60	276.47
721.93	275.88
722.27	275.30
722.60	274.78
722.93	274.23
723.26	273.70
723.59	273.17
723.93	272.62
724.26	272.08
724.59	271.54
724.92	271.03
725.25	270.56
725.59	270.05
725.92	269.52
726.25	268.97
726.58	268.42
726.91	267.87
727.24	267.43
727.57	266.98
727.91	266.47
728.24	266.00
728.57	265.49
728.90	265.06
729.23	264.58
729.56	264.12
729.89	263.68
730.22	263.23
730.55	262.76
730.89	262.34
731.22	261.88
731.55	261.48
731.88	261.06
732.21	260.66
732.54	260.26
732.87	259.82
733.20	259.47
733.53	259.12
733.86	258.80
734.19	258.43
734.52	258.05
734.85	257.77
735.18	257.34
735.51	257.00
735.84	256.63
736.17	256.30
736.50	255.89
736.83	255.66
737.16	255.34
737.49	255.03
737.82	254.68
738.15	254.37
738.48	254.05
738.81	253.69
739.14	253.33
739.47	252.99
739.80	252.71
740.13	252.36
740.46	252.04
740.79	251.71
741.12	251.37
741.45	251.05
741.78	250.69
742.11	250.46
742.44	250.14
742.77	249.89
743.10	249.58
743.43	249.26
743.75	248.90
744.08	248.76
744.41	248.50
744.74	248.25
745.07	248.00
745.40	247.76
745.73	247.57
746.06	247.29
746.39	247.04
746.71	246.76
747.04	246.50
747.37	246.26
747.70	246.01
748.03	245.77
748.36	245.56
748.68	245.30
749.01	245.04
749.34	244.76
749.67	244.51
750.00	244.31
750.33	244.17
750.65	243.92
750.98	243.56
751.31	243.32
751.64	243.10
751.97	242.92
752.29	242.67
752.62	242.39
752.95	242.26
753.28	242.03
753.60	241.82
753.93	241.62
754.26	241.39
754.59	241.17
754.91	240.92
755.24	240.72
755.57	240.52
755.90	240.35
756.22	240.18
756.55	239.96
756.88	239.76
757.20	239.54
757.53	239.34
757.86	239.18
758.19	239.00
758.51	238.84
758.84	238.61
759.17	238.42
759.49	238.24
759.82	238.06
760.15	237.90
760.47	237.74
760.80	237.57
761.13	237.41
761.45	237.24
761.78	237.14
762.11	237.01
762.43	236.89
762.76	236.73
763.08	236.59
763.41	236.47
763.74	236.31
764.06	236.15
764.39	236.01
764.71	235.87
765.04	235.71
765.37	235.58
765.69	235.46
766.02	235.34
766.34	235.24
766.67	235.06
767.00	234.98
767.32	234.93
767.65	234.90
767.97	234.80
768.30	234.71
768.62	234.60
768.95	234.45
769.27	234.34
769.60	234.23
769.92	234.11
770.25	233.99
770.57	233.90
770.90	233.79
771.22	233.66
771.55	233.57
771.87	233.53
772.20	233.42
772.52	233.41
772.85	233.46
773.17	233.34
773.50	233.25
773.82	233.14
774.15	233.01
774.47	232.84
774.80	232.77
775.12	232.66
775.45	232.57
775.77	232.50
776.09	232.37
776.42	232.32
776.74	232.29
777.07	232.20
777.39	232.14
777.72	232.06
778.04	232.03
778.36	231.93
778.69	231.84
779.01	231.80
779.33	231.64
779.66	231.45
779.98	231.39
780.31	231.36
780.63	231.35
780.95	231.28
781.28	231.22
781.60	231.14
781.92	231.11
782.25	231.05
782.57	231.00
782.89	230.96
783.22	230.90
783.54	230.81
783.86	230.74
784.19	230.68
784.51	230.65
784.83	230.59
785.16	230.54
785.48	230.47
785.80	230.41
786.12	230.40
786.45	230.36
786.77	230.32
787.09	230.26
