SpectraSuite Data File
++++++++++++++++++++++++++++++++++++
Date: Fri Feb 01 14:56:32 EST 2013
User: group
Dark Spectrum Present: No
Reference Spectrum Present: No
Number of Sampled Component Spectra: 1
Spectrometers: USB2E7196
Integration Time (usec): 35000 (USB2E7196)
Spectra Averaged: 100 (USB2E7196)
Boxcar Smoothing: 10 (USB2E7196)
Correct for Electrical Dark: No (USB2E7196)
Strobe/Lamp Enabled: No (USB2E7196)
Correct for Detector Non-linearity: No (USB2E7196)
Correct for Stray Light: No (USB2E7196)
Number of Pixels in Processed Spectrum: 2048
>>>>>Begin Processed Spectral Data<<<<<
339.09	0.00
339.48	215.22
339.86	216.74
340.24	217.78
340.63	219.99
341.01	222.38
341.39	222.05
341.78	223.62
342.16	224.69
342.54	225.43
342.93	213.55
343.31	224.34
343.69	224.90
344.07	225.33
344.46	225.77
344.84	226.13
345.22	226.32
345.60	226.59
345.99	226.77
346.37	226.90
346.75	226.99
347.13	227.04
347.52	227.08
347.90	227.14
348.28	227.16
348.66	227.21
349.05	227.24
349.43	227.25
349.81	227.30
350.19	227.37
350.57	227.42
350.96	227.49
351.34	227.59
351.72	227.70
352.10	227.84
352.48	227.88
352.87	227.94
353.25	228.03
353.63	228.07
354.01	228.12
354.39	228.19
354.77	228.25
355.15	228.37
355.54	228.45
355.92	228.50
356.30	228.58
356.68	228.71
357.06	228.73
357.44	228.80
357.82	228.86
358.20	228.90
358.58	229.00
358.97	229.06
359.35	229.11
359.73	229.15
360.11	229.16
360.49	229.23
360.87	229.25
361.25	229.32
361.63	229.40
362.01	229.50
362.39	229.51
362.77	229.57
363.15	229.56
363.53	229.60
363.91	229.62
364.29	229.63
364.67	229.54
365.05	229.58
365.43	229.59
365.81	229.64
366.19	229.67
366.57	229.69
366.95	229.66
367.33	229.62
367.71	229.60
368.09	229.63
368.47	229.61
368.85	229.60
369.23	229.59
369.61	229.53
369.99	229.48
370.37	229.47
370.75	229.46
371.13	229.39
371.51	229.32
371.89	229.25
372.27	229.22
372.65	229.18
373.03	229.11
373.41	229.06
373.78	228.96
374.16	228.86
374.54	228.76
374.92	228.70
375.30	228.63
375.68	228.55
376.06	228.47
376.44	228.39
376.82	228.31
377.19	228.18
377.57	228.08
377.95	227.98
378.33	227.89
378.71	227.74
379.09	227.68
379.47	227.60
379.84	227.52
380.22	227.44
380.60	227.33
380.98	227.22
381.36	227.15
381.73	227.07
382.11	227.01
382.49	226.93
382.87	226.87
383.25	226.82
383.62	226.84
384.00	226.76
384.38	226.70
384.76	226.68
385.13	226.69
385.51	226.65
385.89	226.57
386.27	226.53
386.64	226.54
387.02	226.50
387.40	226.47
387.78	226.43
388.15	226.42
388.53	226.39
388.91	226.37
389.29	226.33
389.66	226.31
390.04	226.29
390.42	226.28
390.79	226.26
391.17	226.25
391.55	226.15
391.92	226.17
392.30	226.16
392.68	226.17
393.05	226.14
393.43	226.15
393.81	226.17
394.18	226.16
394.56	226.16
394.94	226.20
395.31	226.25
395.69	226.34
396.06	226.33
396.44	226.38
396.82	226.45
397.19	226.55
397.57	226.59
397.95	226.63
398.32	226.68
398.70	226.74
399.07	226.83
399.45	226.89
399.82	226.97
400.20	227.10
400.58	227.18
400.95	227.25
401.33	227.39
401.70	227.57
402.08	227.66
402.45	227.77
402.83	227.87
403.20	227.98
403.58	228.07
403.95	228.25
404.33	228.41
404.71	228.51
405.08	228.73
405.46	228.91
405.83	229.10
406.21	229.26
406.58	229.43
406.96	229.58
407.33	229.76
407.70	229.97
408.08	230.23
408.45	230.47
408.83	230.73
409.20	230.94
409.58	231.15
409.95	231.45
410.33	231.75
410.70	232.03
411.08	232.33
411.45	232.67
411.82	233.00
412.20	233.33
412.57	233.78
412.95	234.06
413.32	234.43
413.69	234.83
414.07	235.24
414.44	235.70
414.82	236.17
415.19	236.75
415.56	237.24
415.94	237.80
416.31	238.40
416.68	239.02
417.06	239.74
417.43	240.43
417.81	241.18
418.18	241.95
418.55	242.78
418.93	243.65
419.30	244.50
419.67	245.40
420.04	246.35
420.42	247.33
420.79	248.49
421.16	249.64
421.54	250.85
421.91	252.11
422.28	253.37
422.66	254.71
423.03	255.99
423.40	257.35
423.77	258.72
424.15	260.12
424.52	261.60
424.89	263.19
425.26	264.71
425.64	266.17
426.01	267.74
426.38	269.43
426.75	271.11
427.13	272.84
427.50	274.63
427.87	276.49
428.24	278.36
428.61	280.12
428.99	282.07
429.36	284.16
429.73	286.18
430.10	288.22
430.47	290.29
430.85	292.36
431.22	294.62
431.59	297.00
431.96	299.25
432.33	301.72
432.70	304.09
433.08	306.90
433.45	309.47
433.82	312.07
434.19	314.92
434.56	317.73
434.93	320.39
435.30	323.06
435.68	326.02
436.05	328.87
436.42	331.69
436.79	334.24
437.16	336.95
437.53	339.83
437.90	342.61
438.27	345.42
438.64	348.32
439.01	350.91
439.38	353.17
439.75	355.39
440.13	357.85
440.50	360.18
440.87	362.09
441.24	364.10
441.61	366.32
441.98	367.81
442.35	369.64
442.72	371.56
443.09	373.36
443.46	374.34
443.83	374.94
444.20	375.41
444.57	376.21
444.94	376.50
445.31	376.83
445.68	377.23
446.05	377.25
446.42	376.84
446.79	376.42
447.16	375.97
447.53	375.64
447.90	374.54
448.27	373.35
448.64	371.76
449.01	370.57
449.37	368.59
449.74	366.70
450.11	364.45
450.48	361.96
450.85	359.46
451.22	357.29
451.59	355.23
451.96	353.33
452.33	350.75
452.70	348.40
453.07	345.61
453.43	342.69
453.80	339.93
454.17	337.26
454.54	334.72
454.91	331.97
455.28	329.28
455.65	326.78
456.02	324.40
456.38	322.23
456.75	319.60
457.12	317.32
457.49	315.10
457.86	312.93
458.23	311.06
458.59	308.99
458.96	306.91
459.33	305.07
459.70	303.17
460.07	301.65
460.43	299.91
460.80	298.27
461.17	296.83
461.54	295.34
461.91	293.92
462.27	292.47
462.64	291.24
463.01	289.83
463.38	288.55
463.74	287.15
464.11	285.96
464.48	284.90
464.85	283.78
465.21	282.91
465.58	281.96
465.95	280.82
466.32	279.88
466.68	278.92
467.05	278.02
467.42	277.10
467.78	276.18
468.15	275.30
468.52	274.61
468.88	273.68
469.25	272.87
469.62	272.20
469.98	271.51
470.35	270.86
470.72	270.28
471.08	269.60
471.45	269.03
471.82	268.50
472.18	267.90
472.55	267.46
472.92	266.91
473.28	266.43
473.65	265.96
474.02	265.51
474.38	265.14
474.75	264.76
475.11	264.45
475.48	264.14
475.85	263.88
476.21	263.62
476.58	263.48
476.94	263.33
477.31	263.15
477.67	262.97
478.04	262.84
478.41	262.79
478.77	262.79
479.14	262.71
479.50	262.66
479.87	262.73
480.23	262.83
480.60	262.87
480.96	262.93
481.33	263.15
481.69	263.35
482.06	263.55
482.42	263.78
482.79	263.96
483.15	264.29
483.52	264.63
483.88	264.96
484.25	265.33
484.61	265.74
484.98	266.21
485.34	266.77
485.71	267.34
486.07	267.93
486.44	268.50
486.80	269.18
487.17	269.91
487.53	270.72
487.90	271.52
488.26	272.47
488.62	273.47
488.99	274.43
489.35	275.50
489.72	276.63
490.08	277.82
490.44	279.07
490.81	280.36
491.17	281.71
491.54	283.20
491.90	284.68
492.26	286.33
492.63	288.02
492.99	289.78
493.36	291.67
493.72	293.66
494.08	295.75
494.45	298.01
494.81	300.39
495.17	302.78
495.54	305.30
495.90	307.91
496.26	310.68
496.63	313.66
496.99	316.70
497.35	319.88
497.72	323.25
498.08	326.78
498.44	330.46
498.80	334.36
499.17	338.39
499.53	342.60
499.89	346.90
500.26	351.45
500.62	356.08
500.98	361.00
501.34	366.05
501.71	371.36
502.07	376.80
502.43	382.35
502.79	388.19
503.16	394.28
503.52	400.50
503.88	406.87
504.24	413.47
504.60	420.34
504.97	427.46
505.33	434.74
505.69	442.40
506.05	450.11
506.41	457.91
506.78	466.03
507.14	474.41
507.50	483.13
507.86	492.09
508.22	501.26
508.59	510.43
508.95	519.94
509.31	529.71
509.67	539.74
510.03	549.96
510.39	560.52
510.75	571.30
511.12	582.27
511.48	593.62
511.84	605.05
512.20	616.60
512.56	628.54
512.92	640.69
513.28	653.00
513.64	665.55
514.00	678.34
514.37	691.25
514.73	704.35
515.09	717.45
515.45	730.79
515.81	744.41
516.17	758.37
516.53	772.57
516.89	786.71
517.25	800.95
517.61	815.38
517.97	829.79
518.33	844.21
518.69	859.04
519.05	874.04
519.41	889.22
519.77	904.83
520.13	920.30
520.49	935.79
520.85	951.33
521.21	967.07
521.57	983.36
521.93	999.23
522.29	1015.57
522.65	1031.80
523.01	1048.03
523.37	1064.15
523.73	1080.38
524.09	1096.52
524.45	1113.01
524.81	1129.72
525.17	1146.71
525.53	1163.76
525.89	1180.77
526.25	1197.63
526.61	1214.04
526.97	1230.94
527.33	1247.30
527.68	1264.12
528.04	1280.63
528.40	1297.24
528.76	1314.38
529.12	1331.06
529.48	1348.01
529.84	1364.32
530.20	1381.12
530.56	1398.31
530.91	1415.70
531.27	1432.58
531.63	1449.19
531.99	1465.79
532.35	1481.86
532.71	1497.84
533.07	1514.14
533.42	1530.09
533.78	1546.24
534.14	1562.63
534.50	1577.99
534.86	1594.02
535.21	1609.16
535.57	1625.27
535.93	1640.96
536.29	1655.73
536.65	1670.89
537.00	1685.84
537.36	1701.18
537.72	1715.77
538.08	1730.08
538.44	1744.07
538.79	1758.19
539.15	1772.04
539.51	1786.03
539.87	1800.33
540.22	1814.14
540.58	1827.97
540.94	1841.42
541.29	1854.49
541.65	1867.30
542.01	1880.68
542.37	1892.99
542.72	1905.53
543.08	1917.31
543.44	1929.76
543.79	1941.08
544.15	1952.11
544.51	1963.63
544.87	1974.57
545.22	1985.41
545.58	1995.83
545.94	2005.64
546.29	2015.53
546.65	2025.35
547.01	2034.57
547.36	2043.47
547.72	2052.05
548.07	2059.94
548.43	2068.17
548.79	2076.32
549.14	2083.81
549.50	2091.18
549.86	2099.10
550.21	2106.39
550.57	2113.58
550.92	2120.07
551.28	2127.30
551.64	2134.31
551.99	2140.87
552.35	2147.16
552.70	2153.32
553.06	2159.29
553.41	2165.64
553.77	2171.61
554.13	2177.70
554.48	2183.68
554.84	2189.01
555.19	2194.37
555.55	2199.32
555.90	2203.77
556.26	2208.30
556.61	2212.99
556.97	2217.15
557.32	2221.18
557.68	2225.37
558.03	2229.72
558.39	2233.43
558.74	2237.90
559.10	2241.75
559.45	2245.30
559.81	2249.45
560.16	2253.04
560.52	2256.08
560.87	2259.29
561.23	2261.90
561.58	2264.71
561.94	2267.20
562.29	2269.55
562.64	2272.02
563.00	2274.82
563.35	2278.24
563.71	2281.29
564.06	2284.33
564.42	2287.05
564.77	2289.35
565.12	2291.44
565.48	2292.96
565.83	2294.65
566.19	2295.74
566.54	2296.65
566.89	2297.66
567.25	2297.97
567.60	2299.35
567.96	2300.90
568.31	2301.75
568.66	2302.56
569.02	2303.10
569.37	2303.24
569.72	2303.86
570.08	2303.54
570.43	2303.23
570.78	2302.29
571.14	2300.68
571.49	2299.20
571.84	2298.64
572.20	2297.27
572.55	2295.93
572.90	2294.34
573.26	2292.84
573.61	2290.99
573.96	2288.86
574.31	2285.66
574.67	2282.52
575.02	2278.58
575.37	2275.02
575.72	2270.92
576.08	2267.47
576.43	2263.85
576.78	2260.20
577.13	2256.95
577.49	2253.93
577.84	2250.32
578.19	2246.56
578.54	2242.71
578.90	2238.34
579.25	2232.66
579.60	2227.65
579.95	2222.51
580.30	2217.35
580.66	2211.98
581.01	2207.01
581.36	2201.98
581.71	2197.72
582.06	2193.07
582.42	2188.52
582.77	2183.12
583.12	2178.42
583.47	2173.53
583.82	2168.27
584.17	2162.68
584.53	2156.99
584.88	2151.21
585.23	2145.28
585.58	2139.64
585.93	2134.13
586.28	2129.28
586.63	2124.20
586.98	2118.95
587.34	2114.15
587.69	2109.09
588.04	2103.69
588.39	2097.78
588.74	2091.27
589.09	2084.95
589.44	2078.10
589.79	2072.02
590.14	2066.38
590.49	2059.79
590.84	2053.26
591.19	2047.21
591.54	2040.66
591.89	2033.04
592.25	2026.06
592.60	2018.72
592.95	2010.94
593.30	2003.41
593.65	1995.64
594.00	1988.42
594.35	1981.22
594.70	1973.16
595.05	1965.88
595.40	1958.61
595.75	1950.98
596.10	1944.69
596.45	1937.83
596.80	1931.61
597.15	1924.80
597.50	1917.49
597.85	1910.96
598.19	1904.22
598.54	1896.94
598.89	1890.31
599.24	1884.46
599.59	1877.70
599.94	1871.53
600.29	1865.20
600.64	1858.54
600.99	1851.11
601.34	1844.13
601.69	1837.12
602.04	1830.16
602.39	1822.79
602.74	1815.79
603.08	1809.09
603.43	1802.23
603.78	1795.07
604.13	1787.87
604.48	1780.61
604.83	1773.86
605.18	1766.73
605.53	1758.72
605.87	1750.70
606.22	1743.39
606.57	1735.45
606.92	1728.15
607.27	1720.80
607.62	1713.93
607.96	1706.62
608.31	1699.99
608.66	1692.51
609.01	1684.85
609.36	1677.30
609.70	1669.30
610.05	1661.26
610.40	1653.61
610.75	1645.38
611.10	1637.56
611.44	1629.23
611.79	1621.21
612.14	1612.54
612.49	1603.55
612.83	1595.30
613.18	1587.28
613.53	1579.18
613.88	1570.67
614.22	1562.52
614.57	1554.05
614.92	1546.00
615.27	1538.52
615.61	1530.18
615.96	1522.10
616.31	1514.57
616.65	1507.34
617.00	1499.80
617.35	1492.20
617.70	1483.81
618.04	1475.26
618.39	1467.08
618.74	1459.41
619.08	1451.17
619.43	1443.62
619.78	1436.78
620.12	1429.58
620.47	1422.00
620.82	1413.97
621.16	1406.61
621.51	1399.04
621.85	1391.54
622.20	1383.11
622.55	1374.90
622.89	1367.22
623.24	1359.72
623.59	1352.39
623.93	1344.80
624.28	1337.61
624.62	1330.20
624.97	1323.07
625.32	1316.37
625.66	1309.41
626.01	1302.24
626.35	1294.82
626.70	1287.11
627.04	1279.42
627.39	1271.76
627.73	1264.52
628.08	1257.61
628.43	1250.34
628.77	1242.95
629.12	1235.37
629.46	1228.24
629.81	1220.85
630.15	1213.67
630.50	1206.34
630.84	1198.11
631.19	1190.20
631.53	1182.82
631.88	1175.23
632.22	1167.72
632.57	1160.42
632.91	1153.02
633.26	1145.62
633.60	1138.37
633.95	1131.38
634.29	1124.29
634.64	1117.66
634.98	1110.36
635.32	1103.29
635.67	1096.87
636.01	1090.29
636.36	1083.61
636.70	1077.06
637.05	1070.49
637.39	1064.03
637.73	1057.58
638.08	1051.81
638.42	1045.88
638.77	1039.39
639.11	1032.86
639.45	1026.56
639.80	1019.96
640.14	1013.60
640.49	1007.14
640.83	1000.87
641.17	994.62
641.52	988.42
641.86	982.03
642.20	976.20
642.55	969.95
642.89	963.38
643.23	957.00
643.58	951.25
643.92	945.11
644.26	939.07
644.61	933.09
644.95	927.12
645.29	920.61
645.64	913.98
645.98	907.64
646.32	901.85
646.66	895.75
647.01	890.07
647.35	884.36
647.69	878.60
648.04	873.15
648.38	867.39
648.72	861.32
649.06	855.31
649.41	849.53
649.75	843.59
650.09	837.72
650.43	831.90
650.78	825.73
651.12	819.85
651.46	814.14
651.80	808.36
652.14	802.91
652.49	797.47
652.83	792.26
653.17	786.63
653.51	781.02
653.85	775.74
654.20	770.09
654.54	764.16
654.88	758.48
655.22	752.59
655.56	746.90
655.90	741.48
656.25	736.28
656.59	730.90
656.93	725.73
657.27	720.59
657.61	715.17
657.95	710.13
658.29	705.10
658.64	699.97
658.98	694.80
659.32	689.41
659.66	684.32
660.00	678.99
660.34	674.11
660.68	669.26
661.02	664.24
661.36	659.56
661.70	655.00
662.05	650.70
662.39	646.41
662.73	642.05
663.07	637.83
663.41	633.42
663.75	629.03
664.09	624.57
664.43	620.21
664.77	616.12
665.11	611.90
665.45	607.84
665.79	603.75
666.13	599.64
666.47	595.60
666.81	591.47
667.15	587.46
667.49	583.62
667.83	579.79
668.17	575.88
668.51	571.89
668.85	567.92
669.19	564.09
669.53	560.30
669.87	556.42
670.21	552.66
670.55	549.07
670.89	545.61
671.23	542.19
671.57	538.73
671.91	535.21
672.25	531.74
672.58	528.24
672.92	524.88
673.26	521.75
673.60	518.62
673.94	515.48
674.28	512.64
674.62	509.72
674.96	506.67
675.30	503.79
675.64	500.87
675.97	498.18
676.31	495.36
676.65	492.44
676.99	489.79
677.33	487.01
677.67	484.12
678.01	481.07
678.34	478.10
678.68	475.29
679.02	472.52
679.36	469.83
679.70	467.09
680.04	464.30
680.37	461.47
680.71	458.68
681.05	456.11
681.39	453.36
681.73	450.71
682.06	448.19
682.40	445.67
682.74	443.16
683.08	440.66
683.42	438.03
683.75	435.55
684.09	432.97
684.43	430.49
684.77	428.11
685.10	425.82
685.44	423.61
685.78	421.32
686.12	419.08
686.45	416.79
686.79	414.53
687.13	412.35
687.46	410.17
687.80	408.03
688.14	405.83
688.48	403.85
688.81	401.59
689.15	399.42
689.49	397.30
689.82	395.23
690.16	393.16
690.50	391.25
690.83	389.30
691.17	387.40
691.51	385.55
691.84	383.75
692.18	381.85
692.52	379.86
692.85	377.95
693.19	376.08
693.52	374.27
693.86	372.47
694.20	370.75
694.53	368.96
694.87	367.16
695.21	365.41
695.54	363.55
695.88	361.88
696.21	360.24
696.55	358.57
696.88	356.89
697.22	355.28
697.56	353.64
697.89	352.02
698.23	350.41
698.56	348.81
698.90	347.17
699.23	345.57
699.57	344.03
699.90	342.55
700.24	341.05
700.58	339.52
700.91	338.08
701.25	336.62
701.58	335.26
701.92	333.93
702.25	332.56
702.59	331.28
702.92	329.94
703.26	328.61
703.59	327.40
703.93	326.22
704.26	324.93
704.60	323.69
704.93	322.42
705.26	321.19
705.60	320.08
705.93	318.97
706.27	317.93
706.60	316.86
706.94	315.75
707.27	314.66
707.61	313.59
707.94	312.53
708.27	311.49
708.61	310.41
708.94	309.39
709.28	308.42
709.61	307.43
709.94	306.51
710.28	305.54
710.61	304.55
710.95	303.48
711.28	302.62
711.61	301.67
711.95	300.80
712.28	299.85
712.61	298.84
712.95	297.88
713.28	297.02
713.61	296.18
713.95	295.30
714.28	294.46
714.61	293.63
714.95	292.83
715.28	292.00
715.61	291.15
715.95	290.30
716.28	289.47
716.61	288.67
716.95	287.87
717.28	287.15
717.61	286.42
717.94	285.73
718.28	284.94
718.61	284.23
718.94	283.52
719.27	282.88
719.61	282.26
719.94	281.66
720.27	280.96
720.60	280.27
720.94	279.66
721.27	279.06
721.60	278.52
721.93	277.93
722.27	277.37
722.60	276.84
722.93	276.28
723.26	275.72
723.59	275.16
723.93	274.63
724.26	274.06
724.59	273.50
724.92	272.97
725.25	272.49
725.59	271.96
725.92	271.47
726.25	270.95
726.58	270.41
726.91	269.88
727.24	269.38
727.57	268.89
727.91	268.36
728.24	267.89
728.57	267.37
728.90	266.92
729.23	266.40
729.56	265.97
729.89	265.50
730.22	265.03
730.55	264.58
730.89	264.11
731.22	263.65
731.55	263.16
731.88	262.69
732.21	262.22
732.54	261.79
732.87	261.37
733.20	260.95
733.53	260.57
733.86	260.20
734.19	259.81
734.52	259.48
734.85	259.17
735.18	258.75
735.51	258.40
735.84	258.00
736.17	257.65
736.50	257.23
736.83	256.99
737.16	256.63
737.49	256.24
737.82	255.92
738.15	255.61
738.48	255.29
738.81	254.99
739.14	254.70
739.47	254.37
739.80	254.07
740.13	253.79
740.46	253.44
740.79	253.14
741.12	252.84
741.45	252.47
741.78	252.11
742.11	251.83
742.44	251.48
742.77	251.20
743.10	250.92
743.43	250.64
743.75	250.26
744.08	250.12
744.41	249.86
744.74	249.55
745.07	249.25
745.40	248.98
745.73	248.68
746.06	248.42
746.39	248.20
746.71	247.91
747.04	247.64
747.37	247.42
747.70	247.14
748.03	246.91
748.36	246.72
748.68	246.52
749.01	246.26
749.34	246.04
749.67	245.84
750.00	245.64
750.33	245.48
750.65	245.27
750.98	244.93
751.31	244.74
751.64	244.54
751.97	244.40
752.29	244.25
752.62	244.07
752.95	243.81
753.28	243.56
753.60	243.36
753.93	243.19
754.26	243.03
754.59	242.83
754.91	242.61
755.24	242.41
755.57	242.21
755.90	242.05
756.22	241.87
756.55	241.71
756.88	241.49
757.20	241.25
757.53	241.06
757.86	240.89
758.19	240.73
758.51	240.57
758.84	240.35
759.17	240.14
759.49	239.95
759.82	239.89
760.15	239.77
760.47	239.63
760.80	239.46
761.13	239.31
761.45	239.14
761.78	239.01
762.11	238.89
762.43	238.76
762.76	238.62
763.08	238.49
763.41	238.34
763.74	238.23
764.06	238.14
764.39	238.00
764.71	237.86
765.04	237.74
765.37	237.61
765.69	237.47
766.02	237.37
766.34	237.26
766.67	237.09
767.00	236.96
767.32	236.91
767.65	236.86
767.97	236.70
768.30	236.59
768.62	236.49
768.95	236.35
769.27	236.23
769.60	236.17
769.92	236.04
770.25	235.89
770.57	235.77
770.90	235.64
771.22	235.54
771.55	235.43
771.87	235.34
772.20	235.25
772.52	235.23
772.85	235.20
773.17	235.12
773.50	235.05
773.82	234.95
774.15	234.80
774.47	234.63
774.80	234.54
775.12	234.45
775.45	234.35
775.77	234.24
776.09	234.14
776.42	234.03
776.74	233.99
777.07	233.91
777.39	233.81
777.72	233.73
778.04	233.65
778.36	233.60
778.69	233.51
779.01	233.45
779.33	233.25
779.66	233.11
779.98	233.02
780.31	232.92
780.63	232.87
780.95	232.86
781.28	232.78
781.60	232.72
781.92	232.66
782.25	232.58
782.57	232.56
782.89	232.47
783.22	232.39
783.54	232.27
783.86	232.21
784.19	232.12
784.51	232.07
784.83	232.02
785.16	231.92
785.48	231.84
785.80	231.79
786.12	231.79
786.45	231.75
786.77	231.71
787.09	231.68
