SpectraSuite Data File
++++++++++++++++++++++++++++++++++++
Date: Fri Feb 01 16:18:16 EST 2013
User: group
Dark Spectrum Present: No
Reference Spectrum Present: No
Number of Sampled Component Spectra: 1
Spectrometers: USB2E7196
Integration Time (usec): 35000 (USB2E7196)
Spectra Averaged: 100 (USB2E7196)
Boxcar Smoothing: 10 (USB2E7196)
Correct for Electrical Dark: No (USB2E7196)
Strobe/Lamp Enabled: No (USB2E7196)
Correct for Detector Non-linearity: No (USB2E7196)
Correct for Stray Light: No (USB2E7196)
Number of Pixels in Processed Spectrum: 2048
>>>>>Begin Processed Spectral Data<<<<<
339.09	0.00
339.48	213.74
339.86	215.69
340.24	216.34
340.63	218.36
341.01	221.01
341.39	220.10
341.78	221.86
342.16	223.36
342.54	223.32
342.93	212.15
343.31	222.87
343.69	223.39
344.07	223.83
344.46	224.30
344.84	224.69
345.22	224.93
345.60	225.21
345.99	225.42
346.37	225.56
346.75	225.69
347.13	225.79
347.52	225.83
347.90	225.91
348.28	225.96
348.66	226.05
349.05	226.03
349.43	226.12
349.81	226.15
350.19	226.23
350.57	226.27
350.96	226.35
351.34	226.47
351.72	226.59
352.10	226.69
352.48	226.73
352.87	226.76
353.25	226.83
353.63	226.94
354.01	227.01
354.39	227.11
354.77	227.19
355.15	227.30
355.54	227.37
355.92	227.46
356.30	227.53
356.68	227.65
357.06	227.74
357.44	227.79
357.82	227.89
358.20	227.97
358.58	228.08
358.97	228.15
359.35	228.20
359.73	228.29
360.11	228.38
360.49	228.44
360.87	228.53
361.25	228.59
361.63	228.66
362.01	228.71
362.39	228.74
362.77	228.77
363.15	228.77
363.53	228.81
363.91	228.85
364.29	228.85
364.67	228.79
365.05	228.83
365.43	228.84
365.81	228.85
366.19	228.90
366.57	228.94
366.95	228.96
367.33	228.95
367.71	228.96
368.09	228.96
368.47	228.94
368.85	228.91
369.23	228.88
369.61	228.82
369.99	228.85
370.37	228.83
370.75	228.85
371.13	228.82
371.51	228.75
371.89	228.69
372.27	228.66
372.65	228.66
373.03	228.61
373.41	228.57
373.78	228.52
374.16	228.40
374.54	228.28
374.92	228.23
375.30	228.16
375.68	228.09
376.06	228.04
376.44	227.97
376.82	227.92
377.19	227.85
377.57	227.76
377.95	227.64
378.33	227.56
378.71	227.43
379.09	227.37
379.47	227.33
379.84	227.22
380.22	227.17
380.60	227.05
380.98	226.96
381.36	226.86
381.73	226.75
382.11	226.72
382.49	226.68
382.87	226.56
383.25	226.49
383.62	226.50
384.00	226.41
384.38	226.35
384.76	226.31
385.13	226.27
385.51	226.20
385.89	226.12
386.27	226.09
386.64	226.06
387.02	225.99
387.40	225.93
387.78	225.90
388.15	225.86
388.53	225.80
388.91	225.77
389.29	225.74
389.66	225.76
390.04	225.69
390.42	225.66
390.79	225.64
391.17	225.62
391.55	225.49
391.92	225.45
392.30	225.47
392.68	225.44
393.05	225.42
393.43	225.46
393.81	225.46
394.18	225.44
394.56	225.47
394.94	225.50
395.31	225.49
395.69	225.56
396.06	225.59
396.44	225.61
396.82	225.60
397.19	225.68
397.57	225.69
397.95	225.75
398.32	225.78
398.70	225.85
399.07	225.93
399.45	225.98
399.82	226.04
400.20	226.09
400.58	226.15
400.95	226.21
401.33	226.34
401.70	226.53
402.08	226.63
402.45	226.73
402.83	226.86
403.20	227.00
403.58	227.08
403.95	227.18
404.33	227.35
404.71	227.48
405.08	227.64
405.46	227.76
405.83	227.89
406.21	228.05
406.58	228.24
406.96	228.41
407.33	228.62
407.70	228.84
408.08	229.11
408.45	229.32
408.83	229.60
409.20	229.77
409.58	229.93
409.95	230.20
410.33	230.43
410.70	230.66
411.08	230.96
411.45	231.27
411.82	231.61
412.20	231.93
412.57	232.37
412.95	232.68
413.32	233.12
413.69	233.53
414.07	233.96
414.44	234.40
414.82	234.89
415.19	235.44
415.56	236.01
415.94	236.56
416.31	237.21
416.68	237.81
417.06	238.52
417.43	239.20
417.81	239.93
418.18	240.74
418.55	241.57
418.93	242.42
419.30	243.28
419.67	244.20
420.04	245.17
420.42	246.18
420.79	247.37
421.16	248.54
421.54	249.74
421.91	250.98
422.28	252.26
422.66	253.61
423.03	254.92
423.40	256.22
423.77	257.64
424.15	259.05
424.52	260.52
424.89	262.14
425.26	263.67
425.64	265.11
426.01	266.67
426.38	268.35
426.75	270.04
427.13	271.78
427.50	273.59
427.87	275.47
428.24	277.30
428.61	279.03
428.99	280.91
429.36	283.03
429.73	285.08
430.10	287.05
430.47	289.05
430.85	291.16
431.22	293.39
431.59	295.73
431.96	297.98
432.33	300.47
432.70	302.86
433.08	305.67
433.45	308.32
433.82	310.92
434.19	313.81
434.56	316.65
434.93	319.31
435.30	321.94
435.68	324.81
436.05	327.58
436.42	330.35
436.79	332.89
437.16	335.55
437.53	338.36
437.90	341.17
438.27	343.93
438.64	346.70
439.01	349.29
439.38	351.52
439.75	353.67
440.13	356.16
440.50	358.48
440.87	360.28
441.24	362.17
441.61	364.33
441.98	365.75
442.35	367.49
442.72	369.37
443.09	371.14
443.46	372.14
443.83	372.75
444.20	373.24
444.57	374.07
444.94	374.36
445.31	374.67
445.68	374.99
446.05	375.05
446.42	374.72
446.79	374.31
447.16	373.87
447.53	373.50
447.90	372.34
448.27	371.16
448.64	369.61
449.01	368.50
449.37	366.55
449.74	364.69
450.11	362.41
450.48	359.87
450.85	357.34
451.22	355.21
451.59	353.25
451.96	351.28
452.33	348.68
452.70	346.32
453.07	343.51
453.43	340.65
453.80	337.92
454.17	335.23
454.54	332.67
454.91	329.92
455.28	327.30
455.65	324.79
456.02	322.37
456.38	320.22
456.75	317.58
457.12	315.32
457.49	313.12
457.86	311.03
458.23	309.20
458.59	307.21
458.96	305.16
459.33	303.27
459.70	301.47
460.07	299.96
460.43	298.22
460.80	296.62
461.17	295.21
461.54	293.73
461.91	292.31
462.27	290.89
462.64	289.68
463.01	288.32
463.38	287.09
463.74	285.70
464.11	284.55
464.48	283.56
464.85	282.44
465.21	281.56
465.58	280.63
465.95	279.57
466.32	278.64
466.68	277.72
467.05	276.84
467.42	275.97
467.78	275.04
468.15	274.24
468.52	273.60
468.88	272.70
469.25	271.90
469.62	271.29
469.98	270.59
470.35	269.96
470.72	269.36
471.08	268.66
471.45	268.14
471.82	267.60
472.18	266.99
472.55	266.56
472.92	266.02
473.28	265.52
473.65	265.04
474.02	264.58
474.38	264.18
474.75	263.85
475.11	263.49
475.48	263.25
475.85	263.01
476.21	262.73
476.58	262.60
476.94	262.45
477.31	262.23
477.67	262.10
478.04	262.00
478.41	261.93
478.77	261.95
479.14	261.87
479.50	261.84
479.87	261.92
480.23	262.02
480.60	262.11
480.96	262.19
481.33	262.40
481.69	262.61
482.06	262.82
482.42	263.02
482.79	263.26
483.15	263.56
483.52	263.91
483.88	264.29
484.25	264.67
484.61	265.09
484.98	265.57
485.34	266.10
485.71	266.71
486.07	267.32
486.44	267.90
486.80	268.62
487.17	269.36
487.53	270.13
487.90	270.95
488.26	271.90
488.62	272.93
488.99	273.94
489.35	275.01
489.72	276.16
490.08	277.40
490.44	278.66
490.81	279.98
491.17	281.35
491.54	282.87
491.90	284.38
492.26	286.03
492.63	287.79
492.99	289.63
493.36	291.54
493.72	293.59
494.08	295.70
494.45	297.96
494.81	300.38
495.17	302.82
495.54	305.40
495.90	308.12
496.26	310.94
496.63	313.88
496.99	316.98
497.35	320.25
497.72	323.66
498.08	327.20
498.44	330.90
498.80	334.81
499.17	338.85
499.53	343.10
499.89	347.52
500.26	352.02
500.62	356.68
500.98	361.66
501.34	366.75
501.71	372.15
502.07	377.63
502.43	383.27
502.79	389.17
503.16	395.35
503.52	401.58
503.88	407.96
504.24	414.65
504.60	421.58
504.97	428.78
505.33	436.07
505.69	443.81
506.05	451.63
506.41	459.51
506.78	467.73
507.14	476.15
507.50	484.84
507.86	493.89
508.22	503.10
508.59	512.26
508.95	521.84
509.31	531.64
509.67	541.76
510.03	552.05
510.39	562.58
510.75	573.30
511.12	584.29
511.48	595.70
511.84	607.16
512.20	618.63
512.56	630.49
512.92	642.67
513.28	654.98
513.64	667.48
514.00	680.26
514.37	693.16
514.73	706.22
515.09	719.34
515.45	732.63
515.81	746.23
516.17	760.18
516.53	774.35
516.89	788.53
517.25	802.66
517.61	817.08
517.97	831.56
518.33	845.94
518.69	860.69
519.05	875.62
519.41	890.69
519.77	906.23
520.13	921.69
520.49	937.08
520.85	952.45
521.21	968.13
521.57	984.28
521.93	999.95
522.29	1016.20
522.65	1032.36
523.01	1048.59
523.37	1064.61
523.73	1080.84
524.09	1096.81
524.45	1113.12
524.81	1129.74
525.17	1146.50
525.53	1163.35
525.89	1180.26
526.25	1197.11
526.61	1213.42
526.97	1230.26
527.33	1246.70
527.68	1263.29
528.04	1279.71
528.40	1296.24
528.76	1313.29
529.12	1329.96
529.48	1346.86
529.84	1362.87
530.20	1379.46
530.56	1396.45
530.91	1413.78
531.27	1430.48
531.63	1447.02
531.99	1463.53
532.35	1479.38
532.71	1495.24
533.07	1511.44
533.42	1527.23
533.78	1543.16
534.14	1559.46
534.50	1574.63
534.86	1590.41
535.21	1605.54
535.57	1621.40
535.93	1636.82
536.29	1651.48
536.65	1666.35
537.00	1681.08
537.36	1696.39
537.72	1710.84
538.08	1725.08
538.44	1738.72
538.79	1752.43
539.15	1765.93
539.51	1779.58
539.87	1793.84
540.22	1807.52
540.58	1821.22
540.94	1834.45
541.29	1847.35
541.65	1859.85
542.01	1873.01
542.37	1885.32
542.72	1897.66
543.08	1909.37
543.44	1921.83
543.79	1932.98
544.15	1943.95
544.51	1955.45
544.87	1966.55
545.22	1977.34
545.58	1987.70
545.94	1997.51
546.29	2007.45
546.65	2017.44
547.01	2026.63
547.36	2035.36
547.72	2043.68
548.07	2051.37
548.43	2059.52
548.79	2067.47
549.14	2074.98
549.50	2082.24
549.86	2089.88
550.21	2097.21
550.57	2104.40
550.92	2110.98
551.28	2118.02
551.64	2125.05
551.99	2131.55
552.35	2137.59
552.70	2143.75
553.06	2149.65
553.41	2156.05
553.77	2161.96
554.13	2167.96
554.48	2174.20
554.84	2179.70
555.19	2185.02
555.55	2190.26
555.90	2194.80
556.26	2199.70
556.61	2204.51
556.97	2208.89
557.32	2212.90
557.68	2217.11
558.03	2221.35
558.39	2224.98
558.74	2229.67
559.10	2233.55
559.45	2237.09
559.81	2241.31
560.16	2245.09
560.52	2248.19
560.87	2251.46
561.23	2254.24
561.58	2257.14
561.94	2259.54
562.29	2261.81
562.64	2264.54
563.00	2267.05
563.35	2270.59
563.71	2273.68
564.06	2276.90
564.42	2279.61
564.77	2282.20
565.12	2284.37
565.48	2286.31
565.83	2288.19
566.19	2289.36
566.54	2290.17
566.89	2291.33
567.25	2291.90
567.60	2293.28
567.96	2295.09
568.31	2296.05
568.66	2297.32
569.02	2297.83
569.37	2298.26
569.72	2299.31
570.08	2299.48
570.43	2299.64
570.78	2299.08
571.14	2297.54
571.49	2296.11
571.84	2295.94
572.20	2295.08
572.55	2293.98
572.90	2292.40
573.26	2291.06
573.61	2289.59
573.96	2287.92
574.31	2285.17
574.67	2282.30
575.02	2278.58
575.37	2275.21
575.72	2271.47
576.08	2268.05
576.43	2264.89
576.78	2261.24
577.13	2258.00
577.49	2255.11
577.84	2251.62
578.19	2247.98
578.54	2244.56
578.90	2240.50
579.25	2235.01
579.60	2229.93
579.95	2224.90
580.30	2220.00
580.66	2214.88
581.01	2209.97
581.36	2205.11
581.71	2200.89
582.06	2196.36
582.42	2191.99
582.77	2186.79
583.12	2182.22
583.47	2177.47
583.82	2172.50
584.17	2167.41
584.53	2161.96
584.88	2156.18
585.23	2150.49
585.58	2145.04
585.93	2139.61
586.28	2134.90
586.63	2129.95
586.98	2124.97
587.34	2120.50
587.69	2115.72
588.04	2110.49
588.39	2104.78
588.74	2098.46
589.09	2092.36
589.44	2085.77
589.79	2079.76
590.14	2074.18
590.49	2067.63
590.84	2061.32
591.19	2055.41
591.54	2048.87
591.89	2041.53
592.25	2034.78
592.60	2027.62
592.95	2020.01
593.30	2012.61
593.65	2004.89
594.00	1997.75
594.35	1990.58
594.70	1982.53
595.05	1975.43
595.40	1968.20
595.75	1960.73
596.10	1954.45
596.45	1947.81
596.80	1941.57
597.15	1935.15
597.50	1927.91
597.85	1921.58
598.19	1915.00
598.54	1907.64
598.89	1901.00
599.24	1895.19
599.59	1888.51
599.94	1882.30
600.29	1875.89
600.64	1869.45
600.99	1862.07
601.34	1855.30
601.69	1848.37
602.04	1841.67
602.39	1834.21
602.74	1827.42
603.08	1820.70
603.43	1814.13
603.78	1806.77
604.13	1799.52
604.48	1792.11
604.83	1785.53
605.18	1778.51
605.53	1770.56
605.87	1762.69
606.22	1755.44
606.57	1747.42
606.92	1740.16
607.27	1733.03
607.62	1726.24
607.96	1718.94
608.31	1712.52
608.66	1704.97
609.01	1697.23
609.36	1689.45
609.70	1681.38
610.05	1673.38
610.40	1665.69
610.75	1657.30
611.10	1649.53
611.44	1641.28
611.79	1633.36
612.14	1624.58
612.49	1615.35
612.83	1606.93
613.18	1598.82
613.53	1590.80
613.88	1582.29
614.22	1574.00
614.57	1565.41
614.92	1557.35
615.27	1549.72
615.61	1541.22
615.96	1533.16
616.31	1525.69
616.65	1518.36
617.00	1510.86
617.35	1503.09
617.70	1494.75
618.04	1486.15
618.39	1478.01
618.74	1470.29
619.08	1461.93
619.43	1454.33
619.78	1447.44
620.12	1440.23
620.47	1432.73
620.82	1424.53
621.16	1417.12
621.51	1409.45
621.85	1401.78
622.20	1393.25
622.55	1384.88
622.89	1377.05
623.24	1369.43
623.59	1361.95
623.93	1354.36
624.28	1347.13
624.62	1339.57
624.97	1332.43
625.32	1325.77
625.66	1318.76
626.01	1311.57
626.35	1304.13
626.70	1296.49
627.04	1288.78
627.39	1280.94
627.73	1273.49
628.08	1266.52
628.43	1259.20
628.77	1251.83
629.12	1244.26
629.46	1237.23
629.81	1229.81
630.15	1222.51
630.50	1215.06
630.84	1206.89
631.19	1199.05
631.53	1191.53
631.88	1184.07
632.22	1176.44
632.57	1169.03
632.91	1161.49
633.26	1154.04
633.60	1146.70
633.95	1139.50
634.29	1132.55
634.64	1125.92
634.98	1118.62
635.32	1111.47
635.67	1104.85
636.01	1098.26
636.36	1091.49
636.70	1084.81
637.05	1078.11
637.39	1071.70
637.73	1065.17
638.08	1059.19
638.42	1053.12
638.77	1046.65
639.11	1039.98
639.45	1033.54
639.80	1026.90
640.14	1020.44
640.49	1013.95
640.83	1007.61
641.17	1001.41
641.52	994.98
641.86	988.49
642.20	982.59
642.55	976.29
642.89	969.85
643.23	963.27
643.58	957.53
643.92	951.40
644.26	945.32
644.61	939.29
644.95	933.28
645.29	926.72
645.64	920.04
645.98	913.70
646.32	907.90
646.66	901.88
647.01	896.06
647.35	890.40
647.69	884.55
648.04	878.98
648.38	873.08
648.72	867.08
649.06	861.04
649.41	855.19
649.75	849.32
650.09	843.33
650.43	837.59
650.78	831.36
651.12	825.26
651.46	819.59
651.80	813.84
652.14	808.44
652.49	803.03
652.83	797.84
653.17	792.10
653.51	786.34
653.85	780.95
654.20	775.39
654.54	769.24
654.88	763.48
655.22	757.56
655.56	751.79
655.90	746.28
656.25	740.90
656.59	735.49
656.93	730.25
657.27	725.10
657.61	719.56
657.95	714.47
658.29	709.43
658.64	704.20
658.98	698.87
659.32	693.37
659.66	688.19
660.00	682.75
660.34	677.77
660.68	672.79
661.02	667.71
661.36	662.90
661.70	658.48
662.05	654.13
662.39	649.80
662.73	645.41
663.07	641.07
663.41	636.74
663.75	632.23
664.09	627.66
664.43	623.23
664.77	619.12
665.11	614.86
665.45	610.71
665.79	606.60
666.13	602.47
666.47	598.36
666.81	594.21
667.15	590.16
667.49	586.28
667.83	582.48
668.17	578.54
668.51	574.45
668.85	570.39
669.19	566.51
669.53	562.63
669.87	558.77
670.21	555.00
670.55	551.30
670.89	547.85
671.23	544.43
671.57	540.92
671.91	537.34
672.25	533.85
672.58	530.36
672.92	526.97
673.26	523.73
673.60	520.60
673.94	517.46
674.28	514.57
674.62	511.63
674.96	508.50
675.30	505.63
675.64	502.71
675.97	499.92
676.31	497.04
676.65	494.13
676.99	491.38
677.33	488.62
677.67	485.77
678.01	482.73
678.34	479.73
678.68	476.85
679.02	474.05
679.36	471.23
679.70	468.53
680.04	465.72
680.37	462.90
680.71	460.14
681.05	457.52
681.39	454.74
681.73	452.09
682.06	449.57
682.40	446.99
682.74	444.47
683.08	441.97
683.42	439.41
683.75	436.87
684.09	434.35
684.43	431.80
684.77	429.37
685.10	427.02
685.44	424.75
685.78	422.42
686.12	420.16
686.45	417.87
686.79	415.56
687.13	413.42
687.46	411.23
687.80	409.06
688.14	406.82
688.48	404.77
688.81	402.46
689.15	400.32
689.49	398.20
689.82	396.16
690.16	394.04
690.50	392.06
690.83	390.18
691.17	388.17
691.51	386.33
691.84	384.51
692.18	382.60
692.52	380.59
692.85	378.67
693.19	376.82
693.52	374.98
693.86	373.16
694.20	371.34
694.53	369.54
694.87	367.66
695.21	365.92
695.54	364.11
695.88	362.38
696.21	360.68
696.55	358.99
696.88	357.25
697.22	355.60
697.56	353.95
697.89	352.26
698.23	350.66
698.56	348.99
698.90	347.38
699.23	345.70
699.57	344.17
699.90	342.67
700.24	341.14
700.58	339.60
700.91	338.06
701.25	336.64
701.58	335.26
701.92	333.92
702.25	332.55
702.59	331.18
702.92	329.92
703.26	328.58
703.59	327.24
703.93	326.04
704.26	324.78
704.60	323.45
704.93	322.20
705.26	320.93
705.60	319.73
705.93	318.54
706.27	317.49
706.60	316.43
706.94	315.29
707.27	314.14
707.61	313.11
707.94	312.05
708.27	310.97
708.61	309.89
708.94	308.89
709.28	307.87
709.61	306.92
709.94	305.95
710.28	304.95
710.61	304.04
710.95	302.96
711.28	302.05
711.61	301.11
711.95	300.20
712.28	299.30
712.61	298.34
712.95	297.43
713.28	296.54
713.61	295.63
713.95	294.76
714.28	293.94
714.61	293.06
714.95	292.26
715.28	291.38
715.61	290.48
715.95	289.58
716.28	288.76
716.61	287.92
716.95	287.12
717.28	286.35
717.61	285.54
717.94	284.82
718.28	284.02
718.61	283.34
718.94	282.62
719.27	281.95
719.61	281.29
719.94	280.63
720.27	279.94
720.60	279.28
720.94	278.68
721.27	278.09
721.60	277.53
721.93	276.92
722.27	276.37
722.60	275.82
722.93	275.26
723.26	274.71
723.59	274.14
723.93	273.57
724.26	273.04
724.59	272.51
724.92	271.98
725.25	271.52
725.59	270.98
725.92	270.49
726.25	269.96
726.58	269.50
726.91	268.98
727.24	268.52
727.57	268.04
727.91	267.52
728.24	267.04
728.57	266.54
728.90	266.10
729.23	265.63
729.56	265.24
729.89	264.78
730.22	264.31
730.55	263.86
730.89	263.40
731.22	262.94
731.55	262.48
731.88	262.06
732.21	261.61
732.54	261.15
732.87	260.71
733.20	260.31
733.53	259.91
733.86	259.55
734.19	259.12
734.52	258.71
734.85	258.41
735.18	257.97
735.51	257.62
735.84	257.22
736.17	256.87
736.50	256.43
736.83	256.21
737.16	255.90
737.49	255.56
737.82	255.20
738.15	254.87
738.48	254.54
738.81	254.21
739.14	253.92
739.47	253.63
739.80	253.30
740.13	252.98
740.46	252.65
740.79	252.31
741.12	252.01
741.45	251.72
741.78	251.37
742.11	251.11
742.44	250.77
742.77	250.48
743.10	250.13
743.43	249.82
743.75	249.42
744.08	249.25
744.41	248.96
744.74	248.70
745.07	248.42
745.40	248.20
745.73	247.95
746.06	247.64
746.39	247.40
746.71	247.13
747.04	246.87
747.37	246.61
747.70	246.38
748.03	246.14
748.36	245.91
748.68	245.63
749.01	245.38
749.34	245.16
749.67	244.92
750.00	244.75
750.33	244.62
750.65	244.43
750.98	244.06
751.31	243.85
751.64	243.64
751.97	243.46
752.29	243.23
752.62	242.99
752.95	242.82
753.28	242.57
753.60	242.40
753.93	242.26
754.26	242.05
754.59	241.82
754.91	241.65
755.24	241.46
755.57	241.29
755.90	241.13
756.22	240.94
756.55	240.73
756.88	240.53
757.20	240.28
757.53	240.07
757.86	239.92
758.19	239.75
758.51	239.56
758.84	239.36
759.17	239.19
759.49	239.01
759.82	238.88
760.15	238.75
760.47	238.59
760.80	238.37
761.13	238.27
761.45	238.12
761.78	237.95
762.11	237.81
762.43	237.69
762.76	237.54
763.08	237.40
763.41	237.30
763.74	237.16
764.06	237.02
764.39	236.88
764.71	236.73
765.04	236.63
765.37	236.52
765.69	236.39
766.02	236.25
766.34	236.16
766.67	236.00
767.00	235.92
767.32	235.86
767.65	235.82
767.97	235.67
768.30	235.61
768.62	235.50
768.95	235.38
769.27	235.27
769.60	235.19
769.92	235.06
770.25	234.94
770.57	234.83
770.90	234.73
771.22	234.63
771.55	234.56
771.87	234.47
772.20	234.42
772.52	234.40
772.85	234.42
773.17	234.31
773.50	234.22
773.82	234.09
774.15	233.94
774.47	233.79
774.80	233.71
775.12	233.57
775.45	233.49
775.77	233.44
776.09	233.35
776.42	233.24
776.74	233.21
777.07	233.14
777.39	233.05
777.72	232.96
778.04	232.91
778.36	232.82
778.69	232.76
779.01	232.69
779.33	232.57
779.66	232.41
779.98	232.32
780.31	232.24
780.63	232.21
780.95	232.16
781.28	232.09
781.60	232.02
781.92	231.98
782.25	231.91
782.57	231.84
782.89	231.76
783.22	231.67
783.54	231.58
783.86	231.57
784.19	231.52
784.51	231.51
784.83	231.42
785.16	231.37
785.48	231.28
785.80	231.19
786.12	231.12
786.45	231.02
786.77	230.99
787.09	230.95
