SpectraSuite Data File
++++++++++++++++++++++++++++++++++++
Date: Fri Feb 01 18:13:20 EST 2013
User: group
Dark Spectrum Present: No
Reference Spectrum Present: No
Number of Sampled Component Spectra: 1
Spectrometers: USB2E7196
Integration Time (usec): 35000 (USB2E7196)
Spectra Averaged: 100 (USB2E7196)
Boxcar Smoothing: 10 (USB2E7196)
Correct for Electrical Dark: No (USB2E7196)
Strobe/Lamp Enabled: No (USB2E7196)
Correct for Detector Non-linearity: No (USB2E7196)
Correct for Stray Light: No (USB2E7196)
Number of Pixels in Processed Spectrum: 2048
>>>>>Begin Processed Spectral Data<<<<<
339.09	0.00
339.48	213.39
339.86	214.70
340.24	215.98
340.63	216.97
341.01	219.83
341.39	219.71
341.78	220.94
342.16	222.87
342.54	223.12
342.93	211.49
343.31	222.17
343.69	222.70
344.07	223.16
344.46	223.60
344.84	224.01
345.22	224.29
345.60	224.55
345.99	224.76
346.37	224.85
346.75	224.95
347.13	225.01
347.52	225.07
347.90	225.13
348.28	225.16
348.66	225.18
349.05	225.17
349.43	225.21
349.81	225.27
350.19	225.30
350.57	225.37
350.96	225.43
351.34	225.54
351.72	225.62
352.10	225.72
352.48	225.77
352.87	225.82
353.25	225.82
353.63	225.90
354.01	225.94
354.39	226.05
354.77	226.13
355.15	226.21
355.54	226.25
355.92	226.30
356.30	226.39
356.68	226.53
357.06	226.59
357.44	226.64
357.82	226.73
358.20	226.82
358.58	226.86
358.97	226.96
359.35	227.02
359.73	227.11
360.11	227.14
360.49	227.20
360.87	227.24
361.25	227.35
361.63	227.41
362.01	227.47
362.39	227.49
362.77	227.54
363.15	227.57
363.53	227.63
363.91	227.65
364.29	227.67
364.67	227.60
365.05	227.65
365.43	227.69
365.81	227.68
366.19	227.71
366.57	227.77
366.95	227.75
367.33	227.75
367.71	227.77
368.09	227.80
368.47	227.79
368.85	227.79
369.23	227.79
369.61	227.74
369.99	227.78
370.37	227.78
370.75	227.81
371.13	227.80
371.51	227.74
371.89	227.73
372.27	227.73
372.65	227.70
373.03	227.66
373.41	227.60
373.78	227.59
374.16	227.52
374.54	227.45
374.92	227.36
375.30	227.29
375.68	227.22
376.06	227.16
376.44	227.10
376.82	227.07
377.19	226.99
377.57	226.93
377.95	226.85
378.33	226.79
378.71	226.68
379.09	226.61
379.47	226.59
379.84	226.49
380.22	226.39
380.60	226.30
380.98	226.23
381.36	226.16
381.73	226.06
382.11	226.02
382.49	225.98
382.87	225.95
383.25	225.92
383.62	225.96
384.00	225.89
384.38	225.84
384.76	225.79
385.13	225.79
385.51	225.78
385.89	225.72
386.27	225.64
386.64	225.57
387.02	225.52
387.40	225.46
387.78	225.42
388.15	225.40
388.53	225.39
388.91	225.34
389.29	225.33
389.66	225.33
390.04	225.29
390.42	225.29
390.79	225.28
391.17	225.23
391.55	225.08
391.92	225.09
392.30	225.10
392.68	225.08
393.05	225.05
393.43	225.01
393.81	225.01
394.18	225.00
394.56	225.04
394.94	225.07
395.31	225.08
395.69	225.17
396.06	225.19
396.44	225.19
396.82	225.25
397.19	225.31
397.57	225.34
397.95	225.40
398.32	225.39
398.70	225.45
399.07	225.55
399.45	225.63
399.82	225.67
400.20	225.71
400.58	225.74
400.95	225.78
401.33	225.88
401.70	226.02
402.08	226.13
402.45	226.24
402.83	226.36
403.20	226.47
403.58	226.56
403.95	226.71
404.33	226.88
404.71	227.02
405.08	227.22
405.46	227.36
405.83	227.53
406.21	227.72
406.58	227.92
406.96	228.11
407.33	228.31
407.70	228.55
408.08	228.88
408.45	229.20
408.83	229.47
409.20	229.75
409.58	230.03
409.95	230.38
410.33	230.71
410.70	231.02
411.08	231.44
411.45	231.84
411.82	232.25
412.20	232.72
412.57	233.26
412.95	233.66
413.32	234.24
413.69	234.82
414.07	235.42
414.44	236.07
414.82	236.71
415.19	237.46
415.56	238.21
415.94	238.96
416.31	239.86
416.68	240.74
417.06	241.74
417.43	242.65
417.81	243.69
418.18	244.78
418.55	245.96
418.93	247.17
419.30	248.46
419.67	249.80
420.04	251.12
420.42	252.54
420.79	254.20
421.16	255.80
421.54	257.45
421.91	259.13
422.28	260.87
422.66	262.73
423.03	264.58
423.40	266.44
423.77	268.44
424.15	270.45
424.52	272.54
424.89	274.79
425.26	276.97
425.64	279.02
426.01	281.27
426.38	283.61
426.75	285.92
427.13	288.29
427.50	290.80
427.87	293.46
428.24	296.02
428.61	298.44
428.99	301.15
429.36	304.13
429.73	307.05
430.10	309.89
430.47	312.77
430.85	315.73
431.22	318.89
431.59	322.18
431.96	325.29
432.33	328.77
432.70	332.13
433.08	336.08
433.45	339.78
433.82	343.43
434.19	347.48
434.56	351.42
434.93	355.17
435.30	358.84
435.68	362.87
436.05	366.88
436.42	370.82
436.79	374.36
437.16	378.15
437.53	382.10
437.90	386.03
438.27	389.86
438.64	393.82
439.01	397.49
439.38	400.71
439.75	403.79
440.13	407.37
440.50	410.63
440.87	413.24
441.24	415.99
441.61	419.12
441.98	421.21
442.35	423.77
442.72	426.38
443.09	428.94
443.46	430.41
443.83	431.35
444.20	432.08
444.57	433.31
444.94	433.70
445.31	434.24
445.68	434.75
446.05	434.88
446.42	434.41
446.79	433.87
447.16	433.27
447.53	432.81
447.90	431.13
448.27	429.54
448.64	427.34
449.01	425.76
449.37	422.93
449.74	420.25
450.11	417.07
450.48	413.65
450.85	410.12
451.22	407.07
451.59	404.12
451.96	401.40
452.33	397.70
452.70	394.41
453.07	390.40
453.43	386.34
453.80	382.48
454.17	378.71
454.54	375.11
454.91	371.24
455.28	367.46
455.65	363.98
456.02	360.44
456.38	357.39
456.75	353.60
457.12	350.40
457.49	347.30
457.86	344.24
458.23	341.55
458.59	338.61
458.96	335.64
459.33	333.05
459.70	330.42
460.07	328.31
460.43	325.86
460.80	323.57
461.17	321.50
461.54	319.32
461.91	317.26
462.27	315.15
462.64	313.39
463.01	311.48
463.38	309.59
463.74	307.72
464.11	306.07
464.48	304.59
464.85	303.05
465.21	301.76
465.58	300.43
465.95	298.89
466.32	297.63
466.68	296.35
467.05	295.03
467.42	293.76
467.78	292.41
468.15	291.16
468.52	290.17
468.88	288.96
469.25	287.93
469.62	287.02
469.98	286.03
470.35	285.10
470.72	284.23
471.08	283.33
471.45	282.50
471.82	281.70
472.18	280.86
472.55	280.18
472.92	279.43
473.28	278.78
473.65	278.15
474.02	277.46
474.38	276.95
474.75	276.46
475.11	275.93
475.48	275.52
475.85	275.13
476.21	274.76
476.58	274.46
476.94	274.18
477.31	273.92
477.67	273.67
478.04	273.42
478.41	273.27
478.77	273.18
479.14	273.05
479.50	272.97
479.87	273.02
480.23	273.04
480.60	273.04
480.96	273.05
481.33	273.19
481.69	273.36
482.06	273.46
482.42	273.61
482.79	273.82
483.15	274.11
483.52	274.47
483.88	274.81
484.25	275.19
484.61	275.60
484.98	275.99
485.34	276.53
485.71	277.14
486.07	277.70
486.44	278.30
486.80	279.01
487.17	279.76
487.53	280.58
487.90	281.47
488.26	282.49
488.62	283.55
488.99	284.59
489.35	285.67
489.72	286.87
490.08	288.15
490.44	289.47
490.81	290.84
491.17	292.25
491.54	293.84
491.90	295.43
492.26	297.19
492.63	299.06
492.99	300.97
493.36	302.97
493.72	305.18
494.08	307.43
494.45	309.86
494.81	312.42
495.17	315.03
495.54	317.75
495.90	320.63
496.26	323.63
496.63	326.77
496.99	330.11
497.35	333.59
497.72	337.25
498.08	341.02
498.44	344.99
498.80	349.27
499.17	353.64
499.53	358.13
499.89	362.80
500.26	367.64
500.62	372.65
500.98	378.01
501.34	383.47
501.71	389.20
502.07	395.07
502.43	401.08
502.79	407.35
503.16	413.90
503.52	420.62
503.88	427.50
504.24	434.64
504.60	442.06
504.97	449.78
505.33	457.63
505.69	465.92
506.05	474.29
506.41	482.69
506.78	491.46
507.14	500.64
507.50	510.10
507.86	519.85
508.22	529.82
508.59	539.75
508.95	550.13
509.31	560.81
509.67	571.72
510.03	582.92
510.39	594.34
510.75	606.01
511.12	617.89
511.48	630.10
511.84	642.53
512.20	654.98
512.56	667.90
512.92	681.17
513.28	694.66
513.64	708.32
514.00	722.22
514.37	736.41
514.73	750.64
515.09	764.92
515.45	779.47
515.81	794.41
516.17	809.77
516.53	825.28
516.89	840.76
517.25	856.29
517.61	872.11
517.97	888.02
518.33	903.88
518.69	920.15
519.05	936.64
519.41	953.40
519.77	970.63
520.13	987.78
520.49	1004.88
520.85	1021.95
521.21	1039.26
521.57	1057.22
521.93	1074.63
522.29	1092.74
522.65	1110.81
523.01	1128.97
523.37	1146.73
523.73	1164.71
524.09	1182.77
524.45	1200.95
524.81	1219.60
525.17	1238.36
525.53	1257.37
525.89	1276.35
526.25	1295.26
526.61	1313.78
526.97	1332.65
527.33	1351.22
527.68	1369.84
528.04	1388.39
528.40	1406.99
528.76	1426.39
529.12	1445.31
529.48	1464.58
529.84	1482.86
530.20	1501.82
530.56	1521.02
530.91	1540.97
531.27	1560.25
531.63	1578.98
531.99	1598.05
532.35	1616.45
532.71	1634.86
533.07	1653.41
533.42	1671.85
533.78	1690.36
534.14	1709.19
534.50	1727.11
534.86	1745.52
535.21	1763.31
535.57	1781.74
535.93	1799.96
536.29	1817.24
536.65	1834.88
537.00	1852.07
537.36	1870.10
537.72	1887.08
538.08	1904.16
538.44	1920.38
538.79	1936.72
539.15	1952.84
539.51	1969.21
539.87	1986.15
540.22	2002.41
540.58	2018.96
540.94	2034.78
541.29	2050.26
541.65	2065.50
542.01	2081.26
542.37	2096.24
542.72	2111.38
543.08	2125.89
543.44	2140.89
543.79	2154.69
544.15	2168.22
544.51	2182.64
544.87	2196.18
545.22	2209.81
545.58	2222.57
545.94	2234.98
546.29	2247.38
546.65	2259.96
547.01	2271.76
547.36	2282.99
547.72	2293.87
548.07	2304.11
548.43	2314.61
548.79	2325.00
549.14	2334.97
549.50	2344.59
549.86	2354.42
550.21	2363.92
550.57	2373.47
550.92	2382.30
551.28	2391.62
551.64	2401.03
551.99	2409.51
552.35	2417.84
552.70	2425.99
553.06	2434.07
553.41	2442.45
553.77	2450.50
554.13	2458.63
554.48	2466.78
554.84	2474.29
555.19	2481.55
555.55	2488.79
555.90	2495.35
556.26	2502.43
556.61	2508.93
556.97	2515.29
557.32	2521.31
557.68	2527.34
558.03	2533.38
558.39	2538.81
558.74	2545.33
559.10	2550.94
559.45	2556.33
559.81	2562.26
560.16	2567.78
560.52	2572.70
560.87	2577.76
561.23	2582.00
561.58	2586.55
561.94	2590.55
562.29	2594.19
562.64	2598.67
563.00	2602.60
563.35	2607.56
563.71	2612.03
564.06	2616.92
564.42	2621.13
564.77	2625.11
565.12	2628.92
565.48	2632.22
565.83	2635.49
566.19	2638.14
566.54	2639.90
566.89	2642.31
567.25	2644.02
567.60	2646.45
567.96	2649.39
568.31	2651.33
568.66	2653.76
569.02	2655.36
569.37	2656.81
569.72	2658.91
570.08	2659.87
570.43	2660.63
570.78	2661.05
571.14	2660.07
571.49	2659.16
571.84	2659.55
572.20	2659.13
572.55	2658.48
572.90	2657.16
573.26	2656.35
573.61	2654.93
573.96	2653.86
574.31	2651.09
574.67	2648.44
575.02	2645.03
575.37	2641.65
575.72	2637.85
576.08	2634.38
576.43	2630.93
576.78	2627.28
577.13	2623.97
577.49	2620.75
577.84	2617.40
578.19	2613.43
578.54	2609.87
578.90	2605.53
579.25	2599.61
579.60	2594.45
579.95	2589.06
580.30	2583.78
580.66	2578.17
581.01	2572.84
581.36	2567.53
581.71	2563.21
582.06	2558.32
582.42	2553.40
582.77	2547.79
583.12	2542.98
583.47	2538.05
583.82	2532.84
584.17	2527.05
584.53	2521.00
584.88	2514.63
585.23	2508.38
585.58	2502.18
585.93	2495.99
586.28	2490.60
586.63	2485.00
586.98	2479.28
587.34	2474.06
587.69	2468.60
588.04	2462.77
588.39	2456.41
588.74	2448.99
589.09	2441.89
589.44	2434.20
589.79	2427.37
590.14	2420.88
590.49	2413.34
590.84	2405.94
591.19	2398.91
591.54	2391.48
591.89	2383.14
592.25	2375.48
592.60	2367.01
592.95	2358.39
593.30	2350.07
593.65	2341.34
594.00	2333.05
594.35	2324.51
594.70	2315.12
595.05	2306.75
595.40	2298.16
595.75	2289.39
596.10	2282.29
596.45	2274.43
596.80	2267.32
597.15	2259.64
597.50	2251.53
597.85	2243.80
598.19	2235.88
598.54	2227.64
598.89	2219.72
599.24	2212.73
599.59	2204.97
599.94	2197.71
600.29	2190.17
600.64	2182.14
600.99	2173.45
601.34	2165.42
601.69	2157.02
602.04	2149.03
602.39	2140.40
602.74	2132.31
603.08	2124.26
603.43	2116.00
603.78	2107.28
604.13	2098.67
604.48	2090.03
604.83	2081.61
605.18	2073.49
605.53	2064.06
605.87	2054.47
606.22	2045.81
606.57	2036.28
606.92	2027.35
607.27	2018.71
607.62	2010.44
607.96	2001.79
608.31	1993.95
608.66	1984.87
609.01	1976.06
609.36	1967.06
609.70	1957.35
610.05	1947.70
610.40	1938.52
610.75	1928.69
611.10	1919.59
611.44	1909.38
611.79	1899.60
612.14	1889.26
612.49	1878.24
612.83	1868.13
613.18	1858.30
613.53	1848.60
613.88	1838.34
614.22	1828.48
614.57	1818.08
614.92	1808.58
615.27	1799.62
615.61	1789.61
615.96	1779.99
616.31	1770.77
616.65	1761.83
617.00	1752.76
617.35	1743.44
617.70	1733.46
618.04	1723.32
618.39	1713.27
618.74	1704.27
619.08	1694.41
619.43	1685.32
619.78	1677.02
620.12	1668.49
620.47	1659.40
620.82	1649.62
621.16	1640.67
621.51	1631.42
621.85	1622.13
622.20	1611.82
622.55	1601.67
622.89	1592.14
623.24	1582.86
623.59	1573.79
623.93	1564.55
624.28	1555.72
624.62	1546.75
624.97	1538.03
625.32	1529.70
625.66	1521.30
626.01	1512.55
626.35	1503.65
626.70	1494.23
627.04	1484.79
627.39	1475.36
627.73	1466.46
628.08	1458.09
628.43	1449.48
628.77	1440.68
629.12	1431.79
629.46	1423.13
629.81	1414.14
630.15	1405.52
630.50	1396.61
630.84	1386.85
631.19	1377.29
631.53	1368.32
631.88	1359.13
632.22	1350.04
632.57	1341.32
632.91	1332.32
633.26	1323.46
633.60	1314.44
633.95	1305.93
634.29	1297.50
634.64	1289.50
634.98	1280.77
635.32	1272.18
635.67	1264.04
636.01	1256.04
636.36	1247.82
636.70	1239.94
637.05	1232.06
637.39	1224.23
637.73	1216.37
638.08	1209.24
638.42	1202.18
638.77	1194.55
639.11	1186.80
639.45	1179.13
639.80	1171.15
640.14	1163.51
640.49	1155.75
640.83	1148.29
641.17	1140.87
641.52	1133.27
641.86	1125.44
642.20	1118.39
642.55	1110.78
642.89	1103.15
643.23	1095.29
643.58	1088.41
643.92	1081.08
644.26	1073.97
644.61	1066.72
644.95	1059.65
645.29	1051.98
645.64	1043.98
645.98	1036.42
646.32	1029.36
646.66	1022.15
647.01	1015.34
647.35	1008.56
647.69	1001.60
648.04	995.01
648.38	988.20
648.72	981.21
649.06	974.14
649.41	967.17
649.75	960.16
650.09	953.03
650.43	946.23
650.78	938.91
651.12	931.85
651.46	925.02
651.80	918.28
652.14	911.84
652.49	905.44
652.83	899.35
653.17	892.69
653.51	886.01
653.85	879.74
654.20	872.99
654.54	865.86
654.88	859.02
655.22	852.05
655.56	845.20
655.90	838.68
656.25	832.49
656.59	826.10
656.93	820.09
657.27	814.12
657.61	807.68
657.95	801.64
658.29	795.64
658.64	789.38
658.98	783.09
659.32	776.66
659.66	770.54
660.00	764.23
660.34	758.39
660.68	752.53
661.02	746.50
661.36	741.00
661.70	735.71
662.05	730.57
662.39	725.51
662.73	720.20
663.07	715.10
663.41	709.82
663.75	704.50
664.09	699.10
664.43	693.82
664.77	689.04
665.11	684.07
665.45	679.15
665.79	674.35
666.13	669.56
666.47	664.79
666.81	659.86
667.15	655.02
667.49	650.42
667.83	645.90
668.17	641.31
668.51	636.54
668.85	631.71
669.19	627.19
669.53	622.60
669.87	618.18
670.21	613.74
670.55	609.45
670.89	605.41
671.23	601.41
671.57	597.29
671.91	593.06
672.25	588.94
672.58	584.85
672.92	580.84
673.26	576.98
673.60	573.25
673.94	569.61
674.28	566.14
674.62	562.62
674.96	559.03
675.30	555.61
675.64	552.12
675.97	548.90
676.31	545.46
676.65	542.02
676.99	538.75
677.33	535.38
677.67	532.02
678.01	528.51
678.34	525.00
678.68	521.62
679.02	518.33
679.36	515.07
679.70	511.84
680.04	508.63
680.37	505.34
680.71	502.02
681.05	498.89
681.39	495.76
681.73	492.63
682.06	489.61
682.40	486.60
682.74	483.58
683.08	480.52
683.42	477.51
683.75	474.54
684.09	471.49
684.43	468.62
684.77	465.75
685.10	462.95
685.44	460.20
685.78	457.53
686.12	454.88
686.45	452.17
686.79	449.43
687.13	446.78
687.46	444.19
687.80	441.62
688.14	438.99
688.48	436.52
688.81	433.89
689.15	431.32
689.49	428.72
689.82	426.30
690.16	423.87
690.50	421.51
690.83	419.28
691.17	416.92
691.51	414.65
691.84	412.45
692.18	410.20
692.52	407.87
692.85	405.55
693.19	403.34
693.52	401.16
693.86	399.05
694.20	396.95
694.53	394.82
694.87	392.63
695.21	390.55
695.54	388.37
695.88	386.28
696.21	384.27
696.55	382.32
696.88	380.28
697.22	378.27
697.56	376.30
697.89	374.28
698.23	372.39
698.56	370.50
698.90	368.64
699.23	366.65
699.57	364.80
699.90	362.99
700.24	361.14
700.58	359.33
700.91	357.54
701.25	355.81
701.58	354.16
701.92	352.58
702.25	350.93
702.59	349.30
702.92	347.77
703.26	346.19
703.59	344.68
703.93	343.28
704.26	341.86
704.60	340.34
704.93	338.90
705.26	337.42
705.60	336.02
705.93	334.60
706.27	333.40
706.60	332.15
706.94	330.83
707.27	329.50
707.61	328.24
707.94	327.01
708.27	325.68
708.61	324.42
708.94	323.21
709.28	322.05
709.61	320.92
709.94	319.74
710.28	318.56
710.61	317.36
710.95	316.14
711.28	315.02
711.61	313.96
711.95	312.85
712.28	311.76
712.61	310.57
712.95	309.45
713.28	308.38
713.61	307.33
713.95	306.27
714.28	305.31
714.61	304.32
714.95	303.32
715.28	302.35
715.61	301.30
715.95	300.24
716.28	299.21
716.61	298.21
716.95	297.25
717.28	296.35
717.61	295.45
717.94	294.56
718.28	293.62
718.61	292.69
718.94	291.83
719.27	291.03
719.61	290.22
719.94	289.47
720.27	288.63
720.60	287.83
720.94	287.09
721.27	286.33
721.60	285.62
721.93	284.91
722.27	284.27
722.60	283.61
722.93	282.97
723.26	282.32
723.59	281.67
723.93	281.03
724.26	280.33
724.59	279.68
724.92	279.01
725.25	278.39
725.59	277.85
725.92	277.27
726.25	276.66
726.58	276.12
726.91	275.57
727.24	274.98
727.57	274.41
727.91	273.81
728.24	273.24
728.57	272.61
728.90	272.08
729.23	271.49
729.56	270.96
729.89	270.39
730.22	269.80
730.55	269.26
730.89	268.73
731.22	268.24
731.55	267.73
731.88	267.21
732.21	266.72
732.54	266.16
732.87	265.66
733.20	265.16
733.53	264.68
733.86	264.20
734.19	263.73
734.52	263.27
734.85	262.87
735.18	262.38
735.51	261.98
735.84	261.50
736.17	261.09
736.50	260.62
736.83	260.36
737.16	259.97
737.49	259.55
737.82	259.14
738.15	258.74
738.48	258.32
738.81	257.97
739.14	257.57
739.47	257.20
739.80	256.82
740.13	256.49
740.46	256.10
740.79	255.68
741.12	255.34
741.45	254.99
741.78	254.61
742.11	254.29
742.44	253.90
742.77	253.55
743.10	253.18
743.43	252.84
743.75	252.38
744.08	252.18
744.41	251.89
744.74	251.56
745.07	251.26
745.40	250.96
745.73	250.68
746.06	250.36
746.39	250.06
746.71	249.77
747.04	249.44
747.37	249.13
747.70	248.88
748.03	248.59
748.36	248.32
748.68	248.03
749.01	247.74
749.34	247.49
749.67	247.24
750.00	246.98
750.33	246.83
750.65	246.57
750.98	246.18
751.31	245.92
751.64	245.68
751.97	245.47
752.29	245.23
752.62	244.93
752.95	244.69
753.28	244.46
753.60	244.21
753.93	243.98
754.26	243.78
754.59	243.50
754.91	243.31
755.24	243.07
755.57	242.85
755.90	242.60
756.22	242.37
756.55	242.14
756.88	241.92
757.20	241.59
757.53	241.37
757.86	241.16
758.19	240.95
758.51	240.76
758.84	240.51
759.17	240.33
759.49	240.19
759.82	240.04
760.15	239.83
760.47	239.66
760.80	239.51
761.13	239.35
761.45	239.20
761.78	238.96
762.11	238.79
762.43	238.64
762.76	238.50
763.08	238.39
763.41	238.26
763.74	238.11
764.06	237.95
764.39	237.80
764.71	237.63
765.04	237.44
765.37	237.25
765.69	237.10
766.02	236.93
766.34	236.76
766.67	236.60
767.00	236.49
767.32	236.39
767.65	236.28
767.97	236.12
768.30	235.98
768.62	235.85
768.95	235.71
769.27	235.54
769.60	235.45
769.92	235.26
770.25	235.12
770.57	234.94
770.90	234.83
771.22	234.68
771.55	234.57
771.87	234.50
772.20	234.37
772.52	234.34
772.85	234.33
773.17	234.22
773.50	234.10
773.82	233.98
774.15	233.83
774.47	233.65
774.80	233.57
775.12	233.50
775.45	233.41
775.77	233.33
776.09	233.24
776.42	233.11
776.74	233.05
777.07	232.96
777.39	232.89
777.72	232.81
778.04	232.78
778.36	232.68
778.69	232.60
779.01	232.54
779.33	232.39
779.66	232.22
779.98	232.10
780.31	232.02
780.63	231.97
780.95	231.94
781.28	231.86
781.60	231.75
781.92	231.66
782.25	231.58
782.57	231.49
782.89	231.43
783.22	231.35
783.54	231.27
783.86	231.21
784.19	231.12
784.51	231.07
784.83	230.97
785.16	230.95
785.48	230.90
785.80	230.83
786.12	230.78
786.45	230.70
