SpectraSuite Data File
++++++++++++++++++++++++++++++++++++
Date: Fri Feb 01 15:50:56 EST 2013
User: group
Dark Spectrum Present: No
Reference Spectrum Present: No
Number of Sampled Component Spectra: 1
Spectrometers: USB2E7196
Integration Time (usec): 35000 (USB2E7196)
Spectra Averaged: 100 (USB2E7196)
Boxcar Smoothing: 10 (USB2E7196)
Correct for Electrical Dark: No (USB2E7196)
Strobe/Lamp Enabled: No (USB2E7196)
Correct for Detector Non-linearity: No (USB2E7196)
Correct for Stray Light: No (USB2E7196)
Number of Pixels in Processed Spectrum: 2048
>>>>>Begin Processed Spectral Data<<<<<
339.09	0.00
339.48	214.55
339.86	215.73
340.24	217.66
340.63	218.75
341.01	221.85
341.39	221.82
341.78	223.23
342.16	224.17
342.54	224.70
342.93	213.09
343.31	223.83
343.69	224.37
344.07	224.83
344.46	225.23
344.84	225.62
345.22	225.84
345.60	226.10
345.99	226.29
346.37	226.42
346.75	226.51
347.13	226.57
347.52	226.60
347.90	226.70
348.28	226.72
348.66	226.75
349.05	226.74
349.43	226.78
349.81	226.82
350.19	226.88
350.57	226.93
350.96	226.98
351.34	227.10
351.72	227.19
352.10	227.30
352.48	227.40
352.87	227.45
353.25	227.50
353.63	227.58
354.01	227.62
354.39	227.70
354.77	227.78
355.15	227.87
355.54	227.90
355.92	227.91
356.30	227.99
356.68	228.13
357.06	228.21
357.44	228.28
357.82	228.38
358.20	228.44
358.58	228.51
358.97	228.60
359.35	228.67
359.73	228.72
360.11	228.78
360.49	228.83
360.87	228.88
361.25	228.97
361.63	229.01
362.01	229.05
362.39	229.08
362.77	229.10
363.15	229.14
363.53	229.19
363.91	229.24
364.29	229.24
364.67	229.14
365.05	229.14
365.43	229.12
365.81	229.11
366.19	229.17
366.57	229.22
366.95	229.21
367.33	229.16
367.71	229.19
368.09	229.17
368.47	229.15
368.85	229.11
369.23	229.10
369.61	229.05
369.99	229.09
370.37	229.05
370.75	229.06
371.13	229.00
371.51	228.95
371.89	228.91
372.27	228.92
372.65	228.90
373.03	228.86
373.41	228.83
373.78	228.81
374.16	228.70
374.54	228.59
374.92	228.52
375.30	228.47
375.68	228.37
376.06	228.34
376.44	228.29
376.82	228.23
377.19	228.15
377.57	228.08
377.95	227.95
378.33	227.93
378.71	227.80
379.09	227.75
379.47	227.71
379.84	227.63
380.22	227.47
380.60	227.41
380.98	227.34
381.36	227.28
381.73	227.20
382.11	227.14
382.49	227.10
382.87	227.03
383.25	227.00
383.62	227.04
384.00	226.95
384.38	226.91
384.76	226.90
385.13	226.88
385.51	226.85
385.89	226.76
386.27	226.69
386.64	226.67
387.02	226.63
387.40	226.58
387.78	226.55
388.15	226.55
388.53	226.50
388.91	226.45
389.29	226.42
389.66	226.39
390.04	226.35
390.42	226.35
390.79	226.33
391.17	226.27
391.55	226.14
391.92	226.12
392.30	226.13
392.68	226.10
393.05	226.09
393.43	226.12
393.81	226.17
394.18	226.20
394.56	226.20
394.94	226.25
395.31	226.26
395.69	226.33
396.06	226.38
396.44	226.36
396.82	226.38
397.19	226.46
397.57	226.49
397.95	226.54
398.32	226.55
398.70	226.65
399.07	226.77
399.45	226.85
399.82	226.95
400.20	227.02
400.58	227.11
400.95	227.17
401.33	227.25
401.70	227.38
402.08	227.43
402.45	227.56
402.83	227.64
403.20	227.76
403.58	227.86
403.95	228.00
404.33	228.19
404.71	228.34
405.08	228.51
405.46	228.67
405.83	228.80
406.21	229.01
406.58	229.14
406.96	229.30
407.33	229.49
407.70	229.64
408.08	229.90
408.45	230.07
408.83	230.30
409.20	230.50
409.58	230.69
409.95	230.96
410.33	231.18
410.70	231.43
411.08	231.74
411.45	232.01
411.82	232.29
412.20	232.62
412.57	233.03
412.95	233.30
413.32	233.72
413.69	234.14
414.07	234.55
414.44	235.02
414.82	235.50
415.19	236.05
415.56	236.64
415.94	237.19
416.31	237.82
416.68	238.42
417.06	239.13
417.43	239.83
417.81	240.60
418.18	241.36
418.55	242.22
418.93	243.07
419.30	243.95
419.67	244.92
420.04	245.88
420.42	246.85
420.79	248.02
421.16	249.16
421.54	250.34
421.91	251.54
422.28	252.78
422.66	254.11
423.03	255.41
423.40	256.72
423.77	258.12
424.15	259.55
424.52	261.08
424.89	262.67
425.26	264.23
425.64	265.68
426.01	267.29
426.38	268.93
426.75	270.57
427.13	272.30
427.50	274.07
427.87	275.93
428.24	277.82
428.61	279.59
428.99	281.53
429.36	283.61
429.73	285.67
430.10	287.70
430.47	289.73
430.85	291.81
431.22	294.05
431.59	296.46
431.96	298.73
432.33	301.20
432.70	303.59
433.08	306.39
433.45	309.00
433.82	311.61
434.19	314.54
434.56	317.37
434.93	320.02
435.30	322.64
435.68	325.53
436.05	328.35
436.42	331.16
436.79	333.65
437.16	336.39
437.53	339.24
437.90	342.12
438.27	344.91
438.64	347.76
439.01	350.32
439.38	352.53
439.75	354.69
440.13	357.18
440.50	359.52
440.87	361.35
441.24	363.33
441.61	365.50
441.98	366.95
442.35	368.76
442.72	370.66
443.09	372.44
443.46	373.46
443.83	374.06
444.20	374.53
444.57	375.41
444.94	375.65
445.31	375.93
445.68	376.24
446.05	376.29
446.42	375.94
446.79	375.56
447.16	375.12
447.53	374.83
447.90	373.67
448.27	372.49
448.64	370.95
449.01	369.80
449.37	367.85
449.74	365.97
450.11	363.73
450.48	361.22
450.85	358.76
451.22	356.62
451.59	354.59
451.96	352.68
452.33	350.04
452.70	347.74
453.07	344.92
453.43	341.97
453.80	339.24
454.17	336.54
454.54	334.00
454.91	331.28
455.28	328.58
455.65	326.08
456.02	323.64
456.38	321.48
456.75	318.83
457.12	316.58
457.49	314.36
457.86	312.20
458.23	310.41
458.59	308.37
458.96	306.32
459.33	304.46
459.70	302.57
460.07	301.08
460.43	299.35
460.80	297.78
461.17	296.37
461.54	294.86
461.91	293.43
462.27	291.97
462.64	290.71
463.01	289.35
463.38	288.08
463.74	286.73
464.11	285.57
464.48	284.53
464.85	283.43
465.21	282.58
465.58	281.65
465.95	280.53
466.32	279.64
466.68	278.70
467.05	277.81
467.42	276.97
467.78	276.03
468.15	275.14
468.52	274.45
468.88	273.58
469.25	272.80
469.62	272.20
469.98	271.54
470.35	270.93
470.72	270.35
471.08	269.67
471.45	269.10
471.82	268.58
472.18	267.97
472.55	267.53
472.92	267.00
473.28	266.54
473.65	266.06
474.02	265.58
474.38	265.22
474.75	264.91
475.11	264.54
475.48	264.28
475.85	264.09
476.21	263.86
476.58	263.70
476.94	263.51
477.31	263.33
477.67	263.18
478.04	263.06
478.41	263.03
478.77	263.08
479.14	263.04
479.50	263.01
479.87	263.10
480.23	263.16
480.60	263.20
480.96	263.31
481.33	263.55
481.69	263.77
482.06	263.93
482.42	264.10
482.79	264.35
483.15	264.65
483.52	265.03
483.88	265.37
484.25	265.76
484.61	266.21
484.98	266.66
485.34	267.20
485.71	267.76
486.07	268.34
486.44	268.91
486.80	269.58
487.17	270.28
487.53	271.11
487.90	271.93
488.26	272.87
488.62	273.87
488.99	274.80
489.35	275.79
489.72	276.92
490.08	278.15
490.44	279.39
490.81	280.73
491.17	282.04
491.54	283.52
491.90	285.04
492.26	286.71
492.63	288.46
492.99	290.26
493.36	292.20
493.72	294.26
494.08	296.36
494.45	298.61
494.81	301.01
495.17	303.44
495.54	306.05
495.90	308.75
496.26	311.54
496.63	314.54
496.99	317.67
497.35	320.93
497.72	324.29
498.08	327.85
498.44	331.57
498.80	335.53
499.17	339.62
499.53	343.81
499.89	348.18
500.26	352.68
500.62	357.37
500.98	362.31
501.34	367.39
501.71	372.78
502.07	378.24
502.43	383.86
502.79	389.71
503.16	395.78
503.52	402.06
503.88	408.50
504.24	415.15
504.60	422.03
504.97	429.19
505.33	436.58
505.69	444.29
506.05	452.09
506.41	459.94
506.78	468.03
507.14	476.48
507.50	485.22
507.86	494.25
508.22	503.42
508.59	512.64
508.95	522.22
509.31	531.99
509.67	542.13
510.03	552.41
510.39	562.97
510.75	573.77
511.12	584.74
511.48	595.98
511.84	607.34
512.20	618.93
512.56	630.86
512.92	643.04
513.28	655.37
513.64	667.80
514.00	680.53
514.37	693.49
514.73	706.56
515.09	719.59
515.45	732.87
515.81	746.40
516.17	760.36
516.53	774.47
516.89	788.57
517.25	802.77
517.61	817.24
517.97	831.65
518.33	846.07
518.69	860.82
519.05	875.76
519.41	891.13
519.77	906.63
520.13	922.01
520.49	937.37
520.85	952.70
521.21	968.41
521.57	984.63
521.93	1000.40
522.29	1016.82
522.65	1032.97
523.01	1049.21
523.37	1065.31
523.73	1081.46
524.09	1097.53
524.45	1113.99
524.81	1130.53
525.17	1147.21
525.53	1164.03
525.89	1180.92
526.25	1197.82
526.61	1214.17
526.97	1230.78
527.33	1247.24
527.68	1263.95
528.04	1280.48
528.40	1297.14
528.76	1314.20
529.12	1330.83
529.48	1347.68
529.84	1363.66
530.20	1380.34
530.56	1397.39
530.91	1414.75
531.27	1431.56
531.63	1448.02
531.99	1464.46
532.35	1480.36
532.71	1496.24
533.07	1512.57
533.42	1528.31
533.78	1544.28
534.14	1560.60
534.50	1575.91
534.86	1591.65
535.21	1606.81
535.57	1622.75
535.93	1638.17
536.29	1652.91
536.65	1667.93
537.00	1682.66
537.36	1697.89
537.72	1712.37
538.08	1726.73
538.44	1740.51
538.79	1754.28
539.15	1767.92
539.51	1781.76
539.87	1796.06
540.22	1809.80
540.58	1823.60
540.94	1837.11
541.29	1849.92
541.65	1862.55
542.01	1875.87
542.37	1888.24
542.72	1900.69
543.08	1912.34
543.44	1924.82
543.79	1935.94
544.15	1946.89
544.51	1958.47
544.87	1969.37
545.22	1980.18
545.58	1990.30
545.94	2000.06
546.29	2009.95
546.65	2019.76
547.01	2028.91
547.36	2037.71
547.72	2046.21
548.07	2054.01
548.43	2062.08
548.79	2070.14
549.14	2077.69
549.50	2085.06
549.86	2092.83
550.21	2100.01
550.57	2107.32
550.92	2113.70
551.28	2120.91
551.64	2127.92
551.99	2134.47
552.35	2140.62
552.70	2146.88
553.06	2152.99
553.41	2159.29
553.77	2165.35
554.13	2171.42
554.48	2177.46
554.84	2182.91
555.19	2188.26
555.55	2193.38
555.90	2197.87
556.26	2202.69
556.61	2207.44
556.97	2211.57
557.32	2215.59
557.68	2219.68
558.03	2223.91
558.39	2227.80
558.74	2232.42
559.10	2236.40
559.45	2239.97
559.81	2244.27
560.16	2247.91
560.52	2251.07
560.87	2254.53
561.23	2257.30
561.58	2260.42
561.94	2263.03
562.29	2265.40
562.64	2267.95
563.00	2270.62
563.35	2274.12
563.71	2277.26
564.06	2280.43
564.42	2283.32
564.77	2285.71
565.12	2288.01
565.48	2289.69
565.83	2291.52
566.19	2292.74
566.54	2293.64
566.89	2294.79
567.25	2295.33
567.60	2296.77
567.96	2298.41
568.31	2299.30
568.66	2300.28
569.02	2300.69
569.37	2300.99
569.72	2301.89
570.08	2302.03
570.43	2302.03
570.78	2301.42
571.14	2299.84
571.49	2298.51
571.84	2298.15
572.20	2297.16
572.55	2296.07
572.90	2294.69
573.26	2293.30
573.61	2291.66
573.96	2289.76
574.31	2286.74
574.67	2283.91
575.02	2280.22
575.37	2276.74
575.72	2272.86
576.08	2269.57
576.43	2266.19
576.78	2262.58
577.13	2259.30
577.49	2256.12
577.84	2252.45
578.19	2248.63
578.54	2245.03
578.90	2240.90
579.25	2235.34
579.60	2230.31
579.95	2225.46
580.30	2220.41
580.66	2215.25
581.01	2210.34
581.36	2205.55
581.71	2201.40
582.06	2196.87
582.42	2192.38
582.77	2187.29
583.12	2182.81
583.47	2178.04
583.82	2173.04
584.17	2167.69
584.53	2162.27
584.88	2156.75
585.23	2151.10
585.58	2145.75
585.93	2140.20
586.28	2135.43
586.63	2130.34
586.98	2125.28
587.34	2120.43
587.69	2115.63
588.04	2110.38
588.39	2104.78
588.74	2098.18
589.09	2092.12
589.44	2085.25
589.79	2079.37
590.14	2073.71
590.49	2067.01
590.84	2060.68
591.19	2054.78
591.54	2048.33
591.89	2040.97
592.25	2034.17
592.60	2026.85
592.95	2019.23
593.30	2011.94
593.65	2004.34
594.00	1997.36
594.35	1990.08
594.70	1982.16
595.05	1974.80
595.40	1967.48
595.75	1959.83
596.10	1953.64
596.45	1946.90
596.80	1940.83
597.15	1934.11
597.50	1926.94
597.85	1920.61
598.19	1913.88
598.54	1906.57
598.89	1899.91
599.24	1894.03
599.59	1887.30
599.94	1881.21
600.29	1874.94
600.64	1868.48
600.99	1861.02
601.34	1854.24
601.69	1847.26
602.04	1840.26
602.39	1832.96
602.74	1826.09
603.08	1819.43
603.43	1812.75
603.78	1805.36
604.13	1798.13
604.48	1790.74
604.83	1783.88
605.18	1776.89
605.53	1768.87
605.87	1760.98
606.22	1753.84
606.57	1745.85
606.92	1738.59
607.27	1731.43
607.62	1724.50
607.96	1717.11
608.31	1710.40
608.66	1702.73
609.01	1695.27
609.36	1687.79
609.70	1679.79
610.05	1671.74
610.40	1663.83
610.75	1655.35
611.10	1647.71
611.44	1639.30
611.79	1631.35
612.14	1622.71
612.49	1613.56
612.83	1605.27
613.18	1597.14
613.53	1589.13
613.88	1580.50
614.22	1572.22
614.57	1563.61
614.92	1555.46
615.27	1547.86
615.61	1539.54
615.96	1531.56
616.31	1524.01
616.65	1516.55
617.00	1508.97
617.35	1501.26
617.70	1493.10
618.04	1484.70
618.39	1476.49
618.74	1468.91
619.08	1460.69
619.43	1453.06
619.78	1446.05
620.12	1438.73
620.47	1431.25
620.82	1422.96
621.16	1415.69
621.51	1408.12
621.85	1400.60
622.20	1392.11
622.55	1383.81
622.89	1375.84
623.24	1368.21
623.59	1360.80
623.93	1353.29
624.28	1346.02
624.62	1338.50
624.97	1331.33
625.32	1324.56
625.66	1317.60
626.01	1310.41
626.35	1302.82
626.70	1295.10
627.04	1287.39
627.39	1279.71
627.73	1272.27
628.08	1265.37
628.43	1258.03
628.77	1250.58
629.12	1242.91
629.46	1235.80
629.81	1228.31
630.15	1221.25
630.50	1213.76
630.84	1205.48
631.19	1197.61
631.53	1190.14
631.88	1182.53
632.22	1174.87
632.57	1167.59
632.91	1159.91
633.26	1152.47
633.60	1145.19
633.95	1138.15
634.29	1131.11
634.64	1124.46
634.98	1117.12
635.32	1109.93
635.67	1103.36
636.01	1096.74
636.36	1089.94
636.70	1083.37
637.05	1076.82
637.39	1070.34
637.73	1063.85
638.08	1057.91
638.42	1051.86
638.77	1045.35
639.11	1038.82
639.45	1032.42
639.80	1025.73
640.14	1019.34
640.49	1012.77
640.83	1006.45
641.17	1000.14
641.52	993.79
641.86	987.25
642.20	981.40
642.55	975.08
642.89	968.54
643.23	962.01
643.58	956.21
643.92	949.99
644.26	943.91
644.61	937.90
644.95	931.79
645.29	925.23
645.64	918.58
645.98	912.28
646.32	906.52
646.66	900.49
647.01	894.75
647.35	889.10
647.69	883.26
648.04	877.73
648.38	871.91
648.72	865.87
649.06	859.83
649.41	853.95
649.75	848.02
650.09	842.12
650.43	836.27
650.78	830.14
651.12	824.17
651.46	818.50
651.80	812.68
652.14	807.36
652.49	802.07
652.83	796.87
653.17	791.15
653.51	785.33
653.85	780.02
654.20	774.32
654.54	768.25
654.88	762.54
655.22	756.65
655.56	751.07
655.90	745.71
656.25	740.43
656.59	735.05
656.93	729.99
657.27	724.83
657.61	719.39
657.95	714.26
658.29	709.16
658.64	703.92
658.98	698.67
659.32	693.21
659.66	687.95
660.00	682.61
660.34	677.73
660.68	672.92
661.02	667.89
661.36	663.17
661.70	658.81
662.05	654.48
662.39	650.14
662.73	645.59
663.07	641.15
663.41	636.79
663.75	632.28
664.09	627.70
664.43	623.28
664.77	619.19
665.11	615.00
665.45	610.92
665.79	606.82
666.13	602.68
666.47	598.56
666.81	594.41
667.15	590.30
667.49	586.41
667.83	582.58
668.17	578.63
668.51	574.59
668.85	570.46
669.19	566.59
669.53	562.72
669.87	558.91
670.21	555.21
670.55	551.53
670.89	548.12
671.23	544.66
671.57	541.11
671.91	537.59
672.25	534.06
672.58	530.55
672.92	527.15
673.26	523.98
673.60	520.83
673.94	517.70
674.28	514.79
674.62	511.82
674.96	508.67
675.30	505.68
675.64	502.69
675.97	499.94
676.31	497.09
676.65	494.24
676.99	491.53
677.33	488.67
677.67	485.86
678.01	482.79
678.34	479.83
678.68	477.03
679.02	474.21
679.36	471.50
679.70	468.74
680.04	465.98
680.37	463.07
680.71	460.33
681.05	457.75
681.39	455.02
681.73	452.32
682.06	449.80
682.40	447.32
682.74	444.90
683.08	442.30
683.42	439.71
683.75	437.18
684.09	434.61
684.43	432.11
684.77	429.66
685.10	427.30
685.44	425.03
685.78	422.72
686.12	420.46
686.45	418.13
686.79	415.79
687.13	413.58
687.46	411.45
687.80	409.27
688.14	407.07
688.48	405.03
688.81	402.82
689.15	400.66
689.49	398.49
689.82	396.34
690.16	394.32
690.50	392.39
690.83	390.45
691.17	388.47
691.51	386.61
691.84	384.79
692.18	382.87
692.52	380.83
692.85	378.87
693.19	376.98
693.52	375.18
693.86	373.46
694.20	371.67
694.53	369.91
694.87	368.07
695.21	366.27
695.54	364.43
695.88	362.70
696.21	361.04
696.55	359.36
696.88	357.72
697.22	356.08
697.56	354.43
697.89	352.79
698.23	351.18
698.56	349.61
698.90	348.02
699.23	346.43
699.57	344.92
699.90	343.42
700.24	341.95
700.58	340.43
700.91	338.94
701.25	337.52
701.58	336.12
701.92	334.76
702.25	333.37
702.59	332.04
702.92	330.72
703.26	329.39
703.59	328.13
703.93	326.96
704.26	325.72
704.60	324.40
704.93	323.18
705.26	321.94
705.60	320.74
705.93	319.54
706.27	318.51
706.60	317.46
706.94	316.40
707.27	315.26
707.61	314.19
707.94	313.14
708.27	312.06
708.61	311.03
708.94	310.03
709.28	309.07
709.61	308.09
709.94	307.18
710.28	306.13
710.61	305.11
710.95	304.01
711.28	303.08
711.61	302.16
711.95	301.22
712.28	300.27
712.61	299.27
712.95	298.34
713.28	297.44
713.61	296.57
713.95	295.66
714.28	294.79
714.61	293.92
714.95	293.05
715.28	292.19
715.61	291.28
715.95	290.40
716.28	289.50
716.61	288.71
716.95	287.84
717.28	287.12
717.61	286.34
717.94	285.61
718.28	284.79
718.61	284.04
718.94	283.32
719.27	282.67
719.61	282.04
719.94	281.37
720.27	280.65
720.60	279.96
720.94	279.30
721.27	278.70
721.60	278.13
721.93	277.52
722.27	276.98
722.60	276.42
722.93	275.83
723.26	275.30
723.59	274.69
723.93	274.13
724.26	273.58
724.59	273.02
724.92	272.51
725.25	272.04
725.59	271.50
725.92	270.96
726.25	270.43
726.58	269.91
726.91	269.42
727.24	268.93
727.57	268.45
727.91	267.96
728.24	267.49
728.57	267.01
728.90	266.58
729.23	266.12
729.56	265.68
729.89	265.24
730.22	264.79
730.55	264.38
730.89	263.94
731.22	263.48
731.55	263.07
731.88	262.65
732.21	262.17
732.54	261.76
732.87	261.35
733.20	260.95
733.53	260.54
733.86	260.15
734.19	259.75
734.52	259.37
734.85	259.03
735.18	258.62
735.51	258.19
735.84	257.78
736.17	257.38
736.50	256.99
736.83	256.76
737.16	256.39
737.49	256.03
737.82	255.66
738.15	255.33
738.48	254.97
738.81	254.63
739.14	254.32
739.47	254.03
739.80	253.77
740.13	253.50
740.46	253.19
740.79	252.87
741.12	252.57
741.45	252.29
741.78	251.93
742.11	251.68
742.44	251.39
742.77	251.13
743.10	250.83
743.43	250.55
743.75	250.15
744.08	250.00
744.41	249.75
744.74	249.48
745.07	249.21
745.40	248.99
745.73	248.74
746.06	248.48
746.39	248.22
746.71	247.94
747.04	247.64
747.37	247.40
747.70	247.18
748.03	246.92
748.36	246.68
748.68	246.45
749.01	246.17
749.34	245.94
749.67	245.72
750.00	245.51
750.33	245.32
750.65	245.12
750.98	244.85
751.31	244.59
751.64	244.40
751.97	244.23
752.29	243.99
752.62	243.77
752.95	243.58
753.28	243.35
753.60	243.14
753.93	243.00
754.26	242.80
754.59	242.60
754.91	242.41
755.24	242.21
755.57	242.06
755.90	241.91
756.22	241.70
756.55	241.52
756.88	241.32
757.20	241.12
757.53	240.92
757.86	240.73
758.19	240.58
758.51	240.41
758.84	240.17
759.17	240.03
759.49	239.84
759.82	239.68
760.15	239.50
760.47	239.33
760.80	239.12
761.13	238.97
761.45	238.81
761.78	238.63
762.11	238.50
762.43	238.31
762.76	238.15
763.08	238.08
763.41	237.94
763.74	237.81
764.06	237.65
764.39	237.49
764.71	237.32
765.04	237.18
765.37	237.06
765.69	236.92
766.02	236.78
766.34	236.66
766.67	236.51
767.00	236.48
767.32	236.42
767.65	236.36
767.97	236.24
768.30	236.13
768.62	236.02
768.95	235.87
769.27	235.78
769.60	235.67
769.92	235.54
770.25	235.44
770.57	235.28
770.90	235.20
771.22	235.11
771.55	235.04
771.87	234.94
772.20	234.84
772.52	234.85
772.85	234.85
773.17	234.77
773.50	234.69
773.82	234.53
774.15	234.40
774.47	234.26
774.80	234.18
775.12	234.08
775.45	234.00
775.77	233.94
776.09	233.85
776.42	233.78
776.74	233.73
777.07	233.62
777.39	233.55
777.72	233.50
778.04	233.41
778.36	233.35
778.69	233.31
779.01	233.25
779.33	233.10
779.66	232.95
779.98	232.90
780.31	232.83
780.63	232.82
780.95	232.75
781.28	232.70
781.60	232.64
781.92	232.58
782.25	232.53
782.57	232.46
782.89	232.42
783.22	232.34
783.54	232.22
783.86	232.20
784.19	232.13
784.51	232.09
784.83	232.03
785.16	231.99
785.48	231.92
785.80	231.89
786.12	231.85
786.45	231.84
786.77	231.78
787.09	231.77
