SpectraSuite Data File
++++++++++++++++++++++++++++++++++++
Date: Fri Feb 01 15:36:29 EST 2013
User: group
Dark Spectrum Present: No
Reference Spectrum Present: No
Number of Sampled Component Spectra: 1
Spectrometers: USB2E7196
Integration Time (usec): 35000 (USB2E7196)
Spectra Averaged: 100 (USB2E7196)
Boxcar Smoothing: 10 (USB2E7196)
Correct for Electrical Dark: No (USB2E7196)
Strobe/Lamp Enabled: No (USB2E7196)
Correct for Detector Non-linearity: No (USB2E7196)
Correct for Stray Light: No (USB2E7196)
Number of Pixels in Processed Spectrum: 2048
>>>>>Begin Processed Spectral Data<<<<<
339.09	0.00
339.48	215.09
339.86	216.39
340.24	218.02
340.63	219.22
341.01	221.88
341.39	221.25
341.78	223.58
342.16	224.42
342.54	225.06
342.93	213.38
343.31	224.16
343.69	224.67
344.07	225.16
344.46	225.55
344.84	225.94
345.22	226.17
345.60	226.43
345.99	226.60
346.37	226.72
346.75	226.81
347.13	226.90
347.52	226.92
347.90	226.98
348.28	226.97
348.66	227.02
349.05	227.02
349.43	227.03
349.81	227.01
350.19	227.09
350.57	227.15
350.96	227.20
351.34	227.24
351.72	227.32
352.10	227.39
352.48	227.47
352.87	227.50
353.25	227.57
353.63	227.66
354.01	227.71
354.39	227.76
354.77	227.82
355.15	227.91
355.54	227.98
355.92	228.04
356.30	228.11
356.68	228.24
357.06	228.32
357.44	228.41
357.82	228.48
358.20	228.55
358.58	228.57
358.97	228.59
359.35	228.68
359.73	228.76
360.11	228.81
360.49	228.84
360.87	228.91
361.25	228.97
361.63	229.01
362.01	229.05
362.39	229.11
362.77	229.15
363.15	229.17
363.53	229.20
363.91	229.20
364.29	229.24
364.67	229.16
365.05	229.15
365.43	229.16
365.81	229.19
366.19	229.20
366.57	229.25
366.95	229.27
367.33	229.24
367.71	229.24
368.09	229.22
368.47	229.23
368.85	229.21
369.23	229.19
369.61	229.14
369.99	229.15
370.37	229.12
370.75	229.14
371.13	229.07
371.51	229.02
371.89	228.99
372.27	228.92
372.65	228.89
373.03	228.85
373.41	228.76
373.78	228.69
374.16	228.59
374.54	228.49
374.92	228.42
375.30	228.36
375.68	228.26
376.06	228.21
376.44	228.14
376.82	228.09
377.19	228.03
377.57	227.97
377.95	227.88
378.33	227.79
378.71	227.70
379.09	227.63
379.47	227.59
379.84	227.49
380.22	227.42
380.60	227.32
380.98	227.24
381.36	227.20
381.73	227.13
382.11	227.08
382.49	227.03
382.87	226.94
383.25	226.89
383.62	226.93
384.00	226.87
384.38	226.79
384.76	226.70
385.13	226.64
385.51	226.58
385.89	226.50
386.27	226.47
386.64	226.46
387.02	226.42
387.40	226.35
387.78	226.34
388.15	226.31
388.53	226.25
388.91	226.20
389.29	226.14
389.66	226.12
390.04	226.10
390.42	226.08
390.79	226.09
391.17	226.07
391.55	225.95
391.92	225.93
392.30	225.95
392.68	225.96
393.05	225.96
393.43	225.97
393.81	225.98
394.18	225.99
394.56	225.96
394.94	225.99
395.31	225.99
395.69	226.02
396.06	226.04
396.44	226.12
396.82	226.18
397.19	226.27
397.57	226.30
397.95	226.33
398.32	226.36
398.70	226.38
399.07	226.47
399.45	226.54
399.82	226.59
400.20	226.65
400.58	226.75
400.95	226.80
401.33	226.90
401.70	227.07
402.08	227.14
402.45	227.22
402.83	227.33
403.20	227.46
403.58	227.58
403.95	227.72
404.33	227.86
404.71	227.99
405.08	228.19
405.46	228.34
405.83	228.54
406.21	228.70
406.58	228.90
406.96	229.07
407.33	229.27
407.70	229.45
408.08	229.73
408.45	229.92
408.83	230.16
409.20	230.40
409.58	230.59
409.95	230.88
410.33	231.18
410.70	231.43
411.08	231.75
411.45	232.07
411.82	232.32
412.20	232.67
412.57	233.10
412.95	233.39
413.32	233.79
413.69	234.14
414.07	234.57
414.44	235.04
414.82	235.46
415.19	236.00
415.56	236.57
415.94	237.12
416.31	237.76
416.68	238.39
417.06	239.11
417.43	239.79
417.81	240.52
418.18	241.29
418.55	242.16
418.93	243.03
419.30	243.92
419.67	244.89
420.04	245.85
420.42	246.82
420.79	248.01
421.16	249.17
421.54	250.42
421.91	251.66
422.28	252.94
422.66	254.31
423.03	255.62
423.40	256.99
423.77	258.37
424.15	259.81
424.52	261.30
424.89	262.90
425.26	264.43
425.64	265.88
426.01	267.49
426.38	269.16
426.75	270.85
427.13	272.57
427.50	274.39
427.87	276.24
428.24	278.11
428.61	279.87
428.99	281.84
429.36	283.92
429.73	285.98
430.10	288.01
430.47	290.11
430.85	292.23
431.22	294.43
431.59	296.85
431.96	299.07
432.33	301.56
432.70	303.96
433.08	306.80
433.45	309.44
433.82	312.07
434.19	314.96
434.56	317.78
434.93	320.46
435.30	323.11
435.68	325.99
436.05	328.87
436.42	331.65
436.79	334.13
437.16	336.86
437.53	339.69
437.90	342.50
438.27	345.25
438.64	348.08
439.01	350.71
439.38	352.93
439.75	355.16
440.13	357.63
440.50	359.95
440.87	361.76
441.24	363.72
441.61	365.85
441.98	367.35
442.35	369.12
442.72	370.95
443.09	372.75
443.46	373.79
443.83	374.33
444.20	374.81
444.57	375.69
444.94	375.96
445.31	376.32
445.68	376.69
446.05	376.77
446.42	376.39
446.79	375.96
447.16	375.56
447.53	375.15
447.90	373.99
448.27	372.85
448.64	371.32
449.01	370.14
449.37	368.16
449.74	366.18
450.11	363.94
450.48	361.44
450.85	358.90
451.22	356.74
451.59	354.74
451.96	352.85
452.33	350.21
452.70	347.87
453.07	345.00
453.43	342.09
453.80	339.27
454.17	336.59
454.54	334.05
454.91	331.29
455.28	328.66
455.65	326.21
456.02	323.75
456.38	321.58
456.75	318.95
457.12	316.73
457.49	314.54
457.86	312.35
458.23	310.51
458.59	308.49
458.96	306.40
459.33	304.53
459.70	302.68
460.07	301.18
460.43	299.42
460.80	297.81
461.17	296.39
461.54	294.89
461.91	293.47
462.27	292.02
462.64	290.77
463.01	289.42
463.38	288.08
463.74	286.68
464.11	285.50
464.48	284.46
464.85	283.32
465.21	282.44
465.58	281.52
465.95	280.44
466.32	279.51
466.68	278.59
467.05	277.67
467.42	276.73
467.78	275.78
468.15	274.88
468.52	274.20
468.88	273.30
469.25	272.55
469.62	271.94
469.98	271.25
470.35	270.60
470.72	270.02
471.08	269.39
471.45	268.88
471.82	268.34
472.18	267.70
472.55	267.27
472.92	266.79
473.28	266.31
473.65	265.86
474.02	265.42
474.38	265.05
474.75	264.75
475.11	264.41
475.48	264.15
475.85	263.95
476.21	263.74
476.58	263.55
476.94	263.39
477.31	263.18
477.67	263.05
478.04	262.93
478.41	262.85
478.77	262.84
479.14	262.78
479.50	262.82
479.87	262.92
480.23	263.01
480.60	263.05
480.96	263.14
481.33	263.34
481.69	263.56
482.06	263.74
482.42	263.92
482.79	264.19
483.15	264.48
483.52	264.86
483.88	265.22
484.25	265.61
484.61	266.02
484.98	266.49
485.34	267.02
485.71	267.63
486.07	268.22
486.44	268.81
486.80	269.49
487.17	270.17
487.53	270.99
487.90	271.83
488.26	272.75
488.62	273.77
488.99	274.71
489.35	275.75
489.72	276.90
490.08	278.10
490.44	279.32
490.81	280.67
491.17	282.00
491.54	283.46
491.90	285.01
492.26	286.66
492.63	288.39
492.99	290.15
493.36	292.00
493.72	294.07
494.08	296.16
494.45	298.43
494.81	300.79
495.17	303.19
495.54	305.79
495.90	308.49
496.26	311.29
496.63	314.23
496.99	317.33
497.35	320.56
497.72	323.99
498.08	327.50
498.44	331.13
498.80	335.05
499.17	339.09
499.53	343.26
499.89	347.61
500.26	352.08
500.62	356.83
500.98	361.80
501.34	366.88
501.71	372.23
502.07	377.67
502.43	383.34
502.79	389.20
503.16	395.26
503.52	401.55
503.88	407.98
504.24	414.63
504.60	421.51
504.97	428.67
505.33	435.99
505.69	443.72
506.05	451.62
506.41	459.49
506.78	467.65
507.14	476.09
507.50	484.80
507.86	493.84
508.22	502.99
508.59	512.19
508.95	521.79
509.31	531.61
509.67	541.69
510.03	551.95
510.39	562.55
510.75	573.37
511.12	584.30
511.48	595.60
511.84	607.10
512.20	618.64
512.56	630.56
512.92	642.76
513.28	655.05
513.64	667.50
514.00	680.28
514.37	693.21
514.73	706.32
515.09	719.37
515.45	732.68
515.81	746.29
516.17	760.33
516.53	774.47
516.89	788.69
517.25	802.91
517.61	817.34
517.97	831.72
518.33	846.21
518.69	860.94
519.05	875.87
519.41	891.06
519.77	906.64
520.13	922.11
520.49	937.50
520.85	952.96
521.21	968.67
521.57	984.90
521.93	1000.74
522.29	1017.15
522.65	1033.51
523.01	1049.84
523.37	1066.03
523.73	1082.26
524.09	1098.41
524.45	1114.73
524.81	1131.38
525.17	1148.32
525.53	1165.40
525.89	1182.22
526.25	1199.15
526.61	1215.54
526.97	1232.29
527.33	1248.83
527.68	1265.46
528.04	1282.02
528.40	1298.73
528.76	1315.77
529.12	1332.37
529.48	1349.18
529.84	1365.13
530.20	1381.75
530.56	1398.78
530.91	1416.12
531.27	1432.86
531.63	1449.30
531.99	1465.90
532.35	1481.96
532.71	1497.87
533.07	1514.08
533.42	1530.00
533.78	1545.99
534.14	1562.31
534.50	1577.71
534.86	1593.63
535.21	1608.92
535.57	1624.81
535.93	1640.25
536.29	1655.12
536.65	1670.23
537.00	1685.09
537.36	1700.52
537.72	1715.10
538.08	1729.40
538.44	1743.09
538.79	1756.88
539.15	1770.62
539.51	1784.44
539.87	1798.73
540.22	1812.56
540.58	1826.35
540.94	1839.75
541.29	1852.76
541.65	1865.44
542.01	1878.56
542.37	1890.80
542.72	1903.18
543.08	1915.01
543.44	1927.36
543.79	1938.62
544.15	1949.63
544.51	1961.23
544.87	1972.22
545.22	1982.97
545.58	1993.32
545.94	2003.02
546.29	2013.06
546.65	2022.74
547.01	2031.93
547.36	2040.63
547.72	2048.99
548.07	2056.75
548.43	2064.90
548.79	2072.96
549.14	2080.43
549.50	2087.82
549.86	2095.72
550.21	2103.07
550.57	2110.22
550.92	2116.80
551.28	2123.78
551.64	2130.82
551.99	2137.34
552.35	2143.41
552.70	2149.69
553.06	2155.59
553.41	2162.09
553.77	2168.09
554.13	2174.26
554.48	2180.31
554.84	2185.70
555.19	2191.07
555.55	2196.17
555.90	2200.49
556.26	2205.32
556.61	2210.41
556.97	2214.48
557.32	2218.44
557.68	2222.50
558.03	2226.81
558.39	2230.59
558.74	2235.34
559.10	2239.12
559.45	2242.75
559.81	2247.26
560.16	2251.02
560.52	2254.42
560.87	2257.81
561.23	2260.44
561.58	2263.55
561.94	2266.17
562.29	2268.74
562.64	2271.25
563.00	2273.97
563.35	2277.60
563.71	2280.74
564.06	2283.83
564.42	2286.94
564.77	2289.39
565.12	2291.69
565.48	2293.54
565.83	2295.42
566.19	2296.54
566.54	2297.62
566.89	2298.71
567.25	2299.04
567.60	2300.25
567.96	2301.84
568.31	2302.78
568.66	2303.89
569.02	2304.29
569.37	2304.58
569.72	2305.37
570.08	2305.59
570.43	2305.64
570.78	2304.94
571.14	2303.30
571.49	2301.84
571.84	2301.42
572.20	2300.26
572.55	2299.18
572.90	2297.67
573.26	2296.21
573.61	2294.66
573.96	2292.71
574.31	2289.68
574.67	2286.72
575.02	2283.09
575.37	2279.63
575.72	2275.74
576.08	2272.44
576.43	2269.15
576.78	2265.53
577.13	2262.29
577.49	2259.00
577.84	2255.39
578.19	2251.64
578.54	2247.96
578.90	2243.66
579.25	2238.11
579.60	2233.04
579.95	2227.90
580.30	2222.82
580.66	2217.65
581.01	2212.63
581.36	2207.68
581.71	2203.54
582.06	2198.99
582.42	2194.59
582.77	2189.24
583.12	2184.47
583.47	2179.51
583.82	2174.41
584.17	2169.06
584.53	2163.45
584.88	2157.95
585.23	2152.13
585.58	2146.71
585.93	2141.21
586.28	2136.60
586.63	2131.52
586.98	2126.54
587.34	2121.88
587.69	2116.94
588.04	2111.55
588.39	2105.83
588.74	2099.44
589.09	2093.33
589.44	2086.45
589.79	2080.42
590.14	2074.85
590.49	2068.33
590.84	2062.09
591.19	2056.12
591.54	2049.70
591.89	2042.30
592.25	2035.44
592.60	2028.30
592.95	2020.54
593.30	2013.14
593.65	2005.31
594.00	1998.21
594.35	1990.90
594.70	1982.73
595.05	1975.32
595.40	1968.02
595.75	1960.40
596.10	1954.08
596.45	1947.12
596.80	1940.97
597.15	1934.11
597.50	1926.89
597.85	1920.42
598.19	1913.49
598.54	1906.27
598.89	1899.51
599.24	1893.61
599.59	1886.91
599.94	1880.54
600.29	1874.35
600.64	1867.79
600.99	1860.24
601.34	1853.31
601.69	1846.31
602.04	1839.42
602.39	1832.16
602.74	1825.44
603.08	1818.71
603.43	1811.96
603.78	1804.72
604.13	1797.54
604.48	1790.20
604.83	1783.40
605.18	1776.48
605.53	1768.54
605.87	1760.51
606.22	1753.36
606.57	1745.41
606.92	1738.00
607.27	1730.75
607.62	1723.77
607.96	1716.49
608.31	1709.88
608.66	1702.24
609.01	1694.65
609.36	1687.07
609.70	1679.01
610.05	1670.88
610.40	1663.24
610.75	1654.88
611.10	1647.29
611.44	1638.83
611.79	1630.92
612.14	1622.25
612.49	1612.95
612.83	1604.66
613.18	1596.55
613.53	1588.34
613.88	1579.76
614.22	1571.42
614.57	1562.91
614.92	1554.82
615.27	1547.10
615.61	1538.79
615.96	1530.86
616.31	1523.25
616.65	1515.93
617.00	1508.46
617.35	1500.70
617.70	1492.17
618.04	1483.62
618.39	1475.32
618.74	1467.79
619.08	1459.46
619.43	1451.95
619.78	1445.16
620.12	1437.89
620.47	1430.37
620.82	1422.27
621.16	1415.02
621.51	1407.45
621.85	1399.85
622.20	1391.33
622.55	1383.08
622.89	1375.35
623.24	1367.73
623.59	1360.42
623.93	1352.81
624.28	1345.44
624.62	1337.97
624.97	1330.94
625.32	1324.27
625.66	1317.28
626.01	1309.96
626.35	1302.50
626.70	1294.66
627.04	1286.78
627.39	1279.01
627.73	1271.57
628.08	1264.51
628.43	1257.02
628.77	1249.70
629.12	1242.07
629.46	1234.94
629.81	1227.58
630.15	1220.29
630.50	1212.96
630.84	1204.62
631.19	1196.78
631.53	1189.37
631.88	1181.85
632.22	1174.22
632.57	1166.90
632.91	1159.39
633.26	1152.09
633.60	1144.79
633.95	1137.71
634.29	1130.80
634.64	1124.20
634.98	1116.81
635.32	1109.70
635.67	1103.20
636.01	1096.54
636.36	1089.77
636.70	1083.21
637.05	1076.64
637.39	1070.19
637.73	1063.57
638.08	1057.79
638.42	1051.79
638.77	1045.40
639.11	1038.89
639.45	1032.45
639.80	1025.70
640.14	1019.21
640.49	1012.64
640.83	1006.29
641.17	999.94
641.52	993.52
641.86	987.12
642.20	981.24
642.55	975.00
642.89	968.38
643.23	961.88
643.58	956.11
643.92	949.91
644.26	943.81
644.61	937.89
644.95	931.89
645.29	925.28
645.64	918.57
645.98	912.20
646.32	906.27
646.66	900.28
647.01	894.55
647.35	888.80
647.69	882.98
648.04	877.49
648.38	871.76
648.72	865.73
649.06	859.59
649.41	853.77
649.75	847.76
650.09	841.86
650.43	836.01
650.78	829.75
651.12	823.78
651.46	818.04
651.80	812.12
652.14	806.67
652.49	801.27
652.83	796.08
653.17	790.41
653.51	784.75
653.85	779.34
654.20	773.69
654.54	767.72
654.88	761.92
655.22	756.07
655.56	750.39
655.90	744.95
656.25	739.76
656.59	734.40
656.93	729.34
657.27	724.23
657.61	718.77
657.95	713.78
658.29	708.69
658.64	703.47
658.98	698.23
659.32	692.87
659.66	687.67
660.00	682.32
660.34	677.30
660.68	672.33
661.02	667.31
661.36	662.61
661.70	658.19
662.05	653.90
662.39	649.55
662.73	645.15
663.07	640.85
663.41	636.38
663.75	631.93
664.09	627.39
664.43	622.99
664.77	618.94
665.11	614.76
665.45	610.74
665.79	606.68
666.13	602.57
666.47	598.49
666.81	594.28
667.15	590.19
667.49	586.35
667.83	582.59
668.17	578.64
668.51	574.53
668.85	570.43
669.19	566.58
669.53	562.71
669.87	558.76
670.21	555.08
670.55	551.42
670.89	547.97
671.23	544.49
671.57	540.94
671.91	537.39
672.25	533.88
672.58	530.30
672.92	526.89
673.26	523.76
673.60	520.58
673.94	517.55
674.28	514.68
674.62	511.68
674.96	508.56
675.30	505.68
675.64	502.81
675.97	500.07
676.31	497.22
676.65	494.32
676.99	491.67
677.33	488.76
677.67	485.95
678.01	482.94
678.34	479.91
678.68	477.15
679.02	474.31
679.36	471.53
679.70	468.87
680.04	466.13
680.37	463.22
680.71	460.44
681.05	457.81
681.39	455.11
681.73	452.52
682.06	449.98
682.40	447.47
682.74	444.92
683.08	442.35
683.42	439.75
683.75	437.22
684.09	434.69
684.43	432.25
684.77	429.82
685.10	427.47
685.44	425.22
685.78	422.91
686.12	420.70
686.45	418.41
686.79	416.04
687.13	413.80
687.46	411.66
687.80	409.48
688.14	407.24
688.48	405.18
688.81	402.94
689.15	400.81
689.49	398.71
689.82	396.65
690.16	394.58
690.50	392.64
690.83	390.72
691.17	388.70
691.51	386.81
691.84	384.92
692.18	382.98
692.52	381.03
692.85	379.05
693.19	377.17
693.52	375.39
693.86	373.62
694.20	371.85
694.53	370.00
694.87	368.18
695.21	366.38
695.54	364.54
695.88	362.79
696.21	361.08
696.55	359.34
696.88	357.65
697.22	355.99
697.56	354.35
697.89	352.69
698.23	351.09
698.56	349.47
698.90	347.90
699.23	346.24
699.57	344.64
699.90	343.14
700.24	341.59
700.58	340.04
700.91	338.55
701.25	337.09
701.58	335.70
701.92	334.38
702.25	333.03
702.59	331.67
702.92	330.30
703.26	328.96
703.59	327.71
703.93	326.56
704.26	325.32
704.60	324.08
704.93	322.77
705.26	321.55
705.60	320.37
705.93	319.22
706.27	318.22
706.60	317.17
706.94	316.09
707.27	314.94
707.61	313.86
707.94	312.81
708.27	311.76
708.61	310.65
708.94	309.61
709.28	308.60
709.61	307.62
709.94	306.70
710.28	305.68
710.61	304.68
710.95	303.55
711.28	302.62
711.61	301.61
711.95	300.70
712.28	299.75
712.61	298.78
712.95	297.85
713.28	296.91
713.61	296.04
713.95	295.17
714.28	294.37
714.61	293.52
714.95	292.71
715.28	291.82
715.61	290.98
715.95	290.12
716.28	289.27
716.61	288.47
716.95	287.65
717.28	286.92
717.61	286.13
717.94	285.41
718.28	284.63
718.61	283.91
718.94	283.21
719.27	282.53
719.61	281.87
719.94	281.21
720.27	280.50
720.60	279.84
720.94	279.17
721.27	278.55
721.60	277.96
721.93	277.33
722.27	276.81
722.60	276.28
722.93	275.72
723.26	275.21
723.59	274.64
723.93	274.08
724.26	273.50
724.59	272.94
724.92	272.45
725.25	271.93
725.59	271.43
725.92	270.92
726.25	270.46
726.58	269.97
726.91	269.45
727.24	269.01
727.57	268.51
727.91	268.01
728.24	267.55
728.57	267.09
728.90	266.63
729.23	266.13
729.56	265.71
729.89	265.23
730.22	264.74
730.55	264.26
730.89	263.83
731.22	263.40
731.55	262.99
731.88	262.52
732.21	262.08
732.54	261.64
732.87	261.23
733.20	260.83
733.53	260.44
733.86	260.09
734.19	259.70
734.52	259.31
734.85	259.01
735.18	258.58
735.51	258.21
735.84	257.80
736.17	257.44
736.50	256.99
736.83	256.75
737.16	256.46
737.49	256.16
737.82	255.83
738.15	255.53
738.48	255.22
738.81	254.88
739.14	254.58
739.47	254.28
739.80	254.00
740.13	253.67
740.46	253.32
740.79	253.01
741.12	252.70
741.45	252.43
741.78	252.09
742.11	251.83
742.44	251.49
742.77	251.23
743.10	250.92
743.43	250.66
743.75	250.30
744.08	250.12
744.41	249.82
744.74	249.54
745.07	249.26
745.40	249.00
745.73	248.77
746.06	248.52
746.39	248.25
746.71	247.95
747.04	247.67
747.37	247.43
747.70	247.17
748.03	246.91
748.36	246.64
748.68	246.40
749.01	246.12
749.34	245.89
749.67	245.68
750.00	245.48
750.33	245.30
750.65	245.09
750.98	244.76
751.31	244.58
751.64	244.36
751.97	244.18
752.29	243.97
752.62	243.75
752.95	243.50
753.28	243.32
753.60	243.14
753.93	242.97
754.26	242.75
754.59	242.52
754.91	242.31
755.24	242.15
755.57	241.98
755.90	241.82
756.22	241.65
756.55	241.42
756.88	241.22
757.20	241.01
757.53	240.78
757.86	240.59
758.19	240.42
758.51	240.27
758.84	240.03
759.17	239.83
759.49	239.65
759.82	239.53
760.15	239.35
760.47	239.19
760.80	239.03
761.13	238.91
761.45	238.79
761.78	238.69
762.11	238.50
762.43	238.35
762.76	238.21
763.08	238.07
763.41	237.96
763.74	237.83
764.06	237.68
764.39	237.58
764.71	237.44
765.04	237.32
765.37	237.18
765.69	237.09
766.02	236.95
766.34	236.82
766.67	236.69
767.00	236.63
767.32	236.57
767.65	236.48
767.97	236.38
768.30	236.25
768.62	236.10
768.95	235.98
769.27	235.87
769.60	235.75
769.92	235.63
770.25	235.52
770.57	235.40
770.90	235.31
771.22	235.19
771.55	235.11
771.87	234.99
772.20	234.89
772.52	234.85
772.85	234.87
773.17	234.77
773.50	234.68
773.82	234.55
774.15	234.38
774.47	234.25
774.80	234.15
775.12	234.06
775.45	233.99
775.77	233.91
776.09	233.83
776.42	233.75
776.74	233.70
777.07	233.60
777.39	233.55
777.72	233.45
778.04	233.41
778.36	233.33
778.69	233.23
779.01	233.17
779.33	233.00
779.66	232.85
779.98	232.81
780.31	232.73
780.63	232.72
780.95	232.67
781.28	232.61
781.60	232.55
781.92	232.48
782.25	232.41
782.57	232.39
782.89	232.30
783.22	232.27
783.54	232.18
783.86	232.13
784.19	232.06
784.51	232.03
784.83	231.99
785.16	231.96
785.48	231.92
785.80	231.89
786.12	231.88
786.45	231.84
786.77	231.79
787.09	231.77
