SpectraSuite Data File
++++++++++++++++++++++++++++++++++++
Date: Fri Feb 01 14:58:00 EST 2013
User: group
Dark Spectrum Present: No
Reference Spectrum Present: No
Number of Sampled Component Spectra: 1
Spectrometers: USB2E7196
Integration Time (usec): 35000 (USB2E7196)
Spectra Averaged: 100 (USB2E7196)
Boxcar Smoothing: 10 (USB2E7196)
Correct for Electrical Dark: No (USB2E7196)
Strobe/Lamp Enabled: No (USB2E7196)
Correct for Detector Non-linearity: No (USB2E7196)
Correct for Stray Light: No (USB2E7196)
Number of Pixels in Processed Spectrum: 2048
>>>>>Begin Processed Spectral Data<<<<<
339.09	0.00
339.48	215.66
339.86	216.37
340.24	217.69
340.63	219.28
341.01	222.33
341.39	222.17
341.78	223.43
342.16	225.20
342.54	225.17
342.93	213.52
343.31	224.32
343.69	224.83
344.07	225.31
344.46	225.73
344.84	226.10
345.22	226.33
345.60	226.59
345.99	226.75
346.37	226.85
346.75	226.94
347.13	227.00
347.52	227.03
347.90	227.09
348.28	227.09
348.66	227.13
349.05	227.12
349.43	227.13
349.81	227.19
350.19	227.25
350.57	227.30
350.96	227.38
351.34	227.45
351.72	227.55
352.10	227.63
352.48	227.69
352.87	227.75
353.25	227.78
353.63	227.83
354.01	227.89
354.39	227.98
354.77	228.04
355.15	228.10
355.54	228.19
355.92	228.24
356.30	228.31
356.68	228.44
357.06	228.48
357.44	228.57
357.82	228.62
358.20	228.70
358.58	228.74
358.97	228.77
359.35	228.84
359.73	228.89
360.11	228.98
360.49	229.07
360.87	229.12
361.25	229.16
361.63	229.20
362.01	229.27
362.39	229.29
362.77	229.35
363.15	229.39
363.53	229.42
363.91	229.44
364.29	229.46
364.67	229.35
365.05	229.39
365.43	229.41
365.81	229.43
366.19	229.45
366.57	229.51
366.95	229.48
367.33	229.45
367.71	229.44
368.09	229.38
368.47	229.32
368.85	229.28
369.23	229.28
369.61	229.24
369.99	229.23
370.37	229.17
370.75	229.15
371.13	229.12
371.51	229.08
371.89	229.05
372.27	229.02
372.65	229.00
373.03	228.93
373.41	228.85
373.78	228.76
374.16	228.65
374.54	228.52
374.92	228.48
375.30	228.41
375.68	228.30
376.06	228.26
376.44	228.22
376.82	228.18
377.19	228.13
377.57	228.05
377.95	227.94
378.33	227.89
378.71	227.78
379.09	227.72
379.47	227.63
379.84	227.56
380.22	227.47
380.60	227.35
380.98	227.25
381.36	227.19
381.73	227.11
382.11	227.08
382.49	227.01
382.87	226.94
383.25	226.87
383.62	226.95
384.00	226.86
384.38	226.78
384.76	226.75
385.13	226.71
385.51	226.67
385.89	226.61
386.27	226.52
386.64	226.48
387.02	226.40
387.40	226.33
387.78	226.27
388.15	226.26
388.53	226.25
388.91	226.23
389.29	226.19
389.66	226.19
390.04	226.15
390.42	226.17
390.79	226.15
391.17	226.12
391.55	226.01
391.92	225.96
392.30	225.99
392.68	225.95
393.05	225.94
393.43	225.94
393.81	225.99
394.18	226.00
394.56	226.01
394.94	226.07
395.31	226.08
395.69	226.14
396.06	226.17
396.44	226.21
396.82	226.27
397.19	226.34
397.57	226.36
397.95	226.44
398.32	226.48
398.70	226.54
399.07	226.63
399.45	226.70
399.82	226.82
400.20	226.87
400.58	226.98
400.95	227.02
401.33	227.14
401.70	227.28
402.08	227.42
402.45	227.52
402.83	227.64
403.20	227.78
403.58	227.87
403.95	228.01
404.33	228.14
404.71	228.26
405.08	228.47
405.46	228.66
405.83	228.80
406.21	228.93
406.58	229.10
406.96	229.28
407.33	229.46
407.70	229.63
408.08	229.90
408.45	230.14
408.83	230.41
409.20	230.63
409.58	230.83
409.95	231.09
410.33	231.37
410.70	231.62
411.08	231.95
411.45	232.26
411.82	232.59
412.20	232.96
412.57	233.39
412.95	233.70
413.32	234.11
413.69	234.51
414.07	234.97
414.44	235.48
414.82	235.97
415.19	236.51
415.56	237.12
415.94	237.71
416.31	238.31
416.68	238.93
417.06	239.65
417.43	240.32
417.81	241.05
418.18	241.86
418.55	242.69
418.93	243.54
419.30	244.47
419.67	245.40
420.04	246.36
420.42	247.35
420.79	248.52
421.16	249.67
421.54	250.89
421.91	252.11
422.28	253.34
422.66	254.68
423.03	256.00
423.40	257.33
423.77	258.71
424.15	260.17
424.52	261.65
424.89	263.25
425.26	264.81
425.64	266.29
426.01	267.85
426.38	269.51
426.75	271.21
427.13	272.91
427.50	274.75
427.87	276.64
428.24	278.51
428.61	280.27
428.99	282.24
429.36	284.34
429.73	286.42
430.10	288.46
430.47	290.52
430.85	292.65
431.22	294.87
431.59	297.29
431.96	299.53
432.33	302.04
432.70	304.45
433.08	307.24
433.45	309.93
433.82	312.54
434.19	315.44
434.56	318.25
434.93	320.92
435.30	323.54
435.68	326.38
436.05	329.13
436.42	331.93
436.79	334.41
437.16	337.12
437.53	339.90
437.90	342.67
438.27	345.45
438.64	348.28
439.01	350.88
439.38	353.14
439.75	355.29
440.13	357.75
440.50	360.05
440.87	361.92
441.24	363.86
441.61	366.05
441.98	367.55
442.35	369.33
442.72	371.19
443.09	373.00
443.46	374.07
443.83	374.74
444.20	375.26
444.57	376.07
444.94	376.38
445.31	376.72
445.68	377.08
446.05	377.10
446.42	376.71
446.79	376.26
447.16	375.78
447.53	375.45
447.90	374.34
448.27	373.15
448.64	371.61
449.01	370.41
449.37	368.39
449.74	366.46
450.11	364.21
450.48	361.73
450.85	359.18
451.22	356.99
451.59	354.94
451.96	352.97
452.33	350.39
452.70	348.03
453.07	345.23
453.43	342.35
453.80	339.60
454.17	336.95
454.54	334.43
454.91	331.63
455.28	328.96
455.65	326.43
456.02	323.99
456.38	321.81
456.75	319.14
457.12	316.92
457.49	314.69
457.86	312.53
458.23	310.62
458.59	308.57
458.96	306.48
459.33	304.64
459.70	302.77
460.07	301.26
460.43	299.52
460.80	297.90
461.17	296.46
461.54	294.95
461.91	293.50
462.27	292.09
462.64	290.91
463.01	289.56
463.38	288.28
463.74	286.94
464.11	285.76
464.48	284.74
464.85	283.66
465.21	282.80
465.58	281.89
465.95	280.84
466.32	279.89
466.68	278.96
467.05	278.05
467.42	277.16
467.78	276.21
468.15	275.31
468.52	274.67
468.88	273.80
469.25	273.05
469.62	272.42
469.98	271.70
470.35	271.04
470.72	270.43
471.08	269.73
471.45	269.16
471.82	268.63
472.18	268.04
472.55	267.56
472.92	267.03
473.28	266.54
473.65	266.08
474.02	265.66
474.38	265.29
474.75	264.97
475.11	264.60
475.48	264.36
475.85	264.12
476.21	263.84
476.58	263.64
476.94	263.50
477.31	263.31
477.67	263.16
478.04	263.03
478.41	262.97
478.77	263.01
479.14	262.91
479.50	262.89
479.87	262.96
480.23	263.03
480.60	263.13
480.96	263.22
481.33	263.42
481.69	263.60
482.06	263.78
482.42	263.95
482.79	264.22
483.15	264.53
483.52	264.90
483.88	265.25
484.25	265.64
484.61	266.03
484.98	266.44
485.34	266.97
485.71	267.58
486.07	268.16
486.44	268.73
486.80	269.45
487.17	270.20
487.53	270.99
487.90	271.83
488.26	272.70
488.62	273.69
488.99	274.63
489.35	275.66
489.72	276.77
490.08	277.95
490.44	279.19
490.81	280.48
491.17	281.79
491.54	283.26
491.90	284.75
492.26	286.38
492.63	288.11
492.99	289.88
493.36	291.71
493.72	293.73
494.08	295.84
494.45	298.07
494.81	300.37
495.17	302.77
495.54	305.28
495.90	307.96
496.26	310.69
496.63	313.58
496.99	316.65
497.35	319.87
497.72	323.26
498.08	326.71
498.44	330.34
498.80	334.21
499.17	338.18
499.53	342.35
499.89	346.69
500.26	351.20
500.62	355.83
500.98	360.74
501.34	365.76
501.71	370.99
502.07	376.36
502.43	381.95
502.79	387.78
503.16	393.83
503.52	400.02
503.88	406.45
504.24	413.12
504.60	419.97
504.97	427.12
505.33	434.42
505.69	442.06
506.05	449.78
506.41	457.63
506.78	465.80
507.14	474.18
507.50	482.90
507.86	491.82
508.22	501.04
508.59	510.18
508.95	519.83
509.31	529.66
509.67	539.76
510.03	549.99
510.39	560.53
510.75	571.30
511.12	582.21
511.48	593.43
511.84	604.86
512.20	616.42
512.56	628.34
512.92	640.53
513.28	652.84
513.64	665.43
514.00	678.14
514.37	691.03
514.73	704.09
515.09	717.18
515.45	730.51
515.81	744.09
516.17	758.16
516.53	772.16
516.89	786.39
517.25	800.58
517.61	815.02
517.97	829.50
518.33	843.96
518.69	858.78
519.05	873.96
519.41	889.14
519.77	904.66
520.13	920.19
520.49	935.64
520.85	951.16
521.21	966.86
521.57	983.24
521.93	999.11
522.29	1015.62
522.65	1031.85
523.01	1048.10
523.37	1064.13
523.73	1080.42
524.09	1096.63
524.45	1113.04
524.81	1129.74
525.17	1146.75
525.53	1163.73
525.89	1180.71
526.25	1197.65
526.61	1214.01
526.97	1230.80
527.33	1247.41
527.68	1264.00
528.04	1280.53
528.40	1297.27
528.76	1314.48
529.12	1331.09
529.48	1347.92
529.84	1363.96
530.20	1380.82
530.56	1398.05
530.91	1415.58
531.27	1432.28
531.63	1448.86
531.99	1465.48
532.35	1481.60
532.71	1497.47
533.07	1513.76
533.42	1529.70
533.78	1545.82
534.14	1562.15
534.50	1577.61
534.86	1593.52
535.21	1608.86
535.57	1624.84
535.93	1640.36
536.29	1655.10
536.65	1670.26
537.00	1685.23
537.36	1700.70
537.72	1715.26
538.08	1729.70
538.44	1743.67
538.79	1757.75
539.15	1771.62
539.51	1785.53
539.87	1799.97
540.22	1813.79
540.58	1827.71
540.94	1841.38
541.29	1854.49
541.65	1867.28
542.01	1880.57
542.37	1893.02
542.72	1905.54
543.08	1917.44
543.44	1930.05
543.79	1941.34
544.15	1952.35
544.51	1963.94
544.87	1975.02
545.22	1985.75
545.58	1996.01
545.94	2005.67
546.29	2015.65
546.65	2025.41
547.01	2034.60
547.36	2043.39
547.72	2051.91
548.07	2059.66
548.43	2067.69
548.79	2075.67
549.14	2083.25
549.50	2090.66
549.86	2098.32
550.21	2105.51
550.57	2112.67
550.92	2119.03
551.28	2126.20
551.64	2133.24
551.99	2139.84
552.35	2145.87
552.70	2151.95
553.06	2157.81
553.41	2164.15
553.77	2169.95
554.13	2176.08
554.48	2182.00
554.84	2187.16
555.19	2192.57
555.55	2197.66
555.90	2202.08
556.26	2206.76
556.61	2211.47
556.97	2215.46
557.32	2219.60
557.68	2223.84
558.03	2228.10
558.39	2231.85
558.74	2236.41
559.10	2240.21
559.45	2243.71
559.81	2248.08
560.16	2251.78
560.52	2254.99
560.87	2258.46
561.23	2261.17
561.58	2263.91
561.94	2266.45
562.29	2268.88
562.64	2271.29
563.00	2274.03
563.35	2277.43
563.71	2280.60
564.06	2283.71
564.42	2286.67
564.77	2288.92
565.12	2291.05
565.48	2292.72
565.83	2294.42
566.19	2295.58
566.54	2296.47
566.89	2297.48
567.25	2297.78
567.60	2299.20
567.96	2300.81
568.31	2301.53
568.66	2302.39
569.02	2302.82
569.37	2303.13
569.72	2303.80
570.08	2303.77
570.43	2303.53
570.78	2302.65
571.14	2300.97
571.49	2299.43
571.84	2298.88
572.20	2297.67
572.55	2296.47
572.90	2294.78
573.26	2293.21
573.61	2291.36
573.96	2289.46
574.31	2286.38
574.67	2283.22
575.02	2279.28
575.37	2275.69
575.72	2271.61
576.08	2268.27
576.43	2264.79
576.78	2260.79
577.13	2257.50
577.49	2254.38
577.84	2250.65
578.19	2246.88
578.54	2243.03
578.90	2238.53
579.25	2232.87
579.60	2227.73
579.95	2222.57
580.30	2217.45
580.66	2212.30
581.01	2207.21
581.36	2202.08
581.71	2197.68
582.06	2193.06
582.42	2188.45
582.77	2183.10
583.12	2178.30
583.47	2173.21
583.82	2168.08
584.17	2162.84
584.53	2157.17
584.88	2151.39
585.23	2145.52
585.58	2139.94
585.93	2134.21
586.28	2129.46
586.63	2124.27
586.98	2119.12
587.34	2114.21
587.69	2109.18
588.04	2103.57
588.39	2097.73
588.74	2091.13
589.09	2084.91
589.44	2077.92
589.79	2071.81
590.14	2066.01
590.49	2059.36
590.84	2052.95
591.19	2046.79
591.54	2040.08
591.89	2032.51
592.25	2025.57
592.60	2018.37
592.95	2010.63
593.30	2003.39
593.65	1995.59
594.00	1988.55
594.35	1981.17
594.70	1973.12
595.05	1965.80
595.40	1958.55
595.75	1950.96
596.10	1944.56
596.45	1937.74
596.80	1931.65
597.15	1924.87
597.50	1917.59
597.85	1911.20
598.19	1904.57
598.54	1897.61
598.89	1891.01
599.24	1885.17
599.59	1878.34
599.94	1872.06
600.29	1865.73
600.64	1859.03
600.99	1851.56
601.34	1844.64
601.69	1837.63
602.04	1830.66
602.39	1823.37
602.74	1816.44
603.08	1809.77
603.43	1803.04
603.78	1795.76
604.13	1788.50
604.48	1781.22
604.83	1774.41
605.18	1767.39
605.53	1759.31
605.87	1751.26
606.22	1744.14
606.57	1736.13
606.92	1728.84
607.27	1721.49
607.62	1714.49
607.96	1707.17
608.31	1700.59
608.66	1692.96
609.01	1685.46
609.36	1677.92
609.70	1669.87
610.05	1661.81
610.40	1654.04
610.75	1645.87
611.10	1638.21
611.44	1629.97
611.79	1622.14
612.14	1613.66
612.49	1604.54
612.83	1596.30
613.18	1588.21
613.53	1580.01
613.88	1571.59
614.22	1563.49
614.57	1554.94
614.92	1546.97
615.27	1539.43
615.61	1531.14
615.96	1523.09
616.31	1515.46
616.65	1508.10
617.00	1500.54
617.35	1492.96
617.70	1484.62
618.04	1476.00
618.39	1467.80
618.74	1460.10
619.08	1451.78
619.43	1444.08
619.78	1437.18
620.12	1429.96
620.47	1422.39
620.82	1414.22
621.16	1406.84
621.51	1399.27
621.85	1391.81
622.20	1383.43
622.55	1375.27
622.89	1367.47
623.24	1359.95
623.59	1352.65
623.93	1345.13
624.28	1338.04
624.62	1330.60
624.97	1323.50
625.32	1316.85
625.66	1309.90
626.01	1302.77
626.35	1295.25
626.70	1287.59
627.04	1279.93
627.39	1272.22
627.73	1264.84
628.08	1258.07
628.43	1250.87
628.77	1243.38
629.12	1235.86
629.46	1228.60
629.81	1221.24
630.15	1214.14
630.50	1206.75
630.84	1198.67
631.19	1190.84
631.53	1183.23
631.88	1175.72
632.22	1168.08
632.57	1160.97
632.91	1153.49
633.26	1146.09
633.60	1138.92
633.95	1131.93
634.29	1124.95
634.64	1118.26
634.98	1111.01
635.32	1103.93
635.67	1097.31
636.01	1090.75
636.36	1083.94
636.70	1077.48
637.05	1070.84
637.39	1064.43
637.73	1057.98
638.08	1052.17
638.42	1046.29
638.77	1040.04
639.11	1033.48
639.45	1027.29
639.80	1020.60
640.14	1014.18
640.49	1007.74
640.83	1001.41
641.17	995.14
641.52	988.87
641.86	982.59
642.20	976.86
642.55	970.56
642.89	964.14
643.23	957.71
643.58	952.04
643.92	945.91
644.26	939.83
644.61	933.76
644.95	927.76
645.29	921.12
645.64	914.41
645.98	908.10
646.32	902.29
646.66	896.29
647.01	890.46
647.35	884.77
647.69	878.98
648.04	873.53
648.38	867.85
648.72	861.88
649.06	855.84
649.41	849.76
649.75	843.77
650.09	837.87
650.43	832.04
650.78	825.83
651.12	819.93
651.46	814.25
651.80	808.56
652.14	803.19
652.49	797.83
652.83	792.58
653.17	786.82
653.51	781.09
653.85	775.70
654.20	770.07
654.54	764.18
654.88	758.53
655.22	752.65
655.56	746.97
655.90	741.56
656.25	736.30
656.59	731.10
656.93	726.09
657.27	720.94
657.61	715.58
657.95	710.55
658.29	705.43
658.64	700.25
658.98	694.96
659.32	689.49
659.66	684.34
660.00	679.17
660.34	674.34
660.68	669.52
661.02	664.54
661.36	659.88
661.70	655.40
662.05	650.97
662.39	646.69
662.73	642.34
663.07	637.98
663.41	633.61
663.75	629.14
664.09	624.59
664.43	620.22
664.77	616.08
665.11	611.90
665.45	607.89
665.79	603.88
666.13	599.75
666.47	595.80
666.81	591.62
667.15	587.47
667.49	583.58
667.83	579.82
668.17	575.86
668.51	571.83
668.85	567.82
669.19	564.01
669.53	560.17
669.87	556.21
670.21	552.55
670.55	548.86
670.89	545.50
671.23	542.09
671.57	538.63
671.91	535.18
672.25	531.72
672.58	528.22
672.92	524.84
673.26	521.74
673.60	518.61
673.94	515.59
674.28	512.73
674.62	509.87
674.96	506.75
675.30	503.88
675.64	501.00
675.97	498.31
676.31	495.46
676.65	492.58
676.99	490.00
677.33	487.11
677.67	484.33
678.01	481.25
678.34	478.26
678.68	475.42
679.02	472.66
679.36	469.86
679.70	467.16
680.04	464.43
680.37	461.53
680.71	458.72
681.05	456.10
681.39	453.42
681.73	450.76
682.06	448.32
682.40	445.84
682.74	443.36
683.08	440.78
683.42	438.21
683.75	435.71
684.09	433.12
684.43	430.73
684.77	428.31
685.10	426.05
685.44	423.79
685.78	421.57
686.12	419.34
686.45	417.14
686.79	414.84
687.13	412.67
687.46	410.60
687.80	408.49
688.14	406.36
688.48	404.34
688.81	402.09
689.15	399.92
689.49	397.76
689.82	395.68
690.16	393.62
690.50	391.71
690.83	389.77
691.17	387.85
691.51	385.96
691.84	384.13
692.18	382.15
692.52	380.22
692.85	378.29
693.19	376.38
693.52	374.57
693.86	372.82
694.20	371.05
694.53	369.24
694.87	367.39
695.21	365.60
695.54	363.78
695.88	362.07
696.21	360.34
696.55	358.67
696.88	356.98
697.22	355.36
697.56	353.76
697.89	352.13
698.23	350.53
698.56	348.92
698.90	347.34
699.23	345.72
699.57	344.16
699.90	342.64
700.24	341.11
700.58	339.61
700.91	338.12
701.25	336.67
701.58	335.30
701.92	333.99
702.25	332.57
702.59	331.20
702.92	329.89
703.26	328.60
703.59	327.35
703.93	326.17
704.26	324.91
704.60	323.62
704.93	322.36
705.26	321.10
705.60	319.96
705.93	318.81
706.27	317.82
706.60	316.81
706.94	315.74
707.27	314.60
707.61	313.52
707.94	312.46
708.27	311.44
708.61	310.34
708.94	309.33
709.28	308.36
709.61	307.41
709.94	306.48
710.28	305.48
710.61	304.52
710.95	303.46
711.28	302.55
711.61	301.64
711.95	300.74
712.28	299.78
712.61	298.80
712.95	297.87
713.28	296.98
713.61	296.07
713.95	295.18
714.28	294.37
714.61	293.53
714.95	292.69
715.28	291.84
715.61	291.02
715.95	290.18
716.28	289.34
716.61	288.55
716.95	287.71
717.28	286.97
717.61	286.21
717.94	285.51
718.28	284.75
718.61	284.01
718.94	283.32
719.27	282.68
719.61	282.07
719.94	281.38
720.27	280.68
720.60	279.99
720.94	279.37
721.27	278.75
721.60	278.17
721.93	277.62
722.27	277.05
722.60	276.49
722.93	275.93
723.26	275.42
723.59	274.83
723.93	274.31
724.26	273.76
724.59	273.21
724.92	272.67
725.25	272.14
725.59	271.65
725.92	271.15
726.25	270.62
726.58	270.08
726.91	269.61
727.24	269.14
727.57	268.71
727.91	268.22
728.24	267.76
728.57	267.28
728.90	266.77
729.23	266.29
729.56	265.85
729.89	265.39
730.22	264.89
730.55	264.45
730.89	263.99
731.22	263.50
731.55	263.05
731.88	262.62
732.21	262.19
732.54	261.73
732.87	261.31
733.20	260.93
733.53	260.52
733.86	260.17
734.19	259.79
734.52	259.38
734.85	259.06
735.18	258.65
735.51	258.28
735.84	257.93
736.17	257.57
736.50	257.17
736.83	256.91
737.16	256.58
737.49	256.24
737.82	255.92
738.15	255.64
738.48	255.30
738.81	254.97
739.14	254.64
739.47	254.33
739.80	254.01
740.13	253.70
740.46	253.39
740.79	253.03
741.12	252.69
741.45	252.40
741.78	252.04
742.11	251.73
742.44	251.38
742.77	251.09
743.10	250.76
743.43	250.47
743.75	250.09
744.08	249.91
744.41	249.65
744.74	249.35
745.07	249.08
745.40	248.83
745.73	248.63
746.06	248.32
746.39	248.08
746.71	247.85
747.04	247.59
747.37	247.34
747.70	247.12
748.03	246.90
748.36	246.66
748.68	246.41
749.01	246.16
749.34	245.99
749.67	245.78
750.00	245.60
750.33	245.45
750.65	245.25
750.98	244.94
751.31	244.69
751.64	244.49
751.97	244.31
752.29	244.12
752.62	243.83
752.95	243.65
753.28	243.42
753.60	243.21
753.93	243.05
754.26	242.85
754.59	242.61
754.91	242.41
755.24	242.23
755.57	242.05
755.90	241.93
756.22	241.72
756.55	241.52
756.88	241.32
757.20	241.09
757.53	240.89
757.86	240.71
758.19	240.59
758.51	240.43
758.84	240.24
759.17	240.06
759.49	239.91
759.82	239.81
760.15	239.67
760.47	239.53
760.80	239.32
761.13	239.20
761.45	239.05
761.78	238.90
762.11	238.75
762.43	238.61
762.76	238.46
763.08	238.34
763.41	238.22
763.74	238.12
764.06	237.98
764.39	237.87
764.71	237.75
765.04	237.59
765.37	237.43
765.69	237.28
766.02	237.16
766.34	237.03
766.67	236.88
767.00	236.77
767.32	236.69
767.65	236.66
767.97	236.54
768.30	236.46
768.62	236.35
768.95	236.25
769.27	236.15
769.60	236.04
769.92	235.94
770.25	235.82
770.57	235.67
770.90	235.55
771.22	235.43
771.55	235.32
771.87	235.24
772.20	235.20
772.52	235.20
772.85	235.24
773.17	235.18
773.50	235.07
773.82	234.97
774.15	234.83
774.47	234.65
774.80	234.56
775.12	234.48
775.45	234.42
775.77	234.33
776.09	234.24
776.42	234.18
776.74	234.12
777.07	234.06
777.39	233.96
777.72	233.90
778.04	233.84
778.36	233.78
778.69	233.70
779.01	233.63
779.33	233.47
779.66	233.28
779.98	233.19
780.31	233.13
780.63	233.08
780.95	233.07
781.28	233.03
781.60	232.94
781.92	232.89
782.25	232.82
782.57	232.79
782.89	232.71
783.22	232.60
783.54	232.52
783.86	232.45
784.19	232.39
784.51	232.34
784.83	232.27
785.16	232.23
785.48	232.18
785.80	232.11
786.12	232.06
786.45	231.98
786.77	231.93
787.09	231.88
