SpectraSuite Data File
++++++++++++++++++++++++++++++++++++
Date: Fri Feb 01 14:53:13 EST 2013
User: group
Dark Spectrum Present: No
Reference Spectrum Present: No
Number of Sampled Component Spectra: 1
Spectrometers: USB2E7196
Integration Time (usec): 35000 (USB2E7196)
Spectra Averaged: 100 (USB2E7196)
Boxcar Smoothing: 10 (USB2E7196)
Correct for Electrical Dark: No (USB2E7196)
Strobe/Lamp Enabled: No (USB2E7196)
Correct for Detector Non-linearity: No (USB2E7196)
Correct for Stray Light: No (USB2E7196)
Number of Pixels in Processed Spectrum: 2048
>>>>>Begin Processed Spectral Data<<<<<
339.09	0.00
339.48	215.69
339.86	217.44
340.24	218.26
340.63	219.46
341.01	222.33
341.39	222.12
341.78	224.04
342.16	225.31
342.54	225.67
342.93	213.84
343.31	224.63
343.69	225.15
344.07	225.58
344.46	226.02
344.84	226.39
345.22	226.60
345.60	226.87
345.99	227.02
346.37	227.14
346.75	227.21
347.13	227.29
347.52	227.32
347.90	227.34
348.28	227.32
348.66	227.39
349.05	227.35
349.43	227.37
349.81	227.41
350.19	227.45
350.57	227.52
350.96	227.57
351.34	227.64
351.72	227.72
352.10	227.83
352.48	227.91
352.87	227.96
353.25	228.04
353.63	228.07
354.01	228.15
354.39	228.21
354.77	228.31
355.15	228.42
355.54	228.47
355.92	228.54
356.30	228.65
356.68	228.75
357.06	228.82
357.44	228.88
357.82	228.94
358.20	229.03
358.58	229.10
358.97	229.17
359.35	229.24
359.73	229.32
360.11	229.37
360.49	229.39
360.87	229.44
361.25	229.48
361.63	229.58
362.01	229.61
362.39	229.64
362.77	229.66
363.15	229.66
363.53	229.70
363.91	229.70
364.29	229.71
364.67	229.63
365.05	229.62
365.43	229.62
365.81	229.63
366.19	229.64
366.57	229.65
366.95	229.62
367.33	229.62
367.71	229.60
368.09	229.57
368.47	229.56
368.85	229.56
369.23	229.62
369.61	229.52
369.99	229.53
370.37	229.50
370.75	229.50
371.13	229.44
371.51	229.41
371.89	229.37
372.27	229.32
372.65	229.26
373.03	229.24
373.41	229.19
373.78	229.11
374.16	229.01
374.54	228.90
374.92	228.83
375.30	228.75
375.68	228.68
376.06	228.61
376.44	228.50
376.82	228.40
377.19	228.27
377.57	228.21
377.95	228.10
378.33	228.00
378.71	227.87
379.09	227.79
379.47	227.72
379.84	227.64
380.22	227.54
380.60	227.46
380.98	227.37
381.36	227.31
381.73	227.24
382.11	227.19
382.49	227.13
382.87	227.07
383.25	226.99
383.62	227.02
384.00	226.95
384.38	226.92
384.76	226.89
385.13	226.87
385.51	226.84
385.89	226.77
386.27	226.72
386.64	226.71
387.02	226.66
387.40	226.59
387.78	226.58
388.15	226.58
388.53	226.55
388.91	226.52
389.29	226.47
389.66	226.46
390.04	226.41
390.42	226.41
390.79	226.37
391.17	226.35
391.55	226.22
391.92	226.22
392.30	226.22
392.68	226.18
393.05	226.21
393.43	226.21
393.81	226.21
394.18	226.23
394.56	226.24
394.94	226.30
395.31	226.34
395.69	226.39
396.06	226.42
396.44	226.47
396.82	226.51
397.19	226.63
397.57	226.68
397.95	226.78
398.32	226.83
398.70	226.92
399.07	227.02
399.45	227.10
399.82	227.16
400.20	227.27
400.58	227.36
400.95	227.41
401.33	227.52
401.70	227.72
402.08	227.82
402.45	227.92
402.83	228.07
403.20	228.19
403.58	228.31
403.95	228.49
404.33	228.62
404.71	228.79
405.08	228.98
405.46	229.15
405.83	229.28
406.21	229.48
406.58	229.67
406.96	229.86
407.33	230.08
407.70	230.32
408.08	230.59
408.45	230.85
408.83	231.08
409.20	231.31
409.58	231.50
409.95	231.78
410.33	232.09
410.70	232.32
411.08	232.63
411.45	232.96
411.82	233.23
412.20	233.59
412.57	234.00
412.95	234.28
413.32	234.69
413.69	235.12
414.07	235.52
414.44	235.97
414.82	236.43
415.19	236.95
415.56	237.50
415.94	238.04
416.31	238.68
416.68	239.32
417.06	240.01
417.43	240.68
417.81	241.43
418.18	242.18
418.55	243.01
418.93	243.89
419.30	244.78
419.67	245.75
420.04	246.68
420.42	247.64
420.79	248.86
421.16	249.99
421.54	251.18
421.91	252.38
422.28	253.66
422.66	255.02
423.03	256.33
423.40	257.64
423.77	259.01
424.15	260.44
424.52	261.91
424.89	263.53
425.26	265.11
425.64	266.55
426.01	268.14
426.38	269.79
426.75	271.47
427.13	273.17
427.50	274.94
427.87	276.84
428.24	278.75
428.61	280.46
428.99	282.40
429.36	284.48
429.73	286.59
430.10	288.56
430.47	290.61
430.85	292.72
431.22	294.98
431.59	297.38
431.96	299.61
432.33	302.11
432.70	304.49
433.08	307.28
433.45	309.93
433.82	312.48
434.19	315.35
434.56	318.13
434.93	320.76
435.30	323.38
435.68	326.25
436.05	329.02
436.42	331.80
436.79	334.28
437.16	337.02
437.53	339.79
437.90	342.60
438.27	345.31
438.64	348.11
439.01	350.68
439.38	352.86
439.75	355.02
440.13	357.51
440.50	359.82
440.87	361.70
441.24	363.66
441.61	365.83
441.98	367.34
442.35	369.17
442.72	371.01
443.09	372.85
443.46	373.87
443.83	374.47
444.20	374.97
444.57	375.88
444.94	376.15
445.31	376.52
445.68	376.90
446.05	376.95
446.42	376.61
446.79	376.21
447.16	375.81
447.53	375.54
447.90	374.36
448.27	373.25
448.64	371.62
449.01	370.50
449.37	368.58
449.74	366.70
450.11	364.43
450.48	361.99
450.85	359.46
451.22	357.35
451.59	355.36
451.96	353.47
452.33	350.85
452.70	348.50
453.07	345.69
453.43	342.76
453.80	340.04
454.17	337.37
454.54	334.84
454.91	332.14
455.28	329.44
455.65	326.95
456.02	324.49
456.38	322.34
456.75	319.67
457.12	317.42
457.49	315.21
457.86	313.07
458.23	311.23
458.59	309.19
458.96	307.09
459.33	305.24
459.70	303.36
460.07	301.85
460.43	300.12
460.80	298.53
461.17	297.12
461.54	295.64
461.91	294.23
462.27	292.79
462.64	291.53
463.01	290.18
463.38	288.92
463.74	287.54
464.11	286.36
464.48	285.33
464.85	284.20
465.21	283.30
465.58	282.33
465.95	281.21
466.32	280.28
466.68	279.35
467.05	278.46
467.42	277.51
467.78	276.54
468.15	275.64
468.52	274.93
468.88	274.04
469.25	273.25
469.62	272.60
469.98	271.89
470.35	271.19
470.72	270.55
471.08	269.89
471.45	269.31
471.82	268.78
472.18	268.17
472.55	267.72
472.92	267.17
473.28	266.74
473.65	266.25
474.02	265.76
474.38	265.35
474.75	264.98
475.11	264.64
475.48	264.39
475.85	264.14
476.21	263.86
476.58	263.68
476.94	263.48
477.31	263.28
477.67	263.11
478.04	263.01
478.41	262.97
478.77	262.96
479.14	262.88
479.50	262.89
479.87	262.93
480.23	262.99
480.60	263.05
480.96	263.10
481.33	263.35
481.69	263.56
482.06	263.77
482.42	263.97
482.79	264.22
483.15	264.49
483.52	264.88
483.88	265.23
484.25	265.63
484.61	266.07
484.98	266.54
485.34	267.08
485.71	267.67
486.07	268.24
486.44	268.81
486.80	269.47
487.17	270.18
487.53	271.01
487.90	271.85
488.26	272.81
488.62	273.79
488.99	274.74
489.35	275.74
489.72	276.87
490.08	278.07
490.44	279.26
490.81	280.61
491.17	281.96
491.54	283.42
491.90	284.92
492.26	286.53
492.63	288.22
492.99	290.04
493.36	291.91
493.72	293.94
494.08	296.06
494.45	298.30
494.81	300.63
495.17	302.99
495.54	305.53
495.90	308.20
496.26	310.94
496.63	313.89
496.99	317.03
497.35	320.23
497.72	323.58
498.08	327.10
498.44	330.73
498.80	334.61
499.17	338.63
499.53	342.73
499.89	347.09
500.26	351.59
500.62	356.22
500.98	361.18
501.34	366.21
501.71	371.49
502.07	376.87
502.43	382.46
502.79	388.29
503.16	394.35
503.52	400.53
503.88	406.91
504.24	413.50
504.60	420.30
504.97	427.41
505.33	434.68
505.69	442.30
506.05	450.02
506.41	457.85
506.78	465.99
507.14	474.48
507.50	483.15
507.86	492.13
508.22	501.23
508.59	510.43
508.95	519.98
509.31	529.71
509.67	539.79
510.03	550.04
510.39	560.54
510.75	571.24
511.12	582.21
511.48	593.46
511.84	604.88
512.20	616.37
512.56	628.32
512.92	640.40
513.28	652.71
513.64	665.16
514.00	677.90
514.37	690.74
514.73	703.75
515.09	716.82
515.45	730.10
515.81	743.73
516.17	757.67
516.53	771.74
516.89	785.93
517.25	800.16
517.61	814.55
517.97	829.09
518.33	843.52
518.69	858.25
519.05	873.29
519.41	888.46
519.77	904.04
520.13	919.52
520.49	935.05
520.85	950.59
521.21	966.33
521.57	982.49
521.93	998.40
522.29	1014.76
522.65	1030.99
523.01	1047.32
523.37	1063.36
523.73	1079.54
524.09	1095.78
524.45	1112.19
524.81	1128.94
525.17	1145.89
525.53	1162.76
525.89	1179.67
526.25	1196.46
526.61	1213.01
526.97	1229.91
527.33	1246.41
527.68	1263.05
528.04	1279.59
528.40	1296.25
528.76	1313.41
529.12	1330.14
529.48	1347.09
529.84	1363.22
530.20	1380.02
530.56	1397.00
530.91	1414.55
531.27	1431.46
531.63	1447.77
531.99	1464.43
532.35	1480.46
532.71	1496.26
533.07	1512.72
533.42	1528.86
533.78	1545.10
534.14	1561.33
534.50	1576.47
534.86	1592.38
535.21	1607.64
535.57	1623.70
535.93	1639.14
536.29	1654.01
536.65	1669.21
537.00	1684.06
537.36	1699.51
537.72	1714.00
538.08	1728.41
538.44	1742.21
538.79	1756.19
539.15	1770.23
539.51	1784.12
539.87	1798.58
540.22	1812.50
540.58	1826.18
540.94	1839.42
541.29	1852.44
541.65	1865.22
542.01	1878.80
542.37	1891.17
542.72	1903.62
543.08	1915.54
543.44	1928.14
543.79	1939.45
544.15	1950.48
544.51	1962.02
544.87	1972.95
545.22	1983.87
545.58	1994.14
545.94	2003.84
546.29	2013.64
546.65	2023.32
547.01	2032.49
547.36	2041.14
547.72	2049.53
548.07	2057.45
548.43	2065.80
548.79	2073.62
549.14	2081.30
549.50	2088.79
549.86	2096.67
550.21	2103.98
550.57	2110.95
550.92	2117.56
551.28	2124.73
551.64	2131.68
551.99	2138.11
552.35	2144.29
552.70	2150.36
553.06	2156.28
553.41	2162.64
553.77	2168.65
554.13	2174.74
554.48	2180.73
554.84	2186.16
555.19	2191.48
555.55	2196.50
555.90	2200.76
556.26	2205.66
556.61	2210.05
556.97	2213.93
557.32	2217.84
557.68	2221.89
558.03	2226.09
558.39	2229.60
558.74	2234.05
559.10	2237.92
559.45	2241.48
559.81	2245.77
560.16	2249.36
560.52	2252.45
560.87	2255.89
561.23	2258.44
561.58	2261.26
561.94	2263.76
562.29	2266.02
562.64	2268.65
563.00	2271.23
563.35	2274.76
563.71	2277.80
564.06	2280.96
564.42	2283.80
564.77	2286.27
565.12	2288.35
565.48	2290.08
565.83	2291.75
566.19	2292.78
566.54	2293.49
566.89	2294.62
567.25	2294.92
567.60	2296.20
567.96	2297.79
568.31	2298.37
568.66	2299.21
569.02	2299.66
569.37	2299.65
569.72	2300.28
570.08	2300.14
570.43	2299.76
570.78	2298.74
571.14	2296.98
571.49	2295.22
571.84	2294.56
572.20	2292.98
572.55	2291.62
572.90	2289.78
573.26	2288.05
573.61	2286.23
573.96	2284.31
574.31	2281.07
574.67	2277.85
575.02	2273.94
575.37	2270.29
575.72	2266.36
576.08	2262.94
576.43	2259.33
576.78	2255.69
577.13	2252.25
577.49	2248.89
577.84	2245.42
578.19	2241.66
578.54	2237.73
578.90	2233.55
579.25	2227.91
579.60	2222.95
579.95	2217.88
580.30	2212.66
580.66	2207.47
581.01	2202.31
581.36	2197.12
581.71	2192.82
582.06	2188.13
582.42	2183.50
582.77	2178.07
583.12	2173.32
583.47	2168.42
583.82	2163.31
584.17	2157.92
584.53	2152.28
584.88	2146.46
585.23	2140.45
585.58	2134.76
585.93	2129.25
586.28	2124.35
586.63	2119.06
586.98	2113.89
587.34	2109.08
587.69	2104.06
588.04	2098.67
588.39	2093.00
588.74	2086.36
589.09	2080.05
589.44	2073.27
589.79	2067.08
590.14	2061.41
590.49	2054.62
590.84	2047.91
591.19	2041.65
591.54	2034.90
591.89	2027.34
592.25	2020.50
592.60	2013.24
592.95	2005.51
593.30	1998.01
593.65	1990.04
594.00	1982.96
594.35	1975.45
594.70	1967.30
595.05	1960.05
595.40	1952.75
595.75	1944.96
596.10	1938.67
596.45	1931.78
596.80	1925.51
597.15	1918.88
597.50	1911.71
597.85	1905.24
598.19	1898.75
598.54	1891.68
598.89	1885.10
599.24	1879.12
599.59	1872.46
599.94	1866.14
600.29	1859.80
600.64	1853.24
600.99	1845.96
601.34	1839.07
601.69	1832.10
602.04	1825.16
602.39	1817.86
602.74	1811.08
603.08	1804.46
603.43	1797.75
603.78	1790.43
604.13	1783.13
604.48	1775.91
604.83	1769.08
605.18	1762.13
605.53	1754.07
605.87	1746.10
606.22	1738.79
606.57	1731.03
606.92	1723.68
607.27	1716.56
607.62	1709.77
607.96	1702.51
608.31	1695.99
608.66	1688.37
609.01	1680.83
609.36	1673.43
609.70	1665.56
610.05	1657.43
610.40	1649.88
610.75	1641.58
611.10	1633.96
611.44	1625.72
611.79	1617.61
612.14	1608.88
612.49	1599.78
612.83	1591.54
613.18	1583.51
613.53	1575.49
613.88	1566.94
614.22	1558.80
614.57	1550.23
614.92	1542.23
615.27	1534.83
615.61	1526.49
615.96	1518.63
616.31	1511.08
616.65	1503.65
617.00	1495.96
617.35	1488.33
617.70	1479.79
618.04	1471.36
618.39	1463.32
618.74	1455.81
619.08	1447.72
619.43	1440.30
619.78	1433.48
620.12	1426.37
620.47	1418.90
620.82	1410.76
621.16	1403.39
621.51	1395.79
621.85	1388.30
622.20	1379.87
622.55	1371.58
622.89	1363.89
623.24	1356.35
623.59	1349.08
623.93	1341.70
624.28	1334.54
624.62	1327.21
624.97	1320.14
625.32	1313.47
625.66	1306.41
626.01	1299.21
626.35	1291.80
626.70	1284.15
627.04	1276.51
627.39	1268.62
627.73	1261.17
628.08	1254.37
628.43	1247.29
628.77	1239.97
629.12	1232.49
629.46	1225.33
629.81	1217.85
630.15	1210.69
630.50	1203.37
630.84	1195.23
631.19	1187.31
631.53	1180.01
631.88	1172.47
632.22	1165.01
632.57	1157.76
632.91	1150.33
633.26	1142.98
633.60	1135.71
633.95	1128.61
634.29	1121.63
634.64	1115.10
634.98	1107.91
635.32	1100.94
635.67	1094.43
636.01	1087.87
636.36	1081.09
636.70	1074.61
637.05	1068.25
637.39	1061.80
637.73	1055.37
638.08	1049.66
638.42	1043.80
638.77	1037.40
639.11	1030.91
639.45	1024.67
639.80	1018.09
640.14	1011.74
640.49	1005.33
640.83	999.11
641.17	993.09
641.52	986.87
641.86	980.50
642.20	974.71
642.55	968.38
642.89	961.93
643.23	955.48
643.58	949.81
643.92	943.79
644.26	937.80
644.61	931.88
644.95	925.85
645.29	919.27
645.64	912.63
645.98	906.38
646.32	900.63
646.66	894.59
647.01	888.86
647.35	883.22
647.69	877.43
648.04	871.99
648.38	866.19
648.72	860.22
649.06	854.19
649.41	848.31
649.75	842.31
650.09	836.31
650.43	830.50
650.78	824.41
651.12	818.40
651.46	812.62
651.80	806.84
652.14	801.46
652.49	796.13
652.83	790.85
653.17	785.22
653.51	779.48
653.85	774.09
654.20	768.52
654.54	762.63
654.88	756.91
655.22	751.05
655.56	745.39
655.90	739.90
656.25	734.72
656.59	729.45
656.93	724.45
657.27	719.36
657.61	713.96
657.95	708.89
658.29	703.89
658.64	698.72
658.98	693.55
659.32	688.21
659.66	683.07
660.00	677.89
660.34	672.97
660.68	668.13
661.02	663.20
661.36	658.52
661.70	653.96
662.05	649.63
662.39	645.34
662.73	640.95
663.07	636.71
663.41	632.29
663.75	627.87
664.09	623.44
664.43	619.12
664.77	615.09
665.11	610.90
665.45	606.79
665.79	602.84
666.13	598.75
666.47	594.67
666.81	590.49
667.15	586.48
667.49	582.61
667.83	578.82
668.17	574.93
668.51	571.00
668.85	567.12
669.19	563.36
669.53	559.54
669.87	555.81
670.21	552.20
670.55	548.67
670.89	545.28
671.23	541.86
671.57	538.42
671.91	534.98
672.25	531.56
672.58	528.17
672.92	524.76
673.26	521.66
673.60	518.61
673.94	515.57
674.28	512.63
674.62	509.80
674.96	506.74
675.30	503.87
675.64	500.92
675.97	498.15
676.31	495.36
676.65	492.51
676.99	489.74
677.33	486.86
677.67	484.05
678.01	481.07
678.34	478.16
678.68	475.35
679.02	472.50
679.36	469.79
679.70	467.02
680.04	464.32
680.37	461.47
680.71	458.71
681.05	456.16
681.39	453.51
681.73	450.85
682.06	448.34
682.40	445.84
682.74	443.35
683.08	440.85
683.42	438.25
683.75	435.72
684.09	433.21
684.43	430.79
684.77	428.36
685.10	426.02
685.44	423.73
685.78	421.46
686.12	419.27
686.45	416.98
686.79	414.75
687.13	412.55
687.46	410.42
687.80	408.25
688.14	406.04
688.48	404.02
688.81	401.78
689.15	399.60
689.49	397.47
689.82	395.37
690.16	393.31
690.50	391.33
690.83	389.42
691.17	387.43
691.51	385.50
691.84	383.67
692.18	381.76
692.52	379.75
692.85	377.79
693.19	375.94
693.52	374.10
693.86	372.27
694.20	370.46
694.53	368.69
694.87	366.88
695.21	365.14
695.54	363.32
695.88	361.55
696.21	359.91
696.55	358.22
696.88	356.61
697.22	354.95
697.56	353.33
697.89	351.70
698.23	350.14
698.56	348.53
698.90	346.95
699.23	345.33
699.57	343.82
699.90	342.31
700.24	340.74
700.58	339.24
700.91	337.77
701.25	336.37
701.58	334.98
701.92	333.60
702.25	332.21
702.59	330.82
702.92	329.57
703.26	328.26
703.59	327.00
703.93	325.78
704.26	324.55
704.60	323.33
704.93	322.09
705.26	320.85
705.60	319.70
705.93	318.56
706.27	317.54
706.60	316.49
706.94	315.45
707.27	314.38
707.61	313.37
707.94	312.36
708.27	311.30
708.61	310.22
708.94	309.25
709.28	308.29
709.61	307.37
709.94	306.43
710.28	305.43
710.61	304.48
710.95	303.42
711.28	302.55
711.61	301.60
711.95	300.72
712.28	299.81
712.61	298.84
712.95	297.96
713.28	297.08
713.61	296.17
713.95	295.32
714.28	294.51
714.61	293.65
714.95	292.81
715.28	291.98
715.61	291.19
715.95	290.33
716.28	289.51
716.61	288.73
716.95	287.94
717.28	287.26
717.61	286.53
717.94	285.85
718.28	285.04
718.61	284.33
718.94	283.65
719.27	282.99
719.61	282.36
719.94	281.71
720.27	281.02
720.60	280.42
720.94	279.79
721.27	279.20
721.60	278.60
721.93	278.02
722.27	277.47
722.60	276.89
722.93	276.36
723.26	275.82
723.59	275.27
723.93	274.72
724.26	274.09
724.59	273.50
724.92	272.97
725.25	272.49
725.59	271.98
725.92	271.48
726.25	270.97
726.58	270.48
726.91	269.96
727.24	269.47
727.57	268.98
727.91	268.41
728.24	267.94
728.57	267.45
728.90	267.01
729.23	266.49
729.56	266.04
729.89	265.53
730.22	265.05
730.55	264.59
730.89	264.15
731.22	263.70
731.55	263.25
731.88	262.82
732.21	262.37
732.54	261.93
732.87	261.50
733.20	261.08
733.53	260.70
733.86	260.34
734.19	259.95
734.52	259.56
734.85	259.26
735.18	258.85
735.51	258.51
735.84	258.14
736.17	257.81
736.50	257.41
736.83	257.22
737.16	256.88
737.49	256.54
737.82	256.18
738.15	255.90
738.48	255.55
738.81	255.22
739.14	254.88
739.47	254.57
739.80	254.26
740.13	253.95
740.46	253.61
740.79	253.28
741.12	252.97
741.45	252.69
741.78	252.39
742.11	252.07
742.44	251.73
742.77	251.44
743.10	251.15
743.43	250.87
743.75	250.48
744.08	250.30
744.41	250.01
744.74	249.70
745.07	249.43
745.40	249.25
745.73	249.00
746.06	248.76
746.39	248.48
746.71	248.21
747.04	247.96
747.37	247.71
747.70	247.46
748.03	247.24
748.36	246.99
748.68	246.74
749.01	246.54
749.34	246.34
749.67	246.15
750.00	245.93
750.33	245.80
750.65	245.60
750.98	245.28
751.31	245.07
751.64	244.92
751.97	244.74
752.29	244.50
752.62	244.29
752.95	244.10
753.28	243.89
753.60	243.72
753.93	243.55
754.26	243.38
754.59	243.19
754.91	242.95
755.24	242.77
755.57	242.59
755.90	242.41
756.22	242.23
756.55	242.02
756.88	241.85
757.20	241.61
757.53	241.40
757.86	241.29
758.19	241.15
758.51	240.98
758.84	240.78
759.17	240.64
759.49	240.50
759.82	240.38
760.15	240.24
760.47	240.07
760.80	239.90
761.13	239.75
761.45	239.60
761.78	239.49
762.11	239.36
762.43	239.20
762.76	239.06
763.08	238.91
763.41	238.80
763.74	238.65
764.06	238.50
764.39	238.37
764.71	238.15
765.04	238.00
765.37	237.83
765.69	237.69
766.02	237.55
766.34	237.40
766.67	237.25
767.00	237.14
767.32	237.08
767.65	237.02
767.97	236.91
768.30	236.80
768.62	236.70
768.95	236.52
769.27	236.41
769.60	236.32
769.92	236.20
770.25	236.08
770.57	235.91
770.90	235.80
771.22	235.67
771.55	235.61
771.87	235.51
772.20	235.41
772.52	235.39
772.85	235.37
773.17	235.27
773.50	235.15
773.82	235.00
774.15	234.85
774.47	234.69
774.80	234.58
775.12	234.49
775.45	234.36
775.77	234.31
776.09	234.22
776.42	234.10
776.74	234.00
777.07	233.90
777.39	233.89
777.72	233.80
778.04	233.76
778.36	233.68
778.69	233.62
779.01	233.55
779.33	233.42
779.66	233.23
779.98	233.13
780.31	233.07
780.63	233.07
780.95	233.03
781.28	232.98
781.60	232.89
781.92	232.81
782.25	232.74
782.57	232.69
782.89	232.64
783.22	232.60
783.54	232.56
783.86	232.50
784.19	232.38
784.51	232.39
784.83	232.30
785.16	232.24
785.48	232.18
785.80	232.16
786.12	232.11
786.45	232.09
786.77	232.05
787.09	231.98
