SpectraSuite Data File
++++++++++++++++++++++++++++++++++++
Date: Fri Feb 01 16:23:29 EST 2013
User: group
Dark Spectrum Present: No
Reference Spectrum Present: No
Number of Sampled Component Spectra: 1
Spectrometers: USB2E7196
Integration Time (usec): 35000 (USB2E7196)
Spectra Averaged: 100 (USB2E7196)
Boxcar Smoothing: 10 (USB2E7196)
Correct for Electrical Dark: No (USB2E7196)
Strobe/Lamp Enabled: No (USB2E7196)
Correct for Detector Non-linearity: No (USB2E7196)
Correct for Stray Light: No (USB2E7196)
Number of Pixels in Processed Spectrum: 2048
>>>>>Begin Processed Spectral Data<<<<<
339.09	0.00
339.48	214.26
339.86	215.46
340.24	216.89
340.63	218.25
341.01	220.93
341.39	220.79
341.78	223.41
342.16	223.40
342.54	223.77
342.93	212.44
343.31	223.19
343.69	223.73
344.07	224.18
344.46	224.60
344.84	224.96
345.22	225.23
345.60	225.47
345.99	225.61
346.37	225.74
346.75	225.85
347.13	225.90
347.52	225.98
347.90	226.05
348.28	226.05
348.66	226.12
349.05	226.11
349.43	226.12
349.81	226.19
350.19	226.25
350.57	226.31
350.96	226.36
351.34	226.44
351.72	226.48
352.10	226.59
352.48	226.64
352.87	226.72
353.25	226.75
353.63	226.83
354.01	226.91
354.39	226.96
354.77	227.02
355.15	227.15
355.54	227.18
355.92	227.19
356.30	227.32
356.68	227.45
357.06	227.51
357.44	227.58
357.82	227.59
358.20	227.65
358.58	227.70
358.97	227.83
359.35	227.89
359.73	227.98
360.11	228.03
360.49	228.10
360.87	228.14
361.25	228.21
361.63	228.31
362.01	228.31
362.39	228.36
362.77	228.42
363.15	228.43
363.53	228.47
363.91	228.53
364.29	228.54
364.67	228.46
365.05	228.51
365.43	228.56
365.81	228.59
366.19	228.65
366.57	228.66
366.95	228.63
367.33	228.63
367.71	228.60
368.09	228.62
368.47	228.63
368.85	228.62
369.23	228.60
369.61	228.52
369.99	228.56
370.37	228.55
370.75	228.55
371.13	228.51
371.51	228.46
371.89	228.44
372.27	228.41
372.65	228.36
373.03	228.32
373.41	228.25
373.78	228.21
374.16	228.10
374.54	228.03
374.92	228.00
375.30	227.91
375.68	227.89
376.06	227.81
376.44	227.73
376.82	227.68
377.19	227.61
377.57	227.55
377.95	227.44
378.33	227.39
378.71	227.30
379.09	227.26
379.47	227.20
379.84	227.14
380.22	227.03
380.60	226.97
380.98	226.91
381.36	226.85
381.73	226.79
382.11	226.76
382.49	226.70
382.87	226.60
383.25	226.54
383.62	226.57
384.00	226.51
384.38	226.47
384.76	226.43
385.13	226.45
385.51	226.43
385.89	226.37
386.27	226.33
386.64	226.30
387.02	226.26
387.40	226.21
387.78	226.14
388.15	226.12
388.53	226.07
388.91	226.01
389.29	225.97
389.66	225.93
390.04	225.87
390.42	225.83
390.79	225.80
391.17	225.82
391.55	225.71
391.92	225.72
392.30	225.74
392.68	225.68
393.05	225.65
393.43	225.59
393.81	225.61
394.18	225.57
394.56	225.57
394.94	225.58
395.31	225.58
395.69	225.65
396.06	225.69
396.44	225.73
396.82	225.77
397.19	225.87
397.57	225.92
397.95	225.97
398.32	226.00
398.70	226.09
399.07	226.12
399.45	226.12
399.82	226.14
400.20	226.17
400.58	226.24
400.95	226.26
401.33	226.38
401.70	226.51
402.08	226.58
402.45	226.62
402.83	226.71
403.20	226.83
403.58	226.88
403.95	227.01
404.33	227.13
404.71	227.25
405.08	227.40
405.46	227.49
405.83	227.65
406.21	227.79
406.58	227.92
406.96	228.08
407.33	228.31
407.70	228.54
408.08	228.80
408.45	229.05
408.83	229.28
409.20	229.51
409.58	229.69
409.95	229.97
410.33	230.29
410.70	230.55
411.08	230.82
411.45	231.16
411.82	231.43
412.20	231.80
412.57	232.21
412.95	232.50
413.32	232.91
413.69	233.34
414.07	233.78
414.44	234.27
414.82	234.76
415.19	235.30
415.56	235.85
415.94	236.41
416.31	237.05
416.68	237.70
417.06	238.43
417.43	239.15
417.81	239.93
418.18	240.68
418.55	241.50
418.93	242.39
419.30	243.32
419.67	244.27
420.04	245.23
420.42	246.20
420.79	247.40
421.16	248.57
421.54	249.75
421.91	250.98
422.28	252.24
422.66	253.54
423.03	254.86
423.40	256.18
423.77	257.58
424.15	258.99
424.52	260.48
424.89	262.05
425.26	263.57
425.64	265.01
426.01	266.64
426.38	268.30
426.75	269.99
427.13	271.67
427.50	273.50
427.87	275.36
428.24	277.23
428.61	278.95
428.99	280.86
429.36	282.92
429.73	284.96
430.10	286.96
430.47	289.03
430.85	291.13
431.22	293.36
431.59	295.73
431.96	297.95
432.33	300.38
432.70	302.76
433.08	305.55
433.45	308.16
433.82	310.72
434.19	313.61
434.56	316.40
434.93	319.00
435.30	321.58
435.68	324.44
436.05	327.24
436.42	330.02
436.79	332.57
437.16	335.29
437.53	338.07
437.90	340.87
438.27	343.64
438.64	346.45
439.01	349.04
439.38	351.26
439.75	353.46
440.13	355.94
440.50	358.25
440.87	360.06
441.24	362.03
441.61	364.15
441.98	365.62
442.35	367.42
442.72	369.29
443.09	371.12
443.46	372.12
443.83	372.75
444.20	373.27
444.57	374.07
444.94	374.35
445.31	374.74
445.68	375.10
446.05	375.14
446.42	374.76
446.79	374.35
447.16	373.89
447.53	373.55
447.90	372.41
448.27	371.29
448.64	369.72
449.01	368.59
449.37	366.66
449.74	364.79
450.11	362.55
450.48	360.10
450.85	357.58
451.22	355.47
451.59	353.39
451.96	351.44
452.33	348.90
452.70	346.54
453.07	343.73
453.43	340.86
453.80	338.10
454.17	335.41
454.54	332.85
454.91	330.08
455.28	327.42
455.65	324.95
456.02	322.47
456.38	320.34
456.75	317.68
457.12	315.46
457.49	313.25
457.86	311.06
458.23	309.20
458.59	307.12
458.96	305.01
459.33	303.22
459.70	301.36
460.07	299.81
460.43	298.07
460.80	296.46
461.17	295.01
461.54	293.54
461.91	292.15
462.27	290.71
462.64	289.54
463.01	288.18
463.38	286.90
463.74	285.56
464.11	284.43
464.48	283.40
464.85	282.27
465.21	281.39
465.58	280.51
465.95	279.44
466.32	278.57
466.68	277.69
467.05	276.82
467.42	275.96
467.78	275.06
468.15	274.22
468.52	273.59
468.88	272.70
469.25	271.92
469.62	271.31
469.98	270.63
470.35	270.02
470.72	269.45
471.08	268.83
471.45	268.34
471.82	267.81
472.18	267.23
472.55	266.83
472.92	266.34
473.28	265.88
473.65	265.40
474.02	264.94
474.38	264.60
474.75	264.27
475.11	263.94
475.48	263.68
475.85	263.49
476.21	263.21
476.58	263.10
476.94	263.00
477.31	262.81
477.67	262.69
478.04	262.56
478.41	262.50
478.77	262.53
479.14	262.43
479.50	262.41
479.87	262.48
480.23	262.57
480.60	262.63
480.96	262.72
481.33	263.00
481.69	263.21
482.06	263.43
482.42	263.62
482.79	263.89
483.15	264.20
483.52	264.55
483.88	264.93
484.25	265.29
484.61	265.70
484.98	266.19
485.34	266.79
485.71	267.39
486.07	268.01
486.44	268.57
486.80	269.30
487.17	270.06
487.53	270.89
487.90	271.75
488.26	272.71
488.62	273.71
488.99	274.65
489.35	275.70
489.72	276.79
490.08	277.99
490.44	279.20
490.81	280.52
491.17	281.87
491.54	283.35
491.90	284.89
492.26	286.52
492.63	288.20
492.99	289.96
493.36	291.82
493.72	293.84
494.08	295.95
494.45	298.19
494.81	300.55
495.17	302.98
495.54	305.53
495.90	308.20
496.26	310.97
496.63	313.96
496.99	317.09
497.35	320.36
497.72	323.80
498.08	327.31
498.44	331.03
498.80	334.99
499.17	339.04
499.53	343.26
499.89	347.60
500.26	352.16
500.62	356.86
500.98	361.82
501.34	366.92
501.71	372.24
502.07	377.66
502.43	383.33
502.79	389.18
503.16	395.25
503.52	401.52
503.88	408.00
504.24	414.63
504.60	421.50
504.97	428.61
505.33	435.95
505.69	443.72
506.05	451.44
506.41	459.29
506.78	467.42
507.14	475.88
507.50	484.66
507.86	493.68
508.22	502.87
508.59	512.10
508.95	521.67
509.31	531.50
509.67	541.63
510.03	551.90
510.39	562.42
510.75	573.18
511.12	584.12
511.48	595.46
511.84	606.82
512.20	618.33
512.56	630.27
512.92	642.45
513.28	654.78
513.64	667.33
514.00	680.04
514.37	692.98
514.73	706.03
515.09	719.01
515.45	732.32
515.81	745.86
516.17	759.82
516.53	773.96
516.89	788.09
517.25	802.27
517.61	816.65
517.97	831.08
518.33	845.55
518.69	860.21
519.05	875.06
519.41	890.17
519.77	905.67
520.13	921.12
520.49	936.40
520.85	951.74
521.21	967.34
521.57	983.47
521.93	999.18
522.29	1015.51
522.65	1031.74
523.01	1047.79
523.37	1063.72
523.73	1079.84
524.09	1095.90
524.45	1112.11
524.81	1128.65
525.17	1145.42
525.53	1162.31
525.89	1179.05
526.25	1195.93
526.61	1212.29
526.97	1229.05
527.33	1245.45
527.68	1261.95
528.04	1278.48
528.40	1295.01
528.76	1311.99
529.12	1328.64
529.48	1345.46
529.84	1361.40
530.20	1377.93
530.56	1394.91
530.91	1412.35
531.27	1429.05
531.63	1445.37
531.99	1461.93
532.35	1477.79
532.71	1493.68
533.07	1509.89
533.42	1525.82
533.78	1541.88
534.14	1558.13
534.50	1573.44
534.86	1589.33
535.21	1604.37
535.57	1620.15
535.93	1635.58
536.29	1650.37
536.65	1665.24
537.00	1679.97
537.36	1695.15
537.72	1709.76
538.08	1724.07
538.44	1737.75
538.79	1751.66
539.15	1765.27
539.51	1778.98
539.87	1793.35
540.22	1806.84
540.58	1820.43
540.94	1833.64
541.29	1846.27
541.65	1858.86
542.01	1872.04
542.37	1884.14
542.72	1896.61
543.08	1908.32
543.44	1920.62
543.79	1931.74
544.15	1942.73
544.51	1954.19
544.87	1965.19
545.22	1975.84
545.58	1985.99
545.94	1995.71
546.29	2005.43
546.65	2015.28
547.01	2024.39
547.36	2032.90
547.72	2041.34
548.07	2049.20
548.43	2057.24
548.79	2065.34
549.14	2072.74
549.50	2080.00
549.86	2087.69
550.21	2094.96
550.57	2102.03
550.92	2108.47
551.28	2115.44
551.64	2122.34
551.99	2128.77
552.35	2134.74
552.70	2140.84
553.06	2146.81
553.41	2153.16
553.77	2159.10
554.13	2165.10
554.48	2171.19
554.84	2176.83
555.19	2182.14
555.55	2187.21
555.90	2191.79
556.26	2196.56
556.61	2201.38
556.97	2205.61
557.32	2209.76
557.68	2213.84
558.03	2218.21
558.39	2221.93
558.74	2226.56
559.10	2230.53
559.45	2234.12
559.81	2238.36
560.16	2242.13
560.52	2245.39
560.87	2248.75
561.23	2251.33
561.58	2254.34
561.94	2256.81
562.29	2259.00
562.64	2261.67
563.00	2264.22
563.35	2267.57
563.71	2270.60
564.06	2273.80
564.42	2276.60
564.77	2279.07
565.12	2281.36
565.48	2283.29
565.83	2285.28
566.19	2286.63
566.54	2287.51
566.89	2288.95
567.25	2289.70
567.60	2291.00
567.96	2292.80
568.31	2293.63
568.66	2294.83
569.02	2295.45
569.37	2296.01
569.72	2296.99
570.08	2297.18
570.43	2297.38
570.78	2296.90
571.14	2295.48
571.49	2294.04
571.84	2293.82
572.20	2292.82
572.55	2291.77
572.90	2290.28
573.26	2288.86
573.61	2287.26
573.96	2285.53
574.31	2282.56
574.67	2279.48
575.02	2275.94
575.37	2272.53
575.72	2268.88
576.08	2265.72
576.43	2262.39
576.78	2258.65
577.13	2255.51
577.49	2252.41
577.84	2248.78
578.19	2245.20
578.54	2241.64
578.90	2237.53
579.25	2232.13
579.60	2227.19
579.95	2222.35
580.30	2217.33
580.66	2212.32
581.01	2207.35
581.36	2202.50
581.71	2198.37
582.06	2194.21
582.42	2189.92
582.77	2184.79
583.12	2180.30
583.47	2175.55
583.82	2170.61
584.17	2165.36
584.53	2159.87
584.88	2154.39
585.23	2148.81
585.58	2143.37
585.93	2137.97
586.28	2133.29
586.63	2128.19
586.98	2123.21
587.34	2118.42
587.69	2113.59
588.04	2108.43
588.39	2102.71
588.74	2096.27
589.09	2090.16
589.44	2083.34
589.79	2077.24
590.14	2071.67
590.49	2065.04
590.84	2058.65
591.19	2052.63
591.54	2046.39
591.89	2039.16
592.25	2032.41
592.60	2025.36
592.95	2017.82
593.30	2010.49
593.65	2002.93
594.00	1996.03
594.35	1988.77
594.70	1980.88
595.05	1973.75
595.40	1966.45
595.75	1959.11
596.10	1952.98
596.45	1946.22
596.80	1940.11
597.15	1933.64
597.50	1926.60
597.85	1920.36
598.19	1913.71
598.54	1906.62
598.89	1899.89
599.24	1893.98
599.59	1887.28
599.94	1880.88
600.29	1874.63
600.64	1868.05
600.99	1860.66
601.34	1853.82
601.69	1846.93
602.04	1840.23
602.39	1832.87
602.74	1826.11
603.08	1819.43
603.43	1812.73
603.78	1805.48
604.13	1798.28
604.48	1790.92
604.83	1783.96
605.18	1776.85
605.53	1768.89
605.87	1760.91
606.22	1753.73
606.57	1745.87
606.92	1738.66
607.27	1731.63
607.62	1724.69
607.96	1717.45
608.31	1710.81
608.66	1703.20
609.01	1695.71
609.36	1687.93
609.70	1679.92
610.05	1671.84
610.40	1664.14
610.75	1655.84
611.10	1648.24
611.44	1639.91
611.79	1632.04
612.14	1623.42
612.49	1614.28
612.83	1606.03
613.18	1597.95
613.53	1589.77
613.88	1581.16
614.22	1572.75
614.57	1564.16
614.92	1556.09
615.27	1548.62
615.61	1540.38
615.96	1532.30
616.31	1524.63
616.65	1517.29
617.00	1509.65
617.35	1501.89
617.70	1493.58
618.04	1485.08
618.39	1476.77
618.74	1469.10
619.08	1460.76
619.43	1453.17
619.78	1446.37
620.12	1439.05
620.47	1431.55
620.82	1423.58
621.16	1416.17
621.51	1408.61
621.85	1400.98
622.20	1392.50
622.55	1384.14
622.89	1376.34
623.24	1368.64
623.59	1361.22
623.93	1353.71
624.28	1346.48
624.62	1338.94
624.97	1331.79
625.32	1325.07
625.66	1318.05
626.01	1310.80
626.35	1303.33
626.70	1295.57
627.04	1287.72
627.39	1280.08
627.73	1272.63
628.08	1265.66
628.43	1258.41
628.77	1250.97
629.12	1243.47
629.46	1236.29
629.81	1228.73
630.15	1221.43
630.50	1214.13
630.84	1205.93
631.19	1198.01
631.53	1190.51
631.88	1183.08
632.22	1175.48
632.57	1168.11
632.91	1160.58
633.26	1153.16
633.60	1145.76
633.95	1138.70
634.29	1131.73
634.64	1124.97
634.98	1117.59
635.32	1110.32
635.67	1103.66
636.01	1097.15
636.36	1090.30
636.70	1083.76
637.05	1077.29
637.39	1070.82
637.73	1064.20
638.08	1058.29
638.42	1052.21
638.77	1045.77
639.11	1039.04
639.45	1032.62
639.80	1025.98
640.14	1019.50
640.49	1012.91
640.83	1006.60
641.17	1000.26
641.52	993.85
641.86	987.38
642.20	981.57
642.55	975.30
642.89	968.79
643.23	962.17
643.58	956.36
643.92	950.17
644.26	944.05
644.61	937.99
644.95	932.03
645.29	925.48
645.64	918.84
645.98	912.61
646.32	906.84
646.66	900.82
647.01	895.04
647.35	889.35
647.69	883.57
648.04	878.07
648.38	872.36
648.72	866.34
649.06	860.28
649.41	854.40
649.75	848.47
650.09	842.63
650.43	836.86
650.78	830.71
651.12	824.73
651.46	819.04
651.80	813.21
652.14	807.79
652.49	802.40
652.83	797.18
653.17	791.47
653.51	785.77
653.85	780.37
654.20	774.71
654.54	768.66
654.88	762.91
655.22	756.93
655.56	751.19
655.90	745.81
656.25	740.59
656.59	735.15
656.93	730.03
657.27	724.82
657.61	719.35
657.95	714.24
658.29	709.18
658.64	703.92
658.98	698.71
659.32	693.25
659.66	688.02
660.00	682.64
660.34	677.65
660.68	672.64
661.02	667.49
661.36	662.76
661.70	658.28
662.05	653.99
662.39	649.70
662.73	645.21
663.07	640.88
663.41	636.41
663.75	631.97
664.09	627.40
664.43	622.98
664.77	618.90
665.11	614.66
665.45	610.50
665.79	606.42
666.13	602.28
666.47	598.22
666.81	594.13
667.15	590.08
667.49	586.17
667.83	582.43
668.17	578.54
668.51	574.46
668.85	570.44
669.19	566.59
669.53	562.78
669.87	558.92
670.21	555.16
670.55	551.55
670.89	548.12
671.23	544.65
671.57	541.20
671.91	537.57
672.25	534.02
672.58	530.45
672.92	527.01
673.26	523.80
673.60	520.60
673.94	517.45
674.28	514.51
674.62	511.58
674.96	508.48
675.30	505.62
675.64	502.70
675.97	499.87
676.31	496.97
676.65	494.00
676.99	491.26
677.33	488.40
677.67	485.55
678.01	482.52
678.34	479.54
678.68	476.64
679.02	473.89
679.36	471.16
679.70	468.49
680.04	465.77
680.37	462.91
680.71	460.16
681.05	457.54
681.39	454.84
681.73	452.18
682.06	449.63
682.40	447.02
682.74	444.48
683.08	441.98
683.42	439.39
683.75	436.91
684.09	434.40
684.43	431.95
684.77	429.49
685.10	427.10
685.44	424.79
685.78	422.48
686.12	420.19
686.45	417.87
686.79	415.58
687.13	413.40
687.46	411.24
687.80	409.11
688.14	406.88
688.48	404.79
688.81	402.52
689.15	400.40
689.49	398.26
689.82	396.20
690.16	394.13
690.50	392.15
690.83	390.20
691.17	388.21
691.51	386.35
691.84	384.52
692.18	382.66
692.52	380.71
692.85	378.82
693.19	376.93
693.52	375.14
693.86	373.35
694.20	371.58
694.53	369.79
694.87	367.91
695.21	366.13
695.54	364.32
695.88	362.59
696.21	360.82
696.55	359.17
696.88	357.48
697.22	355.77
697.56	354.20
697.89	352.52
698.23	350.88
698.56	349.20
698.90	347.54
699.23	345.87
699.57	344.31
699.90	342.68
700.24	341.16
700.58	339.62
700.91	338.09
701.25	336.62
701.58	335.21
701.92	333.82
702.25	332.48
702.59	331.08
702.92	329.78
703.26	328.47
703.59	327.14
703.93	325.96
704.26	324.76
704.60	323.39
704.93	322.12
705.26	320.87
705.60	319.68
705.93	318.57
706.27	317.50
706.60	316.43
706.94	315.38
707.27	314.23
707.61	313.12
707.94	312.09
708.27	310.96
708.61	309.91
708.94	308.91
709.28	307.90
709.61	306.97
709.94	306.04
710.28	305.02
710.61	304.06
710.95	302.98
711.28	302.05
711.61	301.10
711.95	300.20
712.28	299.24
712.61	298.24
712.95	297.31
713.28	296.46
713.61	295.58
713.95	294.70
714.28	293.86
714.61	293.04
714.95	292.17
715.28	291.34
715.61	290.49
715.95	289.62
716.28	288.74
716.61	287.86
716.95	287.01
717.28	286.31
717.61	285.55
717.94	284.82
718.28	284.01
718.61	283.33
718.94	282.65
719.27	282.03
719.61	281.41
719.94	280.75
720.27	280.02
720.60	279.35
720.94	278.74
721.27	278.18
721.60	277.59
721.93	277.01
722.27	276.50
722.60	275.92
722.93	275.35
723.26	274.84
723.59	274.33
723.93	273.79
724.26	273.21
724.59	272.67
724.92	272.15
725.25	271.70
725.59	271.16
725.92	270.68
726.25	270.16
726.58	269.68
726.91	269.19
727.24	268.74
727.57	268.30
727.91	267.78
728.24	267.33
728.57	266.84
728.90	266.40
729.23	265.88
729.56	265.48
729.89	265.02
730.22	264.54
730.55	264.10
730.89	263.65
731.22	263.26
731.55	262.82
731.88	262.39
732.21	261.92
732.54	261.45
732.87	261.00
733.20	260.62
733.53	260.23
733.86	259.86
734.19	259.47
734.52	259.07
734.85	258.75
735.18	258.29
735.51	257.93
735.84	257.52
736.17	257.19
736.50	256.80
736.83	256.53
737.16	256.21
737.49	255.83
737.82	255.45
738.15	255.06
738.48	254.71
738.81	254.37
739.14	254.04
739.47	253.76
739.80	253.42
740.13	253.10
740.46	252.76
740.79	252.39
741.12	252.05
741.45	251.71
741.78	251.36
742.11	251.08
742.44	250.74
742.77	250.45
743.10	250.12
743.43	249.80
743.75	249.42
744.08	249.25
744.41	248.98
744.74	248.72
745.07	248.40
745.40	248.14
745.73	247.87
746.06	247.60
746.39	247.31
746.71	247.04
747.04	246.76
747.37	246.50
747.70	246.27
748.03	246.02
748.36	245.83
748.68	245.60
749.01	245.33
749.34	245.10
749.67	244.87
750.00	244.65
750.33	244.48
750.65	244.28
750.98	243.92
751.31	243.68
751.64	243.48
751.97	243.34
752.29	243.14
752.62	242.89
752.95	242.68
753.28	242.46
753.60	242.28
753.93	242.09
754.26	241.86
754.59	241.66
754.91	241.44
755.24	241.21
755.57	241.00
755.90	240.82
756.22	240.64
756.55	240.43
756.88	240.21
757.20	239.98
757.53	239.77
757.86	239.63
758.19	239.48
758.51	239.29
758.84	239.09
759.17	238.88
759.49	238.74
759.82	238.61
760.15	238.49
760.47	238.31
760.80	238.14
761.13	238.03
761.45	237.87
761.78	237.72
762.11	237.59
762.43	237.45
762.76	237.34
763.08	237.20
763.41	237.09
763.74	236.97
764.06	236.85
764.39	236.75
764.71	236.64
765.04	236.50
765.37	236.37
765.69	236.24
766.02	236.15
766.34	236.04
766.67	235.91
767.00	235.80
767.32	235.79
767.65	235.75
767.97	235.67
768.30	235.59
768.62	235.50
768.95	235.38
769.27	235.29
769.60	235.19
769.92	235.07
770.25	234.96
770.57	234.84
770.90	234.73
771.22	234.59
771.55	234.50
771.87	234.42
772.20	234.32
772.52	234.34
772.85	234.38
773.17	234.29
773.50	234.20
773.82	234.12
774.15	233.99
774.47	233.86
774.80	233.76
775.12	233.68
775.45	233.60
775.77	233.54
776.09	233.45
776.42	233.40
776.74	233.34
777.07	233.27
777.39	233.23
777.72	233.16
778.04	233.10
778.36	233.01
778.69	232.93
779.01	232.89
779.33	232.70
779.66	232.53
779.98	232.42
780.31	232.38
780.63	232.35
780.95	232.24
781.28	232.15
781.60	232.03
781.92	231.95
782.25	231.91
782.57	231.84
782.89	231.77
783.22	231.67
783.54	231.60
783.86	231.52
784.19	231.44
784.51	231.41
784.83	231.34
785.16	231.29
785.48	231.24
785.80	231.19
786.12	231.13
786.45	231.09
786.77	231.08
787.09	231.02
