SpectraSuite Data File
++++++++++++++++++++++++++++++++++++
Date: Fri Feb 01 16:28:20 EST 2013
User: group
Dark Spectrum Present: No
Reference Spectrum Present: No
Number of Sampled Component Spectra: 1
Spectrometers: USB2E7196
Integration Time (usec): 35000 (USB2E7196)
Spectra Averaged: 100 (USB2E7196)
Boxcar Smoothing: 10 (USB2E7196)
Correct for Electrical Dark: No (USB2E7196)
Strobe/Lamp Enabled: No (USB2E7196)
Correct for Detector Non-linearity: No (USB2E7196)
Correct for Stray Light: No (USB2E7196)
Number of Pixels in Processed Spectrum: 2048
>>>>>Begin Processed Spectral Data<<<<<
339.09	0.00
339.48	214.33
339.86	215.52
340.24	216.62
340.63	218.28
341.01	220.83
341.39	221.33
341.78	222.72
342.16	223.25
342.54	223.90
342.93	212.39
343.31	223.10
343.69	223.63
344.07	224.08
344.46	224.50
344.84	224.87
345.22	225.12
345.60	225.33
345.99	225.47
346.37	225.61
346.75	225.72
347.13	225.80
347.52	225.82
347.90	225.87
348.28	225.87
348.66	225.93
349.05	225.92
349.43	225.98
349.81	226.02
350.19	226.05
350.57	226.11
350.96	226.18
351.34	226.31
351.72	226.40
352.10	226.50
352.48	226.56
352.87	226.64
353.25	226.70
353.63	226.79
354.01	226.86
354.39	226.93
354.77	227.00
355.15	227.11
355.54	227.17
355.92	227.21
356.30	227.29
356.68	227.44
357.06	227.49
357.44	227.53
357.82	227.59
358.20	227.70
358.58	227.77
358.97	227.85
359.35	227.92
359.73	227.97
360.11	228.03
360.49	228.11
360.87	228.11
361.25	228.17
361.63	228.24
362.01	228.30
362.39	228.34
362.77	228.39
363.15	228.41
363.53	228.47
363.91	228.50
364.29	228.52
364.67	228.42
365.05	228.48
365.43	228.47
365.81	228.50
366.19	228.53
366.57	228.55
366.95	228.53
367.33	228.49
367.71	228.51
368.09	228.52
368.47	228.48
368.85	228.49
369.23	228.49
369.61	228.43
369.99	228.45
370.37	228.43
370.75	228.42
371.13	228.34
371.51	228.29
371.89	228.25
372.27	228.24
372.65	228.20
373.03	228.13
373.41	228.09
373.78	228.02
374.16	227.92
374.54	227.87
374.92	227.82
375.30	227.74
375.68	227.64
376.06	227.58
376.44	227.52
376.82	227.49
377.19	227.40
377.57	227.35
377.95	227.24
378.33	227.17
378.71	227.06
379.09	227.06
379.47	227.00
379.84	226.95
380.22	226.87
380.60	226.81
380.98	226.76
381.36	226.71
381.73	226.65
382.11	226.60
382.49	226.53
382.87	226.42
383.25	226.39
383.62	226.47
384.00	226.39
384.38	226.35
384.76	226.31
385.13	226.26
385.51	226.19
385.89	226.13
386.27	226.07
386.64	226.05
387.02	225.96
387.40	225.92
387.78	225.89
388.15	225.85
388.53	225.81
388.91	225.76
389.29	225.72
389.66	225.65
390.04	225.61
390.42	225.60
390.79	225.63
391.17	225.59
391.55	225.46
391.92	225.45
392.30	225.43
392.68	225.37
393.05	225.39
393.43	225.43
393.81	225.43
394.18	225.42
394.56	225.43
394.94	225.47
395.31	225.47
395.69	225.50
396.06	225.54
396.44	225.56
396.82	225.59
397.19	225.71
397.57	225.77
397.95	225.86
398.32	225.87
398.70	225.92
399.07	226.01
399.45	226.03
399.82	226.08
400.20	226.15
400.58	226.24
400.95	226.30
401.33	226.37
401.70	226.50
402.08	226.60
402.45	226.70
402.83	226.82
403.20	226.91
403.58	226.99
403.95	227.10
404.33	227.24
404.71	227.37
405.08	227.48
405.46	227.59
405.83	227.74
406.21	227.88
406.58	228.02
406.96	228.19
407.33	228.38
407.70	228.57
408.08	228.85
408.45	229.05
408.83	229.25
409.20	229.47
409.58	229.64
409.95	229.91
410.33	230.17
410.70	230.38
411.08	230.68
411.45	230.98
411.82	231.30
412.20	231.64
412.57	232.03
412.95	232.33
413.32	232.73
413.69	233.11
414.07	233.57
414.44	234.04
414.82	234.48
415.19	235.04
415.56	235.59
415.94	236.10
416.31	236.73
416.68	237.35
417.06	238.04
417.43	238.74
417.81	239.51
418.18	240.27
418.55	241.12
418.93	241.98
419.30	242.87
419.67	243.79
420.04	244.76
420.42	245.74
420.79	246.93
421.16	248.09
421.54	249.31
421.91	250.52
422.28	251.79
422.66	253.13
423.03	254.41
423.40	255.74
423.77	257.15
424.15	258.57
424.52	260.11
424.89	261.73
425.26	263.26
425.64	264.71
426.01	266.31
426.38	267.95
426.75	269.62
427.13	271.36
427.50	273.19
427.87	275.05
428.24	276.94
428.61	278.64
428.99	280.60
429.36	282.68
429.73	284.71
430.10	286.73
430.47	288.78
430.85	290.90
431.22	293.12
431.59	295.48
431.96	297.72
432.33	300.17
432.70	302.54
433.08	305.34
433.45	307.97
433.82	310.57
434.19	313.47
434.56	316.28
434.93	318.93
435.30	321.49
435.68	324.37
436.05	327.15
436.42	329.94
436.79	332.40
437.16	335.05
437.53	337.87
437.90	340.67
438.27	343.42
438.64	346.27
439.01	348.84
439.38	351.10
439.75	353.28
440.13	355.76
440.50	358.06
440.87	359.88
441.24	361.81
441.61	363.96
441.98	365.43
442.35	367.21
442.72	369.06
443.09	370.89
443.46	371.92
443.83	372.50
444.20	373.02
444.57	373.87
444.94	374.19
445.31	374.51
445.68	374.84
446.05	374.91
446.42	374.54
446.79	374.16
447.16	373.69
447.53	373.38
447.90	372.20
448.27	371.08
448.64	369.53
449.01	368.40
449.37	366.41
449.74	364.54
450.11	362.28
450.48	359.79
450.85	357.26
451.22	355.11
451.59	353.13
451.96	351.22
452.33	348.64
452.70	346.28
453.07	343.48
453.43	340.61
453.80	337.86
454.17	335.15
454.54	332.58
454.91	329.86
455.28	327.18
455.65	324.71
456.02	322.29
456.38	320.13
456.75	317.49
457.12	315.27
457.49	313.03
457.86	310.88
458.23	309.04
458.59	307.00
458.96	304.91
459.33	303.02
459.70	301.18
460.07	299.64
460.43	297.92
460.80	296.32
461.17	294.90
461.54	293.35
461.91	291.97
462.27	290.52
462.64	289.28
463.01	287.94
463.38	286.63
463.74	285.22
464.11	284.06
464.48	283.03
464.85	281.90
465.21	281.07
465.58	280.16
465.95	279.08
466.32	278.17
466.68	277.27
467.05	276.40
467.42	275.50
467.78	274.57
468.15	273.68
468.52	273.05
468.88	272.19
469.25	271.48
469.62	270.85
469.98	270.22
470.35	269.57
470.72	268.98
471.08	268.34
471.45	267.82
471.82	267.27
472.18	266.69
472.55	266.30
472.92	265.78
473.28	265.31
473.65	264.86
474.02	264.44
474.38	264.10
474.75	263.80
475.11	263.46
475.48	263.22
475.85	263.04
476.21	262.78
476.58	262.60
476.94	262.45
477.31	262.28
477.67	262.16
478.04	262.08
478.41	262.01
478.77	262.07
479.14	262.02
479.50	262.07
479.87	262.15
480.23	262.21
480.60	262.28
480.96	262.39
481.33	262.64
481.69	262.86
482.06	263.03
482.42	263.20
482.79	263.48
483.15	263.82
483.52	264.23
483.88	264.61
484.25	265.02
484.61	265.45
484.98	265.91
485.34	266.49
485.71	267.10
486.07	267.75
486.44	268.33
486.80	269.03
487.17	269.78
487.53	270.63
487.90	271.51
488.26	272.48
488.62	273.46
488.99	274.44
489.35	275.49
489.72	276.69
490.08	277.93
490.44	279.20
490.81	280.53
491.17	281.86
491.54	283.32
491.90	284.87
492.26	286.51
492.63	288.29
492.99	290.06
493.36	291.96
493.72	293.97
494.08	296.12
494.45	298.40
494.81	300.79
495.17	303.22
495.54	305.81
495.90	308.51
496.26	311.36
496.63	314.33
496.99	317.41
497.35	320.64
497.72	324.07
498.08	327.64
498.44	331.37
498.80	335.31
499.17	339.35
499.53	343.51
499.89	347.90
500.26	352.39
500.62	357.05
500.98	361.98
501.34	367.12
501.71	372.47
502.07	377.94
502.43	383.50
502.79	389.30
503.16	395.34
503.52	401.59
503.88	407.99
504.24	414.63
504.60	421.56
504.97	428.71
505.33	436.04
505.69	443.70
506.05	451.41
506.41	459.29
506.78	467.53
507.14	476.02
507.50	484.77
507.86	493.80
508.22	502.96
508.59	512.24
508.95	521.78
509.31	531.52
509.67	541.58
510.03	551.92
510.39	562.40
510.75	573.26
511.12	584.21
511.48	595.50
511.84	606.98
512.20	618.50
512.56	630.33
512.92	642.45
513.28	654.83
513.64	667.32
514.00	680.03
514.37	692.91
514.73	705.95
515.09	718.92
515.45	732.10
515.81	745.69
516.17	759.57
516.53	773.62
516.89	787.78
517.25	801.97
517.61	816.34
517.97	830.85
518.33	845.22
518.69	859.85
519.05	874.76
519.41	889.90
519.77	905.33
520.13	920.78
520.49	936.10
520.85	951.42
521.21	967.08
521.57	983.30
521.93	998.96
522.29	1015.24
522.65	1031.45
523.01	1047.61
523.37	1063.59
523.73	1079.71
524.09	1095.79
524.45	1112.03
524.81	1128.57
525.17	1145.30
525.53	1162.11
525.89	1178.87
526.25	1195.61
526.61	1212.00
526.97	1228.61
527.33	1245.00
527.68	1261.54
528.04	1277.89
528.40	1294.38
528.76	1311.36
529.12	1327.79
529.48	1344.62
529.84	1360.62
530.20	1377.16
530.56	1394.11
530.91	1411.42
531.27	1428.17
531.63	1444.63
531.99	1460.96
532.35	1476.84
532.71	1492.64
533.07	1508.82
533.42	1524.61
533.78	1540.70
534.14	1556.92
534.50	1572.24
534.86	1588.12
535.21	1603.27
535.57	1619.17
535.93	1634.63
536.29	1649.35
536.65	1664.31
537.00	1679.02
537.36	1694.26
537.72	1708.77
538.08	1723.07
538.44	1736.81
538.79	1750.58
539.15	1763.97
539.51	1777.78
539.87	1792.10
540.22	1805.71
540.58	1819.45
540.94	1832.78
541.29	1845.62
541.65	1858.03
542.01	1871.09
542.37	1883.30
542.72	1895.68
543.08	1907.46
543.44	1919.68
543.79	1930.81
544.15	1941.83
544.51	1953.40
544.87	1964.23
545.22	1974.85
545.58	1985.14
545.94	1994.84
546.29	2004.57
546.65	2014.49
547.01	2023.63
547.36	2032.16
547.72	2040.60
548.07	2048.27
548.43	2056.31
548.79	2064.34
549.14	2071.95
549.50	2079.13
549.86	2086.69
550.21	2093.83
550.57	2100.85
550.92	2107.38
551.28	2114.35
551.64	2121.19
551.99	2127.55
552.35	2133.70
552.70	2139.87
553.06	2145.68
553.41	2152.09
553.77	2158.16
554.13	2164.24
554.48	2170.51
554.84	2175.92
555.19	2181.20
555.55	2186.32
555.90	2190.82
556.26	2195.61
556.61	2200.19
556.97	2204.63
557.32	2208.82
557.68	2213.03
558.03	2217.25
558.39	2221.14
558.74	2225.92
559.10	2229.83
559.45	2233.53
559.81	2237.81
560.16	2241.66
560.52	2244.92
560.87	2248.13
561.23	2250.63
561.58	2253.61
561.94	2255.99
562.29	2258.42
562.64	2261.12
563.00	2263.73
563.35	2267.26
563.71	2270.29
564.06	2273.62
564.42	2276.51
564.77	2278.95
565.12	2281.35
565.48	2283.33
565.83	2285.08
566.19	2286.27
566.54	2287.33
566.89	2288.53
567.25	2289.07
567.60	2290.35
567.96	2292.05
568.31	2293.11
568.66	2294.39
569.02	2294.83
569.37	2295.30
569.72	2296.29
570.08	2296.43
570.43	2296.63
570.78	2296.07
571.14	2294.57
571.49	2293.17
571.84	2292.87
572.20	2291.91
572.55	2290.80
572.90	2289.24
573.26	2287.86
573.61	2286.21
573.96	2284.45
574.31	2281.63
574.67	2278.79
575.02	2275.30
575.37	2272.01
575.72	2268.12
576.08	2264.88
576.43	2261.82
576.78	2258.23
577.13	2255.10
577.49	2252.13
577.84	2248.61
578.19	2244.91
578.54	2241.43
578.90	2237.27
579.25	2231.81
579.60	2226.85
579.95	2221.89
580.30	2217.05
580.66	2212.08
581.01	2207.22
581.36	2202.23
581.71	2198.06
582.06	2193.60
582.42	2189.24
582.77	2184.14
583.12	2179.68
583.47	2175.00
583.82	2170.07
584.17	2164.84
584.53	2159.36
584.88	2153.88
585.23	2148.27
585.58	2142.90
585.93	2137.50
586.28	2132.90
586.63	2127.77
586.98	2122.76
587.34	2118.08
587.69	2113.27
588.04	2107.95
588.39	2102.42
588.74	2096.07
589.09	2089.88
589.44	2083.19
589.79	2077.28
590.14	2071.76
590.49	2065.24
590.84	2058.85
591.19	2052.73
591.54	2046.26
591.89	2038.96
592.25	2032.09
592.60	2024.84
592.95	2017.39
593.30	2010.09
593.65	2002.50
594.00	1995.66
594.35	1988.42
594.70	1980.53
595.05	1973.38
595.40	1966.27
595.75	1958.82
596.10	1952.74
596.45	1946.09
596.80	1940.07
597.15	1933.42
597.50	1926.26
597.85	1919.88
598.19	1913.34
598.54	1906.26
598.89	1899.70
599.24	1893.97
599.59	1887.28
599.94	1881.22
600.29	1874.91
600.64	1868.41
600.99	1861.08
601.34	1854.22
601.69	1847.41
602.04	1840.56
602.39	1833.28
602.74	1826.46
603.08	1819.75
603.43	1813.11
603.78	1805.79
604.13	1798.46
604.48	1791.12
604.83	1784.25
605.18	1777.32
605.53	1769.40
605.87	1761.52
606.22	1754.37
606.57	1746.33
606.92	1739.16
607.27	1731.92
607.62	1724.95
607.96	1717.76
608.31	1711.26
608.66	1703.65
609.01	1696.13
609.36	1688.54
609.70	1680.60
610.05	1672.51
610.40	1664.71
610.75	1656.30
611.10	1648.67
611.44	1640.32
611.79	1632.38
612.14	1623.79
612.49	1614.62
612.83	1606.12
613.18	1597.91
613.53	1589.78
613.88	1581.14
614.22	1572.86
614.57	1564.33
614.92	1556.23
615.27	1548.66
615.61	1540.15
615.96	1532.20
616.31	1524.50
616.65	1517.17
617.00	1509.40
617.35	1501.77
617.70	1493.54
618.04	1485.02
618.39	1476.72
618.74	1469.15
619.08	1460.82
619.43	1453.20
619.78	1446.22
620.12	1439.10
620.47	1431.63
620.82	1423.49
621.16	1416.11
621.51	1408.41
621.85	1400.64
622.20	1392.13
622.55	1383.68
622.89	1375.95
623.24	1368.26
623.59	1360.79
623.93	1353.16
624.28	1346.09
624.62	1338.48
624.97	1331.23
625.32	1324.48
625.66	1317.52
626.01	1310.33
626.35	1302.86
626.70	1295.14
627.04	1287.41
627.39	1279.67
627.73	1272.27
628.08	1265.40
628.43	1258.24
628.77	1250.81
629.12	1243.35
629.46	1236.23
629.81	1228.85
630.15	1221.57
630.50	1214.14
630.84	1206.01
631.19	1198.23
631.53	1190.64
631.88	1183.17
632.22	1175.59
632.57	1168.24
632.91	1160.67
633.26	1153.19
633.60	1145.83
633.95	1138.67
634.29	1131.69
634.64	1124.93
634.98	1117.46
635.32	1110.25
635.67	1103.57
636.01	1096.99
636.36	1090.15
636.70	1083.67
637.05	1077.05
637.39	1070.51
637.73	1063.94
638.08	1058.05
638.42	1051.90
638.77	1045.49
639.11	1038.80
639.45	1032.45
639.80	1025.85
640.14	1019.54
640.49	1013.05
640.83	1006.69
641.17	1000.46
641.52	994.04
641.86	987.60
642.20	981.80
642.55	975.42
642.89	968.96
643.23	962.45
643.58	956.69
643.92	950.46
644.26	944.37
644.61	938.37
644.95	932.36
645.29	925.81
645.64	919.13
645.98	912.68
646.32	906.96
646.66	900.95
647.01	895.10
647.35	889.30
647.69	883.47
648.04	877.97
648.38	872.11
648.72	866.21
649.06	860.07
649.41	854.21
649.75	848.28
650.09	842.26
650.43	836.47
650.78	830.33
651.12	824.34
651.46	818.64
651.80	812.80
652.14	807.44
652.49	802.01
652.83	796.86
653.17	791.27
653.51	785.49
653.85	780.05
654.20	774.41
654.54	768.33
654.88	762.52
655.22	756.63
655.56	751.00
655.90	745.59
656.25	740.43
656.59	735.08
656.93	729.95
657.27	724.77
657.61	719.27
657.95	714.17
658.29	709.15
658.64	703.95
658.98	698.78
659.32	693.31
659.66	688.11
660.00	682.77
660.34	677.77
660.68	672.83
661.02	667.77
661.36	663.09
661.70	658.64
662.05	654.31
662.39	650.03
662.73	645.56
663.07	641.10
663.41	636.68
663.75	632.16
664.09	627.59
664.43	623.21
664.77	619.09
665.11	614.78
665.45	610.54
665.79	606.40
666.13	602.15
666.47	598.05
666.81	593.88
667.15	589.70
667.49	585.79
667.83	582.01
668.17	578.06
668.51	573.96
668.85	569.94
669.19	566.11
669.53	562.21
669.87	558.30
670.21	554.61
670.55	550.89
670.89	547.45
671.23	544.04
671.57	540.49
671.91	536.92
672.25	533.44
672.58	529.97
672.92	526.55
673.26	523.41
673.60	520.25
673.94	517.14
674.28	514.24
674.62	511.30
674.96	508.18
675.30	505.27
675.64	502.31
675.97	499.47
676.31	496.55
676.65	493.63
676.99	490.98
677.33	488.15
677.67	485.35
678.01	482.31
678.34	479.33
678.68	476.52
679.02	473.76
679.36	470.99
679.70	468.26
680.04	465.52
680.37	462.63
680.71	459.81
681.05	457.17
681.39	454.48
681.73	451.85
682.06	449.34
682.40	446.80
682.74	444.27
683.08	441.78
683.42	439.20
683.75	436.71
684.09	434.11
684.43	431.62
684.77	429.15
685.10	426.78
685.44	424.44
685.78	422.15
686.12	419.95
686.45	417.62
686.79	415.30
687.13	413.16
687.46	411.08
687.80	408.95
688.14	406.73
688.48	404.66
688.81	402.41
689.15	400.23
689.49	398.08
689.82	396.02
690.16	393.94
690.50	392.01
690.83	390.06
691.17	388.07
691.51	386.21
691.84	384.39
692.18	382.50
692.52	380.55
692.85	378.61
693.19	376.63
693.52	374.84
693.86	373.04
694.20	371.18
694.53	369.39
694.87	367.52
695.21	365.77
695.54	363.94
695.88	362.23
696.21	360.51
696.55	358.85
696.88	357.22
697.22	355.54
697.56	353.86
697.89	352.17
698.23	350.62
698.56	348.99
698.90	347.37
699.23	345.73
699.57	344.17
699.90	342.68
700.24	341.17
700.58	339.64
700.91	338.13
701.25	336.68
701.58	335.30
701.92	333.96
702.25	332.56
702.59	331.20
702.92	329.86
703.26	328.55
703.59	327.23
703.93	326.01
704.26	324.73
704.60	323.44
704.93	322.20
705.26	320.93
705.60	319.73
705.93	318.62
706.27	317.56
706.60	316.47
706.94	315.37
707.27	314.25
707.61	313.20
707.94	312.17
708.27	311.12
708.61	309.95
708.94	308.96
709.28	307.95
709.61	306.96
709.94	305.99
710.28	304.96
710.61	303.99
710.95	302.86
711.28	301.98
711.61	301.05
711.95	300.15
712.28	299.20
712.61	298.20
712.95	297.20
713.28	296.33
713.61	295.44
713.95	294.52
714.28	293.67
714.61	292.78
714.95	291.92
715.28	291.08
715.61	290.22
715.95	289.33
716.28	288.49
716.61	287.67
716.95	286.86
717.28	286.13
717.61	285.37
717.94	284.73
718.28	283.95
718.61	283.22
718.94	282.51
719.27	281.85
719.61	281.20
719.94	280.59
720.27	279.86
720.60	279.24
720.94	278.63
721.27	278.01
721.60	277.47
721.93	276.86
722.27	276.28
722.60	275.77
722.93	275.21
723.26	274.67
723.59	274.12
723.93	273.57
724.26	273.00
724.59	272.45
724.92	271.85
725.25	271.33
725.59	270.84
725.92	270.36
726.25	269.85
726.58	269.36
726.91	268.85
727.24	268.39
727.57	267.90
727.91	267.35
728.24	266.91
728.57	266.42
728.90	265.98
729.23	265.50
729.56	265.09
729.89	264.63
730.22	264.17
730.55	263.70
730.89	263.23
731.22	262.79
731.55	262.35
731.88	261.94
732.21	261.50
732.54	261.03
732.87	260.60
733.20	260.18
733.53	259.82
733.86	259.45
734.19	259.08
734.52	258.70
734.85	258.42
735.18	258.00
735.51	257.64
735.84	257.29
736.17	256.93
736.50	256.50
736.83	256.26
737.16	255.89
737.49	255.59
737.82	255.25
738.15	254.93
738.48	254.61
738.81	254.32
739.14	254.01
739.47	253.69
739.80	253.36
740.13	253.09
740.46	252.75
740.79	252.40
741.12	252.11
741.45	251.78
741.78	251.40
742.11	251.13
742.44	250.81
742.77	250.51
743.10	250.20
743.43	249.91
743.75	249.51
744.08	249.39
744.41	249.08
744.74	248.85
745.07	248.54
745.40	248.28
745.73	248.02
746.06	247.73
746.39	247.50
746.71	247.19
747.04	246.88
747.37	246.59
747.70	246.35
748.03	246.05
748.36	245.84
748.68	245.61
749.01	245.38
749.34	245.13
749.67	244.93
750.00	244.72
750.33	244.59
750.65	244.39
750.98	244.05
751.31	243.86
751.64	243.61
751.97	243.47
752.29	243.26
752.62	243.01
752.95	242.80
753.28	242.56
753.60	242.40
753.93	242.26
754.26	242.08
754.59	241.89
754.91	241.69
755.24	241.47
755.57	241.28
755.90	241.05
756.22	240.87
756.55	240.62
756.88	240.43
757.20	240.17
757.53	239.97
757.86	239.78
758.19	239.62
758.51	239.42
758.84	239.19
759.17	238.99
759.49	238.83
759.82	238.74
760.15	238.61
760.47	238.49
760.80	238.29
761.13	238.18
761.45	238.04
761.78	237.90
762.11	237.76
762.43	237.61
762.76	237.51
763.08	237.38
763.41	237.26
763.74	237.13
764.06	236.97
764.39	236.82
764.71	236.68
765.04	236.55
765.37	236.46
765.69	236.34
766.02	236.23
766.34	236.09
766.67	235.93
767.00	235.83
767.32	235.75
767.65	235.70
767.97	235.54
768.30	235.40
768.62	235.29
768.95	235.18
769.27	235.10
769.60	234.99
769.92	234.88
770.25	234.78
770.57	234.63
770.90	234.54
771.22	234.43
771.55	234.34
771.87	234.23
772.20	234.12
772.52	234.07
772.85	234.08
773.17	233.99
773.50	233.89
773.82	233.77
774.15	233.62
774.47	233.46
774.80	233.38
775.12	233.29
775.45	233.21
775.77	233.09
776.09	232.98
776.42	232.88
776.74	232.80
777.07	232.74
777.39	232.71
777.72	232.66
778.04	232.62
778.36	232.55
778.69	232.47
779.01	232.40
779.33	232.27
779.66	232.10
779.98	232.05
780.31	231.96
780.63	231.96
780.95	231.90
781.28	231.86
781.60	231.78
781.92	231.73
782.25	231.68
782.57	231.63
782.89	231.56
783.22	231.53
783.54	231.47
783.86	231.41
784.19	231.33
784.51	231.27
784.83	231.17
785.16	231.09
785.48	231.05
785.80	231.03
786.12	230.98
786.45	230.91
786.77	230.86
787.09	230.83
