SpectraSuite Data File
++++++++++++++++++++++++++++++++++++
Date: Fri Feb 01 16:07:00 EST 2013
User: group
Dark Spectrum Present: No
Reference Spectrum Present: No
Number of Sampled Component Spectra: 1
Spectrometers: USB2E7196
Integration Time (usec): 35000 (USB2E7196)
Spectra Averaged: 100 (USB2E7196)
Boxcar Smoothing: 10 (USB2E7196)
Correct for Electrical Dark: No (USB2E7196)
Strobe/Lamp Enabled: No (USB2E7196)
Correct for Detector Non-linearity: No (USB2E7196)
Correct for Stray Light: No (USB2E7196)
Number of Pixels in Processed Spectrum: 2048
>>>>>Begin Processed Spectral Data<<<<<
339.09	0.00
339.48	214.54
339.86	215.81
340.24	217.20
340.63	218.83
341.01	221.51
341.39	221.23
341.78	223.14
342.16	224.13
342.54	224.16
342.93	212.85
343.31	223.60
343.69	224.13
344.07	224.66
344.46	225.08
344.84	225.47
345.22	225.70
345.60	225.97
345.99	226.13
346.37	226.26
346.75	226.39
347.13	226.46
347.52	226.52
347.90	226.56
348.28	226.60
348.66	226.66
349.05	226.65
349.43	226.67
349.81	226.72
350.19	226.77
350.57	226.82
350.96	226.86
351.34	226.94
351.72	227.04
352.10	227.08
352.48	227.19
352.87	227.25
353.25	227.33
353.63	227.38
354.01	227.47
354.39	227.54
354.77	227.62
355.15	227.71
355.54	227.78
355.92	227.84
356.30	227.92
356.68	228.06
357.06	228.14
357.44	228.21
357.82	228.28
358.20	228.37
358.58	228.43
358.97	228.53
359.35	228.63
359.73	228.69
360.11	228.74
360.49	228.78
360.87	228.82
361.25	228.88
361.63	228.95
362.01	228.96
362.39	228.99
362.77	229.01
363.15	229.04
363.53	229.09
363.91	229.13
364.29	229.15
364.67	229.05
365.05	229.07
365.43	229.08
365.81	229.10
366.19	229.14
366.57	229.18
366.95	229.17
367.33	229.13
367.71	229.12
368.09	229.13
368.47	229.11
368.85	229.10
369.23	229.08
369.61	229.04
369.99	229.06
370.37	229.06
370.75	229.07
371.13	229.03
371.51	228.96
371.89	228.90
372.27	228.85
372.65	228.83
373.03	228.80
373.41	228.74
373.78	228.65
374.16	228.52
374.54	228.41
374.92	228.33
375.30	228.27
375.68	228.20
376.06	228.13
376.44	228.03
376.82	227.97
377.19	227.89
377.57	227.80
377.95	227.67
378.33	227.61
378.71	227.51
379.09	227.44
379.47	227.38
379.84	227.30
380.22	227.26
380.60	227.18
380.98	227.09
381.36	227.02
381.73	226.94
382.11	226.93
382.49	226.88
382.87	226.80
383.25	226.73
383.62	226.79
384.00	226.68
384.38	226.67
384.76	226.61
385.13	226.58
385.51	226.53
385.89	226.50
386.27	226.42
386.64	226.36
387.02	226.35
387.40	226.29
387.78	226.27
388.15	226.20
388.53	226.17
388.91	226.15
389.29	226.10
389.66	226.11
390.04	226.06
390.42	226.08
390.79	226.07
391.17	226.05
391.55	225.93
391.92	225.94
392.30	225.90
392.68	225.89
393.05	225.86
393.43	225.87
393.81	225.88
394.18	225.88
394.56	225.88
394.94	225.86
395.31	225.93
395.69	225.99
396.06	226.04
396.44	226.07
396.82	226.08
397.19	226.20
397.57	226.22
397.95	226.31
398.32	226.32
398.70	226.37
399.07	226.46
399.45	226.52
399.82	226.60
400.20	226.69
400.58	226.75
400.95	226.82
401.33	226.92
401.70	227.07
402.08	227.17
402.45	227.30
402.83	227.46
403.20	227.54
403.58	227.65
403.95	227.77
404.33	227.93
404.71	228.09
405.08	228.26
405.46	228.42
405.83	228.54
406.21	228.70
406.58	228.89
406.96	229.06
407.33	229.25
407.70	229.49
408.08	229.76
408.45	230.03
408.83	230.27
409.20	230.50
409.58	230.69
409.95	230.96
410.33	231.24
410.70	231.48
411.08	231.77
411.45	232.08
411.82	232.40
412.20	232.77
412.57	233.15
412.95	233.45
413.32	233.86
413.69	234.27
414.07	234.70
414.44	235.19
414.82	235.66
415.19	236.20
415.56	236.72
415.94	237.29
416.31	237.92
416.68	238.58
417.06	239.33
417.43	240.01
417.81	240.76
418.18	241.53
418.55	242.38
418.93	243.28
419.30	244.14
419.67	245.06
420.04	246.00
420.42	246.98
420.79	248.15
421.16	249.32
421.54	250.51
421.91	251.74
422.28	252.96
422.66	254.27
423.03	255.55
423.40	256.87
423.77	258.24
424.15	259.68
424.52	261.13
424.89	262.72
425.26	264.27
425.64	265.73
426.01	267.29
426.38	268.93
426.75	270.58
427.13	272.29
427.50	274.11
427.87	275.97
428.24	277.83
428.61	279.57
428.99	281.47
429.36	283.52
429.73	285.56
430.10	287.57
430.47	289.63
430.85	291.79
431.22	294.01
431.59	296.36
431.96	298.58
432.33	301.07
432.70	303.42
433.08	306.18
433.45	308.80
433.82	311.46
434.19	314.32
434.56	317.09
434.93	319.73
435.30	322.33
435.68	325.18
436.05	328.01
436.42	330.76
436.79	333.25
437.16	335.97
437.53	338.80
437.90	341.60
438.27	344.35
438.64	347.13
439.01	349.69
439.38	351.93
439.75	354.02
440.13	356.47
440.50	358.77
440.87	360.60
441.24	362.54
441.61	364.63
441.98	366.10
442.35	367.91
442.72	369.75
443.09	371.52
443.46	372.51
443.83	373.08
444.20	373.66
444.57	374.51
444.94	374.80
445.31	375.08
445.68	375.44
446.05	375.49
446.42	375.12
446.79	374.73
447.16	374.25
447.53	373.92
447.90	372.79
448.27	371.63
448.64	370.07
449.01	368.91
449.37	366.92
449.74	365.06
450.11	362.82
450.48	360.38
450.85	357.88
451.22	355.76
451.59	353.75
451.96	351.75
452.33	349.17
452.70	346.78
453.07	344.04
453.43	341.17
453.80	338.40
454.17	335.73
454.54	333.20
454.91	330.52
455.28	327.87
455.65	325.42
456.02	323.03
456.38	320.93
456.75	318.32
457.12	316.14
457.49	313.93
457.86	311.78
458.23	309.88
458.59	307.90
458.96	305.86
459.33	304.02
459.70	302.15
460.07	300.63
460.43	298.98
460.80	297.34
461.17	295.90
461.54	294.43
461.91	293.03
462.27	291.60
462.64	290.38
463.01	289.07
463.38	287.78
463.74	286.42
464.11	285.23
464.48	284.20
464.85	283.05
465.21	282.18
465.58	281.29
465.95	280.24
466.32	279.30
466.68	278.39
467.05	277.52
467.42	276.67
467.78	275.75
468.15	274.84
468.52	274.18
468.88	273.33
469.25	272.56
469.62	271.95
469.98	271.27
470.35	270.65
470.72	270.07
471.08	269.40
471.45	268.87
471.82	268.35
472.18	267.78
472.55	267.36
472.92	266.90
473.28	266.44
473.65	266.00
474.02	265.62
474.38	265.26
474.75	264.93
475.11	264.59
475.48	264.37
475.85	264.17
476.21	263.94
476.58	263.77
476.94	263.61
477.31	263.41
477.67	263.26
478.04	263.14
478.41	263.08
478.77	263.11
479.14	263.03
479.50	263.04
479.87	263.11
480.23	263.18
480.60	263.17
480.96	263.23
481.33	263.45
481.69	263.58
482.06	263.75
482.42	263.93
482.79	264.18
483.15	264.45
483.52	264.81
483.88	265.11
484.25	265.45
484.61	265.87
484.98	266.33
485.34	266.85
485.71	267.42
486.07	267.98
486.44	268.54
486.80	269.24
487.17	269.93
487.53	270.71
487.90	271.53
488.26	272.48
488.62	273.48
488.99	274.42
489.35	275.44
489.72	276.54
490.08	277.73
490.44	278.98
490.81	280.30
491.17	281.59
491.54	283.11
491.90	284.64
492.26	286.29
492.63	287.99
492.99	289.76
493.36	291.64
493.72	293.69
494.08	295.78
494.45	298.00
494.81	300.38
495.17	302.80
495.54	305.40
495.90	308.05
496.26	310.88
496.63	313.89
496.99	317.02
497.35	320.31
497.72	323.73
498.08	327.28
498.44	330.96
498.80	334.91
499.17	339.00
499.53	343.20
499.89	347.62
500.26	352.14
500.62	356.90
500.98	361.90
501.34	367.00
501.71	372.41
502.07	377.91
502.43	383.53
502.79	389.41
503.16	395.53
503.52	401.88
503.88	408.29
504.24	414.92
504.60	421.88
504.97	429.01
505.33	436.37
505.69	444.10
506.05	451.91
506.41	459.88
506.78	468.04
507.14	476.60
507.50	485.28
507.86	494.35
508.22	503.55
508.59	512.71
508.95	522.32
509.31	532.08
509.67	542.17
510.03	552.52
510.39	563.06
510.75	573.86
511.12	584.81
511.48	596.09
511.84	607.50
512.20	618.97
512.56	630.96
512.92	643.15
513.28	655.48
513.64	668.00
514.00	680.74
514.37	693.70
514.73	706.68
515.09	719.76
515.45	733.08
515.81	746.67
516.17	760.71
516.53	774.87
516.89	789.07
517.25	803.24
517.61	817.62
517.97	832.09
518.33	846.53
518.69	861.37
519.05	876.40
519.41	891.69
519.77	907.17
520.13	922.61
520.49	937.94
520.85	953.31
521.21	969.02
521.57	985.10
521.93	1000.70
522.29	1017.04
522.65	1033.19
523.01	1049.35
523.37	1065.32
523.73	1081.52
524.09	1097.54
524.45	1113.77
524.81	1130.30
525.17	1147.08
525.53	1163.91
525.89	1180.71
526.25	1197.39
526.61	1213.66
526.97	1230.27
527.33	1246.71
527.68	1263.31
528.04	1279.79
528.40	1296.32
528.76	1313.24
529.12	1329.81
529.48	1346.72
529.84	1362.69
530.20	1379.33
530.56	1396.29
530.91	1413.66
531.27	1430.31
531.63	1446.72
531.99	1463.19
532.35	1479.21
532.71	1495.05
533.07	1511.31
533.42	1527.06
533.78	1543.02
534.14	1559.28
534.50	1574.65
534.86	1590.44
535.21	1605.44
535.57	1621.23
535.93	1636.67
536.29	1651.41
536.65	1666.42
537.00	1681.18
537.36	1696.41
537.72	1710.87
538.08	1725.19
538.44	1738.82
538.79	1752.65
539.15	1766.20
539.51	1780.01
539.87	1794.32
540.22	1807.89
540.58	1821.47
540.94	1834.79
541.29	1847.68
541.65	1860.23
542.01	1873.28
542.37	1885.69
542.72	1898.20
543.08	1909.90
543.44	1922.30
543.79	1933.44
544.15	1944.44
544.51	1955.84
544.87	1966.73
545.22	1977.38
545.58	1987.50
545.94	1997.29
546.29	2007.11
546.65	2017.08
547.01	2026.27
547.36	2034.87
547.72	2043.43
548.07	2051.32
548.43	2059.47
548.79	2067.47
549.14	2074.94
549.50	2082.29
549.86	2089.81
550.21	2097.09
550.57	2104.28
550.92	2110.81
551.28	2118.08
551.64	2125.21
551.99	2131.79
552.35	2138.02
552.70	2144.32
553.06	2150.40
553.41	2156.75
553.77	2162.78
554.13	2168.69
554.48	2174.87
554.84	2180.34
555.19	2185.64
555.55	2190.93
555.90	2195.44
556.26	2200.43
556.61	2205.27
556.97	2209.61
557.32	2213.65
557.68	2217.66
558.03	2221.95
558.39	2225.59
558.74	2230.07
559.10	2233.94
559.45	2237.59
559.81	2241.97
560.16	2245.77
560.52	2249.07
560.87	2252.48
561.23	2255.28
561.58	2258.20
561.94	2260.69
562.29	2262.98
562.64	2265.66
563.00	2268.17
563.35	2271.68
563.71	2274.58
564.06	2277.78
564.42	2280.64
564.77	2283.33
565.12	2285.88
565.48	2287.82
565.83	2289.76
566.19	2291.19
566.54	2291.92
566.89	2293.14
567.25	2293.73
567.60	2294.95
567.96	2296.61
568.31	2297.52
568.66	2298.45
569.02	2299.15
569.37	2299.49
569.72	2300.45
570.08	2300.68
570.43	2300.64
570.78	2300.13
571.14	2298.68
571.49	2297.31
571.84	2296.89
572.20	2295.84
572.55	2294.57
572.90	2292.85
573.26	2291.42
573.61	2289.50
573.96	2287.79
574.31	2284.83
574.67	2281.82
575.02	2278.20
575.37	2274.77
575.72	2270.93
576.08	2267.72
576.43	2264.30
576.78	2260.63
577.13	2257.40
577.49	2254.29
577.84	2250.79
578.19	2247.05
578.54	2243.47
578.90	2239.21
579.25	2233.74
579.60	2228.78
579.95	2223.84
580.30	2218.91
580.66	2213.75
581.01	2208.90
581.36	2204.10
581.71	2199.88
582.06	2195.33
582.42	2190.98
582.77	2185.80
583.12	2181.42
583.47	2176.66
583.82	2171.68
584.17	2166.53
584.53	2161.17
584.88	2155.49
585.23	2149.88
585.58	2144.28
585.93	2138.78
586.28	2134.12
586.63	2129.14
586.98	2123.99
587.34	2119.24
587.69	2114.47
588.04	2109.27
588.39	2103.73
588.74	2097.25
589.09	2091.08
589.44	2084.44
589.79	2078.35
590.14	2072.68
590.49	2065.99
590.84	2059.53
591.19	2053.56
591.54	2047.05
591.89	2039.67
592.25	2032.98
592.60	2025.79
592.95	2018.30
593.30	2010.92
593.65	2003.28
594.00	1996.31
594.35	1989.03
594.70	1981.04
595.05	1973.93
595.40	1966.64
595.75	1959.09
596.10	1952.89
596.45	1946.21
596.80	1940.18
597.15	1933.71
597.50	1926.82
597.85	1920.41
598.19	1913.83
598.54	1906.79
598.89	1900.25
599.24	1894.26
599.59	1887.55
599.94	1881.28
600.29	1875.01
600.64	1868.52
600.99	1861.18
601.34	1854.24
601.69	1847.40
602.04	1840.66
602.39	1833.17
602.74	1826.41
603.08	1819.75
603.43	1813.01
603.78	1805.68
604.13	1798.32
604.48	1790.99
604.83	1783.99
605.18	1777.01
605.53	1769.02
605.87	1761.04
606.22	1753.74
606.57	1745.88
606.92	1738.44
607.27	1731.29
607.62	1724.46
607.96	1717.29
608.31	1710.74
608.66	1703.16
609.01	1695.63
609.36	1688.02
609.70	1680.08
610.05	1672.07
610.40	1664.35
610.75	1656.05
611.10	1648.42
611.44	1639.96
611.79	1631.94
612.14	1623.29
612.49	1614.08
612.83	1605.66
613.18	1597.48
613.53	1589.35
613.88	1580.77
614.22	1572.56
614.57	1563.92
614.92	1555.86
615.27	1548.24
615.61	1539.85
615.96	1531.72
616.31	1524.08
616.65	1516.65
617.00	1509.11
617.35	1501.32
617.70	1492.96
618.04	1484.48
618.39	1476.23
618.74	1468.76
619.08	1460.42
619.43	1452.75
619.78	1445.87
620.12	1438.78
620.47	1431.32
620.82	1423.22
621.16	1415.82
621.51	1408.29
621.85	1400.73
622.20	1392.27
622.55	1383.84
622.89	1375.99
623.24	1368.45
623.59	1360.91
623.93	1353.37
624.28	1346.09
624.62	1338.61
624.97	1331.46
625.32	1324.70
625.66	1317.61
626.01	1310.33
626.35	1302.95
626.70	1295.27
627.04	1287.60
627.39	1279.83
627.73	1272.34
628.08	1265.28
628.43	1258.02
628.77	1250.51
629.12	1242.88
629.46	1235.62
629.81	1228.16
630.15	1220.92
630.50	1213.41
630.84	1205.21
631.19	1197.30
631.53	1189.78
631.88	1182.18
632.22	1174.55
632.57	1167.17
632.91	1159.75
633.26	1152.32
633.60	1144.87
633.95	1137.73
634.29	1130.68
634.64	1123.94
634.98	1116.60
635.32	1109.49
635.67	1102.87
636.01	1096.31
636.36	1089.52
636.70	1082.90
637.05	1076.41
637.39	1069.92
637.73	1063.52
638.08	1057.72
638.42	1051.78
638.77	1045.36
639.11	1038.83
639.45	1032.40
639.80	1025.76
640.14	1019.36
640.49	1012.92
640.83	1006.72
641.17	1000.53
641.52	994.15
641.86	987.77
642.20	982.00
642.55	975.72
642.89	969.31
643.23	962.72
643.58	956.95
643.92	950.88
644.26	944.88
644.61	938.92
644.95	932.84
645.29	926.31
645.64	919.51
645.98	913.18
646.32	907.46
646.66	901.50
647.01	895.72
647.35	890.00
647.69	884.16
648.04	878.55
648.38	872.73
648.72	866.76
649.06	860.64
649.41	854.65
649.75	848.78
650.09	842.81
650.43	837.06
650.78	830.89
651.12	824.97
651.46	819.17
651.80	813.46
652.14	808.17
652.49	802.70
652.83	797.60
653.17	791.89
653.51	786.07
653.85	780.62
654.20	774.97
654.54	768.91
654.88	763.15
655.22	757.26
655.56	751.60
655.90	746.18
656.25	740.91
656.59	735.54
656.93	730.40
657.27	725.23
657.61	719.76
657.95	714.67
658.29	709.53
658.64	704.35
658.98	698.97
659.32	693.47
659.66	688.30
660.00	682.93
660.34	678.02
660.68	673.12
661.02	668.08
661.36	663.39
661.70	658.93
662.05	654.55
662.39	650.24
662.73	645.82
663.07	641.35
663.41	636.95
663.75	632.52
664.09	627.95
664.43	623.54
664.77	619.44
665.11	615.23
665.45	611.11
665.79	606.94
666.13	602.79
666.47	598.63
666.81	594.46
667.15	590.28
667.49	586.33
667.83	582.47
668.17	578.50
668.51	574.41
668.85	570.36
669.19	566.51
669.53	562.61
669.87	558.65
670.21	554.98
670.55	551.32
670.89	547.86
671.23	544.44
671.57	540.94
671.91	537.34
672.25	533.77
672.58	530.21
672.92	526.82
673.26	523.65
673.60	520.55
673.94	517.49
674.28	514.62
674.62	511.70
674.96	508.57
675.30	505.72
675.64	502.80
675.97	500.05
676.31	497.14
676.65	494.30
676.99	491.66
677.33	488.81
677.67	485.97
678.01	482.93
678.34	480.00
678.68	477.17
679.02	474.38
679.36	471.66
679.70	468.93
680.04	466.17
680.37	463.32
680.71	460.49
681.05	457.84
681.39	455.13
681.73	452.46
682.06	449.94
682.40	447.40
682.74	444.82
683.08	442.27
683.42	439.66
683.75	437.13
684.09	434.56
684.43	432.10
684.77	429.65
685.10	427.28
685.44	424.96
685.78	422.62
686.12	420.38
686.45	418.09
686.79	415.84
687.13	413.67
687.46	411.50
687.80	409.36
688.14	407.20
688.48	405.18
688.81	402.96
689.15	400.85
689.49	398.74
689.82	396.69
690.16	394.60
690.50	392.65
690.83	390.75
691.17	388.75
691.51	386.87
691.84	385.07
692.18	383.19
692.52	381.18
692.85	379.23
693.19	377.38
693.52	375.63
693.86	373.81
694.20	372.07
694.53	370.32
694.87	368.50
695.21	366.69
695.54	364.84
695.88	363.14
696.21	361.36
696.55	359.64
696.88	357.94
697.22	356.25
697.56	354.61
697.89	352.99
698.23	351.36
698.56	349.72
698.90	348.11
699.23	346.47
699.57	344.91
699.90	343.41
700.24	341.84
700.58	340.25
700.91	338.75
701.25	337.27
701.58	335.87
701.92	334.44
702.25	333.02
702.59	331.68
702.92	330.32
703.26	329.07
703.59	327.80
703.93	326.62
704.26	325.42
704.60	324.19
704.93	322.88
705.26	321.61
705.60	320.42
705.93	319.26
706.27	318.21
706.60	317.15
706.94	316.02
707.27	314.85
707.61	313.78
707.94	312.72
708.27	311.64
708.61	310.53
708.94	309.55
709.28	308.60
709.61	307.62
709.94	306.68
710.28	305.62
710.61	304.61
710.95	303.52
711.28	302.58
711.61	301.58
711.95	300.71
712.28	299.78
712.61	298.80
712.95	297.85
713.28	296.94
713.61	296.03
713.95	295.16
714.28	294.35
714.61	293.48
714.95	292.64
715.28	291.80
715.61	290.93
715.95	290.09
716.28	289.21
716.61	288.36
716.95	287.54
717.28	286.78
717.61	286.02
717.94	285.31
718.28	284.51
718.61	283.85
718.94	283.12
719.27	282.47
719.61	281.84
719.94	281.16
720.27	280.48
720.60	279.84
720.94	279.20
721.27	278.60
721.60	278.04
721.93	277.43
722.27	276.90
722.60	276.34
722.93	275.76
723.26	275.26
723.59	274.73
723.93	274.18
724.26	273.64
724.59	273.07
724.92	272.55
725.25	272.07
725.59	271.52
725.92	271.01
726.25	270.53
726.58	270.02
726.91	269.55
727.24	269.06
727.57	268.60
727.91	268.11
728.24	267.65
728.57	267.19
728.90	266.73
729.23	266.19
729.56	265.75
729.89	265.28
730.22	264.77
730.55	264.29
730.89	263.83
731.22	263.36
731.55	262.93
731.88	262.50
732.21	262.06
732.54	261.64
732.87	261.19
733.20	260.74
733.53	260.37
733.86	259.97
734.19	259.58
734.52	259.18
734.85	258.87
735.18	258.44
735.51	258.07
735.84	257.72
736.17	257.37
736.50	256.99
736.83	256.77
737.16	256.49
737.49	256.16
737.82	255.82
738.15	255.53
738.48	255.22
738.81	254.89
739.14	254.51
739.47	254.18
739.80	253.88
740.13	253.61
740.46	253.27
740.79	253.00
741.12	252.69
741.45	252.37
741.78	252.04
742.11	251.78
742.44	251.46
742.77	251.16
743.10	250.87
743.43	250.57
743.75	250.17
744.08	249.96
744.41	249.67
744.74	249.39
745.07	249.09
745.40	248.81
745.73	248.55
746.06	248.29
746.39	248.02
746.71	247.77
747.04	247.47
747.37	247.23
747.70	246.95
748.03	246.69
748.36	246.49
748.68	246.20
749.01	245.93
749.34	245.66
749.67	245.37
750.00	245.13
750.33	245.00
750.65	244.77
750.98	244.45
751.31	244.21
751.64	243.99
751.97	243.81
752.29	243.60
752.62	243.33
752.95	243.11
753.28	242.90
753.60	242.69
753.93	242.50
754.26	242.27
754.59	242.03
754.91	241.79
755.24	241.58
755.57	241.40
755.90	241.24
756.22	241.02
756.55	240.87
756.88	240.65
757.20	240.35
757.53	240.20
757.86	240.01
758.19	239.89
758.51	239.72
758.84	239.48
759.17	239.33
759.49	239.20
759.82	239.09
760.15	238.96
760.47	238.78
760.80	238.62
761.13	238.50
761.45	238.37
761.78	238.24
762.11	238.10
762.43	237.96
762.76	237.82
763.08	237.71
763.41	237.54
763.74	237.41
764.06	237.32
764.39	237.16
764.71	237.04
765.04	236.92
765.37	236.81
765.69	236.75
766.02	236.61
766.34	236.47
766.67	236.32
767.00	236.19
767.32	236.15
767.65	236.10
767.97	236.00
768.30	235.90
768.62	235.79
768.95	235.67
769.27	235.57
769.60	235.47
769.92	235.36
770.25	235.26
770.57	235.15
770.90	235.06
771.22	234.99
771.55	234.89
771.87	234.79
772.20	234.67
772.52	234.64
772.85	234.67
773.17	234.61
773.50	234.56
773.82	234.47
774.15	234.33
774.47	234.18
774.80	234.07
775.12	233.95
775.45	233.87
775.77	233.81
776.09	233.72
776.42	233.61
776.74	233.59
777.07	233.55
777.39	233.51
777.72	233.41
778.04	233.33
778.36	233.23
778.69	233.16
779.01	233.11
779.33	232.97
779.66	232.78
779.98	232.71
780.31	232.65
780.63	232.63
780.95	232.55
781.28	232.50
781.60	232.42
781.92	232.41
782.25	232.35
782.57	232.22
782.89	232.16
783.22	232.14
783.54	232.05
783.86	232.00
784.19	231.95
784.51	231.93
784.83	231.88
785.16	231.83
785.48	231.76
785.80	231.69
786.12	231.65
786.45	231.60
786.77	231.58
787.09	231.48
