SpectraSuite Data File
++++++++++++++++++++++++++++++++++++
Date: Fri Feb 01 15:13:13 EST 2013
User: group
Dark Spectrum Present: No
Reference Spectrum Present: No
Number of Sampled Component Spectra: 1
Spectrometers: USB2E7196
Integration Time (usec): 35000 (USB2E7196)
Spectra Averaged: 100 (USB2E7196)
Boxcar Smoothing: 10 (USB2E7196)
Correct for Electrical Dark: No (USB2E7196)
Strobe/Lamp Enabled: No (USB2E7196)
Correct for Detector Non-linearity: No (USB2E7196)
Correct for Stray Light: No (USB2E7196)
Number of Pixels in Processed Spectrum: 2048
>>>>>Begin Processed Spectral Data<<<<<
339.09	0.00
339.48	214.93
339.86	216.47
340.24	218.37
340.63	219.85
341.01	222.35
341.39	221.71
341.78	222.83
342.16	224.58
342.54	224.75
342.93	213.30
343.31	224.09
343.69	224.64
344.07	225.12
344.46	225.53
344.84	225.86
345.22	226.07
345.60	226.34
345.99	226.54
346.37	226.68
346.75	226.78
347.13	226.85
347.52	226.90
347.90	227.00
348.28	227.01
348.66	227.10
349.05	227.09
349.43	227.09
349.81	227.16
350.19	227.21
350.57	227.28
350.96	227.36
351.34	227.43
351.72	227.50
352.10	227.59
352.48	227.62
352.87	227.73
353.25	227.83
353.63	227.90
354.01	227.98
354.39	228.04
354.77	228.11
355.15	228.22
355.54	228.28
355.92	228.30
356.30	228.34
356.68	228.46
357.06	228.54
357.44	228.60
357.82	228.67
358.20	228.76
358.58	228.79
358.97	228.85
359.35	228.90
359.73	228.96
360.11	229.02
360.49	229.09
360.87	229.09
361.25	229.13
361.63	229.21
362.01	229.25
362.39	229.31
362.77	229.37
363.15	229.36
363.53	229.37
363.91	229.42
364.29	229.45
364.67	229.39
365.05	229.40
365.43	229.44
365.81	229.46
366.19	229.47
366.57	229.52
366.95	229.53
367.33	229.53
367.71	229.55
368.09	229.54
368.47	229.52
368.85	229.56
369.23	229.54
369.61	229.44
369.99	229.45
370.37	229.40
370.75	229.43
371.13	229.40
371.51	229.36
371.89	229.32
372.27	229.27
372.65	229.21
373.03	229.17
373.41	229.12
373.78	229.05
374.16	229.00
374.54	228.91
374.92	228.82
375.30	228.76
375.68	228.65
376.06	228.57
376.44	228.51
376.82	228.40
377.19	228.32
377.57	228.26
377.95	228.16
378.33	228.09
378.71	227.92
379.09	227.86
379.47	227.80
379.84	227.69
380.22	227.63
380.60	227.56
380.98	227.47
381.36	227.39
381.73	227.33
382.11	227.24
382.49	227.15
382.87	227.09
383.25	227.01
383.62	227.08
384.00	227.02
384.38	226.94
384.76	226.88
385.13	226.86
385.51	226.79
385.89	226.73
386.27	226.66
386.64	226.66
387.02	226.57
387.40	226.53
387.78	226.51
388.15	226.48
388.53	226.45
388.91	226.47
389.29	226.44
389.66	226.41
390.04	226.38
390.42	226.39
390.79	226.34
391.17	226.35
391.55	226.25
391.92	226.25
392.30	226.28
392.68	226.30
393.05	226.30
393.43	226.32
393.81	226.30
394.18	226.32
394.56	226.31
394.94	226.37
395.31	226.38
395.69	226.43
396.06	226.46
396.44	226.52
396.82	226.51
397.19	226.60
397.57	226.62
397.95	226.68
398.32	226.71
398.70	226.79
399.07	226.86
399.45	226.91
399.82	226.96
400.20	227.01
400.58	227.04
400.95	227.09
401.33	227.20
401.70	227.38
402.08	227.47
402.45	227.60
402.83	227.74
403.20	227.88
403.58	227.99
403.95	228.14
404.33	228.24
404.71	228.39
405.08	228.54
405.46	228.70
405.83	228.83
406.21	229.01
406.58	229.18
406.96	229.36
407.33	229.55
407.70	229.77
408.08	230.05
408.45	230.29
408.83	230.54
409.20	230.78
409.58	231.00
409.95	231.26
410.33	231.56
410.70	231.78
411.08	232.09
411.45	232.38
411.82	232.69
412.20	233.07
412.57	233.49
412.95	233.79
413.32	234.19
413.69	234.65
414.07	235.08
414.44	235.58
414.82	236.09
415.19	236.64
415.56	237.21
415.94	237.76
416.31	238.43
416.68	239.07
417.06	239.78
417.43	240.44
417.81	241.23
418.18	241.97
418.55	242.82
418.93	243.67
419.30	244.57
419.67	245.51
420.04	246.47
420.42	247.43
420.79	248.64
421.16	249.80
421.54	250.99
421.91	252.19
422.28	253.45
422.66	254.75
423.03	256.06
423.40	257.37
423.77	258.77
424.15	260.18
424.52	261.64
424.89	263.27
425.26	264.85
425.64	266.25
426.01	267.85
426.38	269.50
426.75	271.19
427.13	272.95
427.50	274.79
427.87	276.68
428.24	278.55
428.61	280.30
428.99	282.23
429.36	284.31
429.73	286.41
430.10	288.38
430.47	290.44
430.85	292.54
431.22	294.78
431.59	297.18
431.96	299.39
432.33	301.94
432.70	304.31
433.08	307.10
433.45	309.76
433.82	312.36
434.19	315.28
434.56	318.12
434.93	320.75
435.30	323.38
435.68	326.27
436.05	329.11
436.42	331.97
436.79	334.52
437.16	337.25
437.53	340.09
437.90	342.93
438.27	345.63
438.64	348.50
439.01	351.12
439.38	353.37
439.75	355.60
440.13	358.08
440.50	360.40
440.87	362.24
441.24	364.20
441.61	366.38
441.98	367.88
442.35	369.66
442.72	371.52
443.09	373.32
443.46	374.33
443.83	374.95
444.20	375.39
444.57	376.21
444.94	376.48
445.31	376.80
445.68	377.11
446.05	377.22
446.42	376.82
446.79	376.37
447.16	375.86
447.53	375.47
447.90	374.27
448.27	373.12
448.64	371.57
449.01	370.46
449.37	368.45
449.74	366.55
450.11	364.28
450.48	361.80
450.85	359.26
451.22	357.13
451.59	355.08
451.96	353.12
452.33	350.54
452.70	348.16
453.07	345.34
453.43	342.47
453.80	339.69
454.17	337.01
454.54	334.48
454.91	331.76
455.28	329.11
455.65	326.62
456.02	324.15
456.38	321.96
456.75	319.24
457.12	317.05
457.49	314.80
457.86	312.65
458.23	310.77
458.59	308.70
458.96	306.59
459.33	304.71
459.70	302.87
460.07	301.31
460.43	299.62
460.80	297.97
461.17	296.56
461.54	295.04
461.91	293.58
462.27	292.15
462.64	290.93
463.01	289.62
463.38	288.32
463.74	286.98
464.11	285.85
464.48	284.83
464.85	283.68
465.21	282.81
465.58	281.86
465.95	280.79
466.32	279.89
466.68	278.95
467.05	278.11
467.42	277.20
467.78	276.27
468.15	275.38
468.52	274.72
468.88	273.83
469.25	273.06
469.62	272.46
469.98	271.77
470.35	271.12
470.72	270.47
471.08	269.81
471.45	269.25
471.82	268.70
472.18	268.11
472.55	267.67
472.92	267.14
473.28	266.67
473.65	266.20
474.02	265.76
474.38	265.39
474.75	265.04
475.11	264.68
475.48	264.40
475.85	264.16
476.21	263.89
476.58	263.72
476.94	263.59
477.31	263.37
477.67	263.23
478.04	263.13
478.41	263.09
478.77	263.10
479.14	263.00
479.50	262.94
479.87	263.00
480.23	263.06
480.60	263.14
480.96	263.21
481.33	263.44
481.69	263.63
482.06	263.85
482.42	264.02
482.79	264.29
483.15	264.64
483.52	265.02
483.88	265.39
484.25	265.73
484.61	266.15
484.98	266.61
485.34	267.16
485.71	267.71
486.07	268.32
486.44	268.88
486.80	269.60
487.17	270.34
487.53	271.14
487.90	272.00
488.26	272.94
488.62	273.96
488.99	274.90
489.35	275.94
489.72	277.00
490.08	278.18
490.44	279.40
490.81	280.69
491.17	282.05
491.54	283.51
491.90	285.10
492.26	286.74
492.63	288.47
492.99	290.23
493.36	292.13
493.72	294.12
494.08	296.22
494.45	298.44
494.81	300.83
495.17	303.25
495.54	305.81
495.90	308.43
496.26	311.22
496.63	314.19
496.99	317.28
497.35	320.55
497.72	323.96
498.08	327.47
498.44	331.17
498.80	335.05
499.17	339.09
499.53	343.20
499.89	347.56
500.26	352.04
500.62	356.70
500.98	361.70
501.34	366.78
501.71	372.08
502.07	377.55
502.43	383.09
502.79	388.87
503.16	394.92
503.52	401.23
503.88	407.59
504.24	414.20
504.60	421.10
504.97	428.27
505.33	435.63
505.69	443.32
506.05	451.10
506.41	458.97
506.78	467.10
507.14	475.60
507.50	484.35
507.86	493.34
508.22	502.55
508.59	511.74
508.95	521.30
509.31	531.09
509.67	541.18
510.03	551.50
510.39	562.11
510.75	572.92
511.12	583.86
511.48	595.16
511.84	606.58
512.20	618.13
512.56	630.05
512.92	642.20
513.28	654.55
513.64	667.02
514.00	679.81
514.37	692.77
514.73	705.85
515.09	718.93
515.45	732.22
515.81	745.86
516.17	759.84
516.53	773.95
516.89	788.23
517.25	802.42
517.61	816.80
517.97	831.29
518.33	845.77
518.69	860.53
519.05	875.52
519.41	890.74
519.77	906.29
520.13	921.83
520.49	937.29
520.85	952.70
521.21	968.53
521.57	984.77
521.93	1000.63
522.29	1017.09
522.65	1033.35
523.01	1049.66
523.37	1065.67
523.73	1082.01
524.09	1098.19
524.45	1114.49
524.81	1131.30
525.17	1148.24
525.53	1165.19
525.89	1182.14
526.25	1198.97
526.61	1215.49
526.97	1232.40
527.33	1248.93
527.68	1265.59
528.04	1282.00
528.40	1298.77
528.76	1315.83
529.12	1332.49
529.48	1349.42
529.84	1365.48
530.20	1382.21
530.56	1399.34
530.91	1416.85
531.27	1433.52
531.63	1450.12
531.99	1466.77
532.35	1482.68
532.71	1498.71
533.07	1515.14
533.42	1531.15
533.78	1547.25
534.14	1563.60
534.50	1578.85
534.86	1594.78
535.21	1609.93
535.57	1626.12
535.93	1641.66
536.29	1656.55
536.65	1671.68
537.00	1686.59
537.36	1701.96
537.72	1716.53
538.08	1730.98
538.44	1744.90
538.79	1759.06
539.15	1772.82
539.51	1786.74
539.87	1801.21
540.22	1814.93
540.58	1828.81
540.94	1842.27
541.29	1855.40
541.65	1868.20
542.01	1881.67
542.37	1894.02
542.72	1906.53
543.08	1918.25
543.44	1930.72
543.79	1942.04
544.15	1953.12
544.51	1964.62
544.87	1975.58
545.22	1986.38
545.58	1996.70
545.94	2006.48
546.29	2016.42
546.65	2026.26
547.01	2035.40
547.36	2044.13
547.72	2052.72
548.07	2060.37
548.43	2068.51
548.79	2076.59
549.14	2084.07
549.50	2091.35
549.86	2099.14
550.21	2106.60
550.57	2113.97
550.92	2120.56
551.28	2127.63
551.64	2134.65
551.99	2141.26
552.35	2147.43
552.70	2153.61
553.06	2159.63
553.41	2165.94
553.77	2171.93
554.13	2178.01
554.48	2184.21
554.84	2189.65
555.19	2194.99
555.55	2200.22
555.90	2204.64
556.26	2209.30
556.61	2214.05
556.97	2218.31
557.32	2222.47
557.68	2226.50
558.03	2230.46
558.39	2234.18
558.74	2238.89
559.10	2242.69
559.45	2246.28
559.81	2250.65
560.16	2254.40
560.52	2257.48
560.87	2261.01
561.23	2263.55
561.58	2266.45
561.94	2268.97
562.29	2271.36
562.64	2273.96
563.00	2276.59
563.35	2280.13
563.71	2283.36
564.06	2286.40
564.42	2289.30
564.77	2291.75
565.12	2293.99
565.48	2296.00
565.83	2297.65
566.19	2298.77
566.54	2299.83
566.89	2301.00
567.25	2301.45
567.60	2302.85
567.96	2304.39
568.31	2305.04
568.66	2305.99
569.02	2306.49
569.37	2306.64
569.72	2307.49
570.08	2307.56
570.43	2307.45
570.78	2306.76
571.14	2305.15
571.49	2303.92
571.84	2303.33
572.20	2302.03
572.55	2300.87
572.90	2299.27
573.26	2297.95
573.61	2296.07
573.96	2294.08
574.31	2290.90
574.67	2287.87
575.02	2284.11
575.37	2280.78
575.72	2276.91
576.08	2273.73
576.43	2270.47
576.78	2266.84
577.13	2263.50
577.49	2260.33
577.84	2256.72
578.19	2252.93
578.54	2249.10
578.90	2244.69
579.25	2239.13
579.60	2234.09
579.95	2229.02
580.30	2223.79
580.66	2218.31
581.01	2213.35
581.36	2208.33
581.71	2204.10
582.06	2199.51
582.42	2194.90
582.77	2189.47
583.12	2184.78
583.47	2179.74
583.82	2174.33
584.17	2168.85
584.53	2163.24
584.88	2157.48
585.23	2151.69
585.58	2146.13
585.93	2140.65
586.28	2135.87
586.63	2130.65
586.98	2125.40
587.34	2120.65
587.69	2115.79
588.04	2110.50
588.39	2104.69
588.74	2098.09
589.09	2091.80
589.44	2084.85
589.79	2078.81
590.14	2073.08
590.49	2066.55
590.84	2060.07
591.19	2053.94
591.54	2047.53
591.89	2040.02
592.25	2033.15
592.60	2025.75
592.95	2017.93
593.30	2010.47
593.65	2002.60
594.00	1995.51
594.35	1988.32
594.70	1980.18
595.05	1972.74
595.40	1965.55
595.75	1958.01
596.10	1951.71
596.45	1944.75
596.80	1938.58
597.15	1931.82
597.50	1924.54
597.85	1917.97
598.19	1911.27
598.54	1904.27
598.89	1897.54
599.24	1891.70
599.59	1884.88
599.94	1878.71
600.29	1872.43
600.64	1865.92
600.99	1858.49
601.34	1851.62
601.69	1844.58
602.04	1837.61
602.39	1830.32
602.74	1823.43
603.08	1816.73
603.43	1809.96
603.78	1802.77
604.13	1795.49
604.48	1788.15
604.83	1781.43
605.18	1774.35
605.53	1766.26
605.87	1758.16
606.22	1750.97
606.57	1742.94
606.92	1735.62
607.27	1728.41
607.62	1721.40
607.96	1714.01
608.31	1707.37
608.66	1699.68
609.01	1692.09
609.36	1684.50
609.70	1676.46
610.05	1668.27
610.40	1660.40
610.75	1652.14
611.10	1644.49
611.44	1636.13
611.79	1628.27
612.14	1619.61
612.49	1610.61
612.83	1602.28
613.18	1594.21
613.53	1586.02
613.88	1577.46
614.22	1569.24
614.57	1560.69
614.92	1552.66
615.27	1545.02
615.61	1536.77
615.96	1528.87
616.31	1521.24
616.65	1513.84
617.00	1506.35
617.35	1498.70
617.70	1490.42
618.04	1481.88
618.39	1473.63
618.74	1465.97
619.08	1457.65
619.43	1450.09
619.78	1443.10
620.12	1435.95
620.47	1428.32
620.82	1420.22
621.16	1412.85
621.51	1405.14
621.85	1397.45
622.20	1388.90
622.55	1380.63
622.89	1372.70
623.24	1365.11
623.59	1357.69
623.93	1350.16
624.28	1342.95
624.62	1335.54
624.97	1328.36
625.32	1321.62
625.66	1314.57
626.01	1307.38
626.35	1299.82
626.70	1292.06
627.04	1284.25
627.39	1276.53
627.73	1269.21
628.08	1262.17
628.43	1254.79
628.77	1247.36
629.12	1239.80
629.46	1232.68
629.81	1225.28
630.15	1218.16
630.50	1210.71
630.84	1202.56
631.19	1194.75
631.53	1187.19
631.88	1179.53
632.22	1171.99
632.57	1164.70
632.91	1157.23
633.26	1149.86
633.60	1142.60
633.95	1135.50
634.29	1128.53
634.64	1121.81
634.98	1114.53
635.32	1107.60
635.67	1101.12
636.01	1094.55
636.36	1087.79
636.70	1081.38
637.05	1074.89
637.39	1068.38
637.73	1061.88
638.08	1056.12
638.42	1050.18
638.77	1043.77
639.11	1037.31
639.45	1030.96
639.80	1024.30
640.14	1017.87
640.49	1011.37
640.83	1005.16
641.17	998.88
641.52	992.56
641.86	986.16
642.20	980.38
642.55	974.10
642.89	967.55
643.23	961.02
643.58	955.20
643.92	948.86
644.26	942.70
644.61	936.76
644.95	930.74
645.29	924.09
645.64	917.31
645.98	910.98
646.32	905.11
646.66	899.09
647.01	893.31
647.35	887.66
647.69	881.84
648.04	876.21
648.38	870.42
648.72	864.36
649.06	858.34
649.41	852.37
649.75	846.28
650.09	840.36
650.43	834.67
650.78	828.54
651.12	822.67
651.46	816.98
651.80	811.15
652.14	805.71
652.49	800.35
652.83	795.15
653.17	789.51
653.51	783.76
653.85	778.29
654.20	772.67
654.54	766.64
654.88	760.93
655.22	755.10
655.56	749.51
655.90	744.15
656.25	738.87
656.59	733.58
656.93	728.52
657.27	723.42
657.61	717.98
657.95	712.91
658.29	707.89
658.64	702.68
658.98	697.44
659.32	692.03
659.66	686.84
660.00	681.62
660.34	676.63
660.68	671.79
661.02	666.84
661.36	662.10
661.70	657.64
662.05	653.25
662.39	648.92
662.73	644.46
663.07	640.03
663.41	635.52
663.75	630.95
664.09	626.38
664.43	621.97
664.77	617.80
665.11	613.53
665.45	609.37
665.79	605.28
666.13	601.14
666.47	597.09
666.81	592.93
667.15	588.81
667.49	584.92
667.83	581.08
668.17	577.18
668.51	573.10
668.85	569.17
669.19	565.37
669.53	561.47
669.87	557.58
670.21	553.91
670.55	550.39
670.89	547.01
671.23	543.68
671.57	540.19
671.91	536.72
672.25	533.32
672.58	529.80
672.92	526.48
673.26	523.39
673.60	520.27
673.94	517.18
674.28	514.30
674.62	511.42
674.96	508.34
675.30	505.44
675.64	502.58
675.97	499.79
676.31	496.91
676.65	494.08
676.99	491.46
677.33	488.69
677.67	485.85
678.01	482.87
678.34	479.87
678.68	477.02
679.02	474.18
679.36	471.46
679.70	468.80
680.04	466.00
680.37	463.08
680.71	460.26
681.05	457.67
681.39	454.92
681.73	452.25
682.06	449.76
682.40	447.20
682.74	444.71
683.08	442.14
683.42	439.58
683.75	437.06
684.09	434.48
684.43	432.00
684.77	429.60
685.10	427.22
685.44	424.96
685.78	422.68
686.12	420.44
686.45	418.09
686.79	415.77
687.13	413.59
687.46	411.48
687.80	409.37
688.14	407.10
688.48	405.05
688.81	402.81
689.15	400.66
689.49	398.53
689.82	396.45
690.16	394.39
690.50	392.41
690.83	390.46
691.17	388.48
691.51	386.57
691.84	384.71
692.18	382.80
692.52	380.78
692.85	378.85
693.19	377.04
693.52	375.23
693.86	373.44
694.20	371.65
694.53	369.83
694.87	367.97
695.21	366.24
695.54	364.41
695.88	362.66
696.21	360.94
696.55	359.25
696.88	357.55
697.22	355.93
697.56	354.32
697.89	352.65
698.23	351.03
698.56	349.40
698.90	347.75
699.23	346.08
699.57	344.53
699.90	343.01
700.24	341.44
700.58	339.89
700.91	338.33
701.25	336.89
701.58	335.50
701.92	334.13
702.25	332.75
702.59	331.37
702.92	330.05
703.26	328.75
703.59	327.44
703.93	326.25
704.26	324.98
704.60	323.67
704.93	322.41
705.26	321.17
705.60	320.02
705.93	318.89
706.27	317.92
706.60	316.88
706.94	315.78
707.27	314.66
707.61	313.60
707.94	312.65
708.27	311.58
708.61	310.47
708.94	309.50
709.28	308.48
709.61	307.53
709.94	306.63
710.28	305.62
710.61	304.67
710.95	303.64
711.28	302.74
711.61	301.82
711.95	300.89
712.28	299.97
712.61	298.97
712.95	297.99
713.28	297.10
713.61	296.17
713.95	295.27
714.28	294.43
714.61	293.55
714.95	292.67
715.28	291.80
715.61	290.97
715.95	290.08
716.28	289.27
716.61	288.45
716.95	287.63
717.28	286.85
717.61	286.11
717.94	285.34
718.28	284.51
718.61	283.77
718.94	283.15
719.27	282.49
719.61	281.85
719.94	281.23
720.27	280.49
720.60	279.84
720.94	279.24
721.27	278.64
721.60	278.09
721.93	277.50
722.27	276.99
722.60	276.43
722.93	275.89
723.26	275.35
723.59	274.79
723.93	274.25
724.26	273.68
724.59	273.09
724.92	272.60
725.25	272.13
725.59	271.64
725.92	271.09
726.25	270.62
726.58	270.12
726.91	269.66
727.24	269.23
727.57	268.79
727.91	268.27
728.24	267.80
728.57	267.32
728.90	266.87
729.23	266.38
729.56	265.94
729.89	265.49
730.22	265.04
730.55	264.59
730.89	264.18
731.22	263.74
731.55	263.30
731.88	262.89
732.21	262.48
732.54	262.06
732.87	261.64
733.20	261.19
733.53	260.82
733.86	260.42
734.19	260.00
734.52	259.62
734.85	259.29
735.18	258.87
735.51	258.52
735.84	258.13
736.17	257.78
736.50	257.38
736.83	257.13
737.16	256.76
737.49	256.42
737.82	256.08
738.15	255.75
738.48	255.47
738.81	255.13
739.14	254.77
739.47	254.42
739.80	254.13
740.13	253.85
740.46	253.52
740.79	253.21
741.12	252.91
741.45	252.56
741.78	252.24
742.11	252.00
742.44	251.65
742.77	251.37
743.10	251.06
743.43	250.78
743.75	250.40
744.08	250.27
744.41	250.00
744.74	249.70
745.07	249.44
745.40	249.20
745.73	248.94
746.06	248.67
746.39	248.42
746.71	248.16
747.04	247.94
747.37	247.68
747.70	247.42
748.03	247.15
748.36	246.96
748.68	246.71
749.01	246.46
749.34	246.26
749.67	246.08
750.00	245.84
750.33	245.67
750.65	245.49
750.98	245.13
751.31	244.91
751.64	244.71
751.97	244.54
752.29	244.30
752.62	244.03
752.95	243.85
753.28	243.63
753.60	243.38
753.93	243.17
754.26	242.98
754.59	242.76
754.91	242.58
755.24	242.38
755.57	242.20
755.90	242.03
756.22	241.82
756.55	241.58
756.88	241.41
757.20	241.19
757.53	241.01
757.86	240.86
758.19	240.72
758.51	240.55
758.84	240.34
759.17	240.16
759.49	240.05
759.82	239.92
760.15	239.79
760.47	239.65
760.80	239.44
761.13	239.33
761.45	239.18
761.78	239.03
762.11	238.89
762.43	238.72
762.76	238.55
763.08	238.43
763.41	238.29
763.74	238.15
764.06	238.02
764.39	237.85
764.71	237.68
765.04	237.51
765.37	237.38
765.69	237.21
766.02	237.07
766.34	236.92
766.67	236.77
767.00	236.66
767.32	236.59
767.65	236.53
767.97	236.40
768.30	236.30
768.62	236.20
768.95	236.03
769.27	235.93
769.60	235.84
769.92	235.73
770.25	235.63
770.57	235.53
770.90	235.39
771.22	235.29
771.55	235.21
771.87	235.15
772.20	235.07
772.52	235.12
772.85	235.16
773.17	235.11
773.50	235.00
773.82	234.91
774.15	234.79
774.47	234.65
774.80	234.55
775.12	234.45
775.45	234.36
775.77	234.29
776.09	234.21
776.42	234.12
776.74	234.06
777.07	234.01
777.39	233.94
777.72	233.86
778.04	233.81
778.36	233.73
778.69	233.61
779.01	233.54
779.33	233.36
779.66	233.20
779.98	233.09
780.31	233.05
780.63	233.03
780.95	232.98
781.28	232.91
781.60	232.82
781.92	232.78
782.25	232.72
782.57	232.69
782.89	232.63
783.22	232.57
783.54	232.47
783.86	232.41
784.19	232.36
784.51	232.33
784.83	232.25
785.16	232.19
785.48	232.14
785.80	232.07
786.12	232.04
786.45	231.96
786.77	231.91
787.09	231.83
