SpectraSuite Data File
++++++++++++++++++++++++++++++++++++
Date: Fri Feb 01 15:25:40 EST 2013
User: group
Dark Spectrum Present: No
Reference Spectrum Present: No
Number of Sampled Component Spectra: 1
Spectrometers: USB2E7196
Integration Time (usec): 35000 (USB2E7196)
Spectra Averaged: 100 (USB2E7196)
Boxcar Smoothing: 10 (USB2E7196)
Correct for Electrical Dark: No (USB2E7196)
Strobe/Lamp Enabled: No (USB2E7196)
Correct for Detector Non-linearity: No (USB2E7196)
Correct for Stray Light: No (USB2E7196)
Number of Pixels in Processed Spectrum: 2048
>>>>>Begin Processed Spectral Data<<<<<
339.09	0.00
339.48	215.43
339.86	216.55
340.24	218.17
340.63	219.26
341.01	222.78
341.39	222.84
341.78	223.88
342.16	224.48
342.54	225.26
342.93	213.59
343.31	224.40
343.69	224.95
344.07	225.40
344.46	225.81
344.84	226.21
345.22	226.40
345.60	226.60
345.99	226.75
346.37	226.89
346.75	226.98
347.13	227.10
347.52	227.16
347.90	227.26
348.28	227.30
348.66	227.31
349.05	227.30
349.43	227.31
349.81	227.34
350.19	227.42
350.57	227.47
350.96	227.54
351.34	227.61
351.72	227.67
352.10	227.78
352.48	227.86
352.87	227.92
353.25	228.01
353.63	228.08
354.01	228.16
354.39	228.23
354.77	228.30
355.15	228.36
355.54	228.41
355.92	228.44
356.30	228.50
356.68	228.68
357.06	228.77
357.44	228.85
357.82	228.92
358.20	228.96
358.58	229.03
358.97	229.09
359.35	229.13
359.73	229.20
360.11	229.23
360.49	229.30
360.87	229.33
361.25	229.39
361.63	229.45
362.01	229.50
362.39	229.55
362.77	229.57
363.15	229.57
363.53	229.60
363.91	229.60
364.29	229.61
364.67	229.50
365.05	229.50
365.43	229.52
365.81	229.52
366.19	229.57
366.57	229.60
366.95	229.59
367.33	229.56
367.71	229.57
368.09	229.56
368.47	229.50
368.85	229.45
369.23	229.44
369.61	229.38
369.99	229.36
370.37	229.31
370.75	229.34
371.13	229.29
371.51	229.25
371.89	229.22
372.27	229.20
372.65	229.15
373.03	229.06
373.41	228.97
373.78	228.89
374.16	228.79
374.54	228.68
374.92	228.60
375.30	228.53
375.68	228.41
376.06	228.38
376.44	228.34
376.82	228.27
377.19	228.21
377.57	228.11
377.95	228.01
378.33	227.92
378.71	227.77
379.09	227.69
379.47	227.60
379.84	227.49
380.22	227.41
380.60	227.31
380.98	227.24
381.36	227.17
381.73	227.08
382.11	227.02
382.49	226.96
382.87	226.90
383.25	226.86
383.62	226.95
384.00	226.83
384.38	226.74
384.76	226.71
385.13	226.66
385.51	226.62
385.89	226.57
386.27	226.55
386.64	226.52
387.02	226.45
387.40	226.40
387.78	226.39
388.15	226.34
388.53	226.33
388.91	226.32
389.29	226.31
389.66	226.33
390.04	226.32
390.42	226.26
390.79	226.23
391.17	226.21
391.55	226.08
391.92	226.10
392.30	226.12
392.68	226.13
393.05	226.14
393.43	226.17
393.81	226.21
394.18	226.17
394.56	226.25
394.94	226.32
395.31	226.36
395.69	226.42
396.06	226.47
396.44	226.50
396.82	226.53
397.19	226.62
397.57	226.70
397.95	226.76
398.32	226.82
398.70	226.90
399.07	227.00
399.45	227.08
399.82	227.15
400.20	227.21
400.58	227.26
400.95	227.34
401.33	227.45
401.70	227.62
402.08	227.73
402.45	227.77
402.83	227.90
403.20	228.02
403.58	228.13
403.95	228.27
404.33	228.46
404.71	228.61
405.08	228.80
405.46	228.91
405.83	229.04
406.21	229.21
406.58	229.38
406.96	229.55
407.33	229.73
407.70	229.94
408.08	230.22
408.45	230.45
408.83	230.69
409.20	230.88
409.58	231.03
409.95	231.30
410.33	231.60
410.70	231.83
411.08	232.13
411.45	232.44
411.82	232.75
412.20	233.06
412.57	233.47
412.95	233.76
413.32	234.15
413.69	234.56
414.07	234.96
414.44	235.42
414.82	235.86
415.19	236.39
415.56	236.92
415.94	237.47
416.31	238.09
416.68	238.67
417.06	239.38
417.43	240.06
417.81	240.82
418.18	241.58
418.55	242.39
418.93	243.25
419.30	244.11
419.67	245.06
420.04	246.00
420.42	246.99
420.79	248.17
421.16	249.32
421.54	250.55
421.91	251.75
422.28	253.00
422.66	254.33
423.03	255.64
423.40	256.99
423.77	258.38
424.15	259.80
424.52	261.33
424.89	262.92
425.26	264.47
425.64	265.90
426.01	267.51
426.38	269.20
426.75	270.87
427.13	272.62
427.50	274.39
427.87	276.27
428.24	278.11
428.61	279.83
428.99	281.78
429.36	283.82
429.73	285.90
430.10	287.96
430.47	290.04
430.85	292.13
431.22	294.34
431.59	296.70
431.96	298.95
432.33	301.43
432.70	303.78
433.08	306.61
433.45	309.25
433.82	311.86
434.19	314.74
434.56	317.51
434.93	320.19
435.30	322.81
435.68	325.71
436.05	328.56
436.42	331.37
436.79	333.92
437.16	336.62
437.53	339.51
437.90	342.33
438.27	345.06
438.64	347.93
439.01	350.57
439.38	352.85
439.75	355.06
440.13	357.55
440.50	359.97
440.87	361.82
441.24	363.83
441.61	366.04
441.98	367.56
442.35	369.46
442.72	371.31
443.09	373.12
443.46	374.13
443.83	374.74
444.20	375.29
444.57	376.13
444.94	376.46
445.31	376.78
445.68	377.08
446.05	377.16
446.42	376.76
446.79	376.29
447.16	375.85
447.53	375.53
447.90	374.38
448.27	373.19
448.64	371.65
449.01	370.53
449.37	368.52
449.74	366.64
450.11	364.37
450.48	361.90
450.85	359.38
451.22	357.21
451.59	355.18
451.96	353.23
452.33	350.63
452.70	348.23
453.07	345.40
453.43	342.51
453.80	339.79
454.17	337.14
454.54	334.62
454.91	331.84
455.28	329.16
455.65	326.65
456.02	324.20
456.38	322.00
456.75	319.31
457.12	317.07
457.49	314.83
457.86	312.62
458.23	310.75
458.59	308.66
458.96	306.59
459.33	304.71
459.70	302.83
460.07	301.31
460.43	299.60
460.80	297.99
461.17	296.52
461.54	294.97
461.91	293.49
462.27	292.05
462.64	290.82
463.01	289.44
463.38	288.10
463.74	286.70
464.11	285.50
464.48	284.45
464.85	283.31
465.21	282.46
465.58	281.53
465.95	280.44
466.32	279.55
466.68	278.67
467.05	277.77
467.42	276.86
467.78	275.90
468.15	275.04
468.52	274.32
468.88	273.47
469.25	272.70
469.62	272.08
469.98	271.34
470.35	270.70
470.72	270.06
471.08	269.44
471.45	268.91
471.82	268.40
472.18	267.78
472.55	267.33
472.92	266.76
473.28	266.26
473.65	265.81
474.02	265.38
474.38	264.97
474.75	264.64
475.11	264.30
475.48	264.05
475.85	263.83
476.21	263.63
476.58	263.45
476.94	263.31
477.31	263.12
477.67	262.99
478.04	262.85
478.41	262.82
478.77	262.85
479.14	262.77
479.50	262.74
479.87	262.80
480.23	262.88
480.60	262.93
480.96	263.03
481.33	263.25
481.69	263.44
482.06	263.65
482.42	263.84
482.79	264.08
483.15	264.39
483.52	264.75
483.88	265.06
484.25	265.49
484.61	265.94
484.98	266.43
485.34	267.01
485.71	267.64
486.07	268.22
486.44	268.81
486.80	269.56
487.17	270.30
487.53	271.10
487.90	271.98
488.26	272.94
488.62	273.95
488.99	274.90
489.35	275.98
489.72	277.10
490.08	278.34
490.44	279.57
490.81	280.93
491.17	282.28
491.54	283.80
491.90	285.32
492.26	286.96
492.63	288.69
492.99	290.48
493.36	292.39
493.72	294.48
494.08	296.58
494.45	298.82
494.81	301.23
495.17	303.70
495.54	306.24
495.90	308.92
496.26	311.74
496.63	314.73
496.99	317.79
497.35	321.09
497.72	324.46
498.08	327.99
498.44	331.63
498.80	335.53
499.17	339.56
499.53	343.71
499.89	348.07
500.26	352.60
500.62	357.26
500.98	362.20
501.34	367.28
501.71	372.63
502.07	378.06
502.43	383.67
502.79	389.47
503.16	395.54
503.52	401.78
503.88	408.20
504.24	414.83
504.60	421.71
504.97	428.78
505.33	436.13
505.69	443.85
506.05	451.58
506.41	459.47
506.78	467.64
507.14	476.08
507.50	484.81
507.86	493.74
508.22	502.87
508.59	512.03
508.95	521.54
509.31	531.29
509.67	541.38
510.03	551.64
510.39	562.21
510.75	573.00
511.12	584.00
511.48	595.25
511.84	606.68
512.20	618.21
512.56	630.19
512.92	642.34
513.28	654.69
513.64	667.25
514.00	680.00
514.37	692.93
514.73	705.95
515.09	718.99
515.45	732.32
515.81	745.91
516.17	759.97
516.53	774.08
516.89	788.30
517.25	802.45
517.61	816.96
517.97	831.46
518.33	845.95
518.69	860.80
519.05	875.84
519.41	891.05
519.77	906.71
520.13	922.12
520.49	937.58
520.85	952.98
521.21	968.73
521.57	984.92
521.93	1000.78
522.29	1017.29
522.65	1033.48
523.01	1049.89
523.37	1066.07
523.73	1082.35
524.09	1098.57
524.45	1114.99
524.81	1131.72
525.17	1148.60
525.53	1165.54
525.89	1182.43
526.25	1199.14
526.61	1215.53
526.97	1232.30
527.33	1248.69
527.68	1265.44
528.04	1281.89
528.40	1298.63
528.76	1315.56
529.12	1332.33
529.48	1349.25
529.84	1365.33
530.20	1382.10
530.56	1399.11
530.91	1416.55
531.27	1433.31
531.63	1449.78
531.99	1466.34
532.35	1482.36
532.71	1498.27
533.07	1514.51
533.42	1530.53
533.78	1546.63
534.14	1562.95
534.50	1578.20
534.86	1594.19
535.21	1609.46
535.57	1625.56
535.93	1641.00
536.29	1655.98
536.65	1671.02
537.00	1685.94
537.36	1701.35
537.72	1715.98
538.08	1730.43
538.44	1744.31
538.79	1758.33
539.15	1772.10
539.51	1785.87
539.87	1800.35
540.22	1814.25
540.58	1828.27
540.94	1841.71
541.29	1854.89
541.65	1867.74
542.01	1881.26
542.37	1893.68
542.72	1906.06
543.08	1917.75
543.44	1930.31
543.79	1941.65
544.15	1952.69
544.51	1964.16
544.87	1975.05
545.22	1985.93
545.58	1996.18
545.94	2006.10
546.29	2016.03
546.65	2025.88
547.01	2035.17
547.36	2043.88
547.72	2052.31
548.07	2060.14
548.43	2068.31
548.79	2076.34
549.14	2083.87
549.50	2091.22
549.86	2098.84
550.21	2106.26
550.57	2113.54
550.92	2119.98
551.28	2127.14
551.64	2134.28
551.99	2140.95
552.35	2147.18
552.70	2153.17
553.06	2159.15
553.41	2165.43
553.77	2171.46
554.13	2177.54
554.48	2183.74
554.84	2189.20
555.19	2194.46
555.55	2199.49
555.90	2203.89
556.26	2208.63
556.61	2213.36
556.97	2217.48
557.32	2221.79
557.68	2225.93
558.03	2230.22
558.39	2234.07
558.74	2238.60
559.10	2242.35
559.45	2245.88
559.81	2250.25
560.16	2254.21
560.52	2257.46
560.87	2260.86
561.23	2263.40
561.58	2266.49
561.94	2268.99
562.29	2271.36
562.64	2274.11
563.00	2276.82
563.35	2280.33
563.71	2283.52
564.06	2286.65
564.42	2289.58
564.77	2292.00
565.12	2294.14
565.48	2295.92
565.83	2297.61
566.19	2298.84
566.54	2299.85
566.89	2301.08
567.25	2301.57
567.60	2302.74
567.96	2304.24
568.31	2304.96
568.66	2306.01
569.02	2306.42
569.37	2306.61
569.72	2307.41
570.08	2307.38
570.43	2307.31
570.78	2306.50
571.14	2304.92
571.49	2303.64
571.84	2303.29
572.20	2301.98
572.55	2300.94
572.90	2299.42
573.26	2298.14
573.61	2296.46
573.96	2294.50
574.31	2291.49
574.67	2288.48
575.02	2284.85
575.37	2281.43
575.72	2277.51
576.08	2274.13
576.43	2270.84
576.78	2267.09
577.13	2263.98
577.49	2260.86
577.84	2257.22
578.19	2253.49
578.54	2249.74
578.90	2245.30
579.25	2239.65
579.60	2234.64
579.95	2229.45
580.30	2224.50
580.66	2219.20
581.01	2214.25
581.36	2209.31
581.71	2204.96
582.06	2200.35
582.42	2195.74
582.77	2190.57
583.12	2185.90
583.47	2181.12
583.82	2175.94
584.17	2170.82
584.53	2165.04
584.88	2159.17
585.23	2153.39
585.58	2147.81
585.93	2142.23
586.28	2137.45
586.63	2132.32
586.98	2127.09
587.34	2122.47
587.69	2117.30
588.04	2111.96
588.39	2106.04
588.74	2099.50
589.09	2093.24
589.44	2086.38
589.79	2080.34
590.14	2074.55
590.49	2067.92
590.84	2061.41
591.19	2055.32
591.54	2048.76
591.89	2041.17
592.25	2034.36
592.60	2027.06
592.95	2019.45
593.30	2011.99
593.65	2004.18
594.00	1997.08
594.35	1989.91
594.70	1981.87
595.05	1974.57
595.40	1967.29
595.75	1959.85
596.10	1953.49
596.45	1946.57
596.80	1940.36
597.15	1933.62
597.50	1926.44
597.85	1919.91
598.19	1913.18
598.54	1906.00
598.89	1899.32
599.24	1893.62
599.59	1886.83
599.94	1880.54
600.29	1874.25
600.64	1867.72
600.99	1860.31
601.34	1853.40
601.69	1846.36
602.04	1839.26
602.39	1831.80
602.74	1824.82
603.08	1818.04
603.43	1811.27
603.78	1804.21
604.13	1796.93
604.48	1789.60
604.83	1782.83
605.18	1775.82
605.53	1767.84
605.87	1759.77
606.22	1752.40
606.57	1744.40
606.92	1737.17
607.27	1729.96
607.62	1723.06
607.96	1715.72
608.31	1709.03
608.66	1701.27
609.01	1693.67
609.36	1686.16
609.70	1678.16
610.05	1670.06
610.40	1662.27
610.75	1654.05
611.10	1646.18
611.44	1637.83
611.79	1629.90
612.14	1621.13
612.49	1612.15
612.83	1603.81
613.18	1595.69
613.53	1587.65
613.88	1579.09
614.22	1570.84
614.57	1562.24
614.92	1554.09
615.27	1546.44
615.61	1538.15
615.96	1530.37
616.31	1522.69
616.65	1515.26
617.00	1507.84
617.35	1500.18
617.70	1491.85
618.04	1483.25
618.39	1475.03
618.74	1467.35
619.08	1459.02
619.43	1451.51
619.78	1444.53
620.12	1437.42
620.47	1429.92
620.82	1421.79
621.16	1414.36
621.51	1406.69
621.85	1399.16
622.20	1390.61
622.55	1382.35
622.89	1374.56
623.24	1366.85
623.59	1359.60
623.93	1352.04
624.28	1344.83
624.62	1337.39
624.97	1330.24
625.32	1323.57
625.66	1316.53
626.01	1309.44
626.35	1301.99
626.70	1294.28
627.04	1286.51
627.39	1278.59
627.73	1271.24
628.08	1264.23
628.43	1256.95
628.77	1249.53
629.12	1241.93
629.46	1234.86
629.81	1227.41
630.15	1220.22
630.50	1212.83
630.84	1204.54
631.19	1196.73
631.53	1189.17
631.88	1181.67
632.22	1174.03
632.57	1166.67
632.91	1159.18
633.26	1151.67
633.60	1144.43
633.95	1137.32
634.29	1130.40
634.64	1123.82
634.98	1116.45
635.32	1109.40
635.67	1102.83
636.01	1096.19
636.36	1089.34
636.70	1082.83
637.05	1076.30
637.39	1069.85
637.73	1063.30
638.08	1057.43
638.42	1051.36
638.77	1044.87
639.11	1038.09
639.45	1031.79
639.80	1025.22
640.14	1018.73
640.49	1012.23
640.83	1005.87
641.17	999.54
641.52	993.11
641.86	986.76
642.20	980.87
642.55	974.49
642.89	967.93
643.23	961.49
643.58	955.81
643.92	949.54
644.26	943.55
644.61	937.47
644.95	931.44
645.29	924.89
645.64	918.18
645.98	911.97
646.32	906.34
646.66	900.22
647.01	894.27
647.35	888.64
647.69	882.78
648.04	877.26
648.38	871.47
648.72	865.43
649.06	859.22
649.41	853.33
649.75	847.34
650.09	841.41
650.43	835.50
650.78	829.30
651.12	823.41
651.46	817.56
651.80	811.77
652.14	806.39
652.49	800.99
652.83	795.83
653.17	789.99
653.51	784.12
653.85	778.74
654.20	773.22
654.54	767.25
654.88	761.63
655.22	755.68
655.56	749.94
655.90	744.53
656.25	739.32
656.59	734.04
656.93	728.92
657.27	723.77
657.61	718.42
657.95	713.30
658.29	708.24
658.64	703.02
658.98	697.80
659.32	692.31
659.66	687.07
660.00	681.74
660.34	676.91
660.68	672.10
661.02	667.09
661.36	662.37
661.70	657.85
662.05	653.42
662.39	649.07
662.73	644.70
663.07	640.33
663.41	635.91
663.75	631.42
664.09	626.87
664.43	622.54
664.77	618.45
665.11	614.23
665.45	610.08
665.79	606.08
666.13	601.89
666.47	597.92
666.81	593.82
667.15	589.73
667.49	585.81
667.83	582.00
668.17	578.07
668.51	574.02
668.85	569.99
669.19	566.23
669.53	562.49
669.87	558.60
670.21	554.93
670.55	551.25
670.89	547.83
671.23	544.41
671.57	540.91
671.91	537.39
672.25	533.91
672.58	530.37
672.92	526.99
673.26	523.87
673.60	520.73
673.94	517.64
674.28	514.74
674.62	511.82
674.96	508.70
675.30	505.75
675.64	502.82
675.97	500.07
676.31	497.14
676.65	494.18
676.99	491.47
677.33	488.62
677.67	485.84
678.01	482.77
678.34	479.87
678.68	477.00
679.02	474.14
679.36	471.37
679.70	468.70
680.04	465.87
680.37	462.95
680.71	460.08
681.05	457.43
681.39	454.76
681.73	452.07
682.06	449.57
682.40	447.07
682.74	444.60
683.08	442.03
683.42	439.45
683.75	436.99
684.09	434.43
684.43	431.97
684.77	429.52
685.10	427.21
685.44	424.80
685.78	422.48
686.12	420.25
686.45	417.99
686.79	415.67
687.13	413.51
687.46	411.41
687.80	409.29
688.14	407.10
688.48	404.99
688.81	402.75
689.15	400.59
689.49	398.46
689.82	396.33
690.16	394.21
690.50	392.22
690.83	390.25
691.17	388.26
691.51	386.36
691.84	384.53
692.18	382.57
692.52	380.62
692.85	378.73
693.19	376.89
693.52	375.10
693.86	373.31
694.20	371.50
694.53	369.70
694.87	367.85
695.21	366.04
695.54	364.23
695.88	362.53
696.21	360.79
696.55	359.10
696.88	357.43
697.22	355.84
697.56	354.23
697.89	352.57
698.23	350.98
698.56	349.38
698.90	347.78
699.23	346.15
699.57	344.63
699.90	343.09
700.24	341.54
700.58	339.98
700.91	338.44
701.25	337.00
701.58	335.66
701.92	334.32
702.25	332.99
702.59	331.66
702.92	330.36
703.26	329.08
703.59	327.78
703.93	326.62
704.26	325.38
704.60	324.11
704.93	322.91
705.26	321.68
705.60	320.51
705.93	319.36
706.27	318.35
706.60	317.32
706.94	316.25
707.27	315.11
707.61	314.05
707.94	313.08
708.27	312.05
708.61	310.94
708.94	309.94
709.28	308.97
709.61	307.98
709.94	307.01
710.28	306.02
710.61	305.05
710.95	303.95
711.28	303.03
711.61	302.06
711.95	301.10
712.28	300.15
712.61	299.16
712.95	298.19
713.28	297.31
713.61	296.42
713.95	295.52
714.28	294.71
714.61	293.87
714.95	293.02
715.28	292.11
715.61	291.26
715.95	290.46
716.28	289.57
716.61	288.77
716.95	287.97
717.28	287.20
717.61	286.45
717.94	285.73
718.28	284.92
718.61	284.24
718.94	283.54
719.27	282.91
719.61	282.28
719.94	281.68
720.27	280.94
720.60	280.27
720.94	279.65
721.27	279.04
721.60	278.47
721.93	277.89
722.27	277.36
722.60	276.81
722.93	276.23
723.26	275.68
723.59	275.11
723.93	274.56
724.26	274.04
724.59	273.49
724.92	272.95
725.25	272.49
725.59	271.95
725.92	271.46
726.25	270.96
726.58	270.47
726.91	269.94
727.24	269.46
727.57	269.00
727.91	268.50
728.24	268.01
728.57	267.50
728.90	267.01
729.23	266.48
729.56	266.09
729.89	265.57
730.22	265.08
730.55	264.60
730.89	264.16
731.22	263.71
731.55	263.25
731.88	262.84
732.21	262.40
732.54	261.97
732.87	261.51
733.20	261.05
733.53	260.65
733.86	260.25
734.19	259.86
734.52	259.49
734.85	259.16
735.18	258.76
735.51	258.41
735.84	258.05
736.17	257.70
736.50	257.25
736.83	257.02
737.16	256.69
737.49	256.34
737.82	255.95
738.15	255.62
738.48	255.29
738.81	254.94
739.14	254.62
739.47	254.29
739.80	254.00
740.13	253.74
740.46	253.40
740.79	253.06
741.12	252.78
741.45	252.47
741.78	252.09
742.11	251.83
742.44	251.44
742.77	251.17
743.10	250.89
743.43	250.60
743.75	250.23
744.08	250.08
744.41	249.83
744.74	249.58
745.07	249.30
745.40	249.10
745.73	248.90
746.06	248.58
746.39	248.30
746.71	248.04
747.04	247.76
747.37	247.52
747.70	247.31
748.03	247.04
748.36	246.80
748.68	246.57
749.01	246.32
749.34	246.15
749.67	245.92
750.00	245.70
750.33	245.58
750.65	245.37
750.98	245.05
751.31	244.82
751.64	244.62
751.97	244.43
752.29	244.20
752.62	243.95
752.95	243.78
753.28	243.63
753.60	243.44
753.93	243.23
754.26	243.02
754.59	242.78
754.91	242.57
755.24	242.42
755.57	242.25
755.90	242.03
756.22	241.81
756.55	241.62
756.88	241.44
757.20	241.16
757.53	240.96
757.86	240.79
758.19	240.64
758.51	240.49
758.84	240.27
759.17	240.08
759.49	239.90
759.82	239.76
760.15	239.59
760.47	239.45
760.80	239.31
761.13	239.18
761.45	239.04
761.78	238.92
762.11	238.73
762.43	238.57
762.76	238.44
763.08	238.34
763.41	238.20
763.74	238.04
764.06	237.91
764.39	237.79
764.71	237.65
765.04	237.51
765.37	237.34
765.69	237.23
766.02	237.09
766.34	236.98
766.67	236.84
767.00	236.74
767.32	236.62
767.65	236.53
767.97	236.41
768.30	236.32
768.62	236.21
768.95	236.08
769.27	235.96
769.60	235.84
769.92	235.70
770.25	235.56
770.57	235.43
770.90	235.30
771.22	235.16
771.55	235.07
771.87	234.96
772.20	234.89
772.52	234.87
772.85	234.88
773.17	234.77
773.50	234.68
773.82	234.55
774.15	234.46
774.47	234.31
774.80	234.18
775.12	234.10
775.45	233.97
775.77	233.90
776.09	233.83
776.42	233.76
776.74	233.69
777.07	233.62
777.39	233.57
777.72	233.52
778.04	233.47
778.36	233.40
778.69	233.31
779.01	233.23
779.33	233.09
779.66	232.91
779.98	232.86
780.31	232.79
780.63	232.75
780.95	232.68
781.28	232.63
781.60	232.58
781.92	232.50
782.25	232.45
782.57	232.43
782.89	232.35
783.22	232.30
783.54	232.28
783.86	232.19
784.19	232.13
784.51	232.08
784.83	232.01
785.16	231.96
785.48	231.93
785.80	231.89
786.12	231.84
786.45	231.82
786.77	231.79
787.09	231.74
